Database of Origin,ASTER / ECOSTRESS Spectral Library
Sample Description,ASTER / ECOSTRESS Medium Magnesiochromite
Other Information,mineral.oxide.none.medium.vswir.o-8a.jpl.beckman.spectrum.txt
Date Added,2018-06-29 20:04:36.526785

Data ID,ASTR_249            
Sample ID,O-8A
Mineral Name,Magnesiochromite
Locality,Canada/ Quebec/ Coleraine Township
Grain Size,45-125um
Formula,MgCr_2O_4
Material Class,oxide

Wavelength
401.0,0.054900000000000004
402.0,0.0554
403.0,0.0537
404.0,0.0536
405.0,0.0553
406.0,0.0542
407.0,0.0548
408.0,0.0547
409.0,0.0535
410.0,0.0548
411.0,0.0541
412.0,0.0547
413.0,0.0541
414.0,0.0548
415.0,0.0548
416.0,0.053
417.0,0.0542
418.0,0.0553
419.0,0.0542
420.0,0.0541
421.0,0.053399999999999996
422.0,0.0545
423.0,0.053899999999999997
424.0,0.0541
425.0,0.0542
426.0,0.0529
427.0,0.0535
428.0,0.053399999999999996
429.0,0.0546
430.0,0.0546
431.0,0.053399999999999996
432.0,0.0529
433.0,0.053399999999999996
434.0,0.0541
435.0,0.053399999999999996
436.0,0.053399999999999996
437.0,0.053899999999999997
438.0,0.055
439.0,0.0557
440.0,0.0545
441.0,0.053399999999999996
442.0,0.0535
443.0,0.0546
444.0,0.0547
445.0,0.0541
446.0,0.0535
447.0,0.053399999999999996
448.0,0.0545
449.0,0.0547
450.0,0.0545
451.0,0.0538
452.0,0.054000000000000006
453.0,0.055099999999999996
454.0,0.055
455.0,0.054400000000000004
456.0,0.0536
457.0,0.054000000000000006
458.0,0.0545
459.0,0.0556
460.0,0.0537
461.0,0.0541
462.0,0.0547
463.0,0.054000000000000006
464.0,0.054000000000000006
465.0,0.0541
466.0,0.0533
467.0,0.0538
468.0,0.0538
469.0,0.0537
470.0,0.053899999999999997
471.0,0.0533
472.0,0.053200000000000004
473.0,0.053399999999999996
474.0,0.053899999999999997
475.0,0.053899999999999997
476.0,0.0535
477.0,0.0535
478.0,0.053899999999999997
479.0,0.0533
480.0,0.053399999999999996
481.0,0.053399999999999996
482.0,0.0533
483.0,0.054000000000000006
484.0,0.0528
485.0,0.0533
486.0,0.053099999999999994
487.0,0.053
488.0,0.0536
489.0,0.0529
490.0,0.0535
491.0,0.053399999999999996
492.0,0.053399999999999996
493.0,0.053399999999999996
494.0,0.0533
495.0,0.054400000000000004
496.0,0.0538
497.0,0.0537
498.0,0.053099999999999994
499.0,0.053
500.0,0.0535
501.0,0.0528
502.0,0.0545
503.0,0.054400000000000004
504.0,0.0537
505.0,0.053099999999999994
506.0,0.0525
507.0,0.0548
508.0,0.0537
509.0,0.0537
510.0,0.0537
511.0,0.0526
512.0,0.0537
513.0,0.053099999999999994
514.0,0.053099999999999994
515.0,0.053200000000000004
516.0,0.0527
517.0,0.0538
518.0,0.0526
519.0,0.0526
520.0,0.053200000000000004
521.0,0.0533
522.0,0.053899999999999997
523.0,0.0526
524.0,0.0525
525.0,0.053099999999999994
526.0,0.053099999999999994
527.0,0.0537
528.0,0.0535
529.0,0.0528
530.0,0.0529
531.0,0.053
532.0,0.0518
533.0,0.051399999999999994
534.0,0.0513
535.0,0.0506
536.0,0.0506
537.0,0.0506
538.0,0.0501
539.0,0.0507
540.0,0.0507
541.0,0.05
542.0,0.050499999999999996
543.0,0.0504
544.0,0.050300000000000004
545.0,0.050199999999999995
546.0,0.0507
547.0,0.050499999999999996
548.0,0.0492
549.0,0.049699999999999994
550.0,0.050300000000000004
551.0,0.050199999999999995
552.0,0.050199999999999995
553.0,0.0496
554.0,0.0496
555.0,0.0496
556.0,0.0496
557.0,0.0504
558.0,0.049699999999999994
559.0,0.049400000000000006
560.0,0.0501
561.0,0.0518
562.0,0.0499
563.0,0.0506
564.0,0.0501
565.0,0.050499999999999996
566.0,0.051100000000000007
567.0,0.0499
568.0,0.0499
569.0,0.05
570.0,0.0501
571.0,0.0507
572.0,0.0495
573.0,0.0501
574.0,0.05
575.0,0.049800000000000004
576.0,0.0507
577.0,0.049699999999999994
578.0,0.050499999999999996
579.0,0.0507
580.0,0.052300000000000006
581.0,0.053399999999999996
582.0,0.052199999999999996
583.0,0.0535
584.0,0.0535
585.0,0.0536
586.0,0.0536
587.0,0.052300000000000006
588.0,0.0529
589.0,0.0529
590.0,0.053
591.0,0.0536
592.0,0.0518
593.0,0.0529
594.0,0.052300000000000006
595.0,0.053
596.0,0.0535
597.0,0.052199999999999996
598.0,0.0526
599.0,0.0528
600.0,0.053200000000000004
601.0,0.054000000000000006
602.0,0.0525
603.0,0.0535
604.0,0.053899999999999997
605.0,0.053200000000000004
606.0,0.0533
607.0,0.0516
608.0,0.053399999999999996
609.0,0.0541
610.0,0.0528
611.0,0.053399999999999996
612.0,0.052199999999999996
613.0,0.0538
614.0,0.0538
615.0,0.0538
616.0,0.0533
617.0,0.0527
618.0,0.054400000000000004
619.0,0.054400000000000004
620.0,0.0538
621.0,0.053899999999999997
622.0,0.052199999999999996
623.0,0.0533
624.0,0.0538
625.0,0.053099999999999994
626.0,0.053200000000000004
627.0,0.052000000000000005
628.0,0.053200000000000004
629.0,0.0527
630.0,0.053200000000000004
631.0,0.053200000000000004
632.0,0.0527
633.0,0.053399999999999996
634.0,0.054000000000000006
635.0,0.0533
636.0,0.053899999999999997
637.0,0.053200000000000004
638.0,0.053899999999999997
639.0,0.053899999999999997
640.0,0.0538
641.0,0.053200000000000004
642.0,0.0526
643.0,0.053200000000000004
644.0,0.053200000000000004
645.0,0.0533
646.0,0.0528
647.0,0.052199999999999996
648.0,0.053200000000000004
649.0,0.0538
650.0,0.054299999999999994
651.0,0.053099999999999994
652.0,0.0526
653.0,0.0538
654.0,0.053200000000000004
655.0,0.054299999999999994
656.0,0.053200000000000004
657.0,0.0516
658.0,0.053399999999999996
659.0,0.053399999999999996
660.0,0.0533
661.0,0.053200000000000004
662.0,0.0519
663.0,0.0537
664.0,0.0537
665.0,0.053099999999999994
666.0,0.053200000000000004
667.0,0.0519
668.0,0.0526
669.0,0.0526
670.0,0.0521
671.0,0.0528
672.0,0.0509
673.0,0.0521
674.0,0.0526
675.0,0.052000000000000005
676.0,0.0521
677.0,0.051500000000000004
678.0,0.0521
679.0,0.0521
680.0,0.052000000000000005
681.0,0.0526
682.0,0.051500000000000004
683.0,0.0527
684.0,0.052199999999999996
685.0,0.051500000000000004
686.0,0.052000000000000005
687.0,0.0508
688.0,0.051500000000000004
689.0,0.0526
690.0,0.0526
691.0,0.052000000000000005
692.0,0.0508
693.0,0.052000000000000005
694.0,0.0521
695.0,0.052199999999999996
696.0,0.052300000000000006
697.0,0.051100000000000007
698.0,0.052300000000000006
699.0,0.0521
700.0,0.0519
701.0,0.0518
702.0,0.0521
703.0,0.0527
704.0,0.0521
705.0,0.0526
706.0,0.0525
707.0,0.052000000000000005
708.0,0.0526
709.0,0.0526
710.0,0.053200000000000004
711.0,0.053200000000000004
712.0,0.0526
713.0,0.0526
714.0,0.0527
715.0,0.0533
716.0,0.053899999999999997
717.0,0.052000000000000005
718.0,0.0526
719.0,0.0527
720.0,0.053200000000000004
721.0,0.0538
722.0,0.0526
723.0,0.053099999999999994
724.0,0.0526
725.0,0.0527
726.0,0.0538
727.0,0.0526
728.0,0.0538
729.0,0.053200000000000004
730.0,0.0538
731.0,0.0537
732.0,0.053099999999999994
733.0,0.053200000000000004
734.0,0.053200000000000004
735.0,0.053899999999999997
736.0,0.0545
737.0,0.053200000000000004
738.0,0.053200000000000004
739.0,0.053099999999999994
740.0,0.053099999999999994
741.0,0.0548
742.0,0.053099999999999994
743.0,0.053200000000000004
744.0,0.053200000000000004
745.0,0.053200000000000004
746.0,0.054299999999999994
747.0,0.0536
748.0,0.0535
749.0,0.0526
750.0,0.053099999999999994
751.0,0.054299999999999994
752.0,0.0537
753.0,0.0537
754.0,0.053200000000000004
755.0,0.054299999999999994
756.0,0.0537
757.0,0.0537
758.0,0.053099999999999994
759.0,0.0537
760.0,0.0542
761.0,0.0541
762.0,0.053099999999999994
763.0,0.0526
764.0,0.0537
765.0,0.0547
766.0,0.0541
767.0,0.0541
768.0,0.053
769.0,0.0535
770.0,0.0541
771.0,0.053
772.0,0.053200000000000004
773.0,0.053099999999999994
774.0,0.0535
775.0,0.0541
776.0,0.0536
777.0,0.0536
778.0,0.0547
779.0,0.0552
780.0,0.0559
781.0,0.0548
782.0,0.0547
783.0,0.0546
784.0,0.0557
785.0,0.0559
786.0,0.0552
787.0,0.0546
788.0,0.0546
789.0,0.0552
790.0,0.0565
791.0,0.0552
792.0,0.0547
793.0,0.0546
794.0,0.0552
795.0,0.0564
796.0,0.055099999999999996
797.0,0.0552
798.0,0.0547
799.0,0.054400000000000004
800.0,0.0548
804.0,0.055
808.0,0.054400000000000004
812.0,0.054299999999999994
816.0,0.054400000000000004
820.0,0.054400000000000004
824.0,0.055
828.0,0.054900000000000004
832.0,0.054400000000000004
836.0,0.0545
840.0,0.0545
844.0,0.0545
848.0,0.0546
852.0,0.0545
856.0,0.0547
860.0,0.0547
864.0,0.0552
868.0,0.054900000000000004
872.0,0.0554
876.0,0.0553
880.0,0.0554
884.0,0.0548
888.0,0.0554
892.0,0.0554
896.0,0.055999999999999994
900.0,0.0555
904.0,0.0554
908.0,0.0548
912.0,0.056100000000000004
916.0,0.0553
920.0,0.0555
924.0,0.0555
928.0,0.0554
932.0,0.0555
936.0,0.0559
940.0,0.056100000000000004
944.0,0.0555
948.0,0.0555
952.0,0.0555
956.0,0.0559
960.0,0.055999999999999994
964.0,0.0555
968.0,0.055999999999999994
972.0,0.055999999999999994
976.0,0.055999999999999994
980.0,0.0559
984.0,0.0558
988.0,0.0564
992.0,0.0565
996.0,0.0564
1000.0,0.057
1004.0,0.0579
1008.0,0.057800000000000004
1012.0,0.0576
1016.0,0.057800000000000004
1020.0,0.0584
1024.0,0.059000000000000004
1028.0,0.058899999999999994
1032.0,0.0593
1036.0,0.06
1040.0,0.06
1044.0,0.060700000000000004
1048.0,0.061399999999999996
1052.0,0.0613
1056.0,0.061799999999999994
1060.0,0.061900000000000004
1064.0,0.062400000000000004
1068.0,0.0623
1072.0,0.0622
1076.0,0.0632
1080.0,0.063
1084.0,0.0639
1088.0,0.0642
1092.0,0.0641
1096.0,0.0641
1100.0,0.0646
1104.0,0.0644
1108.0,0.0654
1112.0,0.0642
1116.0,0.06509999999999999
1120.0,0.0641
1124.0,0.0641
1128.0,0.0639
1132.0,0.0637
1136.0,0.0639
1140.0,0.0644
1144.0,0.0636
1148.0,0.0637
1152.0,0.0641
1156.0,0.0646
1160.0,0.0645
1164.0,0.0644
1168.0,0.0643
1172.0,0.0654
1176.0,0.065
1180.0,0.0655
1184.0,0.0653
1188.0,0.06570000000000001
1192.0,0.0655
1196.0,0.06480000000000001
1200.0,0.0645
1204.0,0.06509999999999999
1208.0,0.0641
1212.0,0.0634
1216.0,0.064
1220.0,0.0645
1224.0,0.06480000000000001
1228.0,0.0653
1232.0,0.06570000000000001
1236.0,0.066
1240.0,0.0664
1244.0,0.0663
1248.0,0.0667
1252.0,0.0666
1256.0,0.0666
1260.0,0.0666
1264.0,0.0666
1268.0,0.0665
1272.0,0.0666
1276.0,0.0668
1280.0,0.0661
1284.0,0.0672
1288.0,0.0665
1292.0,0.0675
1296.0,0.0681
1300.0,0.0681
1304.0,0.069
1308.0,0.0696
1312.0,0.07
1316.0,0.0696
1320.0,0.0702
1324.0,0.0713
1328.0,0.0718
1332.0,0.0718
1336.0,0.0724
1340.0,0.073
1344.0,0.0729
1348.0,0.0733
1352.0,0.07339999999999999
1356.0,0.0736
1360.0,0.0739
1364.0,0.07400000000000001
1368.0,0.0746
1372.0,0.07490000000000001
1376.0,0.0755
1380.0,0.07519999999999999
1384.0,0.0758
1388.0,0.0762
1392.0,0.0776
1396.0,0.0783
1400.0,0.0788
1404.0,0.0796
1408.0,0.0795
1412.0,0.08039999999999999
1416.0,0.0795
1420.0,0.0806
1424.0,0.0799
1428.0,0.0806
1432.0,0.0796
1436.0,0.0803
1440.0,0.0802
1444.0,0.0797
1448.0,0.08039999999999999
1452.0,0.0802
1456.0,0.081
1460.0,0.0803
1464.0,0.0806
1468.0,0.08
1472.0,0.07919999999999999
1476.0,0.0791
1480.0,0.0788
1484.0,0.0785
1488.0,0.0775
1492.0,0.0765
1496.0,0.0762
1500.0,0.0754
1504.0,0.0754
1508.0,0.0738
1512.0,0.0736
1516.0,0.0724
1520.0,0.0712
1524.0,0.0708
1528.0,0.0697
1532.0,0.068
1536.0,0.0676
1540.0,0.0669
1544.0,0.0658
1548.0,0.0646
1552.0,0.0638
1556.0,0.0632
1560.0,0.0625
1564.0,0.0613
1568.0,0.061
1572.0,0.0603
1576.0,0.059699999999999996
1580.0,0.0591
1584.0,0.0582
1588.0,0.0575
1592.0,0.056799999999999996
1596.0,0.056900000000000006
1600.0,0.0558
1604.0,0.0557
1608.0,0.055099999999999996
1612.0,0.0546
1616.0,0.053
1620.0,0.0535
1624.0,0.053
1628.0,0.0519
1632.0,0.052000000000000005
1636.0,0.0518
1640.0,0.0513
1644.0,0.0506
1648.0,0.0504
1652.0,0.049800000000000004
1656.0,0.049800000000000004
1660.0,0.0499
1664.0,0.0499
1668.0,0.048799999999999996
1672.0,0.048799999999999996
1676.0,0.047599999999999996
1680.0,0.0481
1684.0,0.0471
1688.0,0.0471
1692.0,0.047
1696.0,0.0462
1700.0,0.0462
1704.0,0.0458
1708.0,0.0452
1712.0,0.0446
1716.0,0.0446
1720.0,0.0447
1724.0,0.044500000000000005
1728.0,0.0446
1732.0,0.0447
1736.0,0.0437
1740.0,0.0436
1744.0,0.0436
1748.0,0.0441
1752.0,0.0434
1756.0,0.0434
1760.0,0.0435
1764.0,0.0435
1768.0,0.0435
1772.0,0.0436
1776.0,0.043
1780.0,0.0429
1784.0,0.043
1788.0,0.0434
1792.0,0.0434
1796.0,0.0434
1800.0,0.0435
1804.0,0.043
1808.0,0.042300000000000004
1812.0,0.042800000000000005
1816.0,0.042199999999999994
1820.0,0.042199999999999994
1824.0,0.0421
1828.0,0.042300000000000004
1832.0,0.0417
1836.0,0.0415
1840.0,0.040999999999999995
1844.0,0.0404
1848.0,0.0406
1852.0,0.0403
1856.0,0.0408
1860.0,0.0408
1864.0,0.0404
1868.0,0.0405
1872.0,0.0405
1876.0,0.0406
1880.0,0.0404
1884.0,0.0403
1888.0,0.04019999999999999
1892.0,0.041299999999999996
1896.0,0.04190000000000001
1900.0,0.0408
1904.0,0.0409
1908.0,0.0407
1912.0,0.0401
1916.0,0.0398
1920.0,0.0393
1924.0,0.0393
1928.0,0.0391
1932.0,0.039900000000000005
1936.0,0.0404
1940.0,0.0403
1944.0,0.04019999999999999
1948.0,0.0401
1952.0,0.04
1956.0,0.039900000000000005
1960.0,0.0393
1964.0,0.0391
1968.0,0.039
1972.0,0.0394
1976.0,0.0393
1980.0,0.0392
1984.0,0.0392
1988.0,0.038599999999999995
1992.0,0.0398
1996.0,0.0397
2000.0,0.0407
2004.0,0.04
2008.0,0.0406
2012.0,0.0406
2016.0,0.0405
2020.0,0.04
2024.0,0.04
2028.0,0.0393
2032.0,0.0394
2036.0,0.0393
2040.0,0.0392
2044.0,0.0392
2048.0,0.0391
2052.0,0.0397
2056.0,0.0398
2060.0,0.039900000000000005
2064.0,0.039900000000000005
2068.0,0.04
2072.0,0.0405
2076.0,0.0406
2080.0,0.0404
2084.0,0.0403
2088.0,0.0403
2092.0,0.0403
2096.0,0.039900000000000005
2100.0,0.0397
2104.0,0.039900000000000005
2108.0,0.0395
2112.0,0.0391
2116.0,0.0392
2120.0,0.0388
2124.0,0.039599999999999996
2128.0,0.0395
2132.0,0.0395
2136.0,0.0395
2140.0,0.038900000000000004
2144.0,0.0395
2148.0,0.0397
2152.0,0.0395
2156.0,0.039900000000000005
2160.0,0.039599999999999996
2164.0,0.0392
2168.0,0.0397
2172.0,0.039599999999999996
2176.0,0.0391
2180.0,0.039599999999999996
2184.0,0.0392
2188.0,0.0394
2192.0,0.0394
2196.0,0.0393
2200.0,0.0388
2204.0,0.0392
2208.0,0.0387
2212.0,0.0393
2216.0,0.0388
2220.0,0.0387
2224.0,0.0394
2228.0,0.0388
2232.0,0.0383
2236.0,0.0384
2240.0,0.0383
2244.0,0.0382
2248.0,0.0387
2252.0,0.0393
2256.0,0.0388
2260.0,0.0387
2264.0,0.038599999999999995
2268.0,0.0382
2272.0,0.0382
2276.0,0.038
2280.0,0.0381
2284.0,0.0375
2288.0,0.038
2292.0,0.0379
2296.0,0.0377
2300.0,0.0382
2304.0,0.0382
2308.0,0.0381
2312.0,0.0382
2316.0,0.0381
2320.0,0.0375
2324.0,0.0387
2328.0,0.0381
2332.0,0.0379
2336.0,0.0383
2340.0,0.0384
2344.0,0.0392
2348.0,0.0391
2352.0,0.0384
2356.0,0.039
2360.0,0.0388
2364.0,0.0392
2368.0,0.0393
2372.0,0.0394
2376.0,0.04
2380.0,0.039900000000000005
2384.0,0.0393
2388.0,0.039900000000000005
2392.0,0.0398
2396.0,0.0397
2400.0,0.0398
2404.0,0.0398
2408.0,0.0408
2412.0,0.0403
2416.0,0.0398
2420.0,0.0397
2424.0,0.0397
2428.0,0.0397
2432.0,0.039599999999999996
2436.0,0.0403
2440.0,0.0398
2444.0,0.039599999999999996
2448.0,0.0391
2452.0,0.0397
2456.0,0.039599999999999996
2460.0,0.0397
2464.0,0.0397
2468.0,0.039599999999999996
2472.0,0.0391
2476.0,0.0391
2480.0,0.039599999999999996
2484.0,0.039599999999999996
2488.0,0.038599999999999995
2492.0,0.0385
2496.0,0.039
2500.0,0.039599999999999996
