Database of Origin,ASTER / ECOSTRESS Spectral Library
Sample Description,ASTER / ECOSTRESS Coarse Magnesiochromite
Other Information,mineral.oxide.none.coarse.vswir.o-8a.jpl.beckman.spectrum.txt
Date Added,2018-06-29 20:04:35.123677

Data ID,ASTR_206            
Sample ID,O-8A
Mineral Name,Magnesiochromite
Locality,Canada/ Quebec/ Coleraine Township
Grain Size,125-500um
Formula,MgCr_2O_4
Material Class,oxide

Wavelength
401.0,0.0579
402.0,0.0579
403.0,0.057800000000000004
404.0,0.0572
405.0,0.0572
406.0,0.0584
407.0,0.056600000000000004
408.0,0.0572
409.0,0.056600000000000004
410.0,0.057
411.0,0.0576
412.0,0.056600000000000004
413.0,0.057800000000000004
414.0,0.0572
415.0,0.057800000000000004
416.0,0.0572
417.0,0.056600000000000004
418.0,0.057800000000000004
419.0,0.057699999999999994
420.0,0.0576
421.0,0.057699999999999994
422.0,0.055999999999999994
423.0,0.057800000000000004
424.0,0.0572
425.0,0.0576
426.0,0.0565
427.0,0.0564
428.0,0.057699999999999994
429.0,0.0576
430.0,0.0576
431.0,0.057
432.0,0.057
433.0,0.0576
434.0,0.056299999999999996
435.0,0.057
436.0,0.0564
437.0,0.0576
438.0,0.0583
439.0,0.057
440.0,0.057800000000000004
441.0,0.0571
442.0,0.0576
443.0,0.0576
444.0,0.056299999999999996
445.0,0.0575
446.0,0.056299999999999996
447.0,0.057
448.0,0.057
449.0,0.056299999999999996
450.0,0.056900000000000006
451.0,0.0565
452.0,0.0571
453.0,0.056900000000000006
454.0,0.0557
455.0,0.0574
456.0,0.0572
457.0,0.0571
458.0,0.0564
459.0,0.0557
460.0,0.0557
461.0,0.0575
462.0,0.056299999999999996
463.0,0.056900000000000006
464.0,0.0558
465.0,0.056799999999999996
466.0,0.056799999999999996
467.0,0.055099999999999996
468.0,0.056900000000000006
469.0,0.0557
470.0,0.056900000000000006
471.0,0.0557
472.0,0.055099999999999996
473.0,0.0564
474.0,0.056299999999999996
475.0,0.0575
476.0,0.0557
477.0,0.0562
478.0,0.057300000000000004
479.0,0.056100000000000004
480.0,0.056799999999999996
481.0,0.0567
482.0,0.0571
483.0,0.057699999999999994
484.0,0.055999999999999994
485.0,0.0571
486.0,0.0564
487.0,0.056299999999999996
488.0,0.056299999999999996
489.0,0.0558
490.0,0.056299999999999996
491.0,0.0567
492.0,0.0572
493.0,0.055999999999999994
494.0,0.0553
495.0,0.0564
496.0,0.0558
497.0,0.056299999999999996
498.0,0.0562
499.0,0.0562
500.0,0.0567
501.0,0.055999999999999994
502.0,0.0565
503.0,0.0554
504.0,0.055999999999999994
505.0,0.055999999999999994
506.0,0.0548
507.0,0.055999999999999994
508.0,0.0554
509.0,0.0559
510.0,0.0558
511.0,0.055099999999999996
512.0,0.0558
513.0,0.0553
514.0,0.0565
515.0,0.0554
516.0,0.0559
517.0,0.057
518.0,0.0558
519.0,0.056299999999999996
520.0,0.0558
521.0,0.0564
522.0,0.0565
523.0,0.0553
524.0,0.0559
525.0,0.0548
526.0,0.055999999999999994
527.0,0.056600000000000004
528.0,0.0548
529.0,0.056100000000000004
530.0,0.0556
531.0,0.056100000000000004
532.0,0.0562
533.0,0.0546
534.0,0.0562
535.0,0.0548
536.0,0.0555
537.0,0.054400000000000004
538.0,0.0537
539.0,0.054900000000000004
540.0,0.054299999999999994
541.0,0.0554
542.0,0.0541
543.0,0.0547
544.0,0.0559
545.0,0.0547
546.0,0.0546
547.0,0.0545
548.0,0.055
549.0,0.0555
550.0,0.0536
551.0,0.0553
552.0,0.055099999999999996
553.0,0.0556
554.0,0.054900000000000004
555.0,0.0536
556.0,0.0548
557.0,0.0545
558.0,0.0548
559.0,0.054000000000000006
560.0,0.0541
561.0,0.055099999999999996
562.0,0.054000000000000006
563.0,0.0545
564.0,0.054000000000000006
565.0,0.0547
566.0,0.0557
567.0,0.054000000000000006
568.0,0.0545
569.0,0.0533
570.0,0.053899999999999997
571.0,0.054000000000000006
572.0,0.053
573.0,0.054299999999999994
574.0,0.0537
575.0,0.0541
576.0,0.053200000000000004
577.0,0.0527
578.0,0.054000000000000006
579.0,0.053399999999999996
580.0,0.053399999999999996
581.0,0.053
582.0,0.0524
583.0,0.0542
584.0,0.053
585.0,0.0536
586.0,0.0535
587.0,0.053399999999999996
588.0,0.0553
589.0,0.0536
590.0,0.053
591.0,0.053
592.0,0.0529
593.0,0.0548
594.0,0.053
595.0,0.0536
596.0,0.052300000000000006
597.0,0.053899999999999997
598.0,0.054400000000000004
599.0,0.053
600.0,0.054000000000000006
601.0,0.053099999999999994
602.0,0.054000000000000006
603.0,0.0538
604.0,0.0525
605.0,0.0546
606.0,0.0538
607.0,0.054400000000000004
608.0,0.0538
609.0,0.053200000000000004
610.0,0.053899999999999997
611.0,0.054000000000000006
612.0,0.054000000000000006
613.0,0.053399999999999996
614.0,0.053399999999999996
615.0,0.0545
616.0,0.0538
617.0,0.0538
618.0,0.053200000000000004
619.0,0.054299999999999994
620.0,0.0555
621.0,0.053200000000000004
622.0,0.054299999999999994
623.0,0.0528
624.0,0.053399999999999996
625.0,0.0533
626.0,0.0527
627.0,0.054900000000000004
628.0,0.0537
629.0,0.0538
630.0,0.0538
631.0,0.0526
632.0,0.0538
633.0,0.0533
634.0,0.054000000000000006
635.0,0.054000000000000006
636.0,0.053399999999999996
637.0,0.0545
638.0,0.0538
639.0,0.0537
640.0,0.053200000000000004
641.0,0.0533
642.0,0.054400000000000004
643.0,0.053200000000000004
644.0,0.054299999999999994
645.0,0.053200000000000004
646.0,0.054400000000000004
647.0,0.0545
648.0,0.053399999999999996
649.0,0.0533
650.0,0.0526
651.0,0.0537
652.0,0.0538
653.0,0.0521
654.0,0.053899999999999997
655.0,0.053399999999999996
656.0,0.0538
657.0,0.053200000000000004
658.0,0.053200000000000004
659.0,0.0545
660.0,0.0533
661.0,0.054000000000000006
662.0,0.0527
663.0,0.053200000000000004
664.0,0.054299999999999994
665.0,0.0525
666.0,0.053099999999999994
667.0,0.052000000000000005
668.0,0.053099999999999994
669.0,0.0537
670.0,0.0526
671.0,0.0538
672.0,0.0533
673.0,0.0533
674.0,0.053399999999999996
675.0,0.0527
676.0,0.054400000000000004
677.0,0.053099999999999994
678.0,0.054299999999999994
679.0,0.0526
680.0,0.0526
681.0,0.053200000000000004
682.0,0.052000000000000005
683.0,0.053099999999999994
684.0,0.0526
685.0,0.0527
686.0,0.054400000000000004
687.0,0.053200000000000004
688.0,0.053099999999999994
689.0,0.0525
690.0,0.0536
691.0,0.054299999999999994
692.0,0.0526
693.0,0.053200000000000004
694.0,0.052000000000000005
695.0,0.053099999999999994
696.0,0.0533
697.0,0.0528
698.0,0.0541
699.0,0.0533
700.0,0.0537
701.0,0.0529
702.0,0.0536
703.0,0.053099999999999994
704.0,0.054400000000000004
705.0,0.0533
706.0,0.0538
707.0,0.053200000000000004
708.0,0.0537
709.0,0.0548
710.0,0.0537
711.0,0.054299999999999994
712.0,0.053099999999999994
713.0,0.0536
714.0,0.0537
715.0,0.0526
716.0,0.053899999999999997
717.0,0.0533
718.0,0.0538
719.0,0.0537
720.0,0.0526
721.0,0.0538
722.0,0.053200000000000004
723.0,0.053200000000000004
724.0,0.0526
725.0,0.0537
726.0,0.054400000000000004
727.0,0.0527
728.0,0.053200000000000004
729.0,0.052000000000000005
730.0,0.0537
731.0,0.053200000000000004
732.0,0.0526
733.0,0.0538
734.0,0.053099999999999994
735.0,0.0537
736.0,0.053200000000000004
737.0,0.0533
738.0,0.054400000000000004
739.0,0.0537
740.0,0.0547
741.0,0.0537
742.0,0.0537
743.0,0.0553
744.0,0.0542
745.0,0.0548
746.0,0.0538
747.0,0.054400000000000004
748.0,0.054900000000000004
749.0,0.0536
750.0,0.0542
751.0,0.053099999999999994
752.0,0.054299999999999994
753.0,0.054299999999999994
754.0,0.0537
755.0,0.054900000000000004
756.0,0.0538
757.0,0.0548
758.0,0.0542
759.0,0.0537
760.0,0.0548
761.0,0.0542
762.0,0.0553
763.0,0.0547
764.0,0.0542
765.0,0.0548
766.0,0.0542
767.0,0.0552
768.0,0.0547
769.0,0.0542
770.0,0.0559
771.0,0.0552
772.0,0.0552
773.0,0.0548
774.0,0.0554
775.0,0.055999999999999994
776.0,0.0547
777.0,0.0547
778.0,0.0547
779.0,0.0558
780.0,0.0564
781.0,0.0546
782.0,0.0559
783.0,0.0542
784.0,0.0546
785.0,0.055
786.0,0.054000000000000006
787.0,0.0545
788.0,0.054000000000000006
789.0,0.055099999999999996
790.0,0.0546
791.0,0.0541
792.0,0.0552
793.0,0.0546
794.0,0.0546
795.0,0.0541
796.0,0.0536
797.0,0.0548
798.0,0.054299999999999994
799.0,0.055
800.0,0.056799999999999996
804.0,0.056900000000000006
808.0,0.056799999999999996
812.0,0.0562
816.0,0.056799999999999996
820.0,0.056100000000000004
824.0,0.056600000000000004
828.0,0.057300000000000004
832.0,0.0575
836.0,0.0576
840.0,0.0575
844.0,0.0576
848.0,0.057999999999999996
852.0,0.057800000000000004
856.0,0.0571
860.0,0.056600000000000004
864.0,0.0572
868.0,0.0572
872.0,0.057300000000000004
876.0,0.0565
880.0,0.056600000000000004
884.0,0.055999999999999994
888.0,0.0565
892.0,0.0555
896.0,0.055999999999999994
900.0,0.0559
904.0,0.056100000000000004
908.0,0.0559
912.0,0.055999999999999994
916.0,0.0559
920.0,0.056100000000000004
924.0,0.0564
928.0,0.055999999999999994
932.0,0.0558
936.0,0.0564
940.0,0.056100000000000004
944.0,0.055999999999999994
948.0,0.056100000000000004
952.0,0.056600000000000004
956.0,0.056600000000000004
960.0,0.0567
964.0,0.0567
968.0,0.056600000000000004
972.0,0.057300000000000004
976.0,0.0572
980.0,0.057
984.0,0.057
988.0,0.0571
992.0,0.0572
996.0,0.0572
1000.0,0.0565
1004.0,0.0559
1008.0,0.0565
1012.0,0.056100000000000004
1016.0,0.056100000000000004
1020.0,0.0567
1024.0,0.056600000000000004
1028.0,0.056600000000000004
1032.0,0.0571
1036.0,0.0567
1040.0,0.0572
1044.0,0.057300000000000004
1048.0,0.057800000000000004
1052.0,0.0572
1056.0,0.057800000000000004
1060.0,0.057
1064.0,0.057699999999999994
1068.0,0.057
1072.0,0.0574
1076.0,0.057300000000000004
1080.0,0.0571
1084.0,0.0567
1088.0,0.0565
1092.0,0.0565
1096.0,0.0564
1100.0,0.0565
1104.0,0.0565
1108.0,0.056799999999999996
1112.0,0.0574
1116.0,0.057999999999999996
1120.0,0.0583
1124.0,0.0583
1128.0,0.057800000000000004
1132.0,0.0576
1136.0,0.057300000000000004
1140.0,0.057699999999999994
1144.0,0.0574
1148.0,0.056900000000000006
1152.0,0.0576
1156.0,0.057
1160.0,0.0565
1164.0,0.0565
1168.0,0.0565
1172.0,0.0564
1176.0,0.056299999999999996
1180.0,0.056799999999999996
1184.0,0.056799999999999996
1188.0,0.057
1192.0,0.057
1196.0,0.0564
1200.0,0.0571
1204.0,0.0575
1208.0,0.0576
1212.0,0.057
1216.0,0.0581
1220.0,0.057300000000000004
1224.0,0.057
1228.0,0.0576
1232.0,0.056799999999999996
1236.0,0.0572
1240.0,0.0564
1244.0,0.056900000000000006
1248.0,0.056799999999999996
1252.0,0.0567
1256.0,0.0567
1260.0,0.0567
1264.0,0.0567
1268.0,0.0571
1272.0,0.056600000000000004
1276.0,0.0565
1280.0,0.0572
1284.0,0.056600000000000004
1288.0,0.0567
1292.0,0.056100000000000004
1296.0,0.0565
1300.0,0.056600000000000004
1304.0,0.0564
1308.0,0.0571
1312.0,0.057300000000000004
1316.0,0.057300000000000004
1320.0,0.0572
1324.0,0.057300000000000004
1328.0,0.0575
1332.0,0.057999999999999996
1336.0,0.0574
1340.0,0.057300000000000004
1344.0,0.057999999999999996
1348.0,0.057800000000000004
1352.0,0.0579
1356.0,0.0579
1360.0,0.057699999999999994
1364.0,0.057999999999999996
1368.0,0.058499999999999996
1372.0,0.0581
1376.0,0.0582
1380.0,0.057300000000000004
1384.0,0.056900000000000006
1388.0,0.056299999999999996
1392.0,0.0574
1396.0,0.0576
1400.0,0.057999999999999996
1404.0,0.0582
1408.0,0.0587
1412.0,0.0593
1416.0,0.059800000000000006
1420.0,0.0591
1424.0,0.059699999999999996
1428.0,0.0591
1432.0,0.0593
1436.0,0.0599
1440.0,0.059500000000000004
1444.0,0.059000000000000004
1448.0,0.0592
1452.0,0.0594
1456.0,0.0594
1460.0,0.059800000000000006
1464.0,0.058600000000000006
1468.0,0.0581
1472.0,0.0584
1476.0,0.058499999999999996
1480.0,0.0581
1484.0,0.0576
1488.0,0.0579
1492.0,0.0575
1496.0,0.056600000000000004
1500.0,0.0574
1504.0,0.057699999999999994
1508.0,0.0571
1512.0,0.0575
1516.0,0.0574
1520.0,0.057
1524.0,0.056299999999999996
1528.0,0.0562
1532.0,0.0558
1536.0,0.0564
1540.0,0.0554
1544.0,0.0559
1548.0,0.055
1552.0,0.0548
1556.0,0.0548
1560.0,0.0547
1564.0,0.055099999999999996
1568.0,0.0547
1572.0,0.0545
1576.0,0.0541
1580.0,0.054000000000000006
1584.0,0.0536
1588.0,0.053099999999999994
1592.0,0.0529
1596.0,0.053099999999999994
1600.0,0.053
1604.0,0.053
1608.0,0.0524
1612.0,0.0524
1616.0,0.0524
1620.0,0.0518
1624.0,0.051699999999999996
1628.0,0.0513
1632.0,0.0506
1636.0,0.0507
1640.0,0.0507
1644.0,0.0501
1648.0,0.0506
1652.0,0.050499999999999996
1656.0,0.049800000000000004
1660.0,0.050300000000000004
1664.0,0.0499
1668.0,0.0499
1672.0,0.049400000000000006
1676.0,0.049400000000000006
1680.0,0.049800000000000004
1684.0,0.0504
1688.0,0.0499
1692.0,0.05
1696.0,0.0499
1700.0,0.0493
1704.0,0.0499
1708.0,0.0492
1712.0,0.0487
1716.0,0.0487
1720.0,0.048
1724.0,0.0481
1728.0,0.047599999999999996
1732.0,0.048
1736.0,0.047599999999999996
1740.0,0.0483
1744.0,0.0478
1748.0,0.0483
1752.0,0.04769999999999999
1756.0,0.0481
1760.0,0.047599999999999996
1764.0,0.048
1768.0,0.0475
1772.0,0.047400000000000005
1776.0,0.047400000000000005
1780.0,0.0464
1784.0,0.046900000000000004
1788.0,0.0463
1792.0,0.0463
1796.0,0.046799999999999994
1800.0,0.046900000000000004
1804.0,0.0464
1808.0,0.0458
1812.0,0.0462
1816.0,0.0462
1820.0,0.0452
1824.0,0.0461
1828.0,0.0461
1832.0,0.0463
1836.0,0.046
1840.0,0.0462
1844.0,0.045700000000000005
1848.0,0.045899999999999996
1852.0,0.045700000000000005
1856.0,0.0454
1860.0,0.0454
1864.0,0.045700000000000005
1868.0,0.0453
1872.0,0.0452
1876.0,0.045899999999999996
1880.0,0.045599999999999995
1884.0,0.0447
1888.0,0.044800000000000006
1892.0,0.0452
1896.0,0.0452
1900.0,0.044800000000000006
1904.0,0.044800000000000006
1908.0,0.0449
1912.0,0.0443
1916.0,0.0447
1920.0,0.044199999999999996
1924.0,0.0438
1928.0,0.0433
1932.0,0.0433
1936.0,0.0432
1940.0,0.0432
1944.0,0.043
1948.0,0.0431
1952.0,0.0424
1956.0,0.0429
1960.0,0.0429
1964.0,0.0433
1968.0,0.0431
1972.0,0.0435
1976.0,0.0434
1980.0,0.042699999999999995
1984.0,0.042699999999999995
1988.0,0.043899999999999995
1992.0,0.0433
1996.0,0.0438
2000.0,0.0443
2004.0,0.0436
2008.0,0.044199999999999996
2012.0,0.043899999999999995
2016.0,0.0434
2020.0,0.0438
2024.0,0.0443
2028.0,0.0444
2032.0,0.0443
2036.0,0.0443
2040.0,0.0443
2044.0,0.0443
2048.0,0.0438
2052.0,0.0443
2056.0,0.044199999999999996
2060.0,0.044199999999999996
2064.0,0.0444
2068.0,0.0444
2072.0,0.043899999999999995
2076.0,0.0444
2080.0,0.0438
2084.0,0.0438
2088.0,0.0443
2092.0,0.0437
2096.0,0.0441
2100.0,0.0438
2104.0,0.0433
2108.0,0.0431
2112.0,0.0438
2116.0,0.0434
2120.0,0.0436
2124.0,0.0431
2128.0,0.0432
2132.0,0.0435
2136.0,0.0435
2140.0,0.0436
2144.0,0.0437
2148.0,0.0441
2152.0,0.044000000000000004
2156.0,0.0441
2160.0,0.0437
2164.0,0.043899999999999995
2168.0,0.0444
2172.0,0.044199999999999996
2176.0,0.044199999999999996
2180.0,0.0443
2184.0,0.0437
2188.0,0.0443
2192.0,0.0433
2196.0,0.0438
2200.0,0.043899999999999995
2204.0,0.0444
2208.0,0.0438
2212.0,0.0432
2216.0,0.0433
2220.0,0.042199999999999994
2224.0,0.042199999999999994
2228.0,0.042199999999999994
2232.0,0.0416
2236.0,0.0416
2240.0,0.0417
2244.0,0.0417
2248.0,0.040999999999999995
2252.0,0.0409
2256.0,0.0414
2260.0,0.0404
2264.0,0.0409
2268.0,0.0408
2272.0,0.0404
2276.0,0.040999999999999995
2280.0,0.0409
2284.0,0.0398
2288.0,0.0403
2292.0,0.039900000000000005
2296.0,0.0398
2300.0,0.0403
2304.0,0.0403
2308.0,0.0398
2312.0,0.0405
2316.0,0.0405
2320.0,0.0404
2324.0,0.0398
2328.0,0.04019999999999999
2332.0,0.0408
2336.0,0.040999999999999995
2340.0,0.040999999999999995
2344.0,0.0417
2348.0,0.042199999999999994
2352.0,0.0417
2356.0,0.0417
2360.0,0.0417
2364.0,0.042199999999999994
2368.0,0.0414
2372.0,0.0421
2376.0,0.042199999999999994
2380.0,0.0421
2384.0,0.0425
2388.0,0.0426
2392.0,0.0421
2396.0,0.0426
2400.0,0.0425
2404.0,0.0426
2408.0,0.043
2412.0,0.0425
2416.0,0.0426
2420.0,0.04190000000000001
2424.0,0.0418
2428.0,0.04190000000000001
2432.0,0.04190000000000001
2436.0,0.0424
2440.0,0.04190000000000001
2444.0,0.04190000000000001
2448.0,0.0418
2452.0,0.0414
2456.0,0.041299999999999996
2460.0,0.0418
2464.0,0.04190000000000001
2468.0,0.04190000000000001
2472.0,0.04190000000000001
2476.0,0.04190000000000001
2480.0,0.0418
2484.0,0.042300000000000004
2488.0,0.0424
2492.0,0.0424
2496.0,0.042800000000000005
2500.0,0.042199999999999994
