Database of Origin,ASTER / ECOSTRESS Spectral Library
Sample Description,ASTER / ECOSTRESS Coarse Graphite
Other Information,mineral.element.none.coarse.vswir.e-1a.jpl.beckman.spectrum.txt
Date Added,2018-06-29 20:04:32.634629

Data ID,ASTR_139            
Sample ID,E-1A
Mineral Name,Graphite
Locality,Mexico/ Sonora/ Morelos/ San Jose Mine
Grain Size,125-500um
Formula,C
Material Class,element

Wavelength
401.0,0.047
402.0,0.047599999999999996
403.0,0.045700000000000005
404.0,0.045700000000000005
405.0,0.045700000000000005
406.0,0.0451
407.0,0.0444
408.0,0.045
409.0,0.0451
410.0,0.044500000000000005
411.0,0.045
412.0,0.045700000000000005
413.0,0.0463
414.0,0.0458
415.0,0.044500000000000005
416.0,0.043899999999999995
417.0,0.044500000000000005
418.0,0.044500000000000005
419.0,0.0451
420.0,0.045
421.0,0.0444
422.0,0.0438
423.0,0.0451
424.0,0.045700000000000005
425.0,0.0451
426.0,0.0451
427.0,0.0444
428.0,0.0444
429.0,0.0444
430.0,0.0438
431.0,0.043899999999999995
432.0,0.0433
433.0,0.0408
434.0,0.04019999999999999
435.0,0.04019999999999999
436.0,0.04019999999999999
437.0,0.0408
438.0,0.039599999999999996
439.0,0.039599999999999996
440.0,0.0397
441.0,0.0391
442.0,0.0385
443.0,0.0397
444.0,0.0391
445.0,0.0385
446.0,0.039599999999999996
447.0,0.038900000000000004
448.0,0.0384
449.0,0.038900000000000004
450.0,0.0391
451.0,0.0384
452.0,0.038900000000000004
453.0,0.0384
454.0,0.0383
455.0,0.0382
456.0,0.0381
457.0,0.0391
458.0,0.0385
459.0,0.0384
460.0,0.038
461.0,0.0378
462.0,0.0384
463.0,0.0377
464.0,0.0377
465.0,0.0378
466.0,0.0377
467.0,0.0371
468.0,0.0377
469.0,0.0378
470.0,0.0373
471.0,0.0378
472.0,0.0378
473.0,0.0379
474.0,0.0379
475.0,0.0384
476.0,0.0378
477.0,0.0378
478.0,0.0373
479.0,0.0378
480.0,0.037200000000000004
481.0,0.0366
482.0,0.0377
483.0,0.0371
484.0,0.037599999999999995
485.0,0.037599999999999995
486.0,0.037000000000000005
487.0,0.0369
488.0,0.0381
489.0,0.0368
490.0,0.0373
491.0,0.0373
492.0,0.0378
493.0,0.037200000000000004
494.0,0.0371
495.0,0.037000000000000005
496.0,0.037599999999999995
497.0,0.037000000000000005
498.0,0.0369
499.0,0.0374
500.0,0.0374
501.0,0.0374
502.0,0.0368
503.0,0.0373
504.0,0.036699999999999997
505.0,0.036699999999999997
506.0,0.0368
507.0,0.0373
508.0,0.0368
509.0,0.0374
510.0,0.0368
511.0,0.0363
512.0,0.0363
513.0,0.0368
514.0,0.0368
515.0,0.035699999999999996
516.0,0.036699999999999997
517.0,0.0362
518.0,0.0362
519.0,0.0368
520.0,0.035699999999999996
521.0,0.0363
522.0,0.0369
523.0,0.0363
524.0,0.0368
525.0,0.0363
526.0,0.0369
527.0,0.0369
528.0,0.0358
529.0,0.0363
530.0,0.035699999999999996
531.0,0.0363
532.0,0.035699999999999996
533.0,0.0359
534.0,0.0361
535.0,0.0358
536.0,0.0358
537.0,0.0358
538.0,0.0358
539.0,0.0364
540.0,0.0352
541.0,0.0358
542.0,0.0359
543.0,0.0364
544.0,0.0364
545.0,0.0351
546.0,0.0356
547.0,0.0356
548.0,0.0355
549.0,0.0366
550.0,0.0353
551.0,0.0359
552.0,0.0358
553.0,0.0352
554.0,0.035699999999999996
555.0,0.0362
556.0,0.0358
557.0,0.0359
558.0,0.0355
559.0,0.035699999999999996
560.0,0.0352
561.0,0.0355
562.0,0.0345
563.0,0.0351
564.0,0.0356
565.0,0.0361
566.0,0.0356
567.0,0.0349
568.0,0.0361
569.0,0.035
570.0,0.0361
571.0,0.0356
572.0,0.035
573.0,0.0352
574.0,0.0349
575.0,0.0358
576.0,0.0353
577.0,0.0348
578.0,0.0354
579.0,0.0354
580.0,0.0355
581.0,0.0349
582.0,0.034300000000000004
583.0,0.0361
584.0,0.0344
585.0,0.035
586.0,0.0344
587.0,0.0349
588.0,0.0355
589.0,0.035
590.0,0.035
591.0,0.0344
592.0,0.0344
593.0,0.035
594.0,0.0344
595.0,0.035
596.0,0.035
597.0,0.034300000000000004
598.0,0.0348
599.0,0.0346
600.0,0.0349
601.0,0.0341
602.0,0.035699999999999996
603.0,0.035699999999999996
604.0,0.0344
605.0,0.035
606.0,0.034300000000000004
607.0,0.0349
608.0,0.0361
609.0,0.0349
610.0,0.035
611.0,0.0344
612.0,0.0356
613.0,0.035
614.0,0.034300000000000004
615.0,0.0354
616.0,0.0349
617.0,0.0349
618.0,0.0355
619.0,0.0348
620.0,0.0355
621.0,0.034300000000000004
622.0,0.0349
623.0,0.0355
624.0,0.034300000000000004
625.0,0.0354
626.0,0.0348
627.0,0.0354
628.0,0.0349
629.0,0.034300000000000004
630.0,0.0355
631.0,0.0349
632.0,0.0354
633.0,0.036000000000000004
634.0,0.0349
635.0,0.0349
636.0,0.0349
637.0,0.0349
638.0,0.0354
639.0,0.0349
640.0,0.0355
641.0,0.0349
642.0,0.0354
643.0,0.0354
644.0,0.0342
645.0,0.0349
646.0,0.0344
647.0,0.0349
648.0,0.0349
649.0,0.034300000000000004
650.0,0.0354
651.0,0.0348
652.0,0.0354
653.0,0.0349
654.0,0.034300000000000004
655.0,0.0354
656.0,0.0355
657.0,0.0355
658.0,0.035
659.0,0.0344
660.0,0.0356
661.0,0.0349
662.0,0.036000000000000004
663.0,0.0348
664.0,0.0342
665.0,0.0354
666.0,0.0354
667.0,0.036000000000000004
668.0,0.0348
669.0,0.034300000000000004
670.0,0.0355
671.0,0.0349
672.0,0.0355
673.0,0.0349
674.0,0.034300000000000004
675.0,0.0354
676.0,0.0349
677.0,0.036000000000000004
678.0,0.0349
679.0,0.0349
680.0,0.0354
681.0,0.0348
682.0,0.0354
683.0,0.0349
684.0,0.0344
685.0,0.0355
686.0,0.0355
687.0,0.0348
688.0,0.0354
689.0,0.0349
690.0,0.0355
691.0,0.0354
692.0,0.0359
693.0,0.0354
694.0,0.0349
695.0,0.0355
696.0,0.0356
697.0,0.0362
698.0,0.0356
699.0,0.0346
700.0,0.0354
701.0,0.0353
702.0,0.036000000000000004
703.0,0.0349
704.0,0.0355
705.0,0.036699999999999997
706.0,0.0354
707.0,0.0359
708.0,0.0359
709.0,0.0354
710.0,0.036000000000000004
711.0,0.0354
712.0,0.036000000000000004
713.0,0.0354
714.0,0.0361
715.0,0.0361
716.0,0.0355
717.0,0.036000000000000004
718.0,0.0348
719.0,0.036000000000000004
720.0,0.0361
721.0,0.0354
722.0,0.0365
723.0,0.0354
724.0,0.0365
725.0,0.0366
726.0,0.036000000000000004
727.0,0.036000000000000004
728.0,0.0354
729.0,0.0359
730.0,0.0366
731.0,0.0359
732.0,0.0365
733.0,0.0359
734.0,0.0366
735.0,0.0361
736.0,0.0361
737.0,0.0366
738.0,0.0353
739.0,0.0365
740.0,0.036000000000000004
741.0,0.0359
742.0,0.0365
743.0,0.0359
744.0,0.0366
745.0,0.036000000000000004
746.0,0.0359
747.0,0.037000000000000005
748.0,0.037000000000000005
749.0,0.037599999999999995
750.0,0.0365
751.0,0.0359
752.0,0.0359
753.0,0.0365
754.0,0.0371
755.0,0.0371
756.0,0.0364
757.0,0.0365
758.0,0.0371
759.0,0.0365
760.0,0.0364
761.0,0.0358
762.0,0.0364
763.0,0.0365
764.0,0.0371
765.0,0.0365
766.0,0.0359
767.0,0.037000000000000005
768.0,0.037000000000000005
769.0,0.0375
770.0,0.037000000000000005
771.0,0.0359
772.0,0.0365
773.0,0.0365
774.0,0.0381
775.0,0.0374
776.0,0.0364
777.0,0.037000000000000005
778.0,0.037000000000000005
779.0,0.037599999999999995
780.0,0.037000000000000005
781.0,0.0364
782.0,0.037000000000000005
783.0,0.0369
784.0,0.0375
785.0,0.037599999999999995
786.0,0.037000000000000005
787.0,0.0369
788.0,0.0374
789.0,0.0381
790.0,0.037599999999999995
791.0,0.037599999999999995
792.0,0.0375
793.0,0.0375
794.0,0.0387
795.0,0.0387
796.0,0.0375
797.0,0.0381
798.0,0.037599999999999995
799.0,0.0384
800.0,0.0406
804.0,0.0407
808.0,0.04019999999999999
812.0,0.0409
816.0,0.0403
820.0,0.0403
824.0,0.0414
828.0,0.04019999999999999
832.0,0.0403
836.0,0.0403
840.0,0.04019999999999999
844.0,0.0404
848.0,0.0403
852.0,0.0398
856.0,0.0397
860.0,0.0398
864.0,0.040999999999999995
868.0,0.040999999999999995
872.0,0.041100000000000005
876.0,0.041100000000000005
880.0,0.040999999999999995
884.0,0.0405
888.0,0.041100000000000005
892.0,0.0415
896.0,0.041100000000000005
900.0,0.040999999999999995
904.0,0.041100000000000005
908.0,0.0404
912.0,0.0405
916.0,0.039900000000000005
920.0,0.041100000000000005
924.0,0.0405
928.0,0.0405
932.0,0.0405
936.0,0.0412
940.0,0.041100000000000005
944.0,0.0405
948.0,0.0406
952.0,0.0416
956.0,0.0406
960.0,0.0412
964.0,0.040999999999999995
968.0,0.041100000000000005
972.0,0.0412
976.0,0.041100000000000005
980.0,0.0416
984.0,0.0416
988.0,0.041100000000000005
992.0,0.0415
996.0,0.0412
1000.0,0.041100000000000005
1004.0,0.0415
1008.0,0.0416
1012.0,0.0412
1016.0,0.0417
1020.0,0.0416
1024.0,0.042199999999999994
1028.0,0.0415
1032.0,0.0416
1036.0,0.0416
1040.0,0.041100000000000005
1044.0,0.041100000000000005
1048.0,0.0414
1052.0,0.0409
1056.0,0.040999999999999995
1060.0,0.0418
1064.0,0.0416
1068.0,0.0415
1072.0,0.0414
1076.0,0.0418
1080.0,0.0421
1084.0,0.04190000000000001
1088.0,0.042300000000000004
1092.0,0.0417
1096.0,0.042300000000000004
1100.0,0.042300000000000004
1104.0,0.0424
1108.0,0.042199999999999994
1112.0,0.0433
1116.0,0.0429
1120.0,0.0433
1124.0,0.0432
1128.0,0.0424
1132.0,0.0432
1136.0,0.043
1140.0,0.0426
1144.0,0.0429
1148.0,0.043
1152.0,0.042699999999999995
1156.0,0.042699999999999995
1160.0,0.0426
1164.0,0.0426
1168.0,0.0426
1172.0,0.0432
1176.0,0.0433
1180.0,0.0433
1184.0,0.0432
1188.0,0.0431
1192.0,0.0438
1196.0,0.0435
1200.0,0.043899999999999995
1204.0,0.0434
1208.0,0.0433
1212.0,0.0434
1216.0,0.0431
1220.0,0.0432
1224.0,0.0436
1228.0,0.0446
1232.0,0.0444
1236.0,0.044199999999999996
1240.0,0.0441
1244.0,0.0434
1248.0,0.043899999999999995
1252.0,0.0438
1256.0,0.0438
1260.0,0.0444
1264.0,0.043899999999999995
1268.0,0.044500000000000005
1272.0,0.044500000000000005
1276.0,0.0443
1280.0,0.0444
1284.0,0.045
1288.0,0.0444
1292.0,0.045
1296.0,0.044800000000000006
1300.0,0.045
1304.0,0.045
1308.0,0.0443
1312.0,0.0449
1316.0,0.0443
1320.0,0.0449
1324.0,0.0449
1328.0,0.045
1332.0,0.045
1336.0,0.045
1340.0,0.0454
1344.0,0.0453
1348.0,0.0453
1352.0,0.0453
1356.0,0.044199999999999996
1360.0,0.0444
1364.0,0.0451
1368.0,0.045599999999999995
1372.0,0.0454
1376.0,0.0461
1380.0,0.0461
1384.0,0.045599999999999995
1388.0,0.046
1392.0,0.046
1396.0,0.0461
1400.0,0.046
1404.0,0.045599999999999995
1408.0,0.045700000000000005
1412.0,0.045700000000000005
1416.0,0.0458
1420.0,0.0462
1424.0,0.0461
1428.0,0.046
1432.0,0.0466
1436.0,0.04650000000000001
1440.0,0.0466
1444.0,0.046799999999999994
1448.0,0.0466
1452.0,0.0467
1456.0,0.0466
1460.0,0.0466
1464.0,0.0466
1468.0,0.046
1472.0,0.0467
1476.0,0.0466
1480.0,0.0466
1484.0,0.0472
1488.0,0.0472
1492.0,0.0473
1496.0,0.046799999999999994
1500.0,0.047599999999999996
1504.0,0.046799999999999994
1508.0,0.046900000000000004
1512.0,0.0467
1516.0,0.0473
1520.0,0.0473
1524.0,0.0471
1528.0,0.0483
1532.0,0.04769999999999999
1536.0,0.04769999999999999
1540.0,0.04769999999999999
1544.0,0.0478
1548.0,0.0478
1552.0,0.0478
1556.0,0.0483
1560.0,0.0478
1564.0,0.0484
1568.0,0.0478
1572.0,0.04769999999999999
1576.0,0.0482
1580.0,0.04769999999999999
1584.0,0.0478
1588.0,0.0479
1592.0,0.048499999999999995
1596.0,0.048600000000000004
1600.0,0.048499999999999995
1604.0,0.048499999999999995
1608.0,0.048499999999999995
1612.0,0.0484
1616.0,0.048799999999999996
1620.0,0.0489
1624.0,0.0482
1628.0,0.0487
1632.0,0.0482
1636.0,0.0483
1640.0,0.0484
1644.0,0.0489
1648.0,0.0489
1652.0,0.0489
1656.0,0.048799999999999996
1660.0,0.0487
1664.0,0.0492
1668.0,0.049400000000000006
1672.0,0.0495
1676.0,0.0489
1680.0,0.05
1684.0,0.0493
1688.0,0.0492
1692.0,0.0492
1696.0,0.0492
1700.0,0.049100000000000005
1704.0,0.049100000000000005
1708.0,0.0493
1712.0,0.049400000000000006
1716.0,0.0495
1720.0,0.0506
1724.0,0.05
1728.0,0.0504
1732.0,0.0499
1736.0,0.050300000000000004
1740.0,0.049800000000000004
1744.0,0.0499
1748.0,0.0504
1752.0,0.0506
1756.0,0.050499999999999996
1760.0,0.0504
1764.0,0.0499
1768.0,0.0499
1772.0,0.0504
1776.0,0.050300000000000004
1780.0,0.050499999999999996
1784.0,0.050499999999999996
1788.0,0.0506
1792.0,0.051
1796.0,0.0504
1800.0,0.0509
1804.0,0.0509
1808.0,0.051
1812.0,0.0508
1816.0,0.0501
1820.0,0.050300000000000004
1824.0,0.050300000000000004
1828.0,0.0501
1832.0,0.0508
1836.0,0.0506
1840.0,0.0513
1844.0,0.0508
1848.0,0.0509
1852.0,0.0508
1856.0,0.0513
1860.0,0.051699999999999996
1864.0,0.051100000000000007
1868.0,0.0513
1872.0,0.0513
1876.0,0.0513
1880.0,0.051399999999999994
1884.0,0.0512
1888.0,0.051500000000000004
1892.0,0.051
1896.0,0.0509
1900.0,0.051
1904.0,0.051100000000000007
1908.0,0.051399999999999994
1912.0,0.0519
1916.0,0.0518
1920.0,0.0519
1924.0,0.0518
1928.0,0.051699999999999996
1932.0,0.0513
1936.0,0.0513
1940.0,0.0512
1944.0,0.051399999999999994
1948.0,0.051100000000000007
1952.0,0.051699999999999996
1956.0,0.051
1960.0,0.051399999999999994
1964.0,0.0518
1968.0,0.0516
1972.0,0.051399999999999994
1976.0,0.0519
1980.0,0.0524
1984.0,0.0528
1988.0,0.0528
1992.0,0.052199999999999996
1996.0,0.053399999999999996
2000.0,0.0524
2004.0,0.052300000000000006
2008.0,0.053200000000000004
2012.0,0.0521
2016.0,0.0524
2020.0,0.0519
2024.0,0.0524
2028.0,0.0524
2032.0,0.052300000000000006
2036.0,0.0529
2040.0,0.053
2044.0,0.053099999999999994
2048.0,0.053
2052.0,0.0529
2056.0,0.0533
2060.0,0.0538
2064.0,0.053099999999999994
2068.0,0.0533
2072.0,0.0533
2076.0,0.053399999999999996
2080.0,0.053399999999999996
2084.0,0.0526
2088.0,0.0529
2092.0,0.0527
2096.0,0.0535
2100.0,0.053399999999999996
2104.0,0.0538
2108.0,0.0535
2112.0,0.054000000000000006
2116.0,0.0537
2120.0,0.053899999999999997
2124.0,0.0541
2128.0,0.0536
2132.0,0.054299999999999994
2136.0,0.053200000000000004
2140.0,0.053899999999999997
2144.0,0.053399999999999996
2148.0,0.053899999999999997
2152.0,0.054000000000000006
2156.0,0.0538
2160.0,0.0533
2164.0,0.0529
2168.0,0.053399999999999996
2172.0,0.0535
2176.0,0.053899999999999997
2180.0,0.054000000000000006
2184.0,0.054299999999999994
2188.0,0.0538
2192.0,0.053899999999999997
2196.0,0.0541
2200.0,0.0541
2204.0,0.054000000000000006
2208.0,0.054000000000000006
2212.0,0.054000000000000006
2216.0,0.0536
2220.0,0.0537
2224.0,0.0542
2228.0,0.0537
2232.0,0.0541
2236.0,0.0545
2240.0,0.054000000000000006
2244.0,0.0546
2248.0,0.0546
2252.0,0.0545
2256.0,0.055
2260.0,0.055099999999999996
2264.0,0.055099999999999996
2268.0,0.054900000000000004
2272.0,0.0548
2276.0,0.0554
2280.0,0.0555
2284.0,0.055099999999999996
2288.0,0.055
2292.0,0.055
2296.0,0.055
2300.0,0.054900000000000004
2304.0,0.0548
2308.0,0.055
2312.0,0.0554
2316.0,0.0556
2320.0,0.0555
2324.0,0.0553
2328.0,0.0554
2332.0,0.0552
2336.0,0.055999999999999994
2340.0,0.0558
2344.0,0.0553
2348.0,0.0558
2352.0,0.0555
2356.0,0.0555
2360.0,0.054900000000000004
2364.0,0.0555
2368.0,0.0554
2372.0,0.0554
2376.0,0.0555
2380.0,0.0556
2384.0,0.055999999999999994
2388.0,0.0559
2392.0,0.0559
2396.0,0.0564
2400.0,0.0564
2404.0,0.057
2408.0,0.0565
2412.0,0.056299999999999996
2416.0,0.056299999999999996
2420.0,0.056299999999999996
2424.0,0.0562
2428.0,0.0562
2432.0,0.0558
2436.0,0.0562
2440.0,0.056799999999999996
2444.0,0.056799999999999996
2448.0,0.0567
2452.0,0.0562
2456.0,0.056900000000000006
2460.0,0.0567
2464.0,0.057300000000000004
2468.0,0.057300000000000004
2472.0,0.0572
2476.0,0.057300000000000004
2480.0,0.0574
2484.0,0.0579
2488.0,0.0583
2492.0,0.058499999999999996
2496.0,0.0584
2500.0,0.057800000000000004
