Database of Origin,ASTER / ECOSTRESS Spectral Library
Sample Description,ASTER / ECOSTRESS Coarse Magnetite
Other Information,mineral.oxide.none.coarse.vswir.o-4a.jpl.beckman.spectrum.txt
Date Added,2018-06-29 20:04:34.935458

Data ID,ASTR_200            
Sample ID,O-4A
Mineral Name,Magnetite
Locality,Canada/ Ontario/ Haliburton County/ Wilberforce
Grain Size,125-500um
Formula,Fe^2+Fe_2^3+O_4
Material Class,oxide

Wavelength
401.0,0.0616
402.0,0.0633
403.0,0.061399999999999996
404.0,0.061500000000000006
405.0,0.06269999999999999
406.0,0.061399999999999996
407.0,0.062
408.0,0.061399999999999996
409.0,0.060700000000000004
410.0,0.061900000000000004
411.0,0.061399999999999996
412.0,0.062
413.0,0.0608
414.0,0.0601
415.0,0.062
416.0,0.061399999999999996
417.0,0.061399999999999996
418.0,0.061200000000000004
419.0,0.060599999999999994
420.0,0.0613
421.0,0.0608
422.0,0.0608
423.0,0.0613
424.0,0.0594
425.0,0.061200000000000004
426.0,0.060599999999999994
427.0,0.060599999999999994
428.0,0.060700000000000004
429.0,0.0601
430.0,0.061799999999999994
431.0,0.0611
432.0,0.0616
433.0,0.061200000000000004
434.0,0.0605
435.0,0.061799999999999994
436.0,0.060599999999999994
437.0,0.061200000000000004
438.0,0.0608
439.0,0.059500000000000004
440.0,0.060599999999999994
441.0,0.059500000000000004
442.0,0.0599
443.0,0.0593
444.0,0.0587
445.0,0.0604
446.0,0.0592
447.0,0.0592
448.0,0.0593
449.0,0.0582
450.0,0.0599
451.0,0.0588
452.0,0.0582
453.0,0.0581
454.0,0.057999999999999996
455.0,0.0591
456.0,0.057699999999999994
457.0,0.0588
458.0,0.0587
459.0,0.0574
460.0,0.0588
461.0,0.0593
462.0,0.0581
463.0,0.0582
464.0,0.0581
465.0,0.0581
466.0,0.0593
467.0,0.0582
468.0,0.0581
469.0,0.0581
470.0,0.0581
471.0,0.057999999999999996
472.0,0.057300000000000004
473.0,0.057999999999999996
474.0,0.057800000000000004
475.0,0.057800000000000004
476.0,0.0572
477.0,0.058499999999999996
478.0,0.058499999999999996
479.0,0.0579
480.0,0.057800000000000004
481.0,0.0567
482.0,0.058600000000000006
483.0,0.057999999999999996
484.0,0.0572
485.0,0.0583
486.0,0.0583
487.0,0.0571
488.0,0.057699999999999994
489.0,0.0582
490.0,0.0576
491.0,0.057999999999999996
492.0,0.0579
493.0,0.0572
494.0,0.057
495.0,0.0582
496.0,0.0581
497.0,0.0581
498.0,0.057999999999999996
499.0,0.0574
500.0,0.057999999999999996
501.0,0.0584
502.0,0.0579
503.0,0.0579
504.0,0.0583
505.0,0.0583
506.0,0.0583
507.0,0.057300000000000004
508.0,0.057300000000000004
509.0,0.057300000000000004
510.0,0.0574
511.0,0.0584
512.0,0.0571
513.0,0.057
514.0,0.057
515.0,0.0571
516.0,0.0572
517.0,0.0571
518.0,0.056799999999999996
519.0,0.056900000000000006
520.0,0.057
521.0,0.0564
522.0,0.0575
523.0,0.057999999999999996
524.0,0.057999999999999996
525.0,0.057999999999999996
526.0,0.057999999999999996
527.0,0.057999999999999996
528.0,0.058600000000000006
529.0,0.0581
530.0,0.0576
531.0,0.057699999999999994
532.0,0.0579
533.0,0.0576
534.0,0.0579
535.0,0.057800000000000004
536.0,0.057800000000000004
537.0,0.0583
538.0,0.0572
539.0,0.057800000000000004
540.0,0.0572
541.0,0.0571
542.0,0.0572
543.0,0.0572
544.0,0.057699999999999994
545.0,0.0576
546.0,0.056900000000000006
547.0,0.0579
548.0,0.056600000000000004
549.0,0.057699999999999994
550.0,0.0565
551.0,0.056299999999999996
552.0,0.056299999999999996
553.0,0.0557
554.0,0.0574
555.0,0.0574
556.0,0.0574
557.0,0.056900000000000006
558.0,0.057800000000000004
559.0,0.056799999999999996
560.0,0.057
561.0,0.057
562.0,0.0575
563.0,0.0574
564.0,0.0564
565.0,0.0576
566.0,0.056799999999999996
567.0,0.057
568.0,0.056299999999999996
569.0,0.056900000000000006
570.0,0.057999999999999996
571.0,0.0575
572.0,0.0576
573.0,0.0567
574.0,0.056600000000000004
575.0,0.0576
576.0,0.0562
577.0,0.0565
578.0,0.056600000000000004
579.0,0.0571
580.0,0.0571
581.0,0.0565
582.0,0.057800000000000004
583.0,0.0565
584.0,0.057
585.0,0.057
586.0,0.0558
587.0,0.057699999999999994
588.0,0.0572
589.0,0.057800000000000004
590.0,0.0571
591.0,0.0559
592.0,0.0571
593.0,0.056600000000000004
594.0,0.057699999999999994
595.0,0.057
596.0,0.0558
597.0,0.056900000000000006
598.0,0.056900000000000006
599.0,0.0572
600.0,0.056799999999999996
601.0,0.0565
602.0,0.0579
603.0,0.0572
604.0,0.0576
605.0,0.056900000000000006
606.0,0.0556
607.0,0.0575
608.0,0.056799999999999996
609.0,0.057800000000000004
610.0,0.0567
611.0,0.056600000000000004
612.0,0.0574
613.0,0.0574
614.0,0.0574
615.0,0.0574
616.0,0.0562
617.0,0.057300000000000004
618.0,0.057300000000000004
619.0,0.0574
620.0,0.057300000000000004
621.0,0.0572
622.0,0.057800000000000004
623.0,0.0567
624.0,0.0574
625.0,0.056799999999999996
626.0,0.0574
627.0,0.0579
628.0,0.0572
629.0,0.0572
630.0,0.056799999999999996
631.0,0.057800000000000004
632.0,0.0579
633.0,0.0567
634.0,0.057300000000000004
635.0,0.056799999999999996
636.0,0.056900000000000006
637.0,0.057
638.0,0.056299999999999996
639.0,0.0574
640.0,0.0574
641.0,0.057300000000000004
642.0,0.057300000000000004
643.0,0.0556
644.0,0.057300000000000004
645.0,0.0567
646.0,0.057300000000000004
647.0,0.0567
648.0,0.0556
649.0,0.0575
650.0,0.0574
651.0,0.0579
652.0,0.0572
653.0,0.056100000000000004
654.0,0.057300000000000004
655.0,0.0575
656.0,0.0574
657.0,0.0567
658.0,0.0555
659.0,0.057300000000000004
660.0,0.0567
661.0,0.0574
662.0,0.056299999999999996
663.0,0.0562
664.0,0.0574
665.0,0.056600000000000004
666.0,0.0572
667.0,0.0572
668.0,0.056100000000000004
669.0,0.0572
670.0,0.056600000000000004
671.0,0.0572
672.0,0.0567
673.0,0.0562
674.0,0.056900000000000006
675.0,0.0564
676.0,0.0575
677.0,0.0562
678.0,0.055999999999999994
679.0,0.0572
680.0,0.056100000000000004
681.0,0.0572
682.0,0.056600000000000004
683.0,0.056600000000000004
684.0,0.0572
685.0,0.0567
686.0,0.056799999999999996
687.0,0.056799999999999996
688.0,0.0567
689.0,0.057800000000000004
690.0,0.0565
691.0,0.056600000000000004
692.0,0.055999999999999994
693.0,0.056600000000000004
694.0,0.0572
695.0,0.0555
696.0,0.0556
697.0,0.0557
698.0,0.0564
699.0,0.057
700.0,0.055099999999999996
701.0,0.055999999999999994
702.0,0.055999999999999994
703.0,0.0553
704.0,0.0565
705.0,0.0555
706.0,0.0556
707.0,0.0556
708.0,0.0555
709.0,0.056600000000000004
710.0,0.0554
711.0,0.0548
712.0,0.0554
713.0,0.0554
714.0,0.0571
715.0,0.0554
716.0,0.0556
717.0,0.0557
718.0,0.0556
719.0,0.056600000000000004
720.0,0.0554
721.0,0.0554
722.0,0.0555
723.0,0.055999999999999994
724.0,0.055999999999999994
725.0,0.0548
726.0,0.0555
727.0,0.055
728.0,0.0555
729.0,0.0554
730.0,0.0542
731.0,0.0554
732.0,0.054900000000000004
733.0,0.054900000000000004
734.0,0.054900000000000004
735.0,0.0536
736.0,0.0554
737.0,0.054400000000000004
738.0,0.0538
739.0,0.054400000000000004
740.0,0.0537
741.0,0.0555
742.0,0.054900000000000004
743.0,0.054299999999999994
744.0,0.0542
745.0,0.0536
746.0,0.0548
747.0,0.0538
748.0,0.0538
749.0,0.054299999999999994
750.0,0.0542
751.0,0.0554
752.0,0.054299999999999994
753.0,0.0537
754.0,0.0537
755.0,0.0537
756.0,0.054400000000000004
757.0,0.053200000000000004
758.0,0.0536
759.0,0.0536
760.0,0.0542
761.0,0.0548
762.0,0.053099999999999994
763.0,0.0536
764.0,0.0525
765.0,0.0537
766.0,0.0536
767.0,0.053
768.0,0.0546
769.0,0.053099999999999994
770.0,0.0536
771.0,0.053099999999999994
772.0,0.0518
773.0,0.0536
774.0,0.053200000000000004
775.0,0.0537
776.0,0.0548
777.0,0.0547
778.0,0.0553
779.0,0.0553
780.0,0.0541
781.0,0.0546
782.0,0.0535
783.0,0.0554
784.0,0.0547
785.0,0.0546
786.0,0.055099999999999996
787.0,0.054000000000000006
788.0,0.0552
789.0,0.054000000000000006
790.0,0.054000000000000006
791.0,0.0541
792.0,0.0542
793.0,0.0547
794.0,0.053399999999999996
795.0,0.054000000000000006
796.0,0.053
797.0,0.0537
798.0,0.054299999999999994
799.0,0.0538
800.0,0.0537
804.0,0.053200000000000004
808.0,0.053200000000000004
812.0,0.0535
816.0,0.053899999999999997
820.0,0.0533
824.0,0.0533
828.0,0.0527
832.0,0.0528
836.0,0.0521
840.0,0.0521
844.0,0.051100000000000007
848.0,0.051
852.0,0.051100000000000007
856.0,0.0504
860.0,0.05
864.0,0.0499
868.0,0.0499
872.0,0.05
876.0,0.0493
880.0,0.0499
884.0,0.049400000000000006
888.0,0.0487
892.0,0.0493
896.0,0.048799999999999996
900.0,0.048799999999999996
904.0,0.0482
908.0,0.0481
912.0,0.0482
916.0,0.0482
920.0,0.048799999999999996
924.0,0.0481
928.0,0.047599999999999996
932.0,0.047599999999999996
936.0,0.047599999999999996
940.0,0.0471
944.0,0.046900000000000004
948.0,0.0471
952.0,0.0471
956.0,0.0471
960.0,0.0471
964.0,0.0475
968.0,0.046900000000000004
972.0,0.047
976.0,0.04650000000000001
980.0,0.047
984.0,0.047
988.0,0.047
992.0,0.046900000000000004
996.0,0.047
1000.0,0.047
1004.0,0.046900000000000004
1008.0,0.046900000000000004
1012.0,0.04650000000000001
1016.0,0.0466
1020.0,0.0471
1024.0,0.0471
1028.0,0.04650000000000001
1032.0,0.047599999999999996
1036.0,0.0471
1040.0,0.04650000000000001
1044.0,0.04650000000000001
1048.0,0.046900000000000004
1052.0,0.046799999999999994
1056.0,0.046900000000000004
1060.0,0.0461
1064.0,0.0463
1068.0,0.046799999999999994
1072.0,0.046799999999999994
1076.0,0.04650000000000001
1080.0,0.046799999999999994
1084.0,0.0471
1088.0,0.0464
1092.0,0.046900000000000004
1096.0,0.0475
1100.0,0.046900000000000004
1104.0,0.047599999999999996
1108.0,0.0479
1112.0,0.046900000000000004
1116.0,0.0481
1120.0,0.0479
1124.0,0.0479
1128.0,0.0473
1132.0,0.04769999999999999
1136.0,0.0479
1140.0,0.047599999999999996
1144.0,0.0479
1148.0,0.0479
1152.0,0.048600000000000004
1156.0,0.0492
1160.0,0.049100000000000005
1164.0,0.0496
1168.0,0.0496
1172.0,0.049800000000000004
1176.0,0.049699999999999994
1180.0,0.049699999999999994
1184.0,0.050300000000000004
1188.0,0.0506
1192.0,0.0499
1196.0,0.0504
1200.0,0.050300000000000004
1204.0,0.050499999999999996
1208.0,0.0506
1212.0,0.0504
1216.0,0.0508
1220.0,0.051399999999999994
1224.0,0.051100000000000007
1228.0,0.051500000000000004
1232.0,0.0512
1236.0,0.052199999999999996
1240.0,0.0526
1244.0,0.0524
1248.0,0.0535
1252.0,0.0529
1256.0,0.053399999999999996
1260.0,0.0529
1264.0,0.0535
1268.0,0.0536
1272.0,0.053200000000000004
1276.0,0.053399999999999996
1280.0,0.054000000000000006
1284.0,0.0548
1288.0,0.0552
1292.0,0.0548
1296.0,0.054900000000000004
1300.0,0.0554
1304.0,0.0552
1308.0,0.0552
1312.0,0.0557
1316.0,0.0557
1320.0,0.0557
1324.0,0.0564
1328.0,0.055999999999999994
1332.0,0.056600000000000004
1336.0,0.0559
1340.0,0.056799999999999996
1344.0,0.0574
1348.0,0.056799999999999996
1352.0,0.0574
1356.0,0.057699999999999994
1360.0,0.0576
1364.0,0.0588
1368.0,0.0581
1372.0,0.0587
1376.0,0.0582
1380.0,0.059000000000000004
1384.0,0.059000000000000004
1388.0,0.0599
1392.0,0.059800000000000006
1396.0,0.0605
1400.0,0.060599999999999994
1404.0,0.060700000000000004
1408.0,0.0613
1412.0,0.061399999999999996
1416.0,0.061200000000000004
1420.0,0.061900000000000004
1424.0,0.0616
1428.0,0.0622
1432.0,0.06269999999999999
1436.0,0.06269999999999999
1440.0,0.0629
1444.0,0.0629
1448.0,0.06309999999999999
1452.0,0.0633
1456.0,0.0629
1460.0,0.0639
1464.0,0.0644
1468.0,0.0645
1472.0,0.0644
1476.0,0.065
1480.0,0.06509999999999999
1484.0,0.0653
1488.0,0.0653
1492.0,0.0652
1496.0,0.0659
1500.0,0.066
1504.0,0.0664
1508.0,0.06709999999999999
1512.0,0.0677
1516.0,0.06709999999999999
1520.0,0.0681
1524.0,0.068
1528.0,0.0679
1532.0,0.0682
1536.0,0.06849999999999999
1540.0,0.0689
1544.0,0.0684
1548.0,0.0692
1552.0,0.0695
1556.0,0.0697
1560.0,0.0698
1564.0,0.0696
1568.0,0.0702
1572.0,0.0702
1576.0,0.0702
1580.0,0.0704
1584.0,0.0704
1588.0,0.0704
1592.0,0.0713
1596.0,0.0716
1600.0,0.0716
1604.0,0.0722
1608.0,0.0722
1612.0,0.0724
1616.0,0.07200000000000001
1620.0,0.0717
1624.0,0.0722
1628.0,0.0723
1632.0,0.0729
1636.0,0.073
1640.0,0.0735
1644.0,0.0736
1648.0,0.0737
1652.0,0.0736
1656.0,0.0747
1660.0,0.0741
1664.0,0.07400000000000001
1668.0,0.0748
1672.0,0.075
1676.0,0.0754
1680.0,0.0754
1684.0,0.07519999999999999
1688.0,0.0767
1692.0,0.0764
1696.0,0.07690000000000001
1700.0,0.0767
1704.0,0.0767
1708.0,0.077
1712.0,0.0771
1716.0,0.0776
1720.0,0.07769999999999999
1724.0,0.0775
1728.0,0.0779
1732.0,0.0784
1736.0,0.07780000000000001
1740.0,0.0785
1744.0,0.0785
1748.0,0.0785
1752.0,0.078
1756.0,0.079
1760.0,0.0793
1764.0,0.079
1768.0,0.0786
1772.0,0.0795
1776.0,0.0791
1780.0,0.07980000000000001
1784.0,0.08
1788.0,0.08039999999999999
1792.0,0.07980000000000001
1796.0,0.0801
1800.0,0.0806
1804.0,0.0806
1808.0,0.0806
1812.0,0.08039999999999999
1816.0,0.081
1820.0,0.08109999999999999
1824.0,0.081
1828.0,0.0815
1832.0,0.0817
1836.0,0.0816
1840.0,0.0817
1844.0,0.08259999999999999
1848.0,0.08220000000000001
1852.0,0.08199999999999999
1856.0,0.0824
1860.0,0.08289999999999999
1864.0,0.08310000000000001
1868.0,0.0827
1872.0,0.0834
1876.0,0.0833
1880.0,0.08349999999999999
1884.0,0.0836
1888.0,0.08380000000000001
1892.0,0.0837
1896.0,0.0833
1900.0,0.08439999999999999
1904.0,0.08449999999999999
1908.0,0.08439999999999999
1912.0,0.084
1916.0,0.08470000000000001
1920.0,0.0849
1924.0,0.0857
1928.0,0.0855
1932.0,0.08539999999999999
1936.0,0.0862
1940.0,0.0862
1944.0,0.0867
1948.0,0.0858
1952.0,0.086
1956.0,0.08710000000000001
1960.0,0.08689999999999999
1964.0,0.0868
1968.0,0.08710000000000001
1972.0,0.0874
1976.0,0.0876
1980.0,0.0875
1984.0,0.08789999999999999
1988.0,0.08789999999999999
1992.0,0.08839999999999999
1996.0,0.08869999999999999
2000.0,0.0889
2004.0,0.08900000000000001
2008.0,0.08960000000000001
2012.0,0.0891
2016.0,0.08929999999999999
2020.0,0.0897
2024.0,0.0891
2028.0,0.08929999999999999
2032.0,0.0897
2036.0,0.0901
2040.0,0.0897
2044.0,0.08960000000000001
2048.0,0.0901
2052.0,0.0909
2056.0,0.0902
2060.0,0.0901
2064.0,0.0901
2068.0,0.0907
2072.0,0.0904
2076.0,0.0904
2080.0,0.0908
2084.0,0.0901
2088.0,0.0908
2092.0,0.0911
2096.0,0.0917
2100.0,0.09210000000000002
2104.0,0.09210000000000002
2108.0,0.0929
2112.0,0.0928
2116.0,0.0932
2120.0,0.09300000000000001
2124.0,0.0933
2128.0,0.0929
2132.0,0.0925
2136.0,0.0929
2140.0,0.0928
2144.0,0.0924
2148.0,0.09300000000000001
2152.0,0.0924
2156.0,0.0928
2160.0,0.09369999999999999
2164.0,0.09359999999999999
2168.0,0.09390000000000001
2172.0,0.0944
2176.0,0.09449999999999999
2180.0,0.0941
2184.0,0.0943
2188.0,0.0946
2192.0,0.09390000000000001
2196.0,0.09390000000000001
2200.0,0.0941
2204.0,0.0934
2208.0,0.09390000000000001
2212.0,0.09390000000000001
2216.0,0.0942
2220.0,0.0944
2224.0,0.0949
2228.0,0.0946
2232.0,0.0947
2236.0,0.095
2240.0,0.0956
2244.0,0.0953
2248.0,0.09570000000000001
2252.0,0.096
2256.0,0.096
2260.0,0.0967
2264.0,0.0967
2268.0,0.09699999999999999
2272.0,0.0965
2276.0,0.09630000000000001
2280.0,0.0967
2284.0,0.0966
2288.0,0.0966
2292.0,0.0971
2296.0,0.09630000000000001
2300.0,0.0965
2304.0,0.0964
2308.0,0.0965
2312.0,0.0965
2316.0,0.0962
2320.0,0.09759999999999999
2324.0,0.09820000000000001
2328.0,0.0983
2332.0,0.0983
2336.0,0.09880000000000001
2340.0,0.09939999999999999
2344.0,0.09910000000000001
2348.0,0.09949999999999999
2352.0,0.0993
2356.0,0.0993
2360.0,0.09970000000000001
2364.0,0.09949999999999999
2368.0,0.09960000000000001
2372.0,0.099
2376.0,0.0987
2380.0,0.0989
2384.0,0.09910000000000001
2388.0,0.09849999999999999
2392.0,0.0992
2396.0,0.1
2400.0,0.09939999999999999
2404.0,0.0992
2408.0,0.09970000000000001
2412.0,0.0998
2416.0,0.1
2420.0,0.0998
2424.0,0.10039999999999999
2428.0,0.1007
2432.0,0.1014
2436.0,0.1012
2440.0,0.10099999999999999
2444.0,0.1009
2448.0,0.1014
2452.0,0.1015
2456.0,0.1016
2460.0,0.1018
2464.0,0.10210000000000001
2468.0,0.1013
2472.0,0.10210000000000001
2476.0,0.10189999999999999
2480.0,0.102
2484.0,0.1017
2488.0,0.1016
2492.0,0.1017
2496.0,0.102
2500.0,0.1026
