Database of Origin,University of Winnipeg Spectrophotometer Facility
Sample Description,8. Sulfates - spectra from Jim Crowley (USGS) /  Crowley sulfate spectra (1991 paper)
Date Added,2016-07-15 22:04:17.769684

Data ID,CWL_SUL_08          
Sample ID,Leonite
Mineral Name,Leonite
Locality,Dehydrated picromerite
Grain Size,~250
Resolution,1-4
Material Class,Sulfate

Wavelength
406.0,0.933
407.0,0.934
408.0,0.934
409.0,0.935
410.0,0.935
411.0,0.935
412.0,0.936
413.0,0.936
414.0,0.936
415.0,0.936
416.0,0.936
417.0,0.936
418.0,0.936
419.0,0.936
420.0,0.936
421.0,0.935
422.0,0.935
423.0,0.936
424.0,0.936
425.0,0.936
426.0,0.936
427.0,0.936
428.0,0.936
429.0,0.936
430.0,0.937
431.0,0.937
432.0,0.937
433.0,0.938
434.0,0.938
435.0,0.938
436.0,0.938
437.0,0.938
438.0,0.937
439.0,0.937
440.0,0.937
441.0,0.937
442.0,0.938
443.0,0.938
444.0,0.938
445.0,0.939
446.0,0.939
447.0,0.94
448.0,0.94
449.0,0.941
450.0,0.941
451.0,0.941
452.0,0.94
453.0,0.94
454.0,0.94
455.0,0.94
456.0,0.939
457.0,0.94
458.0,0.94
459.0,0.94
460.0,0.94
461.0,0.94
462.0,0.94
463.0,0.94
464.0,0.94
465.0,0.941
466.0,0.941
467.0,0.942
468.0,0.942
469.0,0.942
470.0,0.943
471.0,0.942
472.0,0.942
473.0,0.942
474.0,0.942
475.0,0.942
476.0,0.942
477.0,0.942
478.0,0.943
479.0,0.943
480.0,0.943
481.0,0.943
482.0,0.943
483.0,0.943
484.0,0.943
485.0,0.944
486.0,0.944
487.0,0.944
488.0,0.945
489.0,0.945
490.0,0.945
491.0,0.945
492.0,0.945
493.0,0.944
494.0,0.944
495.0,0.943
496.0,0.943
497.0,0.943
498.0,0.943
499.0,0.943
500.0,0.943
501.0,0.943
502.0,0.943
503.0,0.943
504.0,0.943
505.0,0.944
506.0,0.944
507.0,0.944
508.0,0.944
509.0,0.944
510.0,0.944
511.0,0.944
512.0,0.944
513.0,0.944
514.0,0.945
515.0,0.945
516.0,0.945
517.0,0.945
518.0,0.946
519.0,0.946
520.0,0.946
521.0,0.946
522.0,0.946
523.0,0.947
524.0,0.947
525.0,0.947
526.0,0.947
527.0,0.947
528.0,0.947
529.0,0.948
530.0,0.948
531.0,0.948
532.0,0.948
533.0,0.947
534.0,0.947
535.0,0.947
536.0,0.947
537.0,0.947
538.0,0.947
539.0,0.947
540.0,0.947
541.0,0.947
542.0,0.947
543.0,0.947
544.0,0.946
545.0,0.946
546.0,0.946
547.0,0.946
548.0,0.946
549.0,0.946
550.0,0.946
551.0,0.946
552.0,0.946
553.0,0.946
554.0,0.945
555.0,0.945
556.0,0.945
557.0,0.945
558.0,0.945
559.0,0.945
560.0,0.945
561.0,0.946
562.0,0.946
563.0,0.947
564.0,0.947
565.0,0.947
566.0,0.948
567.0,0.948
568.0,0.947
569.0,0.947
570.0,0.947
571.0,0.946
572.0,0.946
573.0,0.946
574.0,0.946
575.0,0.946
576.0,0.946
577.0,0.946
578.0,0.947
579.0,0.947
580.0,0.947
581.0,0.948
582.0,0.948
583.0,0.948
584.0,0.948
585.0,0.949
586.0,0.949
587.0,0.949
588.0,0.95
589.0,0.95
590.0,0.951
591.0,0.951
592.0,0.951
593.0,0.951
594.0,0.951
595.0,0.951
596.0,0.951
597.0,0.95
598.0,0.95
599.0,0.95
600.0,0.95
601.0,0.95
602.0,0.95
603.0,0.95
604.0,0.95
605.0,0.951
606.0,0.951
607.0,0.951
608.0,0.951
609.0,0.951
610.0,0.951
611.0,0.951
612.0,0.951
613.0,0.951
614.0,0.951
615.0,0.951
616.0,0.951
617.0,0.951
618.0,0.952
619.0,0.952
620.0,0.952
621.0,0.951
622.0,0.951
623.0,0.951
624.0,0.951
625.0,0.951
626.0,0.951
627.0,0.951
628.0,0.952
629.0,0.952
630.0,0.952
631.0,0.953
632.0,0.953
633.0,0.953
634.0,0.953
635.0,0.952
636.0,0.952
637.0,0.952
638.0,0.951
639.0,0.951
640.0,0.951
641.0,0.95
642.0,0.951
643.0,0.951
644.0,0.951
645.0,0.951
646.0,0.951
647.0,0.952
648.0,0.952
649.0,0.952
650.0,0.953
651.0,0.953
652.0,0.953
653.0,0.953
654.0,0.953
655.0,0.953
656.0,0.953
657.0,0.953
658.0,0.952
659.0,0.952
660.0,0.952
661.0,0.952
662.0,0.952
663.0,0.952
664.0,0.953
665.0,0.953
666.0,0.953
667.0,0.953
668.0,0.953
669.0,0.953
670.0,0.953
671.0,0.953
672.0,0.953
673.0,0.953
674.0,0.953
675.0,0.953
676.0,0.952
677.0,0.952
678.0,0.951
679.0,0.951
680.0,0.951
681.0,0.951
682.0,0.951
683.0,0.951
684.0,0.951
685.0,0.951
686.0,0.951
687.0,0.952
688.0,0.952
689.0,0.953
690.0,0.953
691.0,0.953
692.0,0.953
693.0,0.953
694.0,0.952
695.0,0.952
696.0,0.951
697.0,0.951
698.0,0.951
699.0,0.951
700.0,0.951
701.0,0.951
702.0,0.951
703.0,0.951
704.0,0.951
705.0,0.952
706.0,0.952
707.0,0.952
708.0,0.953
709.0,0.952
710.0,0.952
711.0,0.952
712.0,0.952
713.0,0.952
714.0,0.952
715.0,0.952
716.0,0.952
717.0,0.952
718.0,0.952
719.0,0.952
720.0,0.952
721.0,0.952
722.0,0.952
723.0,0.952
724.0,0.952
725.0,0.952
726.0,0.952
727.0,0.952
728.0,0.952
729.0,0.952
730.0,0.952
731.0,0.952
732.0,0.952
733.0,0.952
734.0,0.952
735.0,0.952
736.0,0.952
737.0,0.952
738.0,0.952
739.0,0.952
740.0,0.951
741.0,0.951
742.0,0.951
743.0,0.952
744.0,0.952
745.0,0.952
746.0,0.952
747.0,0.953
748.0,0.953
749.0,0.953
750.0,0.953
751.0,0.953
752.0,0.953
753.0,0.953
754.0,0.953
755.0,0.953
756.0,0.953
757.0,0.953
758.0,0.953
759.0,0.953
760.0,0.953
761.0,0.952
762.0,0.952
763.0,0.952
764.0,0.952
765.0,0.952
766.0,0.952
767.0,0.952
768.0,0.952
769.0,0.952
770.0,0.952
771.0,0.952
772.0,0.952
773.0,0.952
774.0,0.952
775.0,0.951
776.0,0.951
777.0,0.951
778.0,0.951
779.0,0.951
780.0,0.95
781.0,0.95
782.0,0.95
783.0,0.95
784.0,0.95
785.0,0.95
786.0,0.949
787.0,0.949
788.0,0.949
789.0,0.949
790.0,0.949
791.0,0.949
792.0,0.949
793.0,0.949
794.0,0.949
795.0,0.948
796.0,0.948
797.0,0.948
798.0,0.948
799.0,0.947
800.0,0.947
801.0,0.947
802.0,0.946
803.0,0.946
804.0,0.946
805.0,0.945
809.0,0.946
813.0,0.946
817.0,0.944
821.0,0.942
825.0,0.942
829.0,0.943
833.0,0.942
837.0,0.942
841.0,0.941
845.0,0.94
849.0,0.941
853.0,0.942
857.0,0.943
861.0,0.944
865.0,0.944
869.0,0.944
873.0,0.943
877.0,0.943
881.0,0.944
885.0,0.945
889.0,0.946
893.0,0.947
897.0,0.949
901.0,0.949
905.0,0.95
909.0,0.95
913.0,0.949
917.0,0.95
921.0,0.951
925.0,0.951
929.0,0.951
933.0,0.95
937.0,0.951
941.0,0.952
945.0,0.952
949.0,0.951
953.0,0.951
957.0,0.951
961.0,0.951
965.0,0.951
969.0,0.949
973.0,0.949
977.0,0.951
981.0,0.952
985.0,0.952
989.0,0.951
993.0,0.952
997.0,0.95
1001.0,0.948
1005.0,0.948
1009.0,0.95
1013.0,0.952
1017.0,0.951
1021.0,0.949
1025.0,0.949
1029.0,0.949
1033.0,0.95
1037.0,0.951
1041.0,0.951
1045.0,0.952
1049.0,0.952
1053.0,0.952
1057.0,0.952
1061.0,0.952
1065.0,0.951
1069.0,0.95
1073.0,0.949
1077.0,0.949
1081.0,0.95
1085.0,0.951
1089.0,0.953
1093.0,0.954
1097.0,0.954
1101.0,0.953
1105.0,0.953
1109.0,0.952
1113.0,0.952
1117.0,0.952
1121.0,0.951
1125.0,0.951
1129.0,0.952
1133.0,0.951
1137.0,0.95
1141.0,0.949
1145.0,0.947
1149.0,0.945
1153.0,0.945
1157.0,0.944
1161.0,0.944
1165.0,0.945
1169.0,0.944
1173.0,0.943
1177.0,0.942
1181.0,0.941
1185.0,0.939
1189.0,0.937
1193.0,0.936
1197.0,0.934
1201.0,0.932
1205.0,0.93
1209.0,0.929
1213.0,0.928
1217.0,0.927
1221.0,0.927
1225.0,0.926
1229.0,0.926
1233.0,0.925
1237.0,0.924
1241.0,0.924
1245.0,0.924
1249.0,0.924
1253.0,0.924
1257.0,0.923
1261.0,0.922
1265.0,0.922
1269.0,0.922
1273.0,0.922
1277.0,0.923
1281.0,0.924
1285.0,0.926
1289.0,0.928
1293.0,0.93
1297.0,0.93
1301.0,0.93
1305.0,0.93
1309.0,0.93
1313.0,0.93
1317.0,0.93
1321.0,0.93
1325.0,0.93
1329.0,0.93
1333.0,0.929
1337.0,0.927
1341.0,0.926
1345.0,0.925
1349.0,0.924
1353.0,0.922
1357.0,0.917
1361.0,0.913
1365.0,0.91
1369.0,0.908
1373.0,0.908
1377.0,0.907
1381.0,0.903
1385.0,0.9
1389.0,0.898
1393.0,0.893
1397.0,0.888
1401.0,0.883
1405.0,0.877
1409.0,0.871
1413.0,0.865
1417.0,0.861
1421.0,0.857
1425.0,0.854
1429.0,0.85
1433.0,0.844
1437.0,0.838
1441.0,0.832
1445.0,0.826
1449.0,0.821
1453.0,0.817
1457.0,0.813
1461.0,0.807
1465.0,0.8
1469.0,0.792
1473.0,0.785
1477.0,0.779
1481.0,0.772
1485.0,0.767
1489.0,0.762
1493.0,0.756
1497.0,0.75
1501.0,0.744
1505.0,0.739
1509.0,0.735
1513.0,0.73
1517.0,0.724
1521.0,0.718
1525.0,0.713
1529.0,0.708
1533.0,0.705
1537.0,0.703
1541.0,0.704
1545.0,0.705
1549.0,0.706
1553.0,0.706
1557.0,0.707
1561.0,0.707
1565.0,0.706
1569.0,0.703
1573.0,0.7
1577.0,0.697
1581.0,0.693
1585.0,0.691
1589.0,0.689
1593.0,0.685
1597.0,0.682
1601.0,0.679
1605.0,0.676
1609.0,0.673
1613.0,0.67
1617.0,0.668
1621.0,0.666
1625.0,0.663
1629.0,0.661
1633.0,0.66
1637.0,0.66
1641.0,0.661
1645.0,0.661
1649.0,0.661
1653.0,0.661
1657.0,0.661
1661.0,0.661
1665.0,0.662
1669.0,0.663
1673.0,0.666
1677.0,0.67
1681.0,0.672
1685.0,0.674
1689.0,0.676
1693.0,0.678
1697.0,0.68
1701.0,0.682
1705.0,0.685
1709.0,0.689
1713.0,0.692
1717.0,0.695
1721.0,0.697
1725.0,0.7
1729.0,0.704
1733.0,0.707
1737.0,0.71
1741.0,0.711
1745.0,0.713
1749.0,0.714
1753.0,0.716
1757.0,0.717
1761.0,0.719
1765.0,0.721
1769.0,0.724
1773.0,0.727
1777.0,0.73
1781.0,0.733
1785.0,0.737
1789.0,0.742
1793.0,0.746
1797.0,0.751
1801.0,0.755
1805.0,0.758
1809.0,0.761
1813.0,0.764
1817.0,0.766
1821.0,0.77
1825.0,0.773
1829.0,0.774
1833.0,0.775
1837.0,0.776
1841.0,0.777
1845.0,0.778
1849.0,0.778
1853.0,0.778
1857.0,0.779
1861.0,0.779
1865.0,0.777
1869.0,0.772
1873.0,0.766
1877.0,0.76
1881.0,0.753
1885.0,0.745
1889.0,0.735
1893.0,0.722
1897.0,0.708
1901.0,0.691
1905.0,0.673
1909.0,0.657
1913.0,0.643
1917.0,0.63
1921.0,0.618
1925.0,0.607
1929.0,0.597
1933.0,0.586
1937.0,0.576
1941.0,0.566
1945.0,0.556
1949.0,0.547
1953.0,0.538
1957.0,0.528
1961.0,0.519
1965.0,0.51
1969.0,0.502
1973.0,0.494
1977.0,0.487
1981.0,0.482
1985.0,0.477
1989.0,0.474
1993.0,0.473
1997.0,0.474
2001.0,0.477
2005.0,0.48
2009.0,0.485
2013.0,0.489
2017.0,0.494
2021.0,0.499
2025.0,0.504
2029.0,0.508
2033.0,0.512
2037.0,0.515
2041.0,0.518
2045.0,0.521
2049.0,0.524
2053.0,0.526
2057.0,0.529
2061.0,0.533
2065.0,0.536
2069.0,0.538
2073.0,0.541
2077.0,0.544
2081.0,0.547
2085.0,0.551
2089.0,0.556
2093.0,0.561
2097.0,0.567
2101.0,0.572
2105.0,0.577
2109.0,0.582
2113.0,0.587
2117.0,0.593
2121.0,0.6
2125.0,0.606
2129.0,0.612
2133.0,0.618
2137.0,0.626
2141.0,0.634
2145.0,0.641
2149.0,0.647
2153.0,0.653
2157.0,0.658
2161.0,0.664
2165.0,0.669
2169.0,0.673
2173.0,0.676
2177.0,0.679
2181.0,0.683
2185.0,0.685
2189.0,0.686
2193.0,0.687
2197.0,0.689
2201.0,0.691
2205.0,0.694
2209.0,0.698
2213.0,0.701
2217.0,0.703
2221.0,0.705
2225.0,0.706
2229.0,0.707
2233.0,0.707
2237.0,0.708
2241.0,0.707
2245.0,0.707
2249.0,0.708
2253.0,0.708
2257.0,0.708
2261.0,0.707
2265.0,0.704
2269.0,0.701
2273.0,0.699
2277.0,0.696
2281.0,0.693
2285.0,0.689
2289.0,0.683
2293.0,0.677
2297.0,0.671
2301.0,0.664
2305.0,0.655
2309.0,0.644
2313.0,0.636
2317.0,0.629
2321.0,0.622
2325.0,0.616
2329.0,0.611
2333.0,0.606
2337.0,0.6
2341.0,0.593
2345.0,0.586
2349.0,0.581
2353.0,0.576
2357.0,0.571
2361.0,0.567
2365.0,0.562
2369.0,0.557
2373.0,0.551
2377.0,0.545
2381.0,0.54
2385.0,0.535
2389.0,0.529
2393.0,0.523
2397.0,0.515
2401.0,0.507
2405.0,0.499
2409.0,0.49
2413.0,0.48
2417.0,0.469
2421.0,0.46
2425.0,0.451
2429.0,0.445
2433.0,0.439
2437.0,0.434
2441.0,0.43
2445.0,0.429
2449.0,0.429
2453.0,0.431
2457.0,0.434
2461.0,0.436
2465.0,0.439
2469.0,0.441
2473.0,0.443
2477.0,0.444
2481.0,0.446
2485.0,0.447
2489.0,0.446
2493.0,0.446
2497.0,0.445
2501.0,0.445
2505.0,0.445
