Database of Origin,University of Winnipeg Spectrophotometer Facility
Sample Description,16.11. Meteorites - HEDs 16.11.3. NASA samples (4) Bruker Vertex 70 FTIR spectrometer
Other Information,MIR Glowbar KBr Beam Splitter MCT cryo cooled Dectect.
Date Added,2018-07-23 23:49:05.216051

Data ID,FTIR_MET2_6_3       
Sample ID,NWA 2968
Mineral Name,Dunitic diogenite
Grain Size,Surface
Viewing Geometry,i30/ e0
Resolution,7.71cm-1

Wavelength
1672.316177,0.10412
1674.476792,0.104
1676.642997,0.10372
1678.814814,0.10338
1680.992268,0.10334
1683.175374,0.10351
1685.364158,0.10324
1687.558643,0.10308
1689.758849,0.10312
1691.9648,0.10258
1694.176519,0.10158
1696.394027,0.10097
1698.61735,0.10085
1700.846507,0.10142
1703.081521,0.10253
1705.322418,0.10276
1707.569219,0.10216
1709.821949,0.10172
1712.08063,0.1012
1714.345286,0.10094
1716.615945,0.10147
1718.892624,0.10183
1721.175349,0.10176
1723.464146,0.10146
1725.759038,0.10099
1728.060049,0.10078
1730.367205,0.10084
1732.68053,0.10082
1735.000051,0.10067
1737.325788,0.10065
1739.657769,0.10091
1741.996018,0.10117
1744.340562,0.10075
1746.691425,0.09996
1749.048633,0.10013
1751.412211,0.10077
1753.78219,0.10087
1756.158588,0.10045
1758.541435,0.09936
1760.930758,0.09853
1763.326581,0.09903
1765.728933,0.09978
1768.13784,0.09951
1770.553328,0.0991
1772.975429,0.0989
1775.404162,0.09841
1777.839558,0.09801
1780.281645,0.09779
1782.73045,0.09771
1785.186001,0.09797
1787.648326,0.09815
1790.117454,0.09798
1792.593414,0.09797
1795.07623,0.09787
1797.565933,0.09754
1800.062552,0.09753
1802.566116,0.09732
1805.076653,0.09685
1807.594193,0.09695
1810.118766,0.09747
1812.650403,0.09782
1815.189129,0.09787
1817.734976,0.09781
1820.287974,0.09756
1822.848154,0.09705
1825.415545,0.09676
1827.990179,0.09672
1830.572085,0.0966
1833.161299,0.09652
1835.757844,0.09626
1838.361756,0.09554
1840.973065,0.09486
1843.591803,0.09497
1846.218001,0.09566
1848.851693,0.09616
1851.492909,0.09605
1854.141686,0.09586
1856.798049,0.09595
1859.462034,0.09586
1862.133675,0.09568
1864.813003,0.09554
1867.500053,0.09532
1870.194858,0.09515
1872.897451,0.09489
1875.60787,0.09478
1878.326142,0.09494
1881.052305,0.09474
1883.786392,0.09417
1886.528439,0.09374
1889.27848,0.09342
1892.03655,0.09309
1894.802685,0.09291
1897.576923,0.09268
1900.359294,0.09241
1903.149835,0.09228
1905.948585,0.09191
1908.755578,0.09155
1911.570851,0.09147
1914.394441,0.091
1917.226385,0.09029
1920.066724,0.09018
1922.915487,0.09045
1925.772716,0.09055
1928.638449,0.09097
1931.512723,0.09175
1934.395578,0.092
1937.28705,0.09173
1940.18718,0.09148
1943.09601,0.09122
1946.013571,0.09123
1948.939907,0.09141
1951.875057,0.09122
1954.819061,0.09068
1957.771959,0.09031
1960.733792,0.09021
1963.7046,0.09022
1966.684429,0.09027
1969.67331,0.09036
1972.671291,0.09054
1975.678411,0.0906
1978.694713,0.09023
1981.72024,0.08987
1984.755033,0.08998
1987.799135,0.09011
1990.852594,0.09003
1993.915443,0.08994
1996.987732,0.09005
2000.069502,0.09018
2003.160799,0.09006
2006.261667,0.0899
2009.37215,0.08994
2012.492292,0.08992
2015.622144,0.08981
2018.761742,0.08978
2021.911136,0.08991
2025.070371,0.09014
2028.239495,0.09027
2031.418553,0.09016
2034.607593,0.08993
2037.806661,0.08984
2041.015809,0.08998
2044.235076,0.09006
2047.464515,0.08996
2050.704173,0.08979
2053.9541,0.08969
2057.214344,0.08959
2060.484955,0.08953
2063.765981,0.08959
2067.057478,0.08957
2070.359486,0.08953
2073.672061,0.0895
2076.995253,0.08943
2080.329113,0.08934
2083.673693,0.0892
2087.029044,0.08904
2090.39522,0.08895
2093.772276,0.08881
2097.160256,0.08874
2100.559219,0.08894
2103.969217,0.08895
2107.390304,0.08865
2110.822536,0.08853
2114.265965,0.08861
2117.720647,0.08882
2121.186643,0.08919
2124.663997,0.08932
2128.152772,0.08893
2131.653022,0.08871
2135.164806,0.08881
2138.68818,0.0888
2142.223201,0.08876
2145.769927,0.08876
2149.328422,0.08874
2152.898735,0.08862
2156.480928,0.08863
2160.075063,0.08872
2163.681197,0.08851
2167.299393,0.08817
2170.929709,0.08798
2174.572208,0.0879
2178.226956,0.08786
2181.894004,0.08769
2185.57342,0.08745
2189.265266,0.08734
2192.969606,0.08728
2196.686503,0.08738
2200.416021,0.0876
2204.158225,0.08757
2207.913183,0.08738
2211.680953,0.08729
2215.461603,0.08715
2219.255201,0.08693
2223.061813,0.0869
2226.881507,0.08707
2230.714349,0.08722
2234.560407,0.08722
2238.419756,0.08708
2242.292454,0.0868
2246.178575,0.08646
2250.07819,0.08652
2253.991369,0.08696
2257.918183,0.0872
2261.858702,0.0871
2265.813,0.08686
2269.781154,0.08678
2273.763225,0.08694
2277.759293,0.08705
2281.769432,0.0869
2285.793716,0.08668
2289.832221,0.0866
2293.88502,0.08661
2297.952192,0.08668
2302.033816,0.08669
2306.129961,0.08632
2310.240709,0.08581
2314.366139,0.08558
2318.506328,0.08557
2322.661356,0.0857
2326.831304,0.08581
2331.016252,0.08583
2335.216286,0.08584
2339.431477,0.08571
2343.661913,0.08549
2347.907677,0.08542
2352.168852,0.08567
2356.445521,0.08587
2360.737771,0.08591
2365.045686,0.08596
2369.369358,0.08577
2373.708861,0.0857
2378.06429,0.08591
2382.435731,0.08591
2386.823273,0.08578
2391.227005,0.0858
2395.647017,0.08577
2400.0834,0.08571
2404.53625,0.08579
2409.005647,0.08588
2413.491691,0.08579
2417.994473,0.0857
2422.514088,0.08577
2427.050631,0.0857
2431.604196,0.08538
2436.17488,0.08515
2440.762785,0.08495
2445.367997,0.08478
2449.99062,0.08481
2454.630753,0.08491
2459.288496,0.08483
2463.963948,0.08462
2468.657212,0.08454
2473.368389,0.08462
2478.097588,0.08453
2482.844901,0.08431
2487.610438,0.08433
2492.394303,0.08446
2497.196603,0.0843
2502.017445,0.08416
2506.856937,0.08435
2511.715186,0.08453
2516.592308,0.08448
2521.488402,0.08439
2526.403583,0.08437
2531.337964,0.08433
2536.291658,0.08432
2541.264778,0.08451
2546.257439,0.08474
2551.269756,0.08463
2556.301852,0.08447
2561.353831,0.08458
2566.425818,0.08485
2571.517932,0.085
2576.630293,0.08486
2581.763021,0.08459
2586.91624,0.08454
2592.090072,0.08481
2597.284647,0.08512
2602.500077,0.0849
2607.736495,0.08435
2612.994027,0.08414
2618.272802,0.08416
2623.572949,0.08403
2628.894597,0.08369
2634.237878,0.08364
2639.60293,0.08384
2644.989874,0.08407
2650.398851,0.08415
2655.829995,0.08402
2661.283444,0.08376
2666.759335,0.08329
2672.257807,0.08293
2677.779,0.08227
2683.323062,0.08055
2688.890121,0.07771
2694.480328,0.07354
2700.093828,0.06927
2705.730766,0.06666
2711.39129,0.06543
2717.075548,0.06419
2722.783689,0.06219
2728.515871,0.06062
2734.272233,0.05941
2740.052934,0.05769
2745.85813,0.0562
2751.687977,0.05515
2757.542631,0.05439
2763.422252,0.0542
2769.327,0.05429
2775.257043,0.05463
2781.212529,0.0551
2787.19363,0.0554
2793.200512,0.05535
2799.233341,0.05512
2805.292287,0.055
2811.377519,0.055
2817.489208,0.05536
2823.627536,0.05578
2829.79266,0.05572
2835.984766,0.05565
2842.20403,0.05578
2848.450631,0.05589
2854.72475,0.05597
2861.02657,0.05589
2867.356274,0.05559
2873.714055,0.05551
2880.100086,0.05568
2886.514561,0.05557
2892.957673,0.05516
2899.429613,0.05487
2905.930575,0.05502
2912.460755,0.05531
2919.020351,0.05522
2925.609569,0.05511
2932.228594,0.05537
2938.877637,0.05538
2945.556904,0.05492
2952.266599,0.0547
2959.006933,0.055
2965.778115,0.05541
2972.580357,0.05564
2979.413883,0.05563
2986.278891,0.0557
2993.175608,0.05605
3000.104254,0.05639
3007.065051,0.05663
3014.058225,0.05679
3021.084,0.05693
3028.142607,0.05709
3035.234283,0.05723
3042.359245,0.05747
3049.517737,0.05774
3056.709994,0.05775
3063.936258,0.05781
3071.196769,0.05812
3078.491772,0.05847
3085.821513,0.05874
3093.186251,0.05901
3100.586217,0.05937
3108.021674,0.05955
3115.492879,0.0596
3123.000089,0.05985
3130.543567,0.06044
3138.123574,0.06115
3145.740377,0.06166
3153.394256,0.06195
3161.08546,0.06221
3168.814274,0.06262
3176.580974,0.06321
3184.38584,0.06365
3192.229154,0.0637
3200.1112,0.06387
3208.032266,0.06446
3215.992653,0.06519
3223.992633,0.06587
3232.032514,0.06632
3240.112594,0.06659
3248.233176,0.06698
3256.394564,0.06747
3264.597068,0.06785
3272.840999,0.06827
3281.126681,0.06878
3289.454413,0.06918
3297.824524,0.06936
3306.237341,0.06946
3314.693189,0.06976
3323.192401,0.07011
3331.735311,0.07041
3340.322256,0.07068
3348.95359,0.07077
3357.629634,0.07086
3366.350748,0.07103
3375.117285,0.07109
3383.929601,0.07121
3392.788054,0.07139
3401.693008,0.071
3410.64483,0.07051
3419.643903,0.07105
3428.690579,0.07209
3437.785247,0.07282
3446.928291,0.07341
3456.120099,0.0739
3465.36106,0.07404
3474.651571,0.07397
3483.99203,0.07399
3493.382855,0.07394
3502.824429,0.07408
3512.317177,0.07474
3521.861515,0.07546
3531.457866,0.07601
3541.106657,0.07639
3550.808317,0.07659
3560.563284,0.07677
3570.372009,0.07687
3580.234914,0.07699
3590.15246,0.07726
3600.125104,0.07746
3610.153306,0.07745
3620.237532,0.07746
3630.378252,0.0776
3640.575942,0.0776
3650.831097,0.07741
3661.144177,0.07724
3671.515689,0.0771
3681.946129,0.07695
3692.436003,0.07665
3702.985818,0.07614
3713.596091,0.07562
3724.267342,0.07519
3735.000113,0.0749
3745.79491,0.07494
3756.652285,0.07522
3767.572784,0.07547
3778.556959,0.07574
3789.605369,0.07594
3800.71858,0.07592
3811.897162,0.07579
3823.141709,0.07576
3834.452778,0.07577
3845.830974,0.07568
3857.276898,0.07571
3868.791155,0.07581
3880.37436,0.0759
3892.027134,0.07612
3903.750106,0.07637
3915.543926,0.07651
3927.409209,0.07638
3939.346621,0.07605
3951.356822,0.0757
3963.44048,0.07526
3975.598271,0.07479
3987.830879,0.07451
4000.138997,0.0744
4012.523342,0.07448
4024.984593,0.07469
4037.523484,0.07497
4050.140742,0.07522
4062.837106,0.07527
4075.613322,0.07506
4088.470144,0.07468
4101.408338,0.0742
4114.428697,0.07358
4127.531971,0.07301
4140.718972,0.07264
4153.990505,0.07206
4167.347385,0.07116
4180.790439,0.07051
4194.320503,0.07123
4207.938425,0.07409
4221.64508,0.07824
4235.441304,0.08022
4249.327994,0.07873
4263.306045,0.07718
4277.376359,0.07641
4291.539855,0.0753
4305.79746,0.07359
4320.150116,0.07147
4334.598795,0.06925
4349.144426,0.06716
4363.788008,0.0652
4378.530532,0.06332
4393.373006,0.06163
4408.316449,0.06019
4423.361896,0.05907
4438.510393,0.05815
4453.763023,0.05724
4469.120824,0.05661
4484.584908,0.05677
4500.15638,0.05779
4515.836365,0.05941
4531.626,0.06113
4547.52644,0.06235
4563.538854,0.06299
4579.664452,0.06309
4595.904394,0.06257
4612.259923,0.06169
4628.732277,0.06052
4645.322713,0.05897
4662.032504,0.05754
4678.862943,0.05677
4695.815342,0.05684
4712.891054,0.05736
4730.091384,0.05768
4747.417723,0.05732
4764.871462,0.05644
4782.45401,0.0556
4800.1668,0.05484
4818.011283,0.0539
4835.988934,0.05269
4854.101273,0.05112
4872.349771,0.04897
4890.735994,0.0465
4909.261506,0.04445
4927.927896,0.04318
4946.736778,0.0426
4965.68979,0.04229
4984.788594,0.04212
5004.034903,0.04213
5023.430384,0.04219
5042.976803,0.04225
5062.675928,0.0422
5082.529556,0.04194
5102.539511,0.04158
5122.707649,0.04133
5143.03585,0.04117
5163.526056,0.04084
5184.180157,0.04047
5205.000154,0.04023
5225.988055,0.03994
5247.145898,0.03962
5268.475756,0.03933
5289.979735,0.03923
5311.659976,0.03937
5333.518684,0.03931
5355.558014,0.039
5377.780242,0.03876
5400.187657,0.03859
5422.78258,0.03843
5445.567377,0.03834
5468.544451,0.03819
5491.716246,0.03789
5515.085278,0.03768
5538.654014,0.03747
5562.425058,0.03685
5586.401024,0.03607
5610.584574,0.0356
5634.978416,0.03547
5659.585305,0.03606
5684.408043,0.03709
5709.449517,0.03786
5734.712564,0.03815
5760.200171,0.03811
5785.915346,0.03812
5811.861151,0.03794
5838.040701,0.03744
5864.457171,0.03709
5891.11379,0.03676
5918.013883,0.03649
5945.160732,0.03645
5972.557781,0.03641
6000.208507,0.03661
6028.116449,0.03717
6056.285213,0.03794
6084.718472,0.03847
6113.41997,0.0387
6142.393557,0.03885
6171.643046,0.03885
6201.172433,0.03876
6230.985758,0.03877
6261.087133,0.03888
6291.480755,0.03897
6322.1709,0.03903
6353.161929,0.03925
6384.458328,0.03954
6416.064553,0.03952
6447.985267,0.03922
6480.225188,0.03886
6512.789128,0.03876
6545.681997,0.03898
6578.908804,0.0388
6612.47466,0.03822
6646.384825,0.03778
6680.644535,0.03738
6715.259268,0.03684
6750.234571,0.03639
6785.576107,0.03616
6821.28966,0.03605
6857.381134,0.03577
6893.856559,0.03524
6930.722144,0.03463
6967.984085,0.0339
7005.648858,0.03337
7043.72303,0.03307
7082.213314,0.03263
7121.126567,0.03205
7160.469802,0.03174
7200.250183,0.03167
7240.47509,0.03153
7281.15191,0.03126
7322.288355,0.03066
7363.892259,0.03002
7405.971636,0.02959
7448.534685,0.02914
7491.589791,0.02868
7535.145539,0.02838
7579.210768,0.02821
7623.794353,0.02811
7668.905555,0.02803
7714.553795,0.02795
7760.74872,0.02785
7807.500211,0.0279
7854.818386,0.02834
7902.713612,0.02907
7951.196573,0.02985
8000.278026,0.03095
8049.969186,0.03289
8100.281485,0.03591
8151.226643,0.03952
8202.816677,0.0426
8255.063908,0.04426
8307.980976,0.04461
8361.580914,0.04428
8415.876885,0.04371
8470.882607,0.04292
8526.612089,0.04142
8583.07971,0.03881
8640.300232,0.03727
8698.288814,0.03844
8757.061026,0.0403
8816.632938,0.04155
8877.020825,0.04245
8938.241648,0.04309
9000.312761,0.04387
9063.252001,0.04533
9127.077709,0.04919
9191.808745,0.05933
9257.464511,0.07809
9324.065051,0.09954
9391.630729,0.11247
9460.182767,0.11384
9529.742923,0.10752
9600.3336,0.09583
9671.977869,0.08065
9744.699495,0.06498
9818.522964,0.05312
9893.473606,0.0492
9969.577237,0.05675
10046.86077,0.07801
10125.35186,0.10314
10205.07902,0.11659
10286.0717,0.12251
10368.36026,0.13691
10451.97605,0.16301
10536.95157,0.18972
10623.32001,0.20823
10711.11603,0.21803
10800.37531,0.22082
10891.13475,0.21833
10983.43249,0.21164
11077.30797,0.20161
11172.80199,0.18989
11269.9569,0.17716
11368.81615,0.16003
11469.42513,0.13478
11571.83069,0.10695
11676.0814,0.08549
11782.22758,0.0742
11890.32139,0.0714
12000.41694,0.06895
12112.5705,0.06252
12226.84001,0.05602
12343.28609,0.05262
12461.97152,0.05092
12582.96151,0.04911
12706.32386,0.04737
12832.12902,0.04493
12960.45029,0.04168
13091.36408,0.03868
13224.94941,0.036
13361.28907,0.03328
13500.46914,0.03081
13642.57932,0.02925
13787.71312,0.02789
13935.96807,0.02668
14087.44596,0.02585
14242.25324,0.02469
14400.50047,0.02335
14562.30382,0.02212
14727.78452,0.02113
14897.06937,0.02042
15070.29108,0.02064
15247.58859,0.02428
15429.10747,0.03281
15615.00054,0.0423
15805.42735,0.04695
16000.55605,0.04525
16200.56297,0.03882
16405.63335,0.0313
16615.96195,0.02586
16831.75363,0.02345
17053.22403,0.02548
17280.60061,0.03449
17514.12221,0.05096
17754.04165,0.06888
18000.62552,0.08084
18254.15542,0.08648
18514.92902,0.09186
18783.26128,0.10106
19059.48566,0.10524
19343.95592,0.09884
19637.04612,0.09104
19939.15447,0.08316
20250.70371,0.07066
20572.1434,0.06029
20903.95211,0.06016
21246.63979,0.06406
21600.75039,0.06451
21966.86522,0.06902
22345.60422,0.07798
22737.6323,0.08689
23143.66139,0.10053
23564.45516,0.11602
24000.83388,0.12487
24453.67973,0.13462
24923.94272,0.15947
25412.64804,0.17311
