Database of Origin,University of Winnipeg Spectrophotometer Facility
Sample Description,16.11. Meteorites - HEDs 16.11.3. NASA samples (4) Bruker Vertex 70 FTIR spectrometer
Other Information,MIR Glowbar KBr Beam Splitter MCT cryo cooled Dectect.
Date Added,2018-07-23 23:49:06.073508

Data ID,FTIR_MET2_6_47      
Sample ID,NWA 6477
Mineral Name,Eucrite
Grain Size,90-250 um
Viewing Geometry,i30/ e0
Resolution,7.71cm-1

Wavelength
1672.316177,0.15223
1674.476792,0.15033
1676.642997,0.14833
1678.814814,0.14761
1680.992268,0.14744
1683.175374,0.14688
1685.364158,0.14584
1687.558643,0.14425
1689.758849,0.14325
1691.9648,0.14308
1694.176519,0.14245
1696.394027,0.14171
1698.61735,0.14133
1700.846507,0.14111
1703.081521,0.14067
1705.322418,0.13957
1707.569219,0.13853
1709.821949,0.1382
1712.08063,0.13803
1714.345286,0.13726
1716.615945,0.13593
1718.892624,0.13481
1721.175349,0.13425
1723.464146,0.13317
1725.759038,0.13201
1728.060049,0.13234
1730.367205,0.13278
1732.68053,0.13245
1735.000051,0.13206
1737.325788,0.13102
1739.657769,0.12945
1741.996018,0.12858
1744.340562,0.12815
1746.691425,0.12741
1749.048633,0.12673
1751.412211,0.12584
1753.78219,0.12444
1756.158588,0.12372
1758.541435,0.12348
1760.930758,0.12301
1763.326581,0.1229
1765.728933,0.1228
1768.13784,0.1219
1770.553328,0.12065
1772.975429,0.12002
1775.404162,0.11934
1777.839558,0.118
1780.281645,0.11729
1782.73045,0.11703
1785.186001,0.11683
1787.648326,0.11672
1790.117454,0.11571
1792.593414,0.11447
1795.07623,0.11402
1797.565933,0.11377
1800.062552,0.11299
1802.566116,0.11219
1805.076653,0.11203
1807.594193,0.11217
1810.118766,0.11177
1812.650403,0.11088
1815.189129,0.11022
1817.734976,0.10963
1820.287974,0.10913
1822.848154,0.10904
1825.415545,0.1083
1827.990179,0.10708
1830.572085,0.10653
1833.161299,0.10663
1835.757844,0.10714
1838.361756,0.10701
1840.973065,0.10587
1843.591803,0.10499
1846.218001,0.10485
1848.851693,0.10478
1851.492909,0.10401
1854.141686,0.10287
1856.798049,0.10199
1859.462034,0.10136
1862.133675,0.10147
1864.813003,0.10176
1867.500053,0.10104
1870.194858,0.09991
1872.897451,0.0996
1875.60787,0.09959
1878.326142,0.09912
1881.052305,0.09875
1883.786392,0.09865
1886.528439,0.09832
1889.27848,0.09776
1892.03655,0.09703
1894.802685,0.09623
1897.576923,0.09549
1900.359294,0.09516
1903.149835,0.09491
1905.948585,0.09447
1908.755578,0.09422
1911.570851,0.0944
1914.394441,0.09466
1917.226385,0.09453
1920.066724,0.09405
1922.915487,0.09338
1925.772716,0.09277
1928.638449,0.09244
1931.512723,0.09244
1934.395578,0.09193
1937.28705,0.09103
1940.18718,0.09088
1943.09601,0.09122
1946.013571,0.09138
1948.939907,0.09138
1951.875057,0.09124
1954.819061,0.09111
1957.771959,0.0911
1960.733792,0.09104
1963.7046,0.09077
1966.684429,0.09049
1969.67331,0.09029
1972.671291,0.09015
1975.678411,0.08986
1978.694713,0.08955
1981.72024,0.08955
1984.755033,0.08966
1987.799135,0.08973
1990.852594,0.0893
1993.915443,0.08864
1996.987732,0.08864
2000.069502,0.0892
2003.160799,0.08937
2006.261667,0.08915
2009.37215,0.08924
2012.492292,0.0895
2015.622144,0.08977
2018.761742,0.08979
2021.911136,0.08923
2025.070371,0.08843
2028.239495,0.08812
2031.418553,0.08837
2034.607593,0.08869
2037.806661,0.08874
2041.015809,0.08866
2044.235076,0.08867
2047.464515,0.08877
2050.704173,0.08884
2053.9541,0.08868
2057.214344,0.08833
2060.484955,0.08798
2063.765981,0.08788
2067.057478,0.08797
2070.359486,0.08806
2073.672061,0.08834
2076.995253,0.08876
2080.329113,0.08909
2083.673693,0.0892
2087.029044,0.08925
2090.39522,0.08948
2093.772276,0.08978
2097.160256,0.09001
2100.559219,0.08994
2103.969217,0.08978
2107.390304,0.08987
2110.822536,0.09019
2114.265965,0.09057
2117.720647,0.0906
2121.186643,0.09036
2124.663997,0.09035
2128.152772,0.09101
2131.653022,0.09204
2135.164806,0.09246
2138.68818,0.09233
2142.223201,0.09229
2145.769927,0.09242
2149.328422,0.09282
2152.898735,0.09336
2156.480928,0.09379
2160.075063,0.09386
2163.681197,0.09391
2167.299393,0.09429
2170.929709,0.0946
2174.572208,0.09488
2178.226956,0.09521
2181.894004,0.0955
2185.57342,0.09586
2189.265266,0.09632
2192.969606,0.09687
2196.686503,0.09736
2200.416021,0.09778
2204.158225,0.09817
2207.913183,0.09862
2211.680953,0.09903
2215.461603,0.09933
2219.255201,0.09973
2223.061813,0.10031
2226.881507,0.10102
2230.714349,0.10174
2234.560407,0.10222
2238.419756,0.10252
2242.292454,0.10299
2246.178575,0.10368
2250.07819,0.10435
2253.991369,0.10479
2257.918183,0.10519
2261.858702,0.10563
2265.813,0.10614
2269.781154,0.10673
2273.763225,0.10738
2277.759293,0.10807
2281.769432,0.10885
2285.793716,0.10969
2289.832221,0.11027
2293.88502,0.11045
2297.952192,0.11103
2302.033816,0.1121
2306.129961,0.11287
2310.240709,0.11329
2314.366139,0.11371
2318.506328,0.11432
2322.661356,0.11508
2326.831304,0.11566
2331.016252,0.11611
2335.216286,0.11675
2339.431477,0.11756
2343.661913,0.11831
2347.907677,0.11908
2352.168852,0.11993
2356.445521,0.12082
2360.737771,0.1216
2365.045686,0.12209
2369.369358,0.12268
2373.708861,0.1238
2378.06429,0.12487
2382.435731,0.12568
2386.823273,0.12632
2391.227005,0.1267
2395.647017,0.1274
2400.0834,0.12836
2404.53625,0.12907
2409.005647,0.12977
2413.491691,0.1306
2417.994473,0.13148
2422.514088,0.13225
2427.050631,0.13289
2431.604196,0.13361
2436.17488,0.13436
2440.762785,0.13504
2445.367997,0.13584
2449.99062,0.13689
2454.630753,0.13792
2459.288496,0.13879
2463.963948,0.13959
2468.657212,0.14031
2473.368389,0.1411
2478.097588,0.14198
2482.844901,0.14277
2487.610438,0.14338
2492.394303,0.14398
2497.196603,0.1448
2502.017445,0.14572
2506.856937,0.1466
2511.715186,0.14732
2516.592308,0.14785
2521.488402,0.14851
2526.403583,0.14926
2531.337964,0.15005
2536.291658,0.15107
2541.264778,0.15186
2546.257439,0.15258
2551.269756,0.15332
2556.301852,0.15346
2561.353831,0.15411
2566.425818,0.15586
2571.517932,0.15703
2576.630293,0.1573
2581.763021,0.15737
2586.91624,0.15781
2592.090072,0.15834
2597.284647,0.15873
2602.500077,0.15915
2607.736495,0.15999
2612.994027,0.16081
2618.272802,0.16171
2623.572949,0.16237
2628.894597,0.16256
2634.237878,0.16331
2639.60293,0.16383
2644.989874,0.16387
2650.398851,0.16403
2655.829995,0.16451
2661.283444,0.16454
2666.759335,0.16394
2672.257807,0.1641
2677.779,0.16464
2683.323062,0.16457
2688.890121,0.16401
2694.480328,0.16327
2700.093828,0.16206
2705.730766,0.16006
2711.39129,0.15721
2717.075548,0.1543
2722.783689,0.15131
2728.515871,0.1475
2734.272233,0.14229
2740.052934,0.135
2745.85813,0.12866
2751.687977,0.12356
2757.542631,0.11794
2763.422252,0.11266
2769.327,0.10805
2775.257043,0.10446
2781.212529,0.10157
2787.19363,0.09892
2793.200512,0.09636
2799.233341,0.09384
2805.292287,0.09168
2811.377519,0.09011
2817.489208,0.08869
2823.627536,0.08744
2829.79266,0.08617
2835.984766,0.08499
2842.20403,0.08418
2848.450631,0.08331
2854.72475,0.08258
2861.02657,0.08241
2867.356274,0.08197
2873.714055,0.08091
2880.100086,0.07999
2886.514561,0.07961
2892.957673,0.07933
2899.429613,0.07897
2905.930575,0.07889
2912.460755,0.07925
2919.020351,0.07932
2925.609569,0.07871
2932.228594,0.07814
2938.877637,0.07804
2945.556904,0.07822
2952.266599,0.07823
2959.006933,0.07797
2965.778115,0.07804
2972.580357,0.07873
2979.413883,0.07939
2986.278891,0.07982
2993.175608,0.08032
3000.104254,0.08081
3007.065051,0.08122
3014.058225,0.08168
3021.084,0.08214
3028.142607,0.08257
3035.234283,0.08303
3042.359245,0.08357
3049.517737,0.08408
3056.709994,0.08431
3063.936258,0.0844
3071.196769,0.08454
3078.491772,0.08482
3085.821513,0.08549
3093.186251,0.08624
3100.586217,0.08681
3108.021674,0.08726
3115.492879,0.08787
3123.000089,0.08885
3130.543567,0.09003
3138.123574,0.09122
3145.740377,0.09229
3153.394256,0.09321
3161.08546,0.09436
3168.814274,0.09576
3176.580974,0.09694
3184.38584,0.09793
3192.229154,0.09907
3200.1112,0.10029
3208.032266,0.10149
3215.992653,0.10266
3223.992633,0.10363
3232.032514,0.10451
3240.112594,0.10567
3248.233176,0.10698
3256.394564,0.10817
3264.597068,0.10928
3272.840999,0.11046
3281.126681,0.11144
3289.454413,0.11221
3297.824524,0.1134
3306.237341,0.11477
3314.693189,0.11581
3323.192401,0.11681
3331.735311,0.11783
3340.322256,0.11866
3348.95359,0.1193
3357.629634,0.11974
3366.350748,0.12021
3375.117285,0.12092
3383.929601,0.12166
3392.788054,0.12198
3401.693008,0.12177
3410.64483,0.1217
3419.643903,0.12276
3428.690579,0.1248
3437.785247,0.12682
3446.928291,0.12832
3456.120099,0.1292
3465.36106,0.12975
3474.651571,0.13038
3483.99203,0.1308
3493.382855,0.13095
3502.824429,0.13176
3512.317177,0.13323
3521.861515,0.13474
3531.457866,0.13599
3541.106657,0.13679
3550.808317,0.13743
3560.563284,0.13811
3570.372009,0.13872
3580.234914,0.13923
3590.15246,0.13978
3600.125104,0.14034
3610.153306,0.14088
3620.237532,0.14158
3630.378252,0.14236
3640.575942,0.14292
3650.831097,0.1432
3661.144177,0.14353
3671.515689,0.14392
3681.946129,0.1441
3692.436003,0.14416
3702.985818,0.14442
3713.596091,0.14486
3724.267342,0.14513
3735.000113,0.14537
3745.79491,0.14576
3756.652285,0.1461
3767.572784,0.14639
3778.556959,0.14658
3789.605369,0.14649
3800.71858,0.14625
3811.897162,0.14609
3823.141709,0.14589
3834.452778,0.14567
3845.830974,0.14557
3857.276898,0.14555
3868.791155,0.1455
3880.37436,0.14531
3892.027134,0.14495
3903.750106,0.14455
3915.543926,0.14429
3927.409209,0.14411
3939.346621,0.14363
3951.356822,0.14287
3963.44048,0.14181
3975.598271,0.14081
3987.830879,0.14074
4000.138997,0.14133
4012.523342,0.14173
4024.984593,0.14171
4037.523484,0.1417
4050.140742,0.1419
4062.837106,0.14173
4075.613322,0.14109
4088.470144,0.14054
4101.408338,0.14
4114.428697,0.13949
4127.531971,0.13913
4140.718972,0.13871
4153.990505,0.13827
4167.347385,0.13798
4180.790439,0.13762
4194.320503,0.13721
4207.938425,0.13676
4221.64508,0.13674
4235.441304,0.13791
4249.327994,0.13795
4263.306045,0.13681
4277.376359,0.13569
4291.539855,0.13411
4305.79746,0.13215
4320.150116,0.13092
4334.598795,0.13008
4349.144426,0.12944
4363.788008,0.12901
4378.530532,0.12827
4393.373006,0.12734
4408.316449,0.12673
4423.361896,0.12622
4438.510393,0.1257
4453.763023,0.1253
4469.120824,0.12487
4484.584908,0.1242
4500.15638,0.12356
4515.836365,0.12309
4531.626,0.12214
4547.52644,0.12065
4563.538854,0.11919
4579.664452,0.11766
4595.904394,0.116
4612.259923,0.11466
4628.732277,0.11339
4645.322713,0.11126
4662.032504,0.10876
4678.862943,0.10652
4695.815342,0.10434
4712.891054,0.10167
4730.091384,0.09856
4747.417723,0.09534
4764.871462,0.09219
4782.45401,0.08954
4800.1668,0.08759
4818.011283,0.08588
4835.988934,0.08434
4854.101273,0.08271
4872.349771,0.08049
4890.735994,0.07801
4909.261506,0.07568
4927.927896,0.07341
4946.736778,0.07132
4965.68979,0.06938
4984.788594,0.06709
5004.034903,0.06465
5023.430384,0.0627
5042.976803,0.06133
5062.675928,0.06009
5082.529556,0.05879
5102.539511,0.05778
5122.707649,0.05687
5143.03585,0.05579
5163.526056,0.0546
5184.180157,0.0534
5205.000154,0.05239
5225.988055,0.0512
5247.145898,0.04976
5268.475756,0.04888
5289.979735,0.04871
5311.659976,0.04897
5333.518684,0.04979
5355.558014,0.05104
5377.780242,0.05182
5400.187657,0.05211
5422.78258,0.05272
5445.567377,0.05376
5468.544451,0.05517
5491.716246,0.05662
5515.085278,0.05707
5538.654014,0.05631
5562.425058,0.05495
5586.401024,0.05348
5610.584574,0.05244
5634.978416,0.05178
5659.585305,0.05109
5684.408043,0.05043
5709.449517,0.04985
5734.712564,0.04875
5760.200171,0.04708
5785.915346,0.04586
5811.861151,0.04495
5838.040701,0.04353
5864.457171,0.04171
5891.11379,0.03896
5918.013883,0.03608
5945.160732,0.03362
5972.557781,0.03185
6000.208507,0.03085
6028.116449,0.03019
6056.285213,0.02939
6084.718472,0.02862
6113.41997,0.02822
6142.393557,0.02795
6171.643046,0.0279
6201.172433,0.02813
6230.985758,0.02842
6261.087133,0.02881
6291.480755,0.02935
6322.1709,0.03026
6353.161929,0.03124
6384.458328,0.03169
6416.064553,0.03192
6447.985267,0.032
6480.225188,0.03145
6512.789128,0.03056
6545.681997,0.0302
6578.908804,0.02979
6612.47466,0.02919
6646.384825,0.02893
6680.644535,0.02895
6715.259268,0.02902
6750.234571,0.02905
6785.576107,0.02893
6821.28966,0.02877
6857.381134,0.02856
6893.856559,0.02821
6930.722144,0.02797
6967.984085,0.02771
7005.648858,0.02739
7043.72303,0.02704
7082.213314,0.02664
7121.126567,0.02614
7160.469802,0.02556
7200.250183,0.02513
7240.47509,0.02472
7281.15191,0.02411
7322.288355,0.0234
7363.892259,0.02268
7405.971636,0.02194
7448.534685,0.02102
7491.589791,0.01997
7535.145539,0.01899
7579.210768,0.01797
7623.794353,0.01711
7668.905555,0.01645
7714.553795,0.01583
7760.74872,0.01525
7807.500211,0.01461
7854.818386,0.01416
7902.713612,0.01379
7951.196573,0.01327
8000.278026,0.01289
8049.969186,0.0127
8100.281485,0.0128
8151.226643,0.01387
8202.816677,0.01543
8255.063908,0.01571
8307.980976,0.01548
8361.580914,0.01629
8415.876885,0.01779
8470.882607,0.01955
8526.612089,0.02119
8583.07971,0.02228
8640.300232,0.02296
8698.288814,0.02372
8757.061026,0.02493
8816.632938,0.0273
8877.020825,0.03171
8938.241648,0.03782
9000.312761,0.04401
9063.252001,0.0484
9127.077709,0.05015
9191.808745,0.04982
9257.464511,0.04806
9324.065051,0.04574
9391.630729,0.0438
9460.182767,0.04351
9529.742923,0.04504
9600.3336,0.0472
9671.977869,0.04914
9744.699495,0.05
9818.522964,0.04931
9893.473606,0.04765
9969.577237,0.0459
10046.86077,0.04398
10125.35186,0.04211
10205.07902,0.04126
10286.0717,0.04228
10368.36026,0.04509
10451.97605,0.04796
10536.95157,0.04984
10623.32001,0.05108
10711.11603,0.05122
10800.37531,0.04966
10891.13475,0.04777
10983.43249,0.048
11077.30797,0.05068
11172.80199,0.05334
11269.9569,0.05309
11368.81615,0.04992
11469.42513,0.04534
11571.83069,0.04031
11676.0814,0.0362
11782.22758,0.03323
11890.32139,0.03098
12000.41694,0.02952
12112.5705,0.02837
12226.84001,0.02772
12343.28609,0.027
12461.97152,0.02533
12582.96151,0.0238
12706.32386,0.02286
12832.12902,0.02223
12960.45029,0.02192
13091.36408,0.02176
13224.94941,0.02149
13361.28907,0.021
13500.46914,0.02054
13642.57932,0.02033
13787.71312,0.02082
13935.96807,0.02158
14087.44596,0.02138
14242.25324,0.01997
14400.50047,0.01851
14562.30382,0.01766
14727.78452,0.01736
14897.06937,0.01734
15070.29108,0.0173
15247.58859,0.01829
15429.10747,0.0217
15615.00054,0.02651
15805.42735,0.02921
16000.55605,0.02891
16200.56297,0.02806
16405.63335,0.02815
16615.96195,0.03027
16831.75363,0.03498
17053.22403,0.03901
17280.60061,0.04047
17514.12221,0.04158
17754.04165,0.04252
18000.62552,0.04253
18254.15542,0.04427
18514.92902,0.04767
18783.26128,0.05061
19059.48566,0.0541
19343.95592,0.05709
19637.04612,0.05694
19939.15447,0.05465
20250.70371,0.05275
20572.1434,0.05263
20903.95211,0.05451
21246.63979,0.05415
21600.75039,0.04856
21966.86522,0.04131
22345.60422,0.0371
22737.6323,0.03753
23143.66139,0.0371
23564.45516,0.03391
24000.83388,0.03698
24453.67973,0.03964
24923.94272,0.03521
25412.64804,0.0644
