Database of Origin,University of Winnipeg Spectrophotometer Facility
Sample Description,"Zeolites: RELAB + Nicolet spectra, Merged at 2.5 microns; note change in viewing geometry"
Date Added,2018-07-23 23:09:47.799383

Data ID,RLA_ZEO_1_21        
Sample ID,zeo125
Mineral Name,erionite
Grain Size,<45 um
Viewing Geometry,"30/0,30"
Resolution,5/.6-129 nm

Wavelength
305.0,0.180965
310.0,0.189101
315.0,0.198986
320.0,0.206933
325.0,0.214381
330.0,0.224012
335.0,0.234306
340.0,0.243931
345.0,0.25318
350.0,0.262997
355.0,0.271992
360.0,0.280191
365.0,0.286608
370.0,0.296165
375.0,0.310804
380.0,0.326945
385.0,0.342674
390.0,0.357806
395.0,0.369237
400.0,0.380372
405.0,0.391583
410.0,0.403064
415.0,0.41585
420.0,0.428314
425.0,0.442261
430.0,0.454752
435.0,0.468035
440.0,0.477657
445.0,0.488887
450.0,0.500088
455.0,0.512038
460.0,0.521001
465.0,0.530416
470.0,0.537034
475.0,0.546131
480.0,0.552554
485.0,0.560447
490.0,0.566568
495.0,0.575615
500.0,0.583084
505.0,0.592675
510.0,0.600616
515.0,0.61085
520.0,0.619759
525.0,0.630365
530.0,0.64055
535.0,0.650957
540.0,0.658191
545.0,0.665885
550.0,0.671689
555.0,0.679489
560.0,0.685018
565.0,0.691029
570.0,0.695281
575.0,0.698994
580.0,0.701517
585.0,0.704481
590.0,0.706711
595.0,0.709092
600.0,0.710091
605.0,0.711134
610.0,0.712614
615.0,0.714769
620.0,0.71539
625.0,0.717045
630.0,0.718432
635.0,0.720582
640.0,0.722385
645.0,0.724648
650.0,0.726428
655.0,0.728786
660.0,0.731149
665.0,0.733278
670.0,0.737136
675.0,0.738755
680.0,0.742536
685.0,0.744749
690.0,0.74858
695.0,0.750805
700.0,0.754132
705.0,0.756406
710.0,0.758799
715.0,0.761749
720.0,0.764123
725.0,0.766498
730.0,0.768376
735.0,0.769748
740.0,0.770001
745.0,0.77196
750.0,0.774005
755.0,0.77674
760.0,0.77683
765.0,0.776785
770.0,0.77923
775.0,0.778932
780.0,0.780967
785.0,0.782093
790.0,0.780822
795.0,0.780312
800.0,0.782953
805.0,0.781813
810.0,0.782699
815.0,0.781038
820.0,0.782328
825.0,0.781097
830.0,0.78054
835.0,0.780783
840.0,0.779717
845.0,0.77927
850.0,0.780437
855.0,0.779333
860.0,0.777191
865.0,0.778922
870.0,0.778729
875.0,0.77848
880.0,0.778441
885.0,0.778033
890.0,0.776856
895.0,0.777922
900.0,0.779081
905.0,0.775839
910.0,0.776722
915.0,0.777573
920.0,0.77726
925.0,0.776703
930.0,0.77585
935.0,0.775708
940.0,0.776343
945.0,0.775838
950.0,0.775889
955.0,0.776407
960.0,0.775882
965.0,0.775957
970.0,0.776517
975.0,0.77673
980.0,0.777704
985.0,0.778577
990.0,0.778752
995.0,0.778876
1000.0,0.779636
1005.0,0.779846
1010.0,0.780435
1015.0,0.781211
1020.0,0.781717
1025.0,0.782393
1030.0,0.782951
1035.0,0.783125
1040.0,0.783738
1045.0,0.784385
1050.0,0.784999
1055.0,0.785804
1060.0,0.786663
1065.0,0.786954
1070.0,0.787599
1075.0,0.788171
1080.0,0.788414
1085.0,0.789155
1090.0,0.789556
1095.0,0.78951
1100.0,0.791103
1105.0,0.791094
1110.0,0.792051
1115.0,0.792089
1120.0,0.792754
1125.0,0.793202
1130.0,0.793765
1135.0,0.794032
1140.0,0.793476
1145.0,0.792666
1150.0,0.791755
1155.0,0.791376
1160.0,0.791234
1165.0,0.792221
1170.0,0.793516
1175.0,0.794641
1180.0,0.795688
1185.0,0.796791
1190.0,0.797084
1195.0,0.797822
1200.0,0.798765
1205.0,0.80039
1210.0,0.800826
1215.0,0.801312
1220.0,0.801888
1225.0,0.802734
1230.0,0.803339
1235.0,0.80396
1240.0,0.804812
1245.0,0.805431
1250.0,0.805733
1255.0,0.805882
1260.0,0.806311
1265.0,0.807061
1270.0,0.807294
1275.0,0.806991
1280.0,0.807285
1285.0,0.807528
1290.0,0.807804
1295.0,0.807462
1300.0,0.80757
1305.0,0.808119
1310.0,0.807803
1315.0,0.80763
1320.0,0.807327
1325.0,0.806029
1330.0,0.805573
1335.0,0.805035
1340.0,0.80325
1345.0,0.801942
1350.0,0.800979
1355.0,0.800498
1360.0,0.798806
1365.0,0.796962
1370.0,0.795921
1375.0,0.793873
1380.0,0.791358
1385.0,0.783913
1390.0,0.77639
1395.0,0.765161
1400.0,0.749789
1405.0,0.732456
1410.0,0.716376
1415.0,0.706577
1420.0,0.702203
1425.0,0.702669
1430.0,0.707507
1435.0,0.71422
1440.0,0.721238
1445.0,0.727594
1450.0,0.733715
1455.0,0.737636
1460.0,0.739288
1465.0,0.740474
1470.0,0.743731
1475.0,0.748303
1480.0,0.754038
1485.0,0.759858
1490.0,0.764668
1495.0,0.769285
1500.0,0.772448
1505.0,0.776139
1510.0,0.777964
1515.0,0.781352
1520.0,0.783603
1525.0,0.785897
1530.0,0.786689
1535.0,0.789137
1540.0,0.790906
1545.0,0.792047
1550.0,0.792847
1555.0,0.794154
1560.0,0.794888
1565.0,0.796067
1570.0,0.797167
1575.0,0.797272
1580.0,0.798469
1585.0,0.798789
1590.0,0.799118
1595.0,0.799874
1600.0,0.800491
1605.0,0.800929
1610.0,0.801136
1615.0,0.802183
1620.0,0.802661
1625.0,0.802481
1630.0,0.802296
1635.0,0.802594
1640.0,0.802882
1645.0,0.803802
1650.0,0.802583
1655.0,0.803396
1660.0,0.803926
1665.0,0.804456
1670.0,0.805348
1675.0,0.805144
1680.0,0.80532
1685.0,0.804815
1690.0,0.804681
1695.0,0.803638
1700.0,0.804309
1705.0,0.803836
1710.0,0.803025
1715.0,0.802173
1720.0,0.802022
1725.0,0.800226
1730.0,0.799479
1735.0,0.797255
1740.0,0.796184
1745.0,0.795063
1750.0,0.793173
1755.0,0.791317
1760.0,0.790289
1765.0,0.788881
1770.0,0.787754
1775.0,0.785725
1780.0,0.784494
1785.0,0.78336
1790.0,0.782832
1795.0,0.781963
1800.0,0.782025
1805.0,0.780755
1810.0,0.780718
1815.0,0.78096
1820.0,0.780829
1825.0,0.780296
1830.0,0.780587
1835.0,0.78037
1840.0,0.778118
1845.0,0.776752
1850.0,0.77412
1855.0,0.771694
1860.0,0.766762
1865.0,0.761781
1870.0,0.752614
1875.0,0.734933
1880.0,0.712946
1885.0,0.685437
1890.0,0.645257
1895.0,0.593828
1900.0,0.54572
1905.0,0.505145
1910.0,0.484358
1915.0,0.479476
1920.0,0.487133
1925.0,0.501446
1930.0,0.517708
1935.0,0.533242
1940.0,0.546392
1945.0,0.557663
1950.0,0.566749
1955.0,0.575096
1960.0,0.58319
1965.0,0.591127
1970.0,0.600359
1975.0,0.609392
1980.0,0.618302
1985.0,0.628175
1990.0,0.637063
1995.0,0.646213
2000.0,0.655684
2005.0,0.663978
2010.0,0.671221
2015.0,0.678829
2020.0,0.686121
2025.0,0.692081
2030.0,0.696645
2035.0,0.700854
2040.0,0.705043
2045.0,0.708357
2050.0,0.711468
2055.0,0.713845
2060.0,0.716398
2065.0,0.717787
2070.0,0.71983
2075.0,0.72166
2080.0,0.722677
2085.0,0.725146
2090.0,0.726277
2095.0,0.728572
2100.0,0.729045
2105.0,0.730625
2110.0,0.731596
2115.0,0.732733
2120.0,0.73386
2125.0,0.735544
2130.0,0.736804
2135.0,0.736747
2140.0,0.73701
2145.0,0.736707
2150.0,0.737075
2155.0,0.736879
2160.0,0.736394
2165.0,0.734257
2170.0,0.733832
2175.0,0.731603
2180.0,0.729894
2185.0,0.728671
2190.0,0.725935
2195.0,0.723593
2200.0,0.719927
2205.0,0.71755
2210.0,0.715366
2215.0,0.712861
2220.0,0.712269
2225.0,0.710608
2230.0,0.709767
2235.0,0.708595
2240.0,0.708491
2245.0,0.707607
2250.0,0.706928
2255.0,0.706452
2260.0,0.70617
2265.0,0.705491
2270.0,0.703919
2275.0,0.702696
2280.0,0.699795
2285.0,0.696304
2290.0,0.692756
2295.0,0.689993
2300.0,0.688979
2305.0,0.688486
2310.0,0.688431
2315.0,0.687233
2320.0,0.686363
2325.0,0.68658
2330.0,0.683494
2335.0,0.681777
2340.0,0.677664
2345.0,0.673476
2350.0,0.668441
2355.0,0.663842
2360.0,0.658378
2365.0,0.652344
2370.0,0.646263
2375.0,0.64083
2380.0,0.634122
2385.0,0.629246
2390.0,0.621951
2395.0,0.616803
2400.0,0.609933
2405.0,0.603627
2410.0,0.596503
2415.0,0.59018
2420.0,0.582219
2425.0,0.574374
2430.0,0.56778
2435.0,0.560625
2440.0,0.553009
2445.0,0.547061
2450.0,0.541001
2455.0,0.533521
2460.0,0.527836
2465.0,0.521783
2470.0,0.5168
2475.0,0.511402
2480.0,0.5039
2485.0,0.499232
2490.0,0.4947
2495.0,0.489534
2500.0,0.485265
2505.0,0.480845
2510.0,0.477142
2515.0,0.474245
2520.0,0.470648
2525.0,0.46845
2530.0,0.467422
2535.0,0.465672
2540.0,0.463744
2545.0,0.464936
2550.0,0.462499
2555.0,0.463041
2560.0,0.461071
2565.0,0.460834
2570.0,0.459193
2575.0,0.458097
2580.0,0.457701
2581.74,0.457318
2583.03,0.456784
2584.31,0.456106
2585.6,0.456661
2586.89,0.456648
2588.19,0.455181
2589.48,0.454312
2590.77,0.454428
2592.07,0.454295
2593.36,0.453568
2594.66,0.4524
2595.96,0.451677
2597.26,0.452206
2598.56,0.452693
2599.87,0.451862
2601.17,0.45085
2602.48,0.450052
2603.78,0.450034
2605.09,0.449668
2606.4,0.449246
2607.71,0.44934
2609.03,0.448935
2610.34,0.44803
2611.66,0.447662
2612.97,0.447101
2614.29,0.446
2615.61,0.44531
2616.93,0.444887
2618.25,0.444622
2619.57,0.445157
2620.9,0.443969
2622.22,0.443011
2623.55,0.442935
2624.88,0.442285
2626.21,0.441177
2627.54,0.44023
2628.87,0.439871
2630.21,0.438772
2631.54,0.437869
2632.88,0.437489
2634.21,0.436105
2635.55,0.435171
2636.89,0.434598
2638.24,0.433889
2639.58,0.433004
2640.92,0.431561
2642.27,0.430225
2643.62,0.429215
2644.97,0.428579
2646.32,0.427382
2647.67,0.425722
2649.02,0.424795
2650.38,0.423689
2651.73,0.422101
2653.09,0.419836
2654.45,0.418264
2655.81,0.416872
2657.17,0.415546
2658.53,0.413551
2659.89,0.410889
2661.26,0.4089
2662.63,0.407425
2664.0,0.405064
2665.36,0.401937
2666.74,0.399053
2668.11,0.395258
2669.48,0.388914
2670.86,0.381182
2672.23,0.375364
2673.61,0.371749
2674.99,0.368273
2676.37,0.365107
2677.76,0.362785
2679.14,0.361397
2680.52,0.359001
2681.91,0.356028
2683.3,0.352368
2684.69,0.348542
2686.08,0.344068
2687.47,0.3396
2688.87,0.335355
2690.26,0.330757
2691.66,0.325627
2693.06,0.320329
2694.46,0.314461
2695.86,0.308823
2697.26,0.303222
2698.66,0.297559
2700.07,0.291978
2701.48,0.286091
2702.89,0.280019
2704.3,0.274703
2705.71,0.269609
2707.12,0.263927
2708.53,0.258101
2709.95,0.252147
2711.37,0.246098
2712.79,0.24027
2714.21,0.234375
2715.63,0.228173
2717.05,0.221929
2718.48,0.216232
2719.9,0.210252
2721.33,0.204156
2722.76,0.198736
2724.19,0.193345
2725.62,0.187668
2727.06,0.182854
2728.49,0.178029
2729.93,0.172987
2731.37,0.16813
2732.81,0.163434
2734.25,0.159071
2735.69,0.155051
2737.14,0.151458
2738.58,0.148007
2740.03,0.144173
2741.48,0.141019
2742.93,0.138502
2744.38,0.136017
2745.83,0.133281
2747.29,0.130818
2748.75,0.128691
2750.2,0.126668
2751.66,0.124454
2753.13,0.122696
2754.59,0.120683
2756.05,0.118827
2757.52,0.11761
2758.99,0.116518
2760.46,0.1154
2761.93,0.114496
2763.4,0.113715
2764.87,0.112895
2766.35,0.112187
2767.82,0.111324
2769.3,0.11024
2770.78,0.109334
2772.26,0.108876
2773.75,0.108551
2775.23,0.108203
2776.72,0.108029
2778.21,0.107648
2779.7,0.107032
2781.19,0.106782
2782.68,0.106382
2784.18,0.105953
2785.67,0.1056
2787.17,0.105269
2788.67,0.104726
2790.17,0.104079
2791.67,0.103814
2793.18,0.103677
2794.68,0.103318
2796.19,0.103037
2797.7,0.103104
2799.21,0.102869
2800.72,0.102414
2802.24,0.10223
2803.75,0.10234
2805.27,0.102613
2806.79,0.102495
2808.31,0.102169
2809.83,0.102264
2811.35,0.102271
2812.88,0.102297
2814.41,0.102643
2815.93,0.103132
2817.46,0.103518
2819.0,0.103733
2820.53,0.103679
2822.07,0.103762
2823.6,0.10392
2825.14,0.104118
2826.68,0.104438
2828.22,0.104562
2829.77,0.105015
2831.31,0.105394
2832.86,0.105711
2834.41,0.106294
2835.96,0.106838
2837.51,0.107193
2839.07,0.107598
2840.62,0.107826
2842.18,0.108284
2843.74,0.108727
2845.3,0.108889
2846.86,0.109222
2848.43,0.109718
2849.99,0.110079
2851.56,0.110407
2853.13,0.110742
2854.7,0.110995
2856.27,0.110938
2857.85,0.110962
2859.42,0.111459
2861.0,0.111654
2862.58,0.11205
2864.16,0.112386
2865.75,0.112866
2867.33,0.112805
2868.92,0.112742
2870.51,0.112755
2872.1,0.113204
2873.69,0.113691
2875.28,0.113741
2876.88,0.113768
2878.48,0.114
2880.07,0.114074
2881.68,0.114135
2883.28,0.114349
2884.88,0.114431
2886.49,0.114644
2888.1,0.114836
2889.71,0.115269
2891.32,0.115567
2892.93,0.115817
2894.55,0.116066
2896.16,0.116026
2897.78,0.11595
2899.4,0.116222
2901.03,0.116803
2902.65,0.117099
2904.28,0.117554
2905.91,0.117763
2907.54,0.117819
2909.17,0.118274
2910.8,0.11867
2912.44,0.119077
2914.07,0.119264
2915.71,0.119473
2917.35,0.120039
2918.99,0.120385
2920.64,0.120448
2922.29,0.120674
2923.93,0.121103
2925.58,0.121456
2927.24,0.121743
2928.89,0.122183
2930.55,0.122788
2932.2,0.123179
2933.86,0.123445
2935.52,0.123849
2937.19,0.124635
2938.85,0.125514
2940.52,0.125862
2942.19,0.125858
2943.86,0.126254
2945.53,0.127051
2947.21,0.127734
2948.88,0.128204
2950.56,0.128661
2952.24,0.129488
2953.92,0.130097
2955.61,0.130404
2957.29,0.130828
2958.98,0.13144
2960.67,0.132493
2962.36,0.133213
2964.06,0.133621
2965.75,0.134395
2967.45,0.135179
2969.15,0.13559
2970.85,0.135895
2972.55,0.136567
2974.26,0.137372
2975.97,0.138217
2977.68,0.138713
2979.39,0.139316
2981.1,0.140145
2982.82,0.140924
2984.53,0.141544
2986.25,0.142319
2987.97,0.142947
2989.7,0.143404
2991.42,0.144046
2993.15,0.144889
2994.88,0.145864
2996.61,0.146233
2998.34,0.146616
3000.08,0.147483
3001.82,0.14846
3003.55,0.149302
3005.3,0.14957
3007.04,0.149796
3008.78,0.150351
3010.53,0.151086
3012.28,0.151759
3014.03,0.152003
3015.79,0.152455
3017.54,0.153045
3019.3,0.153275
3021.06,0.153617
3022.82,0.1543
3024.58,0.154609
3026.35,0.154812
3028.12,0.155208
3029.89,0.155497
3031.66,0.155785
3033.43,0.156102
3035.21,0.156535
3036.99,0.156753
3038.77,0.156979
3040.55,0.157312
3042.33,0.157454
3044.12,0.157759
3045.91,0.158183
3047.7,0.15835
3049.49,0.158599
3051.29,0.158877
3053.08,0.159229
3054.88,0.159571
3056.68,0.159982
3058.49,0.160294
3060.29,0.160411
3062.1,0.160501
3063.91,0.160851
3065.72,0.161242
3067.54,0.161678
3069.35,0.162191
3071.17,0.16252
3072.99,0.162794
3074.81,0.163142
3076.64,0.163767
3078.47,0.164548
3080.29,0.165131
3082.13,0.165501
3083.96,0.166045
3085.79,0.166816
3087.63,0.167516
3089.47,0.168113
3091.31,0.16887
3093.16,0.169497
3095.01,0.170182
3096.85,0.170959
3098.71,0.171758
3100.56,0.172602
3102.41,0.173577
3104.27,0.174489
3106.13,0.175314
3107.99,0.176265
3109.86,0.177037
3111.73,0.177875
3113.59,0.178932
3115.47,0.179809
3117.34,0.180723
3119.21,0.181857
3121.09,0.183056
3122.97,0.183735
3124.86,0.184538
3126.74,0.185811
3128.63,0.186889
3130.52,0.187872
3132.41,0.188856
3134.3,0.189826
3136.2,0.190951
3138.1,0.192083
3140.0,0.19293
3141.9,0.193844
3143.81,0.195071
3145.71,0.196205
3147.62,0.197399
3149.54,0.198479
3151.45,0.199504
3153.37,0.200464
3155.29,0.201506
3157.21,0.20255
3159.13,0.203699
3161.06,0.204874
3162.99,0.205999
3164.92,0.206951
3166.85,0.207975
3168.79,0.209107
3170.72,0.210132
3172.67,0.211057
3174.61,0.212228
3176.55,0.213433
3178.5,0.214602
3180.45,0.215622
3182.4,0.216528
3184.36,0.217407
3186.32,0.21855
3188.27,0.21981
3190.24,0.22081
3192.2,0.221674
3194.17,0.22281
3196.14,0.223994
3198.11,0.225074
3200.08,0.226212
3202.06,0.227304
3204.04,0.228286
3206.02,0.22935
3208.0,0.230447
3209.99,0.231267
3211.98,0.232129
3213.97,0.233263
3215.96,0.234549
3217.96,0.235511
3219.96,0.236351
3221.96,0.237399
3223.96,0.238365
3225.97,0.239504
3227.98,0.240881
3229.99,0.241978
3232.0,0.242999
3234.02,0.244069
3236.04,0.24504
3238.06,0.245893
3240.08,0.24687
3242.11,0.247954
3244.14,0.24894
3246.17,0.249943
3248.2,0.251005
3250.24,0.252212
3252.28,0.253094
3254.32,0.25418
3256.37,0.255377
3258.41,0.256478
3260.46,0.257474
3262.51,0.258395
3264.57,0.259355
3266.63,0.260375
3268.69,0.261596
3270.75,0.262778
3272.81,0.263768
3274.88,0.264806
3276.95,0.265876
3279.02,0.266858
3281.1,0.267753
3283.18,0.26881
3285.26,0.269965
3287.34,0.270969
3289.43,0.271879
3291.51,0.272908
3293.61,0.274172
3295.7,0.27541
3297.8,0.276379
3299.9,0.277188
3302.0,0.278161
3304.1,0.279143
3306.21,0.280157
3308.32,0.281275
3310.43,0.282228
3312.55,0.283231
3314.66,0.284413
3316.79,0.285536
3318.91,0.286507
3321.03,0.28759
3323.16,0.288585
3325.29,0.289597
3327.43,0.290513
3329.57,0.291412
3331.71,0.292467
3333.85,0.293675
3335.99,0.294752
3338.14,0.295531
3340.29,0.296169
3342.45,0.297024
3344.6,0.297958
3346.76,0.298961
3348.92,0.30002
3351.09,0.300873
3353.26,0.301515
3355.43,0.302264
3357.6,0.303037
3359.78,0.303816
3361.96,0.304604
3364.14,0.305322
3366.32,0.306111
3368.51,0.307036
3370.7,0.307872
3372.89,0.308631
3375.09,0.309465
3377.29,0.310516
3379.49,0.311519
3381.69,0.312279
3383.9,0.313238
3386.11,0.31449
3388.32,0.315648
3390.54,0.316651
3392.76,0.317804
3394.98,0.318916
3397.21,0.31975
3399.43,0.320479
3401.66,0.32116
3403.9,0.322054
3406.13,0.322872
3408.37,0.323623
3410.61,0.324781
3412.86,0.325917
3415.11,0.326852
3417.36,0.327969
3419.61,0.329331
3421.87,0.330633
3424.13,0.331866
3426.39,0.333342
3428.66,0.334807
3430.93,0.335925
3433.2,0.337104
3435.48,0.338216
3437.76,0.339259
3440.04,0.340353
3442.32,0.341243
3444.61,0.342308
3446.9,0.343256
3449.19,0.344258
3451.49,0.345424
3453.79,0.34663
3456.09,0.347752
3458.4,0.348705
3460.7,0.349563
3463.02,0.350558
3465.33,0.351583
3467.65,0.352425
3469.97,0.353304
3472.29,0.354081
3474.62,0.354733
3476.95,0.35553
3479.29,0.356383
3481.62,0.35713
3483.96,0.357869
3486.3,0.35867
3488.65,0.359715
3491.0,0.360842
3493.35,0.361656
3495.71,0.362422
3498.07,0.363131
3500.43,0.364117
3502.79,0.365086
3505.16,0.365969
3507.53,0.367085
3509.91,0.368169
3512.29,0.369175
3514.67,0.370384
3517.05,0.371568
3519.44,0.372867
3521.83,0.374019
3524.23,0.375144
3526.62,0.376454
3529.02,0.377896
3531.43,0.379148
3533.83,0.380221
3536.24,0.381328
3538.66,0.382469
3541.08,0.383515
3543.5,0.384495
3545.92,0.38542
3548.35,0.386342
3550.78,0.387282
3553.21,0.388251
3555.65,0.389028
3558.09,0.38982
3560.53,0.390873
3562.98,0.391828
3565.43,0.392749
3567.88,0.393959
3570.34,0.39503
3572.8,0.395967
3575.27,0.396859
3577.73,0.398087
3580.2,0.39914
3582.68,0.399813
3585.16,0.400672
3587.64,0.40186
3590.12,0.402751
3592.61,0.403516
3595.1,0.404394
3597.6,0.405395
3600.09,0.406252
3602.6,0.40697
3605.1,0.407701
3607.61,0.40867
3610.12,0.409625
3612.64,0.410435
3615.16,0.411218
3617.68,0.411892
3620.21,0.412543
3622.74,0.413326
3625.27,0.414221
3627.81,0.415054
3630.35,0.415807
3632.89,0.41655
3635.44,0.417289
3637.99,0.418197
3640.54,0.419063
3643.1,0.419842
3645.66,0.420695
3648.23,0.421348
3650.8,0.421964
3653.37,0.422686
3655.95,0.423391
3658.53,0.424312
3661.11,0.425287
3663.7,0.426118
3666.29,0.426714
3668.89,0.427075
3671.48,0.427726
3674.09,0.428507
3676.69,0.429169
3679.3,0.429898
3681.91,0.430638
3684.53,0.431389
3687.15,0.432118
3689.78,0.433003
3692.4,0.433867
3695.04,0.434742
3697.67,0.435571
3700.31,0.436335
3702.95,0.436905
3705.6,0.437486
3708.25,0.438215
3710.91,0.439049
3713.56,0.439741
3716.23,0.440435
3718.89,0.441129
3721.56,0.441895
3724.23,0.442542
3726.91,0.443038
3729.59,0.443542
3732.28,0.444226
3734.97,0.445042
3737.66,0.445814
3740.36,0.446237
3743.06,0.446716
3745.76,0.447447
3748.47,0.448348
3751.18,0.448846
3753.9,0.449103
3756.62,0.449769
3759.34,0.450587
3762.07,0.451161
3764.8,0.451699
3767.54,0.452399
3770.28,0.453153
3773.02,0.453784
3775.77,0.454116
3778.52,0.454375
3781.28,0.454887
3784.04,0.45559
3786.8,0.456092
3789.57,0.45651
3792.34,0.457024
3795.12,0.457551
3797.9,0.458173
3800.69,0.458713
3803.47,0.459148
3806.27,0.459601
3809.06,0.460103
3811.86,0.460671
3814.67,0.461154
3817.48,0.461439
3820.29,0.46182
3823.11,0.462231
3825.93,0.462484
3828.76,0.462974
3831.59,0.463568
3834.42,0.46395
3837.26,0.464427
3840.1,0.464856
3842.95,0.465158
3845.8,0.465469
3848.65,0.465802
3851.51,0.466007
3854.38,0.466264
3857.24,0.466514
3860.12,0.466858
3862.99,0.467409
3865.87,0.467718
3868.76,0.467787
3871.65,0.467905
3874.54,0.468162
3877.44,0.468553
3880.34,0.468699
3883.25,0.468921
3886.16,0.469178
3889.07,0.469339
3891.99,0.469546
3894.92,0.469785
3897.85,0.469902
3900.78,0.470116
3903.72,0.470457
3906.66,0.470612
3909.6,0.47069
3912.55,0.470808
3915.51,0.470855
3918.47,0.470903
3921.43,0.471041
3924.4,0.471114
3927.38,0.471125
3930.35,0.4713
3933.33,0.471358
3936.32,0.471552
3939.31,0.471469
3942.31,0.471239
3945.31,0.471249
3948.31,0.47135
3951.32,0.471417
3954.34,0.471517
3957.35,0.471615
3960.38,0.471443
3963.41,0.471254
3966.44,0.471171
3969.48,0.471073
3972.52,0.471125
3975.56,0.471052
3978.61,0.470936
3981.67,0.470925
3984.73,0.470905
3987.8,0.470901
3990.87,0.470969
3993.94,0.470855
3997.02,0.470721
4000.1,0.470703
4003.19,0.470751
4006.29,0.470745
4009.39,0.470658
4012.49,0.470588
4015.6,0.470468
4018.71,0.470407
4021.83,0.470357
4024.95,0.470135
4028.08,0.470035
4031.21,0.469915
4034.35,0.469739
4037.49,0.469511
4040.64,0.469319
4043.79,0.469082
4046.94,0.468849
4050.11,0.46854
4053.27,0.468166
4056.44,0.467852
4059.62,0.467704
4062.8,0.467448
4065.99,0.467099
4069.18,0.466647
4072.38,0.46622
4075.58,0.465863
4078.78,0.465689
4082.0,0.46545
4085.21,0.465126
4088.43,0.464645
4091.66,0.464138
4094.89,0.463715
4098.13,0.46345
4101.37,0.463193
4104.62,0.462954
4107.87,0.462558
4111.13,0.462068
4114.39,0.461555
4117.66,0.46115
4120.93,0.460886
4124.21,0.460467
4127.5,0.459868
4130.79,0.459572
4134.08,0.459265
4137.38,0.458958
4140.68,0.458499
4143.99,0.458086
4147.31,0.457609
4150.63,0.457113
4153.95,0.45666
4157.29,0.456454
4160.62,0.456053
4163.96,0.45566
4167.31,0.455239
4170.66,0.454743
4174.02,0.454323
4177.39,0.45403
4180.75,0.453527
4184.13,0.452935
4187.51,0.452424
4190.89,0.451966
4194.28,0.451499
4197.68,0.451142
4201.08,0.4507
4204.49,0.450206
4207.9,0.44962
4211.32,0.448955
4214.74,0.448404
4218.17,0.447762
4221.61,0.447137
4225.05,0.446668
4228.5,0.446234
4231.95,0.445782
4235.4,0.445288
4238.87,0.444907
4242.34,0.44453
4245.81,0.444171
4249.29,0.443838
4252.78,0.443516
4256.27,0.443053
4259.77,0.442172
4263.27,0.440959
4266.78,0.44003
4270.29,0.439732
4273.81,0.439719
4277.34,0.439436
4280.87,0.438992
4284.41,0.438496
4287.95,0.437998
4291.5,0.437582
4295.06,0.437168
4298.62,0.436725
4302.19,0.436274
4305.76,0.435832
4309.34,0.435391
4312.92,0.43494
4316.52,0.434498
4320.11,0.434076
4323.72,0.433654
4327.32,0.433086
4330.94,0.43256
4334.56,0.431996
4338.19,0.431463
4341.82,0.431027
4345.46,0.430542
4349.11,0.429907
4352.76,0.429378
4356.42,0.428838
4360.08,0.428357
4363.75,0.427735
4367.43,0.427158
4371.11,0.426717
4374.8,0.426305
4378.49,0.425694
4382.19,0.425239
4385.9,0.424799
4389.61,0.424318
4393.33,0.423665
4397.06,0.423082
4400.79,0.422482
4404.53,0.421999
4408.28,0.421398
4412.03,0.420858
4415.79,0.420336
4419.55,0.419822
4423.32,0.419372
4427.1,0.418902
4430.88,0.41844
4434.68,0.417986
4438.47,0.417387
4442.28,0.416837
4446.08,0.416343
4449.9,0.41579
4453.72,0.415179
4457.55,0.41478
4461.39,0.414412
4465.23,0.413892
4469.08,0.413207
4472.94,0.412746
4476.8,0.412362
4480.67,0.411875
4484.55,0.411238
4488.43,0.410657
4492.32,0.410154
4496.21,0.409573
4500.12,0.409072
4504.03,0.408613
4507.94,0.408136
4511.87,0.407647
4515.8,0.40709
4519.73,0.40652
4523.68,0.406037
4527.63,0.405647
4531.59,0.405201
4535.55,0.404646
4539.52,0.404039
4543.5,0.403597
4547.49,0.403099
4551.48,0.402481
4555.48,0.402026
4559.49,0.401521
4563.5,0.401001
4567.52,0.400539
4571.55,0.400065
4575.58,0.399599
4579.63,0.399171
4583.67,0.39881
4587.73,0.398279
4591.79,0.397811
4595.86,0.397434
4599.94,0.397175
4604.03,0.396649
4608.12,0.396091
4612.22,0.395722
4616.33,0.395434
4620.44,0.394912
4624.56,0.39457
4628.69,0.394333
4632.83,0.394054
4636.97,0.39368
4641.12,0.393243
4645.28,0.392882
4649.45,0.392596
4653.62,0.392418
4657.8,0.39224
4661.99,0.391889
4666.19,0.391517
4670.39,0.391152
4674.6,0.390897
4678.82,0.390583
4683.05,0.390266
4687.28,0.390009
4691.52,0.389844
4695.77,0.389656
4700.03,0.389406
4704.3,0.389125
4708.57,0.388866
4712.85,0.388492
4717.14,0.388074
4721.43,0.387826
4725.74,0.387729
4730.05,0.387474
4734.37,0.387071
4738.7,0.386669
4743.03,0.386314
4747.38,0.385951
4751.73,0.385565
4756.09,0.38525
4760.45,0.385017
4764.83,0.384582
4769.21,0.38414
4773.6,0.383833
4778.0,0.383455
4782.41,0.382952
4786.83,0.382495
4791.25,0.382125
4795.68,0.381879
4800.13,0.381513
4804.57,0.381035
4809.03,0.380619
4813.5,0.38026
4817.97,0.379809
4822.45,0.379448
4826.94,0.379115
4831.44,0.378584
4835.95,0.378108
4840.46,0.377722
4844.99,0.377202
4849.52,0.376771
4854.06,0.376402
4858.61,0.375995
4863.17,0.375446
4867.73,0.374867
4872.31,0.374358
4876.89,0.373868
4881.48,0.373305
4886.08,0.372774
4890.69,0.372115
4895.31,0.371522
4899.94,0.370987
4904.57,0.370232
4909.22,0.36934
4913.87,0.368504
4918.53,0.367584
4923.21,0.366696
4927.88,0.365754
4932.57,0.364887
4937.27,0.364067
4941.98,0.363079
4946.69,0.362026
4951.42,0.360996
4956.15,0.359802
4960.9,0.358703
4965.65,0.357547
4970.41,0.356211
4975.18,0.354888
4979.96,0.353719
4984.75,0.352522
4989.54,0.351256
4994.35,0.349942
4999.17,0.348712
5003.99,0.347376
5008.83,0.346079
5013.67,0.344758
5018.52,0.343389
5023.39,0.342107
5028.26,0.340848
5033.14,0.339675
5038.03,0.338534
5042.93,0.337276
5047.84,0.335995
5052.76,0.334722
5057.69,0.333603
5062.63,0.332417
5067.58,0.331161
5072.54,0.329936
5077.51,0.328826
5082.49,0.327782
5087.47,0.326792
5092.47,0.325682
5097.48,0.324676
5102.5,0.323677
5107.52,0.322624
5112.56,0.321678
5117.61,0.320775
5122.66,0.319898
5127.73,0.319062
5132.81,0.318174
5137.89,0.317282
5142.99,0.316283
5148.1,0.315454
5153.22,0.314758
5158.34,0.314135
5163.48,0.3134
5168.63,0.31267
5173.79,0.311841
5178.96,0.311078
5184.13,0.310464
5189.32,0.310002
5194.52,0.309443
5199.73,0.308777
5204.96,0.308144
5210.19,0.307692
5215.43,0.307117
5220.68,0.306564
5225.94,0.30602
5231.22,0.305591
5236.5,0.30508
5241.79,0.30446
5247.1,0.303848
5252.42,0.303363
5257.74,0.30285
5263.08,0.302351
5268.43,0.301731
5273.79,0.301144
5279.16,0.300528
5284.54,0.299801
5289.93,0.299017
5295.34,0.298362
5300.75,0.297733
5306.18,0.297055
5311.61,0.296301
5317.06,0.295446
5322.52,0.294656
5327.99,0.293934
5333.47,0.293026
5338.96,0.292067
5344.47,0.2911
5349.98,0.290126
5355.51,0.289223
5361.05,0.288341
5366.6,0.287297
5372.16,0.286285
5377.73,0.285201
5383.32,0.284152
5388.91,0.28307
5394.52,0.282004
5400.14,0.280892
5405.77,0.279856
5411.41,0.278729
5417.07,0.27755
5422.74,0.276207
5428.41,0.275049
5434.1,0.273992
5439.81,0.272771
5445.52,0.271639
5451.25,0.270573
5456.98,0.269347
5462.73,0.268044
5468.5,0.266876
5474.27,0.265857
5480.06,0.264677
5485.86,0.263696
5491.67,0.262743
5497.49,0.261768
5503.33,0.260845
5509.18,0.259886
5515.04,0.259004
5520.91,0.258062
5526.8,0.257159
5532.69,0.256474
5538.61,0.255797
5544.53,0.254963
5550.47,0.254051
5556.41,0.253396
5562.38,0.252928
5568.35,0.252413
5574.34,0.251916
5580.34,0.251442
5586.35,0.251135
5592.38,0.250922
5598.42,0.250546
5604.47,0.250249
5610.54,0.25011
5616.61,0.249814
5622.71,0.249575
5628.81,0.249457
5634.93,0.249257
5641.06,0.249068
5647.21,0.248981
5653.36,0.249003
5659.54,0.248663
5665.72,0.248424
5671.92,0.248184
5678.13,0.247988
5684.36,0.247834
5690.6,0.247625
5696.85,0.247358
5703.12,0.247094
5709.4,0.246493
5715.69,0.24608
5722.0,0.245784
5728.33,0.245281
5734.66,0.244626
5741.01,0.24388
5747.38,0.242933
5753.76,0.241841
5760.15,0.240587
5766.56,0.239075
5772.98,0.237702
5779.41,0.236364
5785.86,0.234733
5792.33,0.233075
5798.81,0.231152
5805.3,0.229167
5811.81,0.227037
5818.33,0.224717
5824.87,0.222153
5831.42,0.219644
5837.99,0.216789
5844.57,0.213947
5851.17,0.210837
5857.78,0.207632
5864.41,0.204252
5871.05,0.200546
5877.7,0.19671
5884.38,0.192869
5891.06,0.188852
5897.76,0.184684
5904.48,0.180401
5911.21,0.176073
5917.96,0.171573
5924.73,0.166953
5931.5,0.162398
5938.3,0.157796
5945.11,0.153038
5951.93,0.148451
5958.78,0.143733
5965.63,0.139017
5972.51,0.134215
5979.39,0.129358
5986.3,0.124539
5993.22,0.119865
6000.16,0.11516
6007.11,0.110523
6014.08,0.105922
6021.06,0.101614
6028.06,0.097548
6035.08,0.093838
6042.12,0.090235
6049.17,0.086813
6056.23,0.083527
6063.32,0.080494
6070.42,0.077889
6077.53,0.075436
6084.67,0.073151
6091.82,0.071284
6098.98,0.069711
6106.17,0.068505
6113.37,0.06765
6120.58,0.067263
6127.82,0.067443
6135.07,0.068166
6142.34,0.069644
6149.63,0.071953
6156.93,0.075121
6164.25,0.079031
6171.59,0.083608
6178.95,0.088483
6186.32,0.093398
6193.71,0.098624
6201.12,0.103707
6208.54,0.108392
6215.99,0.113078
6223.45,0.117772
6230.93,0.122687
6238.43,0.127645
6245.95,0.132398
6253.48,0.136848
6261.03,0.140909
6268.6,0.144556
6276.19,0.147922
6283.8,0.150967
6291.43,0.153774
6299.07,0.156252
6306.73,0.158551
6314.42,0.160683
6322.12,0.162835
6329.84,0.164948
6337.57,0.167068
6345.33,0.169014
6353.11,0.171124
6360.9,0.173155
6368.72,0.174802
6376.55,0.176415
6384.4,0.177914
6392.27,0.179031
6400.17,0.180058
6408.08,0.180874
6416.01,0.181498
6423.96,0.18224
6431.93,0.182819
6439.92,0.183294
6447.93,0.183877
6455.96,0.18426
6464.01,0.184419
6472.08,0.184438
6480.17,0.184438
6488.28,0.184318
6496.41,0.184225
6504.56,0.184038
6512.73,0.183655
6520.92,0.182952
6529.14,0.182236
6537.37,0.181587
6545.63,0.180676
6553.9,0.179744
6562.2,0.178965
6570.51,0.177979
6578.85,0.176785
6587.21,0.175577
6595.59,0.174423
6603.99,0.173464
6612.42,0.172532
6620.86,0.171492
6629.33,0.170493
6637.82,0.169416
6646.33,0.168406
6654.86,0.167492
6663.41,0.166657
6671.99,0.165749
6680.59,0.164744
6689.21,0.163743
6697.85,0.162694
6706.51,0.161713
6715.2,0.160675
6723.91,0.159658
6732.64,0.158594
6741.4,0.157447
6750.18,0.156261
6758.98,0.154993
6767.8,0.153661
6776.65,0.15224
6785.52,0.15078
6794.41,0.149359
6803.33,0.147848
6812.27,0.146394
6821.23,0.145282
6830.22,0.144251
6839.23,0.143206
6848.26,0.142156
6857.32,0.141072
6866.4,0.139968
6875.51,0.138737
6884.64,0.137566
6893.8,0.136478
6902.98,0.135292
6912.18,0.134136
6921.41,0.132881
6930.66,0.131584
6939.94,0.130293
6949.24,0.128896
6958.57,0.127477
6967.92,0.126013
6977.3,0.124574
6986.7,0.123179
6996.13,0.121734
7005.59,0.120302
7015.07,0.118984
7024.57,0.117739
7034.1,0.116555
7043.66,0.115341
7053.25,0.114102
7062.85,0.112943
7072.49,0.111918
7082.15,0.110786
7091.84,0.109802
7101.55,0.108734
7111.3,0.107576
7121.06,0.106301
7130.86,0.104997
7140.68,0.103692
7150.53,0.102271
7160.41,0.100822
7170.31,0.099446
7180.24,0.098051
7190.2,0.096497
7200.19,0.094691
7210.2,0.092904
7220.24,0.091327
7230.31,0.089769
7240.41,0.088123
7250.54,0.08637
7260.69,0.084516
7270.88,0.082849
7281.09,0.081401
7291.33,0.0798
7301.6,0.078076
7311.9,0.076409
7322.22,0.074473
7332.58,0.072607
7342.97,0.070869
7353.38,0.069147
7363.83,0.067354
7374.3,0.065566
7384.81,0.063757
7395.34,0.061984
7405.91,0.060266
7416.5,0.058465
7427.13,0.056535
7437.78,0.054728
7448.47,0.053003
7459.19,0.051229
7469.94,0.049386
7480.71,0.047691
7491.52,0.04606
7502.37,0.044398
7513.24,0.042814
7524.14,0.041236
7535.08,0.039619
7546.05,0.038081
7557.05,0.036496
7568.08,0.034908
7579.15,0.033459
7590.24,0.032096
7601.37,0.030749
7612.53,0.029393
7623.73,0.028014
7634.96,0.026871
7646.22,0.02582
7657.51,0.024832
7668.84,0.023859
7680.2,0.022961
7691.59,0.022077
7703.02,0.021355
7714.49,0.020634
7725.98,0.020055
7737.52,0.019657
7749.08,0.019265
7760.68,0.019039
7772.32,0.019011
7783.99,0.019015
7795.69,0.019322
7807.43,0.019699
7819.21,0.020277
7831.02,0.021039
7842.87,0.021966
7854.75,0.023154
7866.67,0.024601
7878.62,0.026168
7890.62,0.027792
7902.64,0.029578
7914.71,0.031637
7926.81,0.033835
7938.95,0.03612
7951.13,0.038494
7963.34,0.041008
7975.59,0.043493
7987.88,0.046028
8000.21,0.048618
8012.57,0.051255
8024.98,0.053705
8037.42,0.055862
8049.9,0.057851
8062.42,0.059735
8074.98,0.061498
8087.57,0.062998
8100.21,0.064129
8112.89,0.065089
8125.6,0.066035
8138.36,0.06688
8151.16,0.067544
8163.99,0.068218
8176.87,0.069049
8189.79,0.06989
8202.75,0.070667
8215.75,0.071448
8228.79,0.072194
8241.87,0.072843
8254.99,0.073506
8268.16,0.0742
8281.37,0.074649
8294.62,0.07511
8307.91,0.075506
8321.24,0.075802
8334.62,0.076039
8348.04,0.07607
8361.51,0.076087
8375.02,0.075933
8388.57,0.075632
8402.16,0.075202
8415.8,0.074633
8429.49,0.074031
8443.22,0.073363
8456.99,0.072586
8470.81,0.071898
8484.67,0.071409
8498.58,0.070799
8512.54,0.069992
8526.54,0.069239
8540.58,0.068675
8554.68,0.068249
8568.82,0.067881
8583.0,0.067535
8597.24,0.067252
8611.52,0.066847
8625.85,0.066625
8640.23,0.066514
8654.65,0.066382
8669.12,0.066282
8683.64,0.066379
8698.21,0.066517
8712.83,0.066532
8727.5,0.066577
8742.22,0.066847
8756.99,0.067054
8771.8,0.067204
8786.67,0.067456
8801.59,0.067896
8816.56,0.068336
8831.58,0.068782
8846.65,0.069274
8861.77,0.069742
8876.94,0.070283
8892.17,0.070875
8907.45,0.071578
8922.78,0.07241
8938.16,0.073193
8953.6,0.0741
8969.09,0.075036
8984.64,0.075891
9000.23,0.076992
9015.89,0.078161
9031.59,0.07914
9047.36,0.080155
9063.17,0.081288
9079.05,0.082231
9094.97,0.08316
9110.96,0.084034
9127.0,0.085027
9143.1,0.086198
9159.25,0.086892
9175.46,0.087505
9191.73,0.088137
9208.06,0.088755
9224.44,0.089346
9240.88,0.089788
9257.38,0.090115
9273.94,0.090522
9290.56,0.090554
9307.24,0.090432
9323.98,0.090489
9340.78,0.090639
9357.64,0.090528
9374.57,0.09023
9391.55,0.089804
9408.59,0.089425
9425.7,0.088996
9442.87,0.088552
9460.1,0.088012
9477.4,0.087567
9494.75,0.087123
9512.17,0.086433
9529.66,0.085723
9547.21,0.085118
9564.83,0.084354
9582.5,0.083577
9600.25,0.082862
9618.06,0.082011
9635.94,0.080995
9653.88,0.080185
9671.89,0.0796
9689.97,0.078995
9708.12,0.07822
9726.33,0.077382
9744.62,0.07656
9762.97,0.075767
9781.39,0.075058
9799.88,0.074431
9818.44,0.073726
9837.07,0.073071
9855.77,0.072553
9874.54,0.072044
9893.39,0.071578
9912.3,0.071089
9931.29,0.070547
9950.36,0.070249
9969.49,0.06999
9988.7,0.06963
10007.98,0.069491
10027.34,0.069472
10046.77,0.069493
10066.28,0.069622
10085.87,0.069859
10105.53,0.07022
10125.26,0.070414
10145.08,0.070816
10164.97,0.071461
10184.94,0.072196
10204.99,0.072943
10225.12,0.073731
10245.33,0.074725
10265.61,0.07588
10285.98,0.076914
10306.43,0.077941
10326.96,0.079154
10347.57,0.080374
10368.27,0.081541
10389.05,0.082801
10409.91,0.084128
10430.86,0.085386
10451.88,0.086509
10473.0,0.087623
10494.2,0.08877
10515.49,0.08984
10536.86,0.090892
10558.32,0.091847
10579.87,0.092815
10601.5,0.093658
10623.23,0.094508
10645.04,0.09525
10666.94,0.096136
10688.94,0.097128
10711.02,0.098156
10733.2,0.099141
10755.47,0.100056
10777.83,0.101032
10800.28,0.102099
10822.83,0.102837
10845.47,0.103463
10868.21,0.10434
10891.04,0.105065
10913.97,0.10574
10936.99,0.106551
10960.12,0.107228
10983.34,0.107783
11006.66,0.108259
11030.07,0.108638
11053.59,0.109006
11077.21,0.109341
11100.93,0.109596
11124.75,0.109852
11148.68,0.110137
11172.71,0.11022
11196.84,0.110135
11221.07,0.110124
11245.41,0.110085
11269.86,0.10999
11294.41,0.10982
11319.07,0.109535
11343.84,0.109176
11368.72,0.10881
11393.7,0.108321
11418.8,0.107665
11444.01,0.107117
11469.33,0.106802
11494.76,0.106632
11520.3,0.106695
11545.96,0.106773
11571.73,0.106923
11597.62,0.107217
11623.62,0.107276
11649.74,0.107174
11675.98,0.107048
11702.34,0.106902
11728.81,0.106834
11755.41,0.106895
11782.13,0.106725
11808.96,0.10599
11835.92,0.105145
11863.01,0.104295
11890.22,0.103389
11917.55,0.102354
11945.01,0.100739
11972.6,0.098839
12000.31,0.096643
12028.16,0.094034
12056.13,0.091486
12084.23,0.08875
12112.46,0.085815
12140.83,0.082735
12169.33,0.079617
12197.96,0.076562
12226.73,0.073395
12255.64,0.070201
12284.68,0.067224
12313.86,0.064268
12343.18,0.061205
12372.64,0.058141
12402.24,0.055179
12431.98,0.052459
12461.86,0.049867
12491.89,0.047769
12522.07,0.046333
12552.38,0.045247
12582.85,0.044552
12613.47,0.044213
12644.23,0.044237
12675.15,0.044661
12706.21,0.045055
12737.43,0.045438
12768.81,0.045837
12800.33,0.046393
12832.02,0.046959
12863.86,0.047492
12895.86,0.048283
12928.02,0.049068
12960.34,0.049708
12992.82,0.050295
13025.46,0.050594
13058.27,0.050754
13091.25,0.050894
13124.39,0.051334
13157.7,0.051623
13191.18,0.051738
13224.83,0.051747
13258.66,0.051512
13292.65,0.051355
13326.83,0.051186
13361.17,0.050852
13395.7,0.050752
13430.4,0.050258
13465.29,0.049893
13500.35,0.049817
13535.6,0.049366
13571.03,0.048851
13606.65,0.048548
13642.46,0.048345
13678.46,0.048197
13714.64,0.0482
13751.02,0.048073
13787.59,0.04791
13824.36,0.048117
13861.32,0.048324
13898.49,0.048431
13935.85,0.048219
13973.41,0.048134
14011.17,0.048128
14049.15,0.048065
14087.32,0.047973
14125.71,0.047908
14164.3,0.047751
14203.11,0.047751
14242.13,0.047468
14281.36,0.046979
14320.81,0.046842
14360.49,0.046574
14400.38,0.046113
14440.49,0.045973
14480.82,0.045974
14521.39,0.045436
14562.18,0.044764
14603.2,0.044422
14644.45,0.044124
14685.93,0.044028
14727.66,0.043676
14769.62,0.043292
14811.81,0.043108
14854.25,0.042997
14896.94,0.042768
14939.87,0.042527
14983.05,0.042261
15026.48,0.04208
15070.16,0.041996
15114.1,0.041878
15158.29,0.041612
15202.74,0.04126
15247.46,0.040711
15292.43,0.040107
15337.68,0.039987
15383.19,0.040035
15428.97,0.039869
15475.03,0.039808
15521.36,0.04002
15567.97,0.040226
15614.87,0.040418
15662.04,0.040477
15709.5,0.040553
15757.25,0.040624
15805.29,0.040855
15853.62,0.041382
15902.26,0.041582
15951.19,0.041637
16000.42,0.04165
16049.95,0.041615
16099.8,0.041748
16149.95,0.041926
16200.42,0.041819
16251.21,0.04176
16302.31,0.041817
16353.74,0.041778
16405.49,0.041575
16457.57,0.041051
16509.98,0.040594
16562.73,0.040348
16615.82,0.039854
16669.24,0.039365
16723.02,0.03882
16777.14,0.03819
16831.61,0.037537
16886.43,0.036803
16941.62,0.036313
16997.16,0.03662
17053.08,0.036901
17109.36,0.037051
17166.01,0.037454
17223.04,0.038022
17280.45,0.038351
17338.24,0.039151
17396.43,0.039691
17455.0,0.039643
17513.97,0.039099
17573.34,0.038912
17633.11,0.038492
17693.29,0.037972
17753.89,0.037432
17814.9,0.036779
17876.33,0.036708
17938.18,0.036729
18000.47,0.036677
18063.19,0.036803
18126.35,0.03649
18189.95,0.036189
18254.0,0.035856
18318.5,0.035933
18383.46,0.035615
18448.88,0.035574
18514.77,0.035217
18581.13,0.034533
18647.97,0.034906
18715.29,0.034775
18783.1,0.034581
18851.4,0.034499
18920.2,0.034688
18989.51,0.034816
19059.32,0.03469
19129.65,0.034701
19200.5,0.035034
19271.88,0.03573
19343.79,0.037188
19416.24,0.038326
19489.23,0.039049
19562.77,0.040864
19636.88,0.04316
19711.54,0.045338
19786.78,0.04783
19862.59,0.05097
19938.98,0.05421
20015.96,0.05828
20093.55,0.062584
20171.73,0.06733
20250.53,0.072471
20329.94,0.078013
20409.98,0.083765
20490.65,0.089227
20571.96,0.094467
20653.92,0.099494
20736.54,0.103379
20819.82,0.106399
20903.77,0.108754
20988.4,0.110231
21073.72,0.110582
21159.73,0.109641
21246.46,0.107724
21333.89,0.105631
21422.04,0.103045
21510.93,0.100071
21600.56,0.097477
21690.94,0.095805
21782.08,0.093855
21873.99,0.091682
21966.67,0.090502
22060.15,0.090507
22154.42,0.091584
22249.51,0.094067
22345.41,0.096943
22442.14,0.099422
22539.72,0.101588
22638.14,0.103365
22737.43,0.103416
22837.6,0.103402
22938.65,0.102523
23040.6,0.100739
23143.46,0.098182
23247.24,0.095871
23351.96,0.094878
23457.63,0.093009
23564.25,0.091155
23671.85,0.089342
23780.44,0.086307
23890.02,0.084692
24000.63,0.084498
24112.26,0.086269
24224.93,0.08722
24338.66,0.087521
24453.47,0.0889
24569.36,0.089225
24686.36,0.088161
24804.47,0.087416
24923.73,0.08685
25044.13,0.088855
25165.71,0.090234
25288.46,0.091057
25412.43,0.087481
25537.61,0.084983
25664.04,0.086178
25791.72,0.088709
25920.68,0.086944
