Database of Origin,University of Winnipeg Spectrophotometer Facility
Sample Description,Merged RELAB + Nicolet data for hydroxides. See Master Hydroxides on HOSERLab website for additional info.
Date Added,2016-11-29 18:11:56.143039

Data ID,RLA_HYD_01          
Sample ID,OOH001
Mineral Name,Bauxite
Grain Size,<45
Viewing Geometry,"30/0,30"
Resolution,5/0.6-129
Material Class,Hydroxide

Wavelength
320.0,0.170998
325.0,0.174232
330.0,0.179364
335.0,0.187578
340.0,0.197806
345.0,0.209158
350.0,0.222841
355.0,0.239096
360.0,0.261286
365.0,0.279811
370.0,0.296591
375.0,0.310387
380.0,0.322734
385.0,0.333984
390.0,0.344312
395.0,0.354032
400.0,0.360396
405.0,0.366665
410.0,0.37437
415.0,0.379829
420.0,0.38452
425.0,0.390429
430.0,0.397521
435.0,0.403065
440.0,0.40846
445.0,0.414463
450.0,0.419587
455.0,0.424905
460.0,0.42919
465.0,0.43344
470.0,0.437513
475.0,0.441569
480.0,0.443334
485.0,0.447974
490.0,0.449539
495.0,0.454107
500.0,0.457915
505.0,0.462512
510.0,0.466437
515.0,0.471324
520.0,0.47484
525.0,0.479664
530.0,0.484585
535.0,0.491069
540.0,0.499217
545.0,0.507889
550.0,0.518555
555.0,0.532417
560.0,0.547106
565.0,0.565183
570.0,0.584058
575.0,0.603823
580.0,0.622876
585.0,0.639822
590.0,0.656842
595.0,0.671206
600.0,0.685027
605.0,0.694766
610.0,0.703865
615.0,0.712209
620.0,0.718495
625.0,0.723861
630.0,0.729604
635.0,0.733981
640.0,0.738377
645.0,0.742672
650.0,0.746411
655.0,0.749445
660.0,0.754479
665.0,0.757414
670.0,0.760579
675.0,0.764934
680.0,0.768212
685.0,0.772715
690.0,0.773949
695.0,0.78013
700.0,0.782328
705.0,0.784856
710.0,0.787991
715.0,0.791902
720.0,0.793274
725.0,0.796703
730.0,0.799044
735.0,0.799707
740.0,0.802166
745.0,0.803591
750.0,0.802473
755.0,0.804516
760.0,0.804902
765.0,0.805045
770.0,0.805423
775.0,0.805181
780.0,0.807063
785.0,0.807581
790.0,0.807795
795.0,0.807274
800.0,0.809478
805.0,0.807697
810.0,0.806904
815.0,0.807315
820.0,0.806284
825.0,0.809906
830.0,0.807892
835.0,0.80815
840.0,0.807256
845.0,0.808176
850.0,0.806692
855.0,0.806304
860.0,0.806297
865.0,0.806696
870.0,0.808016
875.0,0.80812
880.0,0.808086
885.0,0.809925
890.0,0.811116
895.0,0.811367
900.0,0.812168
905.0,0.813781
910.0,0.815926
915.0,0.81605
920.0,0.817392
925.0,0.818225
930.0,0.820216
935.0,0.821628
940.0,0.824353
945.0,0.825079
950.0,0.82684
955.0,0.827713
960.0,0.826373
965.0,0.826948
970.0,0.827916
975.0,0.830323
980.0,0.831244
985.0,0.832956
990.0,0.833363
995.0,0.832431
1000.0,0.832155
1005.0,0.836668
1010.0,0.839073
1015.0,0.840885
1020.0,0.842375
1025.0,0.84407
1030.0,0.844739
1035.0,0.845598
1040.0,0.847241
1045.0,0.847384
1050.0,0.848105
1055.0,0.848711
1060.0,0.848867
1065.0,0.850027
1070.0,0.850553
1075.0,0.850219
1080.0,0.850938
1085.0,0.851522
1090.0,0.852359
1095.0,0.851954
1100.0,0.852543
1105.0,0.853095
1110.0,0.853116
1115.0,0.854091
1120.0,0.853621
1125.0,0.85488
1130.0,0.85452
1135.0,0.854729
1140.0,0.854728
1145.0,0.855358
1150.0,0.856002
1155.0,0.855578
1160.0,0.856017
1165.0,0.856597
1170.0,0.85682
1175.0,0.856693
1180.0,0.857021
1185.0,0.85724
1190.0,0.857752
1195.0,0.856995
1200.0,0.857056
1205.0,0.85746
1210.0,0.856547
1215.0,0.857176
1220.0,0.856793
1225.0,0.855565
1230.0,0.855474
1235.0,0.854853
1240.0,0.853221
1245.0,0.851236
1250.0,0.849963
1255.0,0.847002
1260.0,0.845073
1265.0,0.840933
1270.0,0.836215
1275.0,0.83428
1280.0,0.835351
1285.0,0.836482
1290.0,0.837074
1295.0,0.83491
1300.0,0.832671
1305.0,0.82894
1310.0,0.828751
1315.0,0.82942
1320.0,0.827874
1325.0,0.829603
1330.0,0.832418
1335.0,0.831824
1340.0,0.831501
1345.0,0.831532
1350.0,0.831223
1355.0,0.829184
1360.0,0.827503
1365.0,0.826227
1370.0,0.823737
1375.0,0.816785
1380.0,0.804419
1385.0,0.79893
1390.0,0.783785
1395.0,0.749821
1400.0,0.674519
1405.0,0.73481
1410.0,0.723552
1415.0,0.659297
1420.0,0.63009
1425.0,0.689929
1430.0,0.688601
1435.0,0.637147
1440.0,0.623598
1445.0,0.63817
1450.0,0.585823
1455.0,0.625733
1460.0,0.621696
1465.0,0.634464
1470.0,0.700814
1475.0,0.728079
1480.0,0.742006
1485.0,0.75068
1490.0,0.758299
1495.0,0.75842
1500.0,0.754417
1505.0,0.746601
1510.0,0.733176
1515.0,0.710816
1520.0,0.696371
1525.0,0.712171
1530.0,0.721945
1535.0,0.720562
1540.0,0.713039
1545.0,0.700083
1550.0,0.687587
1555.0,0.694706
1560.0,0.715311
1565.0,0.734456
1570.0,0.746716
1575.0,0.754667
1580.0,0.76138
1585.0,0.76568
1590.0,0.770592
1595.0,0.777159
1600.0,0.783859
1605.0,0.789651
1610.0,0.795132
1615.0,0.799376
1620.0,0.80388
1625.0,0.806016
1630.0,0.808641
1635.0,0.811006
1640.0,0.812734
1645.0,0.814095
1650.0,0.815535
1655.0,0.817918
1660.0,0.819743
1665.0,0.822042
1670.0,0.8233
1675.0,0.824364
1680.0,0.825078
1685.0,0.825734
1690.0,0.826733
1695.0,0.827409
1700.0,0.828233
1705.0,0.82884
1710.0,0.829392
1715.0,0.829664
1720.0,0.830347
1725.0,0.831038
1730.0,0.830398
1735.0,0.82975
1740.0,0.829078
1745.0,0.828611
1750.0,0.827969
1755.0,0.826925
1760.0,0.824553
1765.0,0.823741
1770.0,0.820794
1775.0,0.817709
1780.0,0.812377
1785.0,0.807101
1790.0,0.803466
1795.0,0.800097
1800.0,0.798213
1805.0,0.79692
1810.0,0.792876
1815.0,0.787914
1820.0,0.781657
1825.0,0.779825
1830.0,0.776385
1835.0,0.776035
1840.0,0.776383
1845.0,0.775898
1850.0,0.77319
1855.0,0.771861
1860.0,0.772262
1865.0,0.771404
1870.0,0.766166
1875.0,0.771157
1880.0,0.766939
1885.0,0.7598
1890.0,0.755532
1895.0,0.753254
1900.0,0.749008
1905.0,0.74967
1910.0,0.747236
1915.0,0.744377
1920.0,0.740455
1925.0,0.739758
1930.0,0.737646
1935.0,0.735535
1940.0,0.733942
1945.0,0.732581
1950.0,0.731068
1955.0,0.729088
1960.0,0.726837
1965.0,0.726039
1970.0,0.724539
1975.0,0.724256
1980.0,0.723383
1985.0,0.721343
1990.0,0.720257
1995.0,0.718834
2000.0,0.718058
2005.0,0.716197
2010.0,0.714853
2015.0,0.713387
2020.0,0.71189
2025.0,0.71029
2030.0,0.709436
2035.0,0.708474
2040.0,0.707617
2045.0,0.706002
2050.0,0.704878
2055.0,0.703683
2060.0,0.70251
2065.0,0.700576
2070.0,0.699605
2075.0,0.697205
2080.0,0.69607
2085.0,0.695659
2090.0,0.695126
2095.0,0.695532
2100.0,0.694957
2105.0,0.693828
2110.0,0.691673
2115.0,0.68833
2120.0,0.681974
2125.0,0.671702
2130.0,0.663365
2135.0,0.65851
2140.0,0.654254
2145.0,0.648468
2150.0,0.637718
2155.0,0.622472
2160.0,0.604041
2165.0,0.58747
2170.0,0.572642
2175.0,0.558015
2180.0,0.543519
2185.0,0.535433
2190.0,0.533596
2195.0,0.524307
2200.0,0.505415
2205.0,0.484018
2210.0,0.470363
2215.0,0.472498
2220.0,0.469296
2225.0,0.462129
2230.0,0.454743
2235.0,0.442578
2240.0,0.420182
2245.0,0.387018
2250.0,0.346729
2255.0,0.325813
2260.0,0.322022
2265.0,0.305972
2270.0,0.282891
2275.0,0.294745
2280.0,0.327349
2285.0,0.348245
2290.0,0.360783
2295.0,0.368597
2300.0,0.377174
2305.0,0.380431
2310.0,0.37705
2315.0,0.373311
2320.0,0.37398
2325.0,0.380502
2330.0,0.38954
2335.0,0.397412
2340.0,0.399712
2345.0,0.394379
2350.0,0.382926
2355.0,0.373572
2360.0,0.370374
2365.0,0.370739
2370.0,0.37287
2375.0,0.375913
2380.0,0.377189
2385.0,0.376658
2390.0,0.376957
2395.0,0.378397
2400.0,0.380565
2405.0,0.382611
2410.0,0.387274
2415.0,0.394113
2420.0,0.400325
2425.0,0.40396
2430.0,0.403046
2435.0,0.404611
2440.0,0.408137
2445.0,0.411599
2450.0,0.419033
2455.0,0.425063
2460.0,0.426104
2465.0,0.425421
2470.0,0.421789
2475.0,0.41749
2480.0,0.414357
2485.0,0.404969
2490.0,0.398781
2495.0,0.395525
2500.0,0.391802
2502.0,0.391406
2503.2,0.391069
2504.41,0.391121
2505.62,0.391892
2506.83,0.391668
2508.05,0.39127
2509.26,0.390687
2510.48,0.390236
2511.69,0.38977
2512.91,0.389955
2514.13,0.390226
2515.35,0.390258
2516.57,0.390343
2517.79,0.390745
2519.02,0.390063
2520.24,0.390312
2521.47,0.391192
2522.69,0.391659
2523.92,0.39117
2525.15,0.390827
2526.38,0.389878
2527.61,0.388966
2528.85,0.388986
2530.08,0.389227
2531.32,0.389024
2532.55,0.38959
2533.79,0.388994
2535.03,0.387653
2536.27,0.386558
2537.51,0.38452
2538.75,0.3813
2540.0,0.378072
2541.24,0.375167
2542.49,0.372136
2543.74,0.36839
2544.99,0.364585
2546.24,0.362382
2547.49,0.3602
2548.74,0.357754
2549.99,0.356304
2551.25,0.354673
2552.5,0.353537
2553.76,0.352526
2555.02,0.351954
2556.28,0.351432
2557.54,0.351461
2558.8,0.35066
2560.07,0.349256
2561.33,0.34713
2562.6,0.34452
2563.86,0.342203
2565.13,0.340212
2566.4,0.337894
2567.67,0.336558
2568.95,0.335561
2570.22,0.335294
2571.5,0.334495
2572.77,0.333175
2574.05,0.332308
2575.33,0.333123
2576.61,0.333348
2577.89,0.333123
2579.17,0.33277
2580.46,0.331683
2581.74,0.330137
2583.03,0.328819
2584.31,0.327032
2585.6,0.324901
2586.89,0.322541
2588.19,0.320938
2589.48,0.318907
2590.77,0.317145
2592.07,0.315667
2593.36,0.314078
2594.66,0.312393
2595.96,0.312963
2597.26,0.314986
2598.56,0.316644
2599.87,0.31784
2601.17,0.318754
2602.48,0.318385
2603.78,0.31743
2605.09,0.315853
2606.4,0.31482
2607.71,0.313701
2609.03,0.312972
2610.34,0.312597
2611.66,0.31303
2612.97,0.312893
2614.29,0.313193
2615.61,0.313923
2616.93,0.314427
2618.25,0.314213
2619.57,0.314875
2620.9,0.315141
2622.22,0.314501
2623.55,0.314
2624.88,0.313765
2626.21,0.313067
2627.54,0.312296
2628.87,0.310656
2630.21,0.309131
2631.54,0.307667
2632.88,0.306896
2634.21,0.305684
2635.55,0.304937
2636.89,0.304458
2638.24,0.303714
2639.58,0.301793
2640.92,0.299941
2642.27,0.298049
2643.62,0.296484
2644.97,0.293463
2646.32,0.290682
2647.67,0.288546
2649.02,0.286265
2650.38,0.283536
2651.73,0.281607
2653.09,0.278781
2654.45,0.275702
2655.81,0.272719
2657.17,0.270591
2658.53,0.268257
2659.89,0.265211
2661.26,0.261947
2662.63,0.259649
2664.0,0.257281
2665.36,0.254691
2666.74,0.251591
2668.11,0.247684
2669.48,0.24451
2670.86,0.2435
2672.23,0.240364
2673.61,0.237021
2674.99,0.234424
2676.37,0.232038
2677.76,0.228668
2679.14,0.225549
2680.52,0.222813
2681.91,0.220061
2683.3,0.216819
2684.69,0.212769
2686.08,0.208495
2687.47,0.203976
2688.87,0.198249
2690.26,0.19153
2691.66,0.184174
2693.06,0.177335
2694.46,0.168761
2695.86,0.158813
2697.26,0.150084
2698.66,0.141683
2700.07,0.132642
2701.48,0.12365
2702.89,0.11544
2704.3,0.109033
2705.71,0.103612
2707.12,0.099829
2708.53,0.098509
2709.95,0.09926
2711.37,0.101635
2712.79,0.104705
2714.21,0.107717
2715.63,0.11013
2717.05,0.110974
2718.48,0.11057
2719.9,0.109168
2721.33,0.106559
2722.76,0.10259
2724.19,0.098909
2725.62,0.094009
2727.06,0.089801
2728.49,0.087225
2729.93,0.084692
2731.37,0.080809
2732.81,0.07667
2734.25,0.07244
2735.69,0.068206
2737.14,0.064617
2738.58,0.06229
2740.03,0.059333
2741.48,0.055886
2742.93,0.052603
2744.38,0.049055
2745.83,0.04507
2747.29,0.04085
2748.75,0.036123
2750.2,0.031111
2751.66,0.026701
2753.13,0.022195
2754.59,0.018267
2756.05,0.015303
2757.52,0.012781
2758.99,0.011445
2760.46,0.010874
2761.93,0.011407
2763.4,0.012848
2764.87,0.014654
2766.35,0.016908
2767.82,0.019271
2769.3,0.021483
2770.78,0.023906
2772.26,0.026538
2773.75,0.028714
2775.23,0.030424
2776.72,0.031873
2778.21,0.033149
2779.7,0.033982
2781.19,0.034743
2782.68,0.035125
2784.18,0.035325
2785.67,0.035424
2787.17,0.035053
2788.67,0.034367
2790.17,0.034069
2791.67,0.033733
2793.18,0.032602
2794.68,0.031085
2796.19,0.029699
2797.7,0.029064
2799.21,0.028047
2800.72,0.026322
2802.24,0.025091
2803.75,0.02368
2805.27,0.021982
2806.79,0.020168
2808.31,0.018672
2809.83,0.017148
2811.35,0.015077
2812.88,0.013273
2814.41,0.01216
2815.93,0.010663
2817.46,0.008927
2819.0,0.007893
2820.53,0.007081
2822.07,0.006236
2823.6,0.005595
2825.14,0.005073
2826.68,0.005682
2828.22,0.006472
2829.77,0.007448
2831.31,0.008489
2832.86,0.00971
2834.41,0.010813
2835.96,0.011725
2837.51,0.012625
2839.07,0.013597
2840.62,0.014477
2842.18,0.015157
2843.74,0.016138
2845.3,0.017203
2846.86,0.018153
2848.43,0.019194
2849.99,0.019683
2851.56,0.020286
2853.13,0.021156
2854.7,0.02182
2856.27,0.022111
2857.85,0.02244
2859.42,0.022553
2861.0,0.022843
2862.58,0.022829
2864.16,0.022343
2865.75,0.022022
2867.33,0.02173
2868.92,0.021006
2870.51,0.020261
2872.1,0.019961
2873.69,0.019566
2875.28,0.01893
2876.88,0.018434
2878.48,0.017802
2880.07,0.017513
2881.68,0.017405
2883.28,0.017328
2884.88,0.017281
2886.49,0.017408
2888.1,0.017542
2889.71,0.017734
2891.32,0.017757
2892.93,0.017913
2894.55,0.017815
2896.16,0.018034
2897.78,0.018127
2899.4,0.018369
2901.03,0.01887
2902.65,0.019256
2904.28,0.019701
2905.91,0.020291
2907.54,0.021043
2909.17,0.021633
2910.8,0.022018
2912.44,0.02283
2914.07,0.023659
2915.71,0.024382
2917.35,0.024941
2918.99,0.025772
2920.64,0.026511
2922.29,0.027256
2923.93,0.027725
2925.58,0.027974
2927.24,0.027795
2928.89,0.027495
2930.55,0.026955
2932.2,0.026117
2933.86,0.025419
2935.52,0.024198
2937.19,0.022723
2938.85,0.022488
2940.52,0.022561
2942.19,0.022582
2943.86,0.0225
2945.53,0.023049
2947.21,0.023439
2948.88,0.02334
2950.56,0.023581
2952.24,0.024
2953.92,0.024322
2955.61,0.025089
2957.29,0.025893
2958.98,0.02714
2960.67,0.028601
2962.36,0.030154
2964.06,0.031986
2965.75,0.033947
2967.45,0.03601
2969.15,0.038269
2970.85,0.039879
2972.55,0.041793
2974.26,0.04378
2975.97,0.045689
2977.68,0.047296
2979.39,0.048786
2981.1,0.050259
2982.82,0.051584
2984.53,0.052789
2986.25,0.053961
2987.97,0.054832
2989.7,0.056089
2991.42,0.057314
2993.15,0.058343
2994.88,0.059259
2996.61,0.060033
2998.34,0.060693
3000.08,0.061413
3001.82,0.061946
3003.55,0.062814
3005.3,0.063589
3007.04,0.064367
3008.78,0.064945
3010.53,0.065634
3012.28,0.066567
3014.03,0.067395
3015.79,0.067726
3017.54,0.068266
3019.3,0.069065
3021.06,0.06989
3022.82,0.070712
3024.58,0.07136
3026.35,0.07193
3028.12,0.072375
3029.89,0.072608
3031.66,0.073432
3033.43,0.074327
3035.21,0.074757
3036.99,0.075073
3038.77,0.075762
3040.55,0.076175
3042.33,0.076419
3044.12,0.077072
3045.91,0.077706
3047.7,0.078199
3049.49,0.078781
3051.29,0.07939
3053.08,0.080315
3054.88,0.081271
3056.68,0.082334
3058.49,0.083099
3060.29,0.083757
3062.1,0.084435
3063.91,0.085166
3065.72,0.085802
3067.54,0.08671
3069.35,0.087849
3071.17,0.088551
3072.99,0.088986
3074.81,0.089539
3076.64,0.090481
3078.47,0.091159
3080.29,0.091624
3082.13,0.092107
3083.96,0.092829
3085.79,0.093859
3087.63,0.094651
3089.47,0.095277
3091.31,0.095965
3093.16,0.096663
3095.01,0.097464
3096.85,0.098348
3098.71,0.099105
3100.56,0.100206
3102.41,0.101723
3104.27,0.103055
3106.13,0.10456
3107.99,0.106085
3109.86,0.107523
3111.73,0.109247
3113.59,0.110989
3115.47,0.112474
3117.34,0.114007
3119.21,0.11567
3121.09,0.117335
3122.97,0.118666
3124.86,0.120091
3126.74,0.121675
3128.63,0.122713
3130.52,0.123859
3132.41,0.125214
3134.3,0.126676
3136.2,0.128025
3138.1,0.129468
3140.0,0.131064
3141.9,0.132596
3143.81,0.133828
3145.71,0.135224
3147.62,0.136661
3149.54,0.137764
3151.45,0.138802
3153.37,0.140222
3155.29,0.141451
3157.21,0.142656
3159.13,0.143603
3161.06,0.14429
3162.99,0.14511
3164.92,0.145963
3166.85,0.146751
3168.79,0.147367
3170.72,0.148007
3172.67,0.148647
3174.61,0.149268
3176.55,0.150104
3178.5,0.150744
3180.45,0.151173
3182.4,0.151789
3184.36,0.152756
3186.32,0.153653
3188.27,0.154584
3190.24,0.155548
3192.2,0.156568
3194.17,0.157639
3196.14,0.15909
3198.11,0.160236
3200.08,0.161102
3202.06,0.162548
3204.04,0.163969
3206.02,0.165158
3208.0,0.166382
3209.99,0.167736
3211.98,0.168904
3213.97,0.169813
3215.96,0.170643
3217.96,0.171533
3219.96,0.172301
3221.96,0.172949
3223.96,0.173878
3225.97,0.174735
3227.98,0.175683
3229.99,0.176738
3232.0,0.177709
3234.02,0.178958
3236.04,0.180374
3238.06,0.181832
3240.08,0.182879
3242.11,0.184052
3244.14,0.185235
3246.17,0.186153
3248.2,0.187145
3250.24,0.188043
3252.28,0.18892
3254.32,0.189787
3256.37,0.190367
3258.41,0.191084
3260.46,0.19208
3262.51,0.193155
3264.57,0.193819
3266.63,0.194407
3268.69,0.195421
3270.75,0.196428
3272.81,0.197227
3274.88,0.197861
3276.95,0.198401
3279.02,0.199149
3281.1,0.199588
3283.18,0.199433
3285.26,0.199417
3287.34,0.199558
3289.43,0.199374
3291.51,0.199128
3293.61,0.198718
3295.7,0.197922
3297.8,0.19742
3299.9,0.196976
3302.0,0.19636
3304.1,0.196012
3306.21,0.195884
3308.32,0.195465
3310.43,0.195377
3312.55,0.195521
3314.66,0.195468
3316.79,0.19558
3318.91,0.195724
3321.03,0.195891
3323.16,0.196132
3325.29,0.196449
3327.43,0.196731
3329.57,0.196855
3331.71,0.196955
3333.85,0.1971
3335.99,0.197481
3338.14,0.198138
3340.29,0.198963
3342.45,0.19971
3344.6,0.200596
3346.76,0.201395
3348.92,0.202267
3351.09,0.203426
3353.26,0.204566
3355.43,0.205505
3357.6,0.206424
3359.78,0.20721
3361.96,0.207929
3364.14,0.208979
3366.32,0.210301
3368.51,0.211143
3370.7,0.211986
3372.89,0.213325
3375.09,0.214506
3377.29,0.215603
3379.49,0.216703
3381.69,0.217709
3383.9,0.218651
3386.11,0.219614
3388.32,0.220616
3390.54,0.221416
3392.76,0.221909
3394.98,0.222307
3397.21,0.223183
3399.43,0.224206
3401.66,0.225188
3403.9,0.225983
3406.13,0.22662
3408.37,0.227384
3410.61,0.228083
3412.86,0.228942
3415.11,0.229773
3417.36,0.230702
3419.61,0.231543
3421.87,0.232266
3424.13,0.23312
3426.39,0.234266
3428.66,0.235381
3430.93,0.236494
3433.2,0.237436
3435.48,0.238864
3437.76,0.240207
3440.04,0.241101
3442.32,0.242247
3444.61,0.243698
3446.9,0.244827
3449.19,0.245873
3451.49,0.24713
3453.79,0.248417
3456.09,0.249334
3458.4,0.250074
3460.7,0.251042
3463.02,0.251885
3465.33,0.252325
3467.65,0.252992
3469.97,0.253551
3472.29,0.254229
3474.62,0.254886
3476.95,0.255448
3479.29,0.255925
3481.62,0.256389
3483.96,0.256899
3486.3,0.25767
3488.65,0.258365
3491.0,0.258934
3493.35,0.259228
3495.71,0.259987
3498.07,0.260816
3500.43,0.261514
3502.79,0.262076
3505.16,0.262691
3507.53,0.263497
3509.91,0.264461
3512.29,0.265574
3514.67,0.266591
3517.05,0.267536
3519.44,0.268762
3521.83,0.26996
3524.23,0.270917
3526.62,0.272051
3529.02,0.273356
3531.43,0.274491
3533.83,0.27566
3536.24,0.276728
3538.66,0.277841
3541.08,0.278913
3543.5,0.280096
3545.92,0.281246
3548.35,0.282185
3550.78,0.283256
3553.21,0.284745
3555.65,0.286223
3558.09,0.287441
3560.53,0.288394
3562.98,0.289316
3565.43,0.290528
3567.88,0.291632
3570.34,0.292652
3572.8,0.293751
3575.27,0.294868
3577.73,0.295958
3580.2,0.296904
3582.68,0.29787
3585.16,0.298751
3587.64,0.299521
3590.12,0.300391
3592.61,0.301217
3595.1,0.302142
3597.6,0.303284
3600.09,0.304224
3602.6,0.305079
3605.1,0.305998
3607.61,0.306872
3610.12,0.3076
3612.64,0.308536
3615.16,0.309255
3617.68,0.310032
3620.21,0.310954
3622.74,0.312084
3625.27,0.313142
3627.81,0.313797
3630.35,0.314434
3632.89,0.315165
3635.44,0.315842
3637.99,0.316505
3640.54,0.317058
3643.1,0.317872
3645.66,0.318781
3648.23,0.319395
3650.8,0.319879
3653.37,0.320547
3655.95,0.321084
3658.53,0.32153
3661.11,0.32197
3663.7,0.322498
3666.29,0.322908
3668.89,0.323405
3671.48,0.323676
3674.09,0.324009
3676.69,0.32441
3679.3,0.324885
3681.91,0.325131
3684.53,0.32533
3687.15,0.325774
3689.78,0.325998
3692.4,0.326122
3695.04,0.326315
3697.67,0.326431
3700.31,0.326636
3702.95,0.32669
3705.6,0.326923
3708.25,0.32743
3710.91,0.32799
3713.56,0.328083
3716.23,0.328186
3718.89,0.328558
3721.56,0.328663
3724.23,0.328801
3726.91,0.328986
3729.59,0.329113
3732.28,0.329218
3734.97,0.328948
3737.66,0.328768
3740.36,0.328711
3743.06,0.328436
3745.76,0.327342
3748.47,0.325818
3751.18,0.325669
3753.9,0.327072
3756.62,0.327889
3759.34,0.32817
3762.07,0.328211
3764.8,0.328108
3767.54,0.327671
3770.28,0.327315
3773.02,0.326986
3775.77,0.326585
3778.52,0.326166
3781.28,0.325988
3784.04,0.325953
3786.8,0.326246
3789.57,0.326238
3792.34,0.326467
3795.12,0.32716
3797.9,0.327912
3800.69,0.328304
3803.47,0.328688
3806.27,0.329004
3809.06,0.329325
3811.86,0.329497
3814.67,0.329359
3817.48,0.329253
3820.29,0.329326
3823.11,0.329039
3825.93,0.32861
3828.76,0.328041
3831.59,0.327531
3834.42,0.32627
3837.26,0.323889
3840.1,0.32046
3842.95,0.319323
3845.8,0.322672
3848.65,0.326822
3851.51,0.329308
3854.38,0.330872
3857.24,0.331992
3860.12,0.332959
3862.99,0.333879
3865.87,0.334689
3868.76,0.335385
3871.65,0.33612
3874.54,0.336684
3877.44,0.337116
3880.34,0.337486
3883.25,0.337945
3886.16,0.338271
3889.07,0.338606
3891.99,0.33873
3894.92,0.338875
3897.85,0.338864
3900.78,0.338683
3903.72,0.338443
3906.66,0.338333
3909.6,0.337682
3912.55,0.336513
3915.51,0.334704
3918.47,0.332915
3921.43,0.332539
3924.4,0.333778
3927.38,0.335465
3930.35,0.33682
3933.33,0.337418
3936.32,0.337833
3939.31,0.337982
3942.31,0.337947
3945.31,0.337689
3948.31,0.337441
3951.32,0.337021
3954.34,0.336219
3957.35,0.335157
3960.38,0.333968
3963.41,0.332631
3966.44,0.33194
3969.48,0.332042
3972.52,0.332625
3975.56,0.33287
3978.61,0.332492
3981.67,0.331867
3984.73,0.331713
3987.8,0.332635
3990.87,0.334204
3993.94,0.335697
3997.02,0.3368
4000.1,0.337219
4003.19,0.337518
4006.29,0.337902
4009.39,0.338226
4012.49,0.338189
4015.6,0.338243
4018.71,0.338286
4021.83,0.338222
4024.95,0.338054
4028.08,0.33804
4031.21,0.338004
4034.35,0.337976
4037.49,0.337819
4040.64,0.337838
4043.79,0.337745
4046.94,0.337744
4050.11,0.337704
4053.27,0.337683
4056.44,0.337657
4059.62,0.337657
4062.8,0.337601
4065.99,0.33734
4069.18,0.337214
4072.38,0.337387
4075.58,0.337294
4078.78,0.337112
4082.0,0.336997
4085.21,0.336964
4088.43,0.336706
4091.66,0.336512
4094.89,0.336344
4098.13,0.33625
4101.37,0.336089
4104.62,0.336064
4107.87,0.336105
4111.13,0.336134
4114.39,0.335907
4117.66,0.335753
4120.93,0.335456
4124.21,0.335201
4127.5,0.335136
4130.79,0.335175
4134.08,0.334941
4137.38,0.334739
4140.68,0.334487
4143.99,0.334384
4147.31,0.334313
4150.63,0.334359
4153.95,0.334381
4157.29,0.334466
4160.62,0.334318
4163.96,0.334087
4167.31,0.333925
4170.66,0.333999
4174.02,0.333802
4177.39,0.333571
4180.75,0.333547
4184.13,0.333571
4187.51,0.333568
4190.89,0.333545
4194.28,0.333439
4197.68,0.333316
4201.08,0.333158
4204.49,0.332742
4207.9,0.332215
4211.32,0.331978
4214.74,0.331547
4218.17,0.331253
4221.61,0.331031
4225.05,0.330482
4228.5,0.329994
4231.95,0.329857
4235.4,0.329406
4238.87,0.329143
4242.34,0.328996
4245.81,0.328877
4249.29,0.32843
4252.78,0.328202
4256.27,0.327943
4259.77,0.327452
4263.27,0.326425
4266.78,0.325468
4270.29,0.324834
4273.81,0.32459
4277.34,0.324636
4280.87,0.324966
4284.41,0.325369
4287.95,0.325745
4291.5,0.325616
4295.06,0.32546
4298.62,0.325305
4302.19,0.325338
4305.76,0.325299
4309.34,0.325183
4312.92,0.324792
4316.52,0.324594
4320.11,0.324372
4323.72,0.324249
4327.32,0.323974
4330.94,0.323668
4334.56,0.323283
4338.19,0.323067
4341.82,0.322827
4345.46,0.322614
4349.11,0.322143
4352.76,0.321749
4356.42,0.321285
4360.08,0.320955
4363.75,0.320543
4367.43,0.320075
4371.11,0.319596
4374.8,0.319409
4378.49,0.318914
4382.19,0.318405
4385.9,0.317891
4389.61,0.317458
4393.33,0.316967
4397.06,0.316529
4400.79,0.315889
4404.53,0.315168
4408.28,0.314403
4412.03,0.313852
4415.79,0.313268
4419.55,0.312533
4423.32,0.311633
4427.1,0.311027
4430.88,0.310301
4434.68,0.309517
4438.47,0.308798
4442.28,0.308052
4446.08,0.307083
4449.9,0.306298
4453.72,0.305402
4457.55,0.304675
4461.39,0.303639
4465.23,0.302602
4469.08,0.301657
4472.94,0.30077
4476.8,0.299894
4480.67,0.298923
4484.55,0.297903
4488.43,0.296993
4492.32,0.29611
4496.21,0.295198
4500.12,0.294113
4504.03,0.293105
4507.94,0.291842
4511.87,0.290719
4515.8,0.289756
4519.73,0.288681
4523.68,0.287492
4527.63,0.286302
4531.59,0.284932
4535.55,0.283672
4539.52,0.282275
4543.5,0.280995
4547.49,0.279389
4551.48,0.277963
4555.48,0.276364
4559.49,0.274575
4563.5,0.272672
4567.52,0.270898
4571.55,0.26897
4575.58,0.266916
4579.63,0.264626
4583.67,0.262269
4587.73,0.259637
4591.79,0.256923
4595.86,0.253902
4599.94,0.250669
4604.03,0.247016
4608.12,0.243402
4612.22,0.239566
4616.33,0.235518
4620.44,0.231359
4624.56,0.226997
4628.69,0.222621
4632.83,0.218527
4636.97,0.214821
4641.12,0.211547
4645.28,0.20863
4649.45,0.206595
4653.62,0.205199
4657.8,0.204181
4661.99,0.203596
4666.19,0.2035
4670.39,0.203417
4674.6,0.203415
4678.82,0.203165
4683.05,0.202806
4687.28,0.202214
4691.52,0.201309
4695.77,0.200109
4700.03,0.198616
4704.3,0.196822
4708.57,0.195059
4712.85,0.193228
4717.14,0.191303
4721.43,0.18929
4725.74,0.187254
4730.05,0.185234
4734.37,0.183298
4738.7,0.18137
4743.03,0.179817
4747.38,0.178279
4751.73,0.176634
4756.09,0.175143
4760.45,0.173711
4764.83,0.172167
4769.21,0.17076
4773.6,0.169404
4778.0,0.168224
4782.41,0.167312
4786.83,0.166488
4791.25,0.165689
4795.68,0.165077
4800.13,0.1646
4804.57,0.164221
4809.03,0.163967
4813.5,0.163824
4817.97,0.163691
4822.45,0.163546
4826.94,0.163414
4831.44,0.163481
4835.95,0.163411
4840.46,0.163311
4844.99,0.163075
4849.52,0.162632
4854.06,0.162137
4858.61,0.161533
4863.17,0.160831
4867.73,0.160089
4872.31,0.159271
4876.89,0.158574
4881.48,0.157887
4886.08,0.157306
4890.69,0.156825
4895.31,0.156532
4899.94,0.15626
4904.57,0.156014
4909.22,0.155794
4913.87,0.155559
4918.53,0.155302
4923.21,0.154834
4927.88,0.15416
4932.57,0.153414
4937.27,0.152408
4941.98,0.151201
4946.69,0.149759
4951.42,0.148189
4956.15,0.14667
4960.9,0.144972
4965.65,0.143103
4970.41,0.141193
4975.18,0.139189
4979.96,0.137294
4984.75,0.135585
4989.54,0.134052
4994.35,0.13284
4999.17,0.131995
5003.99,0.13162
5008.83,0.131681
5013.67,0.132101
5018.52,0.133006
5023.39,0.134272
5028.26,0.135846
5033.14,0.137538
5038.03,0.139427
5042.93,0.141488
5047.84,0.143694
5052.76,0.146011
5057.69,0.148096
5062.63,0.150071
5067.58,0.151959
5072.54,0.153616
5077.51,0.155249
5082.49,0.156853
5087.47,0.15839
5092.47,0.159779
5097.48,0.161042
5102.5,0.162319
5107.52,0.163501
5112.56,0.164557
5117.61,0.16566
5122.66,0.166737
5127.73,0.167789
5132.81,0.168619
5137.89,0.169476
5142.99,0.17034
5148.1,0.171222
5153.22,0.172196
5158.34,0.173499
5163.48,0.174808
5168.63,0.175995
5173.79,0.17716
5178.96,0.178536
5184.13,0.179718
5189.32,0.180585
5194.52,0.181435
5199.73,0.18234
5204.96,0.183113
5210.19,0.183715
5215.43,0.183984
5220.68,0.184203
5225.94,0.184294
5231.22,0.184352
5236.5,0.184242
5241.79,0.183984
5247.1,0.183586
5252.42,0.183189
5257.74,0.182774
5263.08,0.182404
5268.43,0.181937
5273.79,0.181482
5279.16,0.180956
5284.54,0.180502
5289.93,0.180131
5295.34,0.179659
5300.75,0.179273
5306.18,0.179117
5311.61,0.178856
5317.06,0.178743
5322.52,0.17868
5327.99,0.178663
5333.47,0.178817
5338.96,0.179194
5344.47,0.179547
5349.98,0.179912
5355.51,0.180192
5361.05,0.180622
5366.6,0.181008
5372.16,0.181408
5377.73,0.181541
5383.32,0.181585
5388.91,0.181595
5394.52,0.181662
5400.14,0.181583
5405.77,0.181554
5411.41,0.181498
5417.07,0.181393
5422.74,0.181115
5428.41,0.180809
5434.1,0.180705
5439.81,0.180646
5445.52,0.180257
5451.25,0.179813
5456.98,0.179441
5462.73,0.178974
5468.5,0.178247
5474.27,0.177735
5480.06,0.177314
5485.86,0.176644
5491.67,0.176044
5497.49,0.175567
5503.33,0.174979
5509.18,0.17438
5515.04,0.17392
5520.91,0.173454
5526.8,0.1729
5532.69,0.172541
5538.61,0.172161
5544.53,0.171961
5550.47,0.17173
5556.41,0.171586
5562.38,0.171609
5568.35,0.171793
5574.34,0.171882
5580.34,0.172021
5586.35,0.172149
5592.38,0.172664
5598.42,0.172879
5604.47,0.173045
5610.54,0.173149
5616.61,0.173196
5622.71,0.173034
5628.81,0.173102
5634.93,0.172936
5641.06,0.172659
5647.21,0.172243
5653.36,0.172094
5659.54,0.171844
5665.72,0.171335
5671.92,0.170795
5678.13,0.170232
5684.36,0.169476
5690.6,0.168925
5696.85,0.168103
5703.12,0.16732
5709.4,0.16657
5715.69,0.165596
5722.0,0.16458
5728.33,0.16389
5734.66,0.16304
5741.01,0.162145
5747.38,0.161202
5753.76,0.160304
5760.15,0.159432
5766.56,0.158678
5772.98,0.157263
5779.41,0.156325
5785.86,0.155573
5792.33,0.15488
5798.81,0.154137
5805.3,0.15345
5811.81,0.152838
5818.33,0.152308
5824.87,0.15145
5831.42,0.150585
5837.99,0.150026
5844.57,0.149421
5851.17,0.14854
5857.78,0.147571
5864.41,0.146572
5871.05,0.14556
5877.7,0.144803
5884.38,0.143948
5891.06,0.142818
5897.76,0.142394
5904.48,0.141807
5911.21,0.141536
5917.96,0.141236
5924.73,0.140783
5931.5,0.140371
5938.3,0.140052
5945.11,0.139636
5951.93,0.13968
5958.78,0.139749
5965.63,0.139757
5972.51,0.139665
5979.39,0.13965
5986.3,0.139746
5993.22,0.139728
6000.16,0.139793
6007.11,0.139905
6014.08,0.139868
6021.06,0.139823
6028.06,0.139991
6035.08,0.140052
6042.12,0.140006
6049.17,0.139937
6056.23,0.139495
6063.32,0.139631
6070.42,0.139616
6077.53,0.139498
6084.67,0.13976
6091.82,0.139903
6098.98,0.139861
6106.17,0.139856
6113.37,0.139886
6120.58,0.139755
6127.82,0.139916
6135.07,0.140088
6142.34,0.140305
6149.63,0.140369
6156.93,0.14034
6164.25,0.140331
6171.59,0.140357
6178.95,0.140472
6186.32,0.140538
6193.71,0.140398
6201.12,0.140389
6208.54,0.140381
6215.99,0.140153
6223.45,0.140077
6230.93,0.139911
6238.43,0.139633
6245.95,0.139345
6253.48,0.139035
6261.03,0.138602
6268.6,0.138187
6276.19,0.137796
6283.8,0.137434
6291.43,0.137065
6299.07,0.13646
6306.73,0.135763
6314.42,0.135298
6322.12,0.134768
6329.84,0.134145
6337.57,0.133446
6345.33,0.132769
6353.11,0.131799
6360.9,0.1313
6368.72,0.130942
6376.55,0.130224
6384.4,0.129469
6392.27,0.12897
6400.17,0.128427
6408.08,0.127999
6416.01,0.127339
6423.96,0.126338
6431.93,0.125994
6439.92,0.125778
6447.93,0.125493
6455.96,0.1251
6464.01,0.124685
6472.08,0.124392
6480.17,0.123889
6488.28,0.123529
6496.41,0.123056
6504.56,0.122727
6512.73,0.122674
6520.92,0.122602
6529.14,0.122299
6537.37,0.122211
6545.63,0.121947
6553.9,0.121794
6562.2,0.121688
6570.51,0.121592
6578.85,0.121205
6587.21,0.121107
6595.59,0.121126
6603.99,0.120932
6612.42,0.120817
6620.86,0.120727
6629.33,0.120586
6637.82,0.120364
6646.33,0.12006
6654.86,0.120111
6663.41,0.120055
6671.99,0.119911
6680.59,0.119623
6689.21,0.119338
6697.85,0.119178
6706.51,0.119183
6715.2,0.119034
6723.91,0.118832
6732.64,0.118627
6741.4,0.118673
6750.18,0.118822
6758.98,0.118818
6767.8,0.118787
6776.65,0.118647
6785.52,0.118429
6794.41,0.118253
6803.33,0.118135
6812.27,0.118294
6821.23,0.11819
6830.22,0.117959
6839.23,0.117699
6848.26,0.117719
6857.32,0.117625
6866.4,0.117496
6875.51,0.117344
6884.64,0.117471
6893.8,0.117573
6902.98,0.117677
6912.18,0.117517
6921.41,0.117356
6930.66,0.117229
6939.94,0.117008
6949.24,0.116792
6958.57,0.116637
6967.92,0.116191
6977.3,0.115934
6986.7,0.11572
6996.13,0.115304
7005.59,0.114784
7015.07,0.114447
7024.57,0.114075
7034.1,0.113674
7043.66,0.113379
7053.25,0.112987
7062.85,0.112594
7072.49,0.112298
7082.15,0.111987
7091.84,0.111695
7101.55,0.11137
7111.3,0.110988
7121.06,0.110644
7130.86,0.110279
7140.68,0.109913
7150.53,0.109613
7160.41,0.109148
7170.31,0.108719
7180.24,0.108245
7190.2,0.107932
7200.19,0.107569
7210.2,0.107196
7220.24,0.106632
7230.31,0.106261
7240.41,0.105945
7250.54,0.105497
7260.69,0.104906
7270.88,0.104462
7281.09,0.103941
7291.33,0.103425
7301.6,0.103003
7311.9,0.102558
7322.22,0.102185
7332.58,0.101986
7342.97,0.101509
7353.38,0.101029
7363.83,0.100725
7374.3,0.100501
7384.81,0.100206
7395.34,0.099877
7405.91,0.09959
7416.5,0.099303
7427.13,0.098935
7437.78,0.098726
7448.47,0.098455
7459.19,0.098161
7469.94,0.097667
7480.71,0.097287
7491.52,0.097049
7502.37,0.096787
7513.24,0.096365
7524.14,0.095895
7535.08,0.095488
7546.05,0.095132
7557.05,0.094697
7568.08,0.094431
7579.15,0.09416
7590.24,0.093905
7601.37,0.093583
7612.53,0.093319
7623.73,0.093059
7634.96,0.092733
7646.22,0.092267
7657.51,0.091791
7668.84,0.091246
7680.2,0.090706
7691.59,0.090132
7703.02,0.089424
7714.49,0.088693
7725.98,0.087966
7737.52,0.087123
7749.08,0.086363
7760.68,0.085504
7772.32,0.084671
7783.99,0.083836
7795.69,0.083014
7807.43,0.082117
7819.21,0.081364
7831.02,0.080556
7842.87,0.079802
7854.75,0.079041
7866.67,0.078318
7878.62,0.077514
7890.62,0.076667
7902.64,0.07599
7914.71,0.075304
7926.81,0.074475
7938.95,0.073758
7951.13,0.072937
7963.34,0.072213
7975.59,0.071519
7987.88,0.070754
8000.21,0.069932
8012.57,0.069076
8024.98,0.068194
8037.42,0.067502
8049.9,0.066811
8062.42,0.066154
8074.98,0.065479
8087.57,0.064946
8100.21,0.064246
8112.89,0.063475
8125.6,0.062829
8138.36,0.062284
8151.16,0.06144
8163.99,0.060622
8176.87,0.059927
8189.79,0.059245
8202.75,0.058294
8215.75,0.057501
8228.79,0.056658
8241.87,0.055665
8254.99,0.054645
8268.16,0.05388
8281.37,0.052977
8294.62,0.05206
8307.91,0.051144
8321.24,0.050353
8334.62,0.049447
8348.04,0.048398
8361.51,0.047345
8375.02,0.046371
8388.57,0.045338
8402.16,0.044363
8415.8,0.043371
8429.49,0.042391
8443.22,0.041338
8456.99,0.040338
8470.81,0.039324
8484.67,0.038484
8498.58,0.037549
8512.54,0.036493
8526.54,0.035358
8540.58,0.034516
8554.68,0.033456
8568.82,0.032463
8583.0,0.031542
8597.24,0.030675
8611.52,0.029665
8625.85,0.028845
8640.23,0.02808
8654.65,0.027279
8669.12,0.026569
8683.64,0.025948
8698.21,0.025218
8712.83,0.024733
8727.5,0.024127
8742.22,0.023614
8756.99,0.023052
8771.8,0.022576
8786.67,0.022191
8801.59,0.021956
8816.56,0.021454
8831.58,0.021115
8846.65,0.020922
8861.77,0.020745
8876.94,0.020532
8892.17,0.020384
8907.45,0.020127
8922.78,0.019712
8938.16,0.019058
8953.6,0.01862
8969.09,0.018382
8984.64,0.018608
9000.23,0.019116
9015.89,0.019867
9031.59,0.020794
9047.36,0.021886
9063.17,0.023072
9079.05,0.024415
9094.97,0.025856
9110.96,0.027223
9127.0,0.028241
9143.1,0.029331
9159.25,0.030522
9175.46,0.031984
9191.73,0.033688
9208.06,0.035977
9224.44,0.038346
9240.88,0.040558
9257.38,0.04247
9273.94,0.044481
9290.56,0.046061
9307.24,0.047247
9323.98,0.048183
9340.78,0.049119
9357.64,0.049677
9374.57,0.049819
9391.55,0.049825
9408.59,0.049706
9425.7,0.04913
9442.87,0.04845
9460.1,0.047665
9477.4,0.046736
9494.75,0.045653
9512.17,0.04445
9529.66,0.043107
9547.21,0.041631
9564.83,0.040017
9582.5,0.03875
9600.25,0.037691
9618.06,0.036743
9635.94,0.035702
9653.88,0.034549
9671.89,0.033242
9689.97,0.032157
9708.12,0.031175
9726.33,0.030394
9744.62,0.029516
9762.97,0.028603
9781.39,0.027821
9799.88,0.02715
9818.44,0.02642
9837.07,0.025837
9855.77,0.025198
9874.54,0.024617
9893.39,0.024071
9912.3,0.023508
9931.29,0.022858
9950.36,0.022626
9969.49,0.022451
9988.7,0.022189
10007.98,0.021859
10027.34,0.021519
10046.77,0.02131
10066.28,0.021148
10085.87,0.020644
10105.53,0.020274
10125.26,0.01984
10145.08,0.019374
10164.97,0.018661
10184.94,0.017893
10204.99,0.017309
10225.12,0.016926
10245.33,0.016363
10265.61,0.016
10285.98,0.015755
10306.43,0.015629
10326.96,0.015547
10347.57,0.015703
10368.27,0.016007
10389.05,0.016334
10409.91,0.01649
10430.86,0.01671
10451.88,0.016952
10473.0,0.017154
10494.2,0.017032
10515.49,0.016783
10536.86,0.016573
10558.32,0.016358
10579.87,0.015778
10601.5,0.01504
10623.23,0.014316
10645.04,0.013997
10666.94,0.013721
10688.94,0.013495
10711.02,0.013356
10733.2,0.013424
10755.47,0.013165
10777.83,0.012963
10800.28,0.012676
10822.83,0.012249
10845.47,0.011833
10868.21,0.011758
10891.04,0.011612
10913.97,0.011426
10936.99,0.011478
10960.12,0.011801
10983.34,0.011855
11006.66,0.012045
11030.07,0.012122
11053.59,0.011999
11077.21,0.011699
11100.93,0.011326
11124.75,0.010972
11148.68,0.010607
11172.71,0.010154
11196.84,0.009952
11221.07,0.009827
11245.41,0.009547
11269.86,0.009186
11294.41,0.008978
11319.07,0.008831
11343.84,0.009139
11368.72,0.009513
11393.7,0.009752
11418.8,0.009886
11444.01,0.010296
11469.33,0.010749
11494.76,0.011161
11520.3,0.011738
11545.96,0.012461
11571.73,0.012931
11597.62,0.013478
11623.62,0.01391
11649.74,0.014374
11675.98,0.014862
11702.34,0.015506
11728.81,0.016017
11755.41,0.016392
11782.13,0.016782
11808.96,0.017278
11835.92,0.017442
11863.01,0.017795
11890.22,0.018352
11917.55,0.018693
11945.01,0.018918
11972.6,0.018936
12000.31,0.019011
12028.16,0.019109
12056.13,0.019151
12084.23,0.019318
12112.46,0.019213
12140.83,0.019409
12169.33,0.019821
12197.96,0.020331
12226.73,0.02065
12255.64,0.021127
12284.68,0.021721
12313.86,0.022546
12343.18,0.023265
12372.64,0.023731
12402.24,0.024128
12431.98,0.024751
12461.86,0.025296
12491.89,0.025825
12522.07,0.025779
12552.38,0.025678
12582.85,0.025774
12613.47,0.025919
12644.23,0.0259
12675.15,0.026032
12706.21,0.026039
12737.43,0.026012
12768.81,0.025758
12800.33,0.025601
12832.02,0.02554
12863.86,0.025782
12895.86,0.026229
12928.02,0.026505
12960.34,0.026461
12992.82,0.026568
13025.46,0.026704
13058.27,0.026849
13091.25,0.027005
13124.39,0.027183
13157.7,0.027238
13191.18,0.027228
13224.83,0.027136
13258.66,0.027217
13292.65,0.027298
13326.83,0.027224
13361.17,0.026916
13395.7,0.026539
13430.4,0.026288
13465.29,0.026063
13500.35,0.025733
13535.6,0.025391
13571.03,0.025085
13606.65,0.024809
13642.46,0.024496
13678.46,0.024123
13714.64,0.023759
13751.02,0.023504
13787.59,0.023328
13824.36,0.023212
13861.32,0.022871
13898.49,0.022336
13935.85,0.022112
13973.41,0.02194
14011.17,0.021656
14049.15,0.021493
14087.32,0.02171
14125.71,0.021824
14164.3,0.021166
14203.11,0.020944
14242.13,0.020837
14281.36,0.020876
14320.81,0.02109
14360.49,0.02115
14400.38,0.020949
14440.49,0.020889
14480.82,0.020719
14521.39,0.020502
14562.18,0.020342
14603.2,0.020488
14644.45,0.020548
14685.93,0.020902
14727.66,0.021363
14769.62,0.022101
14811.81,0.023048
14854.25,0.024015
14896.94,0.024579
14939.87,0.025084
14983.05,0.025381
15026.48,0.025757
15070.16,0.025808
15114.1,0.025899
15158.29,0.025697
15202.74,0.025272
15247.46,0.024766
15292.43,0.024372
15337.68,0.024466
15383.19,0.024262
15428.97,0.023442
15475.03,0.023144
15521.36,0.023005
15567.97,0.023103
15614.87,0.023223
15662.04,0.023183
15709.5,0.023333
15757.25,0.023767
15805.29,0.024273
15853.62,0.024759
15902.26,0.025267
15951.19,0.025719
16000.42,0.025826
16049.95,0.026077
16099.8,0.026263
16149.95,0.0265
16200.42,0.026598
16251.21,0.026571
16302.31,0.026366
16353.74,0.026347
16405.49,0.026252
16457.57,0.026653
16509.98,0.026923
16562.73,0.027727
16615.82,0.02896
16669.24,0.02998
16723.02,0.030889
16777.14,0.031453
16831.61,0.032006
16886.43,0.032579
16941.62,0.032804
16997.16,0.033163
17053.08,0.033285
17109.36,0.033257
17166.01,0.033492
17223.04,0.033907
17280.45,0.034551
17338.24,0.035126
17396.43,0.035399
17455.0,0.036298
17513.97,0.037219
17573.34,0.038366
17633.11,0.039495
17693.29,0.041067
17753.89,0.042426
17814.9,0.043461
17876.33,0.044248
17938.18,0.044548
18000.47,0.044229
18063.19,0.043426
18126.35,0.042028
18189.95,0.04054
18254.0,0.03872
18318.5,0.037717
18383.46,0.036892
18448.88,0.036551
18514.77,0.036186
18581.13,0.036282
18647.97,0.037227
18715.29,0.038625
18783.1,0.039242
18851.4,0.039573
18920.2,0.039787
18989.51,0.040259
19059.32,0.040561
19129.65,0.040944
19200.5,0.04161
19271.88,0.042404
19343.79,0.042808
19416.24,0.043049
19489.23,0.043293
19562.77,0.043508
19636.88,0.043158
19711.54,0.042777
19786.78,0.042667
19862.59,0.043474
19938.98,0.044332
20015.96,0.045675
20093.55,0.046849
20171.73,0.047448
20250.53,0.047678
20329.94,0.047814
20409.98,0.0471
20490.65,0.046219
20571.96,0.046151
20653.92,0.046262
20736.54,0.04647
20819.82,0.047139
20903.77,0.04735
20988.4,0.04778
21073.72,0.048365
21159.73,0.04845
21246.46,0.049202
21333.89,0.048683
21422.04,0.047104
21510.93,0.046956
21600.56,0.046735
21690.94,0.0452
21782.08,0.042626
21873.99,0.040293
21966.67,0.038878
22060.15,0.038199
22154.42,0.03821
22249.51,0.040299
22345.41,0.042673
22442.14,0.045502
22539.72,0.047323
22638.14,0.048362
22737.43,0.049159
22837.6,0.050077
22938.65,0.049779
23040.6,0.047477
23143.46,0.044627
23247.24,0.041608
23351.96,0.039101
23457.63,0.037431
23564.25,0.036001
23671.85,0.035351
23780.44,0.035586
23890.02,0.03842
24000.63,0.040852
24112.26,0.040996
24224.93,0.040253
24338.66,0.039397
24453.47,0.039437
24569.36,0.044281
24686.36,0.047925
24804.47,0.04901
24923.73,0.050047
25044.13,0.05173
25165.71,0.050585
25288.46,0.045791
25412.43,0.042552
25537.61,0.042564
25664.04,0.039103
25791.72,0.035251
25920.68,0.034321
