Database of Origin,University of Winnipeg Spectrophotometer Facility
Sample Description,Carbonates and Oxolates - RELAB+Nicolet spectra Newly merged spectra (merged by RELAB)
Other Information,dry seived
Date Added,2018-08-06 20:49:03.366459

Data ID,RLA_CARB_1_54       
Sample ID,CRB216
Mineral Name,Hydromagn.
Locality,Iwaki/ Takamatsu/ Japan
Grain Size,<45 um
Viewing Geometry,30/0/30
Resolution,5/ 0.6-129 nm
Formula,Mg5(CO3)4(OH)2*4(H2O)

Wavelength
305.0,0.534527
310.0,0.54901
315.0,0.557505
320.0,0.562483
325.0,0.572241
330.0,0.578164
335.0,0.587862
340.0,0.598412
345.0,0.607079
350.0,0.615763
355.0,0.61999
360.0,0.622389
365.0,0.630192
370.0,0.631476
375.0,0.642219
380.0,0.644539
385.0,0.64577
390.0,0.659975
395.0,0.659013
400.0,0.6657
405.0,0.664635
410.0,0.668932
415.0,0.670218
420.0,0.665476
425.0,0.671832
430.0,0.671968
435.0,0.6788
440.0,0.678712
445.0,0.684632
450.0,0.688754
455.0,0.694522
460.0,0.698255
465.0,0.701333
470.0,0.707781
475.0,0.711408
480.0,0.718008
485.0,0.720758
490.0,0.725643
495.0,0.729638
500.0,0.733712
505.0,0.734796
510.0,0.738577
515.0,0.740678
520.0,0.743834
525.0,0.744226
530.0,0.745151
535.0,0.74584
540.0,0.747116
545.0,0.750531
550.0,0.749867
555.0,0.752677
560.0,0.75244
565.0,0.756845
570.0,0.754673
575.0,0.758859
580.0,0.754881
585.0,0.75875
590.0,0.758898
595.0,0.75887
600.0,0.75944
605.0,0.759276
610.0,0.760171
615.0,0.758409
620.0,0.758168
625.0,0.756166
630.0,0.756804
635.0,0.75384
640.0,0.756087
645.0,0.754772
650.0,0.754878
655.0,0.754592
660.0,0.754136
665.0,0.754237
670.0,0.754197
675.0,0.754557
680.0,0.75406
685.0,0.754728
690.0,0.753925
695.0,0.754466
700.0,0.753361
705.0,0.754158
710.0,0.753458
715.0,0.75295
720.0,0.751566
725.0,0.750695
730.0,0.749449
735.0,0.748338
740.0,0.74777
745.0,0.746592
750.0,0.747388
755.0,0.746599
760.0,0.747063
765.0,0.746939
770.0,0.7467
775.0,0.747193
780.0,0.746484
785.0,0.746618
790.0,0.745531
795.0,0.746212
800.0,0.746481
805.0,0.746332
810.0,0.745977
815.0,0.744892
820.0,0.744791
825.0,0.744347
830.0,0.744453
835.0,0.744537
840.0,0.744892
845.0,0.744558
850.0,0.744697
855.0,0.746575
860.0,0.74606
865.0,0.745837
870.0,0.746021
875.0,0.745322
880.0,0.744784
885.0,0.74429
890.0,0.745371
895.0,0.745034
900.0,0.745412
905.0,0.745666
910.0,0.745402
915.0,0.745015
920.0,0.743698
925.0,0.743009
930.0,0.741847
935.0,0.740412
940.0,0.740174
945.0,0.739236
950.0,0.739225
955.0,0.738962
960.0,0.739665
965.0,0.739165
970.0,0.739926
975.0,0.739669
980.0,0.7399
985.0,0.739946
990.0,0.739358
995.0,0.739077
1000.0,0.738753
1005.0,0.740081
1010.0,0.738276
1015.0,0.738203
1020.0,0.734704
1025.0,0.73586
1030.0,0.735029
1035.0,0.735244
1040.0,0.736562
1045.0,0.734421
1050.0,0.735733
1055.0,0.732457
1060.0,0.731494
1065.0,0.732618
1070.0,0.737116
1075.0,0.730625
1080.0,0.734929
1085.0,0.733164
1090.0,0.731549
1095.0,0.727352
1100.0,0.731561
1105.0,0.7321
1110.0,0.732433
1115.0,0.732974
1120.0,0.732541
1125.0,0.733264
1130.0,0.729578
1135.0,0.729382
1140.0,0.730549
1145.0,0.729891
1150.0,0.732255
1155.0,0.730959
1160.0,0.729561
1165.0,0.730464
1170.0,0.726613
1175.0,0.727635
1180.0,0.724061
1185.0,0.723162
1190.0,0.731715
1195.0,0.724807
1200.0,0.726539
1205.0,0.728272
1210.0,0.72399
1215.0,0.729954
1220.0,0.727536
1225.0,0.728951
1230.0,0.72696
1235.0,0.727903
1240.0,0.724936
1245.0,0.728046
1250.0,0.726349
1255.0,0.726125
1260.0,0.727102
1265.0,0.725131
1270.0,0.727322
1275.0,0.72429
1280.0,0.724856
1285.0,0.723722
1290.0,0.726201
1295.0,0.724735
1300.0,0.728054
1305.0,0.724886
1310.0,0.725786
1315.0,0.724501
1320.0,0.726293
1325.0,0.726454
1330.0,0.725906
1335.0,0.725788
1340.0,0.725726
1345.0,0.725403
1350.0,0.725407
1355.0,0.724443
1360.0,0.724215
1365.0,0.724552
1370.0,0.724461
1375.0,0.72338
1380.0,0.714156
1385.0,0.71439
1420.0,0.713389
1425.0,0.710221
1430.0,0.703983
1435.0,0.692286
1440.0,0.692241
1445.0,0.695195
1450.0,0.694849
1455.0,0.689182
1460.0,0.681947
1465.0,0.683422
1470.0,0.690383
1475.0,0.694805
1480.0,0.696817
1485.0,0.697354
1490.0,0.697564
1495.0,0.697618
1500.0,0.697718
1505.0,0.698278
1510.0,0.69879
1515.0,0.699279
1520.0,0.699762
1525.0,0.700237
1530.0,0.700654
1535.0,0.70103
1540.0,0.701136
1545.0,0.701339
1550.0,0.701592
1555.0,0.701639
1560.0,0.702072
1565.0,0.70242
1570.0,0.702834
1575.0,0.703326
1580.0,0.703797
1585.0,0.704298
1590.0,0.704466
1595.0,0.704694
1600.0,0.70445
1605.0,0.70435
1610.0,0.704147
1615.0,0.703795
1620.0,0.703398
1625.0,0.702663
1630.0,0.702108
1635.0,0.701485
1640.0,0.700847
1645.0,0.700067
1650.0,0.699095
1655.0,0.697971
1660.0,0.697008
1665.0,0.696055
1670.0,0.694842
1675.0,0.693333
1680.0,0.692268
1685.0,0.690766
1690.0,0.689441
1695.0,0.687953
1700.0,0.68657
1705.31,0.685074
1709.81,0.684107
1715.46,0.682814
1720.02,0.681802
1724.6,0.680768
1730.35,0.679455
1734.98,0.678475
1739.64,0.67745
1745.5,0.676272
1750.21,0.675357
1754.95,0.674399
1759.72,0.673488
1764.51,0.67274
1770.54,0.671684
1775.39,0.670696
1780.27,0.670002
1785.17,0.669094
1790.1,0.668518
1795.06,0.667751
1800.05,0.666848
1805.06,0.666176
1810.1,0.665444
1815.17,0.66464
1820.27,0.663712
1825.4,0.662842
1830.56,0.661946
1834.44,0.661208
1839.65,0.66005
1844.89,0.659031
1850.16,0.65769
1855.45,0.655976
1859.45,0.654904
1864.8,0.653105
1870.18,0.650651
1875.59,0.647781
1879.67,0.645702
1885.14,0.641955
1890.64,0.638069
1894.79,0.634705
1900.34,0.62978
1904.53,0.625725
1910.15,0.619667
1914.38,0.614612
1920.05,0.607228
1924.33,0.601365
1930.06,0.593723
1934.38,0.588068
1940.17,0.582078
1944.54,0.578399
1950.39,0.574056
1954.8,0.571929
1960.72,0.571096
1965.18,0.571043
1969.66,0.571569
1975.66,0.572541
1980.19,0.573351
1984.74,0.574259
1989.31,0.575096
1995.43,0.577035
2000.05,0.578954
2004.69,0.581007
2009.35,0.582811
2015.6,0.584698
2020.32,0.585997
2025.05,0.587845
2029.81,0.589845
2034.59,0.592174
2039.39,0.594559
2044.22,0.596807
2050.69,0.59931
2055.57,0.600972
2060.47,0.602503
2065.39,0.603529
2070.34,0.60414
2075.31,0.604649
2080.31,0.604756
2085.33,0.604611
2090.38,0.604629
2095.45,0.604149
2100.54,0.60388
2105.66,0.604438
2110.8,0.604772
2114.25,0.60507
2119.43,0.605671
2124.65,0.606393
2129.88,0.606723
2135.15,0.60692
2140.44,0.607862
2145.75,0.608318
2149.31,0.608629
2154.67,0.608884
2160.06,0.608848
2165.47,0.609144
2170.91,0.609365
2174.55,0.609576
2180.04,0.609412
2185.55,0.609257
2189.25,0.608912
2194.81,0.608413
2200.4,0.607162
2204.14,0.604615
2209.78,0.601681
2215.44,0.605444
2219.24,0.604831
2224.95,0.603571
2230.7,0.602009
2234.54,0.600289
2240.33,0.596361
2244.21,0.593337
2250.06,0.586232
2255.93,0.578828
2259.87,0.575929
2265.79,0.572381
2269.76,0.568364
2275.74,0.56255
2279.74,0.561096
2285.77,0.562059
2289.81,0.56247
2295.9,0.561223
2299.97,0.560677
2304.06,0.558674
2310.22,0.551674
2314.35,0.545107
2320.56,0.535623
2324.72,0.531466
2331.0,0.529702
2335.2,0.527469
2339.41,0.524399
2345.76,0.52322
2350.02,0.523427
2354.28,0.523075
2360.72,0.521273
2365.03,0.519882
2369.35,0.519511
2375.86,0.519218
2380.23,0.518587
2384.61,0.517428
2389.0,0.51637
2395.63,0.513706
2400.06,0.511423
2404.52,0.508831
2408.98,0.505408
2415.72,0.499325
2420.23,0.494976
2424.76,0.491287
2429.3,0.488645
2433.87,0.486824
2440.74,0.487327
2445.35,0.488515
2449.97,0.489974
2454.61,0.491547
2459.27,0.491918
2463.94,0.490076
2470.99,0.484539
2475.71,0.479426
2480.45,0.473684
2485.2,0.469456
2489.98,0.466985
2494.77,0.464593
2499.58,0.462246
2504.41,0.459618
2509.26,0.457123
2514.13,0.454673
2519.02,0.451425
2523.92,0.449259
2528.85,0.448168
2533.79,0.448251
2541.24,0.451022
2543.74,0.452074
2548.74,0.45351
2553.76,0.453781
2556.28,0.453849
2558.8,0.454144
2561.33,0.454545
2563.86,0.454795
2566.4,0.455389
2568.95,0.45591
2571.5,0.4564
2574.05,0.456916
2576.61,0.457296
2579.17,0.457619
2581.74,0.457697
2584.31,0.457217
2586.89,0.457058
2589.48,0.457356
2592.07,0.457936
2594.66,0.45812
2597.26,0.457768
2599.87,0.457797
2602.48,0.457783
2605.09,0.457181
2607.71,0.45655
2610.34,0.455974
2612.97,0.455132
2615.61,0.453797
2618.25,0.452331
2620.9,0.45089
2623.55,0.449671
2626.21,0.448237
2628.87,0.446544
2631.54,0.444932
2634.22,0.443753
2636.89,0.442788
2639.58,0.441724
2642.27,0.440131
2644.97,0.438137
2647.67,0.43565
2650.38,0.433055
2653.09,0.430725
2655.81,0.42859
2658.53,0.426637
2661.26,0.424574
2664.0,0.42225
2666.74,0.419441
2669.48,0.416032
2672.23,0.411868
2674.99,0.4067
2677.76,0.400491
2680.52,0.392073
2683.3,0.383228
2686.08,0.374247
2688.87,0.36512
2691.66,0.355782
2694.46,0.343816
2697.26,0.322194
2700.07,0.288543
2702.89,0.257454
2705.71,0.237224
2708.53,0.217079
2711.37,0.201843
2714.21,0.198443
2717.05,0.20806
2719.9,0.222901
2722.76,0.234377
2725.62,0.236029
2728.49,0.231184
2731.37,0.224079
2734.25,0.210157
2737.14,0.179318
2740.03,0.130269
2742.93,0.09852
2745.83,0.12358
2748.75,0.161094
2751.66,0.182443
2754.59,0.191372
2757.52,0.198669
2760.46,0.204713
2763.4,0.20588
2766.35,0.203177
2769.3,0.197824
2772.26,0.190291
2775.23,0.183057
2778.21,0.179063
2781.19,0.177393
2784.18,0.175408
2787.17,0.172402
2790.17,0.168676
2793.18,0.16479
2796.19,0.16096
2799.21,0.15677
2802.24,0.152386
2805.27,0.147835
2808.31,0.142521
2811.35,0.136686
2814.41,0.13026
2817.46,0.12297
2820.53,0.115103
2823.6,0.106719
2826.68,0.09765
2829.77,0.087999
2832.86,0.078163
2835.96,0.068769
2839.07,0.060392
2842.18,0.05444
2845.3,0.051439
2848.43,0.051414
2851.56,0.053651
2854.7,0.057162
2857.85,0.060704
2861.0,0.063307
2864.16,0.064843
2867.33,0.065284
2870.51,0.064624
2873.69,0.06335
2876.88,0.061734
2880.07,0.060018
2883.28,0.05827
2886.49,0.056623
2889.71,0.055258
2892.93,0.054416
2896.17,0.054083
2899.4,0.054539
2902.65,0.055665
2905.91,0.05709
2909.17,0.058778
2912.44,0.060715
2915.71,0.062731
2918.99,0.064734
2922.29,0.066887
2925.58,0.068855
2928.89,0.070616
2932.2,0.072182
2935.52,0.073741
2938.85,0.075221
2942.19,0.076593
2945.53,0.078163
2948.88,0.079729
2952.24,0.081221
2955.61,0.082621
2958.98,0.08406
2962.36,0.085436
2965.75,0.086638
2969.15,0.087787
2972.55,0.088848
2975.97,0.090088
2979.39,0.091167
2986.25,0.093003
2989.7,0.094011
2993.15,0.094621
2996.61,0.09524
3000.08,0.095839
3003.55,0.096355
3007.04,0.09682
3010.53,0.097393
3014.03,0.097641
3017.54,0.097671
3021.06,0.097714
3024.58,0.097869
3028.12,0.097948
3031.66,0.098073
3035.21,0.098164
3038.77,0.097987
3042.33,0.097892
3045.91,0.097907
3049.49,0.097812
3053.08,0.097693
3056.68,0.0974
3060.29,0.097168
3063.91,0.097025
3067.54,0.096819
3071.17,0.09651
3074.81,0.096342
3078.47,0.09596
3082.13,0.0956
3085.79,0.095473
3089.47,0.095176
3093.16,0.094774
3096.85,0.094635
3100.56,0.094332
3104.27,0.094769
3107.99,0.09378
3111.73,0.093538
3115.47,0.093598
3119.21,0.092778
3122.97,0.092538
3126.74,0.092447
3130.52,0.092242
3134.3,0.09194
3138.1,0.091853
3141.9,0.091308
3145.71,0.091462
3149.54,0.091474
3153.37,0.091189
3157.21,0.091142
3161.06,0.090806
3164.92,0.090904
3168.79,0.090767
3172.67,0.090509
3176.55,0.090062
3180.45,0.089824
3184.36,0.089913
3188.27,0.089612
3192.2,0.089441
3196.14,0.089772
3200.08,0.089392
3204.04,0.088548
3208.0,0.088788
3211.98,0.088875
3215.96,0.088467
3219.96,0.088106
3223.96,0.088162
3227.98,0.088036
3232.0,0.087893
3236.04,0.087335
3240.08,0.087385
3244.14,0.087075
3248.2,0.086783
3252.28,0.086944
3256.37,0.086379
3260.46,0.085903
3264.57,0.085841
3268.69,0.085506
3272.81,0.085782
3276.95,0.085307
3281.1,0.08514
3285.26,0.08508
3289.43,0.085042
3293.61,0.084727
3297.8,0.084823
3302.0,0.084447
3306.21,0.084189
3310.43,0.084195
3314.66,0.083898
3318.91,0.083801
3323.16,0.084018
3327.43,0.084102
3331.71,0.084096
3335.99,0.08374
3340.29,0.083757
3344.6,0.083407
3348.92,0.083546
3353.26,0.084052
3357.6,0.084121
3361.96,0.08423
3366.32,0.084198
3370.7,0.0848
3375.09,0.08488
3379.49,0.085431
3383.9,0.085931
3388.32,0.085569
3392.76,0.086068
3397.21,0.086241
3401.66,0.086761
3406.13,0.087127
3410.61,0.087708
3415.11,0.088346
3419.61,0.089026
3424.13,0.089197
3428.66,0.0901
3433.2,0.090856
3437.76,0.091446
3442.32,0.092307
3446.9,0.092983
3451.49,0.094024
3456.09,0.094774
3460.7,0.0961
3465.33,0.096922
3469.97,0.097744
3474.62,0.098919
3479.29,0.100098
3483.96,0.10117
3488.65,0.101812
3493.35,0.10322
3498.07,0.104251
3502.79,0.10538
3507.53,0.106696
3512.29,0.107895
3517.05,0.109266
3521.83,0.110369
3526.62,0.111233
3531.43,0.112693
3536.24,0.113864
3541.08,0.115261
3543.5,0.115998
3545.92,0.116517
3548.35,0.117265
3550.78,0.117852
3553.21,0.1182
3555.65,0.118747
3558.09,0.119431
3560.53,0.119975
3562.98,0.120516
3565.43,0.121006
3567.88,0.121712
3570.34,0.122482
3572.8,0.123181
3575.27,0.123641
3577.73,0.124415
3580.2,0.125114
3582.68,0.125518
3585.16,0.125948
3587.64,0.126684
3590.12,0.127266
3592.61,0.12792
3595.1,0.128508
3597.6,0.128957
3600.09,0.129302
3602.6,0.129862
3605.1,0.130528
3607.61,0.131274
3610.12,0.132137
3612.64,0.132976
3615.16,0.133419
3617.68,0.13367
3620.21,0.134054
3622.74,0.134498
3625.27,0.135214
3627.81,0.136167
3630.35,0.136738
3632.89,0.136888
3635.44,0.137295
3637.99,0.138056
3640.54,0.138813
3643.1,0.139595
3645.66,0.140068
3648.23,0.140561
3650.8,0.141201
3653.37,0.141682
3655.95,0.142168
3658.53,0.142774
3661.11,0.143251
3663.7,0.14384
3666.29,0.144398
3668.89,0.14488
3671.48,0.145227
3674.09,0.145718
3676.69,0.146334
3679.3,0.147078
3681.91,0.147521
3684.53,0.1478
3687.15,0.148125
3689.78,0.148604
3692.4,0.148968
3695.04,0.149633
3697.67,0.15033
3700.31,0.150539
3702.95,0.150914
3705.6,0.151548
3708.25,0.152038
3710.91,0.152459
3713.56,0.152785
3716.23,0.153112
3718.89,0.153382
3721.56,0.153593
3724.23,0.154029
3726.91,0.154385
3729.59,0.15478
3732.28,0.155107
3734.97,0.155127
3737.66,0.155383
3740.36,0.155598
3743.06,0.155717
3745.76,0.156033
3748.47,0.156114
3751.18,0.155984
3753.9,0.155833
3756.62,0.155651
3759.34,0.155565
3762.07,0.155579
3764.8,0.155546
3767.54,0.155355
3770.28,0.15507
3773.02,0.154891
3775.77,0.154985
3778.52,0.154771
3781.28,0.154647
3784.04,0.154805
3786.8,0.154689
3789.57,0.154512
3792.34,0.154512
3795.12,0.154679
3797.9,0.154793
3800.69,0.154662
3803.47,0.154753
3806.27,0.1551
3809.06,0.155178
3811.86,0.155178
3814.67,0.155711
3817.48,0.156694
3820.29,0.15765
3823.11,0.158716
3825.93,0.159744
3828.76,0.160501
3831.59,0.16148
3834.42,0.16229
3837.26,0.162856
3840.1,0.163374
3842.95,0.163641
3845.8,0.163554
3848.65,0.163391
3851.51,0.16319
3854.38,0.162822
3857.24,0.162274
3860.12,0.161796
3862.99,0.161373
3865.87,0.161018
3868.76,0.160568
3871.65,0.160514
3874.54,0.16066
3877.44,0.160851
3880.34,0.161181
3883.25,0.161371
3886.16,0.161446
3889.07,0.161781
3891.99,0.162086
3894.92,0.162462
3897.85,0.163126
3900.78,0.163911
3903.72,0.164532
3906.66,0.165244
3909.6,0.165842
3912.55,0.166477
3915.51,0.167105
3918.47,0.16759
3921.43,0.167761
3924.4,0.167581
3927.38,0.16743
3930.35,0.167321
3933.33,0.167061
3936.32,0.166923
3939.31,0.166559
3942.31,0.166115
3945.31,0.165854
3948.31,0.166162
3951.32,0.167082
3954.34,0.168562
3957.35,0.170554
3960.38,0.172955
3963.41,0.175515
3966.44,0.178007
3969.48,0.180138
3972.52,0.182187
3975.56,0.184119
3978.61,0.186036
3981.67,0.187627
3984.73,0.188984
3987.8,0.190182
3990.87,0.19145
3993.94,0.192556
3997.02,0.193499
4000.1,0.194655
4003.19,0.195638
4006.29,0.196332
4009.39,0.197176
4012.49,0.197803
4015.6,0.198492
4018.71,0.199119
4021.83,0.199635
4024.95,0.200115
4028.08,0.200699
4031.21,0.201069
4034.35,0.201397
4037.49,0.201902
4040.64,0.202384
4043.79,0.202788
4046.94,0.203224
4050.11,0.203535
4053.27,0.203866
4056.44,0.204112
4059.62,0.204206
4062.8,0.204395
4065.99,0.204704
4069.18,0.204804
4072.38,0.204928
4075.58,0.204949
4078.78,0.205049
4082.0,0.204931
4085.21,0.204821
4088.43,0.204973
4091.66,0.204936
4094.89,0.204864
4098.13,0.20498
4101.37,0.204795
4104.62,0.20481
4107.87,0.204749
4111.13,0.204694
4114.39,0.204485
4117.66,0.204307
4120.93,0.204276
4124.21,0.204203
4127.5,0.204131
4130.79,0.2041
4134.08,0.204035
4137.38,0.203962
4140.68,0.20387
4143.99,0.203907
4147.31,0.203902
4150.63,0.203985
4153.95,0.203933
4157.29,0.203913
4160.62,0.203822
4163.96,0.203765
4167.31,0.203886
4170.66,0.204005
4174.02,0.204085
4177.39,0.204077
4180.75,0.204012
4184.13,0.20408
4187.51,0.204201
4190.89,0.204382
4194.28,0.204536
4197.68,0.204447
4201.08,0.204191
4204.49,0.20428
4207.9,0.20411
4211.32,0.203859
4214.74,0.203507
4218.17,0.203217
4221.61,0.202956
4225.05,0.202846
4228.5,0.202764
4231.95,0.202654
4235.4,0.202515
4238.87,0.202432
4242.34,0.202279
4245.81,0.202425
4249.29,0.202582
4252.78,0.20295
4256.27,0.203397
4259.77,0.203563
4263.27,0.203057
4266.78,0.202489
4270.29,0.202256
4273.81,0.20228
4277.34,0.20228
4280.87,0.202471
4284.41,0.202498
4287.95,0.202435
4291.5,0.202172
4295.06,0.202073
4298.62,0.202141
4302.19,0.202298
4305.76,0.202279
4309.34,0.202337
4312.92,0.202341
4316.52,0.202463
4320.11,0.202706
4323.72,0.202904
4327.32,0.202959
4330.94,0.202995
4334.56,0.202885
4338.19,0.202791
4341.82,0.202716
4345.46,0.202786
4349.11,0.202814
4352.76,0.202844
4356.42,0.202946
4360.08,0.203111
4363.75,0.203057
4367.43,0.20314
4371.11,0.203215
4374.8,0.203352
4378.49,0.203439
4382.19,0.203476
4385.9,0.203582
4389.61,0.203694
4393.33,0.203713
4397.06,0.203863
4400.79,0.204025
4404.53,0.204168
4408.28,0.204173
4412.03,0.204326
4415.79,0.204483
4419.55,0.204581
4423.32,0.204638
4427.1,0.20465
4430.88,0.204668
4434.68,0.204829
4438.47,0.205098
4442.28,0.205409
4446.08,0.20544
4449.9,0.205473
4453.72,0.205453
4457.55,0.205622
4461.39,0.20579
4465.23,0.205674
4469.08,0.205591
4472.94,0.205656
4476.8,0.20565
4480.67,0.205776
4484.55,0.205704
4488.43,0.205518
4492.32,0.205523
4496.21,0.205583
4500.12,0.205529
4504.03,0.205732
4507.94,0.206158
4511.87,0.206743
4515.8,0.207185
4519.73,0.207688
4523.68,0.208027
4527.63,0.208225
4531.59,0.208537
4535.55,0.208883
4539.52,0.209077
4543.5,0.209354
4547.49,0.209589
4551.48,0.209686
4555.48,0.209738
4559.49,0.20984
4563.5,0.209789
4567.52,0.209898
4571.55,0.209957
4575.58,0.210017
4579.63,0.209987
4583.67,0.209913
4587.73,0.209856
4591.79,0.209883
4595.86,0.209992
4599.94,0.210034
4604.03,0.209947
4608.12,0.209939
4612.22,0.209791
4616.33,0.209786
4620.44,0.209786
4624.56,0.209781
4628.69,0.209672
4632.83,0.209645
4636.97,0.20944
4641.12,0.209244
4645.28,0.209177
4649.45,0.209286
4653.62,0.209261
4657.8,0.209265
4661.99,0.209076
4666.19,0.2091
4670.39,0.20915
4674.6,0.209102
4678.82,0.208919
4683.05,0.208898
4687.28,0.208974
4691.52,0.20903
4695.77,0.208951
4700.03,0.209061
4704.3,0.208968
4708.57,0.208847
4712.85,0.20888
4717.14,0.208992
4721.43,0.208906
4725.74,0.208788
4730.05,0.208574
4734.37,0.20849
4738.7,0.208427
4743.03,0.208493
4747.38,0.208446
4751.73,0.208354
4756.09,0.208268
4760.45,0.208213
4764.83,0.208139
4769.21,0.208039
4773.6,0.207831
4778.0,0.207646
4782.41,0.207497
4786.83,0.207501
4791.25,0.207366
4795.68,0.207282
4800.13,0.207184
4804.57,0.207182
4809.03,0.206776
4813.5,0.20668
4817.97,0.206607
4822.45,0.20648
4826.94,0.206354
4831.44,0.206442
4835.95,0.206443
4840.46,0.206216
4844.99,0.205909
4849.52,0.205956
4854.06,0.205969
4858.61,0.20591
4863.17,0.205955
4867.73,0.206093
4872.31,0.205854
4876.89,0.205583
4881.48,0.205511
4886.08,0.205524
4890.69,0.205386
4895.31,0.205365
4899.94,0.205045
4904.57,0.204869
4909.22,0.204713
4913.87,0.204587
4918.53,0.204351
4923.21,0.204248
4927.88,0.20395
4932.57,0.203757
4937.27,0.203632
4941.98,0.203409
4946.69,0.203178
4951.42,0.203067
4956.15,0.202638
4960.9,0.202293
4965.65,0.20207
4970.41,0.201954
4975.18,0.201441
4979.96,0.201107
4984.75,0.200843
4989.54,0.200278
4994.35,0.199433
4999.17,0.198847
5003.99,0.198383
5008.83,0.197988
5013.67,0.197435
5018.52,0.197164
5023.39,0.19691
5028.26,0.196598
5033.14,0.196479
5038.03,0.196754
5042.93,0.197064
5047.84,0.197139
5052.76,0.196905
5057.69,0.196815
5062.63,0.196596
5067.58,0.196501
5072.54,0.196361
5077.51,0.196253
5082.49,0.196031
5087.47,0.195769
5092.47,0.195414
5097.48,0.195192
5102.5,0.194943
5107.52,0.194837
5112.56,0.194601
5117.61,0.194565
5122.66,0.194385
5127.73,0.194135
5132.81,0.193846
5137.89,0.193537
5142.99,0.193141
5148.1,0.193023
5153.22,0.192789
5158.34,0.192679
5163.48,0.192253
5168.63,0.191866
5173.79,0.191628
5178.96,0.191431
5184.13,0.190993
5189.32,0.190699
5194.52,0.190283
5199.73,0.189996
5204.96,0.189576
5210.19,0.189114
5215.43,0.188615
5220.68,0.188327
5225.94,0.187976
5231.22,0.187488
5236.5,0.186877
5241.79,0.186337
5247.1,0.185705
5252.42,0.185204
5257.74,0.184524
5263.08,0.183836
5268.43,0.183026
5273.79,0.182184
5279.16,0.181102
5284.54,0.180137
5289.93,0.179131
5295.34,0.177873
5300.75,0.176297
5306.18,0.174769
5311.61,0.172858
5317.06,0.170687
5322.52,0.168002
5327.99,0.164987
5333.47,0.161628
5338.96,0.15807
5344.47,0.154013
5349.98,0.150062
5355.51,0.146129
5361.05,0.14291
5366.6,0.140742
5372.16,0.139589
5377.73,0.139028
5383.32,0.1392
5388.91,0.139425
5394.52,0.139546
5400.14,0.139527
5405.77,0.139354
5411.41,0.138868
5417.07,0.138352
5422.74,0.137456
5428.41,0.136357
5434.1,0.135234
5439.81,0.134208
5445.52,0.133019
5451.25,0.132099
5456.98,0.131219
5462.73,0.130823
5468.5,0.130694
5474.27,0.131025
5480.06,0.131443
5485.86,0.131878
5491.67,0.132363
5497.49,0.133118
5503.33,0.133762
5509.18,0.13436
5515.04,0.134764
5520.91,0.135248
5526.8,0.13545
5532.69,0.135616
5538.61,0.135434
5544.53,0.135007
5550.47,0.134336
5556.41,0.133637
5562.38,0.132464
5568.35,0.13154
5574.34,0.130522
5580.34,0.129527
5586.35,0.128081
5592.38,0.127
5598.42,0.125915
5604.47,0.124957
5610.54,0.123751
5616.61,0.122456
5622.71,0.120819
5628.81,0.119461
5634.93,0.118126
5641.06,0.116796
5647.21,0.114893
5653.36,0.113265
5659.54,0.11159
5665.72,0.109798
5671.92,0.108202
5678.13,0.106601
5684.36,0.104728
5690.6,0.102998
5696.85,0.101024
5703.12,0.099151
5709.4,0.097207
5715.69,0.095297
5722.0,0.093349
5728.33,0.091561
5734.66,0.089413
5741.01,0.087323
5747.38,0.085439
5753.76,0.083692
5760.15,0.081652
5766.56,0.07994
5772.98,0.077668
5779.41,0.07572
5785.86,0.073828
5792.33,0.071814
5798.81,0.069756
5805.3,0.067799
5811.81,0.065692
5818.33,0.063933
5824.87,0.062049
5831.42,0.060036
5837.99,0.058292
5844.57,0.056527
5851.17,0.054647
5857.78,0.052866
5864.41,0.05117
5871.05,0.049519
5877.7,0.048128
5884.38,0.046837
5891.06,0.045293
5897.76,0.044086
5904.48,0.04245
5911.21,0.041286
5917.96,0.040455
5924.73,0.039454
5931.5,0.038564
5938.3,0.037867
5945.11,0.036789
5951.93,0.036034
5958.78,0.035406
5965.63,0.034773
5972.51,0.034062
5979.39,0.03357
5986.3,0.03338
5993.22,0.033066
6000.16,0.032793
6007.11,0.032598
6014.08,0.032378
6021.06,0.032164
6028.06,0.031957
6035.08,0.031821
6042.12,0.031761
6049.17,0.031774
6056.23,0.031867
6063.32,0.031803
6070.42,0.03185
6077.53,0.031775
6084.67,0.031677
6091.82,0.031772
6098.98,0.031933
6106.17,0.0321
6113.37,0.032407
6120.58,0.032463
6127.82,0.032552
6135.07,0.032684
6142.34,0.032819
6149.63,0.033069
6156.93,0.033547
6164.25,0.034078
6171.59,0.034415
6178.95,0.034536
6186.32,0.034983
6193.71,0.035398
6201.12,0.035975
6208.54,0.036636
6215.99,0.037247
6223.45,0.037817
6230.93,0.038496
6238.43,0.039236
6245.95,0.039972
6253.48,0.040455
6261.03,0.041263
6268.6,0.042254
6276.19,0.043388
6283.8,0.04441
6291.43,0.045445
6299.07,0.046598
6306.73,0.04778
6314.42,0.048839
6322.12,0.050232
6329.84,0.05152
6337.57,0.052852
6345.33,0.054045
6353.11,0.055532
6360.9,0.056773
6368.72,0.057957
6376.55,0.05931
6384.4,0.060916
6392.27,0.062363
6400.17,0.063963
6408.08,0.065348
6416.01,0.066561
6423.96,0.067899
6431.93,0.069418
6439.92,0.070787
6447.93,0.072468
6455.96,0.073851
6464.01,0.075087
6472.08,0.076066
6480.17,0.077395
6488.28,0.078695
6496.41,0.080046
6504.56,0.081514
6512.73,0.08251
6520.92,0.083076
6529.14,0.083975
6537.37,0.084576
6545.63,0.084913
6553.9,0.084781
6562.2,0.084361
6570.51,0.083833
6578.85,0.083423
6587.21,0.082544
6595.59,0.081727
6603.99,0.081304
6612.42,0.081418
6620.86,0.081838
6629.33,0.08224
6637.82,0.082611
6646.33,0.083006
6654.86,0.082929
6663.41,0.082787
6671.99,0.082552
6680.59,0.082579
6689.21,0.082756
6697.85,0.083016
6706.51,0.083283
6715.2,0.08407
6723.91,0.085172
6732.64,0.08625
6741.4,0.08707
6750.18,0.087799
6758.98,0.088141
6767.8,0.087552
6776.65,0.086227
6785.52,0.084698
6794.41,0.083015
6803.33,0.081721
6812.27,0.081314
6821.23,0.081442
6830.22,0.081868
6839.23,0.083041
6848.26,0.084582
6857.32,0.086463
6866.4,0.088684
6875.51,0.091871
6884.64,0.094558
6893.8,0.097373
6902.98,0.100253
6912.18,0.10318
6921.41,0.105999
6930.66,0.108524
6939.94,0.110313
6949.24,0.111692
6958.57,0.112255
6967.92,0.112513
6977.3,0.112152
6986.7,0.111514
6996.13,0.110271
7005.59,0.108724
7015.07,0.107419
7024.57,0.105918
7034.1,0.10419
7043.66,0.102591
7053.25,0.100611
7062.85,0.098397
7072.49,0.096425
7082.15,0.094976
7091.84,0.093802
7101.55,0.093067
7111.3,0.092596
7121.06,0.092492
7130.86,0.092642
7140.68,0.093187
7150.53,0.094078
7160.41,0.095769
7170.31,0.097601
7180.24,0.099766
7190.2,0.101844
7200.19,0.103598
7210.2,0.105233
7220.24,0.10691
7230.31,0.108447
7240.41,0.110149
7250.54,0.111609
7260.69,0.113009
7270.88,0.114327
7281.09,0.115674
7291.33,0.116911
7301.6,0.118181
7311.9,0.119511
7322.22,0.120933
7332.58,0.122074
7342.97,0.12337
7353.38,0.124644
7363.83,0.12591
7374.3,0.127129
7384.81,0.128551
7395.34,0.129685
7405.91,0.130953
7416.5,0.132264
7427.13,0.133719
7437.78,0.13494
7448.47,0.136151
7459.19,0.137196
7469.94,0.138198
7480.71,0.139221
7491.52,0.140175
7502.37,0.140762
7513.24,0.141299
7524.14,0.141898
7535.08,0.142857
7546.05,0.143637
7557.05,0.144512
7568.08,0.145495
7579.15,0.146575
7590.24,0.147375
7601.37,0.148501
7612.53,0.14952
7623.73,0.150624
7634.96,0.151841
7646.22,0.153046
7657.51,0.153918
7668.84,0.154914
7680.2,0.155896
7691.59,0.156858
7703.02,0.15754
7714.49,0.158226
7725.98,0.158739
7737.52,0.159469
7749.08,0.159935
7760.68,0.160504
7772.32,0.160904
7783.99,0.161199
7795.69,0.16151
7807.43,0.162033
7819.21,0.162191
7831.02,0.162484
7842.87,0.16267
7854.75,0.162907
7866.67,0.163332
7878.62,0.163723
7890.62,0.163857
7902.64,0.164142
7914.71,0.164391
7926.81,0.164768
7938.95,0.165037
7951.13,0.165177
7963.34,0.165244
7975.59,0.165506
7987.88,0.165557
8000.21,0.165638
8012.57,0.165643
8024.98,0.165678
8037.42,0.165684
8049.9,0.166064
8062.42,0.166333
8074.98,0.166775
8087.57,0.167201
8100.21,0.167455
8112.89,0.167614
8125.6,0.168064
8138.36,0.168582
8151.16,0.16889
8163.99,0.168957
8176.87,0.169039
8189.79,0.168819
8202.75,0.168615
8215.75,0.168271
8228.79,0.167882
8241.87,0.16727
8254.99,0.166791
8268.16,0.166464
8281.37,0.166368
8294.62,0.166357
8307.91,0.166362
8321.24,0.166346
8334.62,0.16636
8348.04,0.166029
8361.51,0.165877
8375.02,0.165823
8388.57,0.165604
8402.16,0.16516
8415.8,0.165136
8429.49,0.16503
8443.22,0.164648
8456.99,0.164271
8470.81,0.163989
8484.67,0.163477
8498.58,0.163092
8512.54,0.162624
8526.54,0.162431
8540.58,0.162171
8554.68,0.161583
8568.82,0.160924
8583.0,0.160484
8597.24,0.159952
8611.52,0.159512
8625.85,0.15899
8640.23,0.158554
8654.65,0.158107
8669.12,0.15768
8683.64,0.157121
8698.21,0.156874
8712.83,0.156488
8727.5,0.155987
8742.22,0.155046
8756.99,0.153886
8771.8,0.152506
8786.67,0.1511
8801.59,0.149068
8816.56,0.146627
8831.58,0.143393
8846.65,0.138904
8861.77,0.13354
8876.94,0.127066
8892.17,0.118921
8907.45,0.110031
8922.78,0.101679
8938.16,0.096197
8953.6,0.095079
8969.09,0.09729
8984.64,0.100285
9000.23,0.101084
9015.89,0.09968
9031.59,0.100604
9047.36,0.105828
9063.17,0.112604
9079.05,0.117292
9094.97,0.119197
9110.96,0.119229
9127.0,0.118346
9143.1,0.11683
9159.25,0.115609
9175.46,0.114831
9191.73,0.114264
9208.06,0.113711
9224.44,0.113101
9240.88,0.112414
9257.38,0.111915
9273.94,0.111535
9290.56,0.11159
9307.24,0.11167
9323.98,0.111467
9340.78,0.111414
9357.64,0.111679
9374.57,0.111641
9391.55,0.111314
9408.59,0.11128
9425.7,0.111057
9442.87,0.110474
9460.1,0.110243
9477.4,0.110081
9494.75,0.10973
9512.17,0.109359
9529.66,0.10887
9547.21,0.108346
9564.83,0.10785
9582.5,0.10708
9600.25,0.106062
9618.06,0.104948
9635.94,0.103792
9653.88,0.102565
9671.89,0.101428
9689.97,0.100267
9708.12,0.099239
9726.33,0.097884
9744.62,0.096323
9762.97,0.095015
9781.39,0.093851
9799.88,0.092648
9818.44,0.091168
9837.07,0.089524
9855.77,0.088633
9874.54,0.087782
9893.39,0.086524
9912.3,0.085277
9931.29,0.084081
9950.36,0.08286
9969.49,0.082068
9988.7,0.081424
10007.98,0.080152
10027.34,0.078911
10046.77,0.07782
10066.28,0.076796
10085.87,0.076073
10105.53,0.075354
10125.26,0.074296
10145.08,0.073247
10164.97,0.072358
10184.94,0.071673
10204.99,0.071254
10225.12,0.070592
10245.33,0.069762
10265.61,0.069273
10285.98,0.06893
10306.43,0.068563
10326.96,0.068291
10347.57,0.067916
10368.27,0.067579
10389.05,0.067365
10409.91,0.067238
10430.86,0.06708
10451.88,0.067065
10473.0,0.067178
10494.2,0.067128
10515.49,0.067292
10536.86,0.067366
10558.32,0.067308
10579.87,0.067215
10601.5,0.067193
10623.23,0.067292
10645.04,0.067503
10666.94,0.067784
10688.94,0.068025
10711.02,0.068251
10733.2,0.068321
10755.47,0.068218
10777.83,0.068259
10800.28,0.068333
10822.83,0.068371
10845.47,0.068483
10868.21,0.06816
10891.04,0.067859
10913.97,0.067664
10936.99,0.067735
10960.12,0.067569
10983.34,0.067267
11006.66,0.066764
11030.07,0.06651
11053.59,0.066049
11077.21,0.065606
11100.93,0.065236
11124.75,0.064824
11148.68,0.064412
11172.71,0.063893
11196.84,0.063507
11221.07,0.062851
11245.41,0.062283
11269.86,0.062365
11294.41,0.061672
11319.07,0.059277
11343.84,0.056884
11368.72,0.056216
11393.7,0.056077
11418.8,0.055565
11444.01,0.054862
11469.33,0.054097
11494.76,0.052926
11520.3,0.051514
11545.96,0.049575
11571.73,0.047201
11597.62,0.045205
11623.62,0.043678
11649.74,0.043412
11675.98,0.044756
11702.34,0.047488
11728.81,0.051186
11755.41,0.054658
11782.13,0.056906
11808.96,0.058314
11835.92,0.058749
11863.01,0.058326
11890.22,0.057787
11917.55,0.056964
11945.01,0.056212
11972.6,0.055522
12000.31,0.054424
12028.16,0.053654
12056.13,0.053152
12084.23,0.052636
12112.46,0.052383
12140.83,0.051987
12169.33,0.051484
12197.96,0.051472
12226.73,0.051825
12255.64,0.052201
12284.68,0.052135
12313.86,0.052618
12343.18,0.053837
12372.64,0.055155
12402.24,0.056293
12431.98,0.057762
12461.86,0.058713
12491.89,0.059332
12522.07,0.05993
12552.38,0.060879
12582.85,0.06131
12613.47,0.061123
12644.23,0.061077
12675.15,0.060962
12706.21,0.060991
12737.43,0.060665
12768.81,0.060205
12800.33,0.059613
12832.02,0.059258
12863.86,0.058954
12895.86,0.05858
12928.02,0.058259
12960.34,0.057741
12992.82,0.05696
13025.46,0.056564
13058.27,0.056389
13091.25,0.055927
13124.39,0.055112
13157.7,0.05441
13191.18,0.053694
13224.83,0.052824
13258.66,0.052398
13292.65,0.052179
13326.83,0.051843
13361.17,0.051197
13395.7,0.050712
13430.4,0.051007
13465.29,0.051392
13500.35,0.051544
13535.6,0.051693
13571.03,0.051754
13606.65,0.051331
13642.46,0.050839
13678.46,0.050357
13714.64,0.05002
13751.02,0.049669
13787.59,0.049418
13824.36,0.049416
13861.32,0.048964
13898.49,0.04841
13935.85,0.048397
13973.41,0.048274
14011.17,0.048489
14049.15,0.049388
14087.32,0.049995
14125.71,0.050028
14164.3,0.050629
14203.11,0.051048
14242.13,0.05038
14281.36,0.049937
14320.81,0.050365
14360.49,0.050607
14400.38,0.050526
14440.49,0.050647
14480.82,0.050333
14521.39,0.050254
14562.18,0.049907
14603.2,0.049574
14644.45,0.05038
14685.93,0.050979
14727.66,0.050939
14769.62,0.050744
14811.81,0.05067
14854.25,0.051254
14896.94,0.052026
14939.87,0.052422
14983.05,0.053114
15026.48,0.054318
15070.16,0.055405
15114.1,0.056798
15158.29,0.057517
15202.74,0.058253
15247.46,0.059529
15292.43,0.061019
15337.68,0.062437
15383.19,0.063616
15428.97,0.064687
15475.03,0.066241
15521.36,0.067841
15567.97,0.06902
15614.87,0.070534
15662.04,0.072172
15709.5,0.074202
15757.25,0.076058
15805.29,0.078165
15853.62,0.080349
15902.26,0.082312
15951.19,0.084468
16000.42,0.087139
16049.95,0.089624
16099.8,0.09205
16149.95,0.094864
16200.42,0.097091
16251.21,0.099163
16302.31,0.101685
16353.74,0.103569
16405.49,0.104624
16457.57,0.105534
16509.98,0.105742
16562.73,0.105556
16615.82,0.105228
16669.24,0.104828
16723.02,0.104719
16777.14,0.103937
16831.61,0.102591
16886.43,0.101288
16941.62,0.099858
16997.16,0.098445
17053.08,0.096972
17109.36,0.09511
17166.01,0.092988
17223.04,0.090875
17280.45,0.089308
17338.24,0.087743
17396.43,0.085812
17455.0,0.0843
17513.97,0.082996
17573.34,0.082104
17633.11,0.081325
17693.29,0.07974
17753.89,0.077869
17814.9,0.076346
17876.33,0.074731
17938.18,0.073097
18000.47,0.072499
18063.19,0.072152
18126.35,0.071276
18189.95,0.070092
18254.0,0.068617
18318.5,0.067692
18383.46,0.067232
18448.88,0.066233
18514.77,0.06509
18581.13,0.064165
18647.97,0.063002
18715.29,0.061937
18783.1,0.060623
18851.4,0.058993
18920.2,0.05774
18989.51,0.057064
19059.32,0.056069
19129.65,0.055584
19200.5,0.05486
19271.88,0.054153
19343.79,0.053771
19416.24,0.053157
19489.23,0.053087
19562.77,0.054053
19636.88,0.05468
19711.54,0.056198
19786.78,0.05819
19862.59,0.060116
19938.98,0.062438
20015.96,0.065418
20093.55,0.069046
20171.73,0.07352
20250.53,0.078105
20329.94,0.083134
20409.98,0.08875
20490.65,0.093832
20571.96,0.099095
20653.92,0.104699
20736.54,0.108994
20819.82,0.110587
20903.77,0.112452
20988.4,0.11466
21073.72,0.116942
21159.73,0.118731
21246.46,0.11978
21333.89,0.120283
21422.04,0.121476
21510.93,0.123773
21600.56,0.126749
21690.94,0.130182
21782.08,0.134782
21873.99,0.139608
21966.67,0.145898
22060.15,0.152393
22154.42,0.15892
22249.51,0.167166
22345.41,0.176546
22442.14,0.184555
22539.72,0.19055
22638.14,0.194092
22737.43,0.195849
22837.6,0.197159
22938.65,0.198608
23040.6,0.196882
23143.46,0.1931
23247.24,0.188457
23351.96,0.18125
23457.63,0.174595
23564.25,0.167585
23671.85,0.161177
23780.44,0.158732
23890.02,0.154824
24000.63,0.149085
24112.26,0.146948
24224.93,0.144149
24338.66,0.143067
24453.47,0.14622
24569.36,0.146393
24686.36,0.143705
24804.47,0.143016
24923.73,0.142867
25044.13,0.141087
25165.71,0.140148
25288.46,0.143195
25412.43,0.144746
25537.61,0.143611
25664.04,0.140551
25791.72,0.142104
25920.68,0.147616
