Database of Origin,University of Winnipeg Spectrophotometer Facility
Sample Description,RELAB plus Nicolet data. See HOSERLab website for further details
Date Added,2016-11-01 21:25:23.421503

Data ID,RLA_PER_05          
Sample ID,PER121
Mineral Name,perovskite
Grain Size,<45
Viewing Geometry,30/0;30
Resolution,5nm

Wavelength
300.0,0.074211
305.0,0.06958
310.0,0.068291
315.0,0.068164
320.0,0.067759
325.0,0.066982
330.0,0.067553
335.0,0.069885
340.0,0.072113
345.0,0.074451
350.0,0.078861
355.0,0.08332
360.0,0.089708
365.0,0.097261
370.0,0.10568
375.0,0.113681
380.0,0.122538
385.0,0.131229
390.0,0.139453
395.0,0.147876
400.0,0.156037
405.0,0.164156
410.0,0.169734
415.0,0.175593
420.0,0.180542
425.0,0.185647
430.0,0.190161
435.0,0.193814
440.0,0.197614
445.0,0.200227
450.0,0.203139
455.0,0.20531
460.0,0.207161
465.0,0.208838
470.0,0.210588
475.0,0.212354
480.0,0.214093
485.0,0.216026
490.0,0.217824
495.0,0.219587
500.0,0.22144
505.0,0.223221
510.0,0.224597
515.0,0.226496
520.0,0.228907
525.0,0.232088
530.0,0.233277
535.0,0.235933
540.0,0.238223
545.0,0.24019
550.0,0.242949
555.0,0.243952
560.0,0.246391
565.0,0.248364
570.0,0.250929
575.0,0.252649
580.0,0.254413
585.0,0.257297
590.0,0.259085
595.0,0.263133
600.0,0.267237
605.0,0.270977
610.0,0.274728
615.0,0.27924
620.0,0.28373
625.0,0.288109
630.0,0.29308
635.0,0.298508
640.0,0.304115
645.0,0.309319
650.0,0.315364
655.0,0.322057
660.0,0.328148
665.0,0.335029
670.0,0.341686
675.0,0.34873
680.0,0.355724
685.0,0.363491
690.0,0.371508
695.0,0.379552
700.0,0.388129
705.0,0.39674
710.0,0.404633
715.0,0.410923
720.0,0.41921
725.0,0.428331
730.0,0.437502
735.0,0.444587
740.0,0.451419
745.0,0.453482
750.0,0.469975
755.0,0.479108
760.0,0.491924
765.0,0.502431
770.0,0.510947
775.0,0.520216
780.0,0.528205
785.0,0.53679
790.0,0.543697
795.0,0.550098
800.0,0.549009
805.0,0.552776
810.0,0.567123
815.0,0.574496
820.0,0.587104
825.0,0.592713
830.0,0.599187
835.0,0.605044
840.0,0.6103
845.0,0.615866
850.0,0.62025
855.0,0.625979
860.0,0.62702
865.0,0.630201
870.0,0.627861
875.0,0.635169
880.0,0.636934
885.0,0.641034
890.0,0.64624
895.0,0.650045
900.0,0.653569
905.0,0.655288
910.0,0.659732
915.0,0.662333
920.0,0.66573
925.0,0.668417
930.0,0.669066
935.0,0.671683
940.0,0.673101
945.0,0.675316
950.0,0.677642
955.0,0.678541
960.0,0.681017
965.0,0.681664
970.0,0.68329
975.0,0.684648
980.0,0.685696
985.0,0.687556
990.0,0.688715
995.0,0.689479
1000.0,0.690185
1005.0,0.691422
1010.0,0.692138
1015.0,0.692886
1020.0,0.692625
1025.0,0.69294
1030.0,0.693669
1035.0,0.693922
1040.0,0.696033
1045.0,0.696312
1050.0,0.696509
1055.0,0.698129
1060.0,0.699017
1065.0,0.700432
1070.0,0.701371
1075.0,0.702018
1080.0,0.701836
1085.0,0.702724
1090.0,0.702526
1095.0,0.703356
1100.0,0.704239
1105.0,0.704793
1110.0,0.70571
1115.0,0.705848
1120.0,0.706119
1125.0,0.706823
1130.0,0.707269
1135.0,0.707869
1140.0,0.708848
1145.0,0.710293
1150.0,0.710278
1155.0,0.710002
1160.0,0.710424
1165.0,0.710573
1170.0,0.71035
1175.0,0.710985
1180.0,0.71111
1185.0,0.711566
1190.0,0.712857
1195.0,0.712412
1200.0,0.709174
1205.0,0.708729
1210.0,0.707922
1215.0,0.706463
1220.0,0.706959
1225.0,0.706398
1230.0,0.70592
1235.0,0.70498
1240.0,0.703754
1245.0,0.703139
1250.0,0.701761
1255.0,0.701253
1260.0,0.701955
1265.0,0.70123
1270.0,0.69954
1275.0,0.697461
1280.0,0.696664
1285.0,0.696149
1290.0,0.695302
1295.0,0.694421
1300.0,0.693769
1305.0,0.691539
1310.0,0.691237
1315.0,0.689574
1320.0,0.687847
1325.0,0.687632
1330.0,0.686925
1335.0,0.685821
1340.0,0.683557
1345.0,0.683594
1350.0,0.682213
1355.0,0.68169
1360.0,0.683522
1365.0,0.679235
1370.0,0.67744
1375.0,0.676553
1380.0,0.676542
1385.0,0.673405
1390.0,0.673998
1395.0,0.673099
1400.0,0.672863
1405.0,0.672097
1410.0,0.67077
1415.0,0.669478
1420.0,0.667869
1425.0,0.66827
1430.0,0.667302
1435.0,0.672142
1440.0,0.666519
1445.0,0.666164
1450.0,0.66627
1455.0,0.664575
1460.0,0.663678
1465.0,0.662609
1470.0,0.663666
1475.0,0.663719
1480.0,0.664487
1485.0,0.665334
1490.0,0.666504
1495.0,0.666891
1500.0,0.666611
1505.0,0.665914
1510.0,0.665165
1515.0,0.6657
1520.0,0.667422
1525.0,0.66699
1530.0,0.66718
1535.0,0.667981
1540.0,0.669273
1545.0,0.668655
1550.0,0.663967
1555.0,0.661655
1560.0,0.667798
1565.0,0.670418
1570.0,0.672347
1575.0,0.672135
1580.0,0.671037
1585.0,0.672242
1590.0,0.673993
1595.0,0.675518
1600.0,0.67863
1605.0,0.679976
1610.0,0.682845
1615.0,0.682425
1620.0,0.684516
1625.0,0.683854
1630.0,0.685395
1635.0,0.685264
1640.0,0.686101
1645.0,0.686544
1650.0,0.686993
1655.0,0.687975
1660.0,0.688898
1665.0,0.688906
1670.0,0.689424
1675.0,0.690409
1680.0,0.690665
1685.0,0.691444
1690.0,0.691612
1695.0,0.691461
1700.0,0.69317
1705.0,0.692803
1710.0,0.693623
1715.0,0.693254
1720.0,0.69435
1725.0,0.694682
1730.0,0.694492
1735.0,0.694611
1740.0,0.695172
1745.0,0.69595
1750.0,0.696143
1755.0,0.695949
1760.0,0.697153
1765.0,0.696708
1770.0,0.696191
1775.0,0.697284
1780.0,0.697698
1785.0,0.697209
1790.0,0.697832
1795.0,0.698237
1800.0,0.698387
1805.0,0.698614
1810.0,0.699751
1815.0,0.700386
1820.0,0.699463
1825.0,0.699024
1830.0,0.699494
1835.0,0.700767
1840.0,0.700656
1845.0,0.70092
1850.0,0.700156
1855.0,0.701263
1860.0,0.700052
1865.0,0.701802
1870.0,0.703067
1875.0,0.699254
1880.0,0.699275
1885.0,0.700798
1890.0,0.700875
1895.0,0.701455
1900.0,0.702496
1905.0,0.701199
1910.0,0.701428
1915.0,0.701047
1920.0,0.701113
1925.0,0.700293
1930.0,0.699786
1935.0,0.699737
1940.0,0.699716
1945.0,0.700231
1950.0,0.700907
1955.0,0.700276
1960.0,0.700778
1965.0,0.701072
1970.0,0.701328
1975.0,0.70214
1980.0,0.702255
1985.0,0.702932
1990.0,0.702888
1995.0,0.703878
2000.0,0.704967
2005.0,0.70553
2010.0,0.706164
2015.0,0.706667
2020.0,0.707346
2025.0,0.70818
2030.0,0.708765
2035.0,0.708846
2040.0,0.708853
2045.0,0.709395
2050.0,0.709565
2055.0,0.709872
2060.0,0.709625
2065.0,0.70942
2070.0,0.710032
2075.0,0.71022
2080.0,0.71127
2085.0,0.712475
2090.0,0.712919
2095.0,0.71297
2100.0,0.713083
2105.0,0.713837
2110.0,0.714248
2115.0,0.715276
2120.0,0.71583
2125.0,0.716864
2130.0,0.716307
2135.0,0.717866
2140.0,0.717229
2145.0,0.71799
2150.0,0.717968
2155.0,0.718305
2160.0,0.718612
2165.0,0.718137
2170.0,0.718319
2175.0,0.718228
2180.0,0.718879
2185.0,0.719007
2190.0,0.719048
2195.0,0.719331
2200.0,0.720736
2205.0,0.720802
2210.0,0.721666
2215.0,0.721838
2220.0,0.721967
2225.0,0.722602
2230.0,0.722599
2235.0,0.722799
2240.0,0.723512
2245.0,0.724665
2250.0,0.725092
2255.0,0.724875
2260.0,0.726334
2265.0,0.726373
2270.0,0.727248
2275.0,0.727844
2280.0,0.728015
2285.0,0.728239
2290.0,0.7293
2295.0,0.729711
2300.0,0.731192
2305.0,0.731072
2310.0,0.732309
2315.0,0.732323
2320.0,0.732251
2325.0,0.732763
2330.0,0.732035
2335.0,0.732187
2340.0,0.731951
2345.0,0.731014
2350.0,0.729647
2355.0,0.729015
2360.0,0.728308
2365.0,0.729556
2370.0,0.732077
2375.0,0.733892
2380.0,0.734208
2385.0,0.734843
2390.0,0.735605
2395.0,0.735241
2400.0,0.735534
2405.0,0.73501
2410.0,0.734735
2415.0,0.735894
2420.0,0.735815
2425.0,0.736394
2430.0,0.73805
2435.0,0.739966
2440.0,0.740534
2445.0,0.741704
2450.0,0.740471
2455.0,0.739487
2460.0,0.738978
2465.0,0.739917
2470.0,0.74234
2475.0,0.742035
2480.0,0.744351
2485.0,0.745061
2490.0,0.745402
2495.0,0.744038
2500.0,0.742752
2502.0,0.742605
2503.2,0.742303
2504.41,0.74299
2505.62,0.743288
2506.83,0.743167
2508.05,0.743236
2509.26,0.743444
2510.48,0.744524
2511.69,0.744995
2512.91,0.74579
2514.13,0.746153
2515.35,0.74611
2516.57,0.745527
2517.79,0.745924
2519.02,0.746456
2520.24,0.746378
2521.47,0.746266
2522.69,0.746214
2523.92,0.745293
2525.15,0.744433
2526.38,0.743742
2527.61,0.743102
2528.85,0.742368
2530.08,0.7407
2531.32,0.738919
2532.55,0.737078
2533.79,0.736499
2535.03,0.736067
2536.27,0.735877
2537.51,0.736771
2538.75,0.738288
2540.0,0.740095
2541.24,0.741892
2542.49,0.743617
2543.74,0.7456
2544.99,0.74716
2546.24,0.748625
2547.49,0.749334
2548.74,0.750134
2549.99,0.750955
2551.25,0.751914
2552.5,0.752437
2553.76,0.752325
2555.02,0.752899
2556.28,0.75369
2557.54,0.753275
2558.8,0.753396
2560.07,0.753682
2561.33,0.753193
2562.6,0.752817
2563.86,0.753353
2565.13,0.753811
2566.4,0.754576
2567.67,0.755026
2568.95,0.753919
2570.22,0.753003
2571.5,0.753746
2572.77,0.754654
2574.05,0.75452
2575.33,0.755363
2576.61,0.75602
2577.89,0.756301
2579.17,0.756949
2580.46,0.757433
2581.74,0.757009
2583.03,0.757597
2584.31,0.758172
2585.6,0.759805
2586.89,0.760484
2588.19,0.75968
2589.48,0.760389
2590.77,0.760791
2592.07,0.761262
2593.36,0.760925
2594.66,0.759174
2595.96,0.759887
2597.26,0.764252
2598.56,0.764836
2599.87,0.763263
2601.17,0.762416
2602.48,0.762143
2603.78,0.762774
2605.09,0.761914
2606.4,0.761193
2607.71,0.762169
2609.03,0.762761
2610.34,0.762796
2611.66,0.763228
2612.97,0.763232
2614.29,0.763038
2615.61,0.763271
2616.93,0.76299
2618.25,0.764607
2619.57,0.765726
2620.9,0.764611
2622.22,0.766292
2623.55,0.76825
2624.88,0.767506
2626.21,0.766919
2627.54,0.766724
2628.87,0.768176
2630.21,0.768081
2631.54,0.767364
2632.88,0.769559
2634.21,0.76917
2635.55,0.76863
2636.89,0.769304
2638.24,0.769589
2639.58,0.769118
2640.92,0.768375
2642.27,0.768764
2643.62,0.769015
2644.97,0.769075
2646.32,0.768868
2647.67,0.769045
2649.02,0.769728
2650.38,0.769957
2651.73,0.769646
2653.09,0.769239
2654.45,0.769736
2655.81,0.770246
2657.17,0.770065
2658.53,0.770225
2659.89,0.769408
2661.26,0.77006
2662.63,0.770964
2664.0,0.770964
2665.36,0.769429
2666.74,0.769719
2668.11,0.771249
2669.48,0.771875
2670.86,0.769494
2672.23,0.770864
2673.61,0.773461
2674.99,0.772092
2676.37,0.770212
2677.76,0.770216
2679.14,0.771335
2680.52,0.771914
2681.91,0.772359
2683.3,0.771582
2684.69,0.770912
2686.08,0.771383
2687.47,0.770726
2688.87,0.770691
2690.26,0.770743
2691.66,0.770389
2693.06,0.769654
2694.46,0.769075
2695.86,0.769537
2697.26,0.769978
2698.66,0.769248
2700.07,0.767567
2701.48,0.76627
2702.89,0.765713
2704.3,0.765613
2705.71,0.764892
2707.12,0.764412
2708.53,0.763509
2709.95,0.762169
2711.37,0.761668
2712.79,0.763319
2714.21,0.764602
2715.63,0.763898
2717.05,0.763042
2718.48,0.762874
2719.9,0.761988
2721.33,0.761495
2722.76,0.762433
2724.19,0.762506
2725.62,0.761115
2727.06,0.76181
2728.49,0.76175
2729.93,0.760877
2731.37,0.759758
2732.81,0.75914
2734.25,0.757796
2735.69,0.75713
2737.14,0.75681
2738.58,0.756007
2740.03,0.753561
2741.48,0.753721
2742.93,0.753911
2744.38,0.752925
2745.83,0.751517
2747.29,0.75019
2748.75,0.749269
2750.2,0.747688
2751.66,0.746633
2753.13,0.745453
2754.59,0.744183
2756.05,0.742376
2757.52,0.742584
2758.99,0.742273
2760.46,0.740298
2761.93,0.73818
2763.4,0.736849
2764.87,0.736313
2766.35,0.735959
2767.82,0.73407
2769.3,0.732519
2770.78,0.731447
2772.26,0.730263
2773.75,0.729658
2775.23,0.72812
2776.72,0.726283
2778.21,0.725021
2779.7,0.724018
2781.19,0.722839
2782.68,0.721205
2784.18,0.719701
2785.67,0.71859
2787.17,0.716858
2788.67,0.715751
2790.17,0.715012
2791.67,0.713971
2793.18,0.712207
2794.68,0.710626
2796.19,0.709213
2797.7,0.707791
2799.21,0.706862
2800.72,0.705315
2802.24,0.703729
2803.75,0.702644
2805.27,0.70178
2806.79,0.700747
2808.31,0.699226
2809.83,0.697994
2811.35,0.697022
2812.88,0.696075
2814.41,0.694658
2815.93,0.693353
2817.46,0.692359
2819.0,0.691395
2820.53,0.689969
2822.07,0.688906
2823.6,0.68824
2825.14,0.687501
2826.68,0.686218
2828.22,0.684722
2829.77,0.683832
2831.31,0.683136
2832.86,0.682212
2834.41,0.68155
2835.96,0.680505
2837.51,0.679675
2839.07,0.679135
2840.62,0.678629
2842.18,0.677907
2843.74,0.677155
2845.3,0.67671
2846.86,0.676256
2848.43,0.675444
2849.99,0.674606
2851.56,0.67413
2853.13,0.673992
2854.7,0.673361
2856.27,0.672911
2857.85,0.672103
2859.42,0.671498
2861.0,0.67101
2862.58,0.670582
2864.16,0.670007
2865.75,0.669411
2867.33,0.669104
2868.92,0.66916
2870.51,0.66862
2872.1,0.668378
2873.69,0.667881
2875.28,0.667354
2876.88,0.666956
2878.48,0.666433
2880.07,0.666131
2881.68,0.665647
2883.28,0.665422
2884.88,0.665362
2886.49,0.664981
2888.1,0.664329
2889.71,0.663987
2891.32,0.663356
2892.93,0.662859
2894.55,0.662894
2896.16,0.662764
2897.78,0.662388
2899.4,0.661801
2901.03,0.66155
2902.65,0.661433
2904.28,0.660928
2905.91,0.660798
2907.54,0.660137
2909.17,0.659675
2910.8,0.660072
2912.44,0.659964
2914.07,0.659579
2915.71,0.659333
2917.35,0.659061
2918.99,0.658486
2920.64,0.658279
2922.29,0.658019
2923.93,0.65773
2925.58,0.657484
2927.24,0.657324
2928.89,0.657367
2930.55,0.657267
2932.2,0.656779
2933.86,0.656356
2935.52,0.656364
2937.19,0.656541
2938.85,0.65601
2940.52,0.655552
2942.19,0.655893
2943.86,0.655811
2945.53,0.655465
2947.21,0.65518
2948.88,0.654878
2950.56,0.654761
2952.24,0.654562
2953.92,0.654298
2955.61,0.653918
2957.29,0.653525
2958.98,0.65327
2960.67,0.653439
2962.36,0.653054
2964.06,0.652907
2965.75,0.652751
2967.45,0.653041
2969.15,0.653197
2970.85,0.65279
2972.55,0.652535
2974.26,0.652263
2975.97,0.652133
2977.68,0.651982
2979.39,0.651878
2981.1,0.652138
2982.82,0.652047
2984.53,0.65139
2986.25,0.651213
2987.97,0.651109
2989.7,0.650889
2991.42,0.650971
2993.15,0.651204
2994.88,0.651066
2996.61,0.650893
2998.34,0.65069
3000.08,0.650569
3001.82,0.650612
3003.55,0.650655
3005.3,0.650668
3007.04,0.650599
3008.78,0.650578
3010.53,0.650586
3012.28,0.650586
3014.03,0.650517
3015.79,0.65066
3017.54,0.65047
3019.3,0.65063
3021.06,0.650798
3022.82,0.650776
3024.58,0.650936
3026.35,0.650988
3028.12,0.650949
3029.89,0.651088
3031.66,0.651235
3033.43,0.651356
3035.21,0.651451
3036.99,0.651351
3038.77,0.651101
3040.55,0.651356
3042.33,0.651533
3044.12,0.651554
3045.91,0.65158
3047.7,0.651524
3049.49,0.651502
3051.29,0.651615
3053.08,0.651848
3054.88,0.651818
3056.68,0.652043
3058.49,0.651909
3060.29,0.651766
3062.1,0.651956
3063.91,0.652207
3065.72,0.652613
3067.54,0.652566
3069.35,0.65254
3071.17,0.652622
3072.99,0.652751
3074.81,0.652756
3076.64,0.653175
3078.47,0.653209
3080.29,0.652972
3082.13,0.652894
3083.96,0.653253
3085.79,0.653214
3087.63,0.653309
3089.47,0.653434
3091.31,0.653439
3093.16,0.653369
3095.01,0.653477
3096.85,0.653607
3098.71,0.653802
3100.56,0.653849
3102.41,0.653918
3104.27,0.653732
3106.13,0.653568
3107.99,0.65349
3109.86,0.653413
3111.73,0.653395
3113.59,0.653365
3115.47,0.653456
3117.34,0.653443
3119.21,0.653222
3121.09,0.653292
3122.97,0.653374
3124.86,0.653538
3126.74,0.653426
3128.63,0.653382
3130.52,0.653205
3132.41,0.653076
3134.3,0.653218
3136.2,0.653244
3138.1,0.653015
3140.0,0.65305
3141.9,0.653011
3143.81,0.653006
3145.71,0.652998
3147.62,0.653123
3149.54,0.653015
3151.45,0.653127
3153.37,0.653279
3155.29,0.653097
3157.21,0.652799
3159.13,0.652557
3161.06,0.652868
3162.99,0.653097
3164.92,0.652821
3166.85,0.652933
3168.79,0.652894
3170.72,0.652829
3172.67,0.652527
3174.61,0.652643
3176.55,0.652717
3178.5,0.652769
3180.45,0.652648
3182.4,0.652665
3184.36,0.652695
3186.32,0.652583
3188.27,0.65257
3190.24,0.652583
3192.2,0.652553
3194.17,0.652514
3196.14,0.652566
3198.11,0.652553
3200.08,0.652522
3202.06,0.652687
3204.04,0.652829
3206.02,0.652933
3208.0,0.652808
3209.99,0.6527
3211.98,0.652864
3213.97,0.653266
3215.96,0.653525
3217.96,0.653598
3219.96,0.653689
3221.96,0.653663
3223.96,0.653585
3225.97,0.653706
3227.98,0.653931
3229.99,0.654152
3232.0,0.654221
3234.02,0.654398
3236.04,0.65461
3238.06,0.654445
3240.08,0.654333
3242.11,0.654324
3244.14,0.654424
3246.17,0.654722
3248.2,0.655016
3250.24,0.654925
3252.28,0.65496
3254.32,0.655176
3256.37,0.655405
3258.41,0.65531
3260.46,0.655509
3262.51,0.655681
3264.57,0.65598
3266.63,0.656446
3268.69,0.656593
3270.75,0.656511
3272.81,0.656736
3274.88,0.656926
3276.95,0.656999
3279.02,0.656896
3281.1,0.656965
3283.18,0.657069
3285.26,0.657263
3287.34,0.657501
3289.43,0.657574
3291.51,0.657704
3293.61,0.657505
3295.7,0.657695
3297.8,0.657946
3299.9,0.657855
3302.0,0.657751
3304.1,0.657842
3306.21,0.657821
3308.32,0.657851
3310.43,0.657795
3312.55,0.657955
3314.66,0.657726
3316.79,0.657756
3318.91,0.657548
3321.03,0.657419
3323.16,0.657574
3325.29,0.657648
3327.43,0.657734
3329.57,0.657592
3331.71,0.657319
3333.85,0.657146
3335.99,0.657043
3338.14,0.656632
3340.29,0.656018
3342.45,0.655318
3344.6,0.65477
3346.76,0.654359
3348.92,0.653814
3351.09,0.65295
3353.26,0.652272
3355.43,0.651381
3357.6,0.650439
3359.78,0.649718
3361.96,0.648637
3364.14,0.64725
3366.32,0.645954
3368.51,0.644359
3370.7,0.642552
3372.89,0.641157
3375.09,0.640167
3377.29,0.639398
3379.49,0.63916
3381.69,0.639199
3383.9,0.63989
3386.11,0.640487
3388.32,0.640508
3390.54,0.640487
3392.76,0.640297
3394.98,0.639761
3397.21,0.638853
3399.43,0.637509
3401.66,0.636161
3403.9,0.634743
3406.13,0.633386
3408.37,0.631991
3410.61,0.630638
3412.86,0.629294
3415.11,0.628425
3417.36,0.628265
3419.61,0.628607
3421.87,0.629821
3424.13,0.631312
3426.39,0.63292
3428.66,0.634294
3430.93,0.635569
3433.2,0.636723
3435.48,0.637851
3437.76,0.638762
3440.04,0.6397
3442.32,0.640474
3444.61,0.640724
3446.9,0.641066
3449.19,0.64187
3451.49,0.642393
3453.79,0.642609
3456.09,0.642803
3458.4,0.64317
3460.7,0.643667
3463.02,0.643516
3465.33,0.643283
3467.65,0.642998
3469.97,0.642393
3472.29,0.641926
3474.62,0.641407
3476.95,0.641053
3479.29,0.640547
3481.62,0.640258
3483.96,0.640154
3486.3,0.639839
3488.65,0.639264
3491.0,0.63868
3493.35,0.638201
3495.71,0.637526
3498.07,0.636822
3500.43,0.63639
3502.79,0.636403
3505.16,0.636965
3507.53,0.63798
3509.91,0.639074
3512.29,0.640145
3514.67,0.641269
3517.05,0.642233
3519.44,0.643067
3521.83,0.643741
3524.23,0.644108
3526.62,0.644718
3529.02,0.645392
3531.43,0.6455
3533.83,0.645737
3536.24,0.646023
3538.66,0.646334
3541.08,0.646347
3543.5,0.646464
3545.92,0.6469
3548.35,0.647034
3550.78,0.647146
3553.21,0.647358
3555.65,0.647574
3558.09,0.647527
3560.53,0.647682
3562.98,0.648132
3565.43,0.648136
3567.88,0.648067
3570.34,0.648028
3572.8,0.648209
3575.27,0.648296
3577.73,0.648417
3580.2,0.648646
3582.68,0.648499
3585.16,0.648248
3587.64,0.648175
3590.12,0.648106
3592.61,0.648037
3595.1,0.647678
3597.6,0.647488
3600.09,0.647237
3602.6,0.646887
3605.1,0.646403
3607.61,0.646118
3610.12,0.645971
3612.64,0.645608
3615.16,0.645253
3617.68,0.644864
3620.21,0.644532
3622.74,0.644126
3625.27,0.643745
3627.81,0.643335
3630.35,0.64298
3632.89,0.6426
3635.44,0.642107
3637.99,0.641671
3640.54,0.641191
3643.1,0.640781
3645.66,0.640383
3648.23,0.639912
3650.8,0.639372
3653.37,0.639009
3655.95,0.63846
3658.53,0.637825
3661.11,0.637285
3663.7,0.636874
3666.29,0.636463
3668.89,0.635794
3671.48,0.635098
3674.09,0.634592
3676.69,0.634056
3679.3,0.633689
3681.91,0.633244
3684.53,0.632773
3687.15,0.631978
3689.78,0.631494
3692.4,0.631174
3695.04,0.63059
3697.67,0.630141
3700.31,0.629488
3702.95,0.629013
3705.6,0.62852
3708.25,0.627838
3710.91,0.627077
3713.56,0.626403
3716.23,0.625746
3718.89,0.625028
3721.56,0.624411
3724.23,0.623814
3726.91,0.623261
3729.59,0.622544
3732.28,0.622029
3734.97,0.621372
3737.66,0.620556
3740.36,0.619761
3743.06,0.619073
3745.76,0.618503
3748.47,0.618101
3751.18,0.617552
3753.9,0.616697
3756.62,0.616269
3759.34,0.615767
3762.07,0.614951
3764.8,0.614393
3767.54,0.613896
3770.28,0.613153
3773.02,0.612544
3775.77,0.612107
3778.52,0.611342
3781.28,0.610815
3784.04,0.610085
3786.8,0.60986
3789.57,0.60935
3792.34,0.608736
3795.12,0.608118
3797.9,0.607379
3800.69,0.606658
3803.47,0.606238
3806.27,0.605689
3809.06,0.605128
3811.86,0.604441
3814.67,0.603857
3817.48,0.603304
3820.29,0.602928
3823.11,0.60225
3825.93,0.601714
3828.76,0.60104
3831.59,0.600348
3834.42,0.599933
3837.26,0.599224
3840.1,0.598529
3842.95,0.598001
3845.8,0.59734
3848.65,0.596817
3851.51,0.596329
3854.38,0.595681
3857.24,0.594864
3860.12,0.594216
3862.99,0.593507
3865.87,0.592837
3868.76,0.592077
3871.65,0.591506
3874.54,0.590681
3877.44,0.590076
3880.34,0.58944
3883.25,0.588948
3886.16,0.588382
3889.07,0.587837
3891.99,0.58718
3894.92,0.586657
3897.85,0.586026
3900.78,0.585447
3903.72,0.58505
3906.66,0.584531
3909.6,0.583982
3912.55,0.583498
3915.51,0.583075
3918.47,0.582608
3921.43,0.582072
3924.4,0.581726
3927.38,0.581299
3930.35,0.58097
3933.33,0.580516
3936.32,0.580114
3939.31,0.57973
3942.31,0.579164
3945.31,0.578878
3948.31,0.578498
3951.32,0.578066
3954.34,0.57782
3957.35,0.57753
3960.38,0.577241
3963.41,0.577163
3966.44,0.577094
3969.48,0.576912
3972.52,0.576597
3975.56,0.576411
3978.61,0.576203
3981.67,0.576056
3984.73,0.576009
3987.8,0.575931
3990.87,0.575728
3993.94,0.575624
3997.02,0.575719
4000.1,0.575486
4003.19,0.575283
4006.29,0.57508
4009.39,0.575153
4012.49,0.57514
4015.6,0.575041
4018.71,0.574816
4021.83,0.574773
4024.95,0.57463
4028.08,0.574492
4031.21,0.574553
4034.35,0.574592
4037.49,0.574324
4040.64,0.574146
4043.79,0.573926
4046.94,0.573783
4050.11,0.573619
4053.27,0.573662
4056.44,0.57361
4059.62,0.573528
4062.8,0.573368
4065.99,0.573252
4069.18,0.57304
4072.38,0.572876
4075.58,0.572776
4078.78,0.572629
4082.0,0.572336
4085.21,0.572327
4088.43,0.572267
4091.66,0.572163
4094.89,0.572029
4098.13,0.571834
4101.37,0.571726
4104.62,0.571735
4107.87,0.571601
4111.13,0.571493
4114.39,0.571333
4117.66,0.571272
4120.93,0.571199
4124.21,0.570974
4127.5,0.570711
4130.79,0.570447
4134.08,0.570309
4137.38,0.570361
4140.68,0.570317
4143.99,0.569972
4147.31,0.569773
4150.63,0.569751
4153.95,0.569635
4157.29,0.569479
4160.62,0.569311
4163.96,0.569336
4167.31,0.569298
4170.66,0.569198
4174.02,0.568973
4177.39,0.568857
4180.75,0.56874
4184.13,0.568636
4187.51,0.568515
4190.89,0.568645
4194.28,0.568675
4197.68,0.568537
4201.08,0.568507
4204.49,0.568606
4207.9,0.568412
4211.32,0.5682
4214.74,0.567941
4218.17,0.567681
4221.61,0.567487
4225.05,0.567418
4228.5,0.56737
4231.95,0.567379
4235.4,0.56756
4238.87,0.56788
4242.34,0.56807
4245.81,0.568204
4249.29,0.568567
4252.78,0.569138
4256.27,0.56973
4259.77,0.569967
4263.27,0.569587
4266.78,0.569293
4270.29,0.569345
4273.81,0.569449
4277.34,0.569574
4280.87,0.569712
4284.41,0.569859
4287.95,0.570054
4291.5,0.570395
4295.06,0.570706
4298.62,0.570922
4302.19,0.57119
4305.76,0.571571
4309.34,0.57205
4312.92,0.572262
4316.52,0.572487
4320.11,0.572694
4323.72,0.573148
4327.32,0.573515
4330.94,0.573935
4334.56,0.574306
4338.19,0.574514
4341.82,0.574738
4345.46,0.574972
4349.11,0.575132
4352.76,0.57524
4356.42,0.575482
4360.08,0.57559
4363.75,0.575706
4367.43,0.575711
4371.11,0.575629
4374.8,0.575624
4378.49,0.575884
4382.19,0.576039
4385.9,0.576143
4389.61,0.576074
4393.33,0.576065
4397.06,0.576139
4400.79,0.576195
4404.53,0.576195
4408.28,0.57626
4412.03,0.576342
4415.79,0.576268
4419.55,0.57635
4423.32,0.576415
4427.1,0.576476
4430.88,0.576311
4434.68,0.576242
4438.47,0.576337
4442.28,0.576346
4446.08,0.57642
4449.9,0.576234
4453.72,0.57619
4457.55,0.576238
4461.39,0.576286
4465.23,0.576147
4469.08,0.575996
4472.94,0.575957
4476.8,0.575871
4480.67,0.575732
4484.55,0.575521
4488.43,0.575486
4492.32,0.575279
4496.21,0.574881
4500.12,0.574596
4504.03,0.574509
4507.94,0.574362
4511.87,0.574358
4515.8,0.574155
4519.73,0.574194
4523.68,0.574272
4527.63,0.574449
4531.59,0.574704
4535.55,0.574963
4539.52,0.575222
4543.5,0.575624
4547.49,0.575931
4551.48,0.576225
4555.48,0.576627
4559.49,0.576955
4563.5,0.577249
4567.52,0.577435
4571.55,0.577651
4575.58,0.577751
4579.63,0.577915
4583.67,0.578014
4587.73,0.577984
4591.79,0.578118
4595.86,0.578075
4599.94,0.578014
4604.03,0.577884
4608.12,0.577789
4612.22,0.577647
4616.33,0.577556
4620.44,0.577483
4624.56,0.577292
4628.69,0.577016
4632.83,0.576856
4636.97,0.576765
4641.12,0.576424
4645.28,0.576035
4649.45,0.57575
4653.62,0.575447
4657.8,0.574937
4661.99,0.574483
4666.19,0.574181
4670.39,0.573775
4674.6,0.57333
4678.82,0.57298
4683.05,0.572465
4687.28,0.571752
4691.52,0.571035
4695.77,0.570473
4700.03,0.569946
4704.3,0.569609
4708.57,0.569531
4712.85,0.569341
4717.14,0.569246
4721.43,0.569401
4725.74,0.569816
4730.05,0.570335
4734.37,0.570905
4738.7,0.571571
4743.03,0.572444
4747.38,0.573481
4751.73,0.574756
4756.09,0.576134
4760.45,0.577509
4764.83,0.578831
4769.21,0.580365
4773.6,0.581955
4778.0,0.583563
4782.41,0.585037
4786.83,0.586441
4791.25,0.587781
4795.68,0.588943
4800.13,0.589899
4804.57,0.590758
4809.03,0.59145
4813.5,0.591956
4817.97,0.592466
4822.45,0.592824
4826.94,0.593274
4831.44,0.593749
4835.95,0.594393
4840.46,0.595408
4844.99,0.596848
4849.52,0.598395
4854.06,0.599713
4858.61,0.601264
4863.17,0.602842
4867.73,0.604013
4872.31,0.60495
4876.89,0.605953
4881.48,0.606679
4886.08,0.607314
4890.69,0.608079
4895.31,0.608991
4899.94,0.609531
4904.57,0.610015
4909.22,0.610564
4913.87,0.611061
4918.53,0.611645
4923.21,0.612137
4927.88,0.612353
4932.57,0.612435
4937.27,0.612444
4941.98,0.612293
4946.69,0.611969
4951.42,0.611593
4956.15,0.611243
4960.9,0.611156
4965.65,0.611169
4970.41,0.611562
4975.18,0.612211
4979.96,0.61311
4984.75,0.614181
4989.54,0.615227
4994.35,0.6161
4999.17,0.617029
5003.99,0.617898
5008.83,0.618563
5013.67,0.61919
5018.52,0.619769
5023.39,0.620361
5028.26,0.620806
5033.14,0.621122
5038.03,0.621463
5042.93,0.621723
5047.84,0.621947
5052.76,0.622194
5057.69,0.622479
5062.63,0.622647
5067.58,0.622738
5072.54,0.62276
5077.51,0.622721
5082.49,0.622496
5087.47,0.62241
5092.47,0.622349
5097.48,0.62206
5102.5,0.621848
5107.52,0.62193
5112.56,0.622111
5117.61,0.622319
5122.66,0.622539
5127.73,0.622976
5132.81,0.623434
5137.89,0.623922
5142.99,0.624268
5148.1,0.624627
5153.22,0.62499
5158.34,0.625404
5163.48,0.625573
5168.63,0.625668
5173.79,0.625992
5178.96,0.626308
5184.13,0.626299
5189.32,0.626303
5194.52,0.626252
5199.73,0.626096
5204.96,0.626031
5210.19,0.626022
5215.43,0.625798
5220.68,0.625651
5225.94,0.625392
5231.22,0.625003
5236.5,0.624674
5241.79,0.624514
5247.1,0.624303
5252.42,0.624147
5257.74,0.624108
5263.08,0.624225
5268.43,0.62464
5273.79,0.625093
5279.16,0.62543
5284.54,0.625962
5289.93,0.626511
5295.34,0.626973
5300.75,0.62747
5306.18,0.627721
5311.61,0.627933
5317.06,0.628201
5322.52,0.628551
5327.99,0.628663
5333.47,0.628965
5338.96,0.629169
5344.47,0.629324
5349.98,0.629359
5355.51,0.629523
5361.05,0.629687
5366.6,0.629778
5372.16,0.629912
5377.73,0.629985
5383.32,0.629955
5388.91,0.630076
5394.52,0.630137
5400.14,0.630171
5405.77,0.630245
5411.41,0.630232
5417.07,0.630456
5422.74,0.630396
5428.41,0.630729
5434.1,0.630945
5439.81,0.630997
5445.52,0.631014
5451.25,0.631053
5456.98,0.631027
5462.73,0.630945
5468.5,0.63088
5474.27,0.630854
5480.06,0.630703
5485.86,0.630742
5491.67,0.630612
5497.49,0.630443
5503.33,0.63034
5509.18,0.630288
5515.04,0.630249
5520.91,0.630482
5526.8,0.630625
5532.69,0.630716
5538.61,0.630685
5544.53,0.630763
5550.47,0.630781
5556.41,0.630638
5562.38,0.630409
5568.35,0.630327
5574.34,0.630456
5580.34,0.630621
5586.35,0.631053
5592.38,0.631558
5598.42,0.631887
5604.47,0.632073
5610.54,0.632284
5616.61,0.632466
5622.71,0.632596
5628.81,0.632669
5634.93,0.632781
5641.06,0.632738
5647.21,0.632851
5653.36,0.633049
5659.54,0.633028
5665.72,0.633123
5671.92,0.633097
5678.13,0.633149
5684.36,0.633209
5690.6,0.633101
5696.85,0.633045
5703.12,0.633265
5709.4,0.633175
5715.69,0.633373
5722.0,0.633538
5728.33,0.633784
5734.66,0.633685
5741.01,0.633844
5747.38,0.633819
5753.76,0.633788
5760.15,0.633611
5766.56,0.63317
5772.98,0.633248
5779.41,0.633214
5785.86,0.632764
5792.33,0.632241
5798.81,0.63177
5805.3,0.631208
5811.81,0.630551
5818.33,0.629873
5824.87,0.629082
5831.42,0.628434
5837.99,0.627535
5844.57,0.626472
5851.17,0.625193
5857.78,0.623931
5864.41,0.622379
5871.05,0.620975
5877.7,0.619199
5884.38,0.617656
5891.06,0.616135
5897.76,0.61435
5904.48,0.612703
5911.21,0.611066
5917.96,0.609272
5924.73,0.60731
5931.5,0.605465
5938.3,0.603598
5945.11,0.601986
5951.93,0.600257
5958.78,0.598364
5965.63,0.596247
5972.51,0.594371
5979.39,0.592625
5986.3,0.590758
5993.22,0.589038
6000.16,0.587569
6007.11,0.586147
6014.08,0.584401
6021.06,0.583131
6028.06,0.58199
6035.08,0.580884
6042.12,0.57976
6049.17,0.578481
6056.23,0.577578
6063.32,0.576687
6070.42,0.57543
6077.53,0.574336
6084.67,0.573243
6091.82,0.571964
6098.98,0.570317
6106.17,0.568766
6113.37,0.56699
6120.58,0.565179
6127.82,0.563109
6135.07,0.561113
6142.34,0.558762
6149.63,0.556428
6156.93,0.553921
6164.25,0.551449
6171.59,0.548822
6178.95,0.546264
6186.32,0.543589
6193.71,0.541173
6201.12,0.538722
6208.54,0.536346
6215.99,0.533938
6223.45,0.531851
6230.93,0.529811
6238.43,0.527936
6245.95,0.526376
6253.48,0.52514
6261.03,0.52396
6268.6,0.523178
6276.19,0.522681
6283.8,0.522344
6291.43,0.522434
6299.07,0.522724
6306.73,0.523113
6314.42,0.523761
6322.12,0.524526
6329.84,0.525455
6337.57,0.526389
6345.33,0.527365
6353.11,0.528385
6360.9,0.529245
6368.72,0.529742
6376.55,0.530235
6384.4,0.530654
6392.27,0.530952
6400.17,0.530974
6408.08,0.530676
6416.01,0.530274
6423.96,0.529738
6431.93,0.528882
6439.92,0.527897
6447.93,0.526518
6455.96,0.525153
6464.01,0.52361
6472.08,0.521955
6480.17,0.520062
6488.28,0.518078
6496.41,0.515991
6504.56,0.513692
6512.73,0.511233
6520.92,0.50893
6529.14,0.50638
6537.37,0.503696
6545.63,0.500879
6553.9,0.4981
6562.2,0.495204
6570.51,0.492196
6578.85,0.489284
6587.21,0.486375
6595.59,0.483674
6603.99,0.480978
6612.42,0.478177
6620.86,0.475753
6629.33,0.473341
6637.82,0.471146
6646.33,0.468864
6654.86,0.466872
6663.41,0.464888
6671.99,0.462965
6680.59,0.461085
6689.21,0.459404
6697.85,0.457762
6706.51,0.456544
6715.2,0.455247
6723.91,0.45402
6732.64,0.452931
6741.4,0.451842
6750.18,0.450671
6758.98,0.449715
6767.8,0.448786
6776.65,0.447883
6785.52,0.446738
6794.41,0.445705
6803.33,0.444612
6812.27,0.44373
6821.23,0.442974
6830.22,0.442408
6839.23,0.441945
6848.26,0.441664
6857.32,0.441431
6866.4,0.441245
6875.51,0.44099
6884.64,0.44067
6893.8,0.440411
6902.98,0.440286
6912.18,0.440096
6921.41,0.439728
6930.66,0.439443
6939.94,0.439028
6949.24,0.438389
6958.57,0.437758
6967.92,0.437174
6977.3,0.436383
6986.7,0.43551
6996.13,0.434473
7005.59,0.433406
7015.07,0.432628
7024.57,0.431859
7034.1,0.431115
7043.66,0.430372
7053.25,0.429663
7062.85,0.428691
7072.49,0.428216
7082.15,0.427913
7091.84,0.42784
7101.55,0.427982
7111.3,0.428393
7121.06,0.428782
7130.86,0.428816
7140.68,0.428324
7150.53,0.427507
7160.41,0.426297
7170.31,0.425009
7180.24,0.423561
7190.2,0.421984
7200.19,0.420091
7210.2,0.417779
7220.24,0.415108
7230.31,0.412347
7240.41,0.409361
7250.54,0.406232
7260.69,0.40309
7270.88,0.399814
7281.09,0.396461
7291.33,0.393159
7301.6,0.389659
7311.9,0.386193
7322.22,0.382684
7332.58,0.379222
7342.97,0.375631
7353.38,0.371927
7363.83,0.368336
7374.3,0.364939
7384.81,0.361508
7395.34,0.358241
7405.91,0.354978
7416.5,0.351901
7427.13,0.34901
7437.78,0.346465
7448.47,0.344075
7459.19,0.341905
7469.94,0.339961
7480.71,0.338534
7491.52,0.337251
7502.37,0.336387
7513.24,0.335851
7524.14,0.335613
7535.08,0.335622
7546.05,0.336075
7557.05,0.336732
7568.08,0.337808
7579.15,0.339066
7590.24,0.340514
7601.37,0.3421
7612.53,0.34391
7623.73,0.34576
7634.96,0.347588
7646.22,0.349407
7657.51,0.35149
7668.84,0.353595
7680.2,0.355622
7691.59,0.357536
7703.02,0.35949
7714.49,0.361257
7725.98,0.362973
7737.52,0.364425
7749.08,0.365829
7760.68,0.366996
7772.32,0.368116
7783.99,0.369062
7795.69,0.369926
7807.43,0.370713
7819.21,0.371439
7831.02,0.371923
7842.87,0.37229
7854.75,0.372562
7866.67,0.372783
7878.62,0.372895
7890.62,0.373081
7902.64,0.37309
7914.71,0.372964
7926.81,0.37255
7938.95,0.371897
7951.13,0.37124
7963.34,0.370224
7975.59,0.369122
7987.88,0.368172
8000.21,0.36726
8012.57,0.366266
8024.98,0.365363
8037.42,0.364637
8049.9,0.363872
8062.42,0.363245
8074.98,0.362722
8087.57,0.362398
8100.21,0.362109
8112.89,0.361698
8125.6,0.361309
8138.36,0.361071
8151.16,0.360881
8163.99,0.360687
8176.87,0.360402
8189.79,0.360198
8202.75,0.360069
8215.75,0.35987
8228.79,0.359619
8241.87,0.35949
8254.99,0.359377
8268.16,0.359256
8281.37,0.358962
8294.62,0.358785
8307.91,0.358543
8321.24,0.358172
8334.62,0.35767
8348.04,0.357173
8361.51,0.356633
8375.02,0.355989
8388.57,0.355147
8402.16,0.354248
8415.8,0.353306
8429.49,0.352433
8443.22,0.351404
8456.99,0.350306
8470.81,0.34904
8484.67,0.347752
8498.58,0.346331
8512.54,0.3449
8526.54,0.343267
8540.58,0.341672
8554.68,0.34003
8568.82,0.338366
8583.0,0.336642
8597.24,0.334839
8611.52,0.332908
8625.85,0.331153
8640.23,0.329355
8654.65,0.32748
8669.12,0.32547
8683.64,0.32359
8698.21,0.321585
8712.83,0.319489
8727.5,0.317164
8742.22,0.315068
8756.99,0.312981
8771.8,0.310716
8786.67,0.308232
8801.59,0.305738
8816.56,0.303171
8831.58,0.300643
8846.65,0.298119
8861.77,0.2956
8876.94,0.292864
8892.17,0.290137
8907.45,0.287497
8922.78,0.284973
8938.16,0.282302
8953.6,0.279727
8969.09,0.277224
8984.64,0.274748
9000.23,0.272267
9015.89,0.269847
9031.59,0.267518
9047.36,0.265336
9063.17,0.263045
9079.05,0.261066
9094.97,0.259117
9110.96,0.257202
9127.0,0.255111
9143.1,0.253123
9159.25,0.25117
9175.46,0.249229
9191.73,0.247241
9208.06,0.245353
9224.44,0.243434
9240.88,0.241489
9257.38,0.239207
9273.94,0.237038
9290.56,0.234804
9307.24,0.232379
9323.98,0.229795
9340.78,0.227241
9357.64,0.224579
9374.57,0.222012
9391.55,0.219285
9408.59,0.21642
9425.7,0.213611
9442.87,0.210862
9460.1,0.207963
9477.4,0.205188
9494.75,0.202453
9512.17,0.199838
9529.66,0.197085
9547.21,0.194509
9564.83,0.191947
9582.5,0.18944
9600.25,0.1868
9618.06,0.18412
9635.94,0.181605
9653.88,0.179276
9671.89,0.176769
9689.97,0.174293
9708.12,0.171856
9726.33,0.169527
9744.62,0.167093
9762.97,0.164764
9781.39,0.162439
9799.88,0.160214
9818.44,0.15769
9837.07,0.155261
9855.77,0.152824
9874.54,0.150399
9893.39,0.147772
9912.3,0.145196
9931.29,0.142599
9950.36,0.14004
9969.49,0.137339
9988.7,0.134535
10007.98,0.131644
10027.34,0.128869
10046.77,0.125991
10066.28,0.1231
10085.87,0.120066
10105.53,0.117067
10125.26,0.113839
10145.08,0.110693
10164.97,0.107521
10184.94,0.104366
10204.99,0.101142
10225.12,0.098091
10245.33,0.095023
10265.61,0.09208
10285.98,0.08905
10306.43,0.085995
10326.96,0.082983
10347.57,0.080165
10368.27,0.077378
10389.05,0.074698
10409.91,0.072041
10430.86,0.069538
10451.88,0.066915
10473.0,0.064556
10494.2,0.062174
10515.49,0.059811
10536.86,0.057486
10558.32,0.055377
10579.87,0.05309
10601.5,0.05102
10623.23,0.048903
10645.04,0.047036
10666.94,0.044996
10688.94,0.043008
10711.02,0.041016
10733.2,0.039227
10755.47,0.037373
10777.83,0.035709
10800.28,0.033937
10822.83,0.032304
10845.47,0.030614
10868.21,0.029136
10891.04,0.027528
10913.97,0.026072
10936.99,0.024482
10960.12,0.023073
10983.34,0.021452
11006.66,0.02016
11030.07,0.018829
11053.59,0.017597
11077.21,0.016344
11100.93,0.015355
11124.75,0.014352
11148.68,0.013418
11172.71,0.012567
11196.84,0.011802
11221.07,0.010964
11245.41,0.010281
11269.86,0.009711
11294.41,0.00952
11319.07,0.009201
11343.84,0.008933
11368.72,0.008734
11393.7,0.008868
11418.8,0.009131
11444.01,0.009469
11469.33,0.009987
11494.76,0.011132
11520.3,0.012291
11545.96,0.013712
11571.73,0.015337
11597.62,0.017342
11623.62,0.019533
11649.74,0.02223
11675.98,0.025169
11702.34,0.028579
11728.81,0.032178
11755.41,0.036042
11782.13,0.040139
11808.96,0.044806
11835.92,0.049573
11863.01,0.054417
11890.22,0.059435
11917.55,0.064953
11945.01,0.070558
11972.6,0.076228
12000.31,0.081851
12028.16,0.087693
12056.13,0.093389
12084.23,0.099249
12112.46,0.104962
12140.83,0.110546
12169.33,0.116151
12197.96,0.121812
12226.73,0.127339
12255.64,0.133005
12284.68,0.138472
12313.86,0.144008
12343.18,0.149297
12372.64,0.1546
12402.24,0.159626
12431.98,0.164686
12461.86,0.169354
12491.89,0.173567
12522.07,0.177487
12552.38,0.180892
12582.85,0.184064
12613.47,0.186726
12644.23,0.188801
12675.15,0.190534
12706.21,0.1918
12737.43,0.192647
12768.81,0.193148
12800.33,0.193745
12832.02,0.194129
12863.86,0.194475
12895.86,0.194829
12928.02,0.195166
12960.34,0.195257
12992.82,0.19556
13025.46,0.19581
13058.27,0.196117
13091.25,0.196493
13124.39,0.196878
13157.7,0.197418
13191.18,0.198066
13224.83,0.198364
13258.66,0.198719
13292.65,0.199423
13326.83,0.200158
13361.17,0.200573
13395.7,0.201057
13430.4,0.20161
13465.29,0.202435
13500.35,0.203217
13535.6,0.203835
13571.03,0.204376
13606.65,0.204985
13642.46,0.205443
13678.46,0.205875
13714.64,0.206329
13751.02,0.206899
13787.59,0.207271
13824.36,0.207522
13861.32,0.207682
13898.49,0.207932
13935.85,0.208179
13973.41,0.20814
14011.17,0.208075
14049.15,0.208144
14087.32,0.208213
14125.71,0.208192
14164.3,0.20766
14203.11,0.207491
14242.13,0.207198
14281.36,0.20677
14320.81,0.206424
14360.49,0.206294
14400.38,0.205763
14440.49,0.205231
14480.82,0.204791
14521.39,0.204332
14562.18,0.203598
14603.2,0.203261
14644.45,0.203144
14685.93,0.202522
14727.66,0.201878
14769.62,0.201549
14811.81,0.201013
14854.25,0.200676
14896.94,0.200443
14939.87,0.200063
14983.05,0.199561
15026.48,0.199272
15070.16,0.198796
15114.1,0.198796
15158.29,0.198892
15202.74,0.198611
15247.46,0.198196
15292.43,0.198204
15337.68,0.198114
15383.19,0.198083
15428.97,0.197889
15475.03,0.197669
15521.36,0.197573
15567.97,0.197392
15614.87,0.197262
15662.04,0.197409
15709.5,0.197375
15757.25,0.197146
15805.29,0.197051
15853.62,0.197059
15902.26,0.196925
15951.19,0.197128
16000.42,0.19718
16049.95,0.197327
16099.8,0.197107
16149.95,0.196912
16200.42,0.197025
16251.21,0.197193
16302.31,0.197003
16353.74,0.196895
16405.49,0.196696
16457.57,0.196679
16509.98,0.196312
16562.73,0.195936
16615.82,0.19565
16669.24,0.195421
16723.02,0.194976
16777.14,0.194592
16831.61,0.193965
16886.43,0.193274
16941.62,0.192725
16997.16,0.192556
17053.08,0.192159
17109.36,0.191744
17166.01,0.191242
17223.04,0.190166
17280.45,0.188554
17338.24,0.187461
17396.43,0.185983
17455.0,0.185136
17513.97,0.18422
17573.34,0.183222
17633.11,0.182271
17693.29,0.181463
17753.89,0.180123
17814.9,0.178472
17876.33,0.176618
17938.18,0.175253
18000.47,0.172547
18063.19,0.168606
18126.35,0.165378
18189.95,0.163208
18254.0,0.16049
18318.5,0.156428
18383.46,0.151423
18448.88,0.146596
18514.77,0.142789
18581.13,0.138748
18647.97,0.133052
18715.29,0.127443
18783.1,0.122032
18851.4,0.117257
18920.2,0.112724
18989.51,0.107633
19059.32,0.102062
19129.65,0.096743
19200.5,0.092858
19271.88,0.089711
19343.79,0.085476
19416.24,0.080662
19489.23,0.076924
19562.77,0.073717
19636.88,0.070334
19711.54,0.068311
19786.78,0.066898
19862.59,0.066574
19938.98,0.067754
20015.96,0.070122
20093.55,0.072628
20171.73,0.075256
20250.53,0.078851
20329.94,0.082114
20409.98,0.083506
20490.65,0.086928
20571.96,0.091276
20653.92,0.096406
20736.54,0.103069
20819.82,0.111795
20903.77,0.120421
20988.4,0.130386
21073.72,0.141998
21159.73,0.154427
21246.46,0.165166
21333.89,0.172876
21422.04,0.179695
21510.93,0.185443
21600.56,0.187582
21690.94,0.188299
21782.08,0.189622
21873.99,0.19234
21966.67,0.193706
22060.15,0.193632
22154.42,0.192712
22249.51,0.192573
22345.41,0.191471
22442.14,0.190495
22539.72,0.189337
22638.14,0.187681
22737.43,0.185127
22837.6,0.182975
22938.65,0.180184
23040.6,0.177042
23143.46,0.173329
23247.24,0.169639
23351.96,0.164522
23457.63,0.161506
23564.25,0.160278
23671.85,0.15998
23780.44,0.15963
23890.02,0.160736
24000.63,0.161657
24112.26,0.165119
24224.93,0.168619
24338.66,0.173252
24453.47,0.177699
24569.36,0.182081
24686.36,0.186428
24804.47,0.191999
24923.73,0.194272
25044.13,0.196454
25165.71,0.198252
25288.46,0.199337
25412.43,0.201956
25537.61,0.205473
25664.04,0.205659
25791.72,0.207215
25920.68,0.211511
