Database of Origin,University of Winnipeg Spectrophotometer Facility
Sample Description,RELAB + Nicolet spectral data. See Master Chromites in HOSERLAB sample database for additional info
Date Added,2016-11-30 00:50:18.109939

Data ID,RLA_CHR_06          
Sample ID,CHR106
Mineral Name,Chromite
Grain Size,<45
Viewing Geometry,"30/0,30"
Resolution,1.2-129
Formula,FeCr2O4
Material Class,Oxide

Wavelength
305.0,0.046276
310.0,0.046359
315.0,0.048326
320.0,0.049753
325.0,0.050636
330.0,0.050815
335.0,0.05114
340.0,0.05213
345.0,0.052456
350.0,0.050556
355.0,0.053479
360.0,0.053673
365.0,0.05418
370.0,0.054516
375.0,0.055069
380.0,0.055243
385.0,0.055705
390.0,0.056382
395.0,0.056685
400.0,0.057319
405.0,0.058208
410.0,0.058606
415.0,0.05898
420.0,0.059653
425.0,0.060708
430.0,0.061972
435.0,0.063057
440.0,0.064228
445.0,0.065143
450.0,0.065934
455.0,0.067118
460.0,0.067606
465.0,0.068648
470.0,0.069297
475.0,0.070191
480.0,0.071073
485.0,0.072247
490.0,0.07331
495.0,0.07459
500.0,0.075736
505.0,0.07717
510.0,0.078635
515.0,0.08056
520.0,0.082393
525.0,0.084115
530.0,0.086108
535.0,0.087807
540.0,0.089675
545.0,0.090922
550.0,0.092039
555.0,0.093094
560.0,0.094081
565.0,0.094944
570.0,0.095949
575.0,0.097172
580.0,0.098469
585.0,0.099807
590.0,0.101479
595.0,0.103383
600.0,0.105241
605.0,0.107329
610.0,0.110313
615.0,0.112979
620.0,0.116185
625.0,0.118835
630.0,0.121443
635.0,0.123858
640.0,0.125598
645.0,0.126664
650.0,0.127282
655.0,0.127686
660.0,0.128127
665.0,0.128439
670.0,0.129253
675.0,0.129896
680.0,0.130622
685.0,0.130981
690.0,0.131243
695.0,0.131793
700.0,0.132652
705.0,0.133375
710.0,0.134339
715.0,0.135586
720.0,0.136607
725.0,0.137534
730.0,0.138879
735.0,0.139615
740.0,0.141241
745.0,0.142719
750.0,0.143688
755.0,0.145263
760.0,0.146875
765.0,0.147834
770.0,0.149926
775.0,0.150885
780.0,0.152601
785.0,0.154627
790.0,0.156002
795.0,0.15739
800.0,0.159628
805.0,0.161565
810.0,0.163339
815.0,0.165541
820.0,0.167629
825.0,0.169335
830.0,0.171069
835.0,0.173111
840.0,0.174709
845.0,0.176544
850.0,0.178552
855.0,0.179968
860.0,0.181418
865.0,0.18329
870.0,0.185199
875.0,0.187034
880.0,0.189134
885.0,0.190496
890.0,0.192314
895.0,0.193849
900.0,0.195595
905.0,0.196932
910.0,0.199312
915.0,0.201129
920.0,0.202284
925.0,0.204113
930.0,0.205609
935.0,0.208942
940.0,0.210729
945.0,0.212479
950.0,0.215206
955.0,0.216763
960.0,0.2194
965.0,0.221486
970.0,0.224246
975.0,0.226912
980.0,0.229446
985.0,0.232046
990.0,0.235249
995.0,0.237779
1000.0,0.241032
1005.0,0.24413
1010.0,0.246941
1015.0,0.250271
1020.0,0.25274
1025.0,0.256037
1030.0,0.25899
1035.0,0.261668
1040.0,0.264679
1045.0,0.268079
1050.0,0.269813
1055.0,0.273237
1060.0,0.276244
1065.0,0.278462
1070.0,0.280127
1075.0,0.283219
1080.0,0.286206
1085.0,0.287823
1090.0,0.290508
1095.0,0.292032
1100.0,0.294296
1105.0,0.295571
1110.0,0.298011
1115.0,0.299467
1120.0,0.301427
1125.0,0.302717
1130.0,0.303424
1135.0,0.304667
1140.0,0.30646
1145.0,0.307729
1150.0,0.308769
1155.0,0.309887
1160.0,0.310531
1165.0,0.31226
1170.0,0.313036
1175.0,0.313594
1180.0,0.314709
1185.0,0.314544
1190.0,0.315719
1195.0,0.317137
1200.0,0.318179
1205.0,0.319728
1210.0,0.320458
1215.0,0.321183
1220.0,0.321957
1225.0,0.322875
1230.0,0.324186
1235.0,0.325567
1240.0,0.324941
1245.0,0.326647
1250.0,0.327666
1255.0,0.328774
1260.0,0.330202
1265.0,0.330778
1270.0,0.332015
1275.0,0.333278
1280.0,0.334247
1285.0,0.335834
1290.0,0.337042
1295.0,0.33898
1300.0,0.339255
1305.0,0.341664
1310.0,0.343647
1315.0,0.345001
1320.0,0.347441
1325.0,0.349414
1330.0,0.349837
1335.0,0.352858
1340.0,0.35252
1345.0,0.354962
1350.0,0.35573
1355.0,0.356035
1360.0,0.358808
1365.0,0.359634
1370.0,0.361512
1375.0,0.363513
1380.0,0.364861
1385.0,0.3645
1390.0,0.364451
1395.0,0.36568
1400.0,0.367124
1405.0,0.368516
1410.0,0.368376
1415.0,0.369049
1420.0,0.369904
1425.0,0.370392
1430.0,0.37082
1435.0,0.371386
1440.0,0.371339
1445.0,0.370828
1450.0,0.370687
1455.0,0.370266
1460.0,0.36934
1465.0,0.368494
1470.0,0.366754
1475.0,0.363629
1480.0,0.363033
1485.0,0.360349
1490.0,0.358693
1495.0,0.355883
1500.0,0.351531
1505.0,0.348436
1510.0,0.345711
1515.0,0.341825
1520.0,0.338789
1525.0,0.335008
1530.0,0.330394
1535.0,0.327608
1540.0,0.323859
1545.0,0.31827
1550.0,0.314134
1555.0,0.310778
1560.0,0.306018
1565.0,0.301595
1570.0,0.296624
1575.0,0.292138
1580.0,0.289282
1585.0,0.282212
1590.0,0.278323
1595.0,0.27318
1600.0,0.268857
1605.0,0.265258
1610.0,0.259658
1615.0,0.256293
1620.0,0.251611
1625.0,0.248126
1630.0,0.24282
1635.0,0.238896
1640.0,0.234967
1645.0,0.231221
1650.0,0.226329
1655.0,0.222222
1660.0,0.218699
1665.0,0.21542
1670.0,0.210495
1675.0,0.207222
1680.0,0.203359
1685.0,0.199809
1690.0,0.196067
1695.0,0.192739
1700.0,0.190505
1705.0,0.186219
1710.0,0.182833
1715.0,0.179946
1720.0,0.176541
1725.0,0.173609
1730.0,0.170619
1735.0,0.167166
1740.0,0.164399
1745.0,0.161392
1750.0,0.158837
1755.0,0.155744
1760.0,0.153573
1765.0,0.151035
1770.0,0.148581
1775.0,0.146127
1780.0,0.143991
1785.0,0.141566
1790.0,0.138932
1795.0,0.137205
1800.0,0.13456
1805.0,0.133037
1810.0,0.130557
1815.0,0.128758
1820.0,0.126587
1825.0,0.125435
1830.0,0.12333
1835.0,0.121216
1840.0,0.120459
1845.0,0.118859
1850.0,0.117118
1855.0,0.115364
1860.0,0.1144
1865.0,0.112746
1870.0,0.111113
1875.0,0.111007
1880.0,0.109213
1885.0,0.107104
1890.0,0.105877
1895.0,0.105049
1900.0,0.102981
1905.0,0.102671
1910.0,0.102247
1915.0,0.101087
1920.0,0.099674
1925.0,0.099767
1930.0,0.098526
1935.0,0.097195
1940.0,0.096668
1945.0,0.095726
1950.0,0.09502
1955.0,0.093981
1960.0,0.093675
1965.0,0.092976
1970.0,0.0924
1975.0,0.091923
1980.0,0.090924
1985.0,0.090668
1990.0,0.09032
1995.0,0.089703
2000.0,0.089447
2005.0,0.088926
2010.0,0.088376
2015.0,0.088012
2020.0,0.087681
2025.0,0.087131
2030.0,0.086734
2035.0,0.086278
2040.0,0.085819
2045.0,0.085514
2050.0,0.084886
2055.0,0.08466
2060.0,0.084441
2065.0,0.084096
2070.0,0.084325
2075.0,0.083909
2080.0,0.083651
2085.0,0.083439
2090.0,0.083265
2095.0,0.083113
2100.0,0.083068
2105.0,0.082579
2110.0,0.082322
2115.0,0.082272
2120.0,0.081826
2125.0,0.08166
2130.0,0.081725
2135.0,0.08138
2140.0,0.081001
2145.0,0.08096
2150.0,0.080822
2155.0,0.080807
2160.0,0.080463
2165.0,0.080419
2170.0,0.080191
2175.0,0.080052
2180.0,0.079936
2185.0,0.079865
2190.0,0.079733
2195.0,0.07986
2200.0,0.079516
2205.0,0.0794
2210.0,0.079286
2215.0,0.079372
2220.0,0.079152
2225.0,0.079264
2230.0,0.078835
2235.0,0.07908
2240.0,0.078937
2245.0,0.078809
2250.0,0.078794
2255.0,0.079102
2260.0,0.079051
2265.0,0.078945
2270.0,0.078952
2275.0,0.07898
2280.0,0.079013
2285.0,0.079163
2290.0,0.079314
2295.0,0.079214
2300.0,0.079865
2305.0,0.080162
2310.0,0.080208
2315.0,0.080361
2320.0,0.080402
2325.0,0.080447
2330.0,0.080579
2335.0,0.080806
2340.0,0.081063
2345.0,0.081346
2350.0,0.081547
2355.0,0.081709
2360.0,0.082165
2365.0,0.082122
2370.0,0.082881
2375.0,0.08284
2380.0,0.08336
2385.0,0.083543
2390.0,0.084211
2395.0,0.084322
2400.0,0.084741
2405.0,0.085242
2410.0,0.085661
2415.0,0.085505
2420.0,0.086151
2425.0,0.086881
2430.0,0.086947
2435.0,0.087144
2440.0,0.087672
2445.0,0.087822
2450.0,0.087854
2455.0,0.088511
2460.0,0.088652
2465.0,0.089018
2470.0,0.089114
2475.0,0.090093
2480.0,0.08996
2485.0,0.090306
2490.0,0.09071
2495.0,0.090801
2500.0,0.091203
2502.0,0.091254
2503.2,0.091351
2504.41,0.091513
2505.62,0.09138
2506.83,0.091369
2508.05,0.091518
2509.26,0.091627
2510.48,0.091524
2511.69,0.091592
2512.91,0.091611
2514.13,0.091661
2515.35,0.091643
2516.57,0.091653
2517.79,0.091698
2519.02,0.091631
2520.24,0.091591
2521.47,0.091764
2522.69,0.091886
2523.92,0.091978
2525.15,0.092086
2526.38,0.092309
2527.61,0.092144
2528.85,0.091886
2530.08,0.09191
2531.32,0.092042
2532.55,0.091947
2533.79,0.091944
2535.03,0.092189
2536.27,0.092402
2537.51,0.092185
2538.75,0.091919
2540.0,0.092001
2541.24,0.092231
2542.49,0.092249
2543.74,0.092273
2544.99,0.092133
2546.24,0.092043
2547.49,0.092178
2548.74,0.092119
2549.99,0.0922
2551.25,0.092426
2552.5,0.092386
2553.76,0.092437
2555.02,0.092402
2556.28,0.092499
2557.54,0.092602
2558.8,0.092626
2560.07,0.092639
2561.33,0.092512
2562.6,0.09227
2563.86,0.092297
2565.13,0.092409
2566.4,0.09256
2567.67,0.093012
2568.95,0.092965
2570.22,0.0925
2571.5,0.092389
2572.77,0.092664
2574.05,0.092623
2575.33,0.092882
2576.61,0.092867
2577.89,0.092623
2579.17,0.09278
2580.46,0.092986
2581.74,0.093086
2583.03,0.093103
2584.31,0.092704
2585.6,0.092726
2586.89,0.093076
2588.19,0.0927
2589.48,0.092634
2590.77,0.092889
2592.07,0.092957
2593.36,0.092832
2594.66,0.092466
2595.96,0.092087
2597.26,0.092753
2598.56,0.093346
2599.87,0.093382
2601.17,0.093324
2602.48,0.09334
2603.78,0.093277
2605.09,0.093152
2606.4,0.09301
2607.71,0.093349
2609.03,0.093559
2610.34,0.093448
2611.66,0.093288
2612.97,0.093396
2614.29,0.093333
2615.61,0.093503
2616.93,0.093458
2618.25,0.093252
2619.57,0.093561
2620.9,0.093122
2622.22,0.092951
2623.55,0.093516
2624.88,0.093732
2626.21,0.093716
2627.54,0.093469
2628.87,0.09357
2630.21,0.09345
2631.54,0.093012
2632.88,0.093348
2634.21,0.09363
2635.55,0.093593
2636.89,0.09369
2638.24,0.093838
2639.58,0.09379
2640.92,0.093546
2642.27,0.093382
2643.62,0.093498
2644.97,0.093524
2646.32,0.093506
2647.67,0.093647
2649.02,0.093674
2650.38,0.093522
2651.73,0.093554
2653.09,0.093377
2654.45,0.093292
2655.81,0.093442
2657.17,0.093282
2658.53,0.093425
2659.89,0.093383
2661.26,0.093344
2662.63,0.093409
2664.0,0.09338
2665.36,0.093078
2666.74,0.092878
2668.11,0.09288
2669.48,0.092913
2670.86,0.092278
2672.23,0.092257
2673.61,0.093222
2674.99,0.093448
2676.37,0.093229
2677.76,0.092563
2679.14,0.092467
2680.52,0.092634
2681.91,0.092844
2683.3,0.092756
2684.69,0.092538
2686.08,0.092475
2687.47,0.092373
2688.87,0.092334
2690.26,0.092443
2691.66,0.09222
2693.06,0.091956
2694.46,0.091582
2695.86,0.091187
2697.26,0.091079
2698.66,0.09115
2700.07,0.091006
2701.48,0.090614
2702.89,0.090044
2704.3,0.08982
2705.71,0.089586
2707.12,0.089006
2708.53,0.08801
2709.95,0.086791
2711.37,0.08544
2712.79,0.083926
2714.21,0.082406
2715.63,0.080803
2717.05,0.079173
2718.48,0.077797
2719.9,0.076849
2721.33,0.075561
2722.76,0.074992
2724.19,0.075025
2725.62,0.074386
2727.06,0.074334
2728.49,0.074818
2729.93,0.075133
2731.37,0.075464
2732.81,0.075819
2734.25,0.075733
2735.69,0.075551
2737.14,0.075613
2738.58,0.075601
2740.03,0.075112
2741.48,0.074769
2742.93,0.074544
2744.38,0.074309
2745.83,0.073821
2747.29,0.073236
2748.75,0.072808
2750.2,0.072729
2751.66,0.072271
2753.13,0.071619
2754.59,0.071087
2756.05,0.07011
2757.52,0.069489
2758.99,0.069418
2760.46,0.069099
2761.93,0.06866
2763.4,0.067887
2764.87,0.066977
2766.35,0.066501
2767.82,0.06597
2769.3,0.064932
2770.78,0.063953
2772.26,0.063187
2773.75,0.062609
2775.23,0.062164
2776.72,0.061543
2778.21,0.06059
2779.7,0.059593
2781.19,0.058441
2782.68,0.057524
2784.18,0.05724
2785.67,0.056795
2787.17,0.056099
2788.67,0.055614
2790.17,0.055423
2791.67,0.055064
2793.18,0.054532
2794.68,0.053971
2796.19,0.053516
2797.7,0.053158
2799.21,0.052818
2800.72,0.052681
2802.24,0.052674
2803.75,0.052589
2805.27,0.052492
2806.79,0.052625
2808.31,0.052751
2809.83,0.052788
2811.35,0.052818
2812.88,0.052979
2814.41,0.053073
2815.93,0.053287
2817.46,0.053578
2819.0,0.053733
2820.53,0.054165
2822.07,0.054532
2823.6,0.054587
2825.14,0.054736
2826.68,0.054875
2828.22,0.055209
2829.77,0.055416
2831.31,0.055372
2832.86,0.055377
2834.41,0.055562
2835.96,0.055989
2837.51,0.056444
2839.07,0.056807
2840.62,0.056878
2842.18,0.056898
2843.74,0.057189
2845.3,0.057476
2846.86,0.057706
2848.43,0.057835
2849.99,0.057977
2851.56,0.058124
2853.13,0.058444
2854.7,0.058989
2856.27,0.059383
2857.85,0.059202
2859.42,0.059148
2861.0,0.059317
2862.58,0.059538
2864.16,0.059541
2865.75,0.059489
2867.33,0.059519
2868.92,0.059561
2870.51,0.059429
2872.1,0.059367
2873.69,0.059589
2875.28,0.059569
2876.88,0.059133
2878.48,0.058807
2880.07,0.058673
2881.68,0.058712
2883.28,0.059074
2884.88,0.059145
2886.49,0.058744
2888.1,0.058336
2889.71,0.058092
2891.32,0.058003
2892.93,0.057798
2894.55,0.05755
2896.16,0.057224
2897.78,0.057078
2899.4,0.056914
2901.03,0.056769
2902.65,0.056785
2904.28,0.056704
2905.91,0.056541
2907.54,0.056574
2909.17,0.056854
2910.8,0.057141
2912.44,0.05716
2914.07,0.05674
2915.71,0.056642
2917.35,0.05674
2918.99,0.056663
2920.64,0.056463
2922.29,0.056347
2923.93,0.056447
2925.58,0.056466
2927.24,0.056416
2928.89,0.056556
2930.55,0.056858
2932.2,0.057029
2933.86,0.057195
2935.52,0.057426
2937.19,0.057443
2938.85,0.057523
2940.52,0.058109
2942.19,0.058719
2943.86,0.058577
2945.53,0.05834
2947.21,0.05874
2948.88,0.059207
2950.56,0.059225
2952.24,0.059041
2953.92,0.059074
2955.61,0.059246
2957.29,0.059548
2958.98,0.059893
2960.67,0.060153
2962.36,0.060326
2964.06,0.060526
2965.75,0.060687
2967.45,0.06129
2969.15,0.061923
2970.85,0.062078
2972.55,0.061938
2974.26,0.061986
2975.97,0.062236
2977.68,0.062435
2979.39,0.062611
2981.1,0.062837
2982.82,0.063289
2984.53,0.06389
2986.25,0.064187
2987.97,0.064113
2989.7,0.064316
2991.42,0.06458
2993.15,0.06488
2994.88,0.065419
2996.61,0.065885
2998.34,0.065848
3000.08,0.065936
3001.82,0.066366
3003.55,0.066692
3005.3,0.066855
3007.04,0.067311
3008.78,0.067677
3010.53,0.067745
3012.28,0.067984
3014.03,0.068292
3015.79,0.068627
3017.54,0.068889
3019.3,0.069249
3021.06,0.069651
3022.82,0.070001
3024.58,0.070503
3026.35,0.071055
3028.12,0.071106
3029.89,0.071045
3031.66,0.071312
3033.43,0.071579
3035.21,0.071946
3036.99,0.072338
3038.77,0.072809
3040.55,0.073104
3042.33,0.073191
3044.12,0.07333
3045.91,0.073508
3047.7,0.073872
3049.49,0.074214
3051.29,0.074399
3053.08,0.074709
3054.88,0.075084
3056.68,0.075426
3058.49,0.075892
3060.29,0.076039
3062.1,0.07612
3063.91,0.076348
3065.72,0.076556
3067.54,0.076803
3069.35,0.077145
3071.17,0.077416
3072.99,0.077829
3074.81,0.077997
3076.64,0.078144
3078.47,0.078429
3080.29,0.078893
3082.13,0.079191
3083.96,0.079234
3085.79,0.079424
3087.63,0.079772
3089.47,0.080121
3091.31,0.080292
3093.16,0.08073
3095.01,0.081089
3096.85,0.080984
3098.71,0.081075
3100.56,0.081409
3102.41,0.081606
3104.27,0.081741
3106.13,0.081932
3107.99,0.082163
3109.86,0.082335
3111.73,0.082526
3113.59,0.082772
3115.47,0.083003
3117.34,0.083258
3119.21,0.083538
3121.09,0.083769
3122.97,0.083923
3124.86,0.084008
3126.74,0.084276
3128.63,0.084527
3130.52,0.084639
3132.41,0.084801
3134.3,0.085092
3136.2,0.085311
3138.1,0.085474
3140.0,0.085578
3141.9,0.085754
3143.81,0.086034
3145.71,0.086276
3147.62,0.086468
3149.54,0.086667
3151.45,0.086802
3153.37,0.086993
3155.29,0.087169
3157.21,0.08729
3159.13,0.087387
3161.06,0.087558
3162.99,0.087837
3164.92,0.088061
3166.85,0.088337
3168.79,0.088465
3170.72,0.088689
3172.67,0.089175
3174.61,0.089424
3176.55,0.089304
3178.5,0.08932
3180.45,0.089494
3182.4,0.089765
3184.36,0.09013
3186.32,0.090435
3188.27,0.090588
3190.24,0.090712
3192.2,0.090879
3194.17,0.091004
3196.14,0.091144
3198.11,0.091337
3200.08,0.091535
3202.06,0.091799
3204.04,0.092182
3206.02,0.092672
3208.0,0.092928
3209.99,0.09311
3211.98,0.09321
3213.97,0.093052
3215.96,0.093169
3217.96,0.093639
3219.96,0.093758
3221.96,0.093706
3223.96,0.093796
3225.97,0.093963
3227.98,0.094297
3229.99,0.094494
3232.0,0.094536
3234.02,0.094719
3236.04,0.095111
3238.06,0.095407
3240.08,0.095552
3242.11,0.095756
3244.14,0.096075
3246.17,0.096298
3248.2,0.09654
3250.24,0.096773
3252.28,0.096745
3254.32,0.096667
3256.37,0.096925
3258.41,0.097177
3260.46,0.097492
3262.51,0.097703
3264.57,0.097724
3266.63,0.097911
3268.69,0.098076
3270.75,0.098166
3272.81,0.098424
3274.88,0.098694
3276.95,0.098965
3279.02,0.099267
3281.1,0.099422
3283.18,0.099535
3285.26,0.099961
3287.34,0.100346
3289.43,0.100575
3291.51,0.100532
3293.61,0.100571
3295.7,0.100936
3297.8,0.101295
3299.9,0.101278
3302.0,0.101389
3304.1,0.10163
3306.21,0.10191
3308.32,0.102218
3310.43,0.102423
3312.55,0.102551
3314.66,0.102818
3316.79,0.103138
3318.91,0.103624
3321.03,0.103943
3323.16,0.103985
3325.29,0.103906
3327.43,0.104033
3329.57,0.104286
3331.71,0.104467
3333.85,0.104812
3335.99,0.105234
3338.14,0.105437
3340.29,0.105594
3342.45,0.105945
3344.6,0.106118
3346.76,0.106103
3348.92,0.106345
3351.09,0.106596
3353.26,0.106854
3355.43,0.107188
3357.6,0.107476
3359.78,0.107608
3361.96,0.107806
3364.14,0.107971
3366.32,0.108193
3368.51,0.108369
3370.7,0.108541
3372.89,0.108749
3375.09,0.109031
3377.29,0.109275
3379.49,0.109537
3381.69,0.109767
3383.9,0.110026
3386.11,0.110303
3388.32,0.110645
3390.54,0.110899
3392.76,0.111176
3394.98,0.11167
3397.21,0.111946
3399.43,0.111971
3401.66,0.112054
3403.9,0.112198
3406.13,0.112349
3408.37,0.112487
3410.61,0.11269
3412.86,0.113007
3415.11,0.113364
3417.36,0.113535
3419.61,0.113667
3421.87,0.11402
3424.13,0.114387
3426.39,0.114766
3428.66,0.115394
3430.93,0.11594
3433.2,0.116451
3435.48,0.116755
3437.76,0.116948
3440.04,0.117191
3442.32,0.117555
3444.61,0.117895
3446.9,0.118167
3449.19,0.118497
3451.49,0.118843
3453.79,0.119255
3456.09,0.119599
3458.4,0.119813
3460.7,0.120231
3463.02,0.120649
3465.33,0.120967
3467.65,0.121251
3469.97,0.121583
3472.29,0.121899
3474.62,0.12223
3476.95,0.122523
3479.29,0.122902
3481.62,0.123367
3483.96,0.123729
3486.3,0.123978
3488.65,0.124271
3491.0,0.124521
3493.35,0.124878
3495.71,0.125236
3498.07,0.125634
3500.43,0.125982
3502.79,0.12629
3505.16,0.126575
3507.53,0.126977
3509.91,0.12749
3512.29,0.127928
3514.67,0.128335
3517.05,0.128767
3519.44,0.129188
3521.83,0.129746
3524.23,0.130315
3526.62,0.130664
3529.02,0.130856
3531.43,0.131231
3533.83,0.131673
3536.24,0.132113
3538.66,0.132493
3541.08,0.132894
3543.5,0.133359
3545.92,0.133838
3548.35,0.134275
3550.78,0.134716
3553.21,0.135097
3555.65,0.135476
3558.09,0.135892
3560.53,0.136311
3562.98,0.136737
3565.43,0.137175
3567.88,0.13756
3570.34,0.137963
3572.8,0.138472
3575.27,0.138987
3577.73,0.139402
3580.2,0.139766
3582.68,0.140146
3585.16,0.140619
3587.64,0.141159
3590.12,0.141632
3592.61,0.142018
3595.1,0.142419
3597.6,0.142784
3600.09,0.143189
3602.6,0.143704
3605.1,0.144257
3607.61,0.144631
3610.12,0.145132
3612.64,0.145623
3615.16,0.146045
3617.68,0.146459
3620.21,0.146952
3622.74,0.147377
3625.27,0.147804
3627.81,0.148269
3630.35,0.148797
3632.89,0.149194
3635.44,0.149696
3637.99,0.150169
3640.54,0.15057
3643.1,0.151017
3645.66,0.151503
3648.23,0.151887
3650.8,0.152291
3653.37,0.152943
3655.95,0.153475
3658.53,0.153891
3661.11,0.154383
3663.7,0.154889
3666.29,0.155415
3668.89,0.155865
3671.48,0.156398
3674.09,0.156847
3676.69,0.15731
3679.3,0.157807
3681.91,0.158303
3684.53,0.158874
3687.15,0.159428
3689.78,0.159841
3692.4,0.160305
3695.04,0.16084
3697.67,0.161433
3700.31,0.161943
3702.95,0.162404
3705.6,0.162908
3708.25,0.163445
3710.91,0.163957
3713.56,0.164504
3716.23,0.164979
3718.89,0.165485
3721.56,0.1661
3724.23,0.166693
3726.91,0.167164
3729.59,0.167634
3732.28,0.16822
3734.97,0.168784
3737.66,0.169267
3740.36,0.169746
3743.06,0.170313
3745.76,0.170935
3748.47,0.171527
3751.18,0.172067
3753.9,0.172607
3756.62,0.173172
3759.34,0.173707
3762.07,0.174238
3764.8,0.174788
3767.54,0.175409
3770.28,0.175967
3773.02,0.176508
3775.77,0.177082
3778.52,0.177662
3781.28,0.178202
3784.04,0.178751
3786.8,0.179284
3789.57,0.179894
3792.34,0.180521
3795.12,0.181172
3797.9,0.18166
3800.69,0.18228
3803.47,0.182962
3806.27,0.183605
3809.06,0.184168
3811.86,0.184747
3814.67,0.185311
3817.48,0.185889
3820.29,0.186548
3823.11,0.187185
3825.93,0.187807
3828.76,0.188398
3831.59,0.188979
3834.42,0.1896
3837.26,0.190189
3840.1,0.190886
3842.95,0.191459
3845.8,0.192047
3848.65,0.192689
3851.51,0.193315
3854.38,0.193885
3857.24,0.194511
3860.12,0.19515
3862.99,0.195784
3865.87,0.196418
3868.76,0.196993
3871.65,0.197635
3874.54,0.198323
3877.44,0.198998
3880.34,0.199659
3883.25,0.200286
3886.16,0.200928
3889.07,0.201643
3891.99,0.202317
3894.92,0.202968
3897.85,0.203604
3900.78,0.204223
3903.72,0.204922
3906.66,0.205592
3909.6,0.206212
3912.55,0.206838
3915.51,0.207538
3918.47,0.208211
3921.43,0.208874
3924.4,0.209543
3927.38,0.210284
3930.35,0.210954
3933.33,0.21154
3936.32,0.212192
3939.31,0.212912
3942.31,0.213562
3945.31,0.214245
3948.31,0.214903
3951.32,0.215634
3954.34,0.216282
3957.35,0.216967
3960.38,0.21766
3963.41,0.218353
3966.44,0.218998
3969.48,0.219698
3972.52,0.220471
3975.56,0.221174
3978.61,0.221849
3981.67,0.222539
3984.73,0.22324
3987.8,0.223989
3990.87,0.224681
3993.94,0.225344
3997.02,0.225998
4000.1,0.22676
4003.19,0.227578
4006.29,0.228318
4009.39,0.229043
4012.49,0.229728
4015.6,0.230391
4018.71,0.231116
4021.83,0.231836
4024.95,0.232536
4028.08,0.233306
4031.21,0.234094
4034.35,0.234797
4037.49,0.235471
4040.64,0.236212
4043.79,0.236995
4046.94,0.237776
4050.11,0.238513
4053.27,0.239269
4056.44,0.240053
4059.62,0.240778
4062.8,0.241525
4065.99,0.242213
4069.18,0.242971
4072.38,0.243704
4075.58,0.244401
4078.78,0.245115
4082.0,0.245862
4085.21,0.246586
4088.43,0.247354
4091.66,0.248153
4094.89,0.248885
4098.13,0.249666
4101.37,0.250483
4104.62,0.251227
4107.87,0.251916
4111.13,0.252683
4114.39,0.253476
4117.66,0.254245
4120.93,0.255024
4124.21,0.255826
4127.5,0.256601
4130.79,0.257342
4134.08,0.258099
4137.38,0.258899
4140.68,0.259719
4143.99,0.260416
4147.31,0.261239
4150.63,0.262036
4153.95,0.262789
4157.29,0.26356
4160.62,0.264338
4163.96,0.265141
4167.31,0.265928
4170.66,0.26673
4174.02,0.267522
4177.39,0.268327
4180.75,0.269064
4184.13,0.269763
4187.51,0.270574
4190.89,0.271458
4194.28,0.272241
4197.68,0.273
4201.08,0.273801
4204.49,0.274588
4207.9,0.275392
4211.32,0.276257
4214.74,0.277135
4218.17,0.277949
4221.61,0.278791
4225.05,0.279629
4228.5,0.280482
4231.95,0.281332
4235.4,0.282177
4238.87,0.28296
4242.34,0.283713
4245.81,0.284494
4249.29,0.285217
4252.78,0.285847
4256.27,0.286483
4259.77,0.287209
4263.27,0.287996
4266.78,0.28882
4270.29,0.289723
4273.81,0.290646
4277.34,0.29149
4280.87,0.29236
4284.41,0.293189
4287.95,0.294027
4291.5,0.294805
4295.06,0.295517
4298.62,0.296253
4302.19,0.297029
4305.76,0.297791
4309.34,0.298511
4312.92,0.299308
4316.52,0.300039
4320.11,0.300817
4323.72,0.301593
4327.32,0.302399
4330.94,0.303182
4334.56,0.303925
4338.19,0.304697
4341.82,0.305467
4345.46,0.306226
4349.11,0.307003
4352.76,0.307807
4356.42,0.308652
4360.08,0.309452
4363.75,0.310201
4367.43,0.310942
4371.11,0.311686
4374.8,0.312481
4378.49,0.313284
4382.19,0.314066
4385.9,0.314799
4389.61,0.315504
4393.33,0.316241
4397.06,0.317035
4400.79,0.317804
4404.53,0.318618
4408.28,0.319382
4412.03,0.320134
4415.79,0.320866
4419.55,0.32163
4423.32,0.322353
4427.1,0.323071
4430.88,0.323775
4434.68,0.324519
4438.47,0.32524
4442.28,0.325895
4446.08,0.32657
4449.9,0.327292
4453.72,0.327983
4457.55,0.328648
4461.39,0.329389
4465.23,0.330114
4469.08,0.330788
4472.94,0.331445
4476.8,0.332134
4480.67,0.332828
4484.55,0.333467
4488.43,0.334125
4492.32,0.334761
4496.21,0.3353
4500.12,0.335849
4504.03,0.336465
4507.94,0.337134
4511.87,0.337769
4515.8,0.338373
4519.73,0.338984
4523.68,0.339606
4527.63,0.340241
4531.59,0.340866
4535.55,0.341477
4539.52,0.342103
4543.5,0.342759
4547.49,0.343344
4551.48,0.343914
4555.48,0.344454
4559.49,0.345003
4563.5,0.345526
4567.52,0.346057
4571.55,0.346633
4575.58,0.347133
4579.63,0.347575
4583.67,0.347995
4587.73,0.348414
4591.79,0.348874
4595.86,0.349347
4599.94,0.349789
4604.03,0.350166
4608.12,0.350605
4612.22,0.351035
4616.33,0.351474
4620.44,0.351945
4624.56,0.352477
4628.69,0.352962
4632.83,0.353421
4636.97,0.353858
4641.12,0.354322
4645.28,0.354692
4649.45,0.355121
4653.62,0.355583
4657.8,0.356027
4661.99,0.356336
4666.19,0.356666
4670.39,0.357001
4674.6,0.357365
4678.82,0.357734
4683.05,0.358097
4687.28,0.358396
4691.52,0.358707
4695.77,0.358975
4700.03,0.359207
4704.3,0.359436
4708.57,0.359685
4712.85,0.359861
4717.14,0.360026
4721.43,0.3602
4725.74,0.360342
4730.05,0.36046
4734.37,0.360624
4738.7,0.360741
4743.03,0.360828
4747.38,0.36088
4751.73,0.360936
4756.09,0.360954
4760.45,0.36102
4764.83,0.361054
4769.21,0.361116
4773.6,0.361209
4778.0,0.361311
4782.41,0.361379
4786.83,0.361483
4791.25,0.361608
4795.68,0.361754
4800.13,0.361851
4804.57,0.361967
4809.03,0.361996
4813.5,0.362086
4817.97,0.362183
4822.45,0.362232
4826.94,0.362317
4831.44,0.362421
4835.95,0.362503
4840.46,0.362595
4844.99,0.362655
4849.52,0.362713
4854.06,0.362742
4858.61,0.362786
4863.17,0.362747
4867.73,0.362686
4872.31,0.36264
4876.89,0.362554
4881.48,0.362435
4886.08,0.362303
4890.69,0.362134
4895.31,0.361964
4899.94,0.361813
4904.57,0.361703
4909.22,0.361584
4913.87,0.361364
4918.53,0.361131
4923.21,0.360927
4927.88,0.360722
4932.57,0.360505
4937.27,0.360319
4941.98,0.360135
4946.69,0.359923
4951.42,0.359714
4956.15,0.359476
4960.9,0.35934
4965.65,0.359201
4970.41,0.359063
4975.18,0.358963
4979.96,0.358878
4984.75,0.358843
4989.54,0.358836
4994.35,0.358849
4999.17,0.358862
5003.99,0.358884
5008.83,0.358962
5013.67,0.359033
5018.52,0.359096
5023.39,0.359175
5028.26,0.359326
5033.14,0.3595
5038.03,0.359657
5042.93,0.359846
5047.84,0.360071
5052.76,0.360145
5057.69,0.360243
5062.63,0.360422
5067.58,0.360631
5072.54,0.360793
5077.51,0.360982
5082.49,0.361131
5087.47,0.361321
5092.47,0.361434
5097.48,0.36155
5102.5,0.361685
5107.52,0.361885
5112.56,0.362082
5117.61,0.362306
5122.66,0.362502
5127.73,0.362668
5132.81,0.362835
5137.89,0.363014
5142.99,0.363145
5148.1,0.363267
5153.22,0.363358
5158.34,0.363501
5163.48,0.363629
5168.63,0.363737
5173.79,0.363769
5178.96,0.363758
5184.13,0.363728
5189.32,0.363678
5194.52,0.363649
5199.73,0.363615
5204.96,0.363531
5210.19,0.3635
5215.43,0.363364
5220.68,0.363236
5225.94,0.363132
5231.22,0.362926
5236.5,0.362671
5241.79,0.362499
5247.1,0.362282
5252.42,0.362119
5257.74,0.361886
5263.08,0.361653
5268.43,0.361422
5273.79,0.361242
5279.16,0.360985
5284.54,0.360763
5289.93,0.36054
5295.34,0.360353
5300.75,0.360147
5306.18,0.360032
5311.61,0.359868
5317.06,0.359738
5322.52,0.359626
5327.99,0.359531
5333.47,0.359411
5338.96,0.359258
5344.47,0.359113
5349.98,0.35896
5355.51,0.358768
5361.05,0.358693
5366.6,0.358639
5372.16,0.358547
5377.73,0.358446
5383.32,0.358345
5388.91,0.358211
5394.52,0.358117
5400.14,0.358078
5405.77,0.357965
5411.41,0.357798
5417.07,0.357675
5422.74,0.357455
5428.41,0.357362
5434.1,0.357331
5439.81,0.357251
5445.52,0.357022
5451.25,0.356844
5456.98,0.356651
5462.73,0.356411
5468.5,0.356108
5474.27,0.355899
5480.06,0.355674
5485.86,0.355445
5491.67,0.355243
5497.49,0.355048
5503.33,0.354769
5509.18,0.354587
5515.04,0.354401
5520.91,0.354206
5526.8,0.353921
5532.69,0.353795
5538.61,0.353709
5544.53,0.353598
5550.47,0.353385
5556.41,0.353214
5562.38,0.353001
5568.35,0.352904
5574.34,0.352708
5580.34,0.35253
5586.35,0.352478
5592.38,0.35263
5598.42,0.352639
5604.47,0.352589
5610.54,0.352534
5616.61,0.352529
5622.71,0.352455
5628.81,0.35245
5634.93,0.352441
5641.06,0.35228
5647.21,0.352134
5653.36,0.352107
5659.54,0.352008
5665.72,0.351903
5671.92,0.351788
5678.13,0.351583
5684.36,0.351343
5690.6,0.351104
5696.85,0.350699
5703.12,0.350392
5709.4,0.350029
5715.69,0.349581
5722.0,0.349208
5728.33,0.348928
5734.66,0.348491
5741.01,0.348037
5747.38,0.347346
5753.76,0.34672
5760.15,0.346071
5766.56,0.345349
5772.98,0.344484
5779.41,0.343988
5785.86,0.343321
5792.33,0.34252
5798.81,0.341718
5805.3,0.340822
5811.81,0.339885
5818.33,0.33907
5824.87,0.338081
5831.42,0.337189
5837.99,0.336388
5844.57,0.335617
5851.17,0.334745
5857.78,0.333756
5864.41,0.332525
5871.05,0.331469
5877.7,0.330201
5884.38,0.32895
5891.06,0.32768
5897.76,0.32672
5904.48,0.32555
5911.21,0.324442
5917.96,0.323297
5924.73,0.32198
5931.5,0.320745
5938.3,0.319451
5945.11,0.318237
5951.93,0.317309
5958.78,0.316287
5965.63,0.315097
5972.51,0.314004
5979.39,0.312865
5986.3,0.31186
5993.22,0.31077
6000.16,0.309792
6007.11,0.309001
6014.08,0.308043
6021.06,0.307252
6028.06,0.306529
6035.08,0.305826
6042.12,0.305052
6049.17,0.304188
6056.23,0.303565
6063.32,0.30326
6070.42,0.302818
6077.53,0.302215
6084.67,0.301981
6091.82,0.301828
6098.98,0.301607
6106.17,0.301481
6113.37,0.301294
6120.58,0.301294
6127.82,0.30157
6135.07,0.30181
6142.34,0.301962
6149.63,0.302253
6156.93,0.302657
6164.25,0.303007
6171.59,0.303441
6178.95,0.303812
6186.32,0.304067
6193.71,0.30452
6201.12,0.304999
6208.54,0.30531
6215.99,0.305554
6223.45,0.305845
6230.93,0.306128
6238.43,0.306397
6245.95,0.306678
6253.48,0.307027
6261.03,0.307445
6268.6,0.307876
6276.19,0.30836
6283.8,0.308867
6291.43,0.309437
6299.07,0.310034
6306.73,0.310577
6314.42,0.311152
6322.12,0.311739
6329.84,0.31235
6337.57,0.312914
6345.33,0.313398
6353.11,0.314169
6360.9,0.315048
6368.72,0.31577
6376.55,0.316485
6384.4,0.317335
6392.27,0.318071
6400.17,0.31892
6408.08,0.319549
6416.01,0.320018
6423.96,0.320827
6431.93,0.321719
6439.92,0.322322
6447.93,0.32287
6455.96,0.323403
6464.01,0.323909
6472.08,0.324336
6480.17,0.324636
6488.28,0.324862
6496.41,0.325152
6504.56,0.32565
6512.73,0.326252
6520.92,0.326542
6529.14,0.326745
6537.37,0.327088
6545.63,0.32731
6553.9,0.327346
6562.2,0.327519
6570.51,0.327548
6578.85,0.327609
6587.21,0.327684
6595.59,0.327779
6603.99,0.327684
6612.42,0.327663
6620.86,0.327678
6629.33,0.327576
6637.82,0.327365
6646.33,0.327289
6654.86,0.327462
6663.41,0.327506
6671.99,0.327333
6680.59,0.327147
6689.21,0.327015
6697.85,0.326967
6706.51,0.326867
6715.2,0.326601
6723.91,0.326359
6732.64,0.326258
6741.4,0.326137
6750.18,0.325879
6758.98,0.325479
6767.8,0.325043
6776.65,0.32458
6785.52,0.323954
6794.41,0.323306
6803.33,0.322595
6812.27,0.321929
6821.23,0.321255
6830.22,0.320618
6839.23,0.320024
6848.26,0.319567
6857.32,0.31903
6866.4,0.318456
6875.51,0.318042
6884.64,0.317854
6893.8,0.317584
6902.98,0.317087
6912.18,0.316656
6921.41,0.316215
6930.66,0.315853
6939.94,0.315389
6949.24,0.314899
6958.57,0.31436
6967.92,0.313851
6977.3,0.313432
6986.7,0.313145
6996.13,0.312639
7005.59,0.312187
7015.07,0.311828
7024.57,0.311486
7034.1,0.31119
7043.66,0.310913
7053.25,0.310619
7062.85,0.310328
7072.49,0.310142
7082.15,0.309893
7091.84,0.309622
7101.55,0.309344
7111.3,0.309069
7121.06,0.30872
7130.86,0.308258
7140.68,0.307819
7150.53,0.307353
7160.41,0.30677
7170.31,0.306269
7180.24,0.305762
7190.2,0.305243
7200.19,0.304768
7210.2,0.304228
7220.24,0.303689
7230.31,0.303224
7240.41,0.302823
7250.54,0.302412
7260.69,0.301972
7270.88,0.301463
7281.09,0.300904
7291.33,0.300312
7301.6,0.299733
7311.9,0.299164
7322.22,0.298633
7332.58,0.298135
7342.97,0.297569
7353.38,0.297027
7363.83,0.29658
7374.3,0.296075
7384.81,0.295515
7395.34,0.294957
7405.91,0.2944
7416.5,0.293842
7427.13,0.293293
7437.78,0.292806
7448.47,0.292292
7459.19,0.291788
7469.94,0.291333
7480.71,0.29092
7491.52,0.290546
7502.37,0.290161
7513.24,0.289699
7524.14,0.289229
7535.08,0.288794
7546.05,0.28832
7557.05,0.287761
7568.08,0.287154
7579.15,0.28654
7590.24,0.285934
7601.37,0.285293
7612.53,0.284668
7623.73,0.283994
7634.96,0.283285
7646.22,0.282571
7657.51,0.281909
7668.84,0.281268
7680.2,0.280648
7691.59,0.280025
7703.02,0.279452
7714.49,0.278907
7725.98,0.278371
7737.52,0.277801
7749.08,0.277273
7760.68,0.276656
7772.32,0.276049
7783.99,0.275434
7795.69,0.274869
7807.43,0.27426
7819.21,0.273656
7831.02,0.273153
7842.87,0.272678
7854.75,0.272171
7866.67,0.271707
7878.62,0.271264
7890.62,0.27081
7902.64,0.270375
7914.71,0.269922
7926.81,0.269371
7938.95,0.268709
7951.13,0.267918
7963.34,0.267146
7975.59,0.266374
7987.88,0.265629
8000.21,0.264865
8012.57,0.264125
8024.98,0.263376
8037.42,0.262641
8049.9,0.261891
8062.42,0.26121
8074.98,0.260502
8087.57,0.259722
8100.21,0.258857
8112.89,0.258056
8125.6,0.257273
8138.36,0.256486
8151.16,0.255562
8163.99,0.254672
8176.87,0.25379
8189.79,0.252844
8202.75,0.251737
8215.75,0.250624
8228.79,0.249477
8241.87,0.248317
8254.99,0.247028
8268.16,0.245611
8281.37,0.24411
8294.62,0.242596
8307.91,0.240973
8321.24,0.239376
8334.62,0.237717
8348.04,0.236025
8361.51,0.234262
8375.02,0.232517
8388.57,0.230738
8402.16,0.228961
8415.8,0.227075
8429.49,0.225193
8443.22,0.223225
8456.99,0.221215
8470.81,0.219178
8484.67,0.21719
8498.58,0.215081
8512.54,0.212949
8526.54,0.210785
8540.58,0.208696
8554.68,0.206552
8568.82,0.204461
8583.0,0.202349
8597.24,0.200266
8611.52,0.19819
8625.85,0.196235
8640.23,0.194266
8654.65,0.192407
8669.12,0.190577
8683.64,0.18882
8698.21,0.187016
8712.83,0.185323
8727.5,0.183535
8742.22,0.181828
8756.99,0.180085
8771.8,0.178351
8786.67,0.17656
8801.59,0.174831
8816.56,0.172998
8831.58,0.171119
8846.65,0.169116
8861.77,0.167137
8876.94,0.16502
8892.17,0.162926
8907.45,0.160745
8922.78,0.158542
8938.16,0.156167
8953.6,0.153841
8969.09,0.151391
8984.64,0.148858
9000.23,0.146137
9015.89,0.14337
9031.59,0.140408
9047.36,0.137341
9063.17,0.133924
9079.05,0.130311
9094.97,0.126321
9110.96,0.122092
9127.0,0.117451
9143.1,0.112575
9159.25,0.107294
9175.46,0.101904
9191.73,0.096522
9208.06,0.091534
9224.44,0.086943
9240.88,0.083186
9257.38,0.080069
9273.94,0.077568
9290.56,0.075405
9307.24,0.073632
9323.98,0.071823
9340.78,0.070118
9357.64,0.068218
9374.57,0.066396
9391.55,0.064376
9408.59,0.062358
9425.7,0.060256
9442.87,0.058394
9460.1,0.056501
9477.4,0.054875
9494.75,0.053357
9512.17,0.052045
9529.66,0.050743
9547.21,0.049752
9564.83,0.048781
9582.5,0.048
9600.25,0.047289
9618.06,0.046805
9635.94,0.046231
9653.88,0.045854
9671.89,0.045447
9689.97,0.045154
9708.12,0.044711
9726.33,0.044357
9744.62,0.043784
9762.97,0.043187
9781.39,0.042346
9799.88,0.041595
9818.44,0.040698
9837.07,0.039812
9855.77,0.03882
9874.54,0.037959
9893.39,0.037006
9912.3,0.036167
9931.29,0.035231
9950.36,0.034446
9969.49,0.033633
9988.7,0.033065
10007.98,0.032471
10027.34,0.03202
10046.77,0.031553
10066.28,0.031221
10085.87,0.030825
10105.53,0.030593
10125.26,0.030303
10145.08,0.030088
10164.97,0.029832
10184.94,0.02975
10204.99,0.029566
10225.12,0.029445
10245.33,0.029236
10265.61,0.029189
10285.98,0.029087
10306.43,0.029124
10326.96,0.029015
10347.57,0.029044
10368.27,0.029062
10389.05,0.029186
10409.91,0.029137
10430.86,0.029202
10451.88,0.029271
10473.0,0.029425
10494.2,0.02953
10515.49,0.029804
10536.86,0.029986
10558.32,0.030325
10579.87,0.030633
10601.5,0.031087
10623.23,0.031472
10645.04,0.03194
10666.94,0.032319
10688.94,0.032798
10711.02,0.033207
10733.2,0.033666
10755.47,0.034008
10777.83,0.034416
10800.28,0.034722
10822.83,0.034954
10845.47,0.035007
10868.21,0.035173
10891.04,0.035167
10913.97,0.03518
10936.99,0.035073
10960.12,0.035049
10983.34,0.034905
11006.66,0.034774
11030.07,0.034563
11053.59,0.034509
11077.21,0.034304
11100.93,0.034174
11124.75,0.03394
11148.68,0.033792
11172.71,0.033592
11196.84,0.03348
11221.07,0.033199
11245.41,0.032988
11269.86,0.032666
11294.41,0.032387
11319.07,0.031943
11343.84,0.031577
11368.72,0.031066
11393.7,0.030529
11418.8,0.029841
11444.01,0.029321
11469.33,0.02872
11494.76,0.028153
11520.3,0.027543
11545.96,0.027131
11571.73,0.026664
11597.62,0.026297
11623.62,0.025839
11649.74,0.025498
11675.98,0.025067
11702.34,0.024737
11728.81,0.024205
11755.41,0.023837
11782.13,0.023448
11808.96,0.02309
11835.92,0.022573
11863.01,0.022113
11890.22,0.021504
11917.55,0.021036
11945.01,0.020504
11972.6,0.020181
12000.31,0.0197
12028.16,0.019294
12056.13,0.018814
12084.23,0.018384
12112.46,0.01787
12140.83,0.017564
12169.33,0.017181
12197.96,0.01698
12226.73,0.016697
12255.64,0.016627
12284.68,0.016532
12313.86,0.016419
12343.18,0.016183
12372.64,0.016084
12402.24,0.015827
12431.98,0.015665
12461.86,0.01547
12491.89,0.015317
12522.07,0.015095
12552.38,0.015032
12582.85,0.01492
12613.47,0.015022
12644.23,0.015038
12675.15,0.015133
12706.21,0.015299
12737.43,0.015603
12768.81,0.015818
12800.33,0.016259
12832.02,0.016576
12863.86,0.017096
12895.86,0.017609
12928.02,0.018203
12960.34,0.018773
12992.82,0.019432
13025.46,0.01999
13058.27,0.020698
13091.25,0.021284
13124.39,0.022009
13157.7,0.022667
13191.18,0.023496
13224.83,0.024175
13258.66,0.024877
13292.65,0.025476
13326.83,0.026186
13361.17,0.026846
13395.7,0.027621
13430.4,0.028192
13465.29,0.028773
13500.35,0.029274
13535.6,0.029932
13571.03,0.030567
13606.65,0.03129
13642.46,0.031896
13678.46,0.032566
13714.64,0.033114
13751.02,0.03375
13787.59,0.03431
13824.36,0.034928
13861.32,0.035434
13898.49,0.035965
13935.85,0.036337
13973.41,0.036794
14011.17,0.037161
14049.15,0.037607
14087.32,0.038023
14125.71,0.038511
14164.3,0.038808
14203.11,0.039261
14242.13,0.039591
14281.36,0.039999
14320.81,0.040328
14360.49,0.040822
14400.38,0.041137
14440.49,0.04154
14480.82,0.04182
14521.39,0.042165
14562.18,0.042381
14603.2,0.042715
14644.45,0.043042
14685.93,0.043447
14727.66,0.043662
14769.62,0.044013
14811.81,0.044229
14854.25,0.044578
14896.94,0.044912
14939.87,0.045315
14983.05,0.045567
15026.48,0.045752
15070.16,0.04578
15114.1,0.04602
15158.29,0.046125
15202.74,0.046405
15247.46,0.046619
15292.43,0.046917
15337.68,0.04707
15383.19,0.04732
15428.97,0.047512
15475.03,0.047757
15521.36,0.047803
15567.97,0.048
15614.87,0.048102
15662.04,0.048194
15709.5,0.048117
15757.25,0.047957
15805.29,0.047601
15853.62,0.047338
15902.26,0.046915
15951.19,0.046454
16000.42,0.0456
16049.95,0.044973
16099.8,0.044217
16149.95,0.043468
16200.42,0.042546
16251.21,0.041599
16302.31,0.04036
16353.74,0.039075
16405.49,0.037623
16457.57,0.036215
16509.98,0.034715
16562.73,0.033437
16615.82,0.031955
16669.24,0.030678
16723.02,0.029487
16777.14,0.028462
16831.61,0.027332
16886.43,0.026267
16941.62,0.025101
16997.16,0.024139
17053.08,0.023064
17109.36,0.022108
17166.01,0.021263
17223.04,0.020611
17280.45,0.019759
17338.24,0.019313
17396.43,0.019038
17455.0,0.01917
17513.97,0.019486
17573.34,0.020263
17633.11,0.021358
17693.29,0.022899
17753.89,0.024509
17814.9,0.026631
17876.33,0.028808
17938.18,0.031214
18000.47,0.033531
18063.19,0.035963
18126.35,0.038332
18189.95,0.040773
18254.0,0.042905
18318.5,0.044924
18383.46,0.046535
18448.88,0.048201
18514.77,0.049637
18581.13,0.050943
18647.97,0.051842
18715.29,0.052709
18783.1,0.053469
18851.4,0.054187
18920.2,0.054587
18989.51,0.055199
19059.32,0.055685
19129.65,0.056453
19200.5,0.05706
19271.88,0.057806
19343.79,0.058409
19416.24,0.059126
19489.23,0.0596
19562.77,0.060112
19636.88,0.060274
19711.54,0.060613
19786.78,0.060692
19862.59,0.060887
19938.98,0.061185
20015.96,0.061714
20093.55,0.062075
20171.73,0.062438
20250.53,0.062492
20329.94,0.062816
20409.98,0.06293
20490.65,0.063089
20571.96,0.06299
20653.92,0.063034
20736.54,0.062549
20819.82,0.062205
20903.77,0.061524
20988.4,0.06039
21073.72,0.058922
21159.73,0.058154
21246.46,0.057177
21333.89,0.056214
21422.04,0.055235
21510.93,0.054276
21600.56,0.053196
21690.94,0.052496
21782.08,0.051599
21873.99,0.051539
21966.67,0.051385
22060.15,0.050945
22154.42,0.049764
22249.51,0.049226
22345.41,0.048655
22442.14,0.048764
22539.72,0.048765
22638.14,0.048391
22737.43,0.047617
22837.6,0.047202
22938.65,0.04657
23040.6,0.046479
23143.46,0.046058
23247.24,0.046133
23351.96,0.046161
23457.63,0.046444
23564.25,0.045918
23671.85,0.045363
23780.44,0.044833
23890.02,0.045544
24000.63,0.045279
24112.26,0.045174
24224.93,0.045129
24338.66,0.045382
24453.47,0.044931
24569.36,0.044998
24686.36,0.045308
24804.47,0.04616
24923.73,0.045814
25044.13,0.045737
25165.71,0.045366
25288.46,0.046402
25412.43,0.044903
25537.61,0.045683
25664.04,0.044917
25791.72,0.044545
25920.68,0.044753
