Database of Origin,University of Winnipeg Spectrophotometer Facility
Sample Description,Carbonaceous chondrites - RELAB archive 7. Ungrouped chondrites and ATCCs
Other Information,c1mb98
Date Added,2018-07-23 23:45:03.769721

Data ID,RLA_MET_38_21       
Sample ID,Kaidun
Mineral Name,Kaidun
Grain Size,<125 um
Viewing Geometry,30/0
Material Class,C-breccia

Wavelength
305.0,0.018405
310.0,0.019368
315.0,0.020449
320.0,0.021098
325.0,0.021317
330.0,0.021399
335.0,0.022596
340.0,0.021629
345.0,0.02265
350.0,0.02338
355.0,0.023825
360.0,0.024573
365.0,0.025842
370.0,0.026561
375.0,0.027275
380.0,0.028105
385.0,0.028927
390.0,0.029718
395.0,0.030452
400.0,0.031061
405.0,0.031828
410.0,0.032413
415.0,0.032818
420.0,0.033314
425.0,0.034018
430.0,0.034461
435.0,0.034812
440.0,0.035335
445.0,0.035724
450.0,0.03607
455.0,0.036344
460.0,0.036667
465.0,0.036965
470.0,0.037251
475.0,0.037628
480.0,0.037899
485.0,0.038233
490.0,0.038552
495.0,0.038746
500.0,0.039193
505.0,0.039519
510.0,0.03978
515.0,0.040066
520.0,0.040245
525.0,0.040526
530.0,0.040773
535.0,0.041122
540.0,0.04127
545.0,0.041501
550.0,0.041663
555.0,0.041775
560.0,0.041905
565.0,0.042012
570.0,0.042056
575.0,0.04219
580.0,0.042164
585.0,0.042308
590.0,0.04242
595.0,0.042456
600.0,0.042578
605.0,0.042656
610.0,0.042838
615.0,0.042937
620.0,0.043067
625.0,0.043146
630.0,0.043223
635.0,0.043313
640.0,0.043375
645.0,0.04337
650.0,0.043479
655.0,0.043459
660.0,0.043535
665.0,0.043486
670.0,0.043607
675.0,0.04359
680.0,0.043683
685.0,0.043629
690.0,0.043448
695.0,0.043529
700.0,0.043728
705.0,0.043777
710.0,0.043747
715.0,0.043743
720.0,0.043808
725.0,0.043944
730.0,0.044045
735.0,0.044068
740.0,0.044131
745.0,0.044036
750.0,0.044061
755.0,0.044175
760.0,0.044142
765.0,0.044343
770.0,0.044318
775.0,0.044313
780.0,0.044272
785.0,0.044547
790.0,0.044498
795.0,0.044458
800.0,0.044199
805.0,0.044541
810.0,0.044476
815.0,0.0444
820.0,0.044757
825.0,0.044752
830.0,0.044861
835.0,0.044454
840.0,0.044821
845.0,0.044281
850.0,0.044695
855.0,0.044361
860.0,0.044894
865.0,0.043982
870.0,0.044672
875.0,0.045373
880.0,0.044979
885.0,0.044713
890.0,0.045276
895.0,0.044915
900.0,0.045236
905.0,0.045203
910.0,0.044906
915.0,0.045328
920.0,0.044889
925.0,0.04483
930.0,0.045011
935.0,0.045232
940.0,0.044941
945.0,0.044958
950.0,0.044874
955.0,0.044892
960.0,0.044967
965.0,0.044933
970.0,0.04521
975.0,0.045313
980.0,0.045494
985.0,0.045315
990.0,0.045397
995.0,0.045164
1000.0,0.045148
1005.0,0.045316
1010.0,0.045112
1015.0,0.045455
1020.0,0.045362
1025.0,0.045289
1030.0,0.04523
1035.0,0.045309
1040.0,0.045309
1045.0,0.045395
1050.0,0.045485
1055.0,0.045361
1060.0,0.045365
1065.0,0.0455
1070.0,0.045191
1075.0,0.045435
1080.0,0.045374
1085.0,0.045433
1090.0,0.045371
1095.0,0.045476
1100.0,0.045248
1105.0,0.045457
1110.0,0.045473
1115.0,0.045383
1120.0,0.045781
1125.0,0.045664
1130.0,0.045769
1135.0,0.045573
1140.0,0.045653
1145.0,0.04563
1150.0,0.045664
1155.0,0.045834
1160.0,0.045794
1165.0,0.045938
1170.0,0.045888
1175.0,0.045981
1180.0,0.045991
1185.0,0.045936
1190.0,0.046112
1195.0,0.045839
1200.0,0.046263
1205.0,0.04634
1210.0,0.046202
1215.0,0.046455
1220.0,0.046555
1225.0,0.046581
1230.0,0.04652
1235.0,0.046529
1240.0,0.046174
1245.0,0.046385
1250.0,0.046486
1255.0,0.046455
1260.0,0.04635
1265.0,0.046556
1270.0,0.046281
1275.0,0.046482
1280.0,0.04632
1285.0,0.046404
1290.0,0.046303
1295.0,0.046524
1300.0,0.046634
1305.0,0.04671
1310.0,0.046528
1315.0,0.046731
1320.0,0.046692
1325.0,0.046768
1330.0,0.04686
1335.0,0.046713
1340.0,0.046684
1345.0,0.046772
1350.0,0.046876
1355.0,0.046761
1360.0,0.046932
1365.0,0.046866
1370.0,0.046823
1375.0,0.046843
1380.0,0.04705
1385.0,0.047038
1390.0,0.047157
1395.0,0.047044
1400.0,0.04721
1405.0,0.047487
1410.0,0.047294
1415.0,0.047188
1420.0,0.047456
1425.0,0.047362
1430.0,0.047341
1435.0,0.047388
1440.0,0.047581
1445.0,0.04735
1450.0,0.047503
1455.0,0.047655
1460.0,0.04755
1465.0,0.047785
1470.0,0.047465
1475.0,0.047876
1480.0,0.048022
1485.0,0.04784
1490.0,0.047792
1495.0,0.047754
1500.0,0.047938
1505.0,0.048107
1510.0,0.047754
1515.0,0.047915
1520.0,0.048097
1525.0,0.048186
1530.0,0.048114
1535.0,0.048292
1540.0,0.047974
1545.0,0.047993
1550.0,0.048316
1555.0,0.048473
1560.0,0.048121
1565.0,0.048084
1570.0,0.048383
1575.0,0.04825
1580.0,0.048447
1585.0,0.048522
1590.0,0.048508
1595.0,0.048516
1600.0,0.048397
1605.0,0.048344
1610.0,0.04853
1615.0,0.048264
1620.0,0.048534
1625.0,0.048719
1630.0,0.048691
1635.0,0.048403
1640.0,0.048685
1645.0,0.048668
1650.0,0.048731
1655.0,0.048966
1660.0,0.048578
1665.0,0.048537
1670.0,0.048844
1675.0,0.048633
1680.0,0.048773
1685.0,0.048722
1690.0,0.048995
1695.0,0.049067
1700.0,0.048917
1705.0,0.048634
1710.0,0.048866
1715.0,0.048865
1720.0,0.04883
1725.0,0.048868
1730.0,0.048994
1735.0,0.048963
1740.0,0.048786
1745.0,0.049083
1750.0,0.048745
1755.0,0.048924
1760.0,0.048939
1765.0,0.048863
1770.0,0.048712
1775.0,0.048784
1780.0,0.049071
1785.0,0.048999
1790.0,0.049124
1795.0,0.049091
1800.0,0.049128
1805.0,0.049059
1810.0,0.048815
1815.0,0.049262
1820.0,0.049405
1825.0,0.049018
1830.0,0.049119
1835.0,0.049068
1840.0,0.04923
1845.0,0.049198
1850.0,0.049296
1855.0,0.049322
1860.0,0.049465
1865.0,0.049633
1870.0,0.049443
1875.0,0.04955
1880.0,0.04961
1885.0,0.049583
1890.0,0.04961
1895.0,0.049735
1900.0,0.049537
1905.0,0.049563
1910.0,0.049683
1915.0,0.049631
1920.0,0.049612
1925.0,0.049477
1930.0,0.049631
1935.0,0.049796
1940.0,0.049675
1945.0,0.049792
1950.0,0.049574
1955.0,0.04979
1960.0,0.04978
1965.0,0.049715
1970.0,0.049601
1975.0,0.049935
1980.0,0.05006
1985.0,0.049961
1990.0,0.050086
1995.0,0.050083
2000.0,0.050011
2005.0,0.050063
2010.0,0.050016
2015.0,0.050026
2020.0,0.050223
2025.0,0.050294
2030.0,0.050384
2035.0,0.050115
2040.0,0.050179
2045.0,0.050323
2050.0,0.050127
2055.0,0.0503
2060.0,0.050172
2065.0,0.05004
2070.0,0.050318
2075.0,0.05041
2080.0,0.050252
2085.0,0.050409
2090.0,0.050433
2095.0,0.050342
2100.0,0.050427
2105.0,0.050318
2110.0,0.050354
2115.0,0.050315
2120.0,0.050426
2125.0,0.050392
2130.0,0.050537
2135.0,0.050398
2140.0,0.050496
2145.0,0.050289
2150.0,0.050386
2155.0,0.050241
2160.0,0.050394
2165.0,0.050523
2170.0,0.050488
2175.0,0.050336
2180.0,0.050432
2185.0,0.050413
2190.0,0.050594
2195.0,0.050584
2200.0,0.050548
2205.0,0.050616
2210.0,0.050488
2215.0,0.050614
2220.0,0.050366
2225.0,0.050627
2230.0,0.050484
2235.0,0.050522
2240.0,0.05077
2245.0,0.05079
2250.0,0.05069
2255.0,0.050628
2260.0,0.050831
2265.0,0.050673
2270.0,0.05079
2275.0,0.050606
2280.0,0.050924
2285.0,0.050703
2290.0,0.050704
2295.0,0.050751
2300.0,0.050912
2305.0,0.050879
2310.0,0.050792
2315.0,0.050701
2320.0,0.050718
2325.0,0.050762
2330.0,0.050961
2335.0,0.050824
2340.0,0.050821
2345.0,0.050992
2350.0,0.05074
2355.0,0.050931
2360.0,0.051187
2365.0,0.050866
2370.0,0.050913
2375.0,0.051181
2380.0,0.050942
2385.0,0.050801
2390.0,0.05096
2395.0,0.050866
2400.0,0.051075
2405.0,0.050833
2410.0,0.050932
2415.0,0.050995
2420.0,0.050891
2425.0,0.050939
2430.0,0.051183
2435.0,0.050981
2440.0,0.051199
2445.0,0.050954
2450.0,0.050908
2455.0,0.050844
2460.0,0.050918
2465.0,0.050927
2470.0,0.051344
2475.0,0.05117
2480.0,0.051076
2485.0,0.050987
2490.0,0.051303
2495.0,0.051429
2500.0,0.051058
2505.0,0.051178
2510.0,0.0512
2515.0,0.051187
2520.0,0.051185
2525.0,0.051345
2530.0,0.051608
2535.0,0.05137
2540.0,0.051271
2545.0,0.051314
2550.0,0.051356
2555.0,0.051329
2560.0,0.051502
2565.0,0.05124
2570.0,0.051385
2575.0,0.051316
2580.0,0.051278
2585.0,0.051475
2590.0,0.051252
2595.0,0.051431
2600.0,0.050935
