Database of Origin,University of Winnipeg Spectrophotometer Facility
Sample Description,"Zeolites: RELAB + Nicolet spectra, Merged at 2.5 microns; note change in viewing geometry"
Date Added,2018-07-23 23:09:47.340504

Data ID,RLA_ZEO_1_10        
Sample ID,zeo114
Mineral Name,mesolite
Grain Size,<45 um
Viewing Geometry,"30/0,30"
Resolution,5/.6-129 nm

Wavelength
305.0,0.591295
310.0,0.602126
315.0,0.613722
320.0,0.625334
325.0,0.634218
330.0,0.64608
335.0,0.653791
340.0,0.662553
345.0,0.669067
350.0,0.678422
355.0,0.683701
360.0,0.690196
365.0,0.695455
370.0,0.70004
375.0,0.704534
380.0,0.709829
385.0,0.713309
390.0,0.716599
395.0,0.720889
400.0,0.723336
405.0,0.725882
410.0,0.728829
415.0,0.730939
420.0,0.733231
425.0,0.736494
430.0,0.739607
435.0,0.742737
440.0,0.745273
445.0,0.748789
450.0,0.752297
455.0,0.755798
460.0,0.7581
465.0,0.761693
470.0,0.76358
475.0,0.766141
480.0,0.767003
485.0,0.770813
490.0,0.771561
495.0,0.774402
500.0,0.77808
505.0,0.779097
510.0,0.78043
515.0,0.782689
520.0,0.782549
525.0,0.785321
530.0,0.786769
535.0,0.788438
540.0,0.790093
545.0,0.793011
550.0,0.794034
555.0,0.795428
560.0,0.796757
565.0,0.797973
570.0,0.79906
575.0,0.800102
580.0,0.800749
585.0,0.801623
590.0,0.801466
595.0,0.802991
600.0,0.800915
605.0,0.802542
610.0,0.80157
615.0,0.800551
620.0,0.801339
625.0,0.799495
630.0,0.799448
635.0,0.799284
640.0,0.798817
645.0,0.798829
650.0,0.798249
655.0,0.797557
660.0,0.797933
665.0,0.798262
670.0,0.798091
675.0,0.797577
680.0,0.799094
685.0,0.798367
690.0,0.798614
695.0,0.798306
700.0,0.798839
705.0,0.797515
710.0,0.798434
715.0,0.79784
720.0,0.798816
725.0,0.798759
730.0,0.798278
735.0,0.799625
740.0,0.79864
745.0,0.799216
750.0,0.800252
755.0,0.799662
760.0,0.800252
765.0,0.800847
770.0,0.799918
775.0,0.798892
780.0,0.801504
785.0,0.800533
790.0,0.80067
795.0,0.801536
800.0,0.801959
805.0,0.800457
810.0,0.802695
815.0,0.80136
820.0,0.802406
825.0,0.801111
830.0,0.80203
835.0,0.802059
840.0,0.803543
845.0,0.802668
850.0,0.804962
855.0,0.803642
860.0,0.80468
865.0,0.804709
870.0,0.803126
875.0,0.804893
880.0,0.804701
885.0,0.805282
890.0,0.804285
895.0,0.806446
900.0,0.803804
905.0,0.807675
910.0,0.806813
915.0,0.807181
920.0,0.805191
925.0,0.807496
930.0,0.805376
935.0,0.808905
940.0,0.807098
945.0,0.808079
950.0,0.80651
955.0,0.807558
960.0,0.807698
965.0,0.807176
970.0,0.807554
975.0,0.806685
980.0,0.807707
985.0,0.807373
990.0,0.808481
995.0,0.807207
1000.0,0.807651
1005.0,0.806573
1010.0,0.808537
1015.0,0.807391
1020.0,0.809894
1025.0,0.808328
1030.0,0.809616
1035.0,0.809437
1040.0,0.809779
1045.0,0.808496
1050.0,0.810342
1055.0,0.80997
1060.0,0.810356
1065.0,0.809863
1070.0,0.810394
1075.0,0.811043
1080.0,0.810011
1085.0,0.810311
1090.0,0.808817
1095.0,0.81021
1100.0,0.810163
1105.0,0.810675
1110.0,0.810333
1115.0,0.810886
1120.0,0.810109
1125.0,0.810724
1130.0,0.809795
1135.0,0.809303
1140.0,0.810537
1145.0,0.80957
1150.0,0.808832
1155.0,0.808261
1160.0,0.807399
1165.0,0.807186
1170.0,0.805943
1175.0,0.805489
1180.0,0.804976
1185.0,0.806172
1190.0,0.806417
1195.0,0.807539
1200.0,0.806967
1205.0,0.805519
1210.0,0.806486
1215.0,0.806373
1220.0,0.80651
1225.0,0.806453
1230.0,0.808042
1235.0,0.805635
1240.0,0.806424
1245.0,0.806563
1250.0,0.806057
1255.0,0.805881
1260.0,0.805868
1265.0,0.806463
1270.0,0.805857
1275.0,0.805711
1280.0,0.804609
1285.0,0.804505
1290.0,0.804966
1295.0,0.8044
1300.0,0.804485
1305.0,0.804657
1310.0,0.804423
1315.0,0.803467
1320.0,0.802554
1325.0,0.802162
1330.0,0.80061
1335.0,0.799434
1340.0,0.798686
1345.0,0.796664
1350.0,0.794565
1355.0,0.79353
1360.0,0.792605
1365.0,0.791869
1370.0,0.789633
1375.0,0.789242
1380.0,0.78915
1385.0,0.78713
1390.0,0.784819
1395.0,0.782734
1400.0,0.778202
1405.0,0.773502
1410.0,0.766194
1415.0,0.759721
1420.0,0.75188
1425.0,0.746886
1430.0,0.738856
1435.0,0.730503
1440.0,0.72455
1445.0,0.720986
1450.0,0.722256
1455.0,0.724158
1460.0,0.725028
1465.0,0.72861
1470.0,0.733128
1475.0,0.736973
1480.0,0.737023
1485.0,0.733126
1490.0,0.736386
1495.0,0.74313
1500.0,0.748828
1505.0,0.750336
1510.0,0.756039
1515.0,0.75827
1520.0,0.75954
1525.0,0.761346
1530.0,0.761152
1535.0,0.761919
1540.0,0.760963
1545.0,0.760684
1550.0,0.760134
1555.0,0.761802
1560.0,0.761686
1565.0,0.761443
1570.0,0.762867
1575.0,0.761126
1580.0,0.763189
1585.0,0.762795
1590.0,0.762479
1595.0,0.760734
1600.0,0.761707
1605.0,0.762251
1610.0,0.763544
1615.0,0.764632
1620.0,0.763745
1625.0,0.765146
1630.0,0.762294
1635.0,0.762866
1640.0,0.762892
1645.0,0.764623
1650.0,0.764757
1655.0,0.764354
1660.0,0.765231
1665.0,0.768669
1670.0,0.767884
1675.0,0.769289
1680.0,0.769692
1685.0,0.770492
1690.0,0.770394
1695.0,0.770411
1700.0,0.770634
1705.0,0.770462
1710.0,0.770417
1715.0,0.770119
1720.0,0.769242
1725.0,0.767711
1730.0,0.767359
1735.0,0.76511
1740.0,0.763595
1745.0,0.762949
1750.0,0.76286
1755.0,0.761874
1760.0,0.76283
1765.0,0.763851
1770.0,0.764301
1775.0,0.765061
1780.0,0.766341
1785.0,0.766578
1790.0,0.767352
1795.0,0.76813
1800.0,0.767736
1805.0,0.769553
1810.0,0.767487
1815.0,0.769968
1820.0,0.768666
1825.0,0.770486
1830.0,0.769485
1835.0,0.770691
1840.0,0.76797
1845.0,0.768007
1850.0,0.76546
1855.0,0.765441
1860.0,0.761806
1865.0,0.76006
1870.0,0.758869
1875.0,0.74516
1880.0,0.732784
1885.0,0.723154
1890.0,0.708964
1895.0,0.687451
1900.0,0.665186
1905.0,0.63209
1910.0,0.600759
1915.0,0.576704
1920.0,0.555193
1925.0,0.530113
1930.0,0.501541
1935.0,0.46008
1940.0,0.423694
1945.0,0.420477
1950.0,0.44223
1955.0,0.471012
1960.0,0.508582
1965.0,0.538584
1970.0,0.555044
1975.0,0.555067
1980.0,0.554853
1985.0,0.562276
1990.0,0.574034
1995.0,0.583331
2000.0,0.59118
2005.0,0.597504
2010.0,0.603686
2015.0,0.60767
2020.0,0.613259
2025.0,0.61848
2030.0,0.626922
2035.0,0.632672
2040.0,0.638327
2045.0,0.640799
2050.0,0.642291
2055.0,0.643223
2060.0,0.645284
2065.0,0.648884
2070.0,0.654821
2075.0,0.661862
2080.0,0.667832
2085.0,0.676648
2090.0,0.680237
2095.0,0.686052
2100.0,0.689296
2105.0,0.692779
2110.0,0.69353
2115.0,0.697401
2120.0,0.696866
2125.0,0.698383
2130.0,0.698054
2135.0,0.699378
2140.0,0.696078
2145.0,0.695596
2150.0,0.693251
2155.0,0.690615
2160.0,0.687106
2165.0,0.68333
2170.0,0.679517
2175.0,0.677071
2180.0,0.676873
2185.0,0.677827
2190.0,0.680779
2195.0,0.682377
2200.0,0.685591
2205.0,0.686902
2210.0,0.689382
2215.0,0.69125
2220.0,0.693487
2225.0,0.693516
2230.0,0.695526
2235.0,0.696693
2240.0,0.698188
2245.0,0.698951
2250.0,0.700446
2255.0,0.700435
2260.0,0.70274
2265.0,0.702975
2270.0,0.704416
2275.0,0.7034
2280.0,0.705148
2285.0,0.70378
2290.0,0.702646
2295.0,0.702883
2300.0,0.702298
2305.0,0.699996
2310.0,0.697632
2315.0,0.693952
2320.0,0.690468
2325.0,0.685968
2330.0,0.683931
2335.0,0.680546
2340.0,0.676186
2345.0,0.672317
2350.0,0.665674
2355.0,0.658993
2360.0,0.649334
2365.0,0.642244
2370.0,0.630236
2375.0,0.622604
2380.0,0.611195
2385.0,0.597624
2390.0,0.582588
2395.0,0.568513
2400.0,0.552194
2405.0,0.535455
2410.0,0.51868
2415.0,0.506613
2420.0,0.493339
2425.0,0.485109
2430.0,0.480115
2435.0,0.478485
2440.0,0.478224
2445.0,0.476646
2450.0,0.474295
2455.0,0.471055
2460.0,0.468982
2465.0,0.467485
2470.0,0.46711
2475.0,0.46679
2480.0,0.472183
2485.0,0.46886
2490.0,0.471243
2495.0,0.474155
2500.0,0.475085
2505.0,0.475488
2510.0,0.473707
2515.0,0.472507
2520.0,0.468953
2525.0,0.466684
2530.0,0.464927
2535.0,0.461459
2540.0,0.45739
2545.0,0.458576
2550.0,0.454662
2555.0,0.45372
2560.0,0.452196
2565.0,0.451862
2570.0,0.450981
2575.0,0.450284
2580.0,0.450686
2581.74,0.44958
2583.03,0.449636
2584.31,0.449112
2585.6,0.44908
2586.89,0.449402
2588.19,0.448677
2589.48,0.448651
2590.77,0.448948
2592.07,0.448703
2593.36,0.44775
2594.66,0.445771
2595.96,0.445464
2597.26,0.4484
2598.56,0.44921
2599.87,0.447822
2601.17,0.446531
2602.48,0.445724
2603.78,0.445637
2605.09,0.444552
2606.4,0.443563
2607.71,0.444056
2609.03,0.444297
2610.34,0.443385
2611.66,0.442595
2612.97,0.442367
2614.29,0.441908
2615.61,0.441183
2616.93,0.440102
2618.25,0.439332
2619.57,0.439206
2620.9,0.437896
2622.22,0.437407
2623.55,0.437593
2624.88,0.436636
2626.21,0.435408
2627.54,0.434232
2628.87,0.434533
2630.21,0.434196
2631.54,0.432541
2632.88,0.432929
2634.21,0.432385
2635.55,0.430644
2636.89,0.429949
2638.24,0.429428
2639.58,0.428748
2640.92,0.427882
2642.27,0.427405
2643.62,0.427184
2644.97,0.426113
2646.32,0.425006
2647.67,0.424144
2649.02,0.423183
2650.38,0.422414
2651.73,0.421329
2653.09,0.419576
2654.45,0.4188
2655.81,0.418391
2657.17,0.416914
2658.53,0.415368
2659.89,0.413757
2661.26,0.412099
2662.63,0.410594
2664.0,0.409338
2665.36,0.406948
2666.74,0.405129
2668.11,0.40467
2669.48,0.403509
2670.86,0.400411
2672.23,0.398882
2673.61,0.398001
2674.99,0.394928
2676.37,0.392516
2677.76,0.391189
2679.14,0.389996
2680.52,0.387716
2681.91,0.385347
2683.3,0.382605
2684.69,0.380403
2686.08,0.3779
2687.47,0.37496
2688.87,0.372576
2690.26,0.370235
2691.66,0.367145
2693.06,0.364183
2694.46,0.360834
2695.86,0.357257
2697.26,0.353812
2698.66,0.35114
2700.07,0.347675
2701.48,0.343639
2702.89,0.339642
2704.3,0.335692
2705.71,0.331258
2707.12,0.32675
2708.53,0.322322
2709.95,0.317671
2711.37,0.31237
2712.79,0.307665
2714.21,0.303233
2715.63,0.297982
2717.05,0.292335
2718.48,0.287344
2719.9,0.28263
2721.33,0.27687
2722.76,0.271687
2724.19,0.266464
2725.62,0.260148
2727.06,0.25415
2728.49,0.248347
2729.93,0.242966
2731.37,0.237681
2732.81,0.231913
2734.25,0.225698
2735.69,0.219789
2737.14,0.214194
2738.58,0.208625
2740.03,0.202588
2741.48,0.197595
2742.93,0.192509
2744.38,0.187076
2745.83,0.181691
2747.29,0.17638
2748.75,0.171358
2750.2,0.166233
2751.66,0.16155
2753.13,0.156814
2754.59,0.15155
2756.05,0.146317
2757.52,0.140888
2758.99,0.135789
2760.46,0.130982
2761.93,0.127087
2763.4,0.123146
2764.87,0.118863
2766.35,0.114699
2767.82,0.110746
2769.3,0.107218
2770.78,0.103336
2772.26,0.099657
2773.75,0.096938
2775.23,0.093739
2776.72,0.090669
2778.21,0.08838
2779.7,0.086466
2781.19,0.084217
2782.68,0.081726
2784.18,0.079252
2785.67,0.077203
2787.17,0.075679
2788.67,0.074009
2790.17,0.07211
2791.67,0.069984
2793.18,0.068068
2794.68,0.066327
2796.19,0.064701
2797.7,0.063599
2799.21,0.062468
2800.72,0.061284
2802.24,0.059913
2803.75,0.058528
2805.27,0.057687
2806.79,0.056484
2808.31,0.055295
2809.83,0.054489
2811.35,0.053413
2812.88,0.052471
2814.41,0.051348
2815.93,0.0506
2817.46,0.049847
2819.0,0.047993
2820.53,0.046506
2822.07,0.045861
2823.6,0.045231
2825.14,0.044622
2826.68,0.044172
2828.22,0.044213
2829.77,0.044873
2831.31,0.045525
2832.86,0.04645
2834.41,0.047719
2835.96,0.049154
2837.51,0.05128
2839.07,0.053368
2840.62,0.054814
2842.18,0.056442
2843.74,0.05838
2845.3,0.06005
2846.86,0.061143
2848.43,0.062696
2849.99,0.06435
2851.56,0.065472
2853.13,0.066459
2854.7,0.067375
2856.27,0.067916
2857.85,0.068373
2859.42,0.06894
2861.0,0.069508
2862.58,0.069772
2864.16,0.069913
2865.75,0.070084
2867.33,0.070136
2868.92,0.070326
2870.51,0.070586
2872.1,0.070224
2873.69,0.06964
2875.28,0.069588
2876.88,0.069419
2878.48,0.069322
2880.07,0.069272
2881.68,0.069124
2883.28,0.068858
2884.88,0.068605
2886.49,0.068629
2888.1,0.068449
2889.71,0.068778
2891.32,0.068752
2892.93,0.068072
2894.55,0.068113
2896.16,0.068131
2897.78,0.067663
2899.4,0.067488
2901.03,0.067507
2902.65,0.06718
2904.28,0.066721
2905.91,0.066561
2907.54,0.066333
2909.17,0.065788
2910.8,0.064991
2912.44,0.064398
2914.07,0.063939
2915.71,0.063384
2917.35,0.062875
2918.99,0.062403
2920.64,0.062193
2922.29,0.061752
2923.93,0.060775
2925.58,0.060065
2927.24,0.059647
2928.89,0.059197
2930.55,0.0584
2932.2,0.057566
2933.86,0.056962
2935.52,0.056458
2937.19,0.0562
2938.85,0.055704
2940.52,0.055353
2942.19,0.055912
2943.86,0.056102
2945.53,0.055899
2947.21,0.055929
2948.88,0.055973
2950.56,0.056163
2952.24,0.056523
2953.92,0.057088
2955.61,0.057781
2957.29,0.058084
2958.98,0.058359
2960.67,0.059188
2962.36,0.05987
2964.06,0.060433
2965.75,0.061213
2967.45,0.061594
2969.15,0.061529
2970.85,0.061838
2972.55,0.062642
2974.26,0.062999
2975.97,0.06348
2977.68,0.06393
2979.39,0.06448
2981.1,0.065376
2982.82,0.066338
2984.53,0.066903
2986.25,0.067431
2987.97,0.068144
2989.7,0.069053
2991.42,0.069934
2993.15,0.071136
2994.88,0.072204
2996.61,0.072853
2998.34,0.073706
3000.08,0.074789
3001.82,0.075657
3003.55,0.076757
3005.3,0.077641
3007.04,0.078154
3008.78,0.079262
3010.53,0.079962
3012.28,0.080304
3014.03,0.081064
3015.79,0.082023
3017.54,0.082554
3019.3,0.082777
3021.06,0.083108
3022.82,0.08369
3024.58,0.084206
3026.35,0.08444
3028.12,0.084706
3029.89,0.084987
3031.66,0.084821
3033.43,0.084899
3035.21,0.085003
3036.99,0.084338
3038.77,0.083381
3040.55,0.083095
3042.33,0.082772
3044.12,0.081846
3045.91,0.080945
3047.7,0.080265
3049.49,0.079578
3051.29,0.078676
3053.08,0.077933
3054.88,0.07763
3056.68,0.077376
3058.49,0.077244
3060.29,0.077394
3062.1,0.077082
3063.91,0.076688
3065.72,0.076476
3067.54,0.076606
3069.35,0.076677
3071.17,0.076452
3072.99,0.076523
3074.81,0.076876
3076.64,0.077023
3078.47,0.076872
3080.29,0.076861
3082.13,0.077028
3083.96,0.076954
3085.79,0.076781
3087.63,0.076783
3089.47,0.076874
3091.31,0.076933
3093.16,0.077177
3095.01,0.077357
3096.85,0.077329
3098.71,0.077359
3100.56,0.077374
3102.41,0.077476
3104.27,0.077662
3106.13,0.077632
3107.99,0.077641
3109.86,0.077716
3111.73,0.077883
3113.59,0.077993
3115.47,0.07826
3117.34,0.078455
3119.21,0.078539
3121.09,0.078665
3122.97,0.079297
3124.86,0.080133
3126.74,0.080661
3128.63,0.081218
3130.52,0.082023
3132.41,0.0829
3134.3,0.083801
3136.2,0.085039
3138.1,0.086354
3140.0,0.087757
3141.9,0.089476
3143.81,0.090862
3145.71,0.092204
3147.62,0.093835
3149.54,0.095792
3151.45,0.097388
3153.37,0.098986
3155.29,0.100599
3157.21,0.102204
3159.13,0.103851
3161.06,0.105367
3162.99,0.107292
3164.92,0.109269
3166.85,0.110607
3168.79,0.111859
3170.72,0.113337
3172.67,0.114951
3174.61,0.116603
3176.55,0.118099
3178.5,0.119376
3180.45,0.120539
3182.4,0.121825
3184.36,0.123309
3186.32,0.124636
3188.27,0.125968
3190.24,0.127247
3192.2,0.128707
3194.17,0.129965
3196.14,0.130922
3198.11,0.132006
3200.08,0.133507
3202.06,0.134709
3204.04,0.135581
3206.02,0.136623
3208.0,0.137881
3209.99,0.139011
3211.98,0.13994
3213.97,0.14117
3215.96,0.142733
3217.96,0.143814
3219.96,0.144496
3221.96,0.145362
3223.96,0.146549
3225.97,0.147683
3227.98,0.148777
3229.99,0.149803
3232.0,0.150702
3234.02,0.151399
3236.04,0.152367
3238.06,0.153571
3240.08,0.15469
3242.11,0.155547
3244.14,0.156191
3246.17,0.156905
3248.2,0.157756
3250.24,0.158672
3252.28,0.159666
3254.32,0.160383
3256.37,0.161026
3258.41,0.161903
3260.46,0.162821
3262.51,0.163355
3264.57,0.163817
3266.63,0.164832
3268.69,0.165744
3270.75,0.166374
3272.81,0.166943
3274.88,0.167578
3276.95,0.168143
3279.02,0.168769
3281.1,0.16963
3283.18,0.170486
3285.26,0.171257
3287.34,0.172146
3289.43,0.173114
3291.51,0.173877
3293.61,0.17463
3295.7,0.175604
3297.8,0.176605
3299.9,0.17783
3302.0,0.179004
3304.1,0.180173
3306.21,0.181453
3308.32,0.182698
3310.43,0.184172
3312.55,0.185656
3314.66,0.187284
3316.79,0.188956
3318.91,0.190463
3321.03,0.192214
3323.16,0.193791
3325.29,0.19525
3327.43,0.1969
3329.57,0.198929
3331.71,0.200735
3333.85,0.202326
3335.99,0.203976
3338.14,0.205669
3340.29,0.207335
3342.45,0.209147
3344.6,0.211018
3346.76,0.212687
3348.92,0.214441
3351.09,0.216556
3353.26,0.218503
3355.43,0.220298
3357.6,0.222069
3359.78,0.223596
3361.96,0.225283
3364.14,0.227201
3366.32,0.228877
3368.51,0.23044
3370.7,0.232021
3372.89,0.233861
3375.09,0.235793
3377.29,0.237421
3379.49,0.239036
3381.69,0.240782
3383.9,0.242351
3386.11,0.244043
3388.32,0.245842
3390.54,0.247384
3392.76,0.248917
3394.98,0.250727
3397.21,0.252349
3399.43,0.253849
3401.66,0.255473
3403.9,0.257192
3406.13,0.25863
3408.37,0.260226
3410.61,0.262138
3412.86,0.263872
3415.11,0.265513
3417.36,0.267343
3419.61,0.269147
3421.87,0.270704
3424.13,0.272321
3426.39,0.273932
3428.66,0.27548
3430.93,0.27713
3433.2,0.278746
3435.48,0.280203
3437.76,0.281547
3440.04,0.282961
3442.32,0.284384
3444.61,0.28569
3446.9,0.287065
3449.19,0.288669
3451.49,0.290243
3453.79,0.2917
3456.09,0.293132
3458.4,0.294468
3460.7,0.295927
3463.02,0.297378
3465.33,0.298779
3467.65,0.300006
3469.97,0.301379
3472.29,0.302737
3474.62,0.304036
3476.95,0.305487
3479.29,0.307163
3481.62,0.308839
3483.96,0.310155
3486.3,0.311437
3488.65,0.312966
3491.0,0.314451
3493.35,0.315729
3495.71,0.317151
3498.07,0.318775
3500.43,0.320477
3502.79,0.322075
3505.16,0.323692
3507.53,0.325232
3509.91,0.326776
3512.29,0.328216
3514.67,0.329712
3517.05,0.331031
3519.44,0.332367
3521.83,0.333822
3524.23,0.335268
3526.62,0.336574
3529.02,0.337983
3531.43,0.339406
3533.83,0.340803
3536.24,0.342364
3538.66,0.344074
3541.08,0.345536
3543.5,0.347002
3545.92,0.348552
3548.35,0.350037
3550.78,0.351395
3553.21,0.35288
3555.65,0.354316
3558.09,0.355485
3560.53,0.356696
3562.98,0.358155
3565.43,0.359621
3567.88,0.360944
3570.34,0.362254
3572.8,0.363739
3575.27,0.365179
3577.73,0.36653
3580.2,0.367899
3582.68,0.36925
3585.16,0.370313
3587.64,0.37156
3590.12,0.37302
3592.61,0.37439
3595.1,0.375568
3597.6,0.376666
3600.09,0.377651
3602.6,0.378862
3605.1,0.380096
3607.61,0.381384
3610.12,0.382655
3612.64,0.383697
3615.16,0.384805
3617.68,0.385988
3620.21,0.387001
3622.74,0.38804
3625.27,0.389396
3627.81,0.390745
3630.35,0.391931
3632.89,0.393021
3635.44,0.39409
3637.99,0.395119
3640.54,0.396015
3643.1,0.397076
3645.66,0.398165
3648.23,0.39928
3650.8,0.400272
3653.37,0.401275
3655.95,0.402329
3658.53,0.403117
3661.11,0.403812
3663.7,0.404862
3666.29,0.405923
3668.89,0.406987
3671.48,0.408065
3674.09,0.409026
3676.69,0.409996
3679.3,0.410884
3681.91,0.41167
3684.53,0.412454
3687.15,0.413223
3689.78,0.414212
3692.4,0.415241
3695.04,0.416282
3697.67,0.417226
3700.31,0.418012
3702.95,0.418965
3705.6,0.419959
3708.25,0.420671
3710.91,0.421368
3713.56,0.422289
3716.23,0.423267
3718.89,0.424216
3721.56,0.425088
3724.23,0.425948
3726.91,0.426818
3729.59,0.4277
3732.28,0.42865
3734.97,0.429419
3737.66,0.4303
3740.36,0.431244
3743.06,0.432232
3745.76,0.433225
3748.47,0.434061
3751.18,0.434927
3753.9,0.435785
3756.62,0.436638
3759.34,0.43737
3762.07,0.438297
3764.8,0.439264
3767.54,0.440297
3770.28,0.441285
3773.02,0.442172
3775.77,0.443039
3778.52,0.443941
3781.28,0.444808
3784.04,0.445301
3786.8,0.446029
3789.57,0.446893
3792.34,0.44785
3795.12,0.448556
3797.9,0.449417
3800.69,0.450305
3803.47,0.450925
3806.27,0.451604
3809.06,0.452598
3811.86,0.453471
3814.67,0.454036
3817.48,0.454692
3820.29,0.455545
3823.11,0.456333
3825.93,0.456888
3828.76,0.457436
3831.59,0.45815
3834.42,0.459008
3837.26,0.459772
3840.1,0.460744
3842.95,0.461636
3845.8,0.462258
3848.65,0.462868
3851.51,0.463492
3854.38,0.464371
3857.24,0.465224
3860.12,0.466019
3862.99,0.466844
3865.87,0.467595
3868.76,0.468273
3871.65,0.468957
3874.54,0.4696
3877.44,0.470115
3880.34,0.470655
3883.25,0.471276
3886.16,0.471932
3889.07,0.472666
3891.99,0.473298
3894.92,0.473816
3897.85,0.474149
3900.78,0.474465
3903.72,0.475102
3906.66,0.475513
3909.6,0.475799
3912.55,0.476315
3915.51,0.476772
3918.47,0.476982
3921.43,0.477274
3924.4,0.477664
3927.38,0.478183
3930.35,0.478573
3933.33,0.478675
3936.32,0.478919
3939.31,0.479184
3942.31,0.479249
3945.31,0.479348
3948.31,0.479467
3951.32,0.47963
3954.34,0.47969
3957.35,0.479703
3960.38,0.47982
3963.41,0.479859
3966.44,0.479905
3969.48,0.479996
3972.52,0.480147
3975.56,0.48031
3978.61,0.480409
3981.67,0.48039
3984.73,0.480455
3987.8,0.480396
3990.87,0.480424
3993.94,0.480537
3997.02,0.480736
4000.1,0.480643
4003.19,0.480357
4006.29,0.480225
4009.39,0.480095
4012.49,0.479877
4015.6,0.479721
4018.71,0.479537
4021.83,0.479259
4024.95,0.478932
4028.08,0.478735
4031.21,0.478636
4034.35,0.478387
4037.49,0.47809
4040.64,0.477828
4043.79,0.477486
4046.94,0.477226
4050.11,0.476821
4053.27,0.476393
4056.44,0.475806
4059.62,0.475403
4062.8,0.475085
4065.99,0.47442
4069.18,0.473543
4072.38,0.472878
4075.58,0.472224
4078.78,0.471551
4082.0,0.470748
4085.21,0.469884
4088.43,0.469093
4091.66,0.46829
4094.89,0.467335
4098.13,0.466532
4101.37,0.465703
4104.62,0.464882
4107.87,0.463773
4111.13,0.462697
4114.39,0.461764
4117.66,0.460861
4120.93,0.459739
4124.21,0.458557
4127.5,0.457277
4130.79,0.456281
4134.08,0.455428
4137.38,0.45448
4140.68,0.453477
4143.99,0.452486
4147.31,0.451431
4150.63,0.450329
4153.95,0.449186
4157.29,0.448179
4160.62,0.447192
4163.96,0.446003
4167.31,0.444827
4170.66,0.443773
4174.02,0.442783
4177.39,0.441785
4180.75,0.44067
4184.13,0.439583
4187.51,0.43855
4190.89,0.437584
4194.28,0.436311
4197.68,0.435023
4201.08,0.433875
4204.49,0.432719
4207.9,0.431504
4211.32,0.430233
4214.74,0.428797
4218.17,0.427481
4221.61,0.426132
4225.05,0.424816
4228.5,0.423763
4231.95,0.422787
4235.4,0.421672
4238.87,0.420437
4242.34,0.419155
4245.81,0.417923
4249.29,0.416657
4252.78,0.415152
4256.27,0.41342
4259.77,0.411449
4263.27,0.40952
4266.78,0.408106
4270.29,0.406783
4273.81,0.405425
4277.34,0.403773
4280.87,0.402048
4284.41,0.400365
4287.95,0.39859
4291.5,0.396782
4295.06,0.394857
4298.62,0.392882
4302.19,0.390879
4305.76,0.388757
4309.34,0.386542
4312.92,0.384275
4316.52,0.382168
4320.11,0.379836
4323.72,0.377506
4327.32,0.375319
4330.94,0.37292
4334.56,0.370298
4338.19,0.367797
4341.82,0.36542
4345.46,0.362852
4349.11,0.360236
4352.76,0.357616
4356.42,0.355161
4360.08,0.352787
4363.75,0.350345
4367.43,0.347985
4371.11,0.345798
4374.8,0.343672
4378.49,0.341718
4382.19,0.339664
4385.9,0.337752
4389.61,0.336097
4393.33,0.334476
4397.06,0.332958
4400.79,0.331431
4404.53,0.330067
4408.28,0.328898
4412.03,0.327906
4415.79,0.326858
4419.55,0.32578
4423.32,0.324877
4427.1,0.324091
4430.88,0.323322
4434.68,0.322534
4438.47,0.321789
4442.28,0.321276
4446.08,0.32075
4449.9,0.320206
4453.72,0.319871
4457.55,0.319585
4461.39,0.319345
4465.23,0.319126
4469.08,0.318892
4472.94,0.318808
4476.8,0.318619
4480.67,0.31839
4484.55,0.318325
4488.43,0.31798
4492.32,0.317415
4496.21,0.317006
4500.12,0.316606
4504.03,0.315854
4507.94,0.314914
4511.87,0.314016
4515.8,0.31297
4519.73,0.311729
4523.68,0.310367
4527.63,0.309153
4531.59,0.307819
4535.55,0.306238
4539.52,0.304569
4543.5,0.302867
4547.49,0.301015
4551.48,0.299266
4555.48,0.297436
4559.49,0.29562
4563.5,0.293799
4567.52,0.292164
4571.55,0.290568
4575.58,0.288981
4579.63,0.287578
4583.67,0.286395
4587.73,0.285386
4591.79,0.284678
4595.86,0.28425
4599.94,0.284107
4604.03,0.284174
4608.12,0.284579
4612.22,0.285235
4616.33,0.286328
4620.44,0.287675
4624.56,0.288827
4628.69,0.290222
4632.83,0.291923
4636.97,0.293589
4641.12,0.295472
4645.28,0.29738
4649.45,0.299331
4653.62,0.301429
4657.8,0.303564
4661.99,0.305727
4666.19,0.30794
4670.39,0.310172
4674.6,0.312429
4678.82,0.314823
4683.05,0.317034
4687.28,0.319156
4691.52,0.321575
4695.77,0.323805
4700.03,0.32599
4704.3,0.328075
4708.57,0.330132
4712.85,0.331986
4717.14,0.333703
4721.43,0.335517
4725.74,0.337303
4730.05,0.338767
4734.37,0.340012
4738.7,0.341379
4743.03,0.342805
4747.38,0.344165
4751.73,0.345296
4756.09,0.346261
4760.45,0.347238
4764.83,0.348032
4769.21,0.348814
4773.6,0.349518
4778.0,0.350157
4782.41,0.350659
4786.83,0.351109
4791.25,0.351609
4795.68,0.352027
4800.13,0.352337
4804.57,0.352824
4809.03,0.353422
4813.5,0.353933
4817.97,0.354338
4822.45,0.354827
4826.94,0.355423
4831.44,0.35604
4835.95,0.356538
4840.46,0.357027
4844.99,0.357681
4849.52,0.358244
4854.06,0.358738
4858.61,0.359474
4863.17,0.360232
4867.73,0.360966
4872.31,0.361663
4876.89,0.362479
4881.48,0.363155
4886.08,0.363796
4890.69,0.364616
4895.31,0.365435
4899.94,0.366329
4904.57,0.367115
4909.22,0.367628
4913.87,0.368338
4918.53,0.369215
4923.21,0.369941
4927.88,0.370567
4932.57,0.371244
4937.27,0.371794
4941.98,0.372171
4946.69,0.372379
4951.42,0.372587
4956.15,0.372723
4960.9,0.37276
4965.65,0.372561
4970.41,0.372299
4975.18,0.372225
4979.96,0.372297
4984.75,0.372255
4989.54,0.372362
4994.35,0.372565
4999.17,0.372844
5003.99,0.373158
5008.83,0.373446
5013.67,0.373661
5018.52,0.373975
5023.39,0.374397
5028.26,0.375077
5033.14,0.375482
5038.03,0.375824
5042.93,0.376118
5047.84,0.376387
5052.76,0.376398
5057.69,0.376551
5062.63,0.376759
5067.58,0.376887
5072.54,0.377
5077.51,0.377093
5082.49,0.376896
5087.47,0.376766
5092.47,0.376703
5097.48,0.37648
5102.5,0.376372
5107.52,0.376424
5112.56,0.376508
5117.61,0.376541
5122.66,0.376393
5127.73,0.376259
5132.81,0.376419
5137.89,0.37658
5142.99,0.376491
5148.1,0.376194
5153.22,0.375845
5158.34,0.375482
5163.48,0.375003
5168.63,0.374678
5173.79,0.374434
5178.96,0.374401
5184.13,0.374434
5189.32,0.374544
5194.52,0.374793
5199.73,0.374932
5204.96,0.375023
5210.19,0.375218
5215.43,0.375059
5220.68,0.374956
5225.94,0.374652
5231.22,0.374239
5236.5,0.373737
5241.79,0.373148
5247.1,0.372186
5252.42,0.371075
5257.74,0.369988
5263.08,0.368891
5268.43,0.367578
5273.79,0.366253
5279.16,0.364917
5284.54,0.363622
5289.93,0.36225
5295.34,0.360734
5300.75,0.359331
5306.18,0.357798
5311.61,0.356102
5317.06,0.354602
5322.52,0.352989
5327.99,0.35125
5333.47,0.349576
5338.96,0.34816
5344.47,0.346865
5349.98,0.345832
5355.51,0.34504
5361.05,0.344583
5366.6,0.343968
5372.16,0.343418
5377.73,0.342825
5383.32,0.342149
5388.91,0.341344
5394.52,0.34066
5400.14,0.339854
5405.77,0.338806
5411.41,0.337674
5417.07,0.336507
5422.74,0.335155
5428.41,0.334108
5434.1,0.332986
5439.81,0.331529
5445.52,0.330145
5451.25,0.328586
5456.98,0.326969
5462.73,0.325258
5468.5,0.323565
5474.27,0.322071
5480.06,0.320287
5485.86,0.318559
5491.67,0.31698
5497.49,0.315343
5503.33,0.313713
5509.18,0.312149
5515.04,0.310668
5520.91,0.309205
5526.8,0.307767
5532.69,0.306478
5538.61,0.305184
5544.53,0.30393
5550.47,0.302635
5556.41,0.301364
5562.38,0.300349
5568.35,0.299335
5574.34,0.298172
5580.34,0.297025
5586.35,0.296113
5592.38,0.295091
5598.42,0.293866
5604.47,0.292818
5610.54,0.291863
5616.61,0.290659
5622.71,0.289455
5628.81,0.288351
5634.93,0.286926
5641.06,0.285341
5647.21,0.283951
5653.36,0.282574
5659.54,0.280761
5665.72,0.279181
5671.92,0.27739
5678.13,0.275506
5684.36,0.273635
5690.6,0.271522
5696.85,0.269396
5703.12,0.267566
5709.4,0.26541
5715.69,0.263348
5722.0,0.261187
5728.33,0.258914
5734.66,0.256606
5741.01,0.254269
5747.38,0.252011
5753.76,0.249917
5760.15,0.247864
5766.56,0.24568
5772.98,0.243839
5779.41,0.242308
5785.86,0.240333
5792.33,0.238326
5798.81,0.23623
5805.3,0.23411
5811.81,0.23188
5818.33,0.229455
5824.87,0.226883
5831.42,0.224561
5837.99,0.221783
5844.57,0.218785
5851.17,0.21558
5857.78,0.212172
5864.41,0.208437
5871.05,0.204442
5877.7,0.200109
5884.38,0.195458
5891.06,0.19051
5897.76,0.18513
5904.48,0.17921
5911.21,0.172803
5917.96,0.16593
5924.73,0.158449
5931.5,0.150418
5938.3,0.141984
5945.11,0.132394
5951.93,0.122583
5958.78,0.112675
5965.63,0.102502
5972.51,0.092237
5979.39,0.081885
5986.3,0.072427
5993.22,0.06414
6000.16,0.057075
6007.11,0.051958
6014.08,0.048894
6021.06,0.048149
6028.06,0.049609
6035.08,0.052283
6042.12,0.055154
6049.17,0.057458
6056.23,0.058625
6063.32,0.058374
6070.42,0.057651
6077.53,0.057941
6084.67,0.060106
6091.82,0.063991
6098.98,0.069378
6106.17,0.075863
6113.37,0.082489
6120.58,0.089316
6127.82,0.096061
6135.07,0.1021
6142.34,0.107766
6149.63,0.112837
6156.93,0.117166
6164.25,0.120838
6171.59,0.124175
6178.95,0.12644
6186.32,0.127756
6193.71,0.12872
6201.12,0.128986
6208.54,0.128241
6215.99,0.127052
6223.45,0.125493
6230.93,0.123709
6238.43,0.121771
6245.95,0.120074
6253.48,0.118649
6261.03,0.117908
6268.6,0.117986
6276.19,0.118933
6283.8,0.120786
6291.43,0.123746
6299.07,0.127345
6306.73,0.131545
6314.42,0.136073
6322.12,0.140787
6329.84,0.145522
6337.57,0.150223
6345.33,0.1544
6353.11,0.158871
6360.9,0.162981
6368.72,0.166266
6376.55,0.169403
6384.4,0.172515
6392.27,0.175033
6400.17,0.177317
6408.08,0.179088
6416.01,0.180587
6423.96,0.182642
6431.93,0.184417
6439.92,0.185534
6447.93,0.186589
6455.96,0.187475
6464.01,0.188462
6472.08,0.18917
6480.17,0.189789
6488.28,0.190246
6496.41,0.190876
6504.56,0.191688
6512.73,0.192312
6520.92,0.192587
6529.14,0.193249
6537.37,0.193715
6545.63,0.194059
6553.9,0.19436
6562.2,0.194862
6570.51,0.195124
6578.85,0.195289
6587.21,0.195594
6595.59,0.195605
6603.99,0.195666
6612.42,0.195607
6620.86,0.195499
6629.33,0.195328
6637.82,0.194992
6646.33,0.194949
6654.86,0.194914
6663.41,0.19467
6671.99,0.194287
6680.59,0.193862
6689.21,0.193641
6697.85,0.193479
6706.51,0.192912
6715.2,0.192379
6723.91,0.192058
6732.64,0.19184
6741.4,0.191495
6750.18,0.190982
6758.98,0.190465
6767.8,0.189971
6776.65,0.189408
6785.52,0.188778
6794.41,0.188235
6803.33,0.187901
6812.27,0.187303
6821.23,0.186582
6830.22,0.185967
6839.23,0.185489
6848.26,0.184952
6857.32,0.184103
6866.4,0.183133
6875.51,0.1826
6884.64,0.181812
6893.8,0.180805
6902.98,0.179833
6912.18,0.178872
6921.41,0.177941
6930.66,0.1768
6939.94,0.175711
6949.24,0.174617
6958.57,0.173396
6967.92,0.172216
6977.3,0.171192
6986.7,0.170053
6996.13,0.168779
7005.59,0.167617
7015.07,0.166489
7024.57,0.165395
7034.1,0.164581
7043.66,0.163546
7053.25,0.162442
7062.85,0.161452
7072.49,0.160419
7082.15,0.159514
7091.84,0.158613
7101.55,0.157665
7111.3,0.156684
7121.06,0.15558
7130.86,0.154476
7140.68,0.153495
7150.53,0.152579
7160.41,0.151501
7170.31,0.150353
7180.24,0.149246
7190.2,0.148237
7200.19,0.147213
7210.2,0.146111
7220.24,0.145048
7230.31,0.14392
7240.41,0.142844
7250.54,0.141863
7260.69,0.140782
7270.88,0.139737
7281.09,0.138595
7291.33,0.137543
7301.6,0.136395
7311.9,0.135187
7322.22,0.134061
7332.58,0.13294
7342.97,0.131749
7353.38,0.130491
7363.83,0.129109
7374.3,0.127795
7384.81,0.126461
7395.34,0.124945
7405.91,0.123445
7416.5,0.122059
7427.13,0.12063
7437.78,0.119238
7448.47,0.117584
7459.19,0.115973
7469.94,0.114556
7480.71,0.112974
7491.52,0.111155
7502.37,0.109377
7513.24,0.107736
7524.14,0.106034
7535.08,0.104222
7546.05,0.10245
7557.05,0.100551
7568.08,0.098737
7579.15,0.096888
7590.24,0.095032
7601.37,0.093373
7612.53,0.091585
7623.73,0.08966
7634.96,0.087919
7646.22,0.086189
7657.51,0.084396
7668.84,0.082536
7680.2,0.080592
7691.59,0.078784
7703.02,0.076971
7714.49,0.075055
7725.98,0.073332
7737.52,0.07166
7749.08,0.069962
7760.68,0.068241
7772.32,0.066543
7783.99,0.064764
7795.69,0.063038
7807.43,0.061303
7819.21,0.059543
7831.02,0.057713
7842.87,0.055847
7854.75,0.054041
7866.67,0.052283
7878.62,0.050458
7890.62,0.048645
7902.64,0.046859
7914.71,0.045036
7926.81,0.043167
7938.95,0.041398
7951.13,0.039657
7963.34,0.037912
7975.59,0.036221
7987.88,0.034614
8000.21,0.032979
8012.57,0.031226
8024.98,0.029474
8037.42,0.027934
8049.9,0.026416
8062.42,0.024964
8074.98,0.023478
8087.57,0.022056
8100.21,0.020594
8112.89,0.01918
8125.6,0.017963
8138.36,0.016755
8151.16,0.015553
8163.99,0.014397
8176.87,0.013275
8189.79,0.012281
8202.75,0.011331
8215.75,0.010361
8228.79,0.009467
8241.87,0.008828
8254.99,0.008189
8268.16,0.007578
8281.37,0.00699
8294.62,0.006615
8307.91,0.006357
8321.24,0.006318
8334.62,0.006362
8348.04,0.00637
8361.51,0.00663
8375.02,0.007197
8388.57,0.007838
8402.16,0.008726
8415.8,0.009709
8429.49,0.01101
8443.22,0.012585
8456.99,0.014512
8470.81,0.016686
8484.67,0.019386
8498.58,0.022573
8512.54,0.026193
8526.54,0.03021
8540.58,0.03469
8554.68,0.039815
8568.82,0.04551
8583.0,0.051796
8597.24,0.058653
8611.52,0.066039
8625.85,0.073789
8640.23,0.081878
8654.65,0.090156
8669.12,0.098481
8683.64,0.106636
8698.21,0.114578
8712.83,0.122289
8727.5,0.129393
8742.22,0.135519
8756.99,0.140183
8771.8,0.143379
8786.67,0.145089
8801.59,0.145028
8816.56,0.143439
8831.58,0.140839
8846.65,0.138108
8861.77,0.135781
8876.94,0.134048
8892.17,0.132831
8907.45,0.13166
8922.78,0.130216
8938.16,0.128258
8953.6,0.125669
8969.09,0.122683
8984.64,0.119212
9000.23,0.115552
9015.89,0.112058
9031.59,0.108925
9047.36,0.106296
9063.17,0.103596
9079.05,0.100658
9094.97,0.097232
9110.96,0.092984
9127.0,0.087681
9143.1,0.08138
9159.25,0.074919
9175.46,0.069055
9191.73,0.064242
9208.06,0.060974
9224.44,0.059335
9240.88,0.059114
9257.38,0.060353
9273.94,0.063296
9290.56,0.067613
9307.24,0.073106
9323.98,0.07934
9340.78,0.085808
9357.64,0.091602
9374.57,0.096262
9391.55,0.099577
9408.59,0.101279
9425.7,0.101695
9442.87,0.102063
9460.1,0.102704
9477.4,0.103648
9494.75,0.10444
9512.17,0.104191
9529.66,0.102771
9547.21,0.100538
9564.83,0.098499
9582.5,0.097247
9600.25,0.097041
9618.06,0.09828
9635.94,0.101156
9653.88,0.10522
9671.89,0.109656
9689.97,0.113697
9708.12,0.11722
9726.33,0.120197
9744.62,0.122724
9762.97,0.124761
9781.39,0.125913
9799.88,0.125783
9818.44,0.124062
9837.07,0.121466
9855.77,0.119517
9874.54,0.118846
9893.39,0.118878
9912.3,0.118521
9931.29,0.117172
9950.36,0.114595
9969.49,0.111423
9988.7,0.108782
10007.98,0.107558
10027.34,0.107459
10046.77,0.107738
10066.28,0.107924
10085.87,0.108338
10105.53,0.109418
10125.26,0.11104
10145.08,0.112653
10164.97,0.113441
10184.94,0.112859
10204.99,0.111525
10225.12,0.109126
10245.33,0.105735
10265.61,0.102336
10285.98,0.099064
10306.43,0.096275
10326.96,0.094406
10347.57,0.093254
10368.27,0.091897
10389.05,0.09003
10409.91,0.087562
10430.86,0.084779
10451.88,0.08198
10473.0,0.079568
10494.2,0.07797
10515.49,0.077532
10536.86,0.07865
10558.32,0.081363
10579.87,0.085087
10601.5,0.088796
10623.23,0.091899
10645.04,0.094077
10666.94,0.09527
10688.94,0.095807
10711.02,0.095628
10733.2,0.095283
10755.47,0.095132
10777.83,0.095114
10800.28,0.095331
10822.83,0.09597
10845.47,0.097102
10868.21,0.098694
10891.04,0.100476
10913.97,0.102448
10936.99,0.104503
10960.12,0.106718
10983.34,0.109154
11006.66,0.111471
11030.07,0.113812
11053.59,0.116161
11077.21,0.11838
11100.93,0.120476
11124.75,0.122384
11148.68,0.124034
11172.71,0.125643
11196.84,0.12708
11221.07,0.128349
11245.41,0.129402
11269.86,0.130307
11294.41,0.131156
11319.07,0.131638
11343.84,0.132104
11368.72,0.132663
11393.7,0.133054
11418.8,0.133254
11444.01,0.133557
11469.33,0.133661
11494.76,0.133754
11520.3,0.133897
11545.96,0.134115
11571.73,0.134414
11597.62,0.134644
11623.62,0.13473
11649.74,0.134986
11675.98,0.135198
11702.34,0.135436
11728.81,0.135486
11755.41,0.13549
11782.13,0.135168
11808.96,0.134672
11835.92,0.134436
11863.01,0.134278
11890.22,0.134025
11917.55,0.133832
11945.01,0.133507
11972.6,0.133037
12000.31,0.132786
12028.16,0.132379
12056.13,0.131615
12084.23,0.130937
12112.46,0.130172
12140.83,0.129246
12169.33,0.128204
12197.96,0.126901
12226.73,0.125669
12255.64,0.124274
12284.68,0.122644
12313.86,0.120894
12343.18,0.119452
12372.64,0.118004
12402.24,0.11596
12431.98,0.113615
12461.86,0.11135
12491.89,0.109035
12522.07,0.106385
12552.38,0.103585
12582.85,0.100712
12613.47,0.097947
12644.23,0.095205
12675.15,0.092356
12706.21,0.089327
12737.43,0.086477
12768.81,0.083632
12800.33,0.080949
12832.02,0.078559
12863.86,0.076298
12895.86,0.074174
12928.02,0.072162
12960.34,0.070341
12992.82,0.068624
13025.46,0.066747
13058.27,0.064885
13091.25,0.06299
13124.39,0.06128
13157.7,0.059528
13191.18,0.0578
13224.83,0.055931
13258.66,0.053948
13292.65,0.051623
13326.83,0.049096
13361.17,0.04638
13395.7,0.043711
13430.4,0.040839
13465.29,0.038367
13500.35,0.036318
13535.6,0.034517
13571.03,0.033088
13606.65,0.032282
13642.46,0.032613
13678.46,0.034027
13714.64,0.036045
13751.02,0.038429
13787.59,0.040406
13824.36,0.041712
13861.32,0.043011
13898.49,0.044445
13935.85,0.045755
13973.41,0.04698
14011.17,0.047775
14049.15,0.048011
14087.32,0.047751
14125.71,0.047446
14164.3,0.047121
14203.11,0.047041
14242.13,0.047463
14281.36,0.048359
14320.81,0.049643
14360.49,0.051692
14400.38,0.05384
14440.49,0.056068
14480.82,0.058092
14521.39,0.059285
14562.18,0.059779
14603.2,0.059671
14644.45,0.058813
14685.93,0.057761
14727.66,0.056776
14769.62,0.05602
14811.81,0.055847
14854.25,0.056358
14896.94,0.057129
14939.87,0.058547
14983.05,0.060294
15026.48,0.061239
15070.16,0.061353
15114.1,0.061459
15158.29,0.061509
15202.74,0.061682
15247.46,0.062172
15292.43,0.062754
15337.68,0.06401
15383.19,0.065918
15428.97,0.067877
15475.03,0.070699
15521.36,0.074053
15567.97,0.077363
15614.87,0.08046
15662.04,0.083041
15709.5,0.085163
15757.25,0.086949
15805.29,0.08816
15853.62,0.088861
15902.26,0.089062
15951.19,0.089082
16000.42,0.088502
16049.95,0.087815
16099.8,0.087116
16149.95,0.086306
16200.42,0.085591
16251.21,0.085117
16302.31,0.08447
16353.74,0.083749
16405.49,0.083695
16457.57,0.083762
16509.98,0.083021
16562.73,0.081882
16615.82,0.080739
16669.24,0.079879
16723.02,0.078903
16777.14,0.077868
16831.61,0.077244
16886.43,0.076582
16941.62,0.075815
16997.16,0.075629
17053.08,0.075861
17109.36,0.07603
17166.01,0.075787
17223.04,0.075436
17280.45,0.075404
17338.24,0.075088
17396.43,0.074804
17455.0,0.074577
17513.97,0.074109
17573.34,0.073717
17633.11,0.073293
17693.29,0.073091
17753.89,0.073466
17814.9,0.073754
17876.33,0.073979
17938.18,0.074581
18000.47,0.074865
18063.19,0.075157
18126.35,0.075833
18189.95,0.076666
18254.0,0.077846
18318.5,0.079624
18383.46,0.081194
18448.88,0.082103
18514.77,0.083223
18581.13,0.084613
18647.97,0.085602
18715.29,0.086206
18783.1,0.086397
18851.4,0.087036
18920.2,0.087603
18989.51,0.087778
19059.32,0.08809
19129.65,0.089019
19200.5,0.090344
19271.88,0.091667
19343.79,0.093527
19416.24,0.094807
19489.23,0.095519
19562.77,0.096481
19636.88,0.097771
19711.54,0.099454
19786.78,0.100759
19862.59,0.102271
19938.98,0.103771
20015.96,0.105142
20093.55,0.105278
20171.73,0.105148
20250.53,0.105584
20329.94,0.106062
20409.98,0.105514
20490.65,0.104202
20571.96,0.102771
20653.92,0.100863
20736.54,0.098971
20819.82,0.096888
20903.77,0.095437
20988.4,0.094082
21073.72,0.09217
21159.73,0.089896
21246.46,0.088742
21333.89,0.087657
21422.04,0.085362
21510.93,0.083175
21600.56,0.082233
21690.94,0.081986
21782.08,0.0824
21873.99,0.08534
21966.67,0.089582
22060.15,0.096249
22154.42,0.106389
22249.51,0.118794
22345.41,0.131985
22442.14,0.146564
22539.72,0.16114
22638.14,0.173249
22737.43,0.182735
22837.6,0.188533
22938.65,0.19211
23040.6,0.195744
23143.46,0.197381
23247.24,0.197435
23351.96,0.196588
23457.63,0.194367
23564.25,0.190309
23671.85,0.185201
23780.44,0.17997
23890.02,0.174526
24000.63,0.167322
24112.26,0.160571
24224.93,0.155645
24338.66,0.150154
24453.47,0.145923
24569.36,0.14261
24686.36,0.139663
24804.47,0.13936
24923.73,0.136172
25044.13,0.134035
25165.71,0.135181
25288.46,0.135975
25412.43,0.134408
25537.61,0.13334
25664.04,0.130803
25791.72,0.129657
25920.68,0.130666
