Database of Origin,University of Winnipeg Spectrophotometer Facility
Sample Description,RELAB Garnet data merged @2500nm with Nicolet data. See HOSERLab website for additional info.
Date Added,2016-11-29 18:08:31.665981

Data ID,RLA_GAR_05          
Sample ID,GAR106
Mineral Name,Spessartine
Grain Size,<45
Viewing Geometry,"30/0,30"
Resolution,5/0.6-129
Material Class,Nesosilicate

Wavelength
300.0,0.083849
305.0,0.094774
310.0,0.114533
315.0,0.140554
320.0,0.168765
325.0,0.195835
330.0,0.22031
335.0,0.241012
340.0,0.259962
345.0,0.280728
350.0,0.302847
355.0,0.326167
360.0,0.344788
365.0,0.356229
370.0,0.347297
375.0,0.36674
380.0,0.385887
385.0,0.402569
390.0,0.424584
395.0,0.441406
400.0,0.455893
405.0,0.463266
410.0,0.464566
415.0,0.473853
420.0,0.478435
425.0,0.482613
430.0,0.483815
435.0,0.488021
440.0,0.498129
445.0,0.507577
450.0,0.512861
455.0,0.516766
460.0,0.520584
465.0,0.523899
470.0,0.527343
475.0,0.5311
480.0,0.536113
485.0,0.540899
490.0,0.546835
495.0,0.552641
500.0,0.558185
505.0,0.563583
510.0,0.569169
515.0,0.574052
520.0,0.579181
525.0,0.583583
530.0,0.588173
535.0,0.592781
540.0,0.59703
545.0,0.600838
550.0,0.60526
555.0,0.609236
560.0,0.613356
565.0,0.61672
570.0,0.620007
575.0,0.622992
580.0,0.626092
585.0,0.629032
590.0,0.631332
595.0,0.634108
600.0,0.636063
605.0,0.63834
610.0,0.639867
615.0,0.641777
620.0,0.643685
625.0,0.644978
630.0,0.645778
635.0,0.646892
640.0,0.647562
645.0,0.648532
650.0,0.648568
655.0,0.649251
660.0,0.649302
665.0,0.649735
670.0,0.650427
675.0,0.650989
680.0,0.651297
685.0,0.651703
690.0,0.651931
695.0,0.652957
700.0,0.654082
705.0,0.654067
710.0,0.654887
715.0,0.655206
720.0,0.656238
725.0,0.656825
730.0,0.657536
735.0,0.657689
740.0,0.658648
745.0,0.659093
750.0,0.65923
755.0,0.659874
760.0,0.65998
765.0,0.660717
770.0,0.660049
775.0,0.661168
780.0,0.661385
785.0,0.661782
790.0,0.662377
795.0,0.662041
800.0,0.662501
805.0,0.662497
810.0,0.663168
815.0,0.663638
820.0,0.6627
825.0,0.663981
830.0,0.663691
835.0,0.664446
840.0,0.664044
845.0,0.665024
850.0,0.664834
855.0,0.665313
860.0,0.664949
865.0,0.665324
870.0,0.667108
875.0,0.667047
880.0,0.66476
885.0,0.664135
890.0,0.663902
895.0,0.661108
900.0,0.662825
905.0,0.663473
910.0,0.665437
915.0,0.665497
920.0,0.664838
925.0,0.666993
930.0,0.667498
935.0,0.667277
940.0,0.669402
945.0,0.670794
950.0,0.67053
955.0,0.671901
960.0,0.672341
965.0,0.67068
970.0,0.671389
975.0,0.671119
980.0,0.669653
985.0,0.669248
990.0,0.670219
995.0,0.669438
1000.0,0.667733
1005.0,0.668987
1010.0,0.670347
1015.0,0.672247
1020.0,0.672131
1025.0,0.673624
1030.0,0.673541
1035.0,0.673397
1040.0,0.67331
1045.0,0.67311
1050.0,0.673683
1055.0,0.673834
1060.0,0.6749
1065.0,0.674424
1070.0,0.675256
1075.0,0.674421
1080.0,0.674104
1085.0,0.672523
1090.0,0.672345
1095.0,0.673453
1100.0,0.674261
1105.0,0.673581
1110.0,0.674409
1115.0,0.674259
1120.0,0.674213
1125.0,0.673889
1130.0,0.673889
1135.0,0.673152
1140.0,0.672853
1145.0,0.671046
1150.0,0.669576
1155.0,0.669455
1160.0,0.667988
1165.0,0.665364
1170.0,0.66501
1175.0,0.664649
1180.0,0.664008
1185.0,0.665423
1190.0,0.665802
1195.0,0.666159
1200.0,0.665997
1205.0,0.665572
1210.0,0.665764
1215.0,0.6655
1220.0,0.666008
1225.0,0.665903
1230.0,0.666852
1235.0,0.66702
1240.0,0.667934
1245.0,0.668384
1250.0,0.669352
1255.0,0.668804
1260.0,0.669566
1265.0,0.669435
1270.0,0.66953
1275.0,0.669414
1280.0,0.670068
1285.0,0.670429
1290.0,0.672103
1295.0,0.673734
1300.0,0.674195
1305.0,0.674637
1310.0,0.675325
1315.0,0.676151
1320.0,0.67729
1325.0,0.679025
1330.0,0.680422
1335.0,0.68166
1340.0,0.682946
1345.0,0.682809
1350.0,0.682472
1355.0,0.6833
1360.0,0.684434
1365.0,0.685376
1370.0,0.687034
1375.0,0.688295
1380.0,0.689355
1385.0,0.689475
1390.0,0.690065
1395.0,0.689475
1400.0,0.68872
1405.0,0.688769
1410.0,0.690215
1415.0,0.690231
1420.0,0.691198
1425.0,0.692494
1430.0,0.692501
1435.0,0.693244
1440.0,0.693129
1445.0,0.692781
1450.0,0.692826
1455.0,0.693716
1460.0,0.693382
1465.0,0.694325
1470.0,0.69431
1475.0,0.694677
1480.0,0.693963
1485.0,0.694959
1490.0,0.694403
1495.0,0.694822
1500.0,0.694343
1505.0,0.695404
1510.0,0.694347
1515.0,0.694496
1520.0,0.694485
1525.0,0.69524
1530.0,0.695016
1535.0,0.695392
1540.0,0.695629
1545.0,0.695013
1550.0,0.694495
1555.0,0.694439
1560.0,0.694229
1565.0,0.693736
1570.0,0.69364
1575.0,0.69423
1580.0,0.693384
1585.0,0.694034
1590.0,0.694571
1595.0,0.695287
1600.0,0.694411
1605.0,0.694324
1610.0,0.693603
1615.0,0.69281
1620.0,0.691894
1625.0,0.691713
1630.0,0.691339
1635.0,0.690964
1640.0,0.691312
1645.0,0.691904
1650.0,0.690886
1655.0,0.690693
1660.0,0.689622
1665.0,0.688973
1670.0,0.688147
1675.0,0.688313
1680.0,0.688254
1685.0,0.688519
1690.0,0.688351
1695.0,0.688087
1700.0,0.688653
1705.0,0.688153
1710.0,0.688243
1715.0,0.688645
1720.0,0.689642
1725.0,0.688033
1730.0,0.688025
1735.0,0.687298
1740.0,0.686465
1745.0,0.684254
1750.0,0.685538
1755.0,0.684658
1760.0,0.684108
1765.0,0.684352
1770.0,0.684219
1775.0,0.681952
1780.0,0.682545
1785.0,0.683179
1790.0,0.682207
1795.0,0.682717
1800.0,0.683486
1805.0,0.683762
1810.0,0.683696
1815.0,0.684056
1820.0,0.682863
1825.0,0.682669
1830.0,0.682104
1835.0,0.681796
1840.0,0.682702
1845.0,0.682557
1850.0,0.682061
1855.0,0.68101
1860.0,0.681599
1865.0,0.680567
1870.0,0.680582
1875.0,0.681256
1880.0,0.680779
1885.0,0.679559
1890.0,0.678649
1895.0,0.680649
1900.0,0.679493
1905.0,0.679928
1910.0,0.680253
1915.0,0.680733
1920.0,0.679606
1925.0,0.678573
1930.0,0.676647
1935.0,0.676688
1940.0,0.67711
1945.0,0.677226
1950.0,0.679628
1955.0,0.68242
1960.0,0.680031
1965.0,0.681495
1970.0,0.680501
1975.0,0.680804
1980.0,0.683996
1985.0,0.686159
1990.0,0.684361
1995.0,0.684541
2000.0,0.684561
2005.0,0.680518
2010.0,0.682317
2015.0,0.686352
2020.0,0.690417
2025.0,0.690776
2030.0,0.692491
2035.0,0.688338
2040.0,0.686185
2045.0,0.685684
2050.0,0.685615
2055.0,0.685954
2060.0,0.688315
2065.0,0.687279
2070.0,0.685873
2075.0,0.686859
2080.0,0.686931
2085.0,0.688886
2090.0,0.689272
2095.0,0.690155
2100.0,0.689031
2105.0,0.690364
2110.0,0.690189
2115.0,0.690535
2120.0,0.690934
2125.0,0.689349
2130.0,0.687598
2135.0,0.685965
2140.0,0.685818
2145.0,0.686966
2150.0,0.687863
2155.0,0.689179
2160.0,0.688664
2165.0,0.686813
2170.0,0.685764
2175.0,0.685916
2180.0,0.684644
2185.0,0.684587
2190.0,0.685509
2195.0,0.686205
2200.0,0.68452
2205.0,0.682573
2210.0,0.682519
2215.0,0.683839
2220.0,0.684623
2225.0,0.685219
2230.0,0.68532
2235.0,0.684974
2240.0,0.68507
2245.0,0.686309
2250.0,0.687658
2255.0,0.686177
2260.0,0.686323
2265.0,0.686317
2270.0,0.684917
2275.0,0.685057
2280.0,0.685987
2285.0,0.686215
2290.0,0.686215
2295.0,0.686307
2300.0,0.685091
2305.0,0.683768
2310.0,0.683489
2315.0,0.683749
2320.0,0.68288
2325.0,0.683009
2330.0,0.684133
2335.0,0.684738
2340.0,0.683798
2345.0,0.682776
2350.0,0.684297
2355.0,0.686021
2360.0,0.685175
2365.0,0.684281
2370.0,0.683906
2375.0,0.68417
2380.0,0.685405
2385.0,0.684294
2390.0,0.68356
2395.0,0.68457
2400.0,0.685165
2405.0,0.685956
2410.0,0.685885
2415.0,0.685666
2420.0,0.684846
2425.0,0.683044
2430.0,0.68247
2435.0,0.681935
2440.0,0.683119
2445.0,0.683135
2450.0,0.682931
2455.0,0.68281
2460.0,0.683014
2465.0,0.683007
2470.0,0.683476
2475.0,0.683485
2480.0,0.682984
2485.0,0.683031
2490.0,0.683089
2495.0,0.683726
2500.0,0.683687
2505.0,0.685102
2510.0,0.684593
2515.0,0.683523
2520.0,0.684546
2525.0,0.684737
2530.0,0.683843
2535.0,0.683419
2540.0,0.682864
2542.49,0.682075
2543.74,0.683396
2544.99,0.683298
2546.24,0.682776
2547.49,0.681841
2548.74,0.681147
2549.99,0.681911
2551.25,0.682083
2552.5,0.681262
2553.76,0.681185
2555.02,0.681248
2556.28,0.681192
2557.54,0.681995
2558.8,0.682183
2560.07,0.681986
2561.33,0.682489
2562.6,0.681513
2563.86,0.680498
2565.13,0.680144
2566.4,0.679975
2567.67,0.680592
2568.95,0.681538
2570.22,0.68119
2571.5,0.680263
2572.77,0.681763
2574.05,0.680969
2575.33,0.6786
2576.61,0.678724
2577.89,0.680488
2579.17,0.682335
2580.46,0.682198
2581.74,0.680135
2583.03,0.678725
2584.31,0.679148
2585.6,0.681194
2586.89,0.68087
2588.19,0.680564
2589.48,0.679844
2590.77,0.679605
2592.07,0.680322
2593.36,0.679899
2594.66,0.680036
2595.96,0.680858
2597.26,0.680557
2598.56,0.680569
2599.87,0.679919
2601.17,0.679367
2602.48,0.680942
2603.78,0.680732
2605.09,0.679804
2606.4,0.680275
2607.71,0.679309
2609.03,0.679471
2610.34,0.68007
2611.65,0.680633
2612.97,0.680892
2614.29,0.680393
2615.61,0.680014
2616.93,0.680266
2618.25,0.680057
2619.57,0.680201
2620.9,0.680144
2622.22,0.679521
2623.55,0.679973
2624.88,0.679807
2626.21,0.67837
2627.54,0.679734
2628.87,0.680763
2630.21,0.681188
2631.54,0.68011
2632.88,0.679043
2634.21,0.678777
2635.55,0.678963
2636.89,0.678646
2638.24,0.679041
2639.58,0.678461
2640.92,0.677746
2642.27,0.67714
2643.62,0.678311
2644.97,0.679349
2646.32,0.678213
2647.67,0.677311
2649.02,0.67786
2650.38,0.678856
2651.73,0.679341
2653.09,0.67757
2654.45,0.676171
2655.81,0.677412
2657.17,0.677618
2658.53,0.676809
2659.89,0.674998
2661.26,0.675264
2662.63,0.675881
2664.0,0.675471
2665.36,0.675544
2666.74,0.67649
2668.11,0.676005
2669.48,0.675538
2670.86,0.676901
2672.23,0.676553
2673.61,0.676651
2674.99,0.676479
2676.37,0.675839
2677.76,0.675547
2679.14,0.675883
2680.52,0.677795
2681.91,0.676704
2683.3,0.674864
2684.69,0.674299
2686.08,0.674912
2687.47,0.674291
2688.87,0.674383
2690.26,0.674979
2691.66,0.676078
2693.06,0.676594
2694.46,0.67605
2695.86,0.675597
2697.26,0.67417
2698.66,0.673198
2700.07,0.674238
2701.48,0.675254
2702.89,0.675282
2704.3,0.675531
2705.71,0.675655
2707.12,0.67518
2708.53,0.67434
2709.95,0.674367
2711.37,0.673663
2712.79,0.67338
2714.21,0.673521
2715.63,0.674218
2717.05,0.674241
2718.48,0.674569
2719.9,0.674362
2721.33,0.673332
2722.76,0.672908
2724.19,0.673272
2725.62,0.673333
2727.06,0.674392
2728.49,0.674242
2729.93,0.672866
2731.37,0.672505
2732.81,0.672654
2734.25,0.6726
2735.69,0.673454
2737.14,0.67291
2738.58,0.672484
2740.03,0.672199
2741.48,0.6719
2742.93,0.672333
2744.38,0.672536
2745.83,0.672283
2747.29,0.671929
2748.75,0.670977
2750.2,0.670662
2751.66,0.670696
2753.13,0.670446
2754.59,0.670709
2756.05,0.670452
2757.52,0.670817
2758.99,0.671451
2760.46,0.670412
2761.93,0.668989
2763.4,0.669025
2764.87,0.669193
2766.35,0.669087
2767.82,0.668921
2769.3,0.668972
2770.78,0.669074
2772.26,0.668278
2773.75,0.667394
2775.23,0.666771
2776.72,0.667127
2778.21,0.667161
2779.7,0.666819
2781.19,0.666178
2782.68,0.665855
2784.18,0.665767
2785.67,0.665929
2787.17,0.667054
2788.67,0.667169
2790.17,0.665226
2791.67,0.664352
2793.18,0.664586
2794.68,0.663329
2796.19,0.663095
2797.7,0.662828
2799.21,0.66209
2800.72,0.662567
2802.24,0.662868
2803.75,0.662518
2805.27,0.66177
2806.79,0.66136
2808.31,0.661215
2809.83,0.662111
2811.35,0.661501
2812.88,0.661255
2814.41,0.660802
2815.93,0.660373
2817.46,0.659549
2819.0,0.658856
2820.53,0.66002
2822.07,0.660805
2823.6,0.659717
2825.14,0.659071
2826.68,0.659257
2828.22,0.659233
2829.77,0.659492
2831.31,0.658645
2832.86,0.658095
2834.41,0.658505
2835.96,0.658315
2837.51,0.658832
2839.07,0.659018
2840.62,0.659054
2842.18,0.658786
2843.74,0.658597
2845.3,0.658177
2846.86,0.658469
2848.43,0.658978
2849.99,0.65965
2851.56,0.658941
2853.13,0.658278
2854.7,0.658874
2856.27,0.658327
2857.85,0.657297
2859.42,0.657272
2861.0,0.658701
2862.58,0.658684
2864.16,0.658226
2865.75,0.657136
2867.33,0.656679
2868.92,0.65674
2870.51,0.65586
2872.1,0.655983
2873.69,0.656165
2875.28,0.655629
2876.88,0.655269
2878.48,0.655761
2880.07,0.655514
2881.68,0.655798
2883.28,0.655464
2884.88,0.65509
2886.49,0.654792
2888.1,0.653987
2889.71,0.654354
2891.32,0.654522
2892.93,0.653785
2894.55,0.653636
2896.16,0.653684
2897.78,0.653482
2899.4,0.653351
2901.03,0.653602
2902.65,0.652953
2904.28,0.652778
2905.91,0.653126
2907.53,0.653243
2909.17,0.652759
2910.8,0.652529
2912.44,0.652203
2914.07,0.651806
2915.71,0.651743
2917.35,0.651334
2918.99,0.651288
2920.64,0.651317
2922.29,0.651198
2923.93,0.650865
2925.58,0.650794
2927.24,0.651184
2928.89,0.651439
2930.55,0.651332
2932.2,0.651099
2933.86,0.650799
2935.52,0.650774
2937.19,0.65129
2938.85,0.651211
2940.52,0.650119
2942.19,0.649636
2943.86,0.650426
2945.53,0.650469
2947.21,0.65
2948.88,0.65016
2950.56,0.649695
2952.24,0.648881
2953.92,0.648023
2955.61,0.648306
2957.29,0.648515
2958.98,0.647747
2960.67,0.647643
2962.36,0.648128
2964.06,0.648443
2965.75,0.64832
2967.45,0.648236
2969.15,0.64842
2970.85,0.648582
2972.55,0.648582
2974.26,0.647422
2975.97,0.647111
2977.68,0.647569
2979.39,0.647529
2981.1,0.64796
2982.82,0.648174
2984.53,0.647501
2986.25,0.646968
2987.97,0.64635
2989.7,0.646044
2991.42,0.646887
2993.15,0.647118
2994.88,0.646694
2996.61,0.646451
2998.34,0.647351
3000.08,0.647163
3001.82,0.646448
3003.55,0.646331
3005.3,0.64662
3007.04,0.646793
3008.78,0.64628
3010.53,0.646553
3012.28,0.647166
3014.03,0.647071
3015.79,0.646976
3017.54,0.646772
3019.3,0.645997
3021.06,0.646167
3022.82,0.646361
3024.58,0.646315
3026.35,0.645991
3028.12,0.646508
3029.89,0.647186
3031.66,0.647289
3033.43,0.646931
3035.21,0.64652
3036.99,0.646246
3038.77,0.646196
3040.55,0.646647
3042.33,0.646594
3044.12,0.646698
3045.91,0.648521
3047.7,0.648818
3049.49,0.64754
3051.29,0.646066
3053.08,0.645369
3054.88,0.646435
3056.68,0.647464
3058.49,0.647357
3060.29,0.646068
3062.1,0.647486
3063.91,0.646994
3065.72,0.645327
3067.54,0.645332
3069.35,0.64808
3071.17,0.648674
3072.99,0.647579
3074.81,0.6467
3076.64,0.644854
3078.46,0.642189
3080.29,0.642487
3082.13,0.64616
3083.96,0.647989
3085.79,0.650478
3087.63,0.650759
3089.47,0.646877
3091.31,0.643826
3093.16,0.647622
3095.01,0.649236
3096.85,0.643848
3098.71,0.647215
3100.56,0.648339
3102.41,0.645002
3104.27,0.648642
3106.13,0.648775
3107.99,0.644971
3109.86,0.64594
3111.73,0.643414
3113.59,0.646332
3115.47,0.650604
3117.34,0.646283
3119.21,0.64721
3121.09,0.649144
3122.97,0.648669
3124.86,0.645093
3126.74,0.637366
3128.63,0.636882
3130.52,0.653553
3132.41,0.656069
3134.3,0.650515
3136.2,0.646348
3138.1,0.643939
3140.0,0.644767
3141.9,0.643279
3143.81,0.641741
3145.71,0.647595
3147.62,0.649551
3149.54,0.646308
3151.45,0.646644
3153.37,0.647028
3155.29,0.64542
3157.21,0.64618
3159.13,0.641538
3161.06,0.642158
3162.99,0.649078
3164.92,0.64453
3166.85,0.647188
3168.79,0.651655
3170.72,0.647707
3172.67,0.643789
3174.61,0.641017
3176.55,0.64724
3178.5,0.644977
3180.45,0.640816
3182.4,0.648928
3184.36,0.647775
3186.32,0.645681
3188.27,0.647408
3190.24,0.646569
3192.2,0.645867
3194.17,0.645334
3196.14,0.644911
3198.11,0.644656
3200.08,0.644607
3202.06,0.643309
3204.04,0.645799
3206.02,0.647777
3208.0,0.646677
3209.99,0.644426
3211.98,0.641846
3213.97,0.644289
3215.96,0.64582
3217.96,0.644911
3219.96,0.645282
3221.96,0.642886
3223.96,0.643111
3225.97,0.64529
3227.98,0.644702
3229.99,0.638802
3232.0,0.638518
3234.02,0.645401
3236.04,0.648945
3238.06,0.638584
3240.08,0.642171
3242.11,0.652075
3244.14,0.645963
3246.17,0.638025
3248.2,0.636262
3250.24,0.641516
3252.28,0.643697
3254.32,0.645832
3256.37,0.64175
3258.41,0.638363
3260.46,0.639248
3262.51,0.638685
3264.57,0.638725
3266.63,0.638658
3268.69,0.637046
3270.75,0.632702
3272.81,0.62889
3274.88,0.631732
3276.95,0.634619
3279.02,0.632678
3281.1,0.627728
3283.18,0.622071
3285.26,0.619702
3287.34,0.619918
3289.43,0.616334
3291.51,0.611418
3293.61,0.604249
3295.7,0.593612
3297.8,0.580696
3299.89,0.568268
3302.0,0.559054
3304.1,0.554199
3306.21,0.558456
3308.32,0.563564
3310.43,0.562184
3312.55,0.551972
3314.66,0.546544
3316.78,0.536433
3318.91,0.525114
3321.03,0.526829
3323.16,0.526369
3325.29,0.519582
3327.43,0.510879
3329.57,0.502136
3331.71,0.492246
3333.85,0.481613
3335.99,0.478738
3338.14,0.477869
3340.29,0.474095
3342.45,0.472014
3344.6,0.463531
3346.76,0.445894
3348.92,0.426396
3351.09,0.41379
3353.26,0.412494
3355.43,0.420511
3357.6,0.432774
3359.78,0.446142
3361.96,0.456605
3364.14,0.461997
3366.32,0.476056
3368.51,0.48661
3370.7,0.485391
3372.89,0.481468
3375.09,0.476136
3377.29,0.472381
3379.49,0.466143
3381.69,0.456007
3383.9,0.447388
3386.11,0.441068
3388.32,0.43576
3390.54,0.434473
3392.76,0.432587
3394.98,0.429472
3397.21,0.426234
3399.43,0.424445
3401.66,0.425578
3403.9,0.432554
3406.13,0.445383
3408.37,0.458849
3410.61,0.466818
3412.86,0.47194
3415.11,0.474077
3417.36,0.47184
3419.61,0.469332
3421.87,0.469437
3424.13,0.471244
3426.39,0.473311
3428.66,0.473219
3430.93,0.470422
3433.2,0.465766
3435.48,0.461304
3437.76,0.462292
3440.04,0.465071
3442.32,0.466522
3444.61,0.468878
3446.9,0.471139
3449.19,0.471365
3451.49,0.470032
3453.79,0.467435
3456.09,0.465261
3458.4,0.461959
3460.7,0.458834
3463.02,0.458968
3465.33,0.460462
3467.65,0.461751
3469.97,0.463056
3472.29,0.465136
3474.62,0.468128
3476.95,0.471941
3479.29,0.47505
3481.62,0.479163
3483.96,0.484653
3486.3,0.490258
3488.65,0.495089
3491.0,0.500039
3493.35,0.504774
3495.71,0.509054
3498.07,0.512588
3500.43,0.515162
3502.79,0.517438
3505.16,0.519402
3507.53,0.521546
3509.91,0.522824
3512.29,0.523306
3514.67,0.52447
3517.05,0.525904
3519.44,0.526389
3521.83,0.526261
3524.22,0.526789
3526.62,0.527399
3529.02,0.52716
3531.43,0.526877
3533.83,0.52717
3536.24,0.527412
3538.66,0.52644
3541.08,0.526147
3543.5,0.526321
3545.92,0.526006
3548.35,0.52606
3550.78,0.526269
3553.21,0.526258
3555.65,0.526163
3558.09,0.52579
3560.53,0.525762
3562.98,0.525789
3565.43,0.525727
3567.88,0.526056
3570.34,0.525952
3572.8,0.525727
3575.27,0.525659
3577.73,0.525342
3580.2,0.524723
3582.68,0.524455
3585.16,0.524574
3587.64,0.524612
3590.12,0.524682
3592.61,0.524768
3595.1,0.524649
3597.6,0.524494
3600.09,0.523649
3602.6,0.523495
3605.1,0.523738
3607.61,0.523398
3610.12,0.523211
3612.64,0.522974
3615.16,0.522546
3617.68,0.522407
3620.21,0.522347
3622.74,0.52238
3625.27,0.522399
3627.81,0.522138
3630.35,0.521839
3632.89,0.521566
3635.44,0.52163
3637.99,0.5222
3640.54,0.521954
3643.1,0.521536
3645.66,0.521475
3648.23,0.5215
3650.8,0.521704
3653.37,0.521738
3655.95,0.521584
3658.53,0.521645
3661.11,0.521823
3663.7,0.521772
3666.29,0.521698
3668.89,0.522064
3671.48,0.522311
3674.09,0.522604
3676.69,0.522811
3679.3,0.522825
3681.91,0.523129
3684.53,0.523311
3687.15,0.523727
3689.78,0.524124
3692.4,0.524093
3695.04,0.524531
3697.67,0.524808
3700.31,0.524979
3702.95,0.525296
3705.6,0.52533
3708.25,0.52546
3710.91,0.525931
3713.56,0.526093
3716.23,0.526331
3718.89,0.526696
3721.56,0.527156
3724.23,0.527258
3726.91,0.527802
3729.59,0.528782
3732.28,0.529034
3734.97,0.52902
3737.66,0.529282
3740.36,0.529865
3743.06,0.530397
3745.76,0.531242
3748.47,0.531759
3751.18,0.532235
3753.9,0.532469
3756.62,0.532749
3759.34,0.532995
3762.07,0.533556
3764.8,0.534081
3767.54,0.534613
3770.28,0.535273
3773.02,0.535869
3775.77,0.536001
3778.52,0.536377
3781.28,0.537046
3784.04,0.537813
3786.8,0.538368
3789.57,0.538631
3792.34,0.538587
3795.12,0.539038
3797.9,0.539486
3800.69,0.539975
3803.47,0.540764
3806.27,0.541206
3809.06,0.541324
3811.86,0.5413
3814.67,0.541415
3817.48,0.541896
3820.29,0.542198
3823.11,0.542909
3825.93,0.543703
3828.76,0.544077
3831.59,0.544318
3834.42,0.54475
3837.26,0.545218
3840.1,0.54563
3842.95,0.546007
3845.8,0.54663
3848.65,0.546931
3851.51,0.547123
3854.38,0.547815
3857.24,0.548378
3860.12,0.548822
3862.99,0.548654
3865.87,0.54899
3868.76,0.549576
3871.65,0.549953
3874.54,0.550521
3877.44,0.550994
3880.34,0.551388
3883.25,0.552065
3886.16,0.552983
3889.07,0.553422
3891.99,0.553603
3894.92,0.553971
3897.85,0.554448
3900.78,0.554757
3903.72,0.555539
3906.66,0.556228
3909.6,0.556629
3912.55,0.557295
3915.51,0.557873
3918.47,0.558197
3921.43,0.55878
3924.4,0.559466
3927.37,0.560088
3930.35,0.560582
3933.33,0.560983
3936.32,0.56146
3939.31,0.562111
3942.31,0.562591
3945.31,0.563158
3948.31,0.563971
3951.32,0.564206
3954.34,0.564877
3957.35,0.565702
3960.38,0.566252
3963.41,0.567095
3966.44,0.567918
3969.48,0.568554
3972.52,0.568955
3975.56,0.569412
3978.61,0.569803
3981.67,0.570665
3984.73,0.571603
3987.8,0.572395
3990.87,0.57294
3993.94,0.573249
3997.02,0.573804
4000.1,0.574578
4003.19,0.575205
4006.29,0.575848
4009.39,0.576571
4012.49,0.577312
4015.6,0.577997
4018.71,0.57834
4021.83,0.578986
4024.95,0.579565
4028.08,0.580224
4031.21,0.581076
4034.35,0.581769
4037.49,0.582339
4040.64,0.582779
4043.79,0.583127
4046.94,0.583701
4050.11,0.58423
4053.27,0.584865
4056.44,0.585479
4059.62,0.586226
4062.8,0.586437
4065.99,0.586886
4069.18,0.58777
4072.38,0.58874
4075.58,0.589325
4078.78,0.590139
4082.0,0.590803
4085.21,0.591028
4088.43,0.591196
4091.66,0.592031
4094.89,0.592741
4098.13,0.593098
4101.37,0.593835
4104.62,0.594617
4107.87,0.595112
4111.13,0.59543
4114.39,0.595779
4117.66,0.596391
4120.93,0.596786
4124.21,0.597274
4127.5,0.597976
4130.78,0.598656
4134.08,0.599278
4137.38,0.599625
4140.68,0.600064
4143.99,0.600804
4147.31,0.601443
4150.63,0.602002
4153.95,0.602388
4157.29,0.60303
4160.62,0.603448
4163.96,0.603728
4167.31,0.604468
4170.66,0.605067
4174.02,0.605475
4177.39,0.60601
4180.75,0.606397
4184.13,0.606891
4187.51,0.607928
4190.89,0.608775
4194.28,0.609028
4197.68,0.609418
4201.08,0.609828
4204.49,0.610145
4207.9,0.610522
4211.32,0.611141
4214.74,0.611865
4218.17,0.612578
4221.61,0.613015
4225.05,0.613386
4228.5,0.613644
4231.95,0.613994
4235.4,0.614304
4238.87,0.614847
4242.34,0.615658
4245.81,0.616021
4249.29,0.616391
4252.78,0.616852
4256.27,0.617387
4259.77,0.617724
4263.27,0.618054
4266.78,0.618289
4270.29,0.618244
4273.81,0.618234
4277.34,0.618367
4280.87,0.618981
4284.41,0.61955
4287.95,0.619628
4291.5,0.619631
4295.06,0.619787
4298.62,0.619894
4302.19,0.619987
4305.76,0.61978
4309.34,0.619656
4312.92,0.61959
4316.52,0.619471
4320.11,0.619572
4323.72,0.619473
4327.32,0.619222
4330.94,0.619275
4334.56,0.619295
4338.19,0.619412
4341.82,0.619938
4345.46,0.620399
4349.11,0.620997
4352.76,0.621429
4356.42,0.621476
4360.08,0.621778
4363.75,0.622511
4367.43,0.622808
4371.11,0.622671
4374.8,0.622634
4378.49,0.622705
4382.19,0.62272
4385.9,0.622761
4389.61,0.622842
4393.33,0.622886
4397.06,0.622907
4400.79,0.62311
4404.53,0.623529
4408.28,0.624411
4412.03,0.625191
4415.79,0.625954
4419.55,0.626809
4423.32,0.627923
4427.1,0.628956
4430.88,0.629418
4434.67,0.629825
4438.47,0.630406
4442.27,0.631173
4446.08,0.631939
4449.9,0.63249
4453.72,0.632994
4457.55,0.63364
4461.39,0.634283
4465.23,0.634666
4469.08,0.635105
4472.94,0.63595
4476.8,0.636461
4480.67,0.636549
4484.55,0.636697
4488.43,0.636922
4492.32,0.636941
4496.21,0.636932
4500.12,0.637185
4504.03,0.637692
4507.94,0.637929
4511.87,0.637938
4515.8,0.638053
4519.73,0.638604
4523.68,0.639179
4527.63,0.63949
4531.59,0.639664
4535.55,0.640115
4539.52,0.640562
4543.5,0.641082
4547.49,0.641629
4551.48,0.642339
4555.48,0.642938
4559.49,0.64376
4563.5,0.644624
4567.52,0.645356
4571.55,0.645745
4575.58,0.646418
4579.62,0.647311
4583.67,0.647812
4587.73,0.648132
4591.79,0.648481
4595.86,0.648787
4599.94,0.649094
4604.03,0.649411
4608.12,0.649973
4612.22,0.650582
4616.33,0.650992
4620.44,0.651208
4624.56,0.651708
4628.69,0.652019
4632.83,0.652061
4636.97,0.652488
4641.12,0.652937
4645.28,0.653233
4649.45,0.653373
4653.62,0.653742
4657.8,0.654112
4661.99,0.654434
4666.19,0.654905
4670.39,0.655211
4674.6,0.655209
4678.82,0.655551
4683.05,0.655949
4687.28,0.656093
4691.52,0.656534
4695.77,0.656868
4700.03,0.656937
4704.3,0.656972
4708.57,0.65704
4712.85,0.657359
4717.14,0.657504
4721.43,0.657561
4725.74,0.6578
4730.05,0.658071
4734.37,0.658302
4738.7,0.658533
4743.03,0.658745
4747.38,0.658776
4751.73,0.658759
4756.09,0.658911
4760.45,0.659316
4764.83,0.65965
4769.21,0.659863
4773.6,0.659981
4778.0,0.660054
4782.41,0.660082
4786.83,0.66037
4791.25,0.66056
4795.68,0.660578
4800.13,0.660583
4804.57,0.660821
4809.03,0.660807
4813.5,0.660856
4817.97,0.660984
4822.45,0.661113
4826.94,0.661138
4831.44,0.661201
4835.95,0.661275
4840.46,0.661731
4844.99,0.662111
4849.52,0.662182
4854.06,0.662003
4858.61,0.6622
4863.17,0.66255
4867.73,0.662656
4872.31,0.662643
4876.89,0.662883
4881.48,0.663059
4886.08,0.663159
4890.69,0.663486
4895.31,0.663739
4899.94,0.663772
4904.57,0.663839
4909.22,0.664014
4913.87,0.664214
4918.53,0.664302
4923.21,0.664449
4927.88,0.664728
4932.57,0.664786
4937.27,0.66494
4941.98,0.665133
4946.69,0.665297
4951.42,0.66561
4956.15,0.665803
4960.89,0.665769
4965.65,0.665819
4970.41,0.66593
4975.18,0.666243
4979.96,0.666758
4984.75,0.667013
4989.54,0.667137
4994.35,0.667125
4999.17,0.667148
5003.99,0.667275
5008.83,0.667554
5013.67,0.667946
5018.52,0.668242
5023.39,0.668574
5028.26,0.668641
5033.14,0.668598
5038.03,0.668924
5042.93,0.669122
5047.84,0.669224
5052.76,0.669363
5057.69,0.66957
5062.63,0.669752
5067.58,0.669972
5072.54,0.67016
5077.51,0.670275
5082.49,0.670413
5087.47,0.670769
5092.47,0.670971
5097.48,0.671138
5102.5,0.671234
5107.52,0.671072
5112.56,0.670813
5117.61,0.671145
5122.66,0.671623
5127.73,0.671904
5132.81,0.672084
5137.89,0.672173
5142.99,0.672175
5148.1,0.672094
5153.22,0.672301
5158.34,0.672594
5163.48,0.672515
5168.63,0.672354
5173.79,0.672496
5178.96,0.672815
5184.13,0.673085
5189.32,0.673041
5194.52,0.672919
5199.73,0.672979
5204.95,0.673058
5210.19,0.672908
5215.43,0.672932
5220.68,0.672853
5225.94,0.672862
5231.22,0.672997
5236.5,0.672956
5241.79,0.672953
5247.1,0.672824
5252.42,0.672797
5257.74,0.672844
5263.08,0.672788
5268.43,0.672735
5273.79,0.672812
5279.16,0.672785
5284.54,0.672612
5289.93,0.672603
5295.34,0.672567
5300.75,0.672641
5306.18,0.672814
5311.61,0.672963
5317.06,0.672885
5322.52,0.672826
5327.99,0.672886
5333.47,0.672809
5338.96,0.672678
5344.47,0.672667
5349.98,0.672758
5355.51,0.672764
5361.05,0.672913
5366.6,0.673057
5372.16,0.673269
5377.73,0.673673
5383.32,0.674131
5388.91,0.674475
5394.52,0.674724
5400.14,0.675138
5405.77,0.675729
5411.41,0.676011
5417.07,0.676235
5422.74,0.676634
5428.41,0.677152
5434.1,0.677691
5439.81,0.678235
5445.52,0.678697
5451.25,0.679178
5456.98,0.679859
5462.73,0.680549
5468.5,0.681144
5474.27,0.68177
5480.06,0.682325
5485.86,0.682945
5491.67,0.683644
5497.49,0.684298
5503.33,0.684819
5509.18,0.685407
5515.04,0.686088
5520.91,0.686643
5526.8,0.687126
5532.69,0.687602
5538.61,0.688076
5544.53,0.688504
5550.47,0.689039
5556.41,0.689553
5562.38,0.68991
5568.35,0.690452
5574.34,0.690772
5580.34,0.691082
5586.35,0.69144
5592.38,0.691936
5598.42,0.692424
5604.47,0.692774
5610.54,0.693059
5616.61,0.693436
5622.71,0.693685
5628.81,0.69386
5634.93,0.694072
5641.06,0.694333
5647.21,0.694763
5653.36,0.694944
5659.54,0.695025
5665.72,0.695146
5671.92,0.695422
5678.13,0.695879
5684.36,0.695893
5690.6,0.695883
5696.85,0.696129
5703.12,0.696237
5709.4,0.696432
5715.69,0.696784
5722.0,0.697079
5728.33,0.697108
5734.66,0.697092
5741.01,0.697333
5747.38,0.69736
5753.76,0.697383
5760.15,0.697553
5766.56,0.697782
5772.98,0.697733
5779.41,0.697667
5785.86,0.697734
5792.33,0.697861
5798.81,0.697832
5805.3,0.697767
5811.81,0.697788
5818.33,0.697976
5824.87,0.698233
5831.42,0.698485
5837.99,0.698487
5844.57,0.698642
5851.17,0.698839
5857.78,0.69935
5864.41,0.699791
5871.05,0.700156
5877.7,0.700635
5884.38,0.700792
5891.06,0.700908
5897.76,0.700945
5904.48,0.700898
5911.21,0.700252
5917.96,0.699296
5924.73,0.699111
5931.5,0.69953
5938.3,0.700114
5945.11,0.70044
5951.93,0.700437
5958.78,0.700543
5965.63,0.700673
5972.51,0.70075
5979.39,0.700914
5986.3,0.701177
5993.22,0.701134
6000.16,0.700991
6007.11,0.700995
6014.08,0.700972
6021.06,0.701045
6028.06,0.70108
6035.08,0.700907
6042.12,0.700736
6049.17,0.700617
6056.23,0.700629
6063.32,0.700837
6070.42,0.701041
6077.53,0.701041
6084.67,0.700968
6091.82,0.700978
6098.98,0.700944
6106.17,0.700874
6113.37,0.700698
6120.58,0.700861
6127.82,0.701169
6135.07,0.701241
6142.34,0.70114
6149.63,0.701004
6156.93,0.701012
6164.25,0.701106
6171.59,0.701241
6178.94,0.701396
6186.32,0.701466
6193.71,0.701452
6201.12,0.701312
6208.54,0.701423
6215.99,0.701769
6223.45,0.701937
6230.93,0.70187
6238.43,0.701908
6245.95,0.701971
6253.48,0.702007
6261.03,0.702007
6268.6,0.702217
6276.19,0.702459
6283.8,0.702517
6291.43,0.702546
6299.07,0.702671
6306.73,0.702647
6314.42,0.702698
6322.12,0.702725
6329.83,0.702823
6337.57,0.702954
6345.33,0.703173
6353.11,0.70332
6360.9,0.703428
6368.72,0.703522
6376.55,0.703569
6384.4,0.703681
6392.27,0.703795
6400.17,0.703848
6408.08,0.703829
6416.01,0.704017
6423.96,0.704211
6431.93,0.704225
6439.92,0.704262
6447.93,0.704413
6455.96,0.704612
6464.01,0.70466
6472.08,0.704852
6480.17,0.705024
6488.28,0.705152
6496.41,0.705165
6504.56,0.705056
6512.73,0.705032
6520.92,0.705063
6529.14,0.70505
6537.37,0.70513
6545.63,0.705199
6553.9,0.705359
6562.2,0.705426
6570.51,0.70541
6578.85,0.705431
6587.21,0.705538
6595.59,0.705669
6603.99,0.705645
6612.42,0.705558
6620.86,0.705548
6629.33,0.705545
6637.82,0.705618
6646.33,0.705714
6654.86,0.705742
6663.41,0.705717
6671.99,0.705646
6680.59,0.70573
6689.21,0.70582
6697.85,0.705774
6706.51,0.705907
6715.2,0.70603
6723.91,0.706294
6732.64,0.706449
6741.4,0.706497
6750.18,0.706459
6758.98,0.70643
6767.8,0.706326
6776.65,0.706306
6785.52,0.706601
6794.41,0.706712
6803.33,0.706584
6812.27,0.706503
6821.23,0.706548
6830.22,0.7067
6839.23,0.706695
6848.26,0.706706
6857.32,0.706749
6866.4,0.706891
6875.51,0.707004
6884.64,0.706967
6893.8,0.706759
6902.98,0.70678
6912.18,0.706736
6921.41,0.70672
6930.66,0.706601
6939.94,0.706423
6949.24,0.706171
6958.57,0.70611
6967.92,0.70616
6977.3,0.706232
6986.7,0.706208
6996.13,0.705887
7005.59,0.705797
7015.07,0.705972
7024.57,0.705965
7034.1,0.705743
7043.66,0.705498
7053.24,0.705299
7062.85,0.705108
7072.49,0.704886
7082.15,0.704922
7091.84,0.704837
7101.55,0.704639
7111.3,0.704881
7121.06,0.704844
7130.86,0.704553
7140.68,0.704438
7150.53,0.704413
7160.41,0.704386
7170.31,0.704068
7180.24,0.703952
7190.2,0.703801
7200.19,0.703526
7210.2,0.703246
7220.24,0.703081
7230.31,0.702988
7240.41,0.702859
7250.54,0.702621
7260.69,0.702466
7270.88,0.702187
7281.09,0.70177
7291.33,0.701504
7301.6,0.701028
7311.9,0.70056
7322.22,0.700269
7332.58,0.699986
7342.97,0.699538
7353.38,0.698977
7363.83,0.698492
7374.3,0.69771
7384.81,0.697121
7395.34,0.696391
7405.91,0.695439
7416.5,0.694446
7427.13,0.693616
7437.78,0.692686
7448.47,0.691673
7459.19,0.690879
7469.94,0.690112
7480.71,0.688964
7491.52,0.68816
7502.37,0.688264
7513.24,0.687756
7524.14,0.687376
7535.08,0.687087
7546.05,0.686868
7557.05,0.686845
7568.08,0.68686
7579.14,0.686965
7590.24,0.687106
7601.37,0.687049
7612.53,0.686935
7623.73,0.686326
7634.96,0.685804
7646.22,0.68595
7657.51,0.685398
7668.84,0.684479
7680.2,0.683452
7691.59,0.682661
7703.02,0.681656
7714.49,0.680601
7725.98,0.679457
7737.51,0.678341
7749.08,0.677136
7760.68,0.676009
7772.32,0.674534
7783.99,0.673942
7795.69,0.67364
7807.43,0.671971
7819.21,0.670608
7831.02,0.669335
7842.87,0.668165
7854.75,0.666928
7866.67,0.665564
7878.62,0.663933
7890.62,0.661872
7902.64,0.660219
7914.71,0.658924
7926.81,0.655854
7938.95,0.654619
7951.13,0.652432
7963.34,0.648572
7975.59,0.644753
7987.88,0.641034
8000.21,0.636892
8012.57,0.63177
8024.98,0.626203
8037.42,0.620002
8049.9,0.613195
8062.42,0.605714
8074.98,0.597917
8087.57,0.590213
8100.21,0.581928
8112.89,0.573482
8125.6,0.566502
8138.36,0.558928
8151.16,0.551847
8163.99,0.545725
8176.87,0.540167
8189.79,0.5349
8202.75,0.529955
8215.74,0.525513
8228.79,0.521204
8241.87,0.516178
8254.99,0.512588
8268.16,0.510272
8281.37,0.50646
8294.62,0.50227
8307.91,0.498351
8321.24,0.494729
8334.62,0.491058
8348.04,0.487483
8361.51,0.484197
8375.02,0.481177
8388.57,0.477837
8402.16,0.474528
8415.8,0.47009
8429.49,0.46763
8443.22,0.465775
8456.99,0.461226
8470.81,0.457718
8484.67,0.454925
8498.58,0.452957
8512.54,0.450666
8526.54,0.449583
8540.58,0.450723
8554.68,0.450145
8568.82,0.450733
8583.0,0.452211
8597.24,0.452189
8611.52,0.452546
8625.85,0.452799
8640.22,0.453022
8654.65,0.452254
8669.12,0.451799
8683.64,0.451469
8698.21,0.450734
8712.83,0.449425
8727.5,0.448071
8742.22,0.446753
8756.98,0.446435
8771.8,0.445383
8786.67,0.443606
8801.59,0.441057
8816.56,0.441385
8831.58,0.441656
8846.65,0.439749
8861.77,0.437941
8876.94,0.437693
8892.17,0.436444
8907.45,0.435165
8922.78,0.433617
8938.16,0.430784
8953.6,0.426762
8969.09,0.423828
8984.64,0.422206
9000.23,0.417644
9015.89,0.413981
9031.59,0.409241
9047.36,0.403984
9063.17,0.401447
9079.04,0.397882
9094.97,0.39401
9110.96,0.391826
9127.0,0.387801
9143.09,0.38457
9159.25,0.383196
9175.46,0.380259
9191.73,0.376732
9208.05,0.372601
9224.44,0.368396
9240.88,0.364099
9257.38,0.360617
9273.94,0.353808
9290.56,0.350882
9307.24,0.349828
9323.98,0.345769
9340.78,0.342494
9357.64,0.339583
9374.57,0.336708
9391.55,0.334473
9408.59,0.330858
9425.7,0.327671
9442.87,0.327494
9460.1,0.326275
9477.39,0.323704
9494.75,0.321169
9512.17,0.318499
9529.66,0.315968
9547.21,0.314647
9564.82,0.312739
9582.5,0.308907
9600.25,0.31163
9618.06,0.309933
9635.94,0.310712
9653.88,0.312259
9671.89,0.311212
9689.97,0.31195
9708.12,0.313353
9726.33,0.313131
9744.61,0.319269
9762.97,0.324932
9781.39,0.327361
9799.88,0.330413
9818.44,0.333574
9837.07,0.340399
9855.77,0.344198
9874.54,0.347517
9893.39,0.354815
9912.3,0.359628
9931.29,0.362448
9950.35,0.367839
9969.49,0.374647
9988.7,0.379186
10007.98,0.383435
10027.34,0.384648
10046.77,0.396204
10066.28,0.410478
10085.87,0.411948
10105.53,0.417805
10125.26,0.430467
10145.08,0.438366
10164.97,0.444789
10184.94,0.45223
10204.99,0.45757
10225.12,0.467956
10245.33,0.481436
10265.61,0.486828
10285.98,0.492127
10306.43,0.499515
10326.96,0.506498
10347.57,0.511525
10368.27,0.520241
10389.05,0.525143
10409.91,0.526654
10430.85,0.534547
10451.88,0.542521
10473.0,0.543877
10494.2,0.546936
10515.49,0.55008
10536.86,0.55338
10558.32,0.555256
10579.87,0.557241
10601.5,0.558806
10623.23,0.560011
10645.04,0.560324
10666.94,0.561073
10688.94,0.561393
10711.02,0.561656
10733.2,0.561572
10755.47,0.561758
10777.83,0.56147
10800.28,0.56164
10822.83,0.561167
10845.47,0.56019
10868.21,0.556589
10891.04,0.558527
10913.97,0.560307
10936.99,0.555478
10960.12,0.55332
10983.34,0.555039
11006.66,0.552765
11030.07,0.551164
11053.59,0.547445
11077.21,0.540529
11100.93,0.545566
11124.75,0.547993
11148.68,0.543041
11172.7,0.541077
11196.84,0.537181
11221.07,0.535296
11245.41,0.531457
11269.86,0.527388
11294.41,0.523533
11319.07,0.519402
11343.84,0.520844
11368.72,0.519838
11393.7,0.512514
11418.8,0.509187
11444.01,0.507531
11469.33,0.502154
11494.76,0.497343
11520.3,0.493864
11545.96,0.489224
11571.73,0.484735
11597.62,0.484196
11623.62,0.478953
11649.74,0.475821
11675.98,0.472629
11702.34,0.468357
11728.81,0.464191
11755.41,0.458617
11782.13,0.458953
11808.96,0.460797
11835.92,0.456238
11863.01,0.452122
11890.22,0.449416
11917.55,0.447991
11945.01,0.447371
11972.6,0.443706
12000.31,0.440062
12028.16,0.439245
12056.13,0.437669
12084.23,0.435374
12112.46,0.432185
12140.83,0.429387
12169.33,0.426225
12197.96,0.422069
12226.73,0.418111
12255.64,0.413984
12284.68,0.412376
12313.86,0.409835
12343.18,0.406113
12372.64,0.404311
12402.24,0.40569
12431.98,0.405041
12461.86,0.401191
12491.89,0.39757
12522.06,0.398558
12552.38,0.397905
12582.85,0.394935
12613.47,0.393995
12644.23,0.393879
12675.15,0.396029
12706.21,0.397597
12737.43,0.398714
12768.8,0.3989
12800.33,0.397313
12832.02,0.39657
12863.86,0.398257
12895.86,0.396247
12928.02,0.394636
12960.34,0.393879
12992.82,0.393157
13025.46,0.391399
13058.27,0.390667
13091.25,0.388289
13124.39,0.386469
13157.7,0.387219
13191.18,0.385791
13224.83,0.383877
13258.66,0.382762
13292.65,0.381982
13326.83,0.381238
13361.17,0.380569
13395.7,0.381094
13430.4,0.381391
13465.29,0.381003
13500.35,0.38213
13535.6,0.382672
13571.03,0.383679
13606.65,0.385344
13642.46,0.385197
13678.46,0.384781
13714.64,0.385316
13751.02,0.385377
13787.59,0.3838
13824.36,0.382356
13861.32,0.380553
13898.48,0.378705
13935.85,0.376565
13973.41,0.375363
14011.17,0.373558
14049.15,0.371566
14087.32,0.370107
14125.71,0.368551
14164.3,0.366647
14203.11,0.365725
14242.13,0.364393
14281.36,0.362729
14320.81,0.360952
14360.48,0.359304
14400.38,0.357239
14440.49,0.355276
14480.82,0.35315
14521.39,0.351121
14562.18,0.348945
14603.2,0.346696
14644.45,0.344752
14685.93,0.343727
14727.66,0.34275
14769.62,0.342117
14811.81,0.341943
14854.25,0.342052
14896.94,0.342052
14939.87,0.342502
14983.05,0.342989
15026.48,0.343453
15070.16,0.343319
15114.1,0.343343
15158.29,0.343231
15202.74,0.342831
15247.46,0.342225
15292.43,0.341939
15337.68,0.341553
15383.19,0.341391
15428.97,0.341499
15475.03,0.341698
15521.36,0.341836
15567.97,0.34208
15614.86,0.342165
15662.04,0.342492
15709.5,0.342523
15757.25,0.342439
15805.29,0.342041
15853.62,0.341731
15902.25,0.34123
15951.18,0.34053
16000.42,0.339553
16049.95,0.338373
16099.8,0.337027
16149.95,0.335667
16200.42,0.333903
16251.21,0.332063
16302.31,0.33002
16353.74,0.328009
16405.49,0.325934
16457.57,0.324004
16509.98,0.322039
16562.73,0.32015
16615.82,0.318171
16669.24,0.316234
16723.02,0.314191
16777.13,0.31241
16831.61,0.31055
16886.43,0.308898
16941.62,0.307059
16997.16,0.305119
17053.07,0.303091
17109.36,0.30102
17166.01,0.298557
17223.04,0.296237
17280.45,0.294016
17338.24,0.291754
17396.43,0.289141
17455.0,0.286431
17513.97,0.283638
17573.34,0.280876
17633.11,0.277898
17693.29,0.275013
17753.89,0.271906
17814.9,0.268761
17876.33,0.265634
17938.18,0.26279
18000.47,0.259741
18063.19,0.256528
18126.35,0.253274
18189.95,0.25033
18254.0,0.247105
18318.5,0.24406
18383.46,0.241199
18448.88,0.238555
18514.77,0.235957
18581.13,0.233666
18647.97,0.231337
18715.29,0.229105
18783.1,0.226766
18851.4,0.224613
18920.2,0.222092
18989.51,0.219582
19059.32,0.216899
19129.65,0.21411
19200.5,0.210734
19271.88,0.20748
19343.79,0.204069
19416.23,0.200626
19489.23,0.196913
19562.77,0.193127
19636.88,0.188952
19711.54,0.18479
19786.77,0.180179
19862.59,0.175734
19938.98,0.170981
20015.96,0.165958
20093.54,0.160852
20171.73,0.156043
20250.53,0.151106
20329.94,0.146221
20409.98,0.140985
20490.65,0.135914
20571.96,0.130859
20653.92,0.126056
20736.54,0.121065
20819.82,0.116418
20903.77,0.111933
20988.4,0.107571
21073.72,0.102998
21159.73,0.098963
21246.46,0.095073
21333.89,0.091271
21422.04,0.087401
21510.93,0.083772
21600.56,0.079856
21690.94,0.076239
21782.08,0.072534
21873.99,0.068974
21966.67,0.065375
22060.15,0.06195
22154.42,0.058131
22249.51,0.054355
22345.41,0.050825
22442.14,0.047371
22539.72,0.043593
22638.14,0.04022
22737.43,0.036805
22837.6,0.033975
22938.65,0.031011
23040.6,0.028133
23143.46,0.025413
23247.24,0.023156
23351.96,0.020991
23457.62,0.0194
23564.25,0.017929
23671.85,0.017
23780.44,0.016418
23890.02,0.016127
24000.63,0.015766
24112.26,0.016287
24224.93,0.017358
24338.66,0.01937
24453.47,0.022157
24569.36,0.026263
24686.36,0.031743
24804.47,0.038824
24923.72,0.047408
25044.13,0.058117
25165.7,0.070631
25288.46,0.085177
25412.43,0.101419
25537.61,0.119064
25664.03,0.137373
25791.71,0.156397
25920.67,0.175574
