Database of Origin,University of Winnipeg Spectrophotometer Facility
Sample Description,Carbonates and Oxolates - RELAB+Nicolet spectra Newly merged spectra (merged by RELAB)
Other Information,dry seived
Date Added,2018-08-06 20:49:02.531832

Data ID,RLA_CARB_1_24       
Sample ID,CRB201
Mineral Name,Artinite
Locality,near Hernandez/ San Benito County/ California/ USA
Grain Size,<45 um
Viewing Geometry,30/0/30
Resolution,5/ 0.6-129 nm
Formula,Mg2(CO3)(OH)2*3(H2O)
Composition,White acicular crystals on rock. Only artinite but peak intensities don't jibe.

Wavelength
305.0,0.610003
310.0,0.619937
315.0,0.62447
320.0,0.628199
325.0,0.635614
330.0,0.639699
335.0,0.645191
340.0,0.650416
345.0,0.650718
350.0,0.660879
355.0,0.6625
360.0,0.665652
365.0,0.670913
370.0,0.673569
375.0,0.679684
380.0,0.681102
385.0,0.68298
390.0,0.690677
395.0,0.691286
400.0,0.694929
405.0,0.694736
410.0,0.69832
415.0,0.700583
420.0,0.699765
425.0,0.702926
430.0,0.706085
435.0,0.710286
440.0,0.711611
445.0,0.712859
450.0,0.71623
455.0,0.720205
460.0,0.723066
465.0,0.726453
470.0,0.730452
475.0,0.73236
480.0,0.73754
485.0,0.741056
490.0,0.744749
495.0,0.748339
500.0,0.750866
505.0,0.752556
510.0,0.754454
515.0,0.757473
520.0,0.759143
525.0,0.758963
530.0,0.760447
535.0,0.759745
540.0,0.761563
545.0,0.762965
550.0,0.763813
555.0,0.765162
560.0,0.765109
565.0,0.76736
570.0,0.766232
575.0,0.766516
580.0,0.765302
585.0,0.769228
590.0,0.769061
595.0,0.768049
600.0,0.768144
605.0,0.77012
610.0,0.769152
615.0,0.768482
620.0,0.767889
625.0,0.767309
630.0,0.767714
635.0,0.766363
640.0,0.765553
645.0,0.766081
650.0,0.767699
655.0,0.766165
660.0,0.765376
665.0,0.7666
670.0,0.766359
675.0,0.768806
680.0,0.765854
685.0,0.768232
690.0,0.767796
695.0,0.768932
700.0,0.76772
705.0,0.76718
710.0,0.765774
715.0,0.768605
720.0,0.766342
725.0,0.765258
730.0,0.765968
735.0,0.766242
740.0,0.766906
745.0,0.767437
750.0,0.765726
755.0,0.766364
760.0,0.766765
765.0,0.765598
770.0,0.768146
775.0,0.767296
780.0,0.76662
785.0,0.768052
790.0,0.76623
795.0,0.768534
800.0,0.765303
805.0,0.766219
810.0,0.766513
815.0,0.76709
820.0,0.768531
825.0,0.766882
830.0,0.768192
835.0,0.76749
840.0,0.769081
845.0,0.77065
850.0,0.768483
855.0,0.771368
860.0,0.770949
865.0,0.771509
870.0,0.771729
875.0,0.772361
880.0,0.772379
885.0,0.772076
890.0,0.772514
895.0,0.772717
900.0,0.773672
905.0,0.774088
910.0,0.77411
915.0,0.7736
920.0,0.772888
925.0,0.772654
930.0,0.772327
935.0,0.771711
940.0,0.771753
945.0,0.771365
950.0,0.771223
955.0,0.770934
960.0,0.771153
965.0,0.770753
970.0,0.771535
975.0,0.77126
980.0,0.771095
985.0,0.771529
990.0,0.771644
995.0,0.771461
1000.0,0.771471
1005.0,0.773872
1010.0,0.771783
1015.0,0.772449
1020.0,0.77014
1025.0,0.76805
1030.0,0.770608
1035.0,0.771038
1040.0,0.772908
1045.0,0.768995
1050.0,0.769889
1055.0,0.771893
1060.0,0.76896
1065.0,0.76892
1070.0,0.773719
1075.0,0.767651
1080.0,0.767735
1085.0,0.769794
1090.0,0.76797
1095.0,0.767339
1100.0,0.76836
1105.0,0.770899
1110.0,0.770066
1115.0,0.770253
1120.0,0.76944
1125.0,0.768394
1130.0,0.767362
1135.0,0.769095
1140.0,0.771092
1145.0,0.766959
1150.0,0.771076
1155.0,0.767219
1160.0,0.768749
1165.0,0.767903
1170.0,0.766712
1175.0,0.767361
1180.0,0.764831
1185.0,0.766532
1190.0,0.770793
1195.0,0.766009
1200.0,0.767056
1205.0,0.768103
1210.0,0.765928
1215.0,0.768719
1220.0,0.766486
1225.0,0.767592
1230.0,0.765312
1235.0,0.767148
1240.0,0.764886
1245.0,0.765232
1250.0,0.764796
1255.0,0.762578
1260.0,0.762796
1265.0,0.761223
1270.0,0.76194
1275.0,0.759604
1280.0,0.758302
1285.0,0.757135
1290.0,0.757902
1295.0,0.758258
1300.0,0.759913
1305.0,0.759057
1310.0,0.759562
1315.0,0.759807
1320.0,0.762333
1325.0,0.760907
1330.0,0.758494
1335.0,0.7606
1340.0,0.758567
1345.0,0.759385
1350.0,0.757376
1355.0,0.757023
1360.0,0.756548
1365.0,0.755584
1370.0,0.754771
1375.0,0.753052
1380.0,0.749475
1385.0,0.746808
1420.0,0.725498
1425.0,0.713651
1430.0,0.696947
1435.0,0.717621
1440.0,0.730772
1445.0,0.734429
1450.0,0.735962
1455.0,0.736423
1460.0,0.736472
1465.0,0.735811
1470.0,0.734777
1475.0,0.733533
1480.0,0.732104
1485.0,0.730223
1490.0,0.728642
1495.0,0.726553
1500.0,0.724105
1505.0,0.721549
1510.0,0.719357
1515.0,0.716777
1520.0,0.71434
1525.0,0.712437
1530.0,0.710262
1535.0,0.707918
1540.0,0.705034
1545.0,0.702436
1550.0,0.698846
1555.0,0.695981
1560.0,0.692848
1565.0,0.688991
1570.0,0.685751
1575.0,0.682425
1580.0,0.679315
1585.0,0.675477
1590.0,0.672512
1595.0,0.669588
1600.0,0.66686
1605.0,0.664325
1610.0,0.661832
1615.0,0.659393
1620.0,0.65701
1625.0,0.654677
1630.0,0.652347
1635.0,0.650135
1640.0,0.648385
1645.0,0.646112
1650.0,0.643757
1655.0,0.641524
1660.0,0.639078
1665.0,0.637173
1670.0,0.63482
1675.0,0.632463
1680.0,0.630681
1685.0,0.628493
1690.0,0.626872
1695.0,0.624777
1700.0,0.623294
1705.31,0.621491
1709.81,0.619911
1715.46,0.61805
1720.02,0.616392
1724.6,0.614865
1730.35,0.612844
1734.98,0.611372
1739.64,0.609636
1745.5,0.607589
1750.21,0.605858
1754.95,0.604062
1759.72,0.602398
1764.51,0.600647
1770.54,0.598558
1775.39,0.596976
1780.27,0.595426
1785.17,0.593933
1790.1,0.592501
1795.06,0.591084
1800.05,0.589636
1805.06,0.588551
1810.1,0.587175
1815.17,0.585878
1820.27,0.584701
1825.4,0.583468
1830.56,0.582308
1834.44,0.581343
1839.65,0.580161
1844.89,0.578862
1850.16,0.577562
1855.45,0.576074
1859.45,0.575019
1864.8,0.573499
1870.18,0.572041
1875.59,0.570473
1879.67,0.569332
1885.14,0.567781
1890.64,0.566171
1894.79,0.564841
1900.34,0.562863
1904.53,0.561327
1910.15,0.559416
1914.38,0.557656
1920.05,0.555559
1924.33,0.553974
1930.06,0.551768
1934.38,0.550262
1940.17,0.548496
1944.54,0.546972
1950.39,0.545214
1954.8,0.543557
1960.72,0.54155
1965.18,0.539935
1969.66,0.538052
1975.66,0.535447
1980.19,0.533248
1984.74,0.531271
1989.31,0.529719
1995.43,0.528157
2000.05,0.527224
2004.69,0.526767
2009.35,0.52641
2015.6,0.526106
2020.32,0.525963
2025.05,0.525923
2029.81,0.525375
2034.59,0.52457
2039.39,0.523527
2044.22,0.521906
2050.69,0.519496
2055.57,0.51752
2060.47,0.515603
2065.39,0.513448
2070.34,0.511365
2075.31,0.509334
2080.31,0.507288
2085.33,0.505227
2090.38,0.5034
2095.45,0.501928
2100.54,0.50067
2105.66,0.499729
2110.8,0.498975
2114.25,0.498466
2119.43,0.497904
2124.65,0.497056
2129.88,0.496095
2135.15,0.495629
2140.44,0.494982
2145.75,0.494321
2149.31,0.493784
2154.67,0.493241
2160.06,0.492763
2165.47,0.492552
2170.91,0.492555
2174.55,0.492502
2180.04,0.492681
2185.55,0.492972
2189.25,0.493075
2194.81,0.493186
2200.4,0.493037
2204.14,0.492667
2209.78,0.491788
2215.44,0.490616
2219.24,0.48967
2224.95,0.488613
2230.7,0.48788
2234.54,0.487451
2240.33,0.486561
2244.21,0.485534
2250.06,0.483451
2255.93,0.480615
2259.87,0.477873
2265.79,0.471724
2269.76,0.465389
2275.74,0.453203
2279.74,0.448783
2285.77,0.452715
2289.81,0.457405
2295.9,0.460788
2299.97,0.461011
2304.06,0.459846
2310.22,0.45644
2314.35,0.455288
2320.56,0.458005
2324.72,0.461772
2331.0,0.466427
2335.2,0.46886
2339.41,0.471001
2345.76,0.473147
2350.02,0.474028
2354.28,0.474187
2360.72,0.473776
2365.03,0.473433
2369.35,0.473255
2375.86,0.472371
2380.23,0.471623
2384.61,0.470781
2389.0,0.4698
2395.63,0.468317
2400.06,0.467141
2404.52,0.465835
2408.98,0.464538
2415.72,0.462507
2420.23,0.460865
2424.76,0.459044
2429.3,0.456926
2433.87,0.454778
2440.74,0.451823
2445.35,0.450049
2449.97,0.447826
2454.61,0.445058
2459.27,0.441472
2463.94,0.437609
2470.99,0.431544
2475.71,0.427221
2480.45,0.424115
2485.2,0.42401
2489.98,0.42557
2494.77,0.42701
2499.58,0.427775
2504.41,0.427944
2509.26,0.428175
2514.13,0.427977
2519.02,0.42701
2523.92,0.425597
2528.85,0.423585
2533.79,0.420894
2541.24,0.416614
2543.74,0.415416
2548.74,0.413334
2553.76,0.411848
2556.28,0.411371
2558.8,0.410916
2561.33,0.410391
2563.86,0.4099
2566.4,0.409793
2568.95,0.409589
2571.5,0.409464
2574.05,0.409316
2576.61,0.408905
2579.17,0.408372
2581.74,0.407868
2584.31,0.407007
2586.89,0.406095
2589.48,0.405208
2592.07,0.404359
2594.66,0.403432
2597.26,0.402328
2599.87,0.401385
2602.48,0.400483
2605.09,0.399328
2607.71,0.398213
2610.34,0.397294
2612.97,0.396509
2615.61,0.395755
2618.25,0.395016
2620.9,0.394045
2623.55,0.393228
2626.21,0.392447
2628.87,0.391347
2631.54,0.390106
2634.22,0.388694
2636.89,0.38703
2639.58,0.38517
2642.27,0.382956
2644.97,0.380679
2647.67,0.378459
2650.38,0.376332
2653.09,0.374435
2655.81,0.3727
2658.53,0.371222
2661.26,0.369903
2664.0,0.368535
2666.74,0.366808
2669.48,0.364581
2672.23,0.361801
2674.99,0.358448
2677.76,0.354682
2680.52,0.349653
2683.3,0.343982
2686.08,0.337778
2688.87,0.331212
2691.66,0.3249
2694.46,0.319019
2697.26,0.31085
2700.07,0.298814
2702.89,0.285007
2705.71,0.272134
2708.53,0.260704
2711.37,0.252983
2714.21,0.247171
2717.05,0.2442
2719.9,0.242499
2722.76,0.240783
2725.62,0.237375
2728.49,0.233312
2731.37,0.229242
2734.25,0.224995
2737.14,0.219805
2740.03,0.214234
2742.93,0.207588
2745.83,0.200834
2748.75,0.192362
2751.66,0.178884
2754.59,0.163011
2757.52,0.154671
2760.46,0.151526
2763.4,0.14539
2766.35,0.141948
2769.3,0.140396
2772.26,0.130466
2775.23,0.118512
2778.21,0.113583
2781.19,0.11418
2784.18,0.116387
2787.17,0.118132
2790.17,0.120453
2793.18,0.12519
2796.19,0.128251
2799.21,0.130266
2802.24,0.13739
2805.27,0.148182
2808.31,0.15727
2811.35,0.163159
2814.41,0.166937
2817.46,0.168829
2820.53,0.169157
2823.6,0.168135
2826.68,0.166136
2829.77,0.163455
2832.86,0.160222
2835.96,0.156707
2839.07,0.153084
2842.18,0.149335
2845.3,0.145675
2848.43,0.142358
2851.56,0.139532
2854.7,0.136755
2857.85,0.134194
2861.0,0.132209
2864.16,0.130606
2867.33,0.128933
2870.51,0.127198
2873.69,0.125235
2876.88,0.123197
2880.07,0.121141
2883.28,0.119045
2886.49,0.116593
2889.71,0.114058
2892.93,0.111392
2896.17,0.108865
2899.4,0.106441
2902.65,0.104009
2905.91,0.101537
2909.17,0.099055
2912.44,0.096522
2915.71,0.093906
2918.99,0.091196
2922.29,0.088593
2925.58,0.086249
2928.89,0.083927
2932.2,0.081553
2935.52,0.079181
2938.85,0.076942
2942.19,0.074815
2945.53,0.072586
2948.88,0.070504
2952.24,0.068476
2955.61,0.066504
2958.98,0.064635
2962.36,0.06285
2965.75,0.061044
2969.15,0.059342
2972.55,0.057732
2975.97,0.056144
2979.39,0.054782
2986.25,0.052156
2989.7,0.051048
2993.15,0.050006
2996.61,0.049055
3000.08,0.047956
3003.55,0.046998
3007.04,0.045987
3010.53,0.045063
3014.03,0.044501
3017.54,0.043959
3021.06,0.043344
3024.58,0.042634
3028.12,0.042111
3031.66,0.041545
3035.21,0.041192
3038.77,0.041058
3042.33,0.040652
3045.91,0.040266
3049.49,0.039991
3053.08,0.039821
3056.68,0.039709
3060.29,0.039419
3063.91,0.039209
3067.54,0.039177
3071.17,0.039177
3074.81,0.039147
3078.47,0.039021
3082.13,0.039097
3085.79,0.039207
3089.47,0.039196
3093.16,0.039199
3096.85,0.039397
3100.56,0.039416
3104.27,0.039407
3107.99,0.03919
3111.73,0.039375
3115.47,0.039473
3119.21,0.039911
3122.97,0.039694
3126.74,0.040031
3130.52,0.040505
3134.3,0.040176
3138.1,0.039919
3141.9,0.04041
3145.71,0.040811
3149.54,0.040833
3153.37,0.041337
3157.21,0.041386
3161.06,0.042108
3164.92,0.041663
3168.79,0.042048
3172.67,0.041816
3176.55,0.04217
3180.45,0.042099
3184.36,0.042958
3188.27,0.042789
3192.2,0.042843
3196.14,0.043146
3200.08,0.043887
3204.04,0.043781
3208.0,0.043859
3211.98,0.044151
3215.96,0.044348
3219.96,0.044529
3223.96,0.044709
3227.98,0.045097
3232.0,0.044516
3236.04,0.045372
3240.08,0.045295
3244.14,0.045589
3248.2,0.046089
3252.28,0.046181
3256.37,0.046481
3260.46,0.04704
3264.57,0.04744
3268.69,0.047993
3272.81,0.048222
3276.95,0.048522
3281.1,0.049635
3285.26,0.049797
3289.43,0.050293
3293.61,0.050729
3297.8,0.051374
3302.0,0.051646
3306.21,0.051586
3310.43,0.051921
3314.66,0.052846
3318.91,0.053816
3323.16,0.054071
3327.43,0.054658
3331.71,0.05481
3335.99,0.055017
3340.29,0.055981
3344.6,0.056388
3348.92,0.056387
3353.26,0.057241
3357.6,0.057428
3361.96,0.057534
3366.32,0.05824
3370.7,0.058753
3375.09,0.058804
3379.49,0.05935
3383.9,0.059641
3388.32,0.060091
3392.76,0.060739
3397.21,0.061229
3401.66,0.061194
3406.13,0.061908
3410.61,0.062475
3415.11,0.062649
3419.61,0.062971
3424.13,0.063485
3428.66,0.063616
3433.2,0.064243
3437.76,0.064805
3442.32,0.064314
3446.9,0.065332
3451.49,0.066005
3456.09,0.066074
3460.7,0.066723
3465.33,0.067161
3469.97,0.067728
3474.62,0.067559
3479.29,0.068137
3483.96,0.068911
3488.65,0.069589
3493.35,0.070158
3498.07,0.070581
3502.79,0.071483
3507.53,0.071992
3512.29,0.072474
3517.05,0.073348
3521.83,0.073975
3526.62,0.074409
3531.43,0.075207
3536.24,0.075905
3541.08,0.076488
3543.5,0.07673
3545.92,0.077163
3548.35,0.077667
3550.78,0.078017
3553.21,0.078367
3555.65,0.078592
3558.09,0.079161
3560.53,0.079825
3562.98,0.080221
3565.43,0.080387
3567.88,0.08073
3570.34,0.080987
3572.8,0.081354
3575.27,0.081855
3577.73,0.082248
3580.2,0.082458
3582.68,0.082528
3585.16,0.082673
3587.64,0.083055
3590.12,0.083307
3592.61,0.083582
3595.1,0.083976
3597.6,0.084574
3600.09,0.085032
3602.6,0.085242
3605.1,0.085575
3607.61,0.086079
3610.12,0.086384
3612.64,0.086714
3615.16,0.087163
3617.68,0.087706
3620.21,0.087964
3622.74,0.088067
3625.27,0.088501
3627.81,0.089075
3630.35,0.089533
3632.89,0.090169
3635.44,0.090575
3637.99,0.090716
3640.54,0.090751
3643.1,0.091094
3645.66,0.091613
3648.23,0.091909
3650.8,0.092378
3653.37,0.092776
3655.95,0.09331
3658.53,0.093735
3661.11,0.094078
3663.7,0.094583
3666.29,0.095135
3668.89,0.095545
3671.48,0.095822
3674.09,0.095983
3676.69,0.096632
3679.3,0.097102
3681.91,0.097226
3684.53,0.097675
3687.15,0.098291
3689.78,0.099018
3692.4,0.09965
3695.04,0.099863
3697.67,0.100162
3700.31,0.100449
3702.95,0.100824
3705.6,0.101353
3708.25,0.102072
3710.91,0.102493
3713.56,0.102827
3716.23,0.103182
3718.89,0.10359
3721.56,0.103996
3724.23,0.104617
3726.91,0.104857
3729.59,0.105166
3732.28,0.105628
3734.97,0.10598
3737.66,0.106405
3740.36,0.106811
3743.06,0.107383
3745.76,0.108015
3748.47,0.108435
3751.18,0.108783
3753.9,0.108985
3756.62,0.109151
3759.34,0.109562
3762.07,0.110127
3764.8,0.110833
3767.54,0.111086
3770.28,0.11116
3773.02,0.111558
3775.77,0.111923
3778.52,0.112432
3781.28,0.11299
3784.04,0.113524
3786.8,0.113854
3789.57,0.114273
3792.34,0.114669
3795.12,0.114731
3797.9,0.114958
3800.69,0.115325
3803.47,0.115807
3806.27,0.116325
3809.06,0.116819
3811.86,0.117314
3814.67,0.117609
3817.48,0.117961
3820.29,0.118233
3823.11,0.118424
3825.93,0.118813
3828.76,0.119099
3831.59,0.119424
3834.42,0.119999
3837.26,0.120461
3840.1,0.120862
3842.95,0.121318
3845.8,0.121743
3848.65,0.12181
3851.51,0.122093
3854.38,0.122407
3857.24,0.122737
3860.12,0.123142
3862.99,0.123437
3865.87,0.124069
3868.76,0.124443
3871.65,0.124459
3874.54,0.124584
3877.44,0.124755
3880.34,0.125195
3883.25,0.125862
3886.16,0.126083
3889.07,0.126153
3891.99,0.126366
3894.92,0.126818
3897.85,0.127164
3900.78,0.127496
3903.72,0.12769
3906.66,0.127804
3909.6,0.128191
3912.55,0.128382
3915.51,0.128473
3918.47,0.128636
3921.43,0.128897
3924.4,0.129211
3927.38,0.129584
3930.35,0.1299
3933.33,0.129925
3936.32,0.129916
3939.31,0.130077
3942.31,0.130164
3945.31,0.130388
3948.31,0.130515
3951.32,0.130331
3954.34,0.130225
3957.35,0.130421
3960.38,0.130489
3963.41,0.130415
3966.44,0.130516
3969.48,0.130723
3972.52,0.130668
3975.56,0.131001
3978.61,0.131447
3981.67,0.131096
3984.73,0.131007
3987.8,0.131281
3990.87,0.131338
3993.94,0.131145
3997.02,0.131101
4000.1,0.131317
4003.19,0.131718
4006.29,0.131938
4009.39,0.13208
4012.49,0.132167
4015.6,0.132134
4018.71,0.132233
4021.83,0.132388
4024.95,0.132197
4028.08,0.132129
4031.21,0.132572
4034.35,0.132747
4037.49,0.132521
4040.64,0.132583
4043.79,0.132739
4046.94,0.132652
4050.11,0.132649
4053.27,0.132794
4056.44,0.132899
4059.62,0.132859
4062.8,0.132478
4065.99,0.132333
4069.18,0.132308
4072.38,0.132229
4075.58,0.132399
4078.78,0.132328
4082.0,0.131935
4085.21,0.131692
4088.43,0.131526
4091.66,0.131453
4094.89,0.131263
4098.13,0.130962
4101.37,0.130731
4104.62,0.130576
4107.87,0.130475
4111.13,0.130301
4114.39,0.129965
4117.66,0.129685
4120.93,0.129535
4124.21,0.129407
4127.5,0.129382
4130.79,0.129357
4134.08,0.129208
4137.38,0.129175
4140.68,0.129372
4143.99,0.129695
4147.31,0.130086
4150.63,0.130731
4153.95,0.131281
4157.29,0.131783
4160.62,0.132407
4163.96,0.133044
4167.31,0.133655
4170.66,0.134211
4174.02,0.134796
4177.39,0.135458
4180.75,0.136245
4184.13,0.136883
4187.51,0.137222
4190.89,0.137737
4194.28,0.138229
4197.68,0.138944
4201.08,0.139611
4204.49,0.139897
4207.9,0.140392
4211.32,0.140805
4214.74,0.141069
4218.17,0.141347
4221.61,0.141832
4225.05,0.142275
4228.5,0.142894
4231.95,0.143477
4235.4,0.143796
4238.87,0.144142
4242.34,0.144704
4245.81,0.145347
4249.29,0.146025
4252.78,0.146684
4256.27,0.147408
4259.77,0.147802
4263.27,0.148273
4266.78,0.148976
4270.29,0.149359
4273.81,0.149627
4277.34,0.149848
4280.87,0.150493
4284.41,0.151234
4287.95,0.151724
4291.5,0.151859
4295.06,0.152316
4298.62,0.153011
4302.19,0.153367
4305.76,0.154041
4309.34,0.154803
4312.92,0.155194
4316.52,0.155793
4320.11,0.156457
4323.72,0.156744
4327.32,0.157291
4330.94,0.157975
4334.56,0.158564
4338.19,0.159123
4341.82,0.15967
4345.46,0.160141
4349.11,0.16051
4352.76,0.161244
4356.42,0.161877
4360.08,0.162289
4363.75,0.1627
4367.43,0.163078
4371.11,0.163446
4374.8,0.16383
4378.49,0.16428
4382.19,0.164797
4385.9,0.16497
4389.61,0.165272
4393.33,0.165757
4397.06,0.166373
4400.79,0.166664
4404.53,0.16674
4408.28,0.166883
4412.03,0.166866
4415.79,0.166925
4419.55,0.167
4423.32,0.167021
4427.1,0.167261
4430.88,0.167354
4434.68,0.167496
4438.47,0.167522
4442.28,0.167536
4446.08,0.1677
4449.9,0.167847
4453.72,0.167962
4457.55,0.168259
4461.39,0.168579
4465.23,0.168713
4469.08,0.169207
4472.94,0.169844
4476.8,0.170617
4480.67,0.171198
4484.55,0.172062
4488.43,0.173313
4492.32,0.174381
4496.21,0.175516
4500.12,0.176602
4504.03,0.177838
4507.94,0.17934
4511.87,0.180866
4515.8,0.182465
4519.73,0.1839
4523.68,0.185502
4527.63,0.187097
4531.59,0.188554
4535.55,0.190091
4539.52,0.191448
4543.5,0.192668
4547.49,0.194102
4551.48,0.195606
4555.48,0.196903
4559.49,0.198119
4563.5,0.199159
4567.52,0.200151
4571.55,0.201353
4575.58,0.202891
4579.63,0.20435
4583.67,0.205778
4587.73,0.207455
4591.79,0.208995
4595.86,0.210222
4599.94,0.211497
4604.03,0.212565
4608.12,0.213685
4612.22,0.214726
4616.33,0.215847
4620.44,0.216981
4624.56,0.217866
4628.69,0.218676
4632.83,0.219583
4636.97,0.220472
4641.12,0.221261
4645.28,0.2219
4649.45,0.222643
4653.62,0.223234
4657.8,0.223976
4661.99,0.224518
4666.19,0.224893
4670.39,0.225327
4674.6,0.226024
4678.82,0.226668
4683.05,0.22706
4687.28,0.227231
4691.52,0.227758
4695.77,0.228349
4700.03,0.22885
4704.3,0.229269
4708.57,0.229703
4712.85,0.229883
4717.14,0.230392
4721.43,0.230779
4725.74,0.2311
4730.05,0.231386
4734.37,0.231803
4738.7,0.231986
4743.03,0.23237
4747.38,0.232812
4751.73,0.233191
4756.09,0.233438
4760.45,0.233845
4764.83,0.234179
4769.21,0.234389
4773.6,0.23457
4778.0,0.234847
4782.41,0.235106
4786.83,0.235417
4791.25,0.235654
4795.68,0.235823
4800.13,0.235773
4804.57,0.236
4809.03,0.236269
4813.5,0.23642
4817.97,0.236542
4822.45,0.23674
4826.94,0.236841
4831.44,0.236943
4835.95,0.236931
4840.46,0.236852
4844.99,0.23667
4849.52,0.236689
4854.06,0.236879
4858.61,0.237142
4863.17,0.237476
4867.73,0.237664
4872.31,0.237657
4876.89,0.237556
4881.48,0.237514
4886.08,0.237642
4890.69,0.237638
4895.31,0.237604
4899.94,0.23752
4904.57,0.237578
4909.22,0.237695
4913.87,0.237953
4918.53,0.238016
4923.21,0.238294
4927.88,0.238541
4932.57,0.238743
4937.27,0.238999
4941.98,0.239315
4946.69,0.239487
4951.42,0.239717
4956.15,0.239909
4960.9,0.240266
4965.65,0.240657
4970.41,0.24098
4975.18,0.241277
4979.96,0.24162
4984.75,0.241808
4989.54,0.242116
4994.35,0.242379
4999.17,0.242596
5003.99,0.242749
5008.83,0.243133
5013.67,0.24353
5018.52,0.243951
5023.39,0.244108
5028.26,0.244368
5033.14,0.244812
5038.03,0.245111
5042.93,0.245097
5047.84,0.245408
5052.76,0.245626
5057.69,0.245816
5062.63,0.246041
5067.58,0.246199
5072.54,0.246283
5077.51,0.246353
5082.49,0.246305
5087.47,0.24646
5092.47,0.246256
5097.48,0.245986
5102.5,0.245872
5107.52,0.246013
5112.56,0.245923
5117.61,0.245866
5122.66,0.245672
5127.73,0.245452
5132.81,0.245095
5137.89,0.244959
5142.99,0.244852
5148.1,0.2445
5153.22,0.244162
5158.34,0.244034
5163.48,0.243744
5168.63,0.243447
5173.79,0.243259
5178.96,0.243049
5184.13,0.24259
5189.32,0.242337
5194.52,0.242048
5199.73,0.24167
5204.96,0.241133
5210.19,0.240782
5215.43,0.240332
5220.68,0.24013
5225.94,0.239722
5231.22,0.239187
5236.5,0.238607
5241.79,0.238117
5247.1,0.237482
5252.42,0.237003
5257.74,0.236297
5263.08,0.235762
5268.43,0.235292
5273.79,0.234509
5279.16,0.233556
5284.54,0.232921
5289.93,0.232199
5295.34,0.231471
5300.75,0.230589
5306.18,0.229771
5311.61,0.229017
5317.06,0.228321
5322.52,0.227109
5327.99,0.226202
5333.47,0.225436
5338.96,0.224517
5344.47,0.223349
5349.98,0.222389
5355.51,0.221376
5361.05,0.220204
5366.6,0.219
5372.16,0.217962
5377.73,0.216679
5383.32,0.2157
5388.91,0.214437
5394.52,0.213248
5400.14,0.212022
5405.77,0.210843
5411.41,0.209338
5417.07,0.207759
5422.74,0.206293
5428.41,0.20487
5434.1,0.203434
5439.81,0.202056
5445.52,0.200548
5451.25,0.199442
5456.98,0.198036
5462.73,0.196574
5468.5,0.194841
5474.27,0.193292
5480.06,0.191698
5485.86,0.189952
5491.67,0.188394
5497.49,0.186743
5503.33,0.184816
5509.18,0.182865
5515.04,0.1807
5520.91,0.17837
5526.8,0.175595
5532.69,0.172779
5538.61,0.169651
5544.53,0.166228
5550.47,0.162484
5556.41,0.158891
5562.38,0.155597
5568.35,0.152992
5574.34,0.151158
5580.34,0.150521
5586.35,0.151166
5592.38,0.152724
5598.42,0.15476
5604.47,0.156834
5610.54,0.158618
5616.61,0.160131
5622.71,0.16128
5628.81,0.162119
5634.93,0.162544
5641.06,0.162784
5647.21,0.16282
5653.36,0.162564
5659.54,0.162144
5665.72,0.161664
5671.92,0.160939
5678.13,0.160095
5684.36,0.159188
5690.6,0.158593
5696.85,0.157613
5703.12,0.156442
5709.4,0.155281
5715.69,0.154122
5722.0,0.152608
5728.33,0.150951
5734.66,0.149365
5741.01,0.148283
5747.38,0.147128
5753.76,0.145542
5760.15,0.143734
5766.56,0.142321
5772.98,0.140398
5779.41,0.138843
5785.86,0.137382
5792.33,0.135793
5798.81,0.134154
5805.3,0.132527
5811.81,0.130819
5818.33,0.129315
5824.87,0.127349
5831.42,0.125421
5837.99,0.123672
5844.57,0.122168
5851.17,0.120603
5857.78,0.119178
5864.41,0.117314
5871.05,0.115427
5877.7,0.113968
5884.38,0.112378
5891.06,0.110478
5897.76,0.109279
5904.48,0.107639
5911.21,0.106293
5917.96,0.104794
5924.73,0.103247
5931.5,0.101918
5938.3,0.100749
5945.11,0.099239
5951.93,0.098045
5958.78,0.096852
5965.63,0.095692
5972.51,0.094479
5979.39,0.09359
5986.3,0.09289
5993.22,0.091855
6000.16,0.090833
6007.11,0.089939
6014.08,0.088975
6021.06,0.08807
6028.06,0.08725
6035.08,0.086743
6042.12,0.086166
6049.17,0.085316
6056.23,0.084515
6063.32,0.083972
6070.42,0.083412
6077.53,0.08257
6084.67,0.081656
6091.82,0.081019
6098.98,0.080602
6106.17,0.080187
6113.37,0.079664
6120.58,0.079281
6127.82,0.078692
6135.07,0.077938
6142.34,0.077234
6149.63,0.07658
6156.93,0.076226
6164.25,0.076024
6171.59,0.075438
6178.95,0.074772
6186.32,0.074329
6193.71,0.073874
6201.12,0.073471
6208.54,0.073294
6215.99,0.073303
6223.45,0.073169
6230.93,0.072945
6238.43,0.072968
6245.95,0.073076
6253.48,0.073188
6261.03,0.073428
6268.6,0.073735
6276.19,0.074147
6283.8,0.074624
6291.43,0.075267
6299.07,0.075471
6306.73,0.075899
6314.42,0.076558
6322.12,0.077303
6329.84,0.077902
6337.57,0.078482
6345.33,0.079161
6353.11,0.080043
6360.9,0.080455
6368.72,0.080976
6376.55,0.081721
6384.4,0.082234
6392.27,0.082755
6400.17,0.083384
6408.08,0.083736
6416.01,0.084063
6423.96,0.084356
6431.93,0.084807
6439.92,0.085131
6447.93,0.085326
6455.96,0.085232
6464.01,0.085291
6472.08,0.085248
6480.17,0.085212
6488.28,0.085016
6496.41,0.084588
6504.56,0.084164
6512.73,0.084097
6520.92,0.083618
6529.14,0.083059
6537.37,0.082498
6545.63,0.082095
6553.9,0.081659
6562.2,0.08149
6570.51,0.08119
6578.85,0.080798
6587.21,0.080417
6595.59,0.080047
6603.99,0.079683
6612.42,0.079943
6620.86,0.080063
6629.33,0.07989
6637.82,0.079562
6646.33,0.079921
6654.86,0.080324
6663.41,0.080897
6671.99,0.081491
6680.59,0.082335
6689.21,0.083525
6697.85,0.085198
6706.51,0.08643
6715.2,0.088394
6723.91,0.090969
6732.64,0.093901
6741.4,0.09661
6750.18,0.099585
6758.98,0.102852
6767.8,0.106509
6776.65,0.110241
6785.52,0.114366
6794.41,0.118516
6803.33,0.123285
6812.27,0.127456
6821.23,0.13165
6830.22,0.13587
6839.23,0.140771
6848.26,0.145374
6857.32,0.150009
6866.4,0.154398
6875.51,0.159727
6884.64,0.164119
6893.8,0.168569
6902.98,0.172972
6912.18,0.177493
6921.41,0.181751
6930.66,0.185871
6939.94,0.189415
6949.24,0.193007
6958.57,0.196029
6967.92,0.199426
6977.3,0.202401
6986.7,0.205069
6996.13,0.207346
7005.59,0.209519
7015.07,0.211301
7024.57,0.213049
7034.1,0.214349
7043.66,0.215562
7053.25,0.216441
7062.85,0.217224
7072.49,0.217617
7082.15,0.217918
7091.84,0.217554
7101.55,0.216881
7111.3,0.215665
7121.06,0.214369
7130.86,0.212475
7140.68,0.210816
7150.53,0.209297
7160.41,0.208197
7170.31,0.207123
7180.24,0.20669
7190.2,0.206567
7200.19,0.206244
7210.2,0.20508
7220.24,0.203886
7230.31,0.202181
7240.41,0.200396
7250.54,0.198399
7260.69,0.196209
7270.88,0.193766
7281.09,0.191486
7291.33,0.189164
7301.6,0.187091
7311.9,0.185056
7322.22,0.183184
7332.58,0.18122
7342.97,0.179238
7353.38,0.177252
7363.83,0.175974
7374.3,0.175249
7384.81,0.175138
7395.34,0.175512
7405.91,0.176553
7416.5,0.178159
7427.13,0.18025
7437.78,0.182464
7448.47,0.185032
7459.19,0.18765
7469.94,0.190092
7480.71,0.192468
7491.52,0.19453
7502.37,0.19565
7513.24,0.196258
7524.14,0.196426
7535.08,0.196409
7546.05,0.195355
7557.05,0.193595
7568.08,0.19145
7579.15,0.189255
7590.24,0.186927
7601.37,0.184415
7612.53,0.181999
7623.73,0.180149
7634.96,0.178634
7646.22,0.177753
7657.51,0.177291
7668.84,0.177358
7680.2,0.17776
7691.59,0.1787
7703.02,0.17974
7714.49,0.180936
7725.98,0.18237
7737.52,0.184201
7749.08,0.186241
7760.68,0.188407
7772.32,0.190389
7783.99,0.192536
7795.69,0.194879
7807.43,0.197442
7819.21,0.19995
7831.02,0.202568
7842.87,0.20494
7854.75,0.207263
7866.67,0.20991
7878.62,0.212681
7890.62,0.215215
7902.64,0.217997
7914.71,0.220761
7926.81,0.223986
7938.95,0.227073
7951.13,0.230131
7963.34,0.233164
7975.59,0.236021
7987.88,0.238668
8000.21,0.241623
8012.57,0.244498
8024.98,0.247468
8037.42,0.250339
8049.9,0.25346
8062.42,0.256535
8074.98,0.259543
8087.57,0.262596
8100.21,0.265634
8112.89,0.268391
8125.6,0.271238
8138.36,0.273792
8151.16,0.276341
8163.99,0.278592
8176.87,0.280913
8189.79,0.283006
8202.75,0.284895
8215.75,0.286112
8228.79,0.287189
8241.87,0.288175
8254.99,0.289181
8268.16,0.290017
8281.37,0.29103
8294.62,0.291772
8307.91,0.292804
8321.24,0.29369
8334.62,0.294564
8348.04,0.29512
8361.51,0.295736
8375.02,0.296428
8388.57,0.29706
8402.16,0.297498
8415.8,0.298392
8429.49,0.298856
8443.22,0.299148
8456.99,0.299292
8470.81,0.2996
8484.67,0.29967
8498.58,0.300107
8512.54,0.300518
8526.54,0.301085
8540.58,0.301547
8554.68,0.302294
8568.82,0.302967
8583.0,0.303488
8597.24,0.30387
8611.52,0.304646
8625.85,0.30516
8640.23,0.305602
8654.65,0.306223
8669.12,0.306907
8683.64,0.307343
8698.21,0.308123
8712.83,0.308281
8727.5,0.308185
8742.22,0.307837
8756.99,0.307812
8771.8,0.307303
8786.67,0.306741
8801.59,0.305713
8816.56,0.304962
8831.58,0.303738
8846.65,0.302318
8861.77,0.300199
8876.94,0.298272
8892.17,0.296082
8907.45,0.29369
8922.78,0.291065
8938.16,0.288145
8953.6,0.284636
8969.09,0.280883
8984.64,0.276312
9000.23,0.270923
9015.89,0.264565
9031.59,0.257097
9047.36,0.24749
9063.17,0.235812
9079.05,0.221232
9094.97,0.204265
9110.96,0.186824
9127.0,0.172422
9143.1,0.164902
9159.25,0.167361
9175.46,0.179173
9191.73,0.194713
9208.06,0.207202
9224.44,0.214785
9240.88,0.218616
9257.38,0.219872
9273.94,0.219442
9290.56,0.218311
9307.24,0.216997
9323.98,0.216031
9340.78,0.215175
9357.64,0.213704
9374.57,0.211654
9391.55,0.210129
9408.59,0.208481
9425.7,0.2063
9442.87,0.203442
9460.1,0.200187
9477.4,0.196898
9494.75,0.193609
9512.17,0.190039
9529.66,0.186637
9547.21,0.18287
9564.83,0.179149
9582.5,0.175285
9600.25,0.171308
9618.06,0.167503
9635.94,0.16342
9653.88,0.159163
9671.89,0.1551
9689.97,0.151272
9708.12,0.147019
9726.33,0.142842
9744.62,0.139047
9762.97,0.13553
9781.39,0.13244
9799.88,0.129363
9818.44,0.126488
9837.07,0.124203
9855.77,0.121458
9874.54,0.118547
9893.39,0.116529
9912.3,0.114356
9931.29,0.112334
9950.36,0.110756
9969.49,0.108887
9988.7,0.106822
10007.98,0.105378
10027.34,0.104636
10046.77,0.10396
10066.28,0.103261
10085.87,0.10289
10105.53,0.102599
10125.26,0.102372
10145.08,0.102438
10164.97,0.102658
10184.94,0.103138
10204.99,0.103555
10225.12,0.103963
10245.33,0.104465
10265.61,0.10525
10285.98,0.10608
10306.43,0.1065
10326.96,0.107405
10347.57,0.108422
10368.27,0.108787
10389.05,0.109047
10409.91,0.109271
10430.86,0.109231
10451.88,0.109481
10473.0,0.109579
10494.2,0.109945
10515.49,0.109688
10536.86,0.109067
10558.32,0.108584
10579.87,0.108048
10601.5,0.107445
10623.23,0.107326
10645.04,0.107059
10666.94,0.106193
10688.94,0.105821
10711.02,0.105441
10733.2,0.105249
10755.47,0.105075
10777.83,0.104634
10800.28,0.104166
10822.83,0.103745
10845.47,0.103427
10868.21,0.103176
10891.04,0.102928
10913.97,0.102656
10936.99,0.102244
10960.12,0.101874
10983.34,0.101487
11006.66,0.101595
11030.07,0.101599
11053.59,0.101155
11077.21,0.101021
11100.93,0.100862
11124.75,0.10077
11148.68,0.100547
11172.71,0.100171
11196.84,0.099904
11221.07,0.099538
11245.41,0.099388
11269.86,0.099031
11294.41,0.098533
11319.07,0.09807
11343.84,0.098086
11368.72,0.098201
11393.7,0.098144
11418.8,0.097882
11444.01,0.09749
11469.33,0.097149
11494.76,0.097177
11520.3,0.097369
11545.96,0.097696
11571.73,0.097571
11597.62,0.097258
11623.62,0.096986
11649.74,0.096806
11675.98,0.09638
11702.34,0.095914
11728.81,0.095318
11755.41,0.095282
11782.13,0.095489
11808.96,0.095018
11835.92,0.095046
11863.01,0.095501
11890.22,0.095743
11917.55,0.095823
11945.01,0.09589
11972.6,0.096087
12000.31,0.096087
12028.16,0.096034
12056.13,0.096177
12084.23,0.096049
12112.46,0.096255
12140.83,0.096824
12169.33,0.097293
12197.96,0.09753
12226.73,0.098083
12255.64,0.098297
12284.68,0.098346
12313.86,0.099272
12343.18,0.100089
12372.64,0.100527
12402.24,0.101215
12431.98,0.101525
12461.86,0.101697
12491.89,0.10317
12522.07,0.103683
12552.38,0.103893
12582.85,0.105143
12613.47,0.106037
12644.23,0.10664
12675.15,0.108061
12706.21,0.109154
12737.43,0.109641
12768.81,0.110547
12800.33,0.11163
12832.02,0.11232
12863.86,0.112653
12895.86,0.112878
12928.02,0.113521
12960.34,0.114412
12992.82,0.115043
13025.46,0.115031
13058.27,0.114867
13091.25,0.11453
13124.39,0.11462
13157.7,0.114399
13191.18,0.113547
13224.83,0.112979
13258.66,0.1128
13292.65,0.111693
13326.83,0.109832
13361.17,0.108116
13395.7,0.106661
13430.4,0.10553
13465.29,0.104994
13500.35,0.104576
13535.6,0.104223
13571.03,0.104247
13606.65,0.104558
13642.46,0.10499
13678.46,0.105495
13714.64,0.106513
13751.02,0.107877
13787.59,0.108847
13824.36,0.109994
13861.32,0.110844
13898.49,0.111378
13935.85,0.111163
13973.41,0.110745
14011.17,0.110653
14049.15,0.110963
14087.32,0.110277
14125.71,0.10831
14164.3,0.106871
14203.11,0.105836
14242.13,0.105751
14281.36,0.106847
14320.81,0.109369
14360.49,0.113274
14400.38,0.117688
14440.49,0.121919
14480.82,0.125892
14521.39,0.129492
14562.18,0.133467
14603.2,0.137267
14644.45,0.140603
14685.93,0.142504
14727.66,0.143548
14769.62,0.144716
14811.81,0.145444
14854.25,0.144934
14896.94,0.144126
14939.87,0.143186
14983.05,0.14223
15026.48,0.141218
15070.16,0.140614
15114.1,0.140114
15158.29,0.139452
15202.74,0.138987
15247.46,0.138907
15292.43,0.138843
15337.68,0.139681
15383.19,0.141249
15428.97,0.142212
15475.03,0.142776
15521.36,0.14366
15567.97,0.144766
15614.87,0.145581
15662.04,0.145845
15709.5,0.146684
15757.25,0.148259
15805.29,0.149855
15853.62,0.150112
15902.26,0.150842
15951.19,0.151754
16000.42,0.151953
16049.95,0.152942
16099.8,0.154103
16149.95,0.154746
16200.42,0.155784
16251.21,0.156029
16302.31,0.155735
16353.74,0.156927
16405.49,0.157834
16457.57,0.15809
16509.98,0.158261
16562.73,0.158172
16615.82,0.157934
16669.24,0.157469
16723.02,0.157439
16777.14,0.157814
16831.61,0.157913
16886.43,0.158098
16941.62,0.15815
16997.16,0.157578
17053.08,0.157389
17109.36,0.15773
17166.01,0.158125
17223.04,0.15849
17280.45,0.15863
17338.24,0.158063
17396.43,0.157599
17455.0,0.156962
17513.97,0.156412
17573.34,0.155747
17633.11,0.155231
17693.29,0.154205
17753.89,0.152531
17814.9,0.150401
17876.33,0.148921
17938.18,0.147532
18000.47,0.145409
18063.19,0.143496
18126.35,0.1417
18189.95,0.139853
18254.0,0.138074
18318.5,0.136474
18383.46,0.134681
18448.88,0.133396
18514.77,0.132123
18581.13,0.130821
18647.97,0.128819
18715.29,0.126304
18783.1,0.12527
18851.4,0.123472
18920.2,0.121345
18989.51,0.119838
19059.32,0.117179
19129.65,0.114026
19200.5,0.111138
19271.88,0.109374
19343.79,0.107686
19416.24,0.10561
19489.23,0.103405
19562.77,0.102026
19636.88,0.100226
19711.54,0.099015
19786.78,0.098173
19862.59,0.096591
19938.98,0.095506
20015.96,0.094255
20093.55,0.092858
20171.73,0.091304
20250.53,0.089912
20329.94,0.089119
20409.98,0.088608
20490.65,0.087872
20571.96,0.087545
20653.92,0.087395
20736.54,0.087024
20819.82,0.088135
20903.77,0.089402
20988.4,0.091566
21073.72,0.096057
21159.73,0.098947
21246.46,0.101868
21333.89,0.105609
21422.04,0.111704
21510.93,0.117633
21600.56,0.122718
21690.94,0.126684
21782.08,0.130508
21873.99,0.134232
21966.67,0.13897
22060.15,0.14517
22154.42,0.150987
22249.51,0.155488
22345.41,0.157405
22442.14,0.158515
22539.72,0.163207
22638.14,0.169738
22737.43,0.174613
22837.6,0.178678
22938.65,0.1827
23040.6,0.185018
23143.46,0.187893
23247.24,0.190912
23351.96,0.193055
23457.63,0.194377
23564.25,0.197138
23671.85,0.200715
23780.44,0.204191
23890.02,0.205499
24000.63,0.20733
24112.26,0.212589
24224.93,0.215085
24338.66,0.217185
24453.47,0.220248
24569.36,0.220709
24686.36,0.222496
24804.47,0.224269
24923.73,0.223333
25044.13,0.224889
25165.71,0.222565
25288.46,0.217769
25412.43,0.21667
25537.61,0.217452
25664.04,0.218406
25791.72,0.210214
25920.68,0.195454
