Database of Origin,University of Winnipeg Spectrophotometer Facility
Sample Description,See Master Clays in HOSERLab database
Date Added,2016-12-11 20:58:54.144978

Data ID,RLA_CLAY_40         
Sample ID,BEI001
Mineral Name,Beidellite
Grain Size,<45um
Viewing Geometry,"30/0,30"
Resolution,"5,0.6-129"
Material Class,Phyllosilicate

Wavelength
305.0,0.118008
310.0,0.131727
315.0,0.145935
320.0,0.160241
325.0,0.175378
330.0,0.190374
335.0,0.207869
340.0,0.225856
345.0,0.242944
350.0,0.260309
355.0,0.276178
360.0,0.289475
365.0,0.29899
370.0,0.311689
375.0,0.327544
380.0,0.343795
385.0,0.359412
390.0,0.374012
395.0,0.386903
400.0,0.394402
405.0,0.403535
410.0,0.412485
415.0,0.420569
420.0,0.426975
425.0,0.432672
430.0,0.437246
435.0,0.441022
440.0,0.443292
445.0,0.44756
450.0,0.454931
455.0,0.462926
460.0,0.469238
465.0,0.473553
470.0,0.478512
475.0,0.482248
480.0,0.485093
485.0,0.488585
490.0,0.491239
495.0,0.494329
500.0,0.497353
505.0,0.500171
510.0,0.504116
515.0,0.507355
520.0,0.510791
525.0,0.514585
530.0,0.519265
535.0,0.522921
540.0,0.527032
545.0,0.529947
550.0,0.533382
555.0,0.536026
560.0,0.539919
565.0,0.542022
570.0,0.545249
575.0,0.54741
580.0,0.549524
585.0,0.551519
590.0,0.553637
595.0,0.555423
600.0,0.557608
605.0,0.557323
610.0,0.561838
615.0,0.563424
620.0,0.567022
625.0,0.568823
630.0,0.572253
635.0,0.574848
640.0,0.578257
645.0,0.579926
650.0,0.583016
655.0,0.585814
660.0,0.588337
665.0,0.590319
670.0,0.594872
675.0,0.596599
680.0,0.60006
685.0,0.60332
690.0,0.606018
695.0,0.609177
700.0,0.611768
705.0,0.615365
710.0,0.617965
715.0,0.621275
720.0,0.623492
725.0,0.631863
730.0,0.634886
735.0,0.636772
740.0,0.639854
745.0,0.642815
750.0,0.644502
755.0,0.64735
760.0,0.649926
765.0,0.651692
770.0,0.654331
775.0,0.656815
780.0,0.660159
785.0,0.661595
790.0,0.664695
795.0,0.667654
800.0,0.668863
805.0,0.671568
810.0,0.67379
815.0,0.677145
820.0,0.677133
825.0,0.680845
830.0,0.682065
835.0,0.684862
840.0,0.685572
845.0,0.688115
850.0,0.689661
855.0,0.691627
860.0,0.693424
865.0,0.6959
870.0,0.697489
875.0,0.701364
880.0,0.704617
885.0,0.708222
890.0,0.710405
895.0,0.711053
900.0,0.712179
905.0,0.71447
910.0,0.715336
915.0,0.718057
920.0,0.720928
925.0,0.721874
930.0,0.723671
935.0,0.726015
940.0,0.728083
945.0,0.728882
950.0,0.730604
955.0,0.730792
960.0,0.731548
965.0,0.733141
970.0,0.733229
975.0,0.7348
980.0,0.737684
985.0,0.739667
990.0,0.741708
995.0,0.744915
1000.0,0.747053
1005.0,0.749762
1010.0,0.749987
1015.0,0.751736
1020.0,0.753778
1025.0,0.754279
1030.0,0.75457
1035.0,0.757119
1040.0,0.757878
1045.0,0.758224
1050.0,0.7608
1055.0,0.76273
1060.0,0.764039
1065.0,0.76526
1070.0,0.767553
1075.0,0.768579
1080.0,0.770182
1085.0,0.771478
1090.0,0.772626
1095.0,0.773082
1100.0,0.774655
1105.0,0.775539
1110.0,0.777406
1115.0,0.778494
1120.0,0.779365
1125.0,0.780077
1130.0,0.781274
1135.0,0.781877
1140.0,0.78255
1145.0,0.782631
1150.0,0.783326
1155.0,0.783169
1160.0,0.783235
1165.0,0.784231
1170.0,0.787048
1175.0,0.789248
1180.0,0.790573
1185.0,0.792732
1190.0,0.79493
1195.0,0.79545
1200.0,0.796952
1205.0,0.799228
1210.0,0.800502
1215.0,0.802048
1220.0,0.805365
1225.0,0.806339
1230.0,0.808657
1235.0,0.810726
1240.0,0.81252
1245.0,0.812992
1250.0,0.814017
1255.0,0.813677
1260.0,0.814169
1265.0,0.814454
1270.0,0.815445
1275.0,0.816627
1280.0,0.81661
1285.0,0.817716
1290.0,0.818568
1295.0,0.818502
1300.0,0.817942
1305.0,0.818902
1310.0,0.817877
1315.0,0.817748
1320.0,0.817464
1325.0,0.816549
1330.0,0.815898
1335.0,0.815393
1340.0,0.815494
1345.0,0.817201
1350.0,0.818882
1355.0,0.817815
1360.0,0.816654
1365.0,0.812968
1370.0,0.80878
1375.0,0.79921
1380.0,0.791034
1385.0,0.779138
1390.0,0.764011
1395.0,0.742688
1400.0,0.722057
1405.0,0.700289
1410.0,0.684976
1415.0,0.671966
1420.0,0.686532
1425.0,0.703227
1430.0,0.713775
1435.0,0.725819
1440.0,0.734728
1445.0,0.743494
1450.0,0.748044
1455.0,0.753006
1460.0,0.754829
1465.0,0.758745
1470.0,0.763223
1475.0,0.767908
1480.0,0.771768
1485.0,0.7784
1490.0,0.783427
1495.0,0.785403
1500.0,0.788401
1505.0,0.792587
1510.0,0.795554
1515.0,0.797378
1520.0,0.802021
1525.0,0.805762
1530.0,0.808469
1535.0,0.810591
1540.0,0.813491
1545.0,0.815841
1550.0,0.817839
1555.0,0.819515
1560.0,0.821326
1565.0,0.823503
1570.0,0.825051
1575.0,0.826863
1580.0,0.829075
1585.0,0.831078
1590.0,0.833427
1595.0,0.833976
1600.0,0.834432
1605.0,0.835181
1610.0,0.83691
1615.0,0.8366
1620.0,0.839498
1625.0,0.842009
1630.0,0.842074
1635.0,0.842101
1640.0,0.842973
1645.0,0.841588
1650.0,0.840495
1655.0,0.841508
1660.0,0.842003
1665.0,0.843367
1670.0,0.843978
1675.0,0.843772
1680.0,0.84487
1685.0,0.843472
1690.0,0.84514
1695.0,0.845601
1700.0,0.84565
1705.0,0.844538
1710.0,0.844462
1715.0,0.842115
1720.0,0.841932
1725.0,0.841771
1730.0,0.840851
1735.0,0.839475
1740.0,0.838704
1745.0,0.836325
1750.0,0.836049
1755.0,0.834958
1760.0,0.83323
1765.0,0.832867
1770.0,0.831676
1775.0,0.830243
1780.0,0.828976
1785.0,0.82833
1790.0,0.828043
1795.0,0.8276
1800.0,0.828074
1805.0,0.828409
1810.0,0.828702
1815.0,0.827445
1820.0,0.827382
1825.0,0.82665
1830.0,0.826124
1835.0,0.823509
1840.0,0.821433
1845.0,0.818007
1850.0,0.814293
1855.0,0.808853
1860.0,0.806179
1865.0,0.796997
1870.0,0.78214
1875.0,0.763725
1880.0,0.73708
1885.0,0.715928
1890.0,0.681286
1895.0,0.626865
1900.0,0.584387
1905.0,0.534304
1910.0,0.510711
1915.0,0.512452
1920.0,0.525643
1925.0,0.539373
1930.0,0.563333
1935.0,0.575818
1940.0,0.58429
1945.0,0.591076
1950.0,0.598054
1955.0,0.606264
1960.0,0.610465
1965.0,0.613686
1970.0,0.624678
1975.0,0.629032
1980.0,0.638666
1985.0,0.64324
1990.0,0.64929
1995.0,0.660358
2000.0,0.666407
2005.0,0.677704
2010.0,0.682674
2015.0,0.68894
2020.0,0.694849
2025.0,0.702308
2030.0,0.708059
2035.0,0.714043
2040.0,0.715609
2045.0,0.718196
2050.0,0.722307
2055.0,0.727624
2060.0,0.731921
2065.0,0.732454
2070.0,0.738516
2075.0,0.740388
2080.0,0.738585
2085.0,0.739041
2090.0,0.740655
2095.0,0.740465
2100.0,0.74275
2105.0,0.744127
2110.0,0.745843
2115.0,0.748776
2120.0,0.749496
2125.0,0.751086
2130.0,0.75188
2135.0,0.751552
2140.0,0.752233
2145.0,0.747975
2150.0,0.745078
2155.0,0.736749
2160.0,0.730857
2165.0,0.722334
2170.0,0.714043
2175.0,0.708528
2180.0,0.695436
2185.0,0.690346
2190.0,0.678557
2195.0,0.672121
2200.0,0.661364
2205.0,0.648344
2210.0,0.636975
2215.0,0.639753
2220.0,0.656894
2225.0,0.668999
2230.0,0.671518
2235.0,0.673216
2240.0,0.678413
2245.0,0.681701
2250.0,0.68422
2255.0,0.68804
2260.0,0.691426
2265.0,0.694223
2270.0,0.697864
2275.0,0.699286
2280.0,0.697745
2285.0,0.695614
2290.0,0.693848
2295.0,0.689585
2300.0,0.686628
2305.0,0.683684
2310.0,0.679013
2315.0,0.672914
2320.0,0.667226
2325.0,0.660776
2330.0,0.653748
2335.0,0.647308
2340.0,0.639324
2345.0,0.632317
2350.0,0.625327
2355.0,0.620364
2360.0,0.615939
2365.0,0.613113
2370.0,0.607858
2375.0,0.603293
2380.0,0.597615
2385.0,0.593873
2390.0,0.589301
2395.0,0.586093
2400.0,0.582805
2405.0,0.580825
2410.0,0.574911
2415.0,0.568486
2420.0,0.563418
2425.0,0.557094
2430.0,0.547706
2435.0,0.54097
2440.0,0.536199
2445.0,0.529482
2450.0,0.523954
2455.0,0.521152
2460.0,0.517282
2465.0,0.512627
2470.0,0.508926
2475.0,0.504355
2480.0,0.500217
2485.0,0.495955
2490.0,0.491283
2495.0,0.488034
2500.0,0.483716
2505.0,0.480608
2510.0,0.478738
2515.0,0.47568
2520.0,0.473224
2525.0,0.472696
2530.0,0.470909
2533.79,0.470108
2536.27,0.469341
2538.75,0.468529
2541.24,0.467646
2543.74,0.466381
2546.24,0.465292
2548.74,0.464435
2551.25,0.463295
2553.76,0.462213
2556.28,0.461598
2558.8,0.460844
2561.33,0.459347
2563.86,0.45719
2566.4,0.455996
2568.95,0.455369
2571.5,0.453995
2574.05,0.452235
2576.61,0.450988
2579.17,0.450026
2581.74,0.448802
2584.31,0.446763
2586.89,0.445297
2589.48,0.44419
2592.07,0.442859
2594.66,0.440998
2597.26,0.438769
2599.87,0.438542
2602.48,0.437696
2605.09,0.435595
2607.71,0.433951
2610.34,0.433009
2612.97,0.432322
2615.61,0.430903
2618.25,0.428989
2620.9,0.427187
2623.55,0.426299
2626.21,0.425056
2628.87,0.422689
2631.54,0.419919
2634.21,0.417869
2636.89,0.416019
2639.58,0.413782
2642.27,0.410812
2644.97,0.40779
2647.67,0.404227
2650.38,0.400816
2651.73,0.399232
2653.09,0.398502
2654.45,0.396777
2655.81,0.393373
2657.17,0.390299
2658.53,0.388234
2659.89,0.387844
2661.26,0.38713
2662.63,0.383697
2664.0,0.379055
2665.36,0.37489
2666.74,0.372914
2668.11,0.370062
2669.48,0.365949
2670.86,0.360301
2672.23,0.356134
2673.61,0.352132
2674.99,0.348332
2676.37,0.344111
2677.76,0.337137
2679.14,0.331556
2680.52,0.325343
2681.91,0.319308
2683.3,0.312326
2684.69,0.304036
2686.08,0.293718
2687.47,0.283374
2688.87,0.27115
2690.26,0.256507
2691.66,0.24241
2693.06,0.228874
2694.46,0.212796
2695.86,0.195044
2697.26,0.181102
2698.66,0.167044
2700.07,0.152727
2701.48,0.139165
2702.89,0.125892
2704.3,0.115939
2705.71,0.109716
2707.12,0.105572
2708.53,0.105161
2709.95,0.107794
2711.37,0.111668
2712.79,0.112281
2714.21,0.110864
2715.63,0.110553
2717.05,0.10985
2718.48,0.106648
2719.9,0.100166
2721.33,0.093064
2722.76,0.087834
2724.19,0.086707
2725.62,0.084072
2727.06,0.07902
2728.49,0.075449
2729.93,0.073937
2731.37,0.071189
2732.81,0.067798
2734.25,0.065405
2735.69,0.065234
2737.14,0.064732
2738.58,0.064315
2740.03,0.063949
2741.48,0.064626
2742.93,0.06463
2744.38,0.064164
2745.83,0.06478
2747.29,0.065172
2748.75,0.064608
2750.2,0.063451
2751.66,0.061956
2753.13,0.06074
2754.59,0.060074
2756.05,0.060445
2757.52,0.060199
2758.99,0.058994
2760.46,0.058277
2761.93,0.058058
2763.4,0.059809
2764.87,0.062262
2766.35,0.064289
2767.82,0.066964
2769.3,0.068213
2770.78,0.069398
2772.26,0.072182
2773.75,0.07429
2775.23,0.075744
2776.72,0.075389
2778.21,0.076253
2779.7,0.077622
2781.19,0.077996
2782.68,0.078493
2784.18,0.081046
2785.67,0.08281
2787.17,0.085177
2788.67,0.086936
2790.17,0.088748
2791.67,0.091214
2793.18,0.09217
2794.68,0.092312
2796.19,0.094013
2797.7,0.096459
2799.21,0.099395
2800.72,0.101165
2802.24,0.10214
2803.75,0.103326
2805.27,0.104555
2806.79,0.106401
2808.31,0.108865
2809.83,0.109419
2811.35,0.110668
2812.88,0.113282
2814.41,0.114411
2815.93,0.115033
2817.46,0.116196
2819.0,0.118493
2820.53,0.121476
2822.07,0.122641
2823.6,0.124386
2825.14,0.125398
2826.68,0.127073
2828.22,0.129189
2829.77,0.130703
2831.31,0.130926
2832.86,0.130696
2834.41,0.131534
2835.96,0.132541
2837.51,0.131918
2839.07,0.13287
2840.62,0.135127
2842.18,0.135658
2843.74,0.134597
2845.3,0.135216
2846.86,0.136406
2848.43,0.136462
2849.99,0.136878
2851.56,0.137662
2853.13,0.139297
2854.7,0.140412
2856.27,0.139751
2857.85,0.13965
2859.42,0.139411
2861.0,0.140157
2862.58,0.141048
2864.16,0.140465
2865.75,0.140351
2867.33,0.140823
2868.92,0.140705
2870.51,0.140975
2872.1,0.141555
2873.69,0.142523
2875.28,0.142357
2876.88,0.14168
2878.48,0.140635
2880.07,0.140956
2881.68,0.141009
2883.28,0.141815
2884.88,0.143154
2886.49,0.142999
2888.1,0.141749
2889.71,0.142495
2891.32,0.143056
2892.93,0.143083
2894.55,0.144512
2896.16,0.145144
2897.78,0.144863
2899.4,0.143932
2901.03,0.143753
2902.65,0.144701
2904.28,0.144876
2905.91,0.145896
2907.53,0.147177
2909.17,0.147354
2910.8,0.146251
2912.44,0.145912
2914.07,0.146118
2915.71,0.146641
2917.35,0.14668
2918.99,0.146678
2920.64,0.146615
2922.29,0.147188
2923.93,0.147748
2925.58,0.147146
2927.24,0.146708
2928.89,0.146977
2930.55,0.147331
2932.2,0.148716
2933.86,0.148772
2935.52,0.147525
2937.19,0.14817
2938.85,0.150111
2940.52,0.150217
2942.19,0.150031
2943.86,0.150284
2945.53,0.1506
2947.21,0.150264
2948.88,0.150322
2950.56,0.150534
2952.24,0.151531
2953.92,0.151969
2955.61,0.152443
2957.29,0.152594
2958.98,0.152995
2960.67,0.152803
2962.36,0.152456
2964.06,0.153936
2965.75,0.155421
2967.45,0.154796
2969.15,0.155202
2970.85,0.156388
2972.55,0.15693
2974.26,0.15712
2975.97,0.157916
2977.68,0.158632
2979.39,0.158485
2981.1,0.157964
2982.82,0.15836
2984.53,0.159493
2986.25,0.160417
2987.97,0.161049
2989.7,0.16074
2991.42,0.161376
2993.15,0.161323
2994.88,0.161069
2996.61,0.162026
2998.34,0.16341
3000.08,0.164559
3001.82,0.164638
3003.55,0.165712
3005.3,0.167143
3007.04,0.167643
3008.78,0.167987
3010.53,0.169015
3012.28,0.169274
3014.03,0.167735
3015.79,0.168536
3017.54,0.1716
3019.3,0.172337
3021.06,0.171875
3022.82,0.17099
3024.58,0.171166
3026.35,0.17308
3028.12,0.174621
3029.89,0.176184
3031.66,0.177297
3033.43,0.176827
3035.21,0.175879
3036.99,0.176566
3038.77,0.177477
3040.55,0.177667
3042.33,0.176684
3044.12,0.177318
3045.91,0.178667
3047.7,0.179335
3049.49,0.179428
3051.29,0.179858
3053.08,0.179922
3054.88,0.179568
3056.68,0.179899
3058.49,0.179444
3060.29,0.180083
3062.1,0.181265
3063.91,0.181114
3065.72,0.181371
3067.54,0.182027
3069.35,0.181719
3071.17,0.181529
3072.99,0.182318
3074.81,0.183288
3076.64,0.18296
3078.46,0.18281
3080.29,0.183369
3082.13,0.1838
3083.96,0.184334
3085.79,0.18526
3087.63,0.185523
3089.47,0.18555
3091.31,0.18605
3093.16,0.185898
3095.01,0.186216
3096.85,0.186753
3098.71,0.187484
3100.56,0.188995
3102.41,0.19011
3104.27,0.189911
3106.13,0.189881
3107.99,0.191318
3109.86,0.193551
3111.73,0.194644
3113.59,0.194822
3115.47,0.195076
3117.34,0.194689
3119.21,0.195803
3121.09,0.19722
3122.97,0.198436
3124.86,0.199613
3126.74,0.200146
3128.63,0.200757
3130.52,0.201834
3132.41,0.203526
3134.3,0.204786
3136.2,0.206442
3138.1,0.207311
3140.0,0.207396
3141.9,0.209146
3143.81,0.209627
3145.71,0.210864
3147.62,0.212073
3149.54,0.213092
3151.45,0.214592
3153.37,0.214687
3155.29,0.215128
3157.21,0.216556
3159.13,0.217222
3161.06,0.21924
3162.99,0.221624
3164.92,0.222808
3166.85,0.223988
3168.79,0.224966
3170.72,0.225672
3172.67,0.227088
3174.61,0.228073
3176.55,0.229114
3178.5,0.230186
3180.45,0.230684
3182.4,0.231333
3184.36,0.233178
3186.32,0.235483
3188.27,0.236154
3190.24,0.236456
3192.2,0.23683
3194.17,0.238712
3196.14,0.240554
3198.11,0.241837
3200.08,0.243254
3202.06,0.245063
3204.04,0.246659
3206.02,0.246972
3208.0,0.247729
3209.99,0.249001
3211.98,0.250222
3213.97,0.251473
3215.96,0.252054
3217.96,0.253585
3219.96,0.255392
3221.96,0.256996
3223.96,0.258324
3225.97,0.25939
3227.98,0.260182
3229.99,0.261133
3232.0,0.262104
3234.02,0.263685
3236.04,0.265068
3238.06,0.265997
3240.08,0.266436
3242.11,0.266554
3244.14,0.268486
3246.17,0.270838
3248.2,0.272024
3250.24,0.273266
3252.28,0.274255
3254.32,0.274917
3256.37,0.275436
3258.41,0.276405
3260.46,0.278421
3262.51,0.280513
3264.57,0.28218
3266.63,0.283256
3268.69,0.283213
3270.75,0.283432
3272.81,0.284608
3274.88,0.286732
3276.95,0.288409
3279.02,0.288962
3281.1,0.290435
3283.18,0.29234
3285.26,0.292789
3287.34,0.292889
3289.43,0.294648
3291.51,0.295244
3293.61,0.296035
3295.7,0.297453
3297.8,0.298482
3299.89,0.299539
3302.0,0.301448
3304.1,0.301872
3306.21,0.30176
3308.32,0.303476
3310.43,0.305353
3312.55,0.306595
3314.66,0.30762
3316.78,0.308485
3318.91,0.309545
3321.03,0.310544
3323.16,0.311602
3325.29,0.312444
3327.43,0.313357
3329.57,0.31398
3331.71,0.31523
3333.85,0.31643
3335.99,0.317674
3338.14,0.3191
3340.29,0.319868
3342.45,0.320502
3344.6,0.321023
3346.76,0.321568
3348.92,0.322684
3351.09,0.323053
3353.26,0.323046
3355.43,0.323602
3357.6,0.324241
3359.78,0.324858
3361.96,0.325817
3364.14,0.327072
3366.32,0.327452
3368.51,0.327963
3370.7,0.329213
3372.89,0.329475
3375.09,0.330102
3377.29,0.331084
3379.49,0.331743
3381.69,0.332212
3383.9,0.333649
3386.11,0.334583
3388.32,0.335811
3390.54,0.337625
3392.76,0.338448
3394.98,0.33916
3397.21,0.339943
3399.43,0.340388
3401.66,0.340393
3403.9,0.340531
3406.13,0.341224
3408.37,0.342352
3410.61,0.343447
3412.86,0.344448
3415.11,0.344566
3417.36,0.345265
3419.61,0.346973
3421.87,0.348297
3424.13,0.34918
3426.39,0.351269
3428.66,0.35285
3430.93,0.354211
3433.2,0.355342
3435.48,0.357268
3437.76,0.359136
3440.04,0.360076
3442.32,0.360857
3444.61,0.362859
3446.9,0.363722
3449.19,0.363867
3451.49,0.365134
3453.79,0.366098
3456.09,0.366795
3458.4,0.367837
3460.7,0.369304
3463.02,0.370649
3465.33,0.371045
3467.65,0.371221
3469.97,0.372142
3472.29,0.37256
3474.62,0.372292
3476.95,0.37313
3479.29,0.373917
3481.62,0.374475
3483.96,0.376388
3486.3,0.37713
3488.65,0.37651
3491.0,0.376945
3493.35,0.377849
3495.71,0.37874
3498.07,0.379515
3500.43,0.380686
3502.79,0.382094
3505.16,0.382866
3507.53,0.383671
3509.91,0.385197
3512.29,0.386652
3514.67,0.38848
3517.05,0.390336
3519.44,0.39108
3521.83,0.391848
3524.22,0.392824
3526.62,0.393382
3529.02,0.394708
3531.43,0.397309
3533.83,0.398413
3536.24,0.399219
3538.66,0.400255
3541.08,0.40121
3543.5,0.402099
3545.92,0.402923
3548.35,0.404551
3550.78,0.405488
3553.21,0.405853
3555.65,0.407318
3558.09,0.408768
3560.53,0.409649
3562.98,0.410152
3565.43,0.4107
3567.88,0.411764
3570.34,0.412407
3572.8,0.413035
3575.27,0.414226
3577.73,0.415128
3580.2,0.415766
3582.68,0.416358
3585.16,0.417372
3587.64,0.418691
3590.12,0.420142
3592.61,0.421008
3595.1,0.421209
3597.6,0.421201
3600.09,0.421776
3602.6,0.42312
3605.1,0.424719
3607.61,0.424886
3610.12,0.424536
3612.64,0.425218
3615.16,0.426253
3617.68,0.426377
3620.21,0.426062
3622.74,0.426528
3625.27,0.427836
3627.81,0.429054
3630.35,0.429897
3632.89,0.430464
3635.44,0.431084
3637.99,0.431659
3640.54,0.431955
3643.1,0.432277
3645.66,0.433474
3648.23,0.433807
3650.8,0.433878
3653.37,0.434111
3655.95,0.435102
3658.53,0.436314
3661.11,0.436551
3663.7,0.437279
3666.29,0.437655
3668.89,0.437604
3671.48,0.438377
3674.09,0.439153
3676.69,0.439103
3679.3,0.439667
3681.91,0.440604
3684.53,0.441803
3687.15,0.442356
3689.78,0.442347
3692.4,0.443068
3695.04,0.444031
3697.67,0.444642
3700.31,0.445404
3702.95,0.446258
3705.6,0.446861
3708.25,0.447041
3710.91,0.448159
3713.56,0.449019
3716.23,0.449752
3718.89,0.450703
3721.56,0.451853
3724.23,0.452494
3726.91,0.452981
3729.59,0.453527
3732.28,0.453948
3734.97,0.454876
3737.66,0.455856
3740.36,0.455851
3743.06,0.456017
3745.76,0.45706
3748.47,0.458108
3751.18,0.458545
3753.9,0.459273
3756.62,0.460234
3759.34,0.46126
3762.07,0.461678
3764.8,0.461738
3767.54,0.46256
3770.28,0.463718
3773.02,0.464118
3775.77,0.464854
3778.52,0.465542
3781.28,0.46575
3784.04,0.466157
3786.8,0.467261
3789.57,0.468235
3792.34,0.468344
3795.12,0.468539
3797.9,0.469684
3800.69,0.470607
3803.47,0.471037
3806.27,0.47133
3809.06,0.471991
3811.86,0.472661
3814.67,0.47361
3817.48,0.47457
3820.29,0.475355
3823.11,0.475479
3825.93,0.475427
3828.76,0.475771
3831.59,0.475896
3834.42,0.476358
3837.26,0.477029
3840.1,0.477103
3842.95,0.477375
3845.8,0.478462
3848.65,0.479127
3851.51,0.479897
3854.38,0.480339
3857.24,0.480383
3860.12,0.48093
3862.99,0.481521
3865.87,0.482064
3868.76,0.482421
3871.65,0.482647
3874.54,0.483071
3877.44,0.483708
3880.34,0.484147
3883.25,0.484718
3886.16,0.485178
3889.07,0.485117
3891.99,0.485832
3894.92,0.486821
3897.85,0.487627
3900.78,0.4881
3903.72,0.487745
3906.66,0.487283
3909.6,0.487649
3912.55,0.488328
3915.51,0.488882
3918.47,0.489169
3921.43,0.489023
3924.4,0.489212
3927.37,0.489841
3930.35,0.490605
3933.33,0.490628
3936.32,0.490902
3939.31,0.491555
3942.31,0.492364
3945.31,0.49215
3948.31,0.492089
3951.32,0.492982
3954.34,0.493521
3957.35,0.49307
3960.38,0.492861
3963.41,0.492508
3966.44,0.493194
3969.48,0.493405
3972.52,0.493376
3975.56,0.493711
3978.61,0.494103
3981.67,0.494512
3984.73,0.494495
3987.8,0.494658
3990.87,0.494916
3993.94,0.495091
3997.02,0.495067
4000.1,0.49511
4003.19,0.495646
4006.29,0.496068
4009.39,0.496047
4012.49,0.495959
4015.6,0.496224
4018.71,0.496748
4021.83,0.496929
4024.95,0.496615
4028.08,0.496403
4031.21,0.49671
4034.35,0.497385
4037.49,0.498078
4040.64,0.498406
4043.79,0.498249
4046.94,0.498228
4050.11,0.498241
4053.27,0.498179
4056.44,0.497879
4059.62,0.49829
4062.8,0.498227
4065.99,0.498133
4069.18,0.497861
4072.38,0.498032
4075.58,0.498255
4078.78,0.498513
4082.0,0.498788
4085.21,0.498473
4088.43,0.498008
4091.66,0.498033
4094.89,0.498179
4098.13,0.498424
4101.37,0.498129
4104.62,0.49788
4107.87,0.497723
4111.13,0.497503
4114.39,0.497239
4117.66,0.497734
4120.93,0.497709
4124.21,0.49749
4127.5,0.497011
4130.78,0.497014
4134.08,0.497267
4137.38,0.497291
4140.68,0.496867
4143.99,0.496894
4147.31,0.497209
4150.63,0.497772
4153.95,0.497819
4157.29,0.497267
4160.62,0.496602
4163.96,0.49692
4167.31,0.496681
4170.66,0.496845
4174.02,0.497293
4177.39,0.49702
4180.75,0.496611
4184.13,0.496404
4187.51,0.496355
4190.89,0.496271
4194.28,0.495769
4197.68,0.495508
4201.08,0.495608
4204.49,0.496147
4207.9,0.495537
4211.32,0.495261
4214.74,0.495401
4218.17,0.495292
4221.61,0.495346
4225.05,0.49597
4228.5,0.495734
4231.95,0.495612
4235.4,0.495848
4238.87,0.496152
4242.34,0.495943
4245.81,0.495374
4249.29,0.494935
4252.78,0.494821
4256.27,0.494553
4259.77,0.493742
4263.27,0.492968
4266.78,0.493453
4270.29,0.493193
4273.81,0.492894
4277.34,0.493311
4280.87,0.493831
4284.41,0.49328
4287.95,0.492981
4291.5,0.492916
4295.06,0.492709
4298.62,0.492902
4302.19,0.4932
4305.76,0.493204
4309.34,0.492499
4312.92,0.492168
4316.52,0.492195
4320.11,0.491529
4323.72,0.491638
4327.32,0.491528
4330.94,0.490995
4334.56,0.490538
4338.19,0.490044
4341.82,0.48953
4345.46,0.489104
4349.11,0.488983
4352.76,0.488938
4356.42,0.488413
4360.08,0.488121
4363.75,0.487559
4367.43,0.487946
4371.11,0.487831
4374.8,0.487155
4378.49,0.486564
4382.19,0.486186
4385.9,0.485844
4389.61,0.485872
4393.33,0.485795
4397.06,0.485162
4400.79,0.484471
4404.53,0.483992
4408.28,0.483435
4412.03,0.482957
4415.79,0.48252
4419.55,0.482179
4423.32,0.481608
4427.1,0.481521
4430.88,0.481293
4434.67,0.481645
4438.47,0.481268
4442.27,0.480542
4446.08,0.479755
4449.9,0.479098
4453.72,0.478441
4457.55,0.478492
4461.39,0.478065
4465.23,0.477339
4469.08,0.476587
4472.94,0.476496
4476.8,0.476834
4480.67,0.476966
4484.55,0.476673
4488.43,0.476064
4492.32,0.475732
4496.21,0.475919
4500.12,0.475616
4504.03,0.475654
4507.94,0.4759
4511.87,0.475967
4515.8,0.475813
4519.73,0.475719
4523.68,0.475441
4527.63,0.475472
4531.59,0.475775
4535.55,0.475772
4539.52,0.475486
4543.5,0.475469
4547.49,0.475259
4551.48,0.475238
4555.48,0.474802
4559.49,0.474801
4563.5,0.47473
4567.52,0.474147
4571.55,0.473316
4575.58,0.473411
4579.62,0.473471
4583.67,0.472885
4587.73,0.47229
4591.79,0.472001
4595.86,0.471458
4599.94,0.471276
4604.03,0.471123
4608.12,0.470451
4612.22,0.470123
4616.33,0.47016
4620.44,0.469587
4624.56,0.468913
4628.69,0.468539
4632.83,0.468318
4636.97,0.467295
4641.12,0.466189
4645.28,0.465254
4649.45,0.465368
4653.62,0.465116
4657.8,0.464841
4661.99,0.464183
4666.19,0.463408
4670.39,0.46285
4674.6,0.462229
4678.82,0.461308
4683.05,0.460817
4687.28,0.460718
4691.52,0.460542
4695.77,0.460068
4700.03,0.460035
4704.3,0.45998
4708.57,0.460372
4712.85,0.460579
4717.14,0.460024
4721.43,0.459295
4725.74,0.459512
4730.05,0.459219
4734.37,0.459031
4738.7,0.458605
4743.03,0.458422
4747.38,0.457779
4751.73,0.456998
4756.09,0.457136
4760.45,0.456919
4764.83,0.45625
4769.21,0.455978
4773.6,0.455705
4778.0,0.455419
4782.41,0.45457
4786.83,0.454035
4791.25,0.453439
4795.68,0.452354
4800.13,0.45143
4804.57,0.451093
4809.03,0.45095
4813.5,0.450533
4817.97,0.449635
4822.45,0.448896
4826.94,0.447816
4831.44,0.446682
4835.95,0.446024
4840.46,0.445884
4844.99,0.445289
4849.52,0.444339
4854.06,0.443527
4858.61,0.442593
4863.17,0.441034
4867.73,0.439952
4872.31,0.438803
4876.89,0.438007
4881.48,0.436699
4886.08,0.434995
4890.69,0.432725
4895.31,0.430357
4899.94,0.428076
4904.57,0.425841
4909.22,0.423307
4913.87,0.420978
4918.53,0.418425
4923.21,0.415818
4927.88,0.413333
4932.57,0.411463
4937.27,0.409703
4941.98,0.4082
4946.69,0.40644
4951.42,0.404593
4956.15,0.402511
4960.89,0.400176
4965.65,0.397476
4970.41,0.394824
4975.18,0.391637
4979.96,0.388123
4984.75,0.384866
4989.54,0.382563
4994.35,0.380445
4999.17,0.378099
5003.99,0.375908
5008.83,0.373993
5013.67,0.37216
5018.52,0.370746
5023.39,0.369069
5028.26,0.367708
5033.14,0.366618
5038.03,0.365344
5042.93,0.363654
5047.84,0.362065
5052.76,0.36073
5057.69,0.359309
5062.63,0.357829
5067.58,0.356903
5072.54,0.355618
5077.51,0.354558
5082.49,0.353584
5087.47,0.352586
5092.47,0.351533
5097.48,0.351073
5102.5,0.350245
5107.52,0.349183
5112.56,0.348703
5117.61,0.347492
5122.66,0.345361
5127.73,0.343836
5132.81,0.34265
5137.89,0.341635
5142.99,0.340565
5148.1,0.339032
5153.22,0.338236
5158.34,0.337543
5163.48,0.336324
5168.63,0.335322
5173.79,0.334697
5178.96,0.334036
5184.13,0.333031
5189.32,0.33244
5194.52,0.331801
5199.73,0.330765
5204.95,0.329294
5210.19,0.327841
5215.43,0.326407
5220.68,0.325037
5225.94,0.322805
5231.22,0.320704
5236.5,0.318378
5241.79,0.315421
5247.1,0.312266
5252.42,0.309371
5257.74,0.306089
5263.08,0.30267
5268.43,0.299832
5273.79,0.297269
5279.16,0.294829
5284.54,0.291966
5289.93,0.288855
5295.34,0.286689
5300.75,0.284862
5306.18,0.282602
5311.61,0.280382
5317.06,0.278615
5322.52,0.276991
5327.99,0.275287
5333.47,0.27342
5338.96,0.272135
5344.47,0.270758
5349.98,0.268899
5355.51,0.267854
5361.05,0.268012
5366.6,0.268426
5372.16,0.268999
5377.73,0.269707
5383.32,0.271132
5388.91,0.272613
5394.52,0.274205
5400.14,0.275954
5405.77,0.277847
5411.41,0.279055
5417.07,0.280165
5422.74,0.280826
5428.41,0.281528
5434.1,0.281892
5439.81,0.282125
5445.52,0.28212
5451.25,0.282017
5456.98,0.281787
5462.73,0.280871
5468.5,0.279933
5474.27,0.279716
5480.06,0.279385
5485.86,0.278909
5491.67,0.278595
5497.49,0.278795
5503.33,0.278511
5509.18,0.277994
5515.04,0.27796
5520.91,0.278257
5526.8,0.278531
5532.69,0.278821
5538.61,0.279049
5544.53,0.279137
5550.47,0.278813
5556.41,0.278736
5562.38,0.279289
5568.35,0.279934
5574.34,0.279855
5580.34,0.279695
5586.35,0.280228
5592.38,0.281044
5598.42,0.281718
5604.47,0.282182
5610.54,0.282682
5616.61,0.283427
5622.71,0.284266
5628.81,0.284918
5634.93,0.285626
5641.06,0.286084
5647.21,0.287001
5653.36,0.28825
5659.54,0.2888
5665.72,0.29029
5671.92,0.290644
5678.13,0.290765
5684.36,0.291278
5690.6,0.291387
5696.85,0.291026
5703.12,0.290964
5709.4,0.290168
5715.69,0.28998
5722.0,0.289551
5728.33,0.288793
5734.66,0.287705
5741.01,0.287015
5747.38,0.285816
5753.76,0.284884
5760.15,0.283287
5766.56,0.281509
5772.98,0.280322
5779.41,0.279327
5785.86,0.277464
5792.33,0.275436
5798.81,0.27315
5805.3,0.271613
5811.81,0.26985
5818.33,0.267274
5824.87,0.264382
5831.42,0.262352
5837.99,0.260256
5844.57,0.258112
5851.17,0.255571
5857.78,0.252717
5864.41,0.249267
5871.05,0.246614
5877.7,0.243442
5884.38,0.239756
5891.06,0.236019
5897.76,0.233176
5904.48,0.2297
5911.21,0.226162
5917.96,0.222344
5924.73,0.218113
5931.5,0.213376
5938.3,0.209275
5945.11,0.204714
5951.93,0.201033
5958.78,0.1967
5965.63,0.192415
5972.51,0.187737
5979.39,0.182938
5986.3,0.178102
5993.22,0.173651
6000.16,0.168896
6007.11,0.164715
6014.08,0.159736
6021.06,0.155037
6028.06,0.15086
6035.08,0.147241
6042.12,0.142994
6049.17,0.139246
6056.23,0.135402
6063.32,0.132547
6070.42,0.12951
6077.53,0.126253
6084.67,0.123842
6091.82,0.12231
6098.98,0.120296
6106.17,0.118478
6113.37,0.116623
6120.58,0.115394
6127.82,0.114823
6135.07,0.114278
6142.34,0.113988
6149.63,0.114576
6156.93,0.115283
6164.25,0.116273
6171.59,0.117905
6178.94,0.119718
6186.32,0.121644
6193.71,0.124877
6201.12,0.128284
6208.54,0.131664
6215.99,0.13538
6223.45,0.13932
6230.93,0.143883
6238.43,0.148887
6245.95,0.154022
6253.48,0.159005
6261.03,0.164267
6268.6,0.169153
6276.19,0.174076
6283.8,0.178848
6291.43,0.183803
6299.07,0.188588
6306.73,0.193615
6314.42,0.198359
6322.12,0.202708
6329.83,0.207173
6337.57,0.211878
6345.33,0.215596
6353.11,0.219883
6360.9,0.22379
6368.72,0.226898
6376.55,0.230258
6384.4,0.233651
6392.27,0.236126
6400.17,0.238554
6408.08,0.240134
6416.01,0.241322
6423.96,0.243997
6431.93,0.246326
6439.92,0.24741
6447.93,0.248535
6455.96,0.249663
6464.01,0.250754
6472.08,0.251153
6480.17,0.251396
6488.28,0.251298
6496.41,0.25069
6504.56,0.25092
6512.73,0.251289
6520.92,0.250281
6529.14,0.249303
6537.37,0.247992
6545.63,0.246738
6553.9,0.245978
6562.2,0.245895
6570.51,0.24558
6578.85,0.245078
6587.21,0.245444
6595.59,0.245347
6603.99,0.245545
6612.42,0.2457
6620.86,0.245684
6629.33,0.245104
6637.82,0.244218
6646.33,0.244226
6654.86,0.244242
6663.41,0.242933
6671.99,0.241948
6680.59,0.240818
6689.21,0.239152
6697.85,0.237763
6706.51,0.236586
6715.2,0.234707
6723.91,0.233459
6732.64,0.232606
6741.4,0.231739
6750.18,0.23045
6758.98,0.229357
6767.8,0.228041
6776.65,0.22639
6785.52,0.224649
6794.41,0.22279
6803.33,0.221018
6812.27,0.219214
6821.23,0.217147
6830.22,0.215621
6839.23,0.214115
6848.26,0.212339
6857.32,0.210312
6866.4,0.208174
6875.51,0.206579
6884.64,0.205751
6893.8,0.204638
6902.98,0.20305
6912.18,0.201313
6921.41,0.199657
6930.66,0.197627
6939.94,0.195668
6949.24,0.193584
6958.57,0.191304
6967.92,0.189023
6977.3,0.187659
6986.7,0.186052
6996.13,0.183956
7005.59,0.181794
7015.07,0.180219
7024.57,0.178937
7034.1,0.177825
7043.66,0.176291
7053.24,0.174796
7062.85,0.173467
7072.49,0.173027
7082.15,0.171481
7091.84,0.169829
7101.55,0.168972
7111.3,0.167975
7121.06,0.166553
7130.86,0.165082
7140.68,0.16293
7150.53,0.16071
7160.41,0.159223
7170.31,0.158055
7180.24,0.156202
7190.2,0.154748
7200.19,0.153049
7210.2,0.151297
7220.24,0.149167
7230.31,0.147244
7240.41,0.145021
7250.54,0.142545
7260.69,0.140109
7270.88,0.137936
7281.09,0.135908
7291.33,0.133848
7301.6,0.131813
7311.9,0.129823
7322.22,0.127407
7332.58,0.125394
7342.97,0.122985
7353.38,0.121061
7363.83,0.119364
7374.3,0.117633
7384.81,0.115464
7395.34,0.113631
7405.91,0.111897
7416.5,0.110129
7427.13,0.108439
7437.78,0.106845
7448.47,0.104841
7459.19,0.102876
7469.94,0.100603
7480.71,0.09886
7491.52,0.096706
7502.37,0.094555
7513.24,0.092631
7524.14,0.090853
7535.08,0.088365
7546.05,0.085948
7557.05,0.083571
7568.08,0.08126
7579.14,0.07894
7590.24,0.076797
7601.37,0.074427
7612.53,0.072467
7623.73,0.070306
7634.96,0.068361
7646.22,0.066176
7657.51,0.064508
7668.84,0.062519
7680.2,0.060331
7691.59,0.05839
7703.02,0.056756
7714.49,0.054522
7725.98,0.052653
7737.51,0.050683
7749.08,0.049295
7760.68,0.047554
7772.32,0.045782
7783.99,0.04405
7795.69,0.042799
7807.43,0.041148
7819.21,0.039802
7831.02,0.038301
7842.87,0.037447
7854.75,0.03661
7866.67,0.036019
7878.62,0.035293
7890.62,0.034844
7902.64,0.034308
7914.71,0.034236
7926.81,0.034331
7938.95,0.034368
7951.13,0.034078
7963.34,0.034437
7975.59,0.034697
7987.88,0.035213
8000.21,0.035479
8012.57,0.035569
8024.98,0.035491
8037.42,0.036304
8049.9,0.037006
8062.42,0.037573
8074.98,0.03826
8087.57,0.039347
8100.21,0.040509
8112.89,0.041818
8125.6,0.043477
8138.36,0.045494
8151.16,0.046975
8163.99,0.049124
8176.87,0.051005
8189.79,0.052841
8202.75,0.054316
8215.74,0.056583
8228.79,0.058762
8241.87,0.060431
8254.99,0.061789
8268.16,0.06318
8281.37,0.064138
8294.62,0.065262
8307.91,0.066264
8321.24,0.067241
8334.62,0.067639
8348.04,0.068166
8361.51,0.069004
8375.02,0.069864
8388.57,0.07021
8402.16,0.070313
8415.8,0.069985
8429.49,0.069717
8443.22,0.069239
8456.99,0.068601
8470.81,0.067622
8484.67,0.066908
8498.58,0.065866
8512.54,0.06469
8526.54,0.063504
8540.58,0.062776
8554.68,0.061497
8568.82,0.059991
8583.0,0.059074
8597.24,0.058671
8611.52,0.058269
8625.85,0.058859
8640.22,0.060268
8654.65,0.062242
8669.12,0.063756
8683.64,0.064811
8698.21,0.064881
8712.83,0.064557
8727.5,0.06396
8742.22,0.063336
8756.98,0.062659
8771.8,0.062362
8786.67,0.062107
8801.59,0.062269
8816.56,0.062008
8831.58,0.061343
8846.65,0.060876
8861.77,0.060401
8876.94,0.059888
8892.17,0.059872
8907.45,0.059427
8922.78,0.059055
8938.16,0.058571
8953.6,0.057458
8969.09,0.056279
8984.64,0.056257
9000.23,0.056022
9015.89,0.055797
9031.59,0.05582
9047.36,0.056312
9063.17,0.056586
9079.04,0.056691
9094.97,0.056461
9110.96,0.056727
9127.0,0.057368
9143.09,0.058354
9159.25,0.058139
9175.46,0.058592
9191.73,0.05966
9208.05,0.060404
9224.44,0.060746
9240.88,0.061744
9257.38,0.062398
9273.94,0.063495
9290.56,0.065487
9307.24,0.06681
9323.98,0.067396
9340.78,0.068683
9357.64,0.070057
9374.57,0.070132
9391.55,0.069907
9408.59,0.070263
9425.7,0.069668
9442.87,0.069668
9460.1,0.069633
9477.39,0.068902
9494.75,0.06782
9512.17,0.067134
9529.66,0.065767
9547.21,0.064912
9564.82,0.064079
9582.5,0.062736
9600.25,0.061286
9618.06,0.060557
9635.94,0.059584
9653.88,0.059042
9671.89,0.058354
9689.97,0.057159
9708.12,0.056098
9726.33,0.054916
9744.61,0.054204
9762.97,0.053871
9781.39,0.053526
9799.88,0.053178
9818.44,0.052198
9837.07,0.05152
9855.77,0.051267
9874.54,0.051179
9893.39,0.051141
9912.3,0.051058
9931.29,0.050742
9950.35,0.050752
9969.49,0.05067
9988.7,0.050679
10007.98,0.049842
10027.34,0.049547
10046.77,0.049781
10066.28,0.050351
10085.87,0.050158
10105.53,0.049791
10125.26,0.050017
10145.08,0.050275
10164.97,0.050287
10184.94,0.050263
10204.99,0.050131
10225.12,0.049992
10245.33,0.050442
10265.61,0.05135
10285.98,0.05189
10306.43,0.052257
10326.96,0.052394
10347.57,0.052991
10368.27,0.053114
10389.05,0.053398
10409.91,0.053598
10430.85,0.053163
10451.88,0.053063
10473.0,0.053227
10494.2,0.052664
10515.49,0.051675
10536.86,0.051061
10558.32,0.051077
10579.87,0.050517
10601.5,0.049904
10623.23,0.049527
10645.04,0.049357
10666.94,0.048048
10688.94,0.047046
10711.02,0.047159
10733.2,0.04783
10755.47,0.047898
10777.83,0.047983
10800.28,0.047915
10822.83,0.047555
10845.47,0.047229
10868.21,0.047406
10891.04,0.047396
10913.97,0.047762
10936.99,0.048503
10960.12,0.049604
10983.34,0.050182
11006.66,0.051807
11030.07,0.053451
11053.59,0.055022
11077.21,0.056593
11100.93,0.058657
11124.75,0.061012
11148.68,0.062357
11172.7,0.062978
11196.84,0.063854
11221.07,0.063921
11245.41,0.06343
11269.86,0.063299
11294.41,0.063164
11319.07,0.063256
11343.84,0.063953
11368.72,0.064623
11393.7,0.065006
11418.8,0.064386
11444.01,0.064492
11469.33,0.06557
11494.76,0.067335
11520.3,0.068604
11545.96,0.069786
11571.73,0.071325
11597.62,0.072824
11623.62,0.074026
11649.74,0.075546
11675.98,0.076651
11702.34,0.077964
11728.81,0.078615
11755.41,0.078671
11782.13,0.078017
11808.96,0.0774
11835.92,0.075839
11863.01,0.074347
11890.22,0.07296
11917.55,0.07207
11945.01,0.070774
11972.6,0.069034
12000.31,0.068243
12028.16,0.067864
12056.13,0.067637
12084.23,0.066605
12112.46,0.06429
12140.83,0.063468
12169.33,0.063472
12197.96,0.062141
12226.73,0.060786
12255.64,0.059312
12284.68,0.05707
12313.86,0.055203
12343.18,0.052922
12372.64,0.049879
12402.24,0.046796
12431.98,0.043579
12461.86,0.041069
12491.89,0.040378
12522.06,0.040686
12552.38,0.042577
12582.85,0.044818
12613.47,0.047454
12644.23,0.049519
12675.15,0.050649
12706.21,0.050249
12737.43,0.050165
12768.8,0.049402
12800.33,0.048186
12832.02,0.048066
12863.86,0.049123
12895.86,0.051876
12928.02,0.055725
12960.34,0.05822
12992.82,0.060652
13025.46,0.061935
13058.27,0.062107
13091.25,0.062089
13124.39,0.062616
13157.7,0.062808
13191.18,0.062854
13224.83,0.062385
13258.66,0.062041
13292.65,0.062001
13326.83,0.061971
13361.17,0.061246
13395.7,0.061062
13430.4,0.061362
13465.29,0.061319
13500.35,0.061283
13535.6,0.061601
13571.03,0.061572
13606.65,0.060883
13642.46,0.060494
13678.46,0.059692
13714.64,0.058023
13751.02,0.056373
13787.59,0.055709
13824.36,0.054854
13861.32,0.053169
13898.48,0.051745
13935.85,0.050464
13973.41,0.048836
14011.17,0.04635
14049.15,0.044459
14087.32,0.043946
14125.71,0.04271
14164.3,0.040132
14203.11,0.037987
14242.13,0.035409
14281.36,0.033115
14320.81,0.032143
14360.48,0.030591
14400.38,0.02986
14440.49,0.030929
14480.82,0.032522
14521.39,0.034009
14562.18,0.034066
14603.2,0.034163
14644.45,0.034142
14685.93,0.033728
14727.66,0.033437
14769.62,0.03404
14811.81,0.034492
14854.25,0.033849
14896.94,0.033316
14939.87,0.033402
14983.05,0.03322
15026.48,0.032538
15070.16,0.031732
15114.1,0.031108
15158.29,0.030376
15202.74,0.029536
15247.46,0.029145
15292.43,0.028467
15337.68,0.027392
15383.19,0.025995
15428.97,0.024987
15475.03,0.02499
15521.36,0.024621
15567.97,0.024288
15614.86,0.024032
15662.04,0.023265
15709.5,0.023412
15757.25,0.023403
15805.29,0.021776
15853.62,0.020978
15902.25,0.02085
15951.18,0.020211
16000.42,0.01968
16049.95,0.020297
16099.8,0.020947
16149.95,0.021483
16200.42,0.021846
16251.21,0.022802
16302.31,0.024294
16353.74,0.026357
16405.49,0.02702
16457.57,0.027173
16509.98,0.027883
16562.73,0.029967
16615.82,0.032166
16669.24,0.034215
16723.02,0.035699
16777.13,0.038233
16831.61,0.04091
16886.43,0.043574
16941.62,0.044915
16997.16,0.045853
17053.07,0.047561
17109.36,0.050322
17166.01,0.052864
17223.04,0.055122
17280.45,0.055367
17338.24,0.056736
17396.43,0.059094
17455.0,0.061318
17513.97,0.063042
17573.34,0.06468
17633.11,0.066779
17693.29,0.067958
17753.89,0.068758
17814.9,0.070204
17876.33,0.070695
17938.18,0.071802
18000.47,0.07306
18063.19,0.07353
18126.35,0.074549
18189.95,0.075929
18254.0,0.074951
18318.5,0.074369
18383.46,0.075188
18448.88,0.077145
18514.77,0.078764
18581.13,0.078572
18647.97,0.076819
18715.29,0.0748
18783.1,0.074208
18851.4,0.074495
18920.2,0.07323
18989.51,0.071589
19059.32,0.069449
19129.65,0.067667
19200.5,0.066615
19271.88,0.065777
19343.79,0.065052
19416.23,0.063918
19489.23,0.062089
19562.77,0.061909
19636.88,0.060554
19711.54,0.058716
19786.77,0.057339
19862.59,0.056881
19938.98,0.057112
20015.96,0.058222
20093.54,0.058792
20171.73,0.060015
20250.53,0.059719
20329.94,0.05936
20409.98,0.061214
20490.65,0.063995
20571.96,0.068386
20653.92,0.073123
20736.54,0.075122
20819.82,0.077109
20903.77,0.076922
20988.4,0.078608
21073.72,0.081334
21159.73,0.083125
21246.46,0.082945
21333.89,0.081209
21422.04,0.078023
21510.93,0.075979
21600.56,0.074438
21690.94,0.075083
21782.08,0.074535
21873.99,0.073053
21966.67,0.072669
22060.15,0.072322
22154.42,0.071621
22249.51,0.073189
22345.41,0.073852
22442.14,0.072131
22539.72,0.068123
22638.14,0.065207
22737.43,0.06451
22837.6,0.063767
22938.65,0.061919
23040.6,0.064832
23143.46,0.068051
23247.24,0.07098
23351.96,0.067259
23457.62,0.063714
23564.25,0.063864
23671.85,0.063823
23780.44,0.063843
23890.02,0.065587
24000.63,0.062998
24112.26,0.0672
24224.93,0.071308
24338.66,0.068048
24453.47,0.066421
24569.36,0.070895
24686.36,0.075479
24804.47,0.078706
24923.72,0.072117
25044.13,0.066988
25165.7,0.071299
25288.46,0.081387
25412.43,0.076907
25537.61,0.071702
25664.03,0.085506
25791.71,0.092249
25920.67,0.088346
