Database of Origin,University of Winnipeg Spectrophotometer Facility
Sample Description,See Master Clays in HOSERLab database
Date Added,2016-12-11 20:57:06.057546

Data ID,RLA_CLAY_10         
Sample ID,GLA103
Mineral Name,Glauconite
Grain Size,<45um
Viewing Geometry,"30/0,30"
Resolution,"5,0.6-129"
Material Class,Phyllosilicate

Wavelength
305.0,0.050806
310.0,0.051931
315.0,0.05184
320.0,0.053057
325.0,0.05449
330.0,0.055549
335.0,0.055899
340.0,0.057657
345.0,0.058984
350.0,0.060411
355.0,0.06242
360.0,0.063379
365.0,0.064597
370.0,0.066222
375.0,0.070043
380.0,0.075115
385.0,0.080127
390.0,0.085125
395.0,0.089289
400.0,0.092712
405.0,0.095387
410.0,0.100685
415.0,0.106023
420.0,0.111572
425.0,0.117263
430.0,0.122894
435.0,0.127489
440.0,0.132242
445.0,0.136496
450.0,0.142542
455.0,0.150518
460.0,0.157506
465.0,0.166722
470.0,0.175515
475.0,0.184564
480.0,0.193759
485.0,0.199622
490.0,0.205263
495.0,0.209704
500.0,0.212935
505.0,0.219373
510.0,0.222607
515.0,0.229898
520.0,0.238433
525.0,0.248746
530.0,0.258765
535.0,0.267246
540.0,0.276648
545.0,0.283682
550.0,0.289475
555.0,0.295855
560.0,0.297747
565.0,0.301885
570.0,0.298133
575.0,0.297089
580.0,0.294006
585.0,0.2902
590.0,0.287012
595.0,0.282063
600.0,0.278255
605.0,0.274186
610.0,0.270677
615.0,0.267691
620.0,0.264221
625.0,0.261869
630.0,0.259677
635.0,0.257093
640.0,0.255308
645.0,0.254366
650.0,0.252035
655.0,0.252413
660.0,0.250791
665.0,0.250408
670.0,0.249235
675.0,0.248476
680.0,0.247471
685.0,0.245721
690.0,0.244173
695.0,0.243026
700.0,0.241516
705.0,0.239918
710.0,0.237806
715.0,0.236428
720.0,0.235087
725.0,0.233995
730.0,0.233152
735.0,0.231451
740.0,0.231373
745.0,0.2297
750.0,0.229448
755.0,0.229759
760.0,0.228809
765.0,0.230596
770.0,0.229293
775.0,0.232521
780.0,0.23255
785.0,0.2324
790.0,0.234743
795.0,0.235181
800.0,0.236933
805.0,0.239654
810.0,0.239889
815.0,0.243386
820.0,0.244211
825.0,0.243091
830.0,0.243163
835.0,0.245488
840.0,0.245891
845.0,0.247047
850.0,0.247881
855.0,0.246256
860.0,0.247601
865.0,0.2475
870.0,0.24576
875.0,0.2453
880.0,0.244835
885.0,0.242831
890.0,0.243188
895.0,0.243315
900.0,0.241164
905.0,0.23982
910.0,0.238527
915.0,0.239172
920.0,0.237836
925.0,0.237889
930.0,0.238245
935.0,0.237264
940.0,0.237188
945.0,0.236076
950.0,0.236179
955.0,0.235989
960.0,0.235629
965.0,0.234963
970.0,0.234414
975.0,0.234407
980.0,0.236114
985.0,0.23552
990.0,0.234496
995.0,0.233644
1000.0,0.234972
1005.0,0.234147
1010.0,0.233616
1015.0,0.234114
1020.0,0.233958
1025.0,0.233656
1030.0,0.232609
1035.0,0.233168
1040.0,0.232803
1045.0,0.233262
1050.0,0.232866
1055.0,0.231618
1060.0,0.231392
1065.0,0.231108
1070.0,0.231633
1075.0,0.231228
1080.0,0.231085
1085.0,0.231576
1090.0,0.231819
1095.0,0.229287
1100.0,0.232867
1105.0,0.232365
1110.0,0.232749
1115.0,0.234238
1120.0,0.234506
1125.0,0.235058
1130.0,0.235921
1135.0,0.236981
1140.0,0.23808
1145.0,0.23885
1150.0,0.240233
1155.0,0.241324
1160.0,0.243037
1165.0,0.244308
1170.0,0.24582
1175.0,0.246973
1180.0,0.248078
1185.0,0.24962
1190.0,0.25245
1195.0,0.25275
1200.0,0.254991
1205.0,0.257967
1210.0,0.261681
1215.0,0.262549
1220.0,0.264759
1225.0,0.266383
1230.0,0.268539
1235.0,0.270659
1240.0,0.273157
1245.0,0.274756
1250.0,0.277255
1255.0,0.278837
1260.0,0.2818
1265.0,0.283124
1270.0,0.286522
1275.0,0.288133
1280.0,0.290123
1285.0,0.292862
1290.0,0.295392
1295.0,0.297232
1300.0,0.3001
1305.0,0.301686
1310.0,0.304392
1315.0,0.306556
1320.0,0.309487
1325.0,0.311972
1330.0,0.313683
1335.0,0.31689
1340.0,0.319466
1345.0,0.321442
1350.0,0.323533
1355.0,0.324887
1360.0,0.328122
1365.0,0.330855
1370.0,0.333209
1375.0,0.335755
1380.0,0.336104
1385.0,0.340607
1390.0,0.343004
1395.0,0.342511
1400.0,0.342357
1405.0,0.343614
1410.0,0.344139
1415.0,0.343441
1420.0,0.345848
1425.0,0.349216
1430.0,0.352725
1435.0,0.355056
1440.0,0.356514
1445.0,0.360842
1450.0,0.365077
1455.0,0.368703
1460.0,0.373833
1465.0,0.377158
1470.0,0.380302
1475.0,0.384982
1480.0,0.388364
1485.0,0.3913
1490.0,0.394658
1495.0,0.3975
1500.0,0.400123
1505.0,0.402825
1510.0,0.40489
1515.0,0.407814
1520.0,0.411683
1525.0,0.41351
1530.0,0.417273
1535.0,0.419836
1540.0,0.423844
1545.0,0.4253
1550.0,0.428805
1555.0,0.432679
1560.0,0.435195
1565.0,0.436581
1570.0,0.440122
1575.0,0.442631
1580.0,0.444997
1585.0,0.448744
1590.0,0.451806
1595.0,0.454265
1600.0,0.45638
1605.0,0.4599
1610.0,0.463146
1615.0,0.465821
1620.0,0.468477
1625.0,0.472298
1630.0,0.472424
1635.0,0.476098
1640.0,0.477594
1645.0,0.481262
1650.0,0.482476
1655.0,0.487863
1660.0,0.489336
1665.0,0.491367
1670.0,0.49397
1675.0,0.496197
1680.0,0.498412
1685.0,0.50234
1690.0,0.504227
1695.0,0.506376
1700.0,0.509919
1705.0,0.512273
1710.0,0.515472
1715.0,0.517227
1720.0,0.52029
1725.0,0.522521
1730.0,0.524727
1735.0,0.526851
1740.0,0.529619
1745.0,0.532126
1750.0,0.533636
1755.0,0.536684
1760.0,0.538146
1765.0,0.540763
1770.0,0.54263
1775.0,0.545135
1780.0,0.546498
1785.0,0.548666
1790.0,0.550736
1795.0,0.552449
1800.0,0.554685
1805.0,0.556836
1810.0,0.558237
1815.0,0.560536
1820.0,0.561472
1825.0,0.564434
1830.0,0.565962
1835.0,0.567059
1840.0,0.569935
1845.0,0.573155
1850.0,0.573919
1855.0,0.57496
1860.0,0.575531
1865.0,0.573521
1870.0,0.570577
1875.0,0.571524
1880.0,0.565941
1885.0,0.553676
1890.0,0.539414
1895.0,0.518969
1900.0,0.493396
1905.0,0.471853
1910.0,0.462892
1915.0,0.466172
1920.0,0.475244
1925.0,0.488069
1930.0,0.496441
1935.0,0.503874
1940.0,0.5094
1945.0,0.513895
1950.0,0.518511
1955.0,0.521949
1960.0,0.526354
1965.0,0.531459
1970.0,0.535776
1975.0,0.539959
1980.0,0.544717
1985.0,0.549819
1990.0,0.553473
1995.0,0.559377
2000.0,0.563039
2005.0,0.568013
2010.0,0.572975
2015.0,0.575675
2020.0,0.580166
2025.0,0.583657
2030.0,0.588812
2035.0,0.592017
2040.0,0.596011
2045.0,0.599431
2050.0,0.600641
2055.0,0.60338
2060.0,0.605358
2065.0,0.608263
2070.0,0.609837
2075.0,0.61141
2080.0,0.613875
2085.0,0.616519
2090.0,0.615524
2095.0,0.617427
2100.0,0.618333
2105.0,0.619327
2110.0,0.619693
2115.0,0.620874
2120.0,0.62152
2125.0,0.622664
2130.0,0.623049
2135.0,0.622996
2140.0,0.624692
2145.0,0.623887
2150.0,0.624487
2155.0,0.62484
2160.0,0.623654
2165.0,0.623794
2170.0,0.621685
2175.0,0.621448
2180.0,0.619662
2185.0,0.618397
2190.0,0.615446
2195.0,0.613386
2200.0,0.608325
2205.0,0.6045
2210.0,0.601365
2215.0,0.600952
2220.0,0.600893
2225.0,0.596813
2230.0,0.593232
2235.0,0.586819
2240.0,0.579671
2245.0,0.573096
2250.0,0.567342
2255.0,0.562282
2260.0,0.562492
2265.0,0.564613
2270.0,0.565177
2275.0,0.563963
2280.0,0.561779
2285.0,0.553819
2290.0,0.539638
2295.0,0.525244
2300.0,0.515895
2305.0,0.509749
2310.0,0.50759
2315.0,0.510241
2320.0,0.518626
2325.0,0.527635
2330.0,0.533848
2335.0,0.535323
2340.0,0.530135
2345.0,0.525034
2350.0,0.521826
2355.0,0.517839
2360.0,0.512753
2365.0,0.508797
2370.0,0.50566
2375.0,0.507604
2380.0,0.509651
2385.0,0.514204
2390.0,0.51691
2395.0,0.519411
2400.0,0.520139
2405.0,0.520187
2410.0,0.520323
2415.0,0.519322
2420.0,0.517542
2425.0,0.5142
2430.0,0.512188
2435.0,0.506326
2440.0,0.50324
2445.0,0.498133
2450.0,0.494581
2455.0,0.491827
2460.0,0.487735
2465.0,0.483618
2470.0,0.479973
2475.0,0.477087
2480.0,0.472589
2485.0,0.466476
2490.0,0.46511
2495.0,0.461354
2500.0,0.460052
2505.0,0.457386
2510.0,0.456351
2515.0,0.452681
2520.0,0.454794
2525.15,0.45189
2530.08,0.450663
2535.03,0.449828
2540.0,0.4495
2544.99,0.449159
2549.99,0.44849
2552.5,0.447686
2553.76,0.447657
2556.28,0.44782
2558.8,0.446026
2561.33,0.44362
2563.86,0.444943
2565.13,0.445076
2566.4,0.445659
2567.67,0.445488
2568.95,0.443168
2570.22,0.44128
2571.5,0.44292
2572.77,0.443413
2574.05,0.440279
2575.33,0.441425
2576.61,0.441699
2577.89,0.440127
2579.17,0.441552
2580.46,0.440959
2581.74,0.438073
2583.03,0.438205
2584.31,0.436213
2585.6,0.43673
2586.89,0.438034
2588.19,0.435802
2589.48,0.435549
2590.77,0.435999
2592.07,0.435268
2593.36,0.432779
2594.66,0.427993
2595.96,0.426877
2597.26,0.434481
2598.56,0.435633
2599.87,0.432676
2601.17,0.429961
2602.48,0.428138
2603.78,0.427003
2605.09,0.425385
2606.4,0.425122
2607.71,0.427315
2609.03,0.427975
2610.34,0.426335
2611.66,0.426063
2612.97,0.425214
2614.29,0.424261
2615.61,0.424068
2616.93,0.421203
2618.25,0.420858
2619.57,0.423379
2620.9,0.420318
2622.22,0.421143
2623.55,0.422888
2624.88,0.420542
2626.21,0.417755
2627.54,0.41596
2628.87,0.418302
2630.21,0.416571
2631.54,0.414123
2632.88,0.417511
2634.21,0.416311
2635.55,0.414472
2636.89,0.414378
2638.24,0.413173
2639.58,0.411526
2640.92,0.410451
2642.27,0.409188
2643.62,0.408708
2644.97,0.408201
2646.32,0.406161
2647.67,0.406006
2649.02,0.405917
2650.38,0.404183
2651.73,0.402214
2653.09,0.400367
2654.45,0.400687
2655.81,0.400031
2657.17,0.398645
2658.53,0.397773
2659.89,0.39538
2661.26,0.394089
2662.63,0.393612
2664.0,0.39171
2665.36,0.387254
2666.74,0.384577
2668.11,0.385284
2669.48,0.38468
2670.86,0.377503
2672.23,0.373832
2673.61,0.372881
2674.99,0.366481
2676.37,0.360064
2677.76,0.355993
2679.14,0.354235
2680.52,0.351089
2681.91,0.348547
2683.3,0.343353
2684.69,0.337586
2686.08,0.332257
2687.47,0.326628
2688.87,0.319919
2690.26,0.312526
2691.66,0.304301
2693.06,0.295077
2694.46,0.284432
2695.86,0.274146
2697.26,0.26454
2698.66,0.254812
2700.07,0.244946
2701.48,0.235653
2702.89,0.227013
2704.3,0.219677
2705.71,0.212793
2707.12,0.207851
2708.53,0.204724
2709.95,0.202954
2711.37,0.201822
2712.79,0.201238
2714.21,0.199572
2715.63,0.196172
2717.05,0.191336
2718.48,0.186167
2719.9,0.180645
2721.33,0.174425
2722.76,0.168655
2724.19,0.162606
2725.62,0.156048
2727.06,0.150914
2728.49,0.146469
2729.93,0.142117
2731.37,0.137894
2732.81,0.134228
2734.25,0.130718
2735.69,0.127577
2737.14,0.124834
2738.58,0.122175
2740.03,0.119409
2741.48,0.116998
2742.93,0.114773
2744.38,0.11285
2745.83,0.110745
2747.29,0.108409
2748.75,0.105314
2750.2,0.10272
2751.66,0.100397
2753.13,0.097867
2754.59,0.095453
2756.05,0.092631
2757.52,0.089794
2758.99,0.087677
2760.46,0.085673
2761.93,0.084052
2763.4,0.082669
2764.87,0.081536
2766.35,0.080591
2767.82,0.079388
2769.3,0.077805
2770.78,0.076095
2772.26,0.074239
2773.75,0.072915
2775.23,0.071859
2776.72,0.071517
2778.21,0.072445
2779.7,0.073605
2781.19,0.073889
2782.68,0.073798
2784.18,0.073701
2785.67,0.073052
2787.17,0.071853
2788.67,0.071031
2790.17,0.070275
2791.67,0.069065
2793.18,0.068339
2794.68,0.067762
2796.19,0.066907
2797.7,0.066026
2799.21,0.06528
2800.72,0.064528
2802.24,0.063413
2803.75,0.062564
2805.27,0.062038
2806.79,0.061748
2808.31,0.06146
2809.83,0.061603
2811.35,0.061965
2812.88,0.062744
2814.41,0.063847
2815.93,0.064499
2817.46,0.065124
2819.0,0.06582
2820.53,0.065984
2822.07,0.066394
2823.6,0.066994
2825.14,0.067638
2826.68,0.068508
2828.22,0.069586
2829.77,0.070531
2831.31,0.071798
2832.86,0.073285
2834.41,0.074703
2835.96,0.076579
2837.51,0.078861
2839.07,0.081086
2840.62,0.08358
2842.18,0.086528
2843.74,0.089269
2845.3,0.09207
2846.86,0.095109
2848.43,0.098169
2849.99,0.101342
2851.56,0.104994
2853.13,0.108693
2854.7,0.112046
2856.27,0.115871
2857.85,0.11991
2859.42,0.123666
2861.0,0.12739
2862.58,0.13101
2864.16,0.13463
2865.75,0.138005
2867.33,0.141457
2868.92,0.144687
2870.51,0.147651
2872.1,0.150439
2873.69,0.153003
2875.28,0.15519
2876.88,0.157186
2878.48,0.158962
2880.07,0.160938
2881.68,0.162924
2883.28,0.164206
2884.88,0.165162
2886.49,0.166015
2888.1,0.166971
2889.71,0.167969
2891.32,0.168939
2892.93,0.169971
2894.55,0.170819
2896.16,0.171537
2897.78,0.171869
2899.4,0.172212
2901.03,0.172714
2902.65,0.173221
2904.28,0.173931
2905.91,0.174506
2907.54,0.174872
2909.17,0.175087
2910.8,0.175247
2912.44,0.175658
2914.07,0.176143
2915.71,0.176541
2917.35,0.177028
2918.99,0.177306
2920.64,0.177666
2922.29,0.177922
2923.93,0.177958
2925.58,0.178013
2927.24,0.178361
2928.89,0.17875
2930.55,0.17902
2932.2,0.179255
2933.86,0.179318
2935.52,0.179606
2937.19,0.180156
2938.85,0.180522
2940.52,0.180532
2942.19,0.180751
2943.86,0.181231
2945.53,0.181477
2947.21,0.181842
2948.88,0.18222
2950.56,0.18253
2952.24,0.182549
2953.92,0.182839
2955.61,0.183255
2957.29,0.183765
2958.98,0.184179
2960.67,0.184494
2962.36,0.184634
2964.06,0.184876
2965.75,0.185164
2967.45,0.185319
2969.15,0.185719
2970.85,0.1862
2972.55,0.186628
2974.26,0.186816
2975.97,0.187404
2977.68,0.18795
2979.39,0.18807
2981.1,0.188214
2982.82,0.188643
2984.53,0.189038
2986.25,0.189335
2987.97,0.189756
2989.7,0.190027
2991.42,0.190405
2993.15,0.190918
2994.88,0.191226
2996.61,0.191447
2998.34,0.19173
3000.08,0.191905
3001.82,0.192149
3003.55,0.192471
3005.3,0.192838
3007.04,0.193091
3008.78,0.193287
3010.53,0.193642
3012.28,0.194087
3014.03,0.194292
3015.79,0.194435
3017.54,0.194801
3019.3,0.195168
3021.06,0.195404
3022.82,0.195643
3024.58,0.195864
3026.35,0.196261
3028.12,0.196597
3029.89,0.19702
3031.66,0.197268
3033.43,0.197457
3035.21,0.197798
3036.99,0.197907
3038.77,0.198308
3040.55,0.198667
3042.33,0.198874
3044.12,0.199425
3045.91,0.199772
3047.7,0.199978
3049.49,0.200336
3051.29,0.200813
3053.08,0.201388
3054.88,0.201901
3056.68,0.202228
3058.49,0.202577
3060.29,0.203004
3062.1,0.203417
3063.91,0.204016
3065.72,0.204531
3067.54,0.204976
3069.35,0.205687
3071.17,0.206132
3072.99,0.206269
3074.81,0.206568
3076.64,0.207143
3078.47,0.207661
3080.29,0.208144
3082.13,0.208753
3083.96,0.209446
3085.79,0.209875
3087.63,0.210251
3089.47,0.210874
3091.31,0.211409
3093.16,0.211823
3095.01,0.212384
3096.85,0.213355
3098.71,0.214159
3100.56,0.215002
3102.41,0.215407
3104.27,0.215888
3106.13,0.216545
3107.99,0.21745
3109.86,0.218452
3111.73,0.219349
3113.59,0.220238
3115.47,0.220657
3117.34,0.221178
3119.21,0.22204
3121.09,0.223045
3122.97,0.224002
3124.86,0.224636
3126.74,0.225294
3128.63,0.225983
3130.52,0.226683
3132.41,0.227427
3134.3,0.228188
3136.2,0.229161
3138.1,0.22999
3140.0,0.230618
3141.9,0.231233
3143.81,0.232105
3145.71,0.233109
3147.62,0.234058
3149.54,0.234698
3151.45,0.235516
3153.37,0.236465
3155.29,0.237212
3157.21,0.238052
3159.13,0.238945
3161.06,0.239617
3162.99,0.240455
3164.92,0.241401
3166.85,0.242274
3168.79,0.243228
3170.72,0.244219
3172.67,0.244997
3174.61,0.245984
3176.55,0.247022
3178.5,0.24772
3180.45,0.248405
3182.4,0.249099
3184.36,0.249976
3186.32,0.250871
3188.27,0.251558
3190.24,0.252303
3192.2,0.253161
3194.17,0.254104
3196.14,0.255029
3198.11,0.255809
3200.08,0.256452
3202.06,0.257232
3204.04,0.258124
3206.02,0.259074
3208.0,0.259901
3209.99,0.260741
3211.98,0.261496
3213.97,0.26228
3215.96,0.263057
3217.96,0.263853
3219.96,0.26448
3221.96,0.265288
3223.96,0.266281
3225.97,0.267033
3227.98,0.267606
3229.99,0.268315
3232.0,0.269246
3234.02,0.270141
3236.04,0.270808
3238.06,0.271496
3240.08,0.272449
3242.11,0.273242
3244.14,0.273836
3246.17,0.274439
3248.2,0.27528
3250.24,0.276216
3252.28,0.276918
3254.32,0.27754
3256.37,0.27846
3258.41,0.279315
3260.46,0.280026
3262.51,0.280636
3264.57,0.281356
3266.63,0.282226
3268.69,0.283027
3270.75,0.283748
3272.81,0.284524
3274.88,0.28523
3276.95,0.285879
3279.02,0.286603
3281.1,0.287431
3283.18,0.288102
3285.26,0.288663
3287.34,0.289333
3289.43,0.290281
3291.51,0.291157
3293.61,0.291818
3295.7,0.292548
3297.8,0.293146
3299.9,0.29387
3302.0,0.294683
3304.1,0.295395
3306.21,0.296086
3308.32,0.296847
3310.43,0.297512
3312.55,0.29816
3314.66,0.298711
3316.79,0.299248
3318.91,0.299737
3321.03,0.300306
3323.16,0.300962
3325.29,0.301433
3327.43,0.301812
3329.57,0.302198
3331.71,0.302433
3333.85,0.302527
3335.99,0.302596
3338.14,0.302701
3340.29,0.302657
3342.45,0.302451
3344.6,0.302217
3346.76,0.302058
3348.92,0.301574
3351.09,0.301115
3353.26,0.300476
3355.43,0.299701
3357.6,0.298856
3359.78,0.298063
3361.96,0.297111
3364.14,0.2959
3366.32,0.294667
3368.51,0.293582
3370.7,0.292625
3372.89,0.291815
3375.09,0.290985
3377.29,0.290279
3379.49,0.290064
3381.69,0.290131
3383.9,0.290311
3386.11,0.290725
3388.32,0.291107
3390.54,0.291599
3392.76,0.29185
3394.98,0.291586
3397.21,0.291038
3399.43,0.290077
3401.66,0.288834
3403.9,0.287524
3406.13,0.286213
3408.37,0.285116
3410.61,0.284288
3412.86,0.283758
3415.11,0.283722
3417.36,0.284641
3419.61,0.286282
3421.87,0.288379
3424.13,0.291148
3426.39,0.294248
3428.66,0.297273
3430.93,0.300247
3433.2,0.303069
3435.48,0.305728
3437.76,0.308021
3440.04,0.310053
3442.32,0.311915
3444.61,0.313905
3446.9,0.315669
3449.19,0.317141
3451.49,0.318733
3453.79,0.320323
3456.09,0.321663
3458.4,0.322959
3460.7,0.324222
3463.02,0.325391
3465.33,0.326147
3467.65,0.326634
3469.97,0.326863
3472.29,0.327039
3474.62,0.327143
3476.95,0.326914
3479.29,0.326762
3481.62,0.326782
3483.96,0.327032
3486.3,0.327539
3488.65,0.327832
3491.0,0.328089
3493.35,0.328407
3495.71,0.328428
3498.07,0.328604
3500.43,0.329006
3502.79,0.329836
3505.16,0.331465
3507.53,0.333697
3509.91,0.336444
3512.29,0.339277
3514.67,0.342038
3517.05,0.34482
3519.44,0.34747
3521.83,0.349971
3524.23,0.352356
3526.62,0.354532
3529.02,0.356625
3531.43,0.358744
3533.83,0.360693
3536.24,0.362366
3538.66,0.364129
3541.08,0.365717
3543.5,0.367169
3545.92,0.368519
3548.35,0.369768
3550.78,0.370946
3553.21,0.372201
3555.65,0.373425
3558.09,0.374688
3560.53,0.375735
3562.98,0.376727
3565.43,0.377657
3567.88,0.378652
3570.34,0.379647
3572.8,0.380611
3575.27,0.381459
3577.73,0.38238
3580.2,0.383301
3582.68,0.384025
3585.16,0.384758
3587.64,0.385637
3590.12,0.386419
3592.61,0.38707
3595.1,0.387833
3597.6,0.388596
3600.09,0.389311
3602.6,0.389997
3605.1,0.390567
3607.61,0.391259
3610.12,0.392011
3612.64,0.392692
3615.16,0.393253
3617.68,0.393919
3620.21,0.394576
3622.74,0.395194
3625.27,0.395803
3627.81,0.396532
3630.35,0.397217
3632.89,0.397896
3635.44,0.398341
3637.99,0.398973
3640.54,0.399705
3643.1,0.400437
3645.66,0.400968
3648.23,0.401473
3650.8,0.401931
3653.37,0.402496
3655.95,0.403258
3658.53,0.403999
3661.11,0.404572
3663.7,0.405072
3666.29,0.405642
3668.89,0.406369
3671.48,0.406948
3674.09,0.407498
3676.69,0.408106
3679.3,0.408902
3681.91,0.409685
3684.53,0.410294
3687.15,0.410847
3689.78,0.411439
3692.4,0.412042
3695.04,0.412792
3697.67,0.413514
3700.31,0.414319
3702.95,0.415065
3705.6,0.415789
3708.25,0.416435
3710.91,0.41707
3713.56,0.417717
3716.23,0.418477
3718.89,0.41925
3721.56,0.419914
3724.23,0.420614
3726.91,0.421405
3729.59,0.421938
3732.28,0.422544
3734.97,0.42323
3737.66,0.424077
3740.36,0.424798
3743.06,0.425455
3745.76,0.42607
3748.47,0.426846
3751.18,0.427596
3753.9,0.428257
3756.62,0.428947
3759.34,0.429688
3762.07,0.430394
3764.8,0.431118
3767.54,0.431603
3770.28,0.432276
3773.02,0.432889
3775.77,0.433504
3778.52,0.434181
3781.28,0.43488
3784.04,0.435521
3786.8,0.436216
3789.57,0.436867
3792.34,0.437485
3795.12,0.437901
3797.9,0.438483
3800.69,0.43908
3803.47,0.439666
3806.27,0.440295
3809.06,0.440908
3811.86,0.441475
3814.67,0.441994
3817.48,0.442446
3820.29,0.443109
3823.11,0.443788
3825.93,0.44432
3828.76,0.444695
3831.59,0.445104
3834.42,0.4456
3837.26,0.446261
3840.1,0.446708
3842.95,0.447231
3845.8,0.447782
3848.65,0.448229
3851.51,0.448626
3854.38,0.44909
3857.24,0.449583
3860.12,0.45007
3862.99,0.45055
3865.87,0.45114
3868.76,0.451612
3871.65,0.452093
3874.54,0.452514
3877.44,0.452887
3880.34,0.453308
3883.25,0.453808
3886.16,0.454234
3889.07,0.454595
3891.99,0.454933
3894.92,0.455404
3897.85,0.455823
3900.78,0.456358
3903.72,0.456776
3906.66,0.45716
3909.6,0.457545
3912.55,0.457829
3915.51,0.45806
3918.47,0.458432
3921.43,0.45877
3924.4,0.459164
3927.38,0.4596
3930.35,0.459933
3933.33,0.460142
3936.32,0.460392
3939.31,0.460652
3942.31,0.461049
3945.31,0.461307
3948.31,0.461635
3951.32,0.461981
3954.34,0.462218
3957.35,0.462377
3960.38,0.462534
3963.41,0.462714
3966.44,0.463104
3969.48,0.463298
3972.52,0.46361
3975.56,0.463959
3978.61,0.464159
3981.67,0.464427
3984.73,0.464749
3987.8,0.464959
3990.87,0.465154
3993.94,0.465303
3997.02,0.465513
4000.1,0.465804
4003.19,0.466137
4006.29,0.46638
4009.39,0.466678
4012.49,0.466931
4015.6,0.467269
4018.71,0.467371
4021.83,0.467423
4024.95,0.46758
4028.08,0.467818
4031.21,0.468015
4034.35,0.468179
4037.49,0.468424
4040.64,0.46865
4043.79,0.468665
4046.94,0.468772
4050.11,0.469026
4053.27,0.46931
4056.44,0.469229
4059.62,0.469208
4062.8,0.469372
4065.99,0.469634
4069.18,0.469758
4072.38,0.46991
4075.58,0.469971
4078.78,0.470149
4082.0,0.470286
4085.21,0.470345
4088.43,0.470315
4091.66,0.4704
4094.89,0.470371
4098.13,0.470459
4101.37,0.470647
4104.62,0.470847
4107.87,0.470869
4111.13,0.470815
4114.39,0.47074
4117.66,0.470789
4120.93,0.470877
4124.21,0.470924
4127.5,0.471033
4130.79,0.471223
4134.08,0.471251
4137.38,0.471215
4140.68,0.471208
4143.99,0.471328
4147.31,0.471442
4150.63,0.471564
4153.95,0.471551
4157.29,0.471569
4160.62,0.47161
4163.96,0.471704
4167.31,0.471831
4170.66,0.471864
4174.02,0.471772
4177.39,0.471812
4180.75,0.471846
4184.13,0.471831
4187.51,0.47184
4190.89,0.47201
4194.28,0.472173
4197.68,0.472092
4201.08,0.471942
4204.49,0.471989
4207.9,0.471862
4211.32,0.471741
4214.74,0.471722
4218.17,0.471716
4221.61,0.471685
4225.05,0.471784
4228.5,0.472035
4231.95,0.472194
4235.4,0.472287
4238.87,0.472379
4242.34,0.472383
4245.81,0.472522
4249.29,0.472586
4252.78,0.472525
4256.27,0.472385
4259.77,0.471848
4263.27,0.470738
4266.78,0.470394
4270.29,0.470442
4273.81,0.470746
4277.34,0.471026
4280.87,0.471191
4284.41,0.471301
4287.95,0.471494
4291.5,0.471487
4295.06,0.471633
4298.62,0.471684
4302.19,0.471658
4305.76,0.47152
4309.34,0.47156
4312.92,0.47151
4316.52,0.47151
4320.11,0.471384
4323.72,0.47132
4327.32,0.471188
4330.94,0.471056
4334.56,0.470935
4338.19,0.470922
4341.82,0.470773
4345.46,0.470596
4349.11,0.4703
4352.76,0.470153
4356.42,0.470004
4360.08,0.469928
4363.75,0.469834
4367.43,0.469714
4371.11,0.469359
4374.8,0.469175
4378.49,0.468917
4382.19,0.468604
4385.9,0.468298
4389.61,0.468095
4393.33,0.467778
4397.06,0.467528
4400.79,0.467254
4404.53,0.467001
4408.28,0.466773
4412.03,0.466522
4415.79,0.466029
4419.55,0.465604
4423.32,0.465337
4427.1,0.465103
4430.88,0.46473
4434.68,0.464452
4438.47,0.464145
4442.28,0.463822
4446.08,0.463381
4449.9,0.463034
4453.72,0.462628
4457.55,0.462162
4461.39,0.461665
4465.23,0.461239
4469.08,0.460809
4472.94,0.460605
4476.8,0.460269
4480.67,0.459966
4484.55,0.459621
4488.43,0.459379
4492.32,0.459119
4496.21,0.45886
4500.12,0.458531
4504.03,0.458223
4507.94,0.457986
4511.87,0.457727
4515.8,0.45747
4519.73,0.457305
4523.68,0.457114
4527.63,0.457059
4531.59,0.45675
4535.55,0.456418
4539.52,0.456175
4543.5,0.455947
4547.49,0.455552
4551.48,0.455086
4555.48,0.454693
4559.49,0.45454
4563.5,0.45422
4567.52,0.453784
4571.55,0.453249
4575.58,0.452845
4579.63,0.452435
4583.67,0.451989
4587.73,0.451564
4591.79,0.451116
4595.86,0.450643
4599.94,0.45023
4604.03,0.449817
4608.12,0.44947
4612.22,0.448911
4616.33,0.448353
4620.44,0.447698
4624.56,0.447195
4628.69,0.446643
4632.83,0.446015
4636.97,0.445324
4641.12,0.444783
4645.28,0.444224
4649.45,0.443542
4653.62,0.44293
4657.8,0.442388
4661.99,0.441723
4666.19,0.441133
4670.39,0.44041
4674.6,0.439688
4678.82,0.438987
4683.05,0.43838
4687.28,0.437784
4691.52,0.437171
4695.77,0.436639
4700.03,0.436237
4704.3,0.435712
4708.57,0.435156
4712.85,0.434482
4717.14,0.433869
4721.43,0.433277
4725.74,0.432686
4730.05,0.431891
4734.37,0.431183
4738.7,0.430407
4743.03,0.429608
4747.38,0.428761
4751.73,0.428037
4756.09,0.427302
4760.45,0.426408
4764.83,0.425419
4769.21,0.424491
4773.6,0.423555
4778.0,0.422667
4782.41,0.421807
4786.83,0.420991
4791.25,0.420035
4795.68,0.419157
4800.13,0.418255
4804.57,0.417366
4809.03,0.416472
4813.5,0.415642
4817.97,0.414854
4822.45,0.414116
4826.94,0.413165
4831.44,0.412358
4835.95,0.411591
4840.46,0.41079
4844.99,0.409811
4849.52,0.409007
4854.06,0.408115
4858.61,0.407342
4863.17,0.406508
4867.73,0.405498
4872.31,0.404405
4876.89,0.403466
4881.48,0.402377
4886.08,0.401182
4890.69,0.399908
4895.31,0.398617
4899.94,0.397165
4904.57,0.395678
4909.22,0.394069
4913.87,0.392286
4918.53,0.390434
4923.21,0.388845
4927.88,0.3873
4932.57,0.385855
4937.27,0.384489
4941.98,0.383217
4946.69,0.381931
4951.42,0.380744
4956.15,0.379352
4960.9,0.377979
4965.65,0.376493
4970.41,0.374943
4975.18,0.373198
4979.96,0.371327
4984.75,0.369497
4989.54,0.36781
4994.35,0.366224
4999.17,0.364789
5003.99,0.363375
5008.83,0.362179
5013.67,0.361153
5018.52,0.359996
5023.39,0.358819
5028.26,0.358197
5033.14,0.357433
5038.03,0.356695
5042.93,0.355851
5047.84,0.354972
5052.76,0.354087
5057.69,0.353266
5062.63,0.352387
5067.58,0.351516
5072.54,0.350623
5077.51,0.349904
5082.49,0.349149
5087.47,0.348537
5092.47,0.348063
5097.48,0.347588
5102.5,0.347079
5107.52,0.346526
5112.56,0.345788
5117.61,0.34499
5122.66,0.344225
5127.73,0.343476
5132.81,0.342609
5137.89,0.341758
5142.99,0.340847
5148.1,0.33991
5153.22,0.33921
5158.34,0.338813
5163.48,0.337953
5168.63,0.337155
5173.79,0.336257
5178.96,0.3355
5184.13,0.334624
5189.32,0.333628
5194.52,0.332604
5199.73,0.331495
5204.96,0.330322
5210.19,0.329043
5215.43,0.327102
5220.68,0.325818
5225.94,0.324209
5231.22,0.321895
5236.5,0.319382
5241.79,0.316916
5247.1,0.314433
5252.42,0.31189
5257.74,0.309224
5263.08,0.306485
5268.43,0.303863
5273.79,0.301394
5279.16,0.298769
5284.54,0.296328
5289.93,0.293874
5295.34,0.291492
5300.75,0.289584
5306.18,0.287651
5311.61,0.285737
5317.06,0.283992
5322.52,0.282191
5327.99,0.280639
5333.47,0.279257
5338.96,0.27791
5344.47,0.276426
5349.98,0.27499
5355.51,0.274107
5361.05,0.273822
5366.6,0.273297
5372.16,0.27299
5377.73,0.272892
5383.32,0.273271
5388.91,0.273778
5394.52,0.27443
5400.14,0.275072
5405.77,0.275951
5411.41,0.276593
5417.07,0.277147
5422.74,0.27718
5428.41,0.277879
5434.1,0.278735
5439.81,0.278544
5445.52,0.278338
5451.25,0.278125
5456.98,0.277733
5462.73,0.276972
5468.5,0.276168
5474.27,0.275989
5480.06,0.275142
5485.86,0.274502
5491.67,0.273998
5497.49,0.273032
5503.33,0.272138
5509.18,0.271266
5515.04,0.270336
5520.91,0.269324
5526.8,0.26845
5532.69,0.267645
5538.61,0.266773
5544.53,0.265793
5550.47,0.264823
5556.41,0.263925
5562.38,0.263351
5568.35,0.262707
5574.34,0.261818
5580.34,0.260627
5586.35,0.26015
5592.38,0.26012
5598.42,0.259534
5604.47,0.258867
5610.54,0.258676
5616.61,0.258262
5622.71,0.257829
5628.81,0.257678
5634.93,0.257219
5641.06,0.256481
5647.21,0.256113
5653.36,0.256762
5659.54,0.256374
5665.72,0.256322
5671.92,0.255872
5678.13,0.255185
5684.36,0.255051
5690.6,0.254524
5696.85,0.253609
5703.12,0.253383
5709.4,0.252119
5715.69,0.251049
5722.0,0.250609
5728.33,0.249845
5734.66,0.248857
5741.01,0.247745
5747.38,0.24648
5753.76,0.245216
5760.15,0.244087
5766.56,0.241909
5772.98,0.240585
5779.41,0.239976
5785.86,0.238173
5792.33,0.236573
5798.81,0.234804
5805.3,0.233027
5811.81,0.231212
5818.33,0.229057
5824.87,0.226638
5831.42,0.225229
5837.99,0.22351
5844.57,0.221579
5851.17,0.219373
5857.78,0.217011
5864.41,0.21425
5871.05,0.21175
5877.7,0.209
5884.38,0.205628
5891.06,0.20353
5897.76,0.200809
5904.48,0.198061
5911.21,0.19565
5917.96,0.192745
5924.73,0.190001
5931.5,0.187176
5938.3,0.184119
5945.11,0.181818
5951.93,0.180003
5958.78,0.177509
5965.63,0.175182
5972.51,0.172546
5979.39,0.17059
5986.3,0.168264
5993.22,0.165883
6000.16,0.163901
6007.11,0.161906
6014.08,0.159382
6021.06,0.156972
6028.06,0.1548
6035.08,0.152518
6042.12,0.149972
6049.17,0.147101
6056.23,0.144563
6063.32,0.142776
6070.42,0.140097
6077.53,0.13734
6084.67,0.134965
6091.82,0.132797
6098.98,0.130619
6106.17,0.128536
6113.37,0.126437
6120.58,0.124776
6127.82,0.123682
6135.07,0.122578
6142.34,0.121497
6149.63,0.120834
6156.93,0.12074
6164.25,0.120926
6171.59,0.12199
6178.95,0.123178
6186.32,0.124346
6193.71,0.126486
6201.12,0.128968
6208.54,0.130791
6215.99,0.133023
6223.45,0.135434
6230.93,0.138332
6238.43,0.141244
6245.95,0.144259
6253.48,0.147173
6261.03,0.150057
6268.6,0.152673
6276.19,0.155465
6283.8,0.15798
6291.43,0.160523
6299.07,0.162925
6306.73,0.165321
6314.42,0.167458
6322.12,0.169733
6329.84,0.171964
6337.57,0.174167
6345.33,0.175798
6353.11,0.17846
6360.9,0.18109
6368.72,0.182559
6376.55,0.184189
6384.4,0.186536
6392.27,0.188059
6400.17,0.189753
6408.08,0.190802
6416.01,0.191182
6423.96,0.193551
6431.93,0.195518
6439.92,0.196279
6447.93,0.197766
6455.96,0.198598
6464.01,0.199657
6472.08,0.20029
6480.17,0.200851
6488.28,0.201339
6496.41,0.201814
6504.56,0.203487
6512.73,0.204941
6520.92,0.2048
6529.14,0.205413
6537.37,0.206441
6545.63,0.20681
6553.9,0.207175
6562.2,0.207999
6570.51,0.208619
6578.85,0.209139
6587.21,0.210581
6595.59,0.211107
6603.99,0.211777
6612.42,0.21248
6620.86,0.212826
6629.33,0.21293
6637.82,0.21243
6646.33,0.213098
6654.86,0.214142
6663.41,0.2139
6671.99,0.213217
6680.59,0.212543
6689.21,0.212101
6697.85,0.211837
6706.51,0.210887
6715.2,0.209668
6723.91,0.208737
6732.64,0.207687
6741.4,0.206466
6750.18,0.204827
6758.98,0.202856
6767.8,0.200821
6776.65,0.198377
6785.52,0.195551
6794.41,0.192409
6803.33,0.189189
6812.27,0.186285
6821.23,0.183677
6830.22,0.181403
6839.23,0.179425
6848.26,0.17738
6857.32,0.175156
6866.4,0.172949
6875.51,0.171305
6884.64,0.170026
6893.8,0.168576
6902.98,0.167207
6912.18,0.165721
6921.41,0.164232
6930.66,0.162528
6939.94,0.160632
6949.24,0.15866
6958.57,0.156634
6967.92,0.154457
6977.3,0.1526
6986.7,0.150863
6996.13,0.149229
7005.59,0.147698
7015.07,0.146501
7024.57,0.145524
7034.1,0.144852
7043.66,0.144367
7053.25,0.144033
7062.85,0.144109
7072.49,0.144209
7082.15,0.144268
7091.84,0.144351
7101.55,0.144599
7111.3,0.144877
7121.06,0.145129
7130.86,0.145542
7140.68,0.145809
7150.53,0.145883
7160.41,0.145849
7170.31,0.145642
7180.24,0.145397
7190.2,0.145192
7200.19,0.144694
7210.2,0.143986
7220.24,0.143215
7230.31,0.142591
7240.41,0.141859
7250.54,0.141086
7260.69,0.140264
7270.88,0.139478
7281.09,0.138735
7291.33,0.13816
7301.6,0.137561
7311.9,0.136859
7322.22,0.135991
7332.58,0.135197
7342.97,0.134311
7353.38,0.133534
7363.83,0.132712
7374.3,0.13178
7384.81,0.130737
7395.34,0.129804
7405.91,0.128933
7416.5,0.128016
7427.13,0.127086
7437.78,0.126154
7448.47,0.125293
7459.19,0.124486
7469.94,0.123468
7480.71,0.122403
7491.52,0.121424
7502.37,0.120364
7513.24,0.119174
7524.14,0.11792
7535.08,0.116416
7546.05,0.114873
7557.05,0.113381
7568.08,0.111914
7579.15,0.110466
7590.24,0.109204
7601.37,0.107871
7612.53,0.106569
7623.73,0.105234
7634.96,0.104056
7646.22,0.103071
7657.51,0.102161
7668.84,0.101169
7680.2,0.100091
7691.59,0.098885
7703.02,0.097553
7714.49,0.096165
7725.98,0.094736
7737.52,0.093246
7749.08,0.09176
7760.68,0.090149
7772.32,0.088528
7783.99,0.086764
7795.69,0.08499
7807.43,0.083122
7819.21,0.081217
7831.02,0.07935
7842.87,0.077618
7854.75,0.075919
7866.67,0.074227
7878.62,0.07247
7890.62,0.070841
7902.64,0.069185
7914.71,0.067551
7926.81,0.066025
7938.95,0.064561
7951.13,0.062885
7963.34,0.061284
7975.59,0.059662
7987.88,0.057933
8000.21,0.056131
8012.57,0.054442
8024.98,0.052667
8037.42,0.050908
8049.9,0.049104
8062.42,0.047443
8074.98,0.045818
8087.57,0.044331
8100.21,0.042866
8112.89,0.041476
8125.6,0.040108
8138.36,0.038939
8151.16,0.037699
8163.99,0.036537
8176.87,0.035395
8189.79,0.034404
8202.75,0.033316
8215.75,0.032314
8228.79,0.031415
8241.87,0.030653
8254.99,0.029905
8268.16,0.029223
8281.37,0.028581
8294.62,0.028186
8307.91,0.027861
8321.24,0.027564
8334.62,0.027306
8348.04,0.027156
8361.51,0.02702
8375.02,0.027104
8388.57,0.027147
8402.16,0.027389
8415.8,0.027702
8429.49,0.027994
8443.22,0.028298
8456.99,0.028793
8470.81,0.029252
8484.67,0.029873
8498.58,0.030537
8512.54,0.031279
8526.54,0.032075
8540.58,0.03287
8554.68,0.033669
8568.82,0.03457
8583.0,0.035373
8597.24,0.036265
8611.52,0.037304
8625.85,0.038514
8640.23,0.04022
8654.65,0.042481
8669.12,0.044781
8683.64,0.047115
8698.21,0.049179
8712.83,0.051123
8727.5,0.052874
8742.22,0.05449
8756.99,0.055754
8771.8,0.05708
8786.67,0.058299
8801.59,0.05933
8816.56,0.060309
8831.58,0.061131
8846.65,0.061879
8861.77,0.062498
8876.94,0.062763
8892.17,0.063084
8907.45,0.06334
8922.78,0.063582
8938.16,0.063718
8953.6,0.063745
8969.09,0.063834
8984.64,0.064016
9000.23,0.064155
9015.89,0.064388
9031.59,0.064642
9047.36,0.064796
9063.17,0.065014
9079.05,0.065307
9094.97,0.06538
9110.96,0.065411
9127.0,0.06553
9143.1,0.065745
9159.25,0.065645
9175.46,0.065452
9191.73,0.065372
9208.06,0.065201
9224.44,0.064917
9240.88,0.06483
9257.38,0.064792
9273.94,0.064639
9290.56,0.064639
9307.24,0.064956
9323.98,0.065234
9340.78,0.065398
9357.64,0.065565
9374.57,0.065908
9391.55,0.066165
9408.59,0.066349
9425.7,0.066395
9442.87,0.06641
9460.1,0.066301
9477.4,0.065943
9494.75,0.06532
9512.17,0.064741
9529.66,0.064125
9547.21,0.063403
9564.83,0.062644
9582.5,0.061907
9600.25,0.061106
9618.06,0.060373
9635.94,0.059665
9653.88,0.059085
9671.89,0.05833
9689.97,0.057659
9708.12,0.056999
9726.33,0.056338
9744.62,0.055701
9762.97,0.055234
9781.39,0.054688
9799.88,0.054216
9818.44,0.053947
9837.07,0.053656
9855.77,0.053218
9874.54,0.052795
9893.39,0.052482
9912.3,0.052309
9931.29,0.052119
9950.36,0.05185
9969.49,0.05142
9988.7,0.051052
10007.98,0.050783
10027.34,0.050521
10046.77,0.050228
10066.28,0.050053
10085.87,0.049803
10105.53,0.049464
10125.26,0.049106
10145.08,0.048877
10164.97,0.048632
10184.94,0.048424
10204.99,0.048157
10225.12,0.047848
10245.33,0.047692
10265.61,0.047569
10285.98,0.047257
10306.43,0.047032
10326.96,0.046854
10347.57,0.046695
10368.27,0.046642
10389.05,0.046525
10409.91,0.046387
10430.86,0.046362
10451.88,0.046324
10473.0,0.046399
10494.2,0.046565
10515.49,0.046844
10536.86,0.047082
10558.32,0.047443
10579.87,0.047605
10601.5,0.047809
10623.23,0.048234
10645.04,0.048892
10666.94,0.049388
10688.94,0.049826
10711.02,0.050409
10733.2,0.051085
10755.47,0.051745
10777.83,0.052359
10800.28,0.05283
10822.83,0.053282
10845.47,0.053657
10868.21,0.054002
10891.04,0.054348
10913.97,0.054802
10936.99,0.055304
10960.12,0.055537
10983.34,0.055786
11006.66,0.05618
11030.07,0.056741
11053.59,0.057604
11077.21,0.058295
11100.93,0.059035
11124.75,0.059792
11148.68,0.060641
11172.71,0.061253
11196.84,0.061787
11221.07,0.062046
11245.41,0.062088
11269.86,0.062082
11294.41,0.062008
11319.07,0.061806
11343.84,0.061525
11368.72,0.061153
11393.7,0.060727
11418.8,0.060145
11444.01,0.059802
11469.33,0.059451
11494.76,0.059139
11520.3,0.058879
11545.96,0.058748
11571.73,0.058769
11597.62,0.058769
11623.62,0.059024
11649.74,0.059393
11675.98,0.059814
11702.34,0.060093
11728.81,0.060133
11755.41,0.060051
11782.13,0.059659
11808.96,0.059013
11835.92,0.058165
11863.01,0.057275
11890.22,0.056211
11917.55,0.055138
11945.01,0.054213
11972.6,0.053507
12000.31,0.052798
12028.16,0.052331
12056.13,0.052004
12084.23,0.051594
12112.46,0.05118
12140.83,0.05092
12169.33,0.050589
12197.96,0.050238
12226.73,0.049881
12255.64,0.04949
12284.68,0.049062
12313.86,0.048866
12343.18,0.04859
12372.64,0.048287
12402.24,0.048018
12431.98,0.047725
12461.86,0.047272
12491.89,0.046975
12522.07,0.046914
12552.38,0.047198
12582.85,0.047709
12613.47,0.048617
12644.23,0.04965
12675.15,0.050573
12706.21,0.051282
12737.43,0.052102
12768.81,0.052466
12800.33,0.052694
12832.02,0.053144
12863.86,0.053731
12895.86,0.054444
12928.02,0.055478
12960.34,0.056674
12992.82,0.057747
13025.46,0.058351
13058.27,0.05869
13091.25,0.0588
13124.39,0.059055
13157.7,0.05937
13191.18,0.059599
13224.83,0.059769
13258.66,0.060058
13292.65,0.060365
13326.83,0.060786
13361.17,0.061237
13395.7,0.061646
13430.4,0.062068
13465.29,0.062365
13500.35,0.06233
13535.6,0.06234
13571.03,0.062214
13606.65,0.061932
13642.46,0.061649
13678.46,0.06129
13714.64,0.060528
13751.02,0.059835
13787.59,0.059268
13824.36,0.058466
13861.32,0.057438
13898.49,0.056454
13935.85,0.055313
13973.41,0.054002
14011.17,0.052589
14049.15,0.051078
14087.32,0.049195
14125.71,0.047216
14164.3,0.045392
14203.11,0.04367
14242.13,0.04182
14281.36,0.03999
14320.81,0.038137
14360.49,0.036324
14400.38,0.03495
14440.49,0.034326
14480.82,0.03372
14521.39,0.033239
14562.18,0.032912
14603.2,0.032813
14644.45,0.032623
14685.93,0.032534
14727.66,0.032659
14769.62,0.032769
14811.81,0.032954
14854.25,0.033044
14896.94,0.033152
14939.87,0.03342
14983.05,0.033617
15026.48,0.033594
15070.16,0.033722
15114.1,0.033949
15158.29,0.034025
15202.74,0.03404
15247.46,0.033972
15292.43,0.033902
15337.68,0.033715
15383.19,0.033585
15428.97,0.033379
15475.03,0.033104
15521.36,0.032737
15567.97,0.032474
15614.87,0.032251
15662.04,0.031757
15709.5,0.031076
15757.25,0.030658
15805.29,0.030255
15853.62,0.029718
15902.26,0.029108
15951.19,0.028529
16000.42,0.027974
16049.95,0.027401
16099.8,0.026678
16149.95,0.026165
16200.42,0.025662
16251.21,0.025375
16302.31,0.024888
16353.74,0.024352
16405.49,0.024124
16457.57,0.023901
16509.98,0.023599
16562.73,0.023354
16615.82,0.023441
16669.24,0.023793
16723.02,0.023984
16777.14,0.02422
16831.61,0.024599
16886.43,0.024894
16941.62,0.02535
16997.16,0.026218
17053.08,0.027522
17109.36,0.028808
17166.01,0.030157
17223.04,0.031616
17280.45,0.033152
17338.24,0.034937
17396.43,0.036658
17455.0,0.038193
17513.97,0.039871
17573.34,0.04206
17633.11,0.043865
17693.29,0.045678
17753.89,0.047831
17814.9,0.049841
17876.33,0.051491
17938.18,0.053528
18000.47,0.055565
18063.19,0.057626
18126.35,0.059621
18189.95,0.061545
18254.0,0.063237
18318.5,0.064729
18383.46,0.066108
18448.88,0.067549
18514.77,0.069086
18581.13,0.070424
18647.97,0.070677
18715.29,0.070788
18783.1,0.071363
18851.4,0.071623
18920.2,0.071494
18989.51,0.071284
19059.32,0.071029
19129.65,0.070647
19200.5,0.070723
19271.88,0.070769
19343.79,0.070291
19416.24,0.070067
19489.23,0.069438
19562.77,0.068737
19636.88,0.068787
19711.54,0.068826
19786.78,0.068741
19862.59,0.068919
19938.98,0.068819
20015.96,0.068752
20093.55,0.068589
20171.73,0.068211
20250.53,0.067705
20329.94,0.067507
20409.98,0.066688
20490.65,0.065575
20571.96,0.06498
20653.92,0.064393
20736.54,0.063532
20819.82,0.063632
20903.77,0.063907
20988.4,0.065111
21073.72,0.066495
21159.73,0.067354
21246.46,0.068567
21333.89,0.06969
21422.04,0.070301
21510.93,0.070837
21600.56,0.071671
21690.94,0.071672
21782.08,0.070747
21873.99,0.070747
21966.67,0.070622
22060.15,0.069841
22154.42,0.069154
22249.51,0.068304
22345.41,0.067621
22442.14,0.067995
22539.72,0.067643
22638.14,0.06758
22737.43,0.068132
22837.6,0.068495
22938.65,0.068695
23040.6,0.067793
23143.46,0.066879
23247.24,0.067382
23351.96,0.067157
23457.63,0.066803
23564.25,0.065695
23671.85,0.06421
23780.44,0.064769
23890.02,0.06535
24000.63,0.064559
24112.26,0.062877
24224.93,0.062305
24338.66,0.063022
24453.47,0.063291
24569.36,0.061786
24686.36,0.060669
24804.47,0.060769
24923.73,0.061972
25044.13,0.063924
25165.71,0.065694
25288.46,0.065911
25412.43,0.066835
25537.61,0.06792
25664.04,0.067325
25791.72,0.067202
25920.68,0.069564
