Database of Origin,University of Winnipeg Spectrophotometer Facility
Sample Description,Carbonaceous chondrites - RELAB archive 3. CK chondrites
Date Added,2018-07-23 23:44:51.112560

Data ID,RLA_MET_34_15       
Sample ID,Y693
Mineral Name,CK Chondrite
Grain Size,<125 um
Viewing Geometry,30/0
Material Class,CK4-5

Wavelength
305.0,0.042757
310.0,0.044567
315.0,0.046277
320.0,0.048281
325.0,0.049759
330.0,0.051995
335.0,0.053958
340.0,0.056034
345.0,0.058108
350.0,0.060607
355.0,0.062864
360.0,0.065311
365.0,0.067676
370.0,0.069859
375.0,0.071926
380.0,0.073869
385.0,0.075764
390.0,0.077595
395.0,0.07921
400.0,0.080667
405.0,0.082082
410.0,0.083701
415.0,0.085356
420.0,0.086646
425.0,0.088294
430.0,0.08949
435.0,0.090364
440.0,0.091658
445.0,0.092173
450.0,0.092487
455.0,0.09293
460.0,0.09366
465.0,0.094502
470.0,0.094906
475.0,0.095303
480.0,0.095987
485.0,0.096477
490.0,0.096862
495.0,0.097517
500.0,0.09816
505.0,0.099081
510.0,0.099881
515.0,0.100361
520.0,0.100976
525.0,0.101522
530.0,0.101982
535.0,0.10257
540.0,0.102898
545.0,0.103252
550.0,0.103616
555.0,0.103818
560.0,0.103973
565.0,0.10432
570.0,0.104451
575.0,0.104501
580.0,0.104768
585.0,0.104865
590.0,0.104965
595.0,0.105041
600.0,0.105064
605.0,0.105243
610.0,0.105335
615.0,0.105526
620.0,0.105712
625.0,0.105775
630.0,0.105889
635.0,0.105839
640.0,0.106013
645.0,0.106067
650.0,0.10624
655.0,0.106432
660.0,0.106364
665.0,0.106349
670.0,0.106558
675.0,0.106506
680.0,0.106564
685.0,0.106615
690.0,0.106443
695.0,0.106502
700.0,0.106496
705.0,0.106594
710.0,0.106693
715.0,0.106511
720.0,0.106174
725.0,0.10611
730.0,0.105984
735.0,0.106162
740.0,0.105871
745.0,0.105753
750.0,0.10564
755.0,0.105539
760.0,0.105321
765.0,0.105399
770.0,0.104865
775.0,0.10477
780.0,0.104859
785.0,0.104718
790.0,0.104074
795.0,0.10368
800.0,0.103351
805.0,0.102866
810.0,0.102719
815.0,0.102433
820.0,0.102029
825.0,0.101624
830.0,0.101505
835.0,0.100944
840.0,0.100513
845.0,0.100436
850.0,0.100097
855.0,0.099586
860.0,0.099464
865.0,0.099065
870.0,0.098748
875.0,0.098628
880.0,0.098014
885.0,0.097781
890.0,0.097562
895.0,0.097094
900.0,0.096788
905.0,0.096277
910.0,0.096331
915.0,0.095939
920.0,0.095556
925.0,0.095229
930.0,0.09513
935.0,0.094625
940.0,0.094224
945.0,0.094152
950.0,0.093786
955.0,0.093465
960.0,0.093081
965.0,0.092749
970.0,0.09272
975.0,0.092438
980.0,0.091955
985.0,0.091661
990.0,0.091459
995.0,0.090941
1000.0,0.090646
1005.0,0.090525
1010.0,0.090245
1015.0,0.089819
1020.0,0.089636
1025.0,0.089311
1030.0,0.089095
1035.0,0.089043
1040.0,0.088711
1045.0,0.088585
1050.0,0.088561
1055.0,0.088481
1060.0,0.088313
1065.0,0.088181
1070.0,0.088059
1075.0,0.088003
1080.0,0.087938
1085.0,0.087999
1090.0,0.087901
1095.0,0.088255
1100.0,0.088346
1105.0,0.088307
1110.0,0.088438
1115.0,0.088375
1120.0,0.088588
1125.0,0.088748
1130.0,0.088872
1135.0,0.08879
1140.0,0.089139
1145.0,0.089149
1150.0,0.089306
1155.0,0.089318
1160.0,0.089404
1165.0,0.089679
1170.0,0.089565
1175.0,0.089666
1180.0,0.089872
1185.0,0.089515
1190.0,0.089678
1195.0,0.089673
1200.0,0.08971
1205.0,0.089927
1210.0,0.089985
1215.0,0.089864
1220.0,0.089739
1225.0,0.089645
1230.0,0.089737
1235.0,0.089757
1240.0,0.08981
1245.0,0.089675
1250.0,0.089622
1255.0,0.089517
1260.0,0.089525
1265.0,0.089727
1270.0,0.08943
1275.0,0.089528
1280.0,0.08965
1285.0,0.089698
1290.0,0.089584
1295.0,0.089784
1300.0,0.089885
1305.0,0.089814
1310.0,0.089906
1315.0,0.089997
1320.0,0.090129
1325.0,0.090124
1330.0,0.090249
1335.0,0.090316
1340.0,0.090598
1345.0,0.090386
1350.0,0.090602
1355.0,0.090467
1360.0,0.09039
1365.0,0.090705
1370.0,0.090875
1375.0,0.09095
1380.0,0.091175
1385.0,0.091142
1390.0,0.091263
1395.0,0.091121
1400.0,0.091613
1405.0,0.091419
1410.0,0.091529
1415.0,0.09173
1420.0,0.092091
1425.0,0.092077
1430.0,0.091753
1435.0,0.091935
1440.0,0.092381
1445.0,0.092187
1450.0,0.092427
1455.0,0.092521
1460.0,0.0928
1465.0,0.09265
1470.0,0.092392
1475.0,0.092784
1480.0,0.092799
1485.0,0.092925
1490.0,0.092979
1495.0,0.093083
1500.0,0.093235
1505.0,0.093212
1510.0,0.093454
1515.0,0.093515
1520.0,0.093546
1525.0,0.093551
1530.0,0.093541
1535.0,0.093489
1540.0,0.09381
1545.0,0.093761
1550.0,0.093654
1555.0,0.09385
1560.0,0.093746
1565.0,0.093804
1570.0,0.09373
1575.0,0.093428
1580.0,0.093576
1585.0,0.09386
1590.0,0.093765
1595.0,0.093879
1600.0,0.093987
1605.0,0.093782
1610.0,0.094093
1615.0,0.093906
1620.0,0.093876
1625.0,0.093675
1630.0,0.093736
1635.0,0.093688
1640.0,0.093635
1645.0,0.093623
1650.0,0.093515
1655.0,0.093558
1660.0,0.092928
1665.0,0.093129
1670.0,0.092887
1675.0,0.09307
1680.0,0.092938
1685.0,0.092876
1690.0,0.092961
1695.0,0.092804
1700.0,0.093092
1705.0,0.092888
1710.0,0.092878
1715.0,0.092797
1720.0,0.092678
1725.0,0.092747
1730.0,0.092751
1735.0,0.092727
1740.0,0.092679
1745.0,0.092598
1750.0,0.092668
1755.0,0.092603
1760.0,0.092699
1765.0,0.092809
1770.0,0.092663
1775.0,0.092585
1780.0,0.092678
1785.0,0.092625
1790.0,0.092565
1795.0,0.092498
1800.0,0.092225
1805.0,0.092225
1810.0,0.092325
1815.0,0.092143
1820.0,0.091974
1825.0,0.091948
1830.0,0.091602
1835.0,0.091783
1840.0,0.091855
1845.0,0.091915
1850.0,0.091875
1855.0,0.091849
1860.0,0.091868
1865.0,0.092127
1870.0,0.092048
1875.0,0.092021
1880.0,0.091968
1885.0,0.092275
1890.0,0.091818
1895.0,0.092444
1900.0,0.091387
1905.0,0.09216
1910.0,0.091406
1915.0,0.091838
1920.0,0.091532
1925.0,0.091723
1930.0,0.091928
1935.0,0.091947
1940.0,0.092041
1945.0,0.091977
1950.0,0.092189
1955.0,0.092116
1960.0,0.092018
1965.0,0.091979
1970.0,0.091974
1975.0,0.091863
1980.0,0.092031
1985.0,0.092078
1990.0,0.09188
1995.0,0.09204
2000.0,0.091914
2005.0,0.0918
2010.0,0.091677
2015.0,0.091801
2020.0,0.091589
2025.0,0.091571
2030.0,0.091762
2035.0,0.091759
2040.0,0.091504
2045.0,0.091348
2050.0,0.091051
2055.0,0.091123
2060.0,0.091113
2065.0,0.09095
2070.0,0.090884
2075.0,0.090957
2080.0,0.091032
2085.0,0.091025
2090.0,0.090853
2095.0,0.090817
2100.0,0.090749
2105.0,0.090543
2110.0,0.090607
2115.0,0.090417
2120.0,0.090488
2125.0,0.090414
2130.0,0.090425
2135.0,0.090106
2140.0,0.089964
2145.0,0.089878
2150.0,0.090078
2155.0,0.089879
2160.0,0.089808
2165.0,0.089957
2170.0,0.089821
2175.0,0.089894
2180.0,0.089705
2185.0,0.08961
2190.0,0.089691
2195.0,0.089719
2200.0,0.089529
2205.0,0.089722
2210.0,0.089691
2215.0,0.089829
2220.0,0.090049
2225.0,0.089898
2230.0,0.089915
2235.0,0.08964
2240.0,0.089668
2245.0,0.089687
2250.0,0.089741
2255.0,0.089834
2260.0,0.089705
2265.0,0.089744
2270.0,0.089946
2275.0,0.089741
2280.0,0.089758
2285.0,0.089789
2290.0,0.089651
2295.0,0.089563
2300.0,0.089521
2305.0,0.089616
2310.0,0.089539
2315.0,0.089558
2320.0,0.089596
2325.0,0.089464
2330.0,0.089508
2335.0,0.089334
2340.0,0.089299
2345.0,0.08918
2350.0,0.089231
2355.0,0.089093
2360.0,0.089336
2365.0,0.08908
2370.0,0.089264
2375.0,0.089067
2380.0,0.089223
2385.0,0.089264
2390.0,0.089142
2395.0,0.08915
2400.0,0.08901
2405.0,0.089065
2410.0,0.089102
2415.0,0.089136
2420.0,0.089112
2425.0,0.088998
2430.0,0.089064
2435.0,0.088921
2440.0,0.089101
2445.0,0.089023
2450.0,0.089126
2455.0,0.089134
2460.0,0.089227
2465.0,0.089449
2470.0,0.089179
2475.0,0.089209
2480.0,0.089211
2485.0,0.08926
2490.0,0.089357
2495.0,0.089558
2500.0,0.089781
2505.0,0.089264
2510.0,0.089782
2515.0,0.089262
2520.0,0.089752
2525.0,0.08999
2530.0,0.090215
2535.0,0.090411
2540.0,0.091043
2545.0,0.090476
2550.0,0.090981
2555.0,0.091352
2560.0,0.091724
2565.0,0.091582
2570.0,0.09133
2575.0,0.091058
2580.0,0.091779
2585.0,0.091622
2590.0,0.091397
2595.0,0.091126
2600.0,0.091652
