Database of Origin,University of Winnipeg Spectrophotometer Facility
Sample Description,See Master Clays in HOSERLab database
Date Added,2016-12-11 20:59:10.903833

Data ID,RLA_CLAY_42         
Sample ID,CHY101
Mineral Name,Chrysocolla
Grain Size,<45um
Viewing Geometry,"30/0,30"
Resolution,"5,0.6-129"
Material Class,Phyllosilicate

Wavelength
305.0,0.0745
310.0,0.077965
315.0,0.083625
320.0,0.092176
325.0,0.101217
330.0,0.114345
335.0,0.129485
340.0,0.147874
345.0,0.170317
350.0,0.196019
355.0,0.22722
360.0,0.262098
365.0,0.299168
370.0,0.339498
375.0,0.378234
380.0,0.417478
385.0,0.454029
390.0,0.487634
395.0,0.519329
400.0,0.54737
405.0,0.5715
410.0,0.59212
415.0,0.609068
420.0,0.625433
425.0,0.639028
430.0,0.652679
435.0,0.663675
440.0,0.674846
445.0,0.685526
450.0,0.695997
455.0,0.705481
460.0,0.713525
465.0,0.723335
470.0,0.729594
475.0,0.737894
480.0,0.743194
485.0,0.747569
490.0,0.750812
495.0,0.753587
500.0,0.754569
505.0,0.755981
510.0,0.755575
515.0,0.753092
520.0,0.749837
525.0,0.743866
530.0,0.737576
535.0,0.727885
540.0,0.717382
545.0,0.704113
550.0,0.691209
555.0,0.675085
560.0,0.657732
565.0,0.639412
570.0,0.619778
575.0,0.600387
580.0,0.580283
585.0,0.560265
590.0,0.539588
595.0,0.52002
600.0,0.500401
605.0,0.480154
610.0,0.462544
615.0,0.44486
620.0,0.428326
625.0,0.412092
630.0,0.397155
635.0,0.382893
640.0,0.370058
645.0,0.356853
650.0,0.346058
655.0,0.33501
660.0,0.325782
665.0,0.316752
670.0,0.308835
675.0,0.30182
680.0,0.295441
685.0,0.290051
690.0,0.285282
695.0,0.281224
700.0,0.277314
705.0,0.274758
710.0,0.271761
715.0,0.270656
720.0,0.269533
725.0,0.268911
730.0,0.268928
735.0,0.269182
740.0,0.270599
745.0,0.271233
750.0,0.273122
755.0,0.274979
760.0,0.276678
765.0,0.2786
770.0,0.280776
775.0,0.283645
780.0,0.285012
785.0,0.287751
790.0,0.291257
795.0,0.294396
800.0,0.296683
805.0,0.299283
810.0,0.302296
815.0,0.306146
820.0,0.307567
825.0,0.311835
830.0,0.314776
835.0,0.316865
840.0,0.319671
845.0,0.323381
850.0,0.32734
855.0,0.329746
860.0,0.334061
865.0,0.336787
870.0,0.340921
875.0,0.343617
880.0,0.349814
885.0,0.352689
890.0,0.357281
895.0,0.361627
900.0,0.366479
905.0,0.371243
910.0,0.375784
915.0,0.381416
920.0,0.384292
925.0,0.390934
930.0,0.395326
935.0,0.401431
940.0,0.40658
945.0,0.411899
950.0,0.416769
955.0,0.421871
960.0,0.42778
965.0,0.434048
970.0,0.439383
975.0,0.445574
980.0,0.450897
985.0,0.456377
990.0,0.463496
995.0,0.46818
1000.0,0.473435
1005.0,0.477602
1010.0,0.485719
1015.0,0.490169
1020.0,0.494798
1025.0,0.499653
1030.0,0.50465
1035.0,0.510623
1040.0,0.515246
1045.0,0.519772
1050.0,0.525341
1055.0,0.530283
1060.0,0.533872
1065.0,0.538477
1070.0,0.543114
1075.0,0.54842
1080.0,0.551132
1085.0,0.557485
1090.0,0.560439
1095.0,0.564208
1100.0,0.569544
1105.0,0.573774
1110.0,0.577307
1115.0,0.583365
1120.0,0.587291
1125.0,0.589688
1130.0,0.595521
1135.0,0.59888
1140.0,0.603953
1145.0,0.606413
1150.0,0.61118
1155.0,0.614839
1160.0,0.618072
1165.0,0.62299
1170.0,0.625663
1175.0,0.630491
1180.0,0.633707
1185.0,0.639164
1190.0,0.640924
1195.0,0.644981
1200.0,0.649425
1205.0,0.652377
1210.0,0.657558
1215.0,0.658397
1220.0,0.663039
1225.0,0.665974
1230.0,0.670295
1235.0,0.673237
1240.0,0.675695
1245.0,0.67887
1250.0,0.682315
1255.0,0.685688
1260.0,0.686768
1265.0,0.690793
1270.0,0.694775
1275.0,0.697176
1280.0,0.698834
1285.0,0.701916
1290.0,0.703711
1295.0,0.706663
1300.0,0.7098
1305.0,0.710861
1310.0,0.714664
1315.0,0.716369
1320.0,0.718915
1325.0,0.720148
1330.0,0.722382
1335.0,0.724495
1340.0,0.725541
1345.0,0.72683
1350.0,0.72793
1355.0,0.731326
1360.0,0.732263
1365.0,0.726863
1370.0,0.727911
1375.0,0.723027
1380.0,0.726774
1385.0,0.711797
1390.0,0.70845
1395.0,0.703834
1400.0,0.692228
1405.0,0.671816
1410.0,0.645396
1415.0,0.633598
1420.0,0.646523
1425.0,0.660104
1430.0,0.670952
1435.0,0.679511
1440.0,0.684429
1445.0,0.690961
1450.0,0.69417
1455.0,0.695963
1460.0,0.698809
1465.0,0.70114
1470.0,0.705047
1475.0,0.708722
1480.0,0.715725
1485.0,0.718507
1490.0,0.724332
1495.0,0.727429
1500.0,0.731056
1505.0,0.734575
1510.0,0.738708
1515.0,0.741836
1520.0,0.745874
1525.0,0.748955
1530.0,0.751799
1535.0,0.754054
1540.0,0.756487
1545.0,0.75921
1550.0,0.761937
1555.0,0.764569
1560.0,0.765974
1565.0,0.769162
1570.0,0.771622
1575.0,0.772157
1580.0,0.773256
1585.0,0.77609
1590.0,0.776405
1595.0,0.779005
1600.0,0.780275
1605.0,0.781652
1610.0,0.782946
1615.0,0.783504
1620.0,0.785543
1625.0,0.784666
1630.0,0.787359
1635.0,0.786306
1640.0,0.788695
1645.0,0.788587
1650.0,0.792059
1655.0,0.788833
1660.0,0.792337
1665.0,0.790755
1670.0,0.792676
1675.0,0.791658
1680.0,0.793224
1685.0,0.791225
1690.0,0.79279
1695.0,0.791954
1700.0,0.793344
1705.0,0.793125
1710.0,0.792128
1715.0,0.793212
1720.0,0.792765
1725.0,0.793267
1730.0,0.792303
1735.0,0.79335
1740.0,0.791291
1745.0,0.791037
1750.0,0.789006
1755.0,0.789757
1760.0,0.789031
1765.0,0.788526
1770.0,0.787062
1775.0,0.787019
1780.0,0.786612
1785.0,0.786525
1790.0,0.785563
1795.0,0.785566
1800.0,0.786923
1805.0,0.785728
1810.0,0.785725
1815.0,0.787426
1820.0,0.791032
1825.0,0.787782
1830.0,0.787911
1835.0,0.785416
1840.0,0.784556
1845.0,0.781487
1850.0,0.777621
1855.0,0.772277
1860.0,0.769133
1865.0,0.757738
1870.0,0.740912
1875.0,0.721323
1880.0,0.697356
1885.0,0.667818
1890.0,0.641962
1895.0,0.616789
1900.0,0.59246
1905.0,0.574439
1910.0,0.563399
1915.0,0.552254
1920.0,0.559823
1925.0,0.56778
1930.0,0.57855
1935.0,0.587512
1940.0,0.595194
1945.0,0.601866
1950.0,0.607354
1955.0,0.616468
1960.0,0.619455
1965.0,0.626702
1970.0,0.631874
1975.0,0.637871
1980.0,0.644502
1985.0,0.649696
1990.0,0.655721
1995.0,0.661215
2000.0,0.672051
2005.0,0.67457
2010.0,0.681988
2015.0,0.687173
2020.0,0.692969
2025.0,0.698019
2030.0,0.699962
2035.0,0.706511
2040.0,0.708966
2045.0,0.71275
2050.0,0.714704
2055.0,0.717726
2060.0,0.717479
2065.0,0.719922
2070.0,0.722707
2075.0,0.724252
2080.0,0.725561
2085.0,0.724882
2090.0,0.727181
2095.0,0.725848
2100.0,0.72695
2105.0,0.726764
2110.0,0.725696
2115.0,0.727453
2120.0,0.72788
2125.0,0.728536
2130.0,0.729846
2135.0,0.729793
2140.0,0.729738
2145.0,0.72607
2150.0,0.727692
2155.0,0.722475
2160.0,0.721083
2165.0,0.718314
2170.0,0.713985
2175.0,0.710499
2180.0,0.705799
2185.0,0.701887
2190.0,0.694661
2195.0,0.690936
2200.0,0.685974
2205.0,0.683203
2210.0,0.676593
2215.0,0.672576
2220.0,0.667439
2225.0,0.661159
2230.0,0.651262
2235.0,0.639089
2240.0,0.621829
2245.0,0.604959
2250.0,0.590711
2255.0,0.585072
2260.0,0.586688
2265.0,0.58784
2270.0,0.593654
2275.0,0.595052
2280.0,0.602559
2285.0,0.61043
2290.0,0.62237
2295.0,0.629867
2300.0,0.637793
2305.0,0.643514
2310.0,0.645021
2315.0,0.646133
2320.0,0.645984
2325.0,0.647183
2330.0,0.644736
2335.0,0.644245
2340.0,0.642382
2345.0,0.640162
2350.0,0.635222
2355.0,0.630687
2360.0,0.623231
2365.0,0.616922
2370.0,0.606899
2375.0,0.597672
2380.0,0.58984
2385.0,0.581801
2390.0,0.57863
2395.0,0.573154
2400.0,0.567925
2405.0,0.562005
2410.0,0.558502
2415.0,0.554645
2420.0,0.554863
2425.0,0.551181
2430.0,0.548523
2435.0,0.544179
2440.0,0.538661
2445.0,0.535304
2450.0,0.530313
2455.0,0.528221
2460.0,0.523418
2465.0,0.521288
2470.0,0.51674
2475.0,0.512864
2480.0,0.512202
2485.0,0.508992
2490.0,0.506387
2495.0,0.503809
2500.0,0.501806
2505.0,0.499798
2510.0,0.497008
2515.0,0.4946
2520.0,0.492176
2525.0,0.490119
2530.0,0.486818
2535.0,0.485813
2540.0,0.483709
2545.0,0.479717
2550.0,0.480226
2555.02,0.478795
2560.07,0.475879
2565.13,0.472829
2570.22,0.469636
2571.5,0.470238
2572.77,0.469068
2574.05,0.467163
2575.33,0.467546
2576.61,0.466104
2577.89,0.466516
2579.17,0.467484
2580.46,0.466779
2581.74,0.465051
2583.03,0.464183
2584.31,0.463592
2585.6,0.463879
2586.89,0.462431
2588.19,0.462384
2589.48,0.462496
2590.77,0.461896
2592.07,0.461639
2593.36,0.460233
2594.66,0.45699
2595.96,0.458583
2597.26,0.460734
2598.56,0.460036
2599.87,0.458538
2601.17,0.457145
2602.48,0.456607
2603.78,0.455717
2605.09,0.453606
2606.4,0.453347
2607.71,0.454478
2609.03,0.454049
2610.34,0.453068
2611.65,0.45199
2612.97,0.450912
2614.29,0.451152
2615.61,0.450425
2616.93,0.448316
2618.25,0.447882
2619.57,0.447813
2620.9,0.445846
2622.22,0.44643
2623.55,0.446217
2624.88,0.445172
2626.21,0.443209
2627.54,0.442717
2628.87,0.442405
2630.21,0.439871
2631.54,0.439831
2632.88,0.440319
2634.21,0.438802
2635.55,0.437766
2636.89,0.436677
2638.24,0.435841
2639.58,0.434357
2640.92,0.433289
2642.27,0.431437
2643.62,0.43079
2644.97,0.429246
2646.32,0.428106
2647.67,0.427146
2649.02,0.425186
2650.38,0.422915
2651.73,0.42087
2653.09,0.418519
2654.45,0.416809
2655.81,0.414408
2657.17,0.412178
2658.53,0.409181
2659.89,0.406284
2661.26,0.403556
2662.63,0.400197
2664.0,0.394565
2665.36,0.389414
2666.74,0.383646
2668.11,0.375691
2669.48,0.364522
2670.86,0.348404
2672.23,0.328834
2673.61,0.30954
2674.99,0.292532
2676.37,0.282326
2677.76,0.275894
2679.14,0.268369
2680.52,0.255698
2681.91,0.238547
2683.3,0.22012
2684.69,0.204601
2686.08,0.198102
2687.47,0.203135
2688.87,0.213582
2690.26,0.222705
2691.66,0.227515
2693.06,0.228713
2694.46,0.227423
2695.86,0.22499
2697.26,0.222406
2698.66,0.219976
2700.07,0.21599
2701.48,0.211333
2702.89,0.207215
2704.3,0.202991
2705.71,0.199357
2707.12,0.197231
2708.53,0.195857
2709.95,0.195391
2711.37,0.194689
2712.79,0.194933
2714.21,0.194298
2715.63,0.193346
2717.05,0.192598
2718.48,0.191376
2719.9,0.189044
2721.33,0.186151
2722.76,0.182734
2724.19,0.178992
2725.62,0.174937
2727.06,0.170864
2728.49,0.166927
2729.93,0.162856
2731.37,0.158101
2732.81,0.152679
2734.25,0.147096
2735.69,0.142036
2737.14,0.13655
2738.58,0.131155
2740.03,0.125716
2741.48,0.121013
2742.93,0.117368
2744.38,0.114023
2745.83,0.110282
2747.29,0.107178
2748.75,0.104552
2750.2,0.10231
2751.66,0.099009
2753.13,0.095254
2754.59,0.091692
2756.05,0.087665
2757.52,0.083983
2758.99,0.08098
2760.46,0.078069
2761.93,0.076049
2763.4,0.075122
2764.87,0.074436
2766.35,0.074267
2767.82,0.074269
2769.3,0.074664
2770.78,0.07547
2772.26,0.076211
2773.75,0.077057
2775.23,0.077499
2776.72,0.078273
2778.21,0.078884
2779.7,0.079433
2781.19,0.080332
2782.68,0.081472
2784.18,0.082094
2785.67,0.082958
2787.17,0.083998
2788.67,0.084781
2790.17,0.086029
2791.67,0.087688
2793.18,0.088743
2794.68,0.089455
2796.19,0.090368
2797.7,0.091344
2799.21,0.092566
2800.72,0.093412
2802.24,0.094001
2803.75,0.095053
2805.27,0.096256
2806.79,0.097701
2808.31,0.098475
2809.83,0.09908
2811.35,0.100191
2812.88,0.101035
2814.41,0.101799
2815.93,0.102392
2817.46,0.102814
2819.0,0.103403
2820.53,0.104275
2822.07,0.10484
2823.6,0.105431
2825.14,0.105467
2826.68,0.105783
2828.22,0.106437
2829.77,0.106816
2831.31,0.107711
2832.86,0.108266
2834.41,0.108223
2835.96,0.108029
2837.51,0.108734
2839.07,0.109613
2840.62,0.109908
2842.18,0.109961
2843.74,0.110055
2845.3,0.110285
2846.86,0.110693
2848.43,0.110922
2849.99,0.110748
2851.56,0.11088
2853.13,0.110817
2854.7,0.110679
2856.27,0.110757
2857.85,0.111392
2859.42,0.111786
2861.0,0.11166
2862.58,0.111275
2864.16,0.111044
2865.75,0.11091
2867.33,0.11122
2868.92,0.111436
2870.51,0.111411
2872.1,0.111336
2873.69,0.111379
2875.28,0.111746
2876.88,0.111347
2878.48,0.111395
2880.07,0.1119
2881.68,0.111866
2883.28,0.111733
2884.88,0.111694
2886.49,0.111859
2888.1,0.111688
2889.71,0.111508
2891.32,0.111417
2892.93,0.111536
2894.55,0.111763
2896.16,0.112025
2897.78,0.112142
2899.4,0.112745
2901.03,0.112619
2902.65,0.112021
2904.28,0.112155
2905.91,0.112744
2907.53,0.112781
2909.17,0.11299
2910.8,0.113404
2912.44,0.113484
2914.07,0.113094
2915.71,0.113366
2917.35,0.113562
2918.99,0.113791
2920.64,0.113712
2922.29,0.113572
2923.93,0.114124
2925.58,0.114759
2927.24,0.11499
2928.89,0.114921
2930.55,0.11499
2932.2,0.115225
2933.86,0.115325
2935.52,0.115916
2937.19,0.116215
2938.85,0.116454
2940.52,0.116804
2942.19,0.117038
2943.86,0.117188
2945.53,0.117348
2947.21,0.117551
2948.88,0.118164
2950.56,0.118836
2952.24,0.119016
2953.92,0.11938
2955.61,0.12002
2957.29,0.120217
2958.98,0.120439
2960.67,0.120927
2962.36,0.121447
2964.06,0.121519
2965.75,0.121657
2967.45,0.121979
2969.15,0.122534
2970.85,0.123202
2972.55,0.123475
2974.26,0.12376
2975.97,0.124845
2977.68,0.125262
2979.39,0.12542
2981.1,0.125943
2982.82,0.126051
2984.53,0.126585
2986.25,0.127453
2987.97,0.12797
2989.7,0.128626
2991.42,0.129153
2993.15,0.129288
2994.88,0.129375
2996.61,0.129799
2998.34,0.130645
3000.08,0.131226
3001.82,0.131814
3003.55,0.13257
3005.3,0.133166
3007.04,0.133468
3008.78,0.13372
3010.53,0.134271
3012.28,0.135214
3014.03,0.13577
3015.79,0.135993
3017.54,0.136533
3019.3,0.137277
3021.06,0.137748
3022.82,0.138065
3024.58,0.138763
3026.35,0.139328
3028.12,0.139827
3029.89,0.140222
3031.66,0.140745
3033.43,0.14133
3035.21,0.141881
3036.99,0.142431
3038.77,0.14288
3040.55,0.143268
3042.33,0.14347
3044.12,0.143855
3045.91,0.144662
3047.7,0.145239
3049.49,0.145173
3051.29,0.145456
3053.08,0.146169
3054.88,0.146678
3056.68,0.146701
3058.49,0.147001
3060.29,0.147565
3062.1,0.147711
3063.91,0.147855
3065.72,0.148086
3067.54,0.14853
3069.35,0.148871
3071.17,0.148975
3072.99,0.149526
3074.81,0.149831
3076.64,0.149787
3078.46,0.150258
3080.29,0.150736
3082.13,0.151098
3083.96,0.151568
3085.79,0.152033
3087.63,0.152329
3089.47,0.152819
3091.31,0.153208
3093.16,0.15383
3095.01,0.154272
3096.85,0.154632
3098.71,0.155001
3100.56,0.15535
3102.41,0.15583
3104.27,0.156557
3106.13,0.157392
3107.99,0.158085
3109.86,0.158952
3111.73,0.159602
3113.59,0.160229
3115.47,0.160918
3117.34,0.161381
3119.21,0.162074
3121.09,0.162861
3122.97,0.163533
3124.86,0.164
3126.74,0.164505
3128.63,0.165199
3130.52,0.166205
3132.41,0.167221
3134.3,0.168039
3136.2,0.168977
3138.1,0.170079
3140.0,0.170823
3141.9,0.17146
3143.81,0.172009
3145.71,0.172677
3147.62,0.173601
3149.54,0.174816
3151.45,0.175806
3153.37,0.17651
3155.29,0.177318
3157.21,0.178109
3159.13,0.178752
3161.06,0.179468
3162.99,0.180166
3164.92,0.181349
3166.85,0.182554
3168.79,0.183259
3170.72,0.184028
3172.67,0.184662
3174.61,0.185215
3176.55,0.186101
3178.5,0.187355
3180.45,0.188278
3182.4,0.188906
3184.36,0.189685
3186.32,0.190823
3188.27,0.191636
3190.24,0.19264
3192.2,0.19369
3194.17,0.194312
3196.14,0.195037
3198.11,0.196156
3200.08,0.197232
3202.06,0.198139
3204.04,0.198996
3206.02,0.199833
3208.0,0.200533
3209.99,0.201347
3211.98,0.202396
3213.97,0.20317
3215.96,0.204098
3217.96,0.205178
3219.96,0.206009
3221.96,0.206852
3223.96,0.208038
3225.97,0.209383
3227.98,0.210416
3229.99,0.210757
3232.0,0.211486
3234.02,0.212452
3236.04,0.213257
3238.06,0.21405
3240.08,0.21495
3242.11,0.215886
3244.14,0.217143
3246.17,0.217982
3248.2,0.218906
3250.24,0.219981
3252.28,0.220784
3254.32,0.221452
3256.37,0.222768
3258.41,0.224208
3260.46,0.225039
3262.51,0.22592
3264.57,0.226583
3266.63,0.227515
3268.69,0.228425
3270.75,0.229388
3272.81,0.230517
3274.88,0.231438
3276.95,0.232196
3279.02,0.233048
3281.1,0.234003
3283.18,0.234821
3285.26,0.235608
3287.34,0.236677
3289.43,0.23761
3291.51,0.238498
3293.61,0.2395
3295.7,0.240336
3297.8,0.241285
3299.89,0.242208
3302.0,0.243032
3304.1,0.24391
3306.21,0.244951
3308.32,0.246033
3310.43,0.247025
3312.55,0.247899
3314.66,0.248629
3316.78,0.249633
3318.91,0.250525
3321.03,0.251608
3323.16,0.252351
3325.29,0.253149
3327.43,0.254218
3329.57,0.255177
3331.71,0.256139
3333.85,0.256987
3335.99,0.257616
3338.14,0.258192
3340.29,0.259037
3342.45,0.260003
3344.6,0.260698
3346.76,0.261392
3348.92,0.262027
3351.09,0.262562
3353.26,0.263444
3355.43,0.264176
3357.6,0.264709
3359.78,0.264976
3361.96,0.265327
3364.14,0.265927
3366.32,0.266348
3368.51,0.266826
3370.7,0.267131
3372.89,0.267448
3375.09,0.26772
3377.29,0.268053
3379.49,0.268969
3381.69,0.269788
3383.9,0.270302
3386.11,0.271394
3388.32,0.272537
3390.54,0.273256
3392.76,0.274183
3394.98,0.274988
3397.21,0.275541
3399.43,0.276259
3401.66,0.277078
3403.9,0.277508
3406.13,0.277707
3408.37,0.278166
3410.61,0.27875
3412.86,0.279366
3415.11,0.280136
3417.36,0.281032
3419.61,0.281753
3421.87,0.282659
3424.13,0.283906
3426.39,0.285339
3428.66,0.286728
3430.93,0.288406
3433.2,0.289865
3435.48,0.291298
3437.76,0.292903
3440.04,0.294363
3442.32,0.295403
3444.61,0.296566
3446.9,0.297929
3449.19,0.299201
3451.49,0.300346
3453.79,0.301599
3456.09,0.302749
3458.4,0.303816
3460.7,0.304775
3463.02,0.305807
3465.33,0.306703
3467.65,0.307515
3469.97,0.308603
3472.29,0.309533
3474.62,0.309823
3476.95,0.310303
3479.29,0.310904
3481.62,0.311282
3483.96,0.312219
3486.3,0.313476
3488.65,0.314076
3491.0,0.314705
3493.35,0.315775
3495.71,0.316736
3498.07,0.31765
3500.43,0.31847
3502.79,0.319442
3505.16,0.320696
3507.53,0.322033
3509.91,0.323598
3512.29,0.325019
3514.67,0.326411
3517.05,0.327465
3519.44,0.328641
3521.83,0.330273
3524.22,0.331789
3526.62,0.333133
3529.02,0.334488
3531.43,0.336042
3533.83,0.337495
3536.24,0.338964
3538.66,0.340276
3541.08,0.341396
3543.5,0.342767
3545.92,0.344129
3548.35,0.345363
3550.78,0.346401
3553.21,0.347282
3555.65,0.348335
3558.09,0.349369
3560.53,0.350513
3562.98,0.351644
3565.43,0.352619
3567.88,0.35352
3570.34,0.354384
3572.8,0.355409
3575.27,0.356297
3577.73,0.357009
3580.2,0.357861
3582.68,0.358804
3585.16,0.359844
3587.64,0.360748
3590.12,0.361521
3592.61,0.362325
3595.1,0.36323
3597.6,0.364275
3600.09,0.365114
3602.6,0.365723
3605.1,0.366183
3607.61,0.367073
3610.12,0.368131
3612.64,0.368975
3615.16,0.36975
3617.68,0.370648
3620.21,0.371315
3622.74,0.372173
3625.27,0.373314
3627.81,0.37414
3630.35,0.374829
3632.89,0.375563
3635.44,0.376249
3637.99,0.377139
3640.54,0.378108
3643.1,0.378923
3645.66,0.37947
3648.23,0.380272
3650.8,0.381304
3653.37,0.382189
3655.95,0.382664
3658.53,0.383489
3661.11,0.384492
3663.7,0.385515
3666.29,0.386379
3668.89,0.386995
3671.48,0.387636
3674.09,0.388609
3676.69,0.389696
3679.3,0.390469
3681.91,0.391139
3684.53,0.392043
3687.15,0.392783
3689.78,0.393441
3692.4,0.394038
3695.04,0.395005
3697.67,0.39599
3700.31,0.39677
3702.95,0.397391
3705.6,0.398162
3708.25,0.399018
3710.91,0.399752
3713.56,0.400273
3716.23,0.401134
3718.89,0.401948
3721.56,0.402704
3724.23,0.403371
3726.91,0.404013
3729.59,0.404589
3732.28,0.405162
3734.97,0.406044
3737.66,0.40694
3740.36,0.407581
3743.06,0.408157
3745.76,0.408781
3748.47,0.409041
3751.18,0.409972
3753.9,0.41131
3756.62,0.411662
3759.34,0.412058
3762.07,0.412834
3764.8,0.413759
3767.54,0.414554
3770.28,0.415286
3773.02,0.415854
3775.77,0.41656
3778.52,0.417144
3781.28,0.418149
3784.04,0.418672
3786.8,0.419198
3789.57,0.420043
3792.34,0.420687
3795.12,0.421162
3797.9,0.421779
3800.69,0.422622
3803.47,0.423318
3806.27,0.423953
3809.06,0.424377
3811.86,0.424753
3814.67,0.425508
3817.48,0.426159
3820.29,0.426778
3823.11,0.427282
3825.93,0.427954
3828.76,0.428438
3831.59,0.428858
3834.42,0.42931
3837.26,0.429821
3840.1,0.430508
3842.95,0.431201
3845.8,0.431563
3848.65,0.432017
3851.51,0.432522
3854.38,0.433126
3857.24,0.433469
3860.12,0.433704
3862.99,0.43413
3865.87,0.434832
3868.76,0.435288
3871.65,0.435694
3874.54,0.436308
3877.44,0.436754
3880.34,0.436738
3883.25,0.437114
3886.16,0.437647
3889.07,0.438211
3891.99,0.438819
3894.92,0.439241
3897.85,0.439444
3900.78,0.439696
3903.72,0.440008
3906.66,0.440144
3909.6,0.440533
3912.55,0.441229
3915.51,0.441523
3918.47,0.44186
3921.43,0.442166
3924.4,0.442381
3927.37,0.442515
3930.35,0.44289
3933.33,0.443217
3936.32,0.443474
3939.31,0.443788
3942.31,0.44398
3945.31,0.444153
3948.31,0.44449
3951.32,0.444938
3954.34,0.445181
3957.35,0.445099
3960.38,0.445194
3963.41,0.445488
3966.44,0.445616
3969.48,0.445584
3972.52,0.445942
3975.56,0.446314
3978.61,0.446734
3981.67,0.446932
3984.73,0.446917
3987.8,0.44673
3990.87,0.446893
3993.94,0.44724
3997.02,0.447697
4000.1,0.447886
4003.19,0.447799
4006.29,0.447766
4009.39,0.44791
4012.49,0.44803
4015.6,0.447933
4018.71,0.448111
4021.83,0.44823
4024.95,0.44804
4028.08,0.448257
4031.21,0.448523
4034.35,0.448638
4037.49,0.448776
4040.64,0.448849
4043.79,0.448847
4046.94,0.448821
4050.11,0.448768
4053.27,0.448735
4056.44,0.448765
4059.62,0.448693
4062.8,0.448641
4065.99,0.448739
4069.18,0.448799
4072.38,0.448662
4075.58,0.4485
4078.78,0.448489
4082.0,0.448387
4085.21,0.448443
4088.43,0.44845
4091.66,0.448354
4094.89,0.448233
4098.13,0.447952
4101.37,0.44796
4104.62,0.448045
4107.87,0.447867
4111.13,0.447841
4114.39,0.447773
4117.66,0.447661
4120.93,0.447278
4124.21,0.44712
4127.5,0.446907
4130.78,0.446829
4134.08,0.446645
4137.38,0.446313
4140.68,0.446299
4143.99,0.446288
4147.31,0.446069
4150.63,0.446101
4153.95,0.446073
4157.29,0.445917
4160.62,0.445531
4163.96,0.445327
4167.31,0.445371
4170.66,0.445314
4174.02,0.444993
4177.39,0.44484
4180.75,0.444496
4184.13,0.444366
4187.51,0.4444
4190.89,0.444308
4194.28,0.444223
4197.68,0.444183
4201.08,0.443977
4204.49,0.443697
4207.9,0.443417
4211.32,0.443504
4214.74,0.443421
4218.17,0.443344
4221.61,0.443133
4225.05,0.442971
4228.5,0.442906
4231.95,0.442876
4235.4,0.442636
4238.87,0.442653
4242.34,0.442796
4245.81,0.442807
4249.29,0.442502
4252.78,0.442338
4256.27,0.442194
4259.77,0.441736
4263.27,0.441042
4266.78,0.440901
4270.29,0.44081
4273.81,0.44072
4277.34,0.440546
4280.87,0.44039
4284.41,0.440275
4287.95,0.440102
4291.5,0.440036
4295.06,0.439986
4298.62,0.439854
4302.19,0.439868
4305.76,0.439479
4309.34,0.439247
4312.92,0.439147
4316.52,0.43888
4320.11,0.438572
4323.72,0.43846
4327.32,0.438158
4330.94,0.437843
4334.56,0.437652
4338.19,0.437581
4341.82,0.437288
4345.46,0.436965
4349.11,0.436507
4352.76,0.436141
4356.42,0.435809
4360.08,0.435604
4363.75,0.435322
4367.43,0.435024
4371.11,0.434738
4374.8,0.434502
4378.49,0.434193
4382.19,0.43394
4385.9,0.433417
4389.61,0.432936
4393.33,0.432579
4397.06,0.432287
4400.79,0.431802
4404.53,0.431508
4408.28,0.431274
4412.03,0.430946
4415.79,0.430606
4419.55,0.430255
4423.32,0.429778
4427.1,0.429593
4430.88,0.429426
4434.67,0.429092
4438.47,0.428824
4442.27,0.428695
4446.08,0.428429
4449.9,0.428136
4453.72,0.427687
4457.55,0.427299
4461.39,0.426982
4465.23,0.426808
4469.08,0.426514
4472.94,0.42641
4476.8,0.42632
4480.67,0.426467
4484.55,0.426441
4488.43,0.426296
4492.32,0.426187
4496.21,0.426191
4500.12,0.426199
4504.03,0.426111
4507.94,0.425853
4511.87,0.426051
4515.8,0.426258
4519.73,0.426354
4523.68,0.426356
4527.63,0.426314
4531.59,0.426239
4535.55,0.426285
4539.52,0.425922
4543.5,0.425694
4547.49,0.425672
4551.48,0.425638
4555.48,0.425307
4559.49,0.425203
4563.5,0.42508
4567.52,0.424871
4571.55,0.424559
4575.58,0.424421
4579.62,0.423947
4583.67,0.423438
4587.73,0.423291
4591.79,0.423524
4595.86,0.423255
4599.94,0.422896
4604.03,0.4228
4608.12,0.422513
4612.22,0.421966
4616.33,0.421656
4620.44,0.421339
4624.56,0.420958
4628.69,0.420475
4632.83,0.420122
4636.97,0.419838
4641.12,0.419461
4645.28,0.419013
4649.45,0.41875
4653.62,0.418307
4657.8,0.417764
4661.99,0.417285
4666.19,0.416806
4670.39,0.41618
4674.6,0.415777
4678.82,0.415401
4683.05,0.414975
4687.28,0.414568
4691.52,0.414238
4695.77,0.413883
4700.03,0.413711
4704.3,0.413459
4708.57,0.41351
4712.85,0.413298
4717.14,0.412925
4721.43,0.412604
4725.74,0.412439
4730.05,0.412173
4734.37,0.411888
4738.7,0.411614
4743.03,0.411132
4747.38,0.410617
4751.73,0.410313
4756.09,0.409755
4760.45,0.409234
4764.83,0.408542
4769.21,0.407847
4773.6,0.407297
4778.0,0.406778
4782.41,0.406211
4786.83,0.405752
4791.25,0.405131
4795.68,0.404556
4800.13,0.403779
4804.57,0.402972
4809.03,0.401984
4813.5,0.40109
4817.97,0.400347
4822.45,0.399494
4826.94,0.398433
4831.44,0.397531
4835.95,0.396462
4840.46,0.395248
4844.99,0.394152
4849.52,0.393228
4854.06,0.391986
4858.61,0.390465
4863.17,0.389013
4867.73,0.387837
4872.31,0.386296
4876.89,0.384558
4881.48,0.38284
4886.08,0.381041
4890.69,0.378947
4895.31,0.376801
4899.94,0.374425
4904.57,0.371913
4909.22,0.369354
4913.87,0.366845
4918.53,0.364113
4923.21,0.361486
4927.88,0.358971
4932.57,0.356858
4937.27,0.354831
4941.98,0.352792
4946.69,0.350615
4951.42,0.348756
4956.15,0.346757
4960.89,0.344514
4965.65,0.342099
4970.41,0.339689
4975.18,0.337386
4979.96,0.335274
4984.75,0.333015
4989.54,0.330957
4994.35,0.328898
4999.17,0.327039
5003.99,0.325515
5008.83,0.324298
5013.67,0.322934
5018.52,0.321707
5023.39,0.320556
5028.26,0.319687
5033.14,0.318726
5038.03,0.317661
5042.93,0.316566
5047.84,0.31579
5052.76,0.315019
5057.69,0.314074
5062.63,0.313209
5067.58,0.312598
5072.54,0.311937
5077.51,0.311258
5082.49,0.31043
5087.47,0.309845
5092.47,0.30934
5097.48,0.30895
5102.5,0.308494
5107.52,0.307964
5112.56,0.307426
5117.61,0.30681
5122.66,0.305994
5127.73,0.305209
5132.81,0.304292
5137.89,0.303425
5142.99,0.302595
5148.1,0.301874
5153.22,0.301186
5158.34,0.300482
5163.48,0.299629
5168.63,0.298941
5173.79,0.298109
5178.96,0.297177
5184.13,0.296271
5189.32,0.295405
5194.52,0.294341
5199.73,0.293083
5204.95,0.291696
5210.19,0.290244
5215.43,0.288509
5220.68,0.286523
5225.94,0.284303
5231.22,0.281959
5236.5,0.279201
5241.79,0.27641
5247.1,0.273421
5252.42,0.270411
5257.74,0.267341
5263.08,0.264228
5268.43,0.261185
5273.79,0.258318
5279.16,0.25542
5284.54,0.252853
5289.93,0.250426
5295.34,0.248069
5300.75,0.245918
5306.18,0.243884
5311.61,0.241954
5317.06,0.240312
5322.52,0.23876
5327.99,0.237454
5333.47,0.236361
5338.96,0.235408
5344.47,0.234703
5349.98,0.234288
5355.51,0.234144
5361.05,0.234463
5366.6,0.234971
5372.16,0.235942
5377.73,0.23735
5383.32,0.239052
5388.91,0.241001
5394.52,0.243272
5400.14,0.24555
5405.77,0.247826
5411.41,0.249898
5417.07,0.251972
5422.74,0.253694
5428.41,0.255605
5434.1,0.257303
5439.81,0.258388
5445.52,0.259232
5451.25,0.260066
5456.98,0.260609
5462.73,0.260797
5468.5,0.260743
5474.27,0.260702
5480.06,0.260386
5485.86,0.260201
5491.67,0.259686
5497.49,0.259028
5503.33,0.258135
5509.18,0.257291
5515.04,0.256535
5520.91,0.25572
5526.8,0.254791
5532.69,0.253938
5538.61,0.253195
5544.53,0.252514
5550.47,0.251753
5556.41,0.251141
5562.38,0.250509
5568.35,0.250219
5574.34,0.250051
5580.34,0.24993
5586.35,0.250023
5592.38,0.250282
5598.42,0.250598
5604.47,0.250837
5610.54,0.251112
5616.61,0.251589
5622.71,0.252202
5628.81,0.253037
5634.93,0.253905
5641.06,0.254786
5647.21,0.255789
5653.36,0.257128
5659.54,0.257989
5665.72,0.25891
5671.92,0.259652
5678.13,0.260459
5684.36,0.26115
5690.6,0.261521
5696.85,0.261722
5703.12,0.262139
5709.4,0.26202
5715.69,0.262003
5722.0,0.2619
5728.33,0.261781
5734.66,0.261235
5741.01,0.260682
5747.38,0.259904
5753.76,0.259002
5760.15,0.257699
5766.56,0.25598
5772.98,0.254345
5779.41,0.253133
5785.86,0.251282
5792.33,0.249302
5798.81,0.24696
5805.3,0.244521
5811.81,0.241699
5818.33,0.238722
5824.87,0.23542
5831.42,0.232396
5837.99,0.229169
5844.57,0.225852
5851.17,0.222357
5857.78,0.219244
5864.41,0.215886
5871.05,0.212504
5877.7,0.208942
5884.38,0.205169
5891.06,0.201462
5897.76,0.198334
5904.48,0.194804
5911.21,0.191347
5917.96,0.187609
5924.73,0.184141
5931.5,0.180872
5938.3,0.177748
5945.11,0.174392
5951.93,0.171461
5958.78,0.168331
5965.63,0.16527
5972.51,0.161846
5979.39,0.15874
5986.3,0.155839
5993.22,0.152827
6000.16,0.149471
6007.11,0.146511
6014.08,0.143389
6021.06,0.140196
6028.06,0.13708
6035.08,0.134179
6042.12,0.131119
6049.17,0.128174
6056.23,0.12497
6063.32,0.122267
6070.42,0.119658
6077.53,0.1171
6084.67,0.114643
6091.82,0.112484
6098.98,0.1104
6106.17,0.10877
6113.37,0.107369
6120.58,0.106611
6127.82,0.106357
6135.07,0.106525
6142.34,0.106998
6149.63,0.107929
6156.93,0.109156
6164.25,0.111158
6171.59,0.114101
6178.94,0.117279
6186.32,0.120445
6193.71,0.124177
6201.12,0.127748
6208.54,0.131118
6215.99,0.134419
6223.45,0.13748
6230.93,0.140413
6238.43,0.142974
6245.95,0.145211
6253.48,0.14746
6261.03,0.149578
6268.6,0.151464
6276.19,0.153324
6283.8,0.154978
6291.43,0.156793
6299.07,0.158624
6306.73,0.160258
6314.42,0.161952
6322.12,0.163812
6329.83,0.165784
6337.57,0.167609
6345.33,0.169059
6353.11,0.17093
6360.9,0.172835
6368.72,0.174274
6376.55,0.17579
6384.4,0.177577
6392.27,0.179172
6400.17,0.180832
6408.08,0.182231
6416.01,0.183379
6423.96,0.185248
6431.93,0.186926
6439.92,0.188322
6447.93,0.190078
6455.96,0.191514
6464.01,0.19296
6472.08,0.194108
6480.17,0.195069
6488.28,0.195947
6496.41,0.196526
6504.56,0.197372
6512.73,0.198137
6520.92,0.198201
6529.14,0.19798
6537.37,0.197779
6545.63,0.197535
6553.9,0.197015
6562.2,0.196447
6570.51,0.196265
6578.85,0.196107
6587.21,0.196273
6595.59,0.196004
6603.99,0.195683
6612.42,0.195556
6620.86,0.19529
6629.33,0.194624
6637.82,0.193785
6646.33,0.193112
6654.86,0.19264
6663.41,0.191921
6671.99,0.190866
6680.59,0.189618
6689.21,0.18846
6697.85,0.187291
6706.51,0.186236
6715.2,0.185096
6723.91,0.183876
6732.64,0.182703
6741.4,0.181556
6750.18,0.180078
6758.98,0.178469
6767.8,0.176827
6776.65,0.175045
6785.52,0.172894
6794.41,0.170456
6803.33,0.167959
6812.27,0.165989
6821.23,0.164316
6830.22,0.162629
6839.23,0.16068
6848.26,0.158927
6857.32,0.156938
6866.4,0.154681
6875.51,0.152599
6884.64,0.150937
6893.8,0.149202
6902.98,0.147512
6912.18,0.145657
6921.41,0.144039
6930.66,0.14242
6939.94,0.140922
6949.24,0.139462
6958.57,0.138134
6967.92,0.136767
6977.3,0.135758
6986.7,0.134756
6996.13,0.133784
7005.59,0.132878
7015.07,0.13225
7024.57,0.131558
7034.1,0.130919
7043.66,0.130214
7053.24,0.129688
7062.85,0.129041
7072.49,0.128438
7082.15,0.127951
7091.84,0.127452
7101.55,0.126881
7111.3,0.126386
7121.06,0.125771
7130.86,0.125109
7140.68,0.124191
7150.53,0.123271
7160.41,0.122297
7170.31,0.121299
7180.24,0.120229
7190.2,0.118992
7200.19,0.117706
7210.2,0.116565
7220.24,0.115341
7230.31,0.114091
7240.41,0.112654
7250.54,0.111329
7260.69,0.109989
7270.88,0.108564
7281.09,0.107055
7291.33,0.105573
7301.6,0.103892
7311.9,0.102414
7322.22,0.100993
7332.58,0.099584
7342.97,0.09804
7353.38,0.0966
7363.83,0.095201
7374.3,0.093871
7384.81,0.092336
7395.34,0.090965
7405.91,0.089627
7416.5,0.088528
7427.13,0.087577
7437.78,0.086973
7448.47,0.086295
7459.19,0.085529
7469.94,0.084664
7480.71,0.083952
7491.52,0.083138
7502.37,0.082422
7513.24,0.081727
7524.14,0.080961
7535.08,0.080142
7546.05,0.079511
7557.05,0.078745
7568.08,0.077949
7579.14,0.077128
7590.24,0.076384
7601.37,0.075733
7612.53,0.075325
7623.73,0.075119
7634.96,0.074891
7646.22,0.074562
7657.51,0.074431
7668.84,0.074342
7680.2,0.074279
7691.59,0.074179
7703.02,0.074298
7714.49,0.07435
7725.98,0.074334
7737.51,0.074209
7749.08,0.074098
7760.68,0.074016
7772.32,0.074007
7783.99,0.073729
7795.69,0.073421
7807.43,0.073211
7819.21,0.073006
7831.02,0.07268
7842.87,0.072559
7854.75,0.072458
7866.67,0.072306
7878.62,0.071914
7890.62,0.071657
7902.64,0.071496
7914.71,0.07119
7926.81,0.070516
7938.95,0.069874
7951.13,0.069226
7963.34,0.068636
7975.59,0.067887
7987.88,0.06711
8000.21,0.066377
8012.57,0.065709
8024.98,0.064911
8037.42,0.064112
8049.9,0.063224
8062.42,0.062561
8074.98,0.061549
8087.57,0.060491
8100.21,0.059535
8112.89,0.058773
8125.6,0.058055
8138.36,0.05703
8151.16,0.056003
8163.99,0.055266
8176.87,0.054285
8189.79,0.053015
8202.75,0.051672
8215.74,0.050527
8228.79,0.049381
8241.87,0.048225
8254.99,0.047035
8268.16,0.046121
8281.37,0.04528
8294.62,0.044653
8307.91,0.043727
8321.24,0.042969
8334.62,0.042304
8348.04,0.041666
8361.51,0.040958
8375.02,0.040639
8388.57,0.040365
8402.16,0.040095
8415.8,0.039637
8429.49,0.03925
8443.22,0.039061
8456.99,0.038948
8470.81,0.038615
8484.67,0.03825
8498.58,0.037946
8512.54,0.037697
8526.54,0.037431
8540.58,0.037168
8554.68,0.03688
8568.82,0.036802
8583.0,0.036561
8597.24,0.036448
8611.52,0.036005
8625.85,0.035554
8640.22,0.035438
8654.65,0.035916
8669.12,0.036618
8683.64,0.037448
8698.21,0.038318
8712.83,0.039329
8727.5,0.040252
8742.22,0.041107
8756.98,0.042063
8771.8,0.043288
8786.67,0.044385
8801.59,0.045507
8816.56,0.046517
8831.58,0.047551
8846.65,0.048497
8861.77,0.049574
8876.94,0.050311
8892.17,0.051161
8907.45,0.052185
8922.78,0.053175
8938.16,0.053999
8953.6,0.05481
8969.09,0.055338
8984.64,0.055858
9000.23,0.056617
9015.89,0.057348
9031.59,0.057874
9047.36,0.058588
9063.17,0.05916
9079.04,0.059647
9094.97,0.060023
9110.96,0.060476
9127.0,0.060708
9143.09,0.060869
9159.25,0.061036
9175.46,0.061281
9191.73,0.061718
9208.05,0.061996
9224.44,0.061974
9240.88,0.062275
9257.38,0.062404
9273.94,0.062462
9290.56,0.062626
9307.24,0.062482
9323.98,0.06205
9340.78,0.061645
9357.64,0.061373
9374.57,0.061148
9391.55,0.060592
9408.59,0.060204
9425.7,0.059474
9442.87,0.058856
9460.1,0.058296
9477.39,0.057733
9494.75,0.057247
9512.17,0.056734
9529.66,0.055945
9547.21,0.055087
9564.82,0.054091
9582.5,0.05286
9600.25,0.051853
9618.06,0.051189
9635.94,0.050427
9653.88,0.049759
9671.89,0.049061
9689.97,0.048602
9708.12,0.047868
9726.33,0.047432
9744.61,0.047148
9762.97,0.046943
9781.39,0.046402
9799.88,0.046014
9818.44,0.045832
9837.07,0.045673
9855.77,0.045471
9874.54,0.045368
9893.39,0.045179
9912.3,0.045206
9931.29,0.045088
9950.35,0.044936
9969.49,0.045211
9988.7,0.045494
10007.98,0.045548
10027.34,0.045598
10046.77,0.046039
10066.28,0.046486
10085.87,0.046746
10105.53,0.04714
10125.26,0.04762
10145.08,0.048404
10164.97,0.048982
10184.94,0.049585
10204.99,0.050152
10225.12,0.050793
10245.33,0.051463
10265.61,0.052277
10285.98,0.053095
10306.43,0.053835
10326.96,0.054506
10347.57,0.055155
10368.27,0.055689
10389.05,0.056323
10409.91,0.056879
10430.85,0.057409
10451.88,0.058022
10473.0,0.058616
10494.2,0.05878
10515.49,0.058854
10536.86,0.059393
10558.32,0.059882
10579.87,0.06
10601.5,0.060169
10623.23,0.06009
10645.04,0.060001
10666.94,0.060024
10688.94,0.060104
10711.02,0.060236
10733.2,0.060469
10755.47,0.06049
10777.83,0.060555
10800.28,0.060943
10822.83,0.061181
10845.47,0.060905
10868.21,0.060874
10891.04,0.061047
10913.97,0.060944
10936.99,0.060834
10960.12,0.060817
10983.34,0.060811
11006.66,0.061023
11030.07,0.060999
11053.59,0.06116
11077.21,0.061283
11100.93,0.061072
11124.75,0.060897
11148.68,0.060969
11172.7,0.060725
11196.84,0.06005
11221.07,0.059598
11245.41,0.059547
11269.86,0.059223
11294.41,0.058838
11319.07,0.058626
11343.84,0.058487
11368.72,0.058251
11393.7,0.057676
11418.8,0.057173
11444.01,0.056608
11469.33,0.05606
11494.76,0.055545
11520.3,0.054887
11545.96,0.054443
11571.73,0.054093
11597.62,0.053486
11623.62,0.052752
11649.74,0.052189
11675.98,0.051549
11702.34,0.051088
11728.81,0.050526
11755.41,0.049782
11782.13,0.049079
11808.96,0.04842
11835.92,0.047114
11863.01,0.046048
11890.22,0.045436
11917.55,0.044927
11945.01,0.04411
11972.6,0.043346
12000.31,0.042523
12028.16,0.041827
12056.13,0.041438
12084.23,0.040838
12112.46,0.040039
12140.83,0.03938
12169.33,0.038448
12197.96,0.03756
12226.73,0.037002
12255.64,0.03619
12284.68,0.03524
12313.86,0.034607
12343.18,0.033822
12372.64,0.033276
12402.24,0.033252
12431.98,0.033364
12461.86,0.033565
12491.89,0.034341
12522.06,0.034948
12552.38,0.035144
12582.85,0.035615
12613.47,0.036166
12644.23,0.036681
12675.15,0.037224
12706.21,0.03734
12737.43,0.037421
12768.8,0.037747
12800.33,0.038697
12832.02,0.039076
12863.86,0.039791
12895.86,0.040876
12928.02,0.041951
12960.34,0.043131
12992.82,0.04422
13025.46,0.045223
13058.27,0.046173
13091.25,0.046972
13124.39,0.047948
13157.7,0.048628
13191.18,0.049134
13224.83,0.049694
13258.66,0.050168
13292.65,0.050534
13326.83,0.050676
13361.17,0.050655
13395.7,0.050879
13430.4,0.051026
13465.29,0.051271
13500.35,0.05126
13535.6,0.05091
13571.03,0.050995
13606.65,0.051055
13642.46,0.05068
13678.46,0.050595
13714.64,0.050628
13751.02,0.05064
13787.59,0.050605
13824.36,0.050517
13861.32,0.050335
13898.48,0.050246
13935.85,0.050075
13973.41,0.04963
14011.17,0.048717
14049.15,0.047947
14087.32,0.047653
14125.71,0.047113
14164.3,0.04573
14203.11,0.04456
14242.13,0.043466
14281.36,0.042209
14320.81,0.040609
14360.48,0.039279
14400.38,0.03833
14440.49,0.038139
14480.82,0.038209
14521.39,0.037814
14562.18,0.037407
14603.2,0.037033
14644.45,0.036796
14685.93,0.036288
14727.66,0.035739
14769.62,0.035791
14811.81,0.035306
14854.25,0.034975
14896.94,0.035294
14939.87,0.035922
14983.05,0.036073
15026.48,0.036423
15070.16,0.03723
15114.1,0.03779
15158.29,0.037932
15202.74,0.038321
15247.46,0.038499
15292.43,0.038593
15337.68,0.038674
15383.19,0.038403
15428.97,0.038301
15475.03,0.038579
15521.36,0.038163
15567.97,0.037763
15614.86,0.037473
15662.04,0.036895
15709.5,0.036718
15757.25,0.03634
15805.29,0.03543
15853.62,0.035105
15902.25,0.034736
15951.18,0.034322
16000.42,0.033187
16049.95,0.032025
16099.8,0.031439
16149.95,0.030895
16200.42,0.030478
16251.21,0.02996
16302.31,0.029064
16353.74,0.028398
16405.49,0.027653
16457.57,0.02744
16509.98,0.027464
16562.73,0.027049
16615.82,0.026633
16669.24,0.025603
16723.02,0.024319
16777.13,0.023776
16831.61,0.023148
16886.43,0.022628
16941.62,0.021996
16997.16,0.021529
17053.07,0.020706
17109.36,0.019629
17166.01,0.019101
17223.04,0.018995
17280.45,0.018451
17338.24,0.018458
17396.43,0.018066
17455.0,0.017292
17513.97,0.017081
17573.34,0.017367
17633.11,0.017562
17693.29,0.018215
17753.89,0.018903
17814.9,0.019977
17876.33,0.020789
17938.18,0.022039
18000.47,0.023369
18063.19,0.024581
18126.35,0.025872
18189.95,0.027653
18254.0,0.029565
18318.5,0.031376
18383.46,0.033753
18448.88,0.036508
18514.77,0.039209
18581.13,0.042017
18647.97,0.044493
18715.29,0.047019
18783.1,0.048673
18851.4,0.050933
18920.2,0.05254
18989.51,0.054159
19059.32,0.056776
19129.65,0.058534
19200.5,0.058834
19271.88,0.059695
19343.79,0.061215
19416.23,0.062057
19489.23,0.062656
19562.77,0.063964
19636.88,0.064897
19711.54,0.065485
19786.77,0.065397
19862.59,0.065847
19938.98,0.066901
20015.96,0.067572
20093.54,0.067015
20171.73,0.066247
20250.53,0.065852
20329.94,0.065955
20409.98,0.066567
20490.65,0.067004
20571.96,0.066216
20653.92,0.065744
20736.54,0.065253
20819.82,0.065915
20903.77,0.067087
20988.4,0.067664
21073.72,0.06805
21159.73,0.068713
21246.46,0.06935
21333.89,0.070344
21422.04,0.071051
21510.93,0.070525
21600.56,0.069374
21690.94,0.069761
21782.08,0.069927
21873.99,0.06851
21966.67,0.066635
22060.15,0.067314
22154.42,0.06777
22249.51,0.067273
22345.41,0.067359
22442.14,0.066984
22539.72,0.06474
22638.14,0.063764
22737.43,0.064561
22837.6,0.064059
22938.65,0.062798
23040.6,0.061755
23143.46,0.062269
23247.24,0.06454
23351.96,0.063568
23457.62,0.061609
23564.25,0.06047
23671.85,0.059965
23780.44,0.06083
23890.02,0.060985
24000.63,0.060638
24112.26,0.060771
24224.93,0.062229
24338.66,0.062812
24453.47,0.061563
24569.36,0.061658
24686.36,0.06007
24804.47,0.06015
24923.72,0.062844
25044.13,0.065456
25165.7,0.065979
25288.46,0.065817
25412.43,0.066164
25537.61,0.06753
25664.03,0.069368
25791.71,0.067877
25920.67,0.065245
