Database of Origin,University of Winnipeg Spectrophotometer Facility
Sample Description,Carbonates and Oxolates - RELAB+Nicolet spectra Newly merged spectra (merged by RELAB)
Other Information,dry sieved
Date Added,2018-08-06 20:49:01.881247

Data ID,RLA_CARB_1_4        
Sample ID,CRB102
Mineral Name,Aragonite
Locality,Washington County/ Utah/ USA
Grain Size,45-90 um
Viewing Geometry,30/0/30
Resolution,5/ 0.6-129 nm
Formula,CaCO3
Composition,orthorhombic - aragonite group

Wavelength
305.0,0.561106
310.0,0.576666
315.0,0.585878
320.0,0.600909
325.0,0.607651
330.0,0.617187
335.0,0.626765
340.0,0.632796
345.0,0.640077
350.0,0.644659
355.0,0.651236
360.0,0.656464
365.0,0.662984
370.0,0.666899
375.0,0.671945
380.0,0.676213
385.0,0.679363
390.0,0.683896
395.0,0.686995
400.0,0.692004
405.0,0.695366
410.0,0.695841
415.0,0.699341
420.0,0.702208
425.0,0.706647
430.0,0.708923
435.0,0.711588
440.0,0.714939
445.0,0.718126
450.0,0.720266
455.0,0.724108
460.0,0.725912
465.0,0.72763
470.0,0.729016
475.0,0.732414
480.0,0.732918
485.0,0.736379
490.0,0.737634
495.0,0.740183
500.0,0.740601
505.0,0.743093
510.0,0.743668
515.0,0.746326
520.0,0.746659
525.0,0.749212
530.0,0.749723
535.0,0.752818
540.0,0.753274
545.0,0.754961
550.0,0.755425
555.0,0.757951
560.0,0.757579
565.0,0.759639
570.0,0.76046
575.0,0.761548
580.0,0.761504
585.0,0.762667
590.0,0.762002
595.0,0.762859
600.0,0.762446
605.0,0.763352
610.0,0.762292
615.0,0.762969
620.0,0.762903
625.0,0.763277
630.0,0.762234
635.0,0.762526
640.0,0.761869
645.0,0.762645
650.0,0.761857
655.0,0.762131
660.0,0.761559
665.0,0.761895
670.0,0.761081
675.0,0.762471
680.0,0.760282
685.0,0.762083
690.0,0.760587
695.0,0.761459
700.0,0.761073
705.0,0.760328
710.0,0.759877
715.0,0.760566
720.0,0.760118
725.0,0.761356
730.0,0.760014
735.0,0.760337
740.0,0.760185
745.0,0.760691
750.0,0.760389
755.0,0.760697
760.0,0.760048
765.0,0.760049
770.0,0.759238
775.0,0.759735
780.0,0.760075
785.0,0.759594
790.0,0.759408
795.0,0.759963
800.0,0.76017
805.0,0.759297
810.0,0.75993
815.0,0.759686
820.0,0.760033
825.0,0.76038
830.0,0.759457
835.0,0.758705
840.0,0.759929
845.0,0.760307
850.0,0.760022
855.0,0.760552
860.0,0.760647
865.0,0.76078
870.0,0.759616
875.0,0.760551
880.0,0.76003
885.0,0.76197
890.0,0.760577
895.0,0.761194
900.0,0.760529
905.0,0.760965
910.0,0.761053
915.0,0.761454
920.0,0.761217
925.0,0.761371
930.0,0.762384
935.0,0.761693
940.0,0.760871
945.0,0.76245
950.0,0.761507
955.0,0.761057
960.0,0.761524
965.0,0.761058
970.0,0.760411
975.0,0.761452
980.0,0.76071
985.0,0.761761
990.0,0.761181
995.0,0.760873
1000.0,0.760164
1005.0,0.761576
1010.0,0.76063
1015.0,0.76157
1020.0,0.761152
1025.0,0.761552
1030.0,0.761528
1035.0,0.761694
1040.0,0.761087
1045.0,0.762307
1050.0,0.761196
1055.0,0.761929
1060.0,0.761883
1065.0,0.761877
1070.0,0.7617
1075.0,0.761519
1080.0,0.762208
1085.0,0.76222
1090.0,0.761985
1095.0,0.762628
1100.0,0.761475
1105.0,0.761641
1110.0,0.761842
1115.0,0.761881
1120.0,0.76156
1125.0,0.762007
1130.0,0.761699
1135.0,0.761561
1140.0,0.76114
1145.0,0.760607
1150.0,0.760391
1155.0,0.759634
1160.0,0.760063
1165.0,0.759977
1170.0,0.759674
1175.0,0.760476
1180.0,0.75951
1185.0,0.760282
1190.0,0.759623
1195.0,0.759759
1200.0,0.758827
1205.0,0.759256
1210.0,0.75893
1215.0,0.758588
1220.0,0.757933
1225.0,0.758243
1230.0,0.75895
1235.0,0.758545
1240.0,0.758627
1245.0,0.758758
1250.0,0.758248
1255.0,0.758706
1260.0,0.75812
1265.0,0.758572
1270.0,0.757789
1275.0,0.758025
1280.0,0.756962
1285.0,0.756773
1290.0,0.756312
1295.0,0.756319
1300.0,0.75558
1305.0,0.755654
1310.0,0.755031
1315.0,0.754728
1320.0,0.754156
1325.0,0.753816
1330.0,0.75335
1335.0,0.753913
1340.0,0.752781
1345.0,0.751748
1350.0,0.750596
1355.0,0.75002
1360.0,0.749297
1365.0,0.74786
1370.0,0.747465
1375.0,0.746591
1380.0,0.745443
1385.0,0.742384
1420.0,0.712098
1425.0,0.708373
1430.0,0.704721
1435.0,0.703228
1440.0,0.700775
1445.0,0.700474
1450.0,0.698762
1455.0,0.698704
1460.0,0.697615
1465.0,0.698279
1470.0,0.698368
1475.0,0.698847
1480.0,0.699905
1485.0,0.701432
1490.0,0.70188
1495.0,0.70424
1500.0,0.704506
1505.0,0.706511
1510.0,0.70717
1515.0,0.709866
1520.0,0.710834
1525.0,0.713222
1530.0,0.713273
1535.0,0.716139
1540.0,0.717362
1545.0,0.718401
1550.0,0.718988
1555.0,0.719948
1560.0,0.719971
1565.0,0.721978
1570.0,0.721844
1575.0,0.722817
1580.0,0.723276
1585.0,0.724548
1590.0,0.724887
1595.0,0.72473
1600.0,0.724758
1605.0,0.725725
1610.0,0.725275
1615.0,0.72621
1620.0,0.726458
1625.0,0.725465
1630.0,0.724975
1635.0,0.725222
1640.0,0.724777
1645.0,0.725568
1650.0,0.724039
1655.0,0.724844
1660.0,0.724528
1665.0,0.724492
1670.0,0.724643
1675.0,0.724737
1680.0,0.72459
1685.0,0.724124
1690.0,0.722244
1695.0,0.722661
1700.0,0.722751
1705.31,0.722367
1709.81,0.722078
1715.46,0.721647
1720.02,0.721296
1724.6,0.720984
1730.35,0.72034
1734.98,0.719965
1739.64,0.719665
1745.5,0.719292
1750.21,0.718727
1754.95,0.718195
1759.72,0.718164
1764.51,0.717864
1770.54,0.717534
1775.39,0.717511
1780.27,0.717013
1785.17,0.716928
1790.1,0.716647
1795.06,0.716519
1800.05,0.716173
1805.06,0.71546
1810.1,0.715179
1815.17,0.714752
1820.27,0.714111
1825.4,0.71355
1830.56,0.71283
1834.44,0.712258
1839.65,0.711126
1844.89,0.709941
1850.16,0.708485
1855.45,0.706728
1859.45,0.705017
1864.8,0.702112
1870.18,0.697748
1875.59,0.692842
1879.67,0.68846
1885.14,0.681435
1890.64,0.672268
1894.79,0.66356
1900.34,0.650467
1904.53,0.640747
1910.15,0.628867
1914.38,0.620893
1920.05,0.613151
1924.33,0.608722
1930.06,0.604678
1934.38,0.602832
1940.17,0.601608
1944.54,0.60144
1950.39,0.602381
1954.8,0.603335
1960.72,0.605377
1965.18,0.607245
1969.66,0.609138
1975.66,0.611555
1980.19,0.613274
1984.74,0.614784
1989.31,0.616228
1995.43,0.618739
2000.05,0.621161
2004.69,0.624037
2009.35,0.627142
2015.6,0.630474
2020.32,0.633101
2025.05,0.635179
2029.81,0.637642
2034.59,0.639827
2039.39,0.641715
2044.22,0.643485
2050.69,0.645909
2055.57,0.647799
2060.47,0.649546
2065.39,0.651028
2070.34,0.652838
2075.31,0.65448
2080.31,0.655879
2085.33,0.657349
2090.38,0.658589
2095.45,0.659822
2100.54,0.661324
2105.66,0.66243
2110.8,0.66377
2114.25,0.664523
2119.43,0.665654
2124.65,0.666373
2129.88,0.667158
2135.15,0.667508
2140.44,0.667714
2145.75,0.667155
2149.31,0.667377
2154.67,0.668076
2160.06,0.668898
2165.47,0.669372
2170.91,0.670498
2174.55,0.671398
2180.04,0.672172
2185.55,0.673068
2189.25,0.673316
2194.81,0.673242
2200.4,0.672947
2204.14,0.672163
2209.78,0.671434
2215.44,0.670033
2219.24,0.668916
2224.95,0.667247
2230.7,0.664704
2234.54,0.663029
2240.33,0.659543
2244.21,0.657215
2250.06,0.653193
2255.93,0.648708
2259.87,0.645487
2265.79,0.640211
2269.76,0.636064
2275.74,0.629658
2279.74,0.62493
2285.77,0.617237
2289.81,0.61269
2295.9,0.606812
2299.97,0.60281
2304.06,0.599926
2310.22,0.595984
2314.35,0.592919
2320.56,0.587308
2324.72,0.583936
2331.0,0.578397
2335.2,0.575294
2339.41,0.574186
2345.76,0.575944
2350.02,0.579383
2354.28,0.585661
2360.72,0.597555
2365.03,0.604899
2369.35,0.610032
2375.86,0.614415
2380.23,0.615586
2384.61,0.615302
2389.0,0.614053
2395.63,0.610905
2400.06,0.608262
2404.52,0.605348
2408.98,0.602003
2415.72,0.596496
2420.23,0.592331
2424.76,0.587724
2429.3,0.582256
2433.87,0.576594
2440.74,0.567487
2445.35,0.561141
2449.97,0.554275
2454.61,0.547324
2459.27,0.540319
2463.94,0.533344
2470.99,0.522389
2475.71,0.514836
2480.45,0.507474
2485.2,0.500854
2489.98,0.494633
2494.77,0.488728
2499.58,0.483479
2504.41,0.47742
2509.26,0.471311
2514.13,0.466234
2519.02,0.460188
2523.92,0.45346
2528.85,0.449767
2533.79,0.448943
2541.24,0.454549
2543.74,0.45889
2548.74,0.47079
2553.76,0.485197
2556.28,0.492061
2558.8,0.498289
2561.33,0.503425
2563.86,0.507713
2566.4,0.511637
2568.95,0.514977
2571.5,0.518166
2574.05,0.521137
2576.61,0.523977
2579.17,0.526661
2581.74,0.529098
2584.31,0.530886
2586.89,0.532403
2589.48,0.533464
2592.07,0.533945
2594.66,0.53388
2597.26,0.533565
2599.87,0.533757
2602.48,0.533641
2605.09,0.532682
2607.71,0.531809
2610.34,0.531335
2612.97,0.530423
2615.61,0.529145
2618.25,0.527809
2620.9,0.526323
2623.55,0.524886
2626.21,0.523427
2628.87,0.521519
2631.54,0.519647
2634.22,0.517781
2636.89,0.516023
2639.58,0.514242
2642.27,0.511898
2644.97,0.50938
2647.67,0.506667
2650.38,0.503803
2653.09,0.500869
2655.81,0.498047
2658.53,0.494997
2661.26,0.491594
2664.0,0.487921
2666.74,0.483694
2669.48,0.479377
2672.23,0.474948
2674.99,0.470303
2677.76,0.465296
2680.52,0.459411
2683.3,0.453107
2686.08,0.446395
2688.87,0.43893
2691.66,0.430576
2694.46,0.421612
2697.26,0.411776
2700.07,0.401795
2702.89,0.391653
2705.71,0.381042
2708.53,0.369663
2711.37,0.358212
2714.21,0.346028
2717.05,0.333589
2719.9,0.32119
2722.76,0.308463
2725.62,0.295156
2728.49,0.281928
2731.37,0.268627
2734.25,0.255607
2737.14,0.242581
2740.03,0.230587
2742.93,0.219162
2745.83,0.208355
2748.75,0.198112
2751.66,0.188306
2754.59,0.179545
2757.52,0.171394
2760.46,0.163453
2763.4,0.156321
2766.35,0.149877
2769.3,0.143931
2772.26,0.138216
2775.23,0.132844
2778.21,0.127658
2781.19,0.123035
2784.18,0.118788
2787.17,0.115238
2790.17,0.111855
2793.18,0.108881
2796.19,0.10641
2799.21,0.103762
2802.24,0.100926
2805.27,0.098665
2808.31,0.096764
2811.35,0.094489
2814.41,0.09236
2817.46,0.090626
2820.53,0.088993
2823.6,0.087295
2826.68,0.085652
2829.77,0.084026
2832.86,0.082658
2835.96,0.081534
2839.07,0.080247
2842.18,0.07888
2845.3,0.077832
2848.43,0.076907
2851.56,0.075944
2854.7,0.075229
2857.85,0.074503
2861.0,0.073591
2864.16,0.072831
2867.33,0.072306
2870.51,0.07181
2873.69,0.071261
2876.88,0.070829
2880.07,0.070579
2883.28,0.070112
2886.49,0.069728
2889.71,0.069353
2892.93,0.068986
2896.17,0.0686
2899.4,0.068381
2902.65,0.068052
2905.91,0.067672
2909.17,0.067406
2912.44,0.067266
2915.71,0.066982
2918.99,0.066644
2922.29,0.066493
2925.58,0.066441
2928.89,0.066432
2932.2,0.066392
2935.52,0.066224
2938.85,0.06603
2942.19,0.065938
2945.53,0.065889
2948.88,0.065753
2952.24,0.06574
2955.61,0.065831
2958.98,0.06563
2962.36,0.065731
2965.75,0.065804
2969.15,0.066052
2972.55,0.066052
2975.97,0.065885
2979.39,0.065809
2986.25,0.066287
2989.7,0.066459
2993.15,0.06658
2996.61,0.066877
3000.08,0.067053
3003.55,0.067362
3007.04,0.06748
3010.53,0.067438
3014.03,0.067491
3017.54,0.067795
3021.06,0.067923
3024.58,0.067813
3028.12,0.067862
3031.66,0.068148
3035.21,0.068392
3038.77,0.068676
3042.33,0.068839
3045.91,0.069227
3049.49,0.069429
3053.08,0.069357
3056.68,0.06942
3060.29,0.069442
3063.91,0.069437
3067.54,0.069853
3071.17,0.070132
3074.81,0.070555
3078.47,0.070861
3082.13,0.070823
3085.79,0.070957
3089.47,0.071276
3093.16,0.071395
3096.85,0.071732
3100.56,0.072029
3104.27,0.072239
3107.99,0.072666
3111.73,0.072941
3115.47,0.07331
3119.21,0.073575
3122.97,0.073658
3126.74,0.074161
3130.52,0.074818
3134.3,0.075294
3138.1,0.075812
3141.9,0.076603
3145.71,0.077014
3149.54,0.077492
3153.37,0.078116
3157.21,0.078719
3161.06,0.07934
3164.92,0.079876
3168.79,0.080629
3172.67,0.081304
3176.55,0.081744
3180.45,0.082088
3184.36,0.082792
3188.27,0.083974
3192.2,0.084781
3196.14,0.085007
3200.08,0.085641
3204.04,0.086443
3208.0,0.087082
3211.98,0.08801
3215.96,0.088984
3219.96,0.089558
3223.96,0.090056
3227.98,0.090814
3232.0,0.091792
3236.04,0.092789
3240.08,0.093345
3244.14,0.093857
3248.2,0.094693
3252.28,0.095539
3256.37,0.096107
3260.46,0.097094
3264.57,0.098113
3268.69,0.09902
3272.81,0.099619
3276.95,0.100066
3281.1,0.100551
3285.26,0.100978
3289.43,0.100781
3293.61,0.100886
3297.8,0.101036
3302.0,0.100993
3306.21,0.100438
3310.43,0.10015
3314.66,0.099753
3318.91,0.098834
3323.16,0.097264
3327.43,0.094894
3331.71,0.091625
3335.99,0.087236
3340.29,0.082229
3344.6,0.077601
3348.92,0.074671
3353.26,0.07358
3357.6,0.07407
3361.96,0.075854
3366.32,0.077213
3370.7,0.078573
3375.09,0.079135
3379.49,0.07967
3383.9,0.080327
3388.32,0.080669
3392.76,0.080681
3397.21,0.080114
3401.66,0.079733
3406.13,0.079304
3410.61,0.078633
3415.11,0.077562
3419.61,0.076566
3424.13,0.075429
3428.66,0.074564
3433.2,0.075085
3437.76,0.078054
3442.32,0.082651
3446.9,0.086095
3451.49,0.087859
3456.09,0.089751
3460.7,0.092701
3465.33,0.095541
3469.97,0.097269
3474.62,0.098951
3479.29,0.100228
3483.96,0.101299
3488.65,0.102372
3493.35,0.102707
3498.07,0.102392
3502.79,0.101468
3507.53,0.100489
3512.29,0.103705
3517.05,0.112732
3521.83,0.126931
3526.62,0.141994
3531.43,0.155856
3536.24,0.168019
3541.08,0.178342
3543.5,0.183029
3545.92,0.187304
3548.35,0.191171
3550.78,0.194852
3553.21,0.198555
3555.65,0.202081
3558.09,0.205372
3560.53,0.208542
3562.98,0.211513
3565.43,0.214516
3567.88,0.217256
3570.34,0.219714
3572.8,0.222445
3575.27,0.225384
3577.73,0.228363
3580.2,0.231271
3582.68,0.234009
3585.16,0.236818
3587.64,0.239556
3590.12,0.242447
3592.61,0.245111
3595.1,0.247481
3597.6,0.24972
3600.09,0.251944
3602.6,0.253946
3605.1,0.255798
3607.61,0.257848
3610.12,0.260143
3612.64,0.26236
3615.16,0.26442
3617.68,0.266288
3620.21,0.268353
3622.74,0.270221
3625.27,0.271828
3627.81,0.273704
3630.35,0.275327
3632.89,0.277021
3635.44,0.278684
3637.99,0.280191
3640.54,0.281555
3643.1,0.283087
3645.66,0.284791
3648.23,0.286334
3650.8,0.287725
3653.37,0.288978
3655.95,0.290306
3658.53,0.291503
3661.11,0.292635
3663.7,0.293888
3666.29,0.29508
3668.89,0.296246
3671.48,0.297239
3674.09,0.298117
3676.69,0.299105
3679.3,0.30029
3681.91,0.301371
3684.53,0.302152
3687.15,0.302869
3689.78,0.303652
3692.4,0.304265
3695.04,0.304885
3697.67,0.305547
3700.31,0.306121
3702.95,0.30663
3705.6,0.307068
3708.25,0.307214
3710.91,0.30719
3713.56,0.307328
3716.23,0.30726
3718.89,0.307199
3721.56,0.307127
3724.23,0.306741
3726.91,0.30623
3729.59,0.305612
3732.28,0.304786
3734.97,0.303712
3737.66,0.302326
3740.36,0.300666
3743.06,0.298693
3745.76,0.296381
3748.47,0.293355
3751.18,0.289342
3753.9,0.284488
3756.62,0.278812
3759.34,0.272228
3762.07,0.264832
3764.8,0.256723
3767.54,0.248162
3770.28,0.239929
3773.02,0.232456
3775.77,0.225789
3778.52,0.21959
3781.28,0.213338
3784.04,0.206836
3786.8,0.200276
3789.57,0.193255
3792.34,0.185603
3795.12,0.178005
3797.9,0.170939
3800.69,0.164468
3803.47,0.1588
3806.27,0.153808
3809.06,0.149228
3811.86,0.145307
3814.67,0.141992
3817.48,0.13889
3820.29,0.13588
3823.11,0.133302
3825.93,0.130963
3828.76,0.128763
3831.59,0.126802
3834.42,0.125176
3837.26,0.123778
3840.1,0.122612
3842.95,0.121546
3845.8,0.120843
3848.65,0.120191
3851.51,0.119285
3854.38,0.118408
3857.24,0.117463
3860.12,0.116241
3862.99,0.114981
3865.87,0.113731
3868.76,0.11225
3871.65,0.110835
3874.54,0.109654
3877.44,0.108443
3880.34,0.107166
3883.25,0.105734
3886.16,0.104103
3889.07,0.10213
3891.99,0.100056
3894.92,0.097974
3897.85,0.095769
3900.78,0.093588
3903.72,0.091533
3906.66,0.089759
3909.6,0.088116
3912.55,0.086267
3915.51,0.084306
3918.47,0.08205
3921.43,0.079268
3924.4,0.076263
3927.38,0.073811
3930.35,0.072429
3933.33,0.072211
3936.32,0.072866
3939.31,0.073239
3942.31,0.072444
3945.31,0.070306
3948.31,0.067476
3951.32,0.064592
3954.34,0.061844
3957.35,0.059607
3960.38,0.058185
3963.41,0.057504
3966.44,0.057007
3969.48,0.056673
3972.52,0.056932
3975.56,0.057632
3978.61,0.059079
3981.67,0.061103
3984.73,0.062939
3987.8,0.064146
3990.87,0.064667
3993.94,0.06474
3997.02,0.064546
4000.1,0.064587
4003.19,0.065157
4006.29,0.066012
4009.39,0.067425
4012.49,0.069371
4015.6,0.071903
4018.71,0.075044
4021.83,0.078589
4024.95,0.082779
4028.08,0.087539
4031.21,0.093328
4034.35,0.10031
4037.49,0.10878
4040.64,0.119055
4043.79,0.130922
4046.94,0.143172
4050.11,0.154971
4053.27,0.166388
4056.44,0.17771
4059.62,0.188457
4062.8,0.198614
4065.99,0.20869
4069.18,0.218662
4072.38,0.228244
4075.58,0.237135
4078.78,0.245375
4082.0,0.25288
4085.21,0.259469
4088.43,0.265518
4091.66,0.271275
4094.89,0.276459
4098.13,0.281218
4101.37,0.285694
4104.62,0.289863
4107.87,0.293835
4111.13,0.297564
4114.39,0.301143
4117.66,0.304587
4120.93,0.30797
4124.21,0.311198
4127.5,0.314273
4130.79,0.317397
4134.08,0.320368
4137.38,0.323055
4140.68,0.325428
4143.99,0.327691
4147.31,0.329744
4150.63,0.331549
4153.95,0.333248
4157.29,0.334731
4160.62,0.336098
4163.96,0.337317
4167.31,0.338323
4170.66,0.339282
4174.02,0.340055
4177.39,0.340584
4180.75,0.340981
4184.13,0.341315
4187.51,0.341601
4190.89,0.341785
4194.28,0.3418
4197.68,0.341735
4201.08,0.341761
4204.49,0.341928
4207.9,0.342021
4211.32,0.341851
4214.74,0.341601
4218.17,0.34155
4221.61,0.341941
4225.05,0.342677
4228.5,0.343341
4231.95,0.343891
4235.4,0.344093
4238.87,0.343741
4242.34,0.342716
4245.81,0.340862
4249.29,0.338395
4252.78,0.335851
4256.27,0.333415
4259.77,0.33138
4263.27,0.330645
4266.78,0.33222
4270.29,0.335412
4273.81,0.338422
4277.34,0.339835
4280.87,0.339883
4284.41,0.339481
4287.95,0.339176
4291.5,0.338795
4295.06,0.338184
4298.62,0.337268
4302.19,0.336398
4305.76,0.335519
4309.34,0.334889
4312.92,0.334797
4316.52,0.335318
4320.11,0.336275
4323.72,0.337479
4327.32,0.338337
4330.94,0.338781
4334.56,0.338957
4338.19,0.339195
4341.82,0.339757
4345.46,0.340928
4349.11,0.342905
4352.76,0.345493
4356.42,0.348246
4360.08,0.350812
4363.75,0.35272
4367.43,0.353953
4371.11,0.3547
4374.8,0.355075
4378.49,0.355204
4382.19,0.355184
4385.9,0.354964
4389.61,0.354651
4393.33,0.354067
4397.06,0.353519
4400.79,0.352981
4404.53,0.352162
4408.28,0.351002
4412.03,0.349727
4415.79,0.348544
4419.55,0.347265
4423.32,0.345767
4427.1,0.344243
4430.88,0.34275
4434.68,0.341388
4438.47,0.340087
4442.28,0.3388
4446.08,0.337554
4449.9,0.336413
4453.72,0.335235
4457.55,0.334169
4461.39,0.333151
4465.23,0.332211
4469.08,0.331142
4472.94,0.329996
4476.8,0.328724
4480.67,0.327497
4484.55,0.326368
4488.43,0.325278
4492.32,0.323998
4496.21,0.322626
4500.12,0.321374
4504.03,0.320196
4507.94,0.31895
4511.87,0.317743
4515.8,0.316575
4519.73,0.315478
4523.68,0.314404
4527.63,0.313207
4531.59,0.311867
4535.55,0.310408
4539.52,0.308724
4543.5,0.307071
4547.49,0.305452
4551.48,0.303933
4555.48,0.302597
4559.49,0.301177
4563.5,0.299573
4567.52,0.297915
4571.55,0.29618
4575.58,0.294324
4579.63,0.292305
4583.67,0.29004
4587.73,0.287602
4591.79,0.285178
4595.86,0.283179
4599.94,0.281679
4604.03,0.280012
4608.12,0.277743
4612.22,0.274753
4616.33,0.271217
4620.44,0.267325
4624.56,0.2633
4628.69,0.258996
4632.83,0.254411
4636.97,0.249582
4641.12,0.244589
4645.28,0.239551
4649.45,0.235383
4653.62,0.233849
4657.8,0.234891
4661.99,0.237278
4666.19,0.239917
4670.39,0.241718
4674.6,0.242459
4678.82,0.242648
4683.05,0.243259
4687.28,0.244883
4691.52,0.247483
4695.77,0.250733
4700.03,0.254421
4704.3,0.25826
4708.57,0.262469
4712.85,0.266787
4717.14,0.27121
4721.43,0.275652
4725.74,0.280198
4730.05,0.285009
4734.37,0.290064
4738.7,0.295247
4743.03,0.300552
4747.38,0.305627
4751.73,0.310374
4756.09,0.314767
4760.45,0.318921
4764.83,0.322748
4769.21,0.326121
4773.6,0.328748
4778.0,0.330951
4782.41,0.332763
4786.83,0.334285
4791.25,0.335584
4795.68,0.336667
4800.13,0.337431
4804.57,0.338158
4809.03,0.338807
4813.5,0.339214
4817.97,0.339466
4822.45,0.339731
4826.94,0.339852
4831.44,0.340113
4835.95,0.340315
4840.46,0.340361
4844.99,0.340356
4849.52,0.340499
4854.06,0.340542
4858.61,0.340634
4863.17,0.340707
4867.73,0.340734
4872.31,0.340768
4876.89,0.34092
4881.48,0.340935
4886.08,0.340945
4890.69,0.340925
4895.31,0.340862
4899.94,0.340852
4904.57,0.340886
4909.22,0.340802
4913.87,0.340705
4918.53,0.34062
4923.21,0.340569
4927.88,0.340443
4932.57,0.340378
4937.27,0.340305
4941.98,0.340215
4946.69,0.340019
4951.42,0.339936
4956.15,0.339864
4960.9,0.339684
4965.65,0.3396
4970.41,0.339617
4975.18,0.339534
4979.96,0.339428
4984.75,0.339229
4989.54,0.339074
4994.35,0.338945
4999.17,0.338776
5003.99,0.338555
5008.83,0.338315
5013.67,0.33801
5018.52,0.337736
5023.39,0.337322
5028.26,0.336941
5033.14,0.336345
5038.03,0.335623
5042.93,0.334886
5047.84,0.33414
5052.76,0.333534
5057.69,0.333088
5062.63,0.332555
5067.58,0.331913
5072.54,0.330977
5077.51,0.329652
5082.49,0.327616
5087.47,0.324253
5092.47,0.319074
5097.48,0.312809
5102.5,0.308561
5107.52,0.308862
5112.56,0.312315
5117.61,0.316328
5122.66,0.319246
5127.73,0.320918
5132.81,0.321483
5137.89,0.321575
5142.99,0.321313
5148.1,0.32085
5153.22,0.320118
5158.34,0.319323
5163.48,0.318347
5168.63,0.317293
5173.79,0.316282
5178.96,0.315475
5184.13,0.314758
5189.32,0.314094
5194.52,0.313212
5199.73,0.312165
5204.96,0.310784
5210.19,0.309371
5215.43,0.307938
5220.68,0.306632
5225.94,0.305275
5231.22,0.303858
5236.5,0.302275
5241.79,0.30077
5247.1,0.299285
5252.42,0.297724
5257.74,0.296054
5263.08,0.294511
5268.43,0.292846
5273.79,0.291145
5279.16,0.28946
5284.54,0.287703
5289.93,0.285903
5295.34,0.283988
5300.75,0.281904
5306.18,0.279837
5311.61,0.277685
5317.06,0.275344
5322.52,0.272897
5327.99,0.270284
5333.47,0.267592
5338.96,0.264919
5344.47,0.262057
5349.98,0.259021
5355.51,0.255887
5361.05,0.252671
5366.6,0.249351
5372.16,0.246
5377.73,0.242452
5383.32,0.238781
5388.91,0.23509
5394.52,0.231293
5400.14,0.227379
5405.77,0.223467
5411.41,0.219311
5417.07,0.215083
5422.74,0.2109
5428.41,0.206526
5434.1,0.20182
5439.81,0.197186
5445.52,0.192526
5451.25,0.187561
5456.98,0.18236
5462.73,0.177164
5468.5,0.171734
5474.27,0.166027
5480.06,0.160138
5485.86,0.153922
5491.67,0.147328
5497.49,0.140419
5503.33,0.132982
5509.18,0.124927
5515.04,0.116215
5520.91,0.106756
5526.8,0.096634
5532.69,0.086192
5538.61,0.076006
5544.53,0.066463
5550.47,0.057199
5556.41,0.047486
5562.38,0.038912
5568.35,0.033677
5574.34,0.03121
5580.34,0.029618
5586.35,0.028043
5592.38,0.026509
5598.42,0.026005
5604.47,0.026788
5610.54,0.028113
5616.61,0.029541
5622.71,0.031368
5628.81,0.033908
5634.93,0.038008
5641.06,0.044006
5647.21,0.050803
5653.36,0.05606
5659.54,0.059057
5665.72,0.060623
5671.92,0.061325
5678.13,0.061386
5684.36,0.060904
5690.6,0.059959
5696.85,0.058771
5703.12,0.057497
5709.4,0.056147
5715.69,0.05479
5722.0,0.053202
5728.33,0.051794
5734.66,0.050961
5741.01,0.049865
5747.38,0.048537
5753.76,0.047236
5760.15,0.04599
5766.56,0.044934
5772.98,0.043911
5779.41,0.042772
5785.86,0.041786
5792.33,0.040804
5798.81,0.039716
5805.3,0.038672
5811.81,0.037659
5818.33,0.03661
5824.87,0.035633
5831.42,0.034773
5837.99,0.034157
5844.57,0.033605
5851.17,0.033047
5857.78,0.03241
5864.41,0.031911
5871.05,0.031341
5877.7,0.03068
5884.38,0.029972
5891.06,0.029238
5897.76,0.028501
5904.48,0.027832
5911.21,0.027115
5917.96,0.026495
5924.73,0.025828
5931.5,0.025077
5938.3,0.024398
5945.11,0.023797
5951.93,0.023104
5958.78,0.022494
5965.63,0.022011
5972.51,0.021532
5979.39,0.020933
5986.3,0.020407
5993.22,0.019964
6000.16,0.019576
6007.11,0.019193
6014.08,0.018888
6021.06,0.018674
6028.06,0.018599
6035.08,0.018473
6042.12,0.018304
6049.17,0.018192
6056.23,0.01809
6063.32,0.017981
6070.42,0.018146
6077.53,0.018267
6084.67,0.018316
6091.82,0.018454
6098.98,0.018728
6106.17,0.019009
6113.37,0.019401
6120.58,0.019772
6127.82,0.020356
6135.07,0.021074
6142.34,0.021878
6149.63,0.02291
6156.93,0.024154
6164.25,0.025532
6171.59,0.027285
6178.95,0.029361
6186.32,0.031799
6193.71,0.034576
6201.12,0.037724
6208.54,0.041214
6215.99,0.045276
6223.45,0.049701
6230.93,0.054802
6238.43,0.060603
6245.95,0.067028
6253.48,0.073837
6261.03,0.081013
6268.6,0.088482
6276.19,0.096147
6283.8,0.103773
6291.43,0.111288
6299.07,0.118546
6306.73,0.125617
6314.42,0.132369
6322.12,0.138437
6329.84,0.143487
6337.57,0.147725
6345.33,0.151397
6353.11,0.154744
6360.9,0.157693
6368.72,0.160322
6376.55,0.162678
6384.4,0.165035
6392.27,0.167604
6400.17,0.170721
6408.08,0.174201
6416.01,0.177964
6423.96,0.18166
6431.93,0.184694
6439.92,0.187027
6447.93,0.188811
6455.96,0.189763
6464.01,0.189746
6472.08,0.188746
6480.17,0.187064
6488.28,0.184939
6496.41,0.182794
6504.56,0.180504
6512.73,0.17817
6520.92,0.176069
6529.14,0.174041
6537.37,0.172
6545.63,0.170054
6553.9,0.16813
6562.2,0.166288
6570.51,0.164345
6578.85,0.16253
6587.21,0.160766
6595.59,0.15897
6603.99,0.157223
6612.42,0.155512
6620.86,0.153728
6629.33,0.15202
6637.82,0.150372
6646.33,0.148806
6654.86,0.14728
6663.41,0.145796
6671.99,0.144384
6680.59,0.143211
6689.21,0.142222
6697.85,0.141238
6706.51,0.140419
6715.2,0.139724
6723.91,0.138977
6732.64,0.138422
6741.4,0.138027
6750.18,0.1377
6758.98,0.137438
6767.8,0.137266
6776.65,0.137223
6785.52,0.137213
6794.41,0.137288
6803.33,0.13731
6812.27,0.137065
6821.23,0.136362
6830.22,0.134756
6839.23,0.132294
6848.26,0.129625
6857.32,0.127299
6866.4,0.125593
6875.51,0.124413
6884.64,0.123259
6893.8,0.121963
6902.98,0.12039
6912.18,0.118582
6921.41,0.116612
6930.66,0.114644
6939.94,0.112873
6949.24,0.111467
6958.57,0.110512
6967.92,0.109904
6977.3,0.109453
6986.7,0.109184
6996.13,0.1091
7005.59,0.108978
7015.07,0.108949
7024.57,0.108966
7034.1,0.10907
7043.66,0.10923
7053.25,0.109415
7062.85,0.109579
7072.49,0.109485
7082.15,0.109061
7091.84,0.108462
7101.55,0.107561
7111.3,0.106124
7121.06,0.104224
7130.86,0.101997
7140.68,0.099886
7150.53,0.097942
7160.41,0.096057
7170.31,0.094324
7180.24,0.092555
7190.2,0.090767
7200.19,0.089184
7210.2,0.088019
7220.24,0.087246
7230.31,0.086683
7240.41,0.086083
7250.54,0.085469
7260.69,0.084985
7270.88,0.08449
7281.09,0.084006
7291.33,0.083569
7301.6,0.083095
7311.9,0.082569
7322.22,0.082009
7332.58,0.08151
7342.97,0.081056
7353.38,0.080676
7363.83,0.080242
7374.3,0.07969
7384.81,0.0792
7395.34,0.078897
7405.91,0.078638
7416.5,0.078342
7427.13,0.078146
7437.78,0.078052
7448.47,0.077947
7459.19,0.077831
7469.94,0.07778
7480.71,0.077693
7491.52,0.077625
7502.37,0.077637
7513.24,0.077572
7524.14,0.07746
7535.08,0.077363
7546.05,0.07723
7557.05,0.077099
7568.08,0.077026
7579.15,0.0769
7590.24,0.076743
7601.37,0.076491
7612.53,0.076169
7623.73,0.07582
7634.96,0.075446
7646.22,0.075088
7657.51,0.074838
7668.84,0.074659
7680.2,0.074593
7691.59,0.074664
7703.02,0.074816
7714.49,0.074959
7725.98,0.075114
7737.52,0.075097
7749.08,0.074984
7760.68,0.07477
7772.32,0.074455
7783.99,0.074104
7795.69,0.073782
7807.43,0.07353
7819.21,0.073573
7831.02,0.073888
7842.87,0.074332
7854.75,0.074853
7866.67,0.07541
7878.62,0.076023
7890.62,0.076682
7902.64,0.07756
7914.71,0.078495
7926.81,0.079353
7938.95,0.08024
7951.13,0.081042
7963.34,0.081665
7975.59,0.082002
7987.88,0.08197
8000.21,0.08157
8012.57,0.081195
8024.98,0.081086
8037.42,0.081212
8049.9,0.081568
8062.42,0.082065
8074.98,0.082576
8087.57,0.083153
8100.21,0.083848
8112.89,0.084614
8125.6,0.085198
8138.36,0.085719
8151.16,0.086296
8163.99,0.086717
8176.87,0.087057
8189.79,0.087326
8202.75,0.087614
8215.75,0.087953
8228.79,0.088118
8241.87,0.088089
8254.99,0.087999
8268.16,0.087706
8281.37,0.087076
8294.62,0.086303
8307.91,0.085443
8321.24,0.084469
8334.62,0.083315
8348.04,0.081897
8361.51,0.080475
8375.02,0.079069
8388.57,0.077678
8402.16,0.076394
8415.8,0.075151
8429.49,0.073922
8443.22,0.07273
8456.99,0.071525
8470.81,0.070442
8484.67,0.069572
8498.58,0.068833
8512.54,0.068339
8526.54,0.068099
8540.58,0.068091
8554.68,0.068288
8568.82,0.068731
8583.0,0.06941
8597.24,0.070338
8611.52,0.07138
8625.85,0.07241
8640.23,0.073357
8654.65,0.074072
8669.12,0.074676
8683.64,0.075391
8698.21,0.075917
8712.83,0.07619
8727.5,0.076467
8742.22,0.076673
8756.99,0.076833
8771.8,0.077179
8786.67,0.077783
8801.59,0.078531
8816.56,0.079193
8831.58,0.079976
8846.65,0.081023
8861.77,0.082331
8876.94,0.083737
8892.17,0.085273
8907.45,0.086848
8922.78,0.088341
8938.16,0.089737
8953.6,0.091048
8969.09,0.092269
8984.64,0.09328
9000.23,0.094089
9015.89,0.094729
9031.59,0.095308
9047.36,0.095774
9063.17,0.09628
9079.05,0.096869
9094.97,0.097298
9110.96,0.09761
9127.0,0.097908
9143.1,0.097816
9159.25,0.096571
9175.46,0.093321
9191.73,0.087178
9208.06,0.077586
9224.44,0.064527
9240.88,0.052982
9257.38,0.05209
9273.94,0.06188
9290.56,0.075725
9307.24,0.088271
9323.98,0.098054
9340.78,0.105884
9357.64,0.112248
9374.57,0.11785
9391.55,0.12333
9408.59,0.128564
9425.7,0.132618
9442.87,0.13413
9460.1,0.134598
9477.4,0.138701
9494.75,0.143385
9512.17,0.145906
9529.66,0.14765
9547.21,0.148886
9564.83,0.149676
9582.5,0.150287
9600.25,0.150718
9618.06,0.15081
9635.94,0.150745
9653.88,0.150437
9671.89,0.14989
9689.97,0.14925
9708.12,0.14845
9726.33,0.147609
9744.62,0.14687
9762.97,0.146364
9781.39,0.145993
9799.88,0.145435
9818.44,0.144808
9837.07,0.144241
9855.77,0.143986
9874.54,0.144044
9893.39,0.144367
9912.3,0.144752
9931.29,0.145154
9950.36,0.145406
9969.49,0.145355
9988.7,0.145142
10007.98,0.14491
10027.34,0.144604
10046.77,0.144214
10066.28,0.143669
10085.87,0.143046
10105.53,0.142445
10125.26,0.142043
10145.08,0.141597
10164.97,0.141003
10184.94,0.140317
10204.99,0.139607
10225.12,0.139137
10245.33,0.138946
10265.61,0.139074
10285.98,0.139532
10306.43,0.140102
10326.96,0.140373
10347.57,0.140218
10368.27,0.139658
10389.05,0.138621
10409.91,0.137496
10430.86,0.136433
10451.88,0.135398
10473.0,0.134271
10494.2,0.132994
10515.49,0.131579
10536.86,0.130209
10558.32,0.128908
10579.87,0.127607
10601.5,0.126468
10623.23,0.125387
10645.04,0.124323
10666.94,0.123291
10688.94,0.122135
10711.02,0.120969
10733.2,0.119883
10755.47,0.118786
10777.83,0.117904
10800.28,0.11731
10822.83,0.116905
10845.47,0.116476
10868.21,0.116314
10891.04,0.116295
10913.97,0.116098
10936.99,0.115526
10960.12,0.114254
10983.34,0.111133
11006.66,0.102268
11030.07,0.092691
11053.59,0.096098
11077.21,0.103257
11100.93,0.105903
11124.75,0.107553
11148.68,0.110127
11172.71,0.114632
11196.84,0.121493
11221.07,0.131402
11245.41,0.145503
11269.86,0.162983
11294.41,0.173941
11319.07,0.171734
11343.84,0.166926
11368.72,0.166036
11393.7,0.165901
11418.8,0.166582
11444.01,0.171404
11469.33,0.179253
11494.76,0.183068
11520.3,0.178681
11545.96,0.169388
11571.73,0.160261
11597.62,0.153231
11623.62,0.148685
11649.74,0.146281
11675.98,0.145072
11702.34,0.143368
11728.81,0.136912
11755.41,0.120446
11782.13,0.100405
11808.96,0.087718
11835.92,0.083196
11863.01,0.082663
11890.22,0.085801
11917.55,0.089509
11945.01,0.091513
11972.6,0.0932
12000.31,0.095185
12028.16,0.097005
12056.13,0.098454
12084.23,0.099847
12112.46,0.101149
12140.83,0.102222
12169.33,0.102939
12197.96,0.103473
12226.73,0.1037
12255.64,0.103846
12284.68,0.104001
12313.86,0.104103
12343.18,0.103996
12372.64,0.103829
12402.24,0.103705
12431.98,0.103652
12461.86,0.10354
12491.89,0.103298
12522.07,0.103044
12552.38,0.102891
12582.85,0.102518
12613.47,0.102033
12644.23,0.101614
12675.15,0.101146
12706.21,0.100642
12737.43,0.100252
12768.81,0.099741
12800.33,0.099268
12832.02,0.098849
12863.86,0.098517
12895.86,0.098165
12928.02,0.097833
12960.34,0.097424
12992.82,0.097162
13025.46,0.097213
13058.27,0.097223
13091.25,0.097087
13124.39,0.097082
13157.7,0.097063
13191.18,0.096944
13224.83,0.096825
13258.66,0.096588
13292.65,0.096265
13326.83,0.09587
13361.17,0.095139
13395.7,0.094404
13430.4,0.093551
13465.29,0.09247
13500.35,0.091026
13535.6,0.089369
13571.03,0.087406
13606.65,0.08515
13642.46,0.082627
13678.46,0.079707
13714.64,0.076445
13751.02,0.072851
13787.59,0.068205
13824.36,0.062557
13861.32,0.056261
13898.49,0.048954
13935.85,0.041442
13973.41,0.037395
14011.17,0.03826
14049.15,0.044139
14087.32,0.049974
14125.71,0.052386
14164.3,0.053968
14203.11,0.054475
14242.13,0.052798
14281.36,0.049773
14320.81,0.05074
14360.49,0.056285
14400.38,0.062055
14440.49,0.066541
14480.82,0.069596
14521.39,0.071421
14562.18,0.073021
14603.2,0.074494
14644.45,0.075226
14685.93,0.075563
14727.66,0.075439
14769.62,0.075219
14811.81,0.074993
14854.25,0.074821
14896.94,0.074763
14939.87,0.074705
14983.05,0.074765
15026.48,0.074799
15070.16,0.074685
15114.1,0.07463
15158.29,0.074496
15202.74,0.074307
15247.46,0.074213
15292.43,0.07408
15337.68,0.073706
15383.19,0.073314
15428.97,0.072803
15475.03,0.072311
15521.36,0.071908
15567.97,0.071487
15614.87,0.070985
15662.04,0.070336
15709.5,0.069429
15757.25,0.068557
15805.29,0.067629
15853.62,0.066623
15902.26,0.066003
15951.19,0.065717
16000.42,0.065496
16049.95,0.065496
16099.8,0.065237
16149.95,0.065036
16200.42,0.06467
16251.21,0.06428
16302.31,0.063926
16353.74,0.063507
16405.49,0.06333
16457.57,0.063317
16509.98,0.06324
16562.73,0.063439
16615.82,0.063686
16669.24,0.063703
16723.02,0.063531
16777.14,0.063259
16831.61,0.063158
16886.43,0.063015
16941.62,0.062506
16997.16,0.062055
17053.08,0.061808
17109.36,0.061684
17166.01,0.061323
17223.04,0.061006
17280.45,0.06088
17338.24,0.060552
17396.43,0.059995
17455.0,0.059653
17513.97,0.059728
17573.34,0.059508
17633.11,0.05912
17693.29,0.058621
17753.89,0.058161
17814.9,0.057768
17876.33,0.05723
17938.18,0.056617
18000.47,0.055917
18063.19,0.055551
18126.35,0.055257
18189.95,0.054681
18254.0,0.053837
18318.5,0.053142
18383.46,0.052538
18448.88,0.051991
18514.77,0.051382
18581.13,0.050844
18647.97,0.050142
18715.29,0.049422
18783.1,0.04877
18851.4,0.04783
18920.2,0.046921
18989.51,0.0464
19059.32,0.045811
19129.65,0.04569
19200.5,0.045794
19271.88,0.044423
19343.79,0.043162
19416.24,0.042418
19489.23,0.041832
19562.77,0.041112
19636.88,0.040397
19711.54,0.039476
19786.78,0.038752
19862.59,0.038275
19938.98,0.037858
20015.96,0.037114
20093.55,0.036321
20171.73,0.035655
20250.53,0.034816
20329.94,0.034586
20409.98,0.034087
20490.65,0.032849
20571.96,0.031981
20653.92,0.031625
20736.54,0.030718
20819.82,0.029313
20903.77,0.029252
20988.4,0.02908
21073.72,0.028113
21159.73,0.027398
21246.46,0.026744
21333.89,0.026216
21422.04,0.025719
21510.93,0.024932
21600.56,0.024146
21690.94,0.023708
21782.08,0.023259
21873.99,0.022697
21966.67,0.022249
22060.15,0.02191
22154.42,0.020984
22249.51,0.019859
22345.41,0.019864
22442.14,0.020548
22539.72,0.020715
22638.14,0.020337
22737.43,0.019973
22837.6,0.020012
22938.65,0.020308
23040.6,0.020967
23143.46,0.021667
23247.24,0.022082
23351.96,0.022792
23457.63,0.02299
23564.25,0.022782
23671.85,0.024425
23780.44,0.026359
23890.02,0.028048
24000.63,0.02965
24112.26,0.031988
24224.93,0.034424
24338.66,0.037627
24453.47,0.041628
24569.36,0.045125
24686.36,0.050357
24804.47,0.057448
24923.73,0.063691
25044.13,0.070631
25165.71,0.078834
25288.46,0.084704
25412.43,0.092912
25537.61,0.103511
25664.04,0.113777
25791.72,0.122961
25920.68,0.133081
