Database of Origin,University of Winnipeg Spectrophotometer Facility
Sample Description,Merged RELAB + Nicolet data for hydroxides. See Master Hydroxides on HOSERLab website for additional info.
Date Added,2016-11-29 18:11:56.217979

Data ID,RLA_HYD_03          
Sample ID,OOH002
Mineral Name,Bauxite
Grain Size,<45
Viewing Geometry,"30/0,30"
Resolution,5/0.6-129
Material Class,Hydroxide

Wavelength
320.0,0.109993
325.0,0.113183
330.0,0.11609
335.0,0.118318
340.0,0.12071
345.0,0.122445
350.0,0.123905
355.0,0.125828
360.0,0.127585
365.0,0.129531
370.0,0.131641
375.0,0.136761
380.0,0.140087
385.0,0.14347
390.0,0.146974
395.0,0.150652
400.0,0.153914
405.0,0.15892
410.0,0.162618
415.0,0.166676
420.0,0.171237
425.0,0.176607
430.0,0.183203
435.0,0.190033
440.0,0.196802
445.0,0.203517
450.0,0.209532
455.0,0.215339
460.0,0.219877
465.0,0.224438
470.0,0.229154
475.0,0.233562
480.0,0.236506
485.0,0.2415
490.0,0.246177
495.0,0.251638
500.0,0.25725
505.0,0.262578
510.0,0.267671
515.0,0.273383
520.0,0.279114
525.0,0.285342
530.0,0.291956
535.0,0.300784
540.0,0.310025
545.0,0.321108
550.0,0.333315
555.0,0.346544
560.0,0.361446
565.0,0.377461
570.0,0.393224
575.0,0.408588
580.0,0.421883
585.0,0.434805
590.0,0.445498
595.0,0.454009
600.0,0.462058
605.0,0.468543
610.0,0.474283
615.0,0.47897
620.0,0.483516
625.0,0.487152
630.0,0.490576
635.0,0.493815
640.0,0.496443
645.0,0.499608
650.0,0.502013
655.0,0.504851
660.0,0.508328
665.0,0.510481
670.0,0.513319
675.0,0.516068
680.0,0.519513
685.0,0.522074
690.0,0.523654
695.0,0.526962
700.0,0.530021
705.0,0.532004
710.0,0.534702
715.0,0.537874
720.0,0.539549
725.0,0.541662
730.0,0.544559
735.0,0.545807
740.0,0.548105
745.0,0.550002
750.0,0.550786
755.0,0.552163
760.0,0.553656
765.0,0.554724
770.0,0.555469
775.0,0.555906
780.0,0.55806
785.0,0.558005
790.0,0.560629
795.0,0.56011
800.0,0.560584
805.0,0.56011
810.0,0.559609
815.0,0.558719
820.0,0.558192
825.0,0.558006
830.0,0.556477
835.0,0.555898
840.0,0.555612
845.0,0.555042
850.0,0.554594
855.0,0.553669
860.0,0.552324
865.0,0.552773
870.0,0.552795
875.0,0.552685
880.0,0.552347
885.0,0.553169
890.0,0.554555
895.0,0.553621
900.0,0.555484
905.0,0.555476
910.0,0.556119
915.0,0.557366
920.0,0.558153
925.0,0.558653
930.0,0.560208
935.0,0.561725
940.0,0.563915
945.0,0.564607
950.0,0.56595
955.0,0.566967
960.0,0.568363
965.0,0.569308
970.0,0.57023
975.0,0.571814
980.0,0.572157
985.0,0.573181
990.0,0.574095
995.0,0.574693
1000.0,0.574435
1005.0,0.57576
1010.0,0.576431
1015.0,0.577379
1020.0,0.578061
1025.0,0.578637
1030.0,0.579062
1035.0,0.579172
1040.0,0.579685
1045.0,0.579421
1050.0,0.580242
1055.0,0.579559
1060.0,0.579447
1065.0,0.579809
1070.0,0.579887
1075.0,0.580389
1080.0,0.580172
1085.0,0.580868
1090.0,0.581438
1095.0,0.581118
1100.0,0.581427
1105.0,0.582255
1110.0,0.58277
1115.0,0.583421
1120.0,0.583839
1125.0,0.584713
1130.0,0.585255
1135.0,0.585632
1140.0,0.585786
1145.0,0.586413
1150.0,0.587058
1155.0,0.587987
1160.0,0.588379
1165.0,0.589202
1170.0,0.589978
1175.0,0.5911
1180.0,0.591951
1185.0,0.592718
1190.0,0.593562
1195.0,0.59411
1200.0,0.594339
1205.0,0.594914
1210.0,0.59555
1215.0,0.597294
1220.0,0.597604
1225.0,0.597995
1230.0,0.598214
1235.0,0.599023
1240.0,0.599529
1245.0,0.600023
1250.0,0.600611
1255.0,0.601009
1260.0,0.601343
1265.0,0.601796
1270.0,0.601631
1275.0,0.602221
1280.0,0.60292
1285.0,0.603541
1290.0,0.604843
1295.0,0.605236
1300.0,0.605783
1305.0,0.605573
1310.0,0.606997
1315.0,0.607364
1320.0,0.607907
1325.0,0.608542
1330.0,0.610164
1335.0,0.611074
1340.0,0.611725
1345.0,0.611797
1350.0,0.612529
1355.0,0.611885
1360.0,0.612092
1365.0,0.613002
1370.0,0.613664
1375.0,0.612587
1380.0,0.609635
1385.0,0.610114
1390.0,0.606018
1395.0,0.594913
1400.0,0.574729
1405.0,0.589528
1410.0,0.584885
1415.0,0.563006
1420.0,0.555507
1425.0,0.575107
1430.0,0.576705
1435.0,0.560679
1440.0,0.554785
1445.0,0.559109
1450.0,0.540917
1455.0,0.551562
1460.0,0.556101
1465.0,0.562595
1470.0,0.586131
1475.0,0.596867
1480.0,0.602013
1485.0,0.605432
1490.0,0.607843
1495.0,0.608688
1500.0,0.608121
1505.0,0.606359
1510.0,0.602951
1515.0,0.596863
1520.0,0.593914
1525.0,0.597325
1530.0,0.600078
1535.0,0.599961
1540.0,0.598255
1545.0,0.595342
1550.0,0.592695
1555.0,0.594288
1560.0,0.600022
1565.0,0.606189
1570.0,0.610093
1575.0,0.613222
1580.0,0.615274
1585.0,0.616901
1590.0,0.619646
1595.0,0.621555
1600.0,0.623255
1605.0,0.625513
1610.0,0.626844
1615.0,0.628648
1620.0,0.629822
1625.0,0.630818
1630.0,0.631177
1635.0,0.632432
1640.0,0.632998
1645.0,0.633455
1650.0,0.634447
1655.0,0.635034
1660.0,0.63614
1665.0,0.638007
1670.0,0.637905
1675.0,0.63868
1680.0,0.639164
1685.0,0.639679
1690.0,0.640353
1695.0,0.641393
1700.0,0.641533
1705.0,0.641945
1710.0,0.642547
1715.0,0.642208
1720.0,0.643218
1725.0,0.643476
1730.0,0.644049
1735.0,0.644068
1740.0,0.643926
1745.0,0.644223
1750.0,0.643868
1755.0,0.644069
1760.0,0.643602
1765.0,0.644233
1770.0,0.643692
1775.0,0.642891
1780.0,0.64207
1785.0,0.640461
1790.0,0.639904
1795.0,0.639042
1800.0,0.638878
1805.0,0.638472
1810.0,0.637787
1815.0,0.636779
1820.0,0.635424
1825.0,0.635756
1830.0,0.634607
1835.0,0.634138
1840.0,0.635282
1845.0,0.635158
1850.0,0.634737
1855.0,0.634638
1860.0,0.634639
1865.0,0.634041
1870.0,0.630598
1875.0,0.633883
1880.0,0.631881
1885.0,0.627231
1890.0,0.624981
1895.0,0.623961
1900.0,0.620061
1905.0,0.619577
1910.0,0.617328
1915.0,0.6152
1920.0,0.613078
1925.0,0.613822
1930.0,0.61301
1935.0,0.612011
1940.0,0.611599
1945.0,0.611823
1950.0,0.611516
1955.0,0.611337
1960.0,0.611196
1965.0,0.610517
1970.0,0.610199
1975.0,0.610586
1980.0,0.611157
1985.0,0.610803
1990.0,0.61008
1995.0,0.61016
2000.0,0.611287
2005.0,0.611135
2010.0,0.610854
2015.0,0.610967
2020.0,0.61068
2025.0,0.610175
2030.0,0.610274
2035.0,0.610889
2040.0,0.611289
2045.0,0.611348
2050.0,0.611152
2055.0,0.611418
2060.0,0.611511
2065.0,0.6109
2070.0,0.610332
2075.0,0.609702
2080.0,0.609682
2085.0,0.609955
2090.0,0.609973
2095.0,0.610597
2100.0,0.610814
2105.0,0.610162
2110.0,0.609627
2115.0,0.608071
2120.0,0.605797
2125.0,0.601295
2130.0,0.597729
2135.0,0.594791
2140.0,0.59169
2145.0,0.588169
2150.0,0.582299
2155.0,0.573438
2160.0,0.563247
2165.0,0.553803
2170.0,0.545277
2175.0,0.536947
2180.0,0.528654
2185.0,0.522832
2190.0,0.519666
2195.0,0.512835
2200.0,0.501088
2205.0,0.487827
2210.0,0.477079
2215.0,0.477449
2220.0,0.476502
2225.0,0.471637
2230.0,0.464081
2235.0,0.453752
2240.0,0.436471
2245.0,0.411762
2250.0,0.382056
2255.0,0.363527
2260.0,0.356594
2265.0,0.342411
2270.0,0.324568
2275.0,0.33548
2280.0,0.362524
2285.0,0.380471
2290.0,0.391634
2295.0,0.398825
2300.0,0.404777
2305.0,0.406798
2310.0,0.404949
2315.0,0.402124
2320.0,0.403301
2325.0,0.407299
2330.0,0.412699
2335.0,0.416526
2340.0,0.416743
2345.0,0.41173
2350.0,0.403223
2355.0,0.396683
2360.0,0.393488
2365.0,0.392553
2370.0,0.3941
2375.0,0.395116
2380.0,0.396234
2385.0,0.395759
2390.0,0.39626
2395.0,0.397475
2400.0,0.400358
2405.0,0.401223
2410.0,0.404757
2415.0,0.409171
2420.0,0.413573
2425.0,0.415826
2430.0,0.416141
2435.0,0.417121
2440.0,0.419506
2445.0,0.421683
2450.0,0.425644
2455.0,0.428575
2460.0,0.42908
2465.0,0.429084
2470.0,0.426694
2475.0,0.423279
2480.0,0.421256
2485.0,0.415937
2490.0,0.411071
2495.0,0.40756
2500.0,0.404932
2502.0,0.404464
2503.2,0.403304
2504.41,0.403505
2505.62,0.404323
2506.83,0.403749
2508.05,0.403825
2509.26,0.403647
2510.48,0.403308
2511.69,0.402609
2512.91,0.402388
2514.13,0.402462
2515.35,0.402731
2516.57,0.401964
2517.79,0.401519
2519.02,0.401618
2520.24,0.402191
2521.47,0.402209
2522.69,0.401716
2523.92,0.401324
2525.15,0.401509
2526.38,0.401585
2527.61,0.400971
2528.85,0.400525
2530.08,0.40071
2531.32,0.40002
2532.55,0.399802
2533.79,0.399256
2535.03,0.398242
2536.27,0.39718
2537.51,0.3959
2538.75,0.393954
2540.0,0.391956
2541.24,0.389803
2542.49,0.387659
2543.74,0.385302
2544.99,0.38315
2546.24,0.380602
2547.49,0.378483
2548.74,0.377273
2549.99,0.375893
2551.25,0.374345
2552.5,0.373524
2553.76,0.372781
2555.02,0.372692
2556.28,0.371833
2557.54,0.370785
2558.8,0.369669
2560.07,0.368274
2561.33,0.366285
2562.6,0.365175
2563.86,0.364136
2565.13,0.363293
2566.4,0.361682
2567.67,0.360068
2568.95,0.358771
2570.22,0.357811
2571.5,0.357339
2572.77,0.356637
2574.05,0.356196
2575.33,0.35625
2576.61,0.355464
2577.89,0.354974
2579.17,0.355176
2580.46,0.35433
2581.74,0.352855
2583.03,0.350907
2584.31,0.349176
2585.6,0.348391
2586.89,0.346359
2588.19,0.344597
2589.48,0.343596
2590.77,0.342758
2592.07,0.341101
2593.36,0.34
2594.66,0.339012
2595.96,0.339818
2597.26,0.34057
2598.56,0.340527
2599.87,0.339956
2601.17,0.339838
2602.48,0.339386
2603.78,0.33912
2605.09,0.338673
2606.4,0.33778
2607.71,0.336851
2609.03,0.336407
2610.34,0.335846
2611.66,0.335798
2612.97,0.335451
2614.29,0.335678
2615.61,0.335709
2616.93,0.334973
2618.25,0.334635
2619.57,0.335123
2620.9,0.334294
2622.22,0.33391
2623.55,0.333651
2624.88,0.333287
2626.21,0.332131
2627.54,0.331633
2628.87,0.32995
2630.21,0.328463
2631.54,0.327413
2632.88,0.326181
2634.21,0.324566
2635.55,0.323802
2636.89,0.322793
2638.24,0.321851
2639.58,0.320254
2640.92,0.318815
2642.27,0.316338
2643.62,0.314694
2644.97,0.312781
2646.32,0.31051
2647.67,0.30804
2649.02,0.306272
2650.38,0.30416
2651.73,0.301398
2653.09,0.298816
2654.45,0.296384
2655.81,0.293522
2657.17,0.290513
2658.53,0.287966
2659.89,0.285592
2661.26,0.282246
2662.63,0.27997
2664.0,0.277568
2665.36,0.274515
2666.74,0.270729
2668.11,0.267869
2669.48,0.264994
2670.86,0.262026
2672.23,0.258442
2673.61,0.255351
2674.99,0.252417
2676.37,0.249487
2677.76,0.245279
2679.14,0.241599
2680.52,0.237962
2681.91,0.23461
2683.3,0.230816
2684.69,0.226588
2686.08,0.222503
2687.47,0.217591
2688.87,0.211955
2690.26,0.206459
2691.66,0.199995
2693.06,0.193771
2694.46,0.186559
2695.86,0.177994
2697.26,0.169038
2698.66,0.160092
2700.07,0.150537
2701.48,0.140619
2702.89,0.129641
2704.3,0.118779
2705.71,0.107916
2707.12,0.098706
2708.53,0.092678
2709.95,0.089893
2711.37,0.090483
2712.79,0.093578
2714.21,0.096813
2715.63,0.100375
2717.05,0.102917
2718.48,0.104302
2719.9,0.104181
2721.33,0.102784
2722.76,0.100374
2724.19,0.097456
2725.62,0.092973
2727.06,0.089254
2728.49,0.087021
2729.93,0.08475
2731.37,0.081902
2732.81,0.079369
2734.25,0.076243
2735.69,0.072612
2737.14,0.068877
2738.58,0.06583
2740.03,0.061989
2741.48,0.058389
2742.93,0.054622
2744.38,0.050701
2745.83,0.047261
2747.29,0.043803
2748.75,0.039699
2750.2,0.035337
2751.66,0.03078
2753.13,0.026783
2754.59,0.023026
2756.05,0.018809
2757.52,0.015212
2758.99,0.013761
2760.46,0.013079
2761.93,0.013116
2763.4,0.013843
2764.87,0.015425
2766.35,0.017573
2767.82,0.019819
2769.3,0.022273
2770.78,0.024228
2772.26,0.025869
2773.75,0.027542
2775.23,0.028773
2776.72,0.029255
2778.21,0.030246
2779.7,0.031592
2781.19,0.032953
2782.68,0.034036
2784.18,0.034467
2785.67,0.034739
2787.17,0.034852
2788.67,0.034736
2790.17,0.034281
2791.67,0.03338
2793.18,0.0328
2794.68,0.032581
2796.19,0.032204
2797.7,0.030989
2799.21,0.029533
2800.72,0.02792
2802.24,0.026777
2803.75,0.02609
2805.27,0.024413
2806.79,0.022421
2808.31,0.0212
2809.83,0.020296
2811.35,0.018699
2812.88,0.016656
2814.41,0.01572
2815.93,0.014826
2817.46,0.013418
2819.0,0.012362
2820.53,0.01156
2822.07,0.01044
2823.6,0.009288
2825.14,0.008564
2826.68,0.008537
2828.22,0.008455
2829.77,0.008407
2831.31,0.008813
2832.86,0.009725
2834.41,0.010042
2835.96,0.010007
2837.51,0.01084
2839.07,0.011665
2840.62,0.01222
2842.18,0.013383
2843.74,0.014544
2845.3,0.015107
2846.86,0.015458
2848.43,0.015895
2849.99,0.016414
2851.56,0.017051
2853.13,0.017106
2854.7,0.016752
2856.27,0.016699
2857.85,0.016899
2859.42,0.017067
2861.0,0.016779
2862.58,0.016099
2864.16,0.01546
2865.75,0.014632
2867.33,0.014026
2868.92,0.01361
2870.51,0.013413
2872.1,0.013115
2873.69,0.012513
2875.28,0.012089
2876.88,0.012119
2878.48,0.012207
2880.07,0.012586
2881.68,0.012838
2883.28,0.012556
2884.88,0.012106
2886.49,0.012269
2888.1,0.012544
2889.71,0.012952
2891.32,0.013328
2892.93,0.01337
2894.55,0.013342
2896.16,0.013816
2897.78,0.014277
2899.4,0.014897
2901.03,0.015422
2902.65,0.015852
2904.28,0.016106
2905.91,0.016276
2907.54,0.016722
2909.17,0.017477
2910.8,0.018083
2912.44,0.018608
2914.07,0.019395
2915.71,0.020129
2917.35,0.02076
2918.99,0.021455
2920.64,0.022082
2922.29,0.022606
2923.93,0.022584
2925.58,0.022316
2927.24,0.022117
2928.89,0.02221
2930.55,0.02221
2932.2,0.021924
2933.86,0.021351
2935.52,0.020889
2937.19,0.020757
2938.85,0.020294
2940.52,0.019746
2942.19,0.019386
2943.86,0.019404
2945.53,0.019956
2947.21,0.020409
2948.88,0.020509
2950.56,0.020552
2952.24,0.020662
2953.92,0.020837
2955.61,0.021424
2957.29,0.022052
2958.98,0.022826
2960.67,0.023548
2962.36,0.024776
2964.06,0.026074
2965.75,0.027368
2967.45,0.02872
2969.15,0.029889
2970.85,0.031205
2972.55,0.032315
2974.26,0.033568
2975.97,0.034538
2977.68,0.035327
2979.39,0.036508
2981.1,0.037789
2982.82,0.038552
2984.53,0.039041
2986.25,0.040166
2987.97,0.041451
2989.7,0.04229
2991.42,0.04324
2993.15,0.044363
2994.88,0.044807
2996.61,0.045372
2998.34,0.045936
3000.08,0.046514
3001.82,0.047381
3003.55,0.048141
3005.3,0.048797
3007.04,0.049537
3008.78,0.050405
3010.53,0.051369
3012.28,0.051961
3014.03,0.052168
3015.79,0.052497
3017.54,0.053325
3019.3,0.054094
3021.06,0.054936
3022.82,0.055554
3024.58,0.055896
3026.35,0.056541
3028.12,0.057572
3029.89,0.05815
3031.66,0.058337
3033.43,0.058852
3035.21,0.059337
3036.99,0.060168
3038.77,0.061137
3040.55,0.061507
3042.33,0.062212
3044.12,0.063175
3045.91,0.063755
3047.7,0.063839
3049.49,0.064046
3051.29,0.064764
3053.08,0.0659
3054.88,0.066715
3056.68,0.067013
3058.49,0.067349
3060.29,0.068183
3062.1,0.0688
3063.91,0.069191
3065.72,0.069995
3067.54,0.070973
3069.35,0.07132
3071.17,0.071617
3072.99,0.072308
3074.81,0.072936
3076.64,0.073396
3078.47,0.073865
3080.29,0.074483
3082.13,0.075321
3083.96,0.075988
3085.79,0.076623
3087.63,0.07703
3089.47,0.077458
3091.31,0.07821
3093.16,0.079083
3095.01,0.079661
3096.85,0.080521
3098.71,0.081573
3100.56,0.082204
3102.41,0.082825
3104.27,0.083737
3106.13,0.084926
3107.99,0.086095
3109.86,0.086933
3111.73,0.088074
3113.59,0.089324
3115.47,0.0901
3117.34,0.090729
3119.21,0.091767
3121.09,0.092651
3122.97,0.093529
3124.86,0.094732
3126.74,0.096057
3128.63,0.09679
3130.52,0.097693
3132.41,0.098516
3134.3,0.099524
3136.2,0.100654
3138.1,0.101537
3140.0,0.102063
3141.9,0.102862
3143.81,0.103683
3145.71,0.104557
3147.62,0.105747
3149.54,0.106937
3151.45,0.10789
3153.37,0.108595
3155.29,0.109125
3157.21,0.109896
3159.13,0.110649
3161.06,0.111442
3162.99,0.11221
3164.92,0.112859
3166.85,0.113422
3168.79,0.11395
3170.72,0.114546
3172.67,0.115274
3174.61,0.115978
3176.55,0.116486
3178.5,0.117073
3180.45,0.117899
3182.4,0.118349
3184.36,0.118856
3186.32,0.119467
3188.27,0.120096
3190.24,0.120759
3192.2,0.121629
3194.17,0.122446
3196.14,0.12303
3198.11,0.123971
3200.08,0.124857
3202.06,0.125629
3204.04,0.126167
3206.02,0.126718
3208.0,0.127706
3209.99,0.12861
3211.98,0.129308
3213.97,0.129854
3215.96,0.130406
3217.96,0.131056
3219.96,0.131879
3221.96,0.132649
3223.96,0.133194
3225.97,0.133686
3227.98,0.134808
3229.99,0.135634
3232.0,0.136461
3234.02,0.137196
3236.04,0.137996
3238.06,0.138749
3240.08,0.139458
3242.11,0.140063
3244.14,0.140683
3246.17,0.141243
3248.2,0.142008
3250.24,0.142681
3252.28,0.143523
3254.32,0.144737
3256.37,0.145364
3258.41,0.145707
3260.46,0.146288
3262.51,0.146961
3264.57,0.147508
3266.63,0.147953
3268.69,0.148426
3270.75,0.14898
3272.81,0.149642
3274.88,0.150193
3276.95,0.150623
3279.02,0.150971
3281.1,0.15149
3283.18,0.151823
3285.26,0.152153
3287.34,0.152544
3289.43,0.1528
3291.51,0.152769
3293.61,0.152979
3295.7,0.153332
3297.8,0.153633
3299.9,0.153722
3302.0,0.153816
3304.1,0.153961
3306.21,0.153902
3308.32,0.153829
3310.43,0.153961
3312.55,0.154295
3314.66,0.154726
3316.79,0.155028
3318.91,0.155334
3321.03,0.155418
3323.16,0.155467
3325.29,0.156165
3327.43,0.156712
3329.57,0.156798
3331.71,0.157383
3333.85,0.157895
3335.99,0.158268
3338.14,0.158652
3340.29,0.159397
3342.45,0.159975
3344.6,0.160536
3346.76,0.16114
3348.92,0.161716
3351.09,0.162195
3353.26,0.162943
3355.43,0.163771
3357.6,0.164334
3359.78,0.164845
3361.96,0.165456
3364.14,0.166321
3366.32,0.167222
3368.51,0.167826
3370.7,0.168501
3372.89,0.16951
3375.09,0.17024
3377.29,0.171008
3379.49,0.171839
3381.69,0.172652
3383.9,0.17329
3386.11,0.17383
3388.32,0.17472
3390.54,0.175502
3392.76,0.175929
3394.98,0.176523
3397.21,0.177262
3399.43,0.17788
3401.66,0.178723
3403.9,0.179312
3406.13,0.179621
3408.37,0.180154
3410.61,0.180945
3412.86,0.181894
3415.11,0.182482
3417.36,0.182974
3419.61,0.183612
3421.87,0.184507
3424.13,0.185334
3426.39,0.186073
3428.66,0.18703
3430.93,0.188019
3433.2,0.188918
3435.48,0.189675
3437.76,0.190362
3440.04,0.191542
3442.32,0.192389
3444.61,0.192838
3446.9,0.193756
3449.19,0.194831
3451.49,0.195797
3453.79,0.196453
3456.09,0.197011
3458.4,0.197678
3460.7,0.19837
3463.02,0.199224
3465.33,0.199978
3467.65,0.200296
3469.97,0.200635
3472.29,0.201286
3474.62,0.202068
3476.95,0.202578
3479.29,0.203197
3481.62,0.20403
3483.96,0.204614
3486.3,0.205047
3488.65,0.205433
3491.0,0.205976
3493.35,0.206589
3495.71,0.20729
3498.07,0.207928
3500.43,0.208487
3502.79,0.209231
3505.16,0.210008
3507.53,0.210841
3509.91,0.211527
3512.29,0.212298
3514.67,0.213131
3517.05,0.213808
3519.44,0.214601
3521.83,0.215584
3524.23,0.216619
3526.62,0.217465
3529.02,0.218475
3531.43,0.219411
3533.83,0.220345
3536.24,0.22117
3538.66,0.221835
3541.08,0.222545
3543.5,0.223594
3545.92,0.224833
3548.35,0.225751
3550.78,0.226371
3553.21,0.227147
3555.65,0.228034
3558.09,0.228877
3560.53,0.229681
3562.98,0.230951
3565.43,0.232061
3567.88,0.232819
3570.34,0.233615
3572.8,0.234342
3575.27,0.235148
3577.73,0.236007
3580.2,0.236871
3582.68,0.237904
3585.16,0.238657
3587.64,0.239217
3590.12,0.239896
3592.61,0.240796
3595.1,0.241901
3597.6,0.242865
3600.09,0.243706
3602.6,0.24454
3605.1,0.245081
3607.61,0.245673
3610.12,0.246403
3612.64,0.247145
3615.16,0.247942
3617.68,0.24882
3620.21,0.249528
3622.74,0.25006
3625.27,0.250697
3627.81,0.251609
3630.35,0.252372
3632.89,0.253175
3635.44,0.253833
3637.99,0.254456
3640.54,0.255025
3643.1,0.255693
3645.66,0.2565
3648.23,0.257264
3650.8,0.257585
3653.37,0.258092
3655.95,0.258911
3658.53,0.259548
3661.11,0.260033
3663.7,0.260633
3666.29,0.261279
3668.89,0.261763
3671.48,0.262043
3674.09,0.262292
3676.69,0.262799
3679.3,0.26348
3681.91,0.264037
3684.53,0.26453
3687.15,0.264861
3689.78,0.265284
3692.4,0.265798
3695.04,0.26641
3697.67,0.266886
3700.31,0.267034
3702.95,0.26731
3705.6,0.267906
3708.25,0.26841
3710.91,0.268717
3713.56,0.269058
3716.23,0.269644
3718.89,0.270072
3721.56,0.27041
3724.23,0.27065
3726.91,0.271114
3729.59,0.271461
3732.28,0.271617
3734.97,0.271889
3737.66,0.272369
3740.36,0.272528
3743.06,0.272486
3745.76,0.272228
3748.47,0.27213
3751.18,0.272413
3753.9,0.273125
3756.62,0.273454
3759.34,0.273539
3762.07,0.273791
3764.8,0.274195
3767.54,0.274308
3770.28,0.27451
3773.02,0.27466
3775.77,0.274877
3778.52,0.27489
3781.28,0.274988
3784.04,0.275162
3786.8,0.275255
3789.57,0.275398
3792.34,0.275873
3795.12,0.276201
3797.9,0.276476
3800.69,0.276761
3803.47,0.277034
3806.27,0.277499
3809.06,0.278012
3811.86,0.278194
3814.67,0.278305
3817.48,0.278394
3820.29,0.278642
3823.11,0.278671
3825.93,0.278561
3828.76,0.27833
3831.59,0.278189
3834.42,0.27797
3837.26,0.277512
3840.1,0.276711
3842.95,0.276775
3845.8,0.277885
3848.65,0.279303
3851.51,0.280439
3854.38,0.281337
3857.24,0.282114
3860.12,0.282908
3862.99,0.283399
3865.87,0.283913
3868.76,0.284367
3871.65,0.284876
3874.54,0.285319
3877.44,0.285565
3880.34,0.286028
3883.25,0.286445
3886.16,0.286634
3889.07,0.287053
3891.99,0.287217
3894.92,0.287475
3897.85,0.287545
3900.78,0.287352
3903.72,0.287251
3906.66,0.287077
3909.6,0.286876
3912.55,0.286945
3915.51,0.286516
3918.47,0.286225
3921.43,0.286335
3924.4,0.286603
3927.38,0.286957
3930.35,0.287443
3933.33,0.287492
3936.32,0.287728
3939.31,0.288157
3942.31,0.288078
3945.31,0.287871
3948.31,0.287721
3951.32,0.287375
3954.34,0.287105
3957.35,0.286828
3960.38,0.2866
3963.41,0.286369
3966.44,0.286314
3969.48,0.286154
3972.52,0.286117
3975.56,0.286057
3978.61,0.28596
3981.67,0.285829
3984.73,0.285975
3987.8,0.28606
3990.87,0.286509
3993.94,0.287073
3997.02,0.287516
4000.1,0.287792
4003.19,0.288063
4006.29,0.288337
4009.39,0.288656
4012.49,0.288801
4015.6,0.288918
4018.71,0.28897
4021.83,0.289157
4024.95,0.289213
4028.08,0.289416
4031.21,0.289731
4034.35,0.289972
4037.49,0.290227
4040.64,0.290491
4043.79,0.290485
4046.94,0.290755
4050.11,0.290951
4053.27,0.291068
4056.44,0.291197
4059.62,0.291591
4062.8,0.29178
4065.99,0.291811
4069.18,0.291764
4072.38,0.291921
4075.58,0.292166
4078.78,0.292211
4082.0,0.292096
4085.21,0.292234
4088.43,0.292315
4091.66,0.292279
4094.89,0.292191
4098.13,0.292195
4101.37,0.292277
4104.62,0.29243
4107.87,0.292443
4111.13,0.292488
4114.39,0.292515
4117.66,0.292469
4120.93,0.292262
4124.21,0.292242
4127.5,0.292378
4130.79,0.29239
4134.08,0.292181
4137.38,0.29215
4140.68,0.292293
4143.99,0.292313
4147.31,0.292298
4150.63,0.292332
4153.95,0.292093
4157.29,0.292114
4160.62,0.29213
4163.96,0.292277
4167.31,0.292252
4170.66,0.292021
4174.02,0.292038
4177.39,0.292186
4180.75,0.291962
4184.13,0.291771
4187.51,0.291617
4190.89,0.291534
4194.28,0.291512
4197.68,0.291531
4201.08,0.291357
4204.49,0.291167
4207.9,0.290664
4211.32,0.290339
4214.74,0.289952
4218.17,0.289175
4221.61,0.288364
4225.05,0.288106
4228.5,0.287622
4231.95,0.286788
4235.4,0.285856
4238.87,0.284927
4242.34,0.283501
4245.81,0.281673
4249.29,0.279028
4252.78,0.275829
4256.27,0.272187
4259.77,0.26807
4263.27,0.263627
4266.78,0.260133
4270.29,0.258513
4273.81,0.259123
4277.34,0.261989
4280.87,0.266449
4284.41,0.271284
4287.95,0.275434
4291.5,0.278297
4295.06,0.280012
4298.62,0.281221
4302.19,0.282493
4305.76,0.283432
4309.34,0.284159
4312.92,0.284714
4316.52,0.285169
4320.11,0.2853
4323.72,0.285522
4327.32,0.285636
4330.94,0.285659
4334.56,0.285608
4338.19,0.285783
4341.82,0.285613
4345.46,0.285421
4349.11,0.285097
4352.76,0.284925
4356.42,0.284727
4360.08,0.284513
4363.75,0.284223
4367.43,0.28398
4371.11,0.283659
4374.8,0.283444
4378.49,0.283158
4382.19,0.282819
4385.9,0.282389
4389.61,0.281963
4393.33,0.281459
4397.06,0.281145
4400.79,0.280767
4404.53,0.28043
4408.28,0.280158
4412.03,0.279784
4415.79,0.279221
4419.55,0.278742
4423.32,0.278225
4427.1,0.277763
4430.88,0.277263
4434.68,0.276765
4438.47,0.276161
4442.28,0.275717
4446.08,0.27518
4449.9,0.274592
4453.72,0.274033
4457.55,0.273544
4461.39,0.272944
4465.23,0.272258
4469.08,0.271463
4472.94,0.270865
4476.8,0.270241
4480.67,0.269436
4484.55,0.268498
4488.43,0.267893
4492.32,0.267277
4496.21,0.26653
4500.12,0.265683
4504.03,0.264841
4507.94,0.264082
4511.87,0.263406
4515.8,0.262511
4519.73,0.261635
4523.68,0.260734
4527.63,0.259897
4531.59,0.258775
4535.55,0.257738
4539.52,0.256831
4543.5,0.255896
4547.49,0.254606
4551.48,0.253423
4555.48,0.252009
4559.49,0.25057
4563.5,0.2492
4567.52,0.247885
4571.55,0.246306
4575.58,0.244758
4579.63,0.24296
4583.67,0.241023
4587.73,0.238902
4591.79,0.236755
4595.86,0.234534
4599.94,0.232321
4604.03,0.229839
4608.12,0.227271
4612.22,0.224427
4616.33,0.22152
4620.44,0.218433
4624.56,0.215442
4628.69,0.212518
4632.83,0.209504
4636.97,0.206663
4641.12,0.204205
4645.28,0.201898
4649.45,0.20003
4653.62,0.198478
4657.8,0.197378
4661.99,0.196482
4666.19,0.195867
4670.39,0.195405
4674.6,0.194973
4678.82,0.194494
4683.05,0.193887
4687.28,0.193134
4691.52,0.19221
4695.77,0.191246
4700.03,0.190044
4704.3,0.188581
4708.57,0.187226
4712.85,0.185684
4717.14,0.184076
4721.43,0.182466
4725.74,0.1809
4730.05,0.179292
4734.37,0.177857
4738.7,0.176443
4743.03,0.17502
4747.38,0.173612
4751.73,0.172356
4756.09,0.171169
4760.45,0.170092
4764.83,0.168851
4769.21,0.167718
4773.6,0.166726
4778.0,0.165804
4782.41,0.164903
4786.83,0.164118
4791.25,0.16341
4795.68,0.16273
4800.13,0.162226
4804.57,0.161858
4809.03,0.161508
4813.5,0.161168
4817.97,0.160899
4822.45,0.160714
4826.94,0.160486
4831.44,0.160313
4835.95,0.160101
4840.46,0.159867
4844.99,0.159557
4849.52,0.159209
4854.06,0.158775
4858.61,0.158338
4863.17,0.157754
4867.73,0.157118
4872.31,0.156409
4876.89,0.155721
4881.48,0.155006
4886.08,0.154469
4890.69,0.154105
4895.31,0.15373
4899.94,0.153338
4904.57,0.153125
4909.22,0.152902
4913.87,0.152553
4918.53,0.152164
4923.21,0.15165
4927.88,0.150937
4932.57,0.150334
4937.27,0.149583
4941.98,0.148525
4946.69,0.147172
4951.42,0.145847
4956.15,0.144637
4960.9,0.143261
4965.65,0.141721
4970.41,0.140318
4975.18,0.138951
4979.96,0.137569
4984.75,0.136257
4989.54,0.135141
4994.35,0.134163
4999.17,0.133563
5003.99,0.133467
5008.83,0.133767
5013.67,0.134237
5018.52,0.134984
5023.39,0.136098
5028.26,0.137601
5033.14,0.139367
5038.03,0.14125
5042.93,0.14296
5047.84,0.14475
5052.76,0.146719
5057.69,0.148606
5062.63,0.150274
5067.58,0.152043
5072.54,0.15376
5077.51,0.155307
5082.49,0.15673
5087.47,0.158278
5092.47,0.159602
5097.48,0.160806
5102.5,0.162005
5107.52,0.163206
5112.56,0.164267
5117.61,0.165431
5122.66,0.166543
5127.73,0.167544
5132.81,0.168286
5137.89,0.169099
5142.99,0.169976
5148.1,0.170962
5153.22,0.17191
5158.34,0.1729
5163.48,0.173983
5168.63,0.175055
5173.79,0.175981
5178.96,0.177025
5184.13,0.178044
5189.32,0.178937
5194.52,0.179692
5199.73,0.180481
5204.96,0.181006
5210.19,0.181554
5215.43,0.181978
5220.68,0.182245
5225.94,0.182378
5231.22,0.182592
5236.5,0.182624
5241.79,0.182613
5247.1,0.182474
5252.42,0.182222
5257.74,0.181984
5263.08,0.181771
5268.43,0.181521
5273.79,0.181303
5279.16,0.180885
5284.54,0.180571
5289.93,0.180279
5295.34,0.180124
5300.75,0.179943
5306.18,0.179843
5311.61,0.179649
5317.06,0.179657
5322.52,0.17966
5327.99,0.179696
5333.47,0.179888
5338.96,0.180277
5344.47,0.18061
5349.98,0.180852
5355.51,0.181017
5361.05,0.181444
5366.6,0.181833
5372.16,0.182076
5377.73,0.182205
5383.32,0.18241
5388.91,0.18249
5394.52,0.182599
5400.14,0.182577
5405.77,0.182578
5411.41,0.182559
5417.07,0.182521
5422.74,0.182454
5428.41,0.182342
5434.1,0.182322
5439.81,0.182369
5445.52,0.182049
5451.25,0.181797
5456.98,0.181436
5462.73,0.18113
5468.5,0.180553
5474.27,0.180174
5480.06,0.179744
5485.86,0.179132
5491.67,0.17865
5497.49,0.178259
5503.33,0.177796
5509.18,0.177336
5515.04,0.176884
5520.91,0.176608
5526.8,0.17617
5532.69,0.175843
5538.61,0.175663
5544.53,0.175628
5550.47,0.17546
5556.41,0.175334
5562.38,0.175229
5568.35,0.175435
5574.34,0.175701
5580.34,0.175774
5586.35,0.175767
5592.38,0.176073
5598.42,0.176265
5604.47,0.176434
5610.54,0.176481
5616.61,0.176533
5622.71,0.176311
5628.81,0.176204
5634.93,0.175905
5641.06,0.175575
5647.21,0.175094
5653.36,0.174815
5659.54,0.17448
5665.72,0.174082
5671.92,0.173671
5678.13,0.173073
5684.36,0.172342
5690.6,0.171857
5696.85,0.171101
5703.12,0.170514
5709.4,0.169868
5715.69,0.169055
5722.0,0.168084
5728.33,0.167379
5734.66,0.166607
5741.01,0.165878
5747.38,0.165043
5753.76,0.164044
5760.15,0.16295
5766.56,0.16213
5772.98,0.160598
5779.41,0.159691
5785.86,0.158658
5792.33,0.157456
5798.81,0.156268
5805.3,0.155029
5811.81,0.153741
5818.33,0.152788
5824.87,0.151663
5831.42,0.15061
5837.99,0.149556
5844.57,0.148577
5851.17,0.147366
5857.78,0.145937
5864.41,0.144277
5871.05,0.142688
5877.7,0.141366
5884.38,0.139982
5891.06,0.138345
5897.76,0.13766
5904.48,0.136557
5911.21,0.135982
5917.96,0.135657
5924.73,0.135149
5931.5,0.134689
5938.3,0.134374
5945.11,0.133702
5951.93,0.133531
5958.78,0.133405
5965.63,0.133203
5972.51,0.132903
5979.39,0.132589
5986.3,0.132238
5993.22,0.13179
6000.16,0.131635
6007.11,0.131633
6014.08,0.131402
6021.06,0.131017
6028.06,0.130897
6035.08,0.130769
6042.12,0.130387
6049.17,0.129917
6056.23,0.129195
6063.32,0.129139
6070.42,0.128968
6077.53,0.128385
6084.67,0.128103
6091.82,0.128078
6098.98,0.127955
6106.17,0.127777
6113.37,0.127666
6120.58,0.127428
6127.82,0.127294
6135.07,0.127389
6142.34,0.127361
6149.63,0.127212
6156.93,0.127109
6164.25,0.127098
6171.59,0.127102
6178.95,0.127167
6186.32,0.127024
6193.71,0.126896
6201.12,0.127024
6208.54,0.127232
6215.99,0.12713
6223.45,0.127048
6230.93,0.127008
6238.43,0.126963
6245.95,0.126804
6253.48,0.126626
6261.03,0.126335
6268.6,0.126044
6276.19,0.125682
6283.8,0.125549
6291.43,0.125359
6299.07,0.124994
6306.73,0.124606
6314.42,0.124451
6322.12,0.124192
6329.84,0.123728
6337.57,0.123282
6345.33,0.122786
6353.11,0.122289
6360.9,0.122173
6368.72,0.121943
6376.55,0.121523
6384.4,0.121313
6392.27,0.121225
6400.17,0.120829
6408.08,0.120549
6416.01,0.120117
6423.96,0.119481
6431.93,0.119397
6439.92,0.119293
6447.93,0.119056
6455.96,0.118767
6464.01,0.118395
6472.08,0.118249
6480.17,0.118022
6488.28,0.117714
6496.41,0.11729
6504.56,0.117349
6512.73,0.117611
6520.92,0.117844
6529.14,0.117807
6537.37,0.118116
6545.63,0.118303
6553.9,0.118431
6562.2,0.118618
6570.51,0.118812
6578.85,0.118825
6587.21,0.118998
6595.59,0.119042
6603.99,0.119168
6612.42,0.119313
6620.86,0.119314
6629.33,0.119272
6637.82,0.119104
6646.33,0.118697
6654.86,0.118775
6663.41,0.118783
6671.99,0.118605
6680.59,0.118413
6689.21,0.118048
6697.85,0.117611
6706.51,0.117463
6715.2,0.117117
6723.91,0.116697
6732.64,0.116459
6741.4,0.116411
6750.18,0.116205
6758.98,0.115846
6767.8,0.115557
6776.65,0.115272
6785.52,0.114711
6794.41,0.114158
6803.33,0.113625
6812.27,0.113244
6821.23,0.112806
6830.22,0.112314
6839.23,0.111646
6848.26,0.111191
6857.32,0.110767
6866.4,0.110401
6875.51,0.109848
6884.64,0.109646
6893.8,0.109425
6902.98,0.109211
6912.18,0.108719
6921.41,0.108231
6930.66,0.107885
6939.94,0.10747
6949.24,0.106981
6958.57,0.106821
6967.92,0.106427
6977.3,0.106125
6986.7,0.106067
6996.13,0.106004
7005.59,0.105807
7015.07,0.105614
7024.57,0.105615
7034.1,0.105639
7043.66,0.105597
7053.25,0.105553
7062.85,0.105646
7072.49,0.105827
7082.15,0.105774
7091.84,0.105777
7101.55,0.105921
7111.3,0.105805
7121.06,0.105604
7130.86,0.10563
7140.68,0.105635
7150.53,0.105441
7160.41,0.105124
7170.31,0.104912
7180.24,0.104596
7190.2,0.104339
7200.19,0.104031
7210.2,0.103815
7220.24,0.10328
7230.31,0.102769
7240.41,0.102301
7250.54,0.101834
7260.69,0.10145
7270.88,0.101176
7281.09,0.100805
7291.33,0.100297
7301.6,0.100028
7311.9,0.099778
7322.22,0.099356
7332.58,0.099008
7342.97,0.098697
7353.38,0.098361
7363.83,0.098123
7374.3,0.097956
7384.81,0.097608
7395.34,0.097333
7405.91,0.097308
7416.5,0.09731
7427.13,0.097133
7437.78,0.096978
7448.47,0.097013
7459.19,0.09704
7469.94,0.096884
7480.71,0.096688
7491.52,0.096443
7502.37,0.096254
7513.24,0.096027
7524.14,0.09593
7535.08,0.095859
7546.05,0.095729
7557.05,0.095444
7568.08,0.095218
7579.15,0.095129
7590.24,0.095014
7601.37,0.094734
7612.53,0.094537
7623.73,0.094243
7634.96,0.094022
7646.22,0.093711
7657.51,0.093336
7668.84,0.092879
7680.2,0.092537
7691.59,0.092078
7703.02,0.091601
7714.49,0.091087
7725.98,0.090513
7737.52,0.08991
7749.08,0.089332
7760.68,0.088806
7772.32,0.088214
7783.99,0.087575
7795.69,0.087042
7807.43,0.086473
7819.21,0.085815
7831.02,0.084997
7842.87,0.084299
7854.75,0.083672
7866.67,0.083082
7878.62,0.082419
7890.62,0.081755
7902.64,0.081145
7914.71,0.080462
7926.81,0.079642
7938.95,0.078856
7951.13,0.078029
7963.34,0.077165
7975.59,0.076249
7987.88,0.075463
8000.21,0.074606
8012.57,0.073667
8024.98,0.072778
8037.42,0.071886
8049.9,0.070934
8062.42,0.0701
8074.98,0.069226
8087.57,0.068408
8100.21,0.067512
8112.89,0.066756
8125.6,0.065992
8138.36,0.06518
8151.16,0.06415
8163.99,0.063236
8176.87,0.062382
8189.79,0.061455
8202.75,0.060303
8215.75,0.059145
8228.79,0.057933
8241.87,0.056852
8254.99,0.055829
8268.16,0.054697
8281.37,0.053465
8294.62,0.052351
8307.91,0.051209
8321.24,0.050199
8334.62,0.048929
8348.04,0.047644
8361.51,0.04652
8375.02,0.045464
8388.57,0.044163
8402.16,0.043
8415.8,0.04189
8429.49,0.040581
8443.22,0.039263
8456.99,0.038188
8470.81,0.036892
8484.67,0.035436
8498.58,0.034064
8512.54,0.033132
8526.54,0.031951
8540.58,0.030722
8554.68,0.029536
8568.82,0.028437
8583.0,0.027294
8597.24,0.026275
8611.52,0.025279
8625.85,0.024271
8640.23,0.023124
8654.65,0.022275
8669.12,0.021586
8683.64,0.020889
8698.21,0.019878
8712.83,0.019136
8727.5,0.018458
8742.22,0.017789
8756.99,0.017023
8771.8,0.016352
8786.67,0.015799
8801.59,0.015244
8816.56,0.014492
8831.58,0.013933
8846.65,0.013618
8861.77,0.013354
8876.94,0.012845
8892.17,0.012555
8907.45,0.012119
8922.78,0.011691
8938.16,0.011293
8953.6,0.011004
8969.09,0.010733
8984.64,0.010528
9000.23,0.010285
9015.89,0.010229
9031.59,0.010259
9047.36,0.010528
9063.17,0.010742
9079.05,0.011112
9094.97,0.011408
9110.96,0.01193
9127.0,0.012367
9143.1,0.013079
9159.25,0.013714
9175.46,0.014239
9191.73,0.015015
9208.06,0.016293
9224.44,0.017333
9240.88,0.018621
9257.38,0.019871
9273.94,0.021261
9290.56,0.022597
9307.24,0.024108
9323.98,0.02533
9340.78,0.026329
9357.64,0.026979
9374.57,0.02747
9391.55,0.027863
9408.59,0.028359
9425.7,0.028508
9442.87,0.028385
9460.1,0.028351
9477.4,0.028351
9494.75,0.028003
9512.17,0.027619
9529.66,0.027215
9547.21,0.026794
9564.83,0.026233
9582.5,0.025752
9600.25,0.025435
9618.06,0.025022
9635.94,0.024412
9653.88,0.024061
9671.89,0.023591
9689.97,0.02305
9708.12,0.022429
9726.33,0.022063
9744.62,0.021701
9762.97,0.021213
9781.39,0.020884
9799.88,0.020666
9818.44,0.020136
9837.07,0.019831
9855.77,0.01978
9874.54,0.01972
9893.39,0.019492
9912.3,0.019314
9931.29,0.019146
9950.36,0.019156
9969.49,0.019042
9988.7,0.018994
10007.98,0.018995
10027.34,0.019113
10046.77,0.01914
10066.28,0.01905
10085.87,0.018746
10105.53,0.01845
10125.26,0.01816
10145.08,0.017771
10164.97,0.017343
10184.94,0.017018
10204.99,0.016581
10225.12,0.016195
10245.33,0.015765
10265.61,0.015387
10285.98,0.015128
10306.43,0.015065
10326.96,0.014965
10347.57,0.014878
10368.27,0.015062
10389.05,0.015326
10409.91,0.015355
10430.86,0.015481
10451.88,0.015764
10473.0,0.016029
10494.2,0.015875
10515.49,0.015664
10536.86,0.015475
10558.32,0.015487
10579.87,0.015316
10601.5,0.014962
10623.23,0.014369
10645.04,0.01422
10666.94,0.014026
10688.94,0.013858
10711.02,0.013592
10733.2,0.013432
10755.47,0.013262
10777.83,0.013092
10800.28,0.012851
10822.83,0.012612
10845.47,0.012277
10868.21,0.012309
10891.04,0.012181
10913.97,0.01207
10936.99,0.012069
10960.12,0.012144
10983.34,0.01231
11006.66,0.012508
11030.07,0.012527
11053.59,0.012594
11077.21,0.012403
11100.93,0.012232
11124.75,0.011804
11148.68,0.011723
11172.71,0.011581
11196.84,0.011323
11221.07,0.011016
11245.41,0.010901
11269.86,0.010577
11294.41,0.010485
11319.07,0.010382
11343.84,0.010255
11368.72,0.010286
11393.7,0.010508
11418.8,0.010446
11444.01,0.010349
11469.33,0.010513
11494.76,0.010843
11520.3,0.011071
11545.96,0.011547
11571.73,0.011681
11597.62,0.011785
11623.62,0.012142
11649.74,0.012456
11675.98,0.012413
11702.34,0.012633
11728.81,0.012971
11755.41,0.013452
11782.13,0.013759
11808.96,0.014025
11835.92,0.014204
11863.01,0.01446
11890.22,0.014487
11917.55,0.014688
11945.01,0.015069
11972.6,0.015365
12000.31,0.015196
12028.16,0.015247
12056.13,0.015478
12084.23,0.015644
12112.46,0.015893
12140.83,0.016276
12169.33,0.016587
12197.96,0.017072
12226.73,0.017507
12255.64,0.017868
12284.68,0.018084
12313.86,0.018871
12343.18,0.019552
12372.64,0.019966
12402.24,0.020307
12431.98,0.020818
12461.86,0.021204
12491.89,0.021151
12522.07,0.021068
12552.38,0.02127
12582.85,0.021428
12613.47,0.021408
12644.23,0.021128
12675.15,0.021108
12706.21,0.021146
12737.43,0.021361
12768.81,0.021169
12800.33,0.020803
12832.02,0.020414
12863.86,0.020338
12895.86,0.020463
12928.02,0.02051
12960.34,0.020301
12992.82,0.020135
13025.46,0.020235
13058.27,0.020431
13091.25,0.020378
13124.39,0.020491
13157.7,0.02064
13191.18,0.020737
13224.83,0.020688
13258.66,0.02071
13292.65,0.020627
13326.83,0.020818
13361.17,0.0209
13395.7,0.021213
13430.4,0.021167
13465.29,0.021151
13500.35,0.021139
13535.6,0.021211
13571.03,0.021194
13606.65,0.021295
13642.46,0.021374
13678.46,0.021433
13714.64,0.021368
13751.02,0.021264
13787.59,0.021249
13824.36,0.021299
13861.32,0.02121
13898.49,0.020888
13935.85,0.020704
13973.41,0.020732
14011.17,0.020477
14049.15,0.019957
14087.32,0.018547
14125.71,0.018129
14164.3,0.01868
14203.11,0.018641
14242.13,0.018288
14281.36,0.018045
14320.81,0.018077
14360.49,0.018188
14400.38,0.018121
14440.49,0.018153
14480.82,0.018352
14521.39,0.018388
14562.18,0.018143
14603.2,0.018397
14644.45,0.018865
14685.93,0.019105
14727.66,0.019529
14769.62,0.019969
14811.81,0.02041
14854.25,0.021086
14896.94,0.021506
14939.87,0.021919
14983.05,0.022347
15026.48,0.022622
15070.16,0.02266
15114.1,0.022721
15158.29,0.022733
15202.74,0.022857
15247.46,0.02306
15292.43,0.02319
15337.68,0.022756
15383.19,0.022239
15428.97,0.021815
15475.03,0.02164
15521.36,0.021724
15567.97,0.021583
15614.87,0.021675
15662.04,0.022091
15709.5,0.02233
15757.25,0.022805
15805.29,0.022974
15853.62,0.02312
15902.26,0.023025
15951.19,0.023208
16000.42,0.023661
16049.95,0.024137
16099.8,0.024515
16149.95,0.024805
16200.42,0.025054
16251.21,0.025282
16302.31,0.025621
16353.74,0.026595
16405.49,0.02713
16457.57,0.027132
16509.98,0.02766
16562.73,0.02829
16615.82,0.028924
16669.24,0.029846
16723.02,0.03066
16777.14,0.031271
16831.61,0.031597
16886.43,0.032107
16941.62,0.03298
16997.16,0.03364
17053.08,0.033903
17109.36,0.034162
17166.01,0.034316
17223.04,0.03458
17280.45,0.034814
17338.24,0.035177
17396.43,0.035449
17455.0,0.035952
17513.97,0.03636
17573.34,0.036696
17633.11,0.037225
17693.29,0.038474
17753.89,0.039719
17814.9,0.040789
17876.33,0.041166
17938.18,0.04086
18000.47,0.0406
18063.19,0.040549
18126.35,0.039788
18189.95,0.038733
18254.0,0.037978
18318.5,0.037272
18383.46,0.037076
18448.88,0.037467
18514.77,0.037442
18581.13,0.037819
18647.97,0.037494
18715.29,0.037194
18783.1,0.037468
18851.4,0.037728
18920.2,0.037722
18989.51,0.037728
19059.32,0.037873
19129.65,0.03836
19200.5,0.037601
19271.88,0.037199
19343.79,0.038585
19416.24,0.039917
19489.23,0.040305
19562.77,0.040008
19636.88,0.039861
19711.54,0.039876
19786.78,0.039694
19862.59,0.03945
19938.98,0.039358
20015.96,0.039569
20093.55,0.040066
20171.73,0.040801
20250.53,0.041113
20329.94,0.041381
20409.98,0.04119
20490.65,0.040846
20571.96,0.040411
20653.92,0.040425
20736.54,0.040186
20819.82,0.040839
20903.77,0.0417
20988.4,0.04197
21073.72,0.041712
21159.73,0.04373
21246.46,0.046622
21333.89,0.045505
21422.04,0.044473
21510.93,0.044139
21600.56,0.043873
21690.94,0.04343
21782.08,0.042421
21873.99,0.041567
21966.67,0.040606
22060.15,0.039054
22154.42,0.038534
22249.51,0.040227
22345.41,0.041052
22442.14,0.042184
22539.72,0.044139
22638.14,0.045438
22737.43,0.045557
22837.6,0.044664
22938.65,0.04246
23040.6,0.041775
23143.46,0.040525
23247.24,0.039572
23351.96,0.037149
23457.63,0.034625
23564.25,0.033265
23671.85,0.033307
23780.44,0.03378
23890.02,0.036735
24000.63,0.039925
24112.26,0.040585
24224.93,0.040113
24338.66,0.038816
24453.47,0.038383
24569.36,0.041094
24686.36,0.043363
24804.47,0.045329
24923.73,0.046138
25044.13,0.047798
25165.71,0.048183
25288.46,0.046583
25412.43,0.041661
25537.61,0.038526
25664.04,0.041193
25791.72,0.040132
25920.68,0.037879
