Database of Origin,University of Winnipeg Spectrophotometer Facility
Sample Description,Bishopville aubrite from Tom Burbine (data only) (c) Spectra only: RELAB + Nicolet
Other Information,Spectrum only from RELAB
Date Added,2018-07-23 23:33:44.636137

Data ID,RLA_MET_12_1        
Sample ID,MET300
Mineral Name,Aubrite
Locality,Bishopville
Grain Size,<1 mm
Viewing Geometry,30/0/30
Resolution,10/ 0.6-129
Composition,"""fresh"" sample Bishopville aubrite"

Wavelength
330.0,0.25204
340.0,0.270644
350.0,0.288638
360.0,0.306513
370.0,0.321121
380.0,0.334013
390.0,0.344643
400.0,0.354034
410.0,0.363426
420.0,0.368748
430.0,0.373755
440.0,0.379122
450.0,0.383461
460.0,0.387963
470.0,0.392245
480.0,0.395981
490.0,0.400655
500.0,0.404962
510.0,0.408668
520.0,0.413053
530.0,0.41637
540.0,0.420604
550.0,0.425146
560.0,0.428462
570.0,0.43086
580.0,0.434115
590.0,0.436778
600.0,0.436447
610.0,0.438721
620.0,0.4398
630.0,0.440573
640.0,0.442371
650.0,0.442593
660.0,0.442556
670.0,0.443519
680.0,0.443847
690.0,0.443997
700.0,0.44314
710.0,0.442742
720.0,0.442293
730.0,0.442338
740.0,0.442546
750.0,0.442846
760.0,0.44279
770.0,0.442733
780.0,0.442829
790.0,0.443419
800.0,0.441018
810.0,0.441463
820.0,0.440598
830.0,0.441134
840.0,0.440369
850.0,0.439388
860.0,0.439482
870.0,0.43945
880.0,0.439857
890.0,0.441499
900.0,0.440813
910.0,0.441641
920.0,0.44134
930.0,0.443433
940.0,0.443884
950.0,0.445932
960.0,0.446453
970.0,0.446787
980.0,0.448505
990.0,0.449154
1000.0,0.449393
1010.0,0.450336
1020.0,0.451123
1030.0,0.451104
1040.0,0.452502
1050.0,0.45351
1060.0,0.453552
1070.0,0.453457
1080.0,0.454314
1090.0,0.454151
1100.0,0.45371
1110.0,0.453715
1120.0,0.454986
1130.0,0.455247
1140.0,0.455616
1150.0,0.455259
1160.0,0.456722
1170.0,0.455319
1180.0,0.455839
1190.0,0.455675
1200.0,0.456012
1210.0,0.456349
1220.0,0.456296
1230.0,0.455302
1240.0,0.455811
1250.0,0.457008
1260.0,0.455775
1270.0,0.456586
1280.0,0.456191
1290.0,0.454911
1300.0,0.454667
1310.0,0.455614
1320.0,0.456337
1330.0,0.454585
1340.0,0.455548
1350.0,0.454426
1360.0,0.453444
1370.0,0.45315
1380.0,0.452456
1390.0,0.450264
1400.0,0.449988
1410.0,0.449972
1420.0,0.449075
1430.0,0.447619
1440.0,0.447047
1450.0,0.446998
1460.0,0.448203
1470.0,0.449103
1480.0,0.449902
1490.0,0.450694
1500.0,0.451037
1510.0,0.451603
1520.0,0.453016
1530.0,0.454691
1540.0,0.455549
1550.0,0.455264
1560.0,0.455673
1570.0,0.456028
1580.0,0.456328
1590.0,0.457106
1600.0,0.457756
1610.0,0.460369
1620.0,0.460768
1630.0,0.460878
1640.0,0.460321
1650.0,0.462297
1660.0,0.462456
1670.0,0.462841
1680.0,0.463127
1690.0,0.464728
1700.0,0.466123
1710.0,0.467026
1720.0,0.466777
1730.0,0.466346
1740.0,0.466075
1750.0,0.466112
1760.0,0.464989
1770.0,0.46555
1780.0,0.464455
1790.0,0.465169
1800.0,0.465497
1810.0,0.46462
1820.0,0.465745
1830.0,0.465369
1840.0,0.46565
1850.0,0.464736
1860.0,0.464059
1870.0,0.464626
1880.0,0.460634
1890.0,0.459549
1900.0,0.454859
1910.0,0.446625
1920.0,0.443969
1930.0,0.4398
1940.0,0.436265
1950.0,0.436792
1960.0,0.44097
1970.0,0.442183
1980.0,0.443743
1990.0,0.445308
2000.0,0.448007
2010.0,0.450235
2020.0,0.45168
2030.0,0.452459
2040.0,0.452485
2050.0,0.452127
2060.0,0.452447
2070.0,0.451931
2080.0,0.451748
2090.0,0.451549
2100.0,0.451376
2110.0,0.451464
2120.0,0.450793
2130.0,0.450359
2140.0,0.450711
2150.0,0.450357
2160.0,0.450497
2170.0,0.449822
2180.0,0.449385
2190.0,0.44932
2200.0,0.449141
2210.0,0.449876
2220.0,0.44803
2230.0,0.447877
2240.0,0.447399
2250.0,0.446405
2260.0,0.445478
2270.0,0.444094
2280.0,0.443663
2290.0,0.442155
2300.0,0.442129
2310.0,0.441489
2320.0,0.439566
2330.0,0.439772
2340.0,0.43845
2350.0,0.437698
2360.0,0.43753
2370.0,0.437344
2380.0,0.435494
2390.0,0.434236
2400.0,0.432279
2410.0,0.430056
2420.0,0.428736
2430.0,0.426133
2440.0,0.424953
2450.0,0.423371
2460.0,0.421952
2470.0,0.420709
2480.0,0.418522
2490.0,0.417426
2500.0,0.417721
2510.0,0.417562
2520.0,0.417491
2530.0,0.41781
2540.0,0.417141
2550.0,0.417717
2552.5,0.417458
2553.76,0.417855
2555.02,0.417882
2556.28,0.417693
2557.54,0.417974
2558.8,0.417901
2560.07,0.41822
2561.33,0.418852
2562.6,0.419091
2563.86,0.418599
2565.13,0.418102
2566.4,0.41791
2567.67,0.418057
2568.95,0.418312
2570.22,0.418706
2571.5,0.418885
2572.77,0.418523
2574.05,0.418686
2575.33,0.419192
2576.61,0.419722
2577.89,0.420046
2579.17,0.419734
2580.46,0.419619
2581.74,0.420225
2583.03,0.420207
2584.31,0.420118
2585.6,0.419894
2586.89,0.420016
2588.19,0.420483
2589.48,0.420411
2590.77,0.421064
2592.07,0.42135
2593.36,0.421166
2594.66,0.42147
2595.96,0.42196
2597.26,0.420798
2598.56,0.420899
2599.87,0.421685
2601.17,0.422015
2602.48,0.42227
2603.78,0.421954
2605.09,0.422224
2606.4,0.422371
2607.71,0.421807
2609.03,0.422135
2610.34,0.422835
2611.66,0.422492
2612.97,0.422106
2614.29,0.422523
2615.61,0.422645
2616.93,0.422775
2618.25,0.42267
2619.57,0.422166
2620.9,0.422756
2622.22,0.422745
2623.55,0.421949
2624.88,0.421924
2626.21,0.422289
2627.54,0.422991
2628.87,0.422893
2630.21,0.422219
2631.54,0.422369
2632.88,0.422036
2634.21,0.422082
2635.55,0.422001
2636.89,0.42187
2638.24,0.422222
2639.58,0.421844
2640.92,0.421571
2642.27,0.420953
2643.62,0.42044
2644.97,0.420567
2646.32,0.420781
2647.67,0.420393
2649.02,0.419453
2650.38,0.418789
2651.73,0.41881
2653.09,0.419057
2654.45,0.419129
2655.81,0.418529
2657.17,0.417919
2658.53,0.417321
2659.89,0.416871
2661.26,0.41634
2662.63,0.415812
2664.0,0.41484
2665.36,0.414126
2666.74,0.413798
2668.11,0.41364
2669.48,0.412774
2670.86,0.411559
2672.23,0.410523
2673.61,0.409266
2674.99,0.407917
2676.37,0.406416
2677.76,0.404727
2679.14,0.404057
2680.52,0.403229
2681.91,0.401621
2683.3,0.399593
2684.69,0.39778
2686.08,0.396086
2687.47,0.394179
2688.87,0.392311
2690.26,0.390217
2691.66,0.387468
2693.06,0.3846
2694.46,0.382108
2695.86,0.379858
2697.26,0.377264
2698.66,0.374387
2700.07,0.371235
2701.48,0.36801
2702.89,0.364884
2704.3,0.36145
2705.71,0.358053
2707.12,0.354994
2708.53,0.351583
2709.95,0.348395
2711.37,0.345521
2712.79,0.342283
2714.21,0.33819
2715.63,0.334577
2717.05,0.331184
2718.48,0.327471
2719.9,0.32425
2721.33,0.322186
2722.76,0.320846
2724.19,0.318826
2725.62,0.317504
2727.06,0.317031
2728.49,0.31551
2729.93,0.313396
2731.37,0.311578
2732.81,0.309617
2734.25,0.307047
2735.69,0.305038
2737.14,0.302475
2738.58,0.299858
2740.03,0.298141
2741.48,0.296287
2742.93,0.293438
2744.38,0.290458
2745.83,0.287984
2747.29,0.285175
2748.75,0.282691
2750.2,0.280551
2751.66,0.278199
2753.13,0.275552
2754.59,0.273066
2756.05,0.270814
2757.52,0.26865
2758.99,0.266492
2760.46,0.264034
2761.93,0.261539
2763.4,0.259651
2764.87,0.258095
2766.35,0.256068
2767.82,0.254048
2769.3,0.252608
2770.78,0.251268
2772.26,0.249577
2773.75,0.247573
2775.23,0.245473
2776.72,0.243697
2778.21,0.24206
2779.7,0.241084
2781.19,0.24045
2782.68,0.238964
2784.18,0.23749
2785.67,0.235739
2787.17,0.234253
2788.67,0.233154
2790.17,0.231947
2791.67,0.230702
2793.18,0.229323
2794.68,0.227932
2796.19,0.226558
2797.7,0.226004
2799.21,0.225342
2800.72,0.223913
2802.24,0.222491
2803.75,0.222164
2805.27,0.221751
2806.79,0.220386
2808.31,0.219318
2809.83,0.21845
2811.35,0.217536
2812.88,0.217272
2814.41,0.217223
2815.93,0.216781
2817.46,0.21604
2819.0,0.215351
2820.53,0.21529
2822.07,0.215201
2823.6,0.214608
2825.14,0.213958
2826.68,0.213727
2828.22,0.213565
2829.77,0.21322
2831.31,0.213331
2832.86,0.213107
2834.41,0.213099
2835.96,0.212918
2837.51,0.212792
2839.07,0.213051
2840.62,0.213282
2842.18,0.212954
2843.74,0.212627
2845.3,0.212445
2846.86,0.212179
2848.43,0.211919
2849.99,0.211662
2851.56,0.21141
2853.13,0.211469
2854.7,0.211075
2856.27,0.210466
2857.85,0.210231
2859.42,0.210138
2861.0,0.209977
2862.58,0.209697
2864.16,0.209547
2865.75,0.209396
2867.33,0.209596
2868.92,0.209853
2870.51,0.20953
2872.1,0.209752
2873.69,0.210266
2875.28,0.210029
2876.88,0.209402
2878.48,0.209102
2880.07,0.209164
2881.68,0.209056
2883.28,0.208701
2884.88,0.208551
2886.49,0.208387
2888.1,0.208254
2889.71,0.207806
2891.32,0.20772
2892.93,0.207398
2894.55,0.20684
2896.16,0.206491
2897.78,0.206464
2899.4,0.206064
2901.03,0.205356
2902.65,0.204881
2904.28,0.204354
2905.91,0.203939
2907.54,0.203361
2909.17,0.202634
2910.8,0.202432
2912.44,0.202346
2914.07,0.201783
2915.71,0.200888
2917.35,0.200101
2918.99,0.199371
2920.64,0.198523
2922.29,0.197765
2923.93,0.197355
2925.58,0.196984
2927.24,0.196141
2928.89,0.19535
2930.55,0.194685
2932.2,0.194196
2933.86,0.193523
2935.52,0.193126
2937.19,0.192497
2938.85,0.191895
2940.52,0.191738
2942.19,0.191607
2943.86,0.191247
2945.53,0.191131
2947.21,0.190978
2948.88,0.190681
2950.56,0.190917
2952.24,0.191077
2953.92,0.191151
2955.61,0.191336
2957.29,0.191822
2958.98,0.192292
2960.67,0.19287
2962.36,0.193698
2964.06,0.194402
2965.75,0.194905
2967.45,0.195636
2969.15,0.19619
2970.85,0.196896
2972.55,0.197471
2974.26,0.197379
2975.97,0.197475
2977.68,0.198005
2979.39,0.198684
2981.1,0.199148
2982.82,0.19946
2984.53,0.199807
2986.25,0.199932
2987.97,0.199963
2989.7,0.200113
2991.42,0.200362
2993.15,0.20062
2994.88,0.200462
2996.61,0.200578
2998.34,0.200726
3000.08,0.200893
3001.82,0.201121
3003.55,0.201611
3005.3,0.201944
3007.04,0.202145
3008.78,0.201933
3010.53,0.201959
3012.28,0.202335
3014.03,0.202701
3015.79,0.202854
3017.54,0.202997
3019.3,0.203138
3021.06,0.203507
3022.82,0.203864
3024.58,0.204078
3026.35,0.204245
3028.12,0.204405
3029.89,0.204561
3031.66,0.204931
3033.43,0.205444
3035.21,0.205887
3036.99,0.206454
3038.77,0.206879
3040.55,0.207525
3042.33,0.208023
3044.12,0.208618
3045.91,0.209036
3047.7,0.209473
3049.49,0.210306
3051.29,0.210645
3053.08,0.210848
3054.88,0.211157
3056.68,0.211666
3058.49,0.21225
3060.29,0.213058
3062.1,0.213533
3063.91,0.214069
3065.72,0.214596
3067.54,0.214822
3069.35,0.215299
3071.17,0.215554
3072.99,0.215969
3074.81,0.216109
3076.64,0.216148
3078.47,0.217014
3080.29,0.217889
3082.13,0.218218
3083.96,0.218666
3085.79,0.219067
3087.63,0.219949
3089.47,0.220837
3091.31,0.221815
3093.16,0.222849
3095.01,0.223585
3096.85,0.22425
3098.71,0.225223
3100.56,0.22604
3102.41,0.226943
3104.27,0.227983
3106.13,0.228694
3107.99,0.229386
3109.86,0.230262
3111.73,0.231026
3113.59,0.232012
3115.47,0.232832
3117.34,0.233258
3119.21,0.233909
3121.09,0.235059
3122.97,0.235933
3124.86,0.236557
3126.74,0.23693
3128.63,0.237745
3130.52,0.238655
3132.41,0.239037
3134.3,0.239713
3136.2,0.240365
3138.1,0.241147
3140.0,0.242114
3141.9,0.242908
3143.81,0.243685
3145.71,0.244396
3147.62,0.245242
3149.54,0.246057
3151.45,0.246795
3153.37,0.24758
3155.29,0.248649
3157.21,0.249707
3159.13,0.25011
3161.06,0.250792
3162.99,0.251714
3164.92,0.252636
3166.85,0.253685
3168.79,0.254522
3170.72,0.25494
3172.67,0.255645
3174.61,0.256544
3176.55,0.25727
3178.5,0.258128
3180.45,0.259122
3182.4,0.259958
3184.36,0.260475
3186.32,0.261061
3188.27,0.261999
3190.24,0.262692
3192.2,0.263426
3194.17,0.264353
3196.14,0.26498
3198.11,0.265686
3200.08,0.266448
3202.06,0.266973
3204.04,0.267806
3206.02,0.268629
3208.0,0.269078
3209.99,0.269674
3211.98,0.270406
3213.97,0.271312
3215.96,0.272099
3217.96,0.272612
3219.96,0.273205
3221.96,0.273945
3223.96,0.274561
3225.97,0.275015
3227.98,0.275919
3229.99,0.276629
3232.0,0.277032
3234.02,0.277738
3236.04,0.278331
3238.06,0.279267
3240.08,0.280251
3242.11,0.280823
3244.14,0.28155
3246.17,0.282228
3248.2,0.282723
3250.24,0.283317
3252.28,0.283868
3254.32,0.284665
3256.37,0.28538
3258.41,0.286034
3260.46,0.286874
3262.51,0.287623
3264.57,0.288001
3266.63,0.288638
3268.69,0.289334
3270.75,0.290044
3272.81,0.290553
3274.88,0.291095
3276.95,0.291903
3279.02,0.292471
3281.1,0.292929
3283.18,0.293779
3285.26,0.294679
3287.34,0.295154
3289.43,0.295393
3291.51,0.295964
3293.61,0.296639
3295.7,0.297286
3297.8,0.297673
3299.9,0.297983
3302.0,0.298584
3304.1,0.299172
3306.21,0.2997
3308.32,0.300248
3310.43,0.300553
3312.55,0.301043
3314.66,0.301689
3316.79,0.302153
3318.91,0.302259
3321.03,0.302495
3323.16,0.30306
3325.29,0.30351
3327.43,0.303909
3329.57,0.304419
3331.71,0.304785
3333.85,0.305171
3335.99,0.305599
3338.14,0.305989
3340.29,0.306215
3342.45,0.306411
3344.6,0.306768
3346.76,0.307088
3348.92,0.307327
3351.09,0.307359
3353.26,0.307123
3355.43,0.307134
3357.6,0.307026
3359.78,0.306568
3361.96,0.306042
3364.14,0.305219
3366.32,0.304133
3368.51,0.303084
3370.7,0.302255
3372.89,0.301701
3375.09,0.301405
3377.29,0.301732
3379.49,0.302288
3381.69,0.302988
3383.9,0.30419
3386.11,0.305646
3388.32,0.306984
3390.54,0.307951
3392.76,0.308069
3394.98,0.307658
3397.21,0.307306
3399.43,0.306758
3401.66,0.305906
3403.9,0.305198
3406.13,0.304842
3408.37,0.304426
3410.61,0.30395
3412.86,0.303821
3415.11,0.303977
3417.36,0.304757
3419.61,0.305915
3421.87,0.307481
3424.13,0.309477
3426.39,0.311504
3428.66,0.313325
3430.93,0.315027
3433.2,0.316052
3435.48,0.316524
3437.76,0.316042
3440.04,0.314561
3442.32,0.312879
3444.61,0.312044
3446.9,0.312974
3449.19,0.315519
3451.49,0.31817
3453.79,0.320219
3456.09,0.321237
3458.4,0.32093
3460.7,0.320351
3463.02,0.320947
3465.33,0.322969
3467.65,0.325177
3469.97,0.326866
3472.29,0.328245
3474.62,0.328908
3476.95,0.329725
3479.29,0.330689
3481.62,0.33173
3483.96,0.332653
3486.3,0.332993
3488.65,0.332984
3491.0,0.33303
3493.35,0.333163
3495.71,0.333357
3498.07,0.333238
3500.43,0.333493
3502.79,0.334339
3505.16,0.335549
3507.53,0.337244
3509.91,0.33944
3512.29,0.341875
3514.67,0.344018
3517.05,0.345744
3519.44,0.347479
3521.83,0.349155
3524.23,0.350409
3526.62,0.351229
3529.02,0.352107
3531.43,0.353296
3533.83,0.354327
3536.24,0.354995
3538.66,0.355574
3541.08,0.356297
3543.5,0.357101
3545.92,0.357615
3548.35,0.358198
3550.78,0.358736
3553.21,0.359319
3555.65,0.359783
3558.09,0.360404
3560.53,0.361064
3562.98,0.361567
3565.43,0.362235
3567.88,0.36283
3570.34,0.36304
3572.8,0.363104
3575.27,0.363293
3577.73,0.363652
3580.2,0.363777
3582.68,0.363901
3585.16,0.363906
3587.64,0.364057
3590.12,0.364537
3592.61,0.365053
3595.1,0.365326
3597.6,0.365853
3600.09,0.366228
3602.6,0.366528
3605.1,0.366497
3607.61,0.366296
3610.12,0.366016
3612.64,0.365548
3615.16,0.365053
3617.68,0.365138
3620.21,0.365646
3622.74,0.36641
3625.27,0.367283
3627.81,0.368251
3630.35,0.368894
3632.89,0.369129
3635.44,0.369678
3637.99,0.370242
3640.54,0.370503
3643.1,0.370681
3645.66,0.370865
3648.23,0.37096
3650.8,0.371072
3653.37,0.371517
3655.95,0.371855
3658.53,0.372201
3661.11,0.372592
3663.7,0.372788
3666.29,0.372863
3668.89,0.373075
3671.48,0.373144
3674.09,0.37322
3676.69,0.373567
3679.3,0.373835
3681.91,0.37402
3684.53,0.37439
3687.15,0.374696
3689.78,0.374971
3692.4,0.375309
3695.04,0.375776
3697.67,0.375988
3700.31,0.375863
3702.95,0.37603
3705.6,0.376305
3708.25,0.376457
3710.91,0.37649
3713.56,0.376607
3716.23,0.376516
3718.89,0.37662
3721.56,0.376916
3724.23,0.376833
3726.91,0.376928
3729.59,0.376995
3732.28,0.376983
3734.97,0.376947
3737.66,0.377051
3740.36,0.377243
3743.06,0.37724
3745.76,0.377046
3748.47,0.37712
3751.18,0.377476
3753.9,0.377742
3756.62,0.377757
3759.34,0.377644
3762.07,0.377567
3764.8,0.37768
3767.54,0.377525
3770.28,0.377497
3773.02,0.377812
3775.77,0.377953
3778.52,0.377827
3781.28,0.377885
3784.04,0.377892
3786.8,0.377814
3789.57,0.377834
3792.34,0.377986
3795.12,0.377911
3797.9,0.377867
3800.69,0.377744
3803.47,0.377658
3806.27,0.377726
3809.06,0.377777
3811.86,0.377627
3814.67,0.377669
3817.48,0.377624
3820.29,0.377469
3823.11,0.37744
3825.93,0.377458
3828.76,0.37737
3831.59,0.377395
3834.42,0.377274
3837.26,0.377223
3840.1,0.377264
3842.95,0.377193
3845.8,0.376941
3848.65,0.376811
3851.51,0.376648
3854.38,0.376592
3857.24,0.376779
3860.12,0.376947
3862.99,0.376639
3865.87,0.376376
3868.76,0.376366
3871.65,0.376339
3874.54,0.376061
3877.44,0.375778
3880.34,0.375694
3883.25,0.375668
3886.16,0.375663
3889.07,0.375775
3891.99,0.375862
3894.92,0.375574
3897.85,0.375097
3900.78,0.374981
3903.72,0.375012
3906.66,0.374867
3909.6,0.374647
3912.55,0.374599
3915.51,0.37454
3918.47,0.374157
3921.43,0.373897
3924.4,0.373849
3927.38,0.373453
3930.35,0.373087
3933.33,0.372923
3936.32,0.372786
3939.31,0.372479
3942.31,0.372121
3945.31,0.371879
3948.31,0.371576
3951.32,0.371322
3954.34,0.371126
3957.35,0.370758
3960.38,0.370496
3963.41,0.370195
3966.44,0.369881
3969.48,0.369649
3972.52,0.369451
3975.56,0.369002
3978.61,0.368715
3981.67,0.368579
3984.73,0.36825
3987.8,0.367692
3990.87,0.367455
3993.94,0.367501
3997.02,0.367339
4000.1,0.367034
4003.19,0.366812
4006.29,0.366534
4009.39,0.366413
4012.49,0.36618
4015.6,0.366058
4018.71,0.36575
4021.83,0.365506
4024.95,0.365413
4028.08,0.365141
4031.21,0.364847
4034.35,0.364614
4037.49,0.364272
4040.64,0.363968
4043.79,0.36364
4046.94,0.36356
4050.11,0.363205
4053.27,0.362716
4056.44,0.362408
4059.62,0.362193
4062.8,0.361989
4065.99,0.36169
4069.18,0.36129
4072.38,0.360891
4075.58,0.360503
4078.78,0.360144
4082.0,0.35968
4085.21,0.35938
4088.43,0.359031
4091.66,0.358623
4094.89,0.358113
4098.13,0.35769
4101.37,0.35747
4104.62,0.357271
4107.87,0.35696
4111.13,0.356501
4114.39,0.356041
4117.66,0.35568
4120.93,0.355327
4124.21,0.354982
4127.5,0.354567
4130.79,0.354151
4134.08,0.353697
4137.38,0.353247
4140.68,0.352755
4143.99,0.352134
4147.31,0.351623
4150.63,0.351212
4153.95,0.350674
4157.29,0.350211
4160.62,0.349459
4163.96,0.348866
4167.31,0.348432
4170.66,0.348083
4174.02,0.347541
4177.39,0.346941
4180.75,0.346369
4184.13,0.345897
4187.51,0.345407
4190.89,0.344719
4194.28,0.343958
4197.68,0.343285
4201.08,0.342613
4204.49,0.342066
4207.9,0.341341
4211.32,0.340548
4214.74,0.3398
4218.17,0.338851
4221.61,0.338021
4225.05,0.337534
4228.5,0.3367
4231.95,0.3359
4235.4,0.335056
4238.87,0.334017
4242.34,0.332997
4245.81,0.332186
4249.29,0.331258
4252.78,0.330264
4256.27,0.329197
4259.77,0.328263
4263.27,0.327218
4266.78,0.326177
4270.29,0.325285
4273.81,0.324219
4277.34,0.323147
4280.87,0.322153
4284.41,0.321088
4287.95,0.320076
4291.5,0.319001
4295.06,0.317866
4298.62,0.316696
4302.19,0.315597
4305.76,0.314497
4309.34,0.313368
4312.92,0.312157
4316.52,0.311072
4320.11,0.31005
4323.72,0.30885
4327.32,0.307608
4330.94,0.306461
4334.56,0.305425
4338.19,0.304392
4341.82,0.303165
4345.46,0.302048
4349.11,0.301165
4352.76,0.300184
4356.42,0.29904
4360.08,0.297923
4363.75,0.296941
4367.43,0.295962
4371.11,0.294848
4374.8,0.293863
4378.49,0.292847
4382.19,0.29183
4385.9,0.290675
4389.61,0.289582
4393.33,0.288507
4397.06,0.287496
4400.79,0.286324
4404.53,0.285161
4408.28,0.284107
4412.03,0.283035
4415.79,0.28186
4419.55,0.280684
4423.32,0.279445
4427.1,0.278368
4430.88,0.277111
4434.68,0.275818
4438.47,0.274641
4442.28,0.273597
4446.08,0.272499
4449.9,0.271369
4453.72,0.270239
4457.55,0.269149
4461.39,0.267926
4465.23,0.266632
4469.08,0.265224
4472.94,0.263864
4476.8,0.26263
4480.67,0.261524
4484.55,0.260279
4488.43,0.258896
4492.32,0.257358
4496.21,0.255812
4500.12,0.25436
4504.03,0.252738
4507.94,0.250938
4511.87,0.249158
4515.8,0.24724
4519.73,0.245081
4523.68,0.242754
4527.63,0.240423
4531.59,0.237808
4535.55,0.235128
4539.52,0.232769
4543.5,0.230552
4547.49,0.228267
4551.48,0.225988
4555.48,0.223925
4559.49,0.222025
4563.5,0.220007
4567.52,0.218133
4571.55,0.216276
4575.58,0.214412
4579.63,0.212587
4583.67,0.210755
4587.73,0.208943
4591.79,0.207042
4595.86,0.204986
4599.94,0.202968
4604.03,0.200895
4608.12,0.198826
4612.22,0.196756
4616.33,0.194731
4620.44,0.192682
4624.56,0.190922
4628.69,0.189298
4632.83,0.187714
4636.97,0.186214
4641.12,0.184639
4645.28,0.183221
4649.45,0.18198
4653.62,0.180957
4657.8,0.180122
4661.99,0.179206
4666.19,0.178279
4670.39,0.177402
4674.6,0.176596
4678.82,0.175598
4683.05,0.174564
4687.28,0.173751
4691.52,0.172941
4695.77,0.17202
4700.03,0.171048
4704.3,0.169994
4708.57,0.168969
4712.85,0.167875
4717.14,0.166686
4721.43,0.165497
4725.74,0.164263
4730.05,0.163062
4734.37,0.161838
4738.7,0.160611
4743.03,0.159524
4747.38,0.158488
4751.73,0.157422
4756.09,0.156486
4760.45,0.155638
4764.83,0.155122
4769.21,0.154734
4773.6,0.154048
4778.0,0.15337
4782.41,0.152759
4786.83,0.152109
4791.25,0.151475
4795.68,0.150822
4800.13,0.150193
4804.57,0.149639
4809.03,0.149255
4813.5,0.148842
4817.97,0.148303
4822.45,0.147973
4826.94,0.147677
4831.44,0.147363
4835.95,0.147052
4840.46,0.14673
4844.99,0.146416
4849.52,0.146103
4854.06,0.145884
4858.61,0.145826
4863.17,0.145912
4867.73,0.145865
4872.31,0.145806
4876.89,0.145951
4881.48,0.14592
4886.08,0.145862
4890.69,0.145788
4895.31,0.14577
4899.94,0.145684
4904.57,0.145382
4909.22,0.145162
4913.87,0.145086
4918.53,0.144994
4923.21,0.14483
4927.88,0.144571
4932.57,0.144449
4937.27,0.144352
4941.98,0.144136
4946.69,0.143878
4951.42,0.143706
4956.15,0.143318
4960.9,0.142642
4965.65,0.14188
4970.41,0.141141
4975.18,0.140259
4979.96,0.139381
4984.75,0.138383
4989.54,0.13731
4994.35,0.136336
4999.17,0.135339
5003.99,0.134311
5008.83,0.133193
5013.67,0.132064
5018.52,0.130894
5023.39,0.129736
5028.26,0.128751
5033.14,0.127718
5038.03,0.126423
5042.93,0.125095
5047.84,0.124033
5052.76,0.122941
5057.69,0.121708
5062.63,0.12044
5067.58,0.119185
5072.54,0.117904
5077.51,0.116618
5082.49,0.115379
5087.47,0.11419
5092.47,0.112913
5097.48,0.111699
5102.5,0.110597
5107.52,0.109511
5112.56,0.108471
5117.61,0.107289
5122.66,0.106129
5127.73,0.105092
5132.81,0.104181
5137.89,0.103437
5142.99,0.102737
5148.1,0.101981
5153.22,0.101355
5158.34,0.100919
5163.48,0.10055
5168.63,0.100373
5173.79,0.100306
5178.96,0.100417
5184.13,0.100403
5189.32,0.100368
5194.52,0.100276
5199.73,0.100112
5204.96,0.100004
5210.19,0.099861
5215.43,0.099623
5220.68,0.099605
5225.94,0.099476
5231.22,0.099125
5236.5,0.098822
5241.79,0.098558
5247.1,0.098045
5252.42,0.097496
5257.74,0.097018
5263.08,0.09668
5268.43,0.096211
5273.79,0.09564
5279.16,0.095334
5284.54,0.095081
5289.93,0.09486
5295.34,0.094703
5300.75,0.094486
5306.18,0.094263
5311.61,0.094021
5317.06,0.093839
5322.52,0.09359
5327.99,0.093254
5333.47,0.092806
5338.96,0.092418
5344.47,0.092019
5349.98,0.091528
5355.51,0.09096
5361.05,0.090462
5366.6,0.089916
5372.16,0.089153
5377.73,0.088327
5383.32,0.08744
5388.91,0.086547
5394.52,0.085737
5400.14,0.08486
5405.77,0.083763
5411.41,0.082593
5417.07,0.081479
5422.74,0.080369
5428.41,0.079279
5434.1,0.078216
5439.81,0.077229
5445.52,0.076408
5451.25,0.075712
5456.98,0.075034
5462.73,0.074319
5468.5,0.073649
5474.27,0.073011
5480.06,0.072531
5485.86,0.07209
5491.67,0.071634
5497.49,0.071376
5503.33,0.070998
5509.18,0.070739
5515.04,0.07053
5520.91,0.07031
5526.8,0.070004
5532.69,0.069672
5538.61,0.069425
5544.53,0.069109
5550.47,0.068638
5556.41,0.06789
5562.38,0.066955
5568.35,0.066082
5574.34,0.065266
5580.34,0.064576
5586.35,0.063897
5592.38,0.063345
5598.42,0.062909
5604.47,0.062534
5610.54,0.062134
5616.61,0.061701
5622.71,0.061279
5628.81,0.060857
5634.93,0.060419
5641.06,0.060038
5647.21,0.05967
5653.36,0.059201
5659.54,0.058716
5665.72,0.058498
5671.92,0.058339
5678.13,0.058062
5684.36,0.05762
5690.6,0.057457
5696.85,0.057414
5703.12,0.05723
5709.4,0.056964
5715.69,0.056842
5722.0,0.056686
5728.33,0.056461
5734.66,0.056465
5741.01,0.056342
5747.38,0.056151
5753.76,0.05606
5760.15,0.056079
5766.56,0.056038
5772.98,0.055821
5779.41,0.055638
5785.86,0.055492
5792.33,0.055305
5798.81,0.055266
5805.3,0.055074
5811.81,0.054644
5818.33,0.054359
5824.87,0.054319
5831.42,0.054018
5837.99,0.053523
5844.57,0.05324
5851.17,0.053098
5857.78,0.052937
5864.41,0.052744
5871.05,0.052699
5877.7,0.05276
5884.38,0.052749
5891.06,0.05244
5897.76,0.052121
5904.48,0.051724
5911.21,0.051183
5917.96,0.05064
5924.73,0.049931
5931.5,0.049282
5938.3,0.048785
5945.11,0.048228
5951.93,0.047735
5958.78,0.047311
5965.63,0.046964
5972.51,0.046555
5979.39,0.046231
5986.3,0.045902
5993.22,0.045519
6000.16,0.045122
6007.11,0.044797
6014.08,0.044535
6021.06,0.044214
6028.06,0.043783
6035.08,0.043408
6042.12,0.04316
6049.17,0.043072
6056.23,0.042972
6063.32,0.042765
6070.42,0.042629
6077.53,0.042371
6084.67,0.042127
6091.82,0.041961
6098.98,0.041811
6106.17,0.041608
6113.37,0.041266
6120.58,0.040875
6127.82,0.040467
6135.07,0.040172
6142.34,0.039817
6149.63,0.039398
6156.93,0.039126
6164.25,0.038741
6171.59,0.038278
6178.95,0.037954
6186.32,0.037716
6193.71,0.037361
6201.12,0.037192
6208.54,0.037142
6215.99,0.036959
6223.45,0.036925
6230.93,0.036864
6238.43,0.036651
6245.95,0.036683
6253.48,0.036692
6261.03,0.036648
6268.6,0.036574
6276.19,0.036443
6283.8,0.036387
6291.43,0.036403
6299.07,0.036494
6306.73,0.036458
6314.42,0.03632
6322.12,0.036425
6329.84,0.036596
6337.57,0.03678
6345.33,0.037072
6353.11,0.037352
6360.9,0.037476
6368.72,0.037784
6376.55,0.038224
6384.4,0.038586
6392.27,0.038833
6400.17,0.039119
6408.08,0.039347
6416.01,0.039676
6423.96,0.040028
6431.93,0.040292
6439.92,0.04049
6447.93,0.040726
6455.96,0.040981
6464.01,0.041263
6472.08,0.041565
6480.17,0.041707
6488.28,0.041675
6496.41,0.041738
6504.56,0.0418
6512.73,0.041838
6520.92,0.041843
6529.14,0.041778
6537.37,0.041834
6545.63,0.041896
6553.9,0.041862
6562.2,0.04181
6570.51,0.041607
6578.85,0.041356
6587.21,0.041153
6595.59,0.040989
6603.99,0.04086
6612.42,0.040634
6620.86,0.040329
6629.33,0.039955
6637.82,0.039782
6646.33,0.039616
6654.86,0.039393
6663.41,0.039206
6671.99,0.039153
6680.59,0.039174
6689.21,0.039194
6697.85,0.039163
6706.51,0.038913
6715.2,0.0388
6723.91,0.038783
6732.64,0.038755
6741.4,0.038768
6750.18,0.038555
6758.98,0.038388
6767.8,0.038196
6776.65,0.037875
6785.52,0.037578
6794.41,0.03733
6803.33,0.037018
6812.27,0.03675
6821.23,0.036478
6830.22,0.036115
6839.23,0.035767
6848.26,0.035504
6857.32,0.035334
6866.4,0.035204
6875.51,0.034815
6884.64,0.03459
6893.8,0.034313
6902.98,0.033904
6912.18,0.03368
6921.41,0.033586
6930.66,0.03333
6939.94,0.032915
6949.24,0.032585
6958.57,0.032425
6967.92,0.032216
6977.3,0.031794
6986.7,0.031533
6996.13,0.031373
7005.59,0.031006
7015.07,0.030561
7024.57,0.030398
7034.1,0.030454
7043.66,0.030391
7053.25,0.030107
7062.85,0.029716
7072.49,0.029419
7082.15,0.029156
7091.84,0.028917
7101.55,0.028747
7111.3,0.028412
7121.06,0.027895
7130.86,0.027562
7140.68,0.027498
7150.53,0.027269
7160.41,0.026885
7170.31,0.026498
7180.24,0.02618
7190.2,0.025928
7200.19,0.025667
7210.2,0.025349
7220.24,0.02487
7230.31,0.024483
7240.41,0.024334
7250.54,0.024144
7260.69,0.023739
7270.88,0.023323
7281.09,0.023042
7291.33,0.022739
7301.6,0.022478
7311.9,0.022269
7322.22,0.022018
7332.58,0.021747
7342.97,0.021535
7353.38,0.021296
7363.83,0.021012
7374.3,0.020766
7384.81,0.020572
7395.34,0.02032
7405.91,0.020045
7416.5,0.01968
7427.13,0.019459
7437.78,0.019281
7448.47,0.019074
7459.19,0.018897
7469.94,0.018653
7480.71,0.018227
7491.52,0.017915
7502.37,0.017786
7513.24,0.017618
7524.14,0.017245
7535.08,0.016979
7546.05,0.016745
7557.05,0.016486
7568.08,0.01619
7579.15,0.015839
7590.24,0.015584
7601.37,0.015412
7612.53,0.015151
7623.73,0.014848
7634.96,0.014533
7646.22,0.014259
7657.51,0.014047
7668.84,0.013848
7680.2,0.013468
7691.59,0.013141
7703.02,0.012922
7714.49,0.012801
7725.98,0.012691
7737.52,0.012498
7749.08,0.012305
7760.68,0.012179
7772.32,0.01191
7783.99,0.0118
7795.69,0.011728
7807.43,0.011566
7819.21,0.011519
7831.02,0.011614
7842.87,0.011663
7854.75,0.011581
7866.67,0.011582
7878.62,0.011725
7890.62,0.011988
7902.64,0.012391
7914.71,0.01293
7926.81,0.013601
7938.95,0.014409
7951.13,0.015261
7963.34,0.016138
7975.59,0.017278
7987.88,0.018664
8000.21,0.02012
8012.57,0.021864
8024.98,0.023628
8037.42,0.025569
8049.9,0.027723
8062.42,0.030063
8074.98,0.032653
8087.57,0.03543
8100.21,0.038423
8112.89,0.041598
8125.6,0.044944
8138.36,0.048295
8151.16,0.051834
8163.99,0.055664
8176.87,0.059388
8189.79,0.063117
8202.75,0.066912
8215.75,0.070417
8228.79,0.073714
8241.87,0.076926
8254.99,0.079811
8268.16,0.082005
8281.37,0.083898
8294.62,0.085236
8307.91,0.086145
8321.24,0.086957
8334.62,0.087603
8348.04,0.088026
8361.51,0.088337
8375.02,0.088639
8388.57,0.088671
8402.16,0.088751
8415.8,0.089228
8429.49,0.089914
8443.22,0.090795
8456.99,0.091809
8470.81,0.092975
8484.67,0.094354
8498.58,0.096005
8512.54,0.097842
8526.54,0.099972
8540.58,0.102309
8554.68,0.104858
8568.82,0.107722
8583.0,0.110739
8597.24,0.114058
8611.52,0.117731
8625.85,0.121459
8640.23,0.125323
8654.65,0.129043
8669.12,0.13196
8683.64,0.133258
8698.21,0.132539
8712.83,0.130218
8727.5,0.128779
8742.22,0.130693
8756.99,0.135547
8771.8,0.140454
8786.67,0.14288
8801.59,0.142168
8816.56,0.139578
8831.58,0.136232
8846.65,0.132964
8861.77,0.13067
8876.94,0.129854
8892.17,0.130094
8907.45,0.130726
8922.78,0.131359
8938.16,0.13218
8953.6,0.132784
8969.09,0.133282
8984.64,0.133555
9000.23,0.133584
9015.89,0.133772
9031.59,0.13396
9047.36,0.134004
9063.17,0.134397
9079.05,0.134683
9094.97,0.134836
9110.96,0.135405
9127.0,0.135994
9143.1,0.136583
9159.25,0.13748
9175.46,0.138156
9191.73,0.138907
9208.06,0.139796
9224.44,0.140577
9240.88,0.14112
9257.38,0.141764
9273.94,0.142377
9290.56,0.142753
9307.24,0.143079
9323.98,0.143237
9340.78,0.143445
9357.64,0.143849
9374.57,0.143837
9391.55,0.143916
9408.59,0.14411
9425.7,0.144377
9442.87,0.144609
9460.1,0.144472
9477.4,0.144067
9494.75,0.143644
9512.17,0.142936
9529.66,0.142118
9547.21,0.140839
9564.83,0.138389
9582.5,0.134151
9600.25,0.127913
9618.06,0.119697
9635.94,0.111163
9653.88,0.104109
9671.89,0.099116
9689.97,0.096527
9708.12,0.096693
9726.33,0.099446
9744.62,0.104652
9762.97,0.111104
9781.39,0.11707
9799.88,0.122042
9818.44,0.12689
9837.07,0.131676
9855.77,0.135335
9874.54,0.136176
9893.39,0.133737
9912.3,0.128551
9931.29,0.121647
9950.36,0.114585
9969.49,0.109309
9988.7,0.107117
10007.98,0.108222
10027.34,0.111658
10046.77,0.116515
10066.28,0.122175
10085.87,0.128754
10105.53,0.135958
10125.26,0.142186
10145.08,0.146908
10164.97,0.150244
10184.94,0.151208
10204.99,0.149691
10225.12,0.146477
10245.33,0.142455
10265.61,0.138755
10285.98,0.13671
10306.43,0.137112
10326.96,0.139504
10347.57,0.142402
10368.27,0.144826
10389.05,0.146102
10409.91,0.146254
10430.86,0.14551
10451.88,0.144252
10473.0,0.142341
10494.2,0.139894
10515.49,0.137148
10536.86,0.134167
10558.32,0.131014
10579.87,0.127535
10601.5,0.12412
10623.23,0.121002
10645.04,0.118106
10666.94,0.116099
10688.94,0.115126
10711.02,0.115136
10733.2,0.115577
10755.47,0.115268
10777.83,0.113529
10800.28,0.110514
10822.83,0.106449
10845.47,0.10169
10868.21,0.096478
10891.04,0.091132
10913.97,0.085982
10936.99,0.081321
10960.12,0.077641
10983.34,0.075492
11006.66,0.074214
11030.07,0.073537
11053.59,0.073415
11077.21,0.073326
11100.93,0.072798
11124.75,0.071529
11148.68,0.069773
11172.71,0.068178
11196.84,0.066716
11221.07,0.065251
11245.41,0.063604
11269.86,0.06262
11294.41,0.063001
11319.07,0.065181
11343.84,0.069567
11368.72,0.075768
11393.7,0.081867
11418.8,0.086906
11444.01,0.090988
11469.33,0.094164
11494.76,0.096385
11520.3,0.097569
11545.96,0.097678
11571.73,0.097226
11597.62,0.095914
11623.62,0.094018
11649.74,0.09161
11675.98,0.088631
11702.34,0.085186
11728.81,0.081551
11755.41,0.078137
11782.13,0.075102
11808.96,0.072117
11835.92,0.069166
11863.01,0.066696
11890.22,0.064676
11917.55,0.062908
11945.01,0.061438
11972.6,0.059883
12000.31,0.058007
12028.16,0.056635
12056.13,0.055682
12084.23,0.05459
12112.46,0.053305
12140.83,0.051877
12169.33,0.050841
12197.96,0.049771
12226.73,0.048481
12255.64,0.047543
12284.68,0.046819
12313.86,0.045898
12343.18,0.045042
12372.64,0.044249
12402.24,0.043533
12431.98,0.0431
12461.86,0.042822
12491.89,0.042401
12522.07,0.041914
12552.38,0.041504
12582.85,0.041246
12613.47,0.040928
12644.23,0.04086
12675.15,0.041165
12706.21,0.040665
12737.43,0.040175
12768.81,0.039709
12800.33,0.039326
12832.02,0.038991
12863.86,0.038285
12895.86,0.037874
12928.02,0.037561
12960.34,0.037328
12992.82,0.037175
13025.46,0.036976
13058.27,0.036442
13091.25,0.036231
13124.39,0.036137
13157.7,0.035864
13191.18,0.035844
13224.83,0.0358
13258.66,0.035514
13292.65,0.034859
13326.83,0.034247
13361.17,0.0339
13395.7,0.033641
13430.4,0.033413
13465.29,0.033385
13500.35,0.033426
13535.6,0.033339
13571.03,0.033056
13606.65,0.032758
13642.46,0.032707
13678.46,0.032804
13714.64,0.033159
13751.02,0.033769
13787.59,0.034671
13824.36,0.035385
13861.32,0.035555
13898.49,0.035249
13935.85,0.034767
13973.41,0.034401
14011.17,0.033917
14049.15,0.033222
14087.32,0.032487
14125.71,0.031894
14164.3,0.031383
14203.11,0.031236
14242.13,0.031395
14281.36,0.032336
14320.81,0.033452
14360.49,0.034515
14400.38,0.035435
14440.49,0.035329
14480.82,0.034398
14521.39,0.033313
14562.18,0.032065
14603.2,0.030844
14644.45,0.029822
14685.93,0.028887
14727.66,0.028233
14769.62,0.027738
14811.81,0.027118
14854.25,0.026642
14896.94,0.026446
14939.87,0.026065
14983.05,0.025639
15026.48,0.025375
15070.16,0.025465
15114.1,0.025517
15158.29,0.026783
15202.74,0.029795
15247.46,0.033501
15292.43,0.037259
15337.68,0.040657
15383.19,0.043858
15428.97,0.047064
15475.03,0.049142
15521.36,0.049671
15567.97,0.049049
15614.87,0.047701
15662.04,0.046046
15709.5,0.044674
15757.25,0.044303
15805.29,0.044679
15853.62,0.045563
15902.26,0.047114
15951.19,0.049287
16000.42,0.052118
16049.95,0.055651
16099.8,0.059698
16149.95,0.064188
16200.42,0.06873
16251.21,0.073489
16302.31,0.077933
16353.74,0.08202
16405.49,0.085816
16457.57,0.089344
16509.98,0.092754
16562.73,0.095837
16615.82,0.098668
16669.24,0.100765
16723.02,0.102725
16777.14,0.104233
16831.61,0.105028
16886.43,0.105857
16941.62,0.106852
16997.16,0.107271
17053.08,0.107747
17109.36,0.107972
17166.01,0.107543
17223.04,0.106642
17280.45,0.105283
17338.24,0.103642
17396.43,0.101503
17455.0,0.099083
17513.97,0.097897
17573.34,0.098215
17633.11,0.098766
17693.29,0.098806
17753.89,0.099108
17814.9,0.100281
17876.33,0.101122
17938.18,0.100997
18000.47,0.100828
18063.19,0.101495
18126.35,0.102414
18189.95,0.102417
18254.0,0.101315
18318.5,0.098586
18383.46,0.094457
18448.88,0.090513
18514.77,0.088178
18581.13,0.086866
18647.97,0.084214
18715.29,0.081577
18783.1,0.079288
18851.4,0.07808
18920.2,0.079518
18989.51,0.083027
19059.32,0.085752
19129.65,0.08845
19200.5,0.091392
19271.88,0.092722
19343.79,0.092545
19416.24,0.091691
19489.23,0.089906
19562.77,0.08818
19636.88,0.086837
19711.54,0.085327
19786.78,0.083704
19862.59,0.081886
19938.98,0.079827
20015.96,0.077176
20093.55,0.074332
20171.73,0.070911
20250.53,0.068633
20329.94,0.066158
20409.98,0.063391
20490.65,0.062759
20571.96,0.062097
20653.92,0.061684
20736.54,0.063527
20819.82,0.065191
20903.77,0.064775
20988.4,0.064971
21073.72,0.066388
21159.73,0.068329
21246.46,0.070581
21333.89,0.073581
21422.04,0.078151
21510.93,0.083942
21600.56,0.08974
21690.94,0.095287
21782.08,0.09753
21873.99,0.098606
21966.67,0.098572
22060.15,0.099175
22154.42,0.099297
22249.51,0.097981
22345.41,0.096072
22442.14,0.091984
22539.72,0.08604
22638.14,0.081715
22737.43,0.079217
22837.6,0.080476
22938.65,0.083436
23040.6,0.085249
23143.46,0.083383
23247.24,0.078896
23351.96,0.074632
23457.63,0.072439
23564.25,0.073111
23671.85,0.074381
23780.44,0.075887
23890.02,0.07545
24000.63,0.073444
24112.26,0.073035
24224.93,0.0749
24338.66,0.077516
24453.47,0.080736
24569.36,0.08185
24686.36,0.079761
24804.47,0.077498
24923.73,0.077952
25044.13,0.080267
25165.71,0.078088
25288.46,0.07303
25412.43,0.0734
25537.61,0.076563
25664.04,0.076781
25791.72,0.076158
25920.68,0.079549
