Database of Origin,University of Winnipeg Spectrophotometer Facility
Sample Description,See Master Clays in HOSERLab database
Date Added,2016-12-11 20:59:12.515047

Data ID,RLA_CLAY_96         
Sample ID,SEP101
Grain Size,<45um
Viewing Geometry,"30/0,30"
Resolution,"5,1.1-475"
Composition,Sepiolite
Material Class,Phyllosilicate

Wavelength
305.0,0.34766
310.0,0.35276
315.0,0.36596
320.0,0.37683
325.0,0.39047
330.0,0.40475
335.0,0.41842
340.0,0.43359
345.0,0.44889
350.0,0.46548
355.0,0.48133
360.0,0.49598
365.0,0.50992
370.0,0.52264
375.0,0.53858
380.0,0.55269
385.0,0.56615
390.0,0.57892
395.0,0.58908
400.0,0.60146
405.0,0.60961
410.0,0.61744
415.0,0.62614
420.0,0.63474
425.0,0.64424
430.0,0.6537
435.0,0.66434
440.0,0.67346
445.0,0.6826
450.0,0.69021
455.0,0.69701
460.0,0.70218
465.0,0.7081
470.0,0.7135
475.0,0.71921
480.0,0.72381
485.0,0.72878
490.0,0.73366
495.0,0.74003
500.0,0.74588
505.0,0.75179
510.0,0.75767
515.0,0.76356
520.0,0.76976
525.0,0.77605
530.0,0.78102
535.0,0.78671
540.0,0.78951
545.0,0.79532
550.0,0.79808
555.0,0.80278
560.0,0.80547
565.0,0.80977
570.0,0.81151
575.0,0.81576
580.0,0.81747
585.0,0.82095
590.0,0.82209
595.0,0.82467
600.0,0.82653
605.0,0.82927
610.0,0.8299
615.0,0.83159
620.0,0.83274
625.0,0.83471
630.0,0.83555
635.0,0.83722
640.0,0.83809
645.0,0.83972
650.0,0.84091
655.0,0.84215
660.0,0.8435
665.0,0.84532
670.0,0.84663
675.0,0.84808
680.0,0.84874
685.0,0.85039
690.0,0.85099
695.0,0.85262
700.0,0.85258
705.0,0.85466
710.0,0.85515
715.0,0.85558
720.0,0.85592
725.0,0.85607
730.0,0.85679
735.0,0.85689
740.0,0.85773
745.0,0.85729
750.0,0.8578
755.0,0.85894
760.0,0.85916
765.0,0.8595
770.0,0.86099
775.0,0.86044
780.0,0.86145
785.0,0.8616
790.0,0.86197
795.0,0.86262
800.0,0.86321
805.0,0.86301
810.0,0.8644
815.0,0.86442
820.0,0.86446
825.0,0.86487
830.0,0.86474
835.0,0.8654
840.0,0.86535
845.0,0.86561
850.0,0.8655
855.0,0.86601
860.0,0.86645
865.0,0.86616
870.0,0.866
875.0,0.86658
880.0,0.86639
885.0,0.86659
890.0,0.86732
895.0,0.86718
900.0,0.86748
905.0,0.86764
910.0,0.86725
915.0,0.86713
920.0,0.86822
925.0,0.86831
930.0,0.8687
935.0,0.86882
940.0,0.869
945.0,0.86654
950.0,0.86779
955.0,0.86835
960.0,0.86826
965.0,0.86724
970.0,0.86789
975.0,0.869
980.0,0.86988
985.0,0.87014
990.0,0.87044
995.0,0.87113
1000.0,0.87141
1005.0,0.87153
1010.0,0.87252
1015.0,0.87339
1020.0,0.87334
1025.0,0.87447
1030.0,0.87525
1035.0,0.87521
1040.0,0.87571
1045.0,0.87621
1050.0,0.87665
1055.0,0.87743
1060.0,0.87775
1065.0,0.87859
1070.0,0.87874
1075.0,0.87868
1080.0,0.87972
1085.0,0.87989
1090.0,0.88068
1095.0,0.88051
1100.0,0.88162
1105.0,0.88116
1110.0,0.88191
1115.0,0.88205
1120.0,0.88236
1125.0,0.88313
1130.0,0.88284
1135.0,0.88242
1140.0,0.88216
1145.0,0.88068
1150.0,0.87914
1155.0,0.87829
1160.0,0.87821
1165.0,0.87932
1170.0,0.88008
1175.0,0.88182
1180.0,0.88255
1185.0,0.88364
1190.0,0.88434
1195.0,0.88416
1200.0,0.88494
1205.0,0.8852
1210.0,0.88616
1215.0,0.88689
1220.0,0.887
1225.0,0.88796
1230.0,0.88764
1235.0,0.88822
1240.0,0.88791
1245.0,0.88828
1250.0,0.88878
1255.0,0.88947
1260.0,0.88928
1265.0,0.88984
1270.0,0.8895
1275.0,0.88892
1280.0,0.88882
1285.0,0.88919
1290.0,0.8894
1295.0,0.88949
1300.0,0.88903
1305.0,0.88923
1310.0,0.88835
1315.0,0.88773
1320.0,0.88698
1325.0,0.88571
1330.0,0.8843
1335.0,0.88182
1340.0,0.88052
1345.0,0.87807
1350.0,0.87582
1355.0,0.87216
1360.0,0.87118
1365.0,0.87216
1370.0,0.86825
1375.0,0.86305
1380.0,0.85078
1385.0,0.80108
1390.0,0.77761
1395.0,0.80309
1400.0,0.79882
1405.0,0.78136
1410.0,0.76816
1415.0,0.75931
1420.0,0.75722
1425.0,0.76006
1430.0,0.76316
1435.0,0.76562
1440.0,0.7684
1445.0,0.77121
1450.0,0.77507
1455.0,0.77793
1460.0,0.77906
1465.0,0.77914
1470.0,0.78088
1475.0,0.78525
1480.0,0.79129
1485.0,0.79759
1490.0,0.8028
1495.0,0.8073
1500.0,0.81134
1505.0,0.81556
1510.0,0.81885
1515.0,0.82225
1520.0,0.82566
1525.0,0.8288
1530.0,0.83097
1535.0,0.83356
1540.0,0.83594
1545.0,0.83829
1550.0,0.84009
1555.0,0.84262
1560.0,0.84495
1565.0,0.84619
1570.0,0.84764
1575.0,0.84934
1580.0,0.85023
1585.0,0.85148
1590.0,0.85204
1595.0,0.85406
1600.0,0.8543
1605.0,0.85589
1610.0,0.85639
1615.0,0.85691
1620.0,0.85733
1625.0,0.85724
1630.0,0.85788
1635.0,0.85846
1640.0,0.85843
1645.0,0.85921
1650.0,0.85896
1655.0,0.85941
1660.0,0.85968
1665.0,0.8616
1670.0,0.86104
1675.0,0.86101
1680.0,0.86088
1685.0,0.86132
1690.0,0.86026
1695.0,0.8605
1700.0,0.86142
1705.0,0.8606
1710.0,0.85958
1715.0,0.85907
1720.0,0.8575
1725.0,0.85741
1730.0,0.85563
1735.0,0.85461
1740.0,0.85361
1745.0,0.8525
1750.0,0.85158
1755.0,0.84953
1760.0,0.8482
1765.0,0.84589
1770.0,0.84479
1775.0,0.84392
1780.0,0.84247
1785.0,0.84246
1790.0,0.84158
1795.0,0.84021
1800.0,0.84032
1805.0,0.84006
1810.0,0.83946
1815.0,0.83982
1820.0,0.83874
1825.0,0.83895
1830.0,0.83776
1835.0,0.8364
1840.0,0.83522
1845.0,0.83407
1850.0,0.83093
1855.0,0.82671
1860.0,0.82098
1865.0,0.81257
1870.0,0.79825
1875.0,0.78149
1880.0,0.75619
1885.0,0.72541
1890.0,0.68771
1895.0,0.64109
1900.0,0.59281
1905.0,0.5566
1910.0,0.53969
1915.0,0.53677
1920.0,0.5471
1925.0,0.56922
1930.0,0.59001
1935.0,0.6079
1940.0,0.61921
1945.0,0.6277
1950.0,0.63158
1955.0,0.63455
1960.0,0.63834
1965.0,0.6419
1970.0,0.64496
1975.0,0.64872
1980.0,0.65328
1985.0,0.65829
1990.0,0.66384
1995.0,0.66868
2000.0,0.67493
2005.0,0.68213
2010.0,0.68894
2015.0,0.69634
2020.0,0.70289
2025.0,0.70886
2030.0,0.71322
2035.0,0.71824
2040.0,0.7232
2045.0,0.72681
2050.0,0.73018
2055.0,0.73381
2060.0,0.73647
2065.0,0.73819
2070.0,0.74092
2075.0,0.7437
2080.0,0.74465
2085.0,0.74584
2090.0,0.74764
2095.0,0.74997
2100.0,0.75328
2105.0,0.75597
2110.0,0.75865
2115.0,0.7599
2120.0,0.76117
2125.0,0.76364
2130.0,0.76443
2135.0,0.76596
2140.0,0.76628
2145.0,0.76703
2150.0,0.76743
2155.0,0.76862
2160.0,0.76983
2165.0,0.7697
2170.0,0.77172
2175.0,0.77143
2180.0,0.77084
2185.0,0.76989
2190.0,0.76964
2195.0,0.76869
2200.0,0.76625
2205.0,0.76529
2210.0,0.76348
2215.0,0.76224
2220.0,0.76013
2225.0,0.75688
2230.0,0.75375
2235.0,0.75146
2240.0,0.74998
2245.0,0.74838
2250.0,0.74585
2255.0,0.74222
2260.0,0.73885
2265.0,0.73273
2270.0,0.7271
2275.0,0.72089
2280.0,0.71076
2285.0,0.69718
2290.0,0.68352
2295.0,0.6769
2300.0,0.67074
2305.0,0.6594
2310.0,0.64196
2315.0,0.62955
2320.0,0.63551
2325.0,0.64556
2330.0,0.65661
2335.0,0.66144
2340.0,0.66122
2345.0,0.66035
2350.0,0.66036
2355.0,0.65886
2360.0,0.65753
2365.0,0.6537
2370.0,0.64935
2375.0,0.64089
2380.0,0.62876
2385.0,0.61884
2390.0,0.6116
2395.0,0.61306
2400.0,0.61684
2405.0,0.61642
2410.0,0.61429
2415.0,0.61145
2420.0,0.60863
2425.0,0.60414
2430.0,0.6002
2435.0,0.59586
2440.0,0.59234
2445.0,0.58846
2450.0,0.58457
2455.0,0.57896
2460.0,0.57388
2465.0,0.56905
2470.0,0.56378
2475.0,0.5579
2480.0,0.55328
2485.0,0.54513
2490.0,0.53917
2495.0,0.5343
2500.0,0.52676
2505.0,0.5214
2510.0,0.51836
2515.0,0.51352
2520.0,0.51129
2525.0,0.50722
2530.0,0.5032
2535.0,0.50259
2540.0,0.50272
2545.0,0.50529
2550.0,0.50709
2555.0,0.51056
2560.0,0.51432
2565.0,0.51645
2570.0,0.51743
2575.0,0.51848
2580.0,0.5192
2585.0,0.52033
2586.2,0.52076
2588.8,0.5213
2592.7,0.52182
2594.0,0.52135
2596.6,0.52142
2599.2,0.52196
2601.8,0.52156
2605.7,0.52039
2607.1,0.52015
2609.7,0.51937
2612.3,0.51862
2614.9,0.51746
2618.9,0.51536
2620.2,0.51456
2622.9,0.51343
2625.5,0.51168
2628.2,0.50968
2632.2,0.50642
2634.9,0.50402
2636.2,0.5028
2638.9,0.5001
2642.9,0.49562
2644.3,0.49397
2647.0,0.49034
2649.7,0.48663
2653.8,0.48046
2655.1,0.47817
2657.8,0.47363
2660.6,0.46836
2663.3,0.46273
2667.4,0.45147
2670.1,0.44154
2672.9,0.42892
2674.3,0.42379
2678.4,0.40374
2679.8,0.3949
2684.0,0.3544
2686.8,0.26183
2688.1,0.19851
2690.9,0.21999
2695.1,0.25477
2697.9,0.23795
2700.7,0.21427
2702.1,0.20549
2706.4,0.18459
2709.2,0.17371
2712.0,0.15824
2714.9,0.12318
2717.7,0.09362
2720.6,0.12591
2722.0,0.1447
2724.9,0.15935
2729.2,0.16044
2732.0,0.15275
2734.9,0.14319
2737.8,0.13334
2740.7,0.12392
2743.6,0.11657
2745.1,0.11348
2749.4,0.10601
2750.9,0.10417
2753.8,0.10152
2756.7,0.09988
2759.7,0.09908
2762.6,0.09857
2767.0,0.0983
2770.0,0.09828
2772.9,0.09835
2775.9,0.09812
2778.9,0.09785
2781.9,0.09722
2784.9,0.09656
2787.9,0.09554
2790.9,0.09461
2793.9,0.0936
2796.9,0.09249
2799.9,0.09132
2801.4,0.09074
2806.0,0.08938
2809.0,0.08896
2810.5,0.08892
2813.6,0.08897
2816.6,0.08953
2819.7,0.09026
2822.8,0.09126
2827.4,0.09316
2830.5,0.09463
2832.0,0.09545
2836.7,0.09835
2839.8,0.10062
2842.9,0.10315
2846.0,0.10602
2849.1,0.10912
2850.7,0.11071
2855.4,0.11584
2857.0,0.11763
2861.7,0.1229
2864.9,0.12631
2868.0,0.1296
2871.2,0.13269
2874.4,0.13564
2876.0,0.13704
2880.8,0.14082
2884.0,0.14302
2885.6,0.14404
2890.4,0.14693
2893.6,0.14854
2896.9,0.14999
2900.1,0.15127
2903.4,0.15238
2906.6,0.15334
2909.9,0.15416
2913.1,0.15496
2916.4,0.15582
2919.7,0.15661
2923.0,0.15742
2926.3,0.15826
2929.6,0.15928
2932.9,0.16037
2936.3,0.16161
2937.9,0.16227
2942.9,0.16436
2946.3,0.1658
2949.6,0.16729
2953.0,0.16881
2956.3,0.17041
2959.7,0.17196
2963.1,0.17353
2966.5,0.17514
2969.9,0.1768
2973.3,0.17844
2976.7,0.17998
2980.1,0.18169
2983.6,0.18324
2987.0,0.18491
2990.4,0.18655
2993.9,0.18827
2997.4,0.18989
3000.8,0.19143
3004.3,0.19301
3007.8,0.19467
3011.3,0.19619
3014.8,0.19778
3018.3,0.1993
3021.8,0.20092
3025.3,0.20251
3028.9,0.20412
3032.4,0.2057
3036.0,0.20741
3039.5,0.20904
3043.1,0.21056
3046.7,0.21188
3050.2,0.2132
3053.8,0.21448
3057.4,0.21565
3061.1,0.21688
3064.7,0.21807
3068.3,0.21922
3071.9,0.22052
3075.6,0.22175
3079.2,0.22295
3082.9,0.22414
3086.6,0.22538
3090.2,0.22645
3093.9,0.22747
3097.6,0.22834
3101.3,0.22895
3105.0,0.22942
3108.8,0.22962
3112.5,0.22986
3116.2,0.23047
3120.0,0.23181
3123.7,0.23407
3127.5,0.23701
3131.3,0.24026
3135.1,0.24364
3138.9,0.24698
3142.7,0.25037
3146.5,0.25362
3150.3,0.25681
3154.1,0.26007
3158.0,0.26343
3161.8,0.26692
3165.7,0.27033
3169.6,0.27366
3173.4,0.27667
3177.3,0.27953
3181.2,0.28221
3185.1,0.28476
3189.1,0.28723
3193.0,0.28961
3196.9,0.29192
3200.9,0.29411
3204.8,0.29625
3208.8,0.29828
3212.8,0.30025
3216.8,0.30218
3220.8,0.30407
3224.8,0.30594
3228.8,0.30797
3232.8,0.30993
3236.8,0.31201
3240.9,0.31417
3244.9,0.31632
3249.0,0.31837
3253.1,0.32034
3257.2,0.32218
3261.3,0.32393
3265.4,0.32575
3269.5,0.3274
3273.6,0.3289
3277.8,0.33016
3281.9,0.33116
3286.1,0.33208
3290.2,0.33265
3294.4,0.33284
3298.6,0.33282
3302.8,0.33275
3304.9,0.33282
3307.0,0.33283
3309.1,0.33285
3311.2,0.33283
3313.4,0.33276
3315.5,0.33249
3317.6,0.33199
3319.7,0.33127
3321.9,0.33035
3324.0,0.32904
3326.1,0.32729
3328.3,0.32489
3330.4,0.32168
3332.5,0.3173
3334.7,0.31136
3336.8,0.30336
3339.0,0.29268
3341.1,0.27917
3343.3,0.26422
3345.4,0.25045
3347.6,0.24023
3349.8,0.2344
3351.9,0.23236
3354.1,0.23295
3356.3,0.23521
3358.4,0.23847
3360.6,0.24205
3362.8,0.2452
3365.0,0.24759
3367.1,0.24917
3369.3,0.2501
3371.5,0.25042
3373.7,0.25044
3375.9,0.25031
3378.1,0.25052
3380.3,0.25123
3382.5,0.25241
3384.7,0.25389
3386.9,0.2555
3389.1,0.25707
3391.4,0.25841
3393.6,0.25944
3395.8,0.26011
3398.0,0.26032
3400.3,0.26019
3402.5,0.25976
3404.7,0.25918
3407.0,0.25848
3409.2,0.25783
3411.4,0.25762
3413.7,0.25823
3415.9,0.25975
3418.2,0.26196
3420.4,0.26434
3422.7,0.26662
3425.0,0.2687
3427.2,0.27057
3429.5,0.27208
3431.8,0.27333
3434.0,0.27434
3436.3,0.27512
3438.6,0.27567
3440.9,0.27604
3443.2,0.27621
3445.4,0.27628
3447.7,0.27614
3450.0,0.27579
3452.3,0.27509
3454.6,0.27401
3456.9,0.27228
3459.2,0.26953
3461.6,0.26531
3463.9,0.25903
3466.2,0.25017
3468.5,0.23934
3470.8,0.22852
3473.1,0.21973
3475.5,0.21369
3477.8,0.21077
3480.1,0.21094
3482.5,0.21321
3484.8,0.2164
3487.2,0.22007
3489.5,0.224
3491.9,0.22805
3494.2,0.23214
3496.6,0.23614
3498.9,0.24007
3501.3,0.24406
3503.6,0.24841
3506.0,0.25333
3508.4,0.25863
3510.8,0.2643
3513.1,0.27065
3515.5,0.27825
3517.9,0.28762
3520.3,0.29882
3522.7,0.31141
3525.1,0.32459
3527.5,0.3373
3529.9,0.34885
3532.3,0.35887
3534.7,0.3676
3537.1,0.37517
3539.5,0.38168
3541.9,0.38733
3544.4,0.39231
3546.8,0.39669
3549.2,0.40059
3551.6,0.40397
3554.1,0.40696
3556.5,0.40954
3559.0,0.41173
3561.4,0.4135
3563.9,0.4148
3566.3,0.41562
3568.8,0.41624
3571.2,0.41701
3573.7,0.41864
3576.1,0.42128
3578.6,0.42464
3581.1,0.42815
3583.6,0.43154
3586.0,0.43456
3588.5,0.4372
3591.0,0.43951
3593.5,0.4416
3596.0,0.44345
3598.5,0.44511
3601.0,0.44665
3603.5,0.44807
3606.0,0.44934
3608.5,0.45053
3611.0,0.45163
3613.5,0.4528
3616.0,0.45376
3618.6,0.45461
3621.1,0.45539
3623.6,0.45619
3626.1,0.45692
3628.7,0.45764
3631.2,0.45838
3633.8,0.45917
3636.3,0.45991
3638.9,0.46066
3641.4,0.4614
3644.0,0.46209
3646.6,0.4627
3649.1,0.4634
3651.7,0.46411
3654.3,0.46488
3656.8,0.46556
3659.4,0.46613
3662.0,0.46672
3664.6,0.46735
3667.2,0.46791
3669.8,0.46846
3672.4,0.46901
3675.0,0.46956
3677.6,0.47012
3680.2,0.47064
3682.8,0.47102
3685.4,0.47135
3688.1,0.47187
3690.7,0.47258
3693.3,0.47323
3695.9,0.47375
3698.6,0.47418
3701.2,0.4746
3703.9,0.47497
3706.5,0.47542
3709.2,0.47574
3711.8,0.47601
3714.5,0.47627
3717.1,0.47652
3719.8,0.47672
3722.5,0.47683
3725.1,0.47682
3727.8,0.47681
3730.5,0.47664
3733.2,0.47643
3735.9,0.47614
3738.6,0.4758
3741.3,0.47537
3744.0,0.47492
3746.7,0.47452
3749.4,0.47423
3752.1,0.47394
3754.8,0.4737
3757.5,0.47349
3760.3,0.47319
3763.0,0.47268
3765.7,0.47198
3768.5,0.47101
3771.2,0.46983
3773.9,0.46845
3776.7,0.46688
3779.4,0.46496
3782.2,0.46256
3785.0,0.4595
3787.7,0.45545
3790.5,0.44987
3793.3,0.44274
3796.1,0.43412
3798.8,0.42465
3801.6,0.41498
3804.4,0.4055
3807.2,0.39625
3810.0,0.3874
3812.8,0.37898
3815.6,0.37089
3818.4,0.36302
3821.2,0.35529
3824.0,0.34758
3826.9,0.33984
3829.7,0.33206
3832.5,0.32433
3835.4,0.31688
3838.2,0.31038
3841.0,0.30535
3843.9,0.30175
3846.7,0.29909
3849.6,0.29708
3852.4,0.29545
3855.3,0.29405
3858.2,0.29281
3861.1,0.29168
3863.9,0.2907
3866.8,0.28981
3869.7,0.28896
3872.6,0.28837
3875.5,0.28806
3878.4,0.28769
3881.3,0.28697
3884.2,0.28615
3887.1,0.28524
3890.0,0.28432
3892.9,0.28337
3895.9,0.2824
3898.8,0.28148
3901.7,0.28054
3904.7,0.27936
3907.6,0.27813
3910.6,0.27675
3913.5,0.27528
3916.5,0.27348
3919.4,0.2713
3922.4,0.26858
3925.4,0.26537
3928.3,0.26206
3931.3,0.25986
3934.3,0.25826
3937.3,0.25425
3940.3,0.24491
3943.3,0.23164
3946.3,0.2182
3949.3,0.20592
3952.3,0.19428
3955.3,0.18362
3958.3,0.17474
3961.3,0.16762
3964.4,0.16194
3967.4,0.15771
3970.4,0.15465
3973.5,0.15249
3976.5,0.15096
3979.6,0.15003
3982.6,0.15034
3985.7,0.15287
3988.8,0.1579
3991.8,0.16504
3994.9,0.17409
3998.0,0.18503
4001.1,0.19757
4004.2,0.21162
4007.3,0.22697
4010.4,0.24321
4013.5,0.25897
4016.6,0.27263
4019.7,0.28384
4022.8,0.29411
4025.9,0.30482
4029.1,0.31616
4032.2,0.32739
4035.3,0.33883
4038.5,0.35114
4041.6,0.36411
4044.8,0.3767
4047.9,0.38798
4051.1,0.39752
4054.3,0.40539
4057.4,0.41175
4060.6,0.41697
4063.8,0.4213
4067.0,0.42525
4070.2,0.42916
4073.4,0.43301
4076.6,0.43663
4079.8,0.44009
4083.0,0.44311
4086.2,0.44581
4089.4,0.44821
4092.6,0.45041
4095.9,0.45259
4099.1,0.45465
4102.4,0.45647
4105.6,0.4582
4108.9,0.45978
4112.1,0.4615
4115.4,0.46313
4118.7,0.4646
4121.9,0.46605
4125.2,0.46751
4128.5,0.46889
4131.8,0.47024
4135.1,0.47144
4138.4,0.47249
4141.7,0.47346
4145.0,0.47455
4148.3,0.47543
4151.6,0.47614
4155.0,0.47669
4158.3,0.47735
4161.6,0.47799
4165.0,0.47842
4168.3,0.47886
4171.7,0.4792
4175.0,0.4794
4178.4,0.47978
4181.8,0.48005
4185.1,0.48027
4188.5,0.48044
4191.9,0.48064
4195.3,0.48078
4198.7,0.48087
4202.1,0.48088
4205.5,0.48096
4208.9,0.48102
4212.4,0.48101
4215.8,0.48104
4219.2,0.48094
4222.6,0.48088
4226.1,0.48077
4229.5,0.48075
4233.0,0.48071
4236.5,0.48072
4239.9,0.48065
4243.4,0.4806
4246.9,0.48039
4250.3,0.4802
4253.8,0.47996
4257.3,0.47981
4260.8,0.47965
4264.3,0.47952
4267.8,0.47921
4271.3,0.47896
4274.9,0.4789
4278.4,0.47898
4281.9,0.47876
4285.5,0.47847
4289.0,0.47804
4292.6,0.47762
4296.1,0.47707
4299.7,0.47641
4303.3,0.47561
4306.8,0.47505
4310.4,0.4745
4314.0,0.47405
4317.6,0.47365
4321.2,0.47336
4324.8,0.47298
4328.4,0.47261
4332.0,0.47214
4335.6,0.47178
4339.3,0.47141
4342.9,0.47112
4346.5,0.47079
4350.2,0.4706
4353.8,0.47049
4357.5,0.47061
4361.1,0.47072
4364.8,0.47084
4368.5,0.47077
4372.2,0.47064
4375.9,0.47033
4379.6,0.47
4383.3,0.46955
4387.0,0.46913
4390.7,0.46856
4394.4,0.46801
4398.1,0.46737
4401.9,0.46685
4405.6,0.46629
4409.4,0.46574
4413.1,0.46508
4416.9,0.4644
4420.6,0.46362
4424.4,0.46286
4428.2,0.46199
4432.0,0.46111
4435.8,0.46012
4439.6,0.45913
4443.4,0.45797
4447.2,0.45682
4451.0,0.45563
4454.8,0.45453
4458.6,0.45338
4462.5,0.45227
4466.3,0.45102
4470.2,0.44971
4474.0,0.44821
4477.9,0.44669
4481.8,0.44502
4485.6,0.44342
4489.5,0.44176
4493.4,0.44018
4497.3,0.43855
4501.2,0.43709
4505.1,0.43566
4509.0,0.43438
4513.0,0.43307
4516.9,0.43186
4520.9,0.43064
4524.8,0.42951
4528.7,0.42835
4532.7,0.42731
4536.7,0.42625
4540.6,0.4253
4544.6,0.42429
4548.6,0.42336
4552.6,0.42234
4556.6,0.42138
4560.6,0.42036
4564.6,0.41941
4568.6,0.41836
4572.7,0.41739
4576.7,0.41633
4580.8,0.41533
4584.8,0.41425
4588.9,0.41322
4592.9,0.41208
4597.0,0.41089
4601.1,0.40961
4605.2,0.4085
4609.3,0.40726
4613.4,0.40583
4617.5,0.40391
4621.6,0.40168
4625.7,0.39924
4629.8,0.39673
4634.0,0.39369
4638.1,0.39008
4642.3,0.386
4646.4,0.38192
4650.6,0.37789
4654.8,0.3743
4659.0,0.37143
4663.1,0.36952
4667.3,0.36826
4671.5,0.36757
4675.8,0.36725
4680.0,0.3675
4684.2,0.36821
4688.4,0.36955
4692.7,0.37135
4696.9,0.37375
4701.2,0.37666
4705.5,0.38014
4709.7,0.38375
4714.0,0.38739
4718.3,0.39071
4722.6,0.39367
4726.9,0.39597
4731.2,0.39775
4735.5,0.39903
4739.9,0.40022
4744.2,0.40124
4748.5,0.40226
4752.9,0.40313
4757.3,0.40402
4761.6,0.4048
4766.0,0.40559
4770.4,0.40613
4774.8,0.4066
4779.2,0.40681
4783.6,0.40692
4788.0,0.40676
4792.4,0.40658
4796.9,0.40622
4801.3,0.40588
4805.8,0.40544
4810.2,0.40506
4814.7,0.40453
4819.1,0.40408
4823.6,0.40351
4828.1,0.403
4832.6,0.4024
4837.1,0.40189
4841.6,0.4013
4846.2,0.40084
4850.7,0.40035
4855.3,0.39999
4859.8,0.39953
4864.4,0.39923
4868.9,0.39888
4873.5,0.39863
4878.1,0.39832
4882.7,0.39817
4887.3,0.39797
4891.9,0.39791
4896.5,0.39779
4901.1,0.39783
4905.8,0.39784
4910.4,0.39798
4915.1,0.39803
4919.7,0.39818
4924.4,0.3982
4929.1,0.3983
4933.8,0.39822
4938.5,0.39819
4943.2,0.398
4947.9,0.39783
4952.6,0.39744
4957.4,0.39709
4962.1,0.39657
4966.9,0.39615
4971.6,0.39558
4976.4,0.39508
4981.2,0.39443
4986.0,0.39387
4990.8,0.39317
4995.6,0.39256
5000.4,0.39175
5005.2,0.39093
5010.0,0.38989
5014.9,0.38886
5019.8,0.3876
5024.6,0.38634
5029.5,0.38487
5034.4,0.38334
5039.3,0.38155
5044.2,0.37974
5049.1,0.37766
5054.0,0.37556
5058.9,0.37321
5063.9,0.37086
5068.8,0.36827
5073.8,0.36566
5078.8,0.36265
5083.7,0.35924
5088.7,0.35471
5093.7,0.34873
5098.7,0.34296
5103.7,0.34145
5108.8,0.34253
5113.8,0.34326
5118.9,0.34253
5123.9,0.34092
5129.0,0.33886
5134.1,0.33682
5139.1,0.33467
5144.3,0.33273
5149.4,0.33083
5154.5,0.32924
5159.6,0.32778
5164.7,0.32663
5169.9,0.32562
5175.0,0.32505
5180.2,0.32459
5185.4,0.32438
5190.6,0.32416
5195.8,0.32411
5201.0,0.32392
5206.2,0.32384
5211.5,0.32362
5216.7,0.3235
5222.0,0.32317
5227.2,0.32287
5232.5,0.3223
5237.8,0.32172
5243.1,0.32085
5248.4,0.31995
5253.7,0.31874
5259.0,0.31753
5264.4,0.3161
5269.7,0.31472
5275.1,0.31318
5280.5,0.31175
5285.8,0.3102
5291.2,0.30878
5296.6,0.3072
5302.0,0.30579
5307.5,0.30429
5312.9,0.30296
5318.4,0.30156
5323.8,0.30035
5329.3,0.29904
5334.8,0.29793
5340.3,0.29674
5345.8,0.2958
5351.3,0.29474
5356.8,0.29383
5362.4,0.29281
5367.9,0.29185
5373.5,0.29064
5379.0,0.28947
5384.6,0.28801
5390.2,0.28658
5395.8,0.28485
5401.5,0.28311
5407.1,0.28107
5412.7,0.27899
5418.4,0.27658
5424.1,0.27398
5429.7,0.27102
5435.4,0.26812
5441.1,0.26483
5446.8,0.26151
5452.6,0.25794
5458.3,0.25446
5464.1,0.25065
5469.8,0.24683
5475.6,0.24291
5481.4,0.23885
5487.2,0.23443
5493.0,0.22987
5498.8,0.22474
5504.7,0.21916
5510.5,0.21257
5516.4,0.2049
5522.3,0.19515
5528.1,0.18266
5534.0,0.1661
5540.0,0.14433
5545.9,0.11826
5551.8,0.09287
5557.8,0.07629
5563.7,0.0703
5569.7,0.06993
5575.7,0.07107
5581.7,0.07929
5587.7,0.09763
5593.7,0.12051
5599.8,0.14094
5605.8,0.15741
5611.9,0.16959
5618.0,0.17847
5624.1,0.1843
5630.2,0.18806
5636.3,0.19035
5642.4,0.19156
5648.6,0.19153
5654.7,0.19029
5660.9,0.18803
5667.1,0.18569
5673.3,0.18348
5679.5,0.18071
5685.7,0.17831
5692.0,0.17648
5698.2,0.17461
5704.5,0.17261
5710.8,0.17057
5717.1,0.16852
5723.4,0.16658
5729.7,0.16456
5736.0,0.16246
5742.4,0.16037
5748.8,0.15836
5755.1,0.1565
5761.5,0.15509
5768.0,0.15388
5774.4,0.15297
5780.8,0.15228
5787.3,0.1517
5793.7,0.15103
5800.2,0.1503
5806.7,0.14942
5813.2,0.14857
5819.8,0.14765
5826.3,0.14675
5832.8,0.14577
5839.4,0.14477
5846.0,0.14354
5852.6,0.14222
5859.2,0.1407
5865.8,0.13902
5872.5,0.13721
5879.1,0.13533
5885.8,0.13302
5892.5,0.13104
5899.2,0.12856
5905.9,0.126
5912.6,0.12337
5919.4,0.12056
5926.2,0.11768
5932.9,0.11488
5939.7,0.1115
5946.5,0.10847
5953.4,0.10542
5960.2,0.10243
5967.1,0.09936
5974.0,0.09627
5980.8,0.09331
5987.8,0.09037
5994.7,0.08712
6001.6,0.08407
6008.6,0.08094
6015.5,0.07771
6022.5,0.07442
6029.5,0.07132
6036.5,0.06821
6043.6,0.06544
6050.6,0.06211
6057.7,0.05923
6064.8,0.05679
6071.9,0.05416
6079.0,0.05123
6086.1,0.04849
6093.3,0.04548
6100.5,0.04232
6107.6,0.03893
6114.9,0.035
6122.1,0.03092
6129.3,0.02729
6136.5,0.0238
6143.8,0.02104
6151.1,0.01936
6158.4,0.01893
6165.7,0.01928
6173.1,0.01977
6180.4,0.01996
6187.8,0.02006
6195.2,0.02059
6202.6,0.02205
6210.0,0.02477
6217.5,0.02867
6225.0,0.0334
6232.4,0.03849
6239.9,0.04357
6247.5,0.04831
6255.0,0.05255
6262.5,0.05623
6270.1,0.05939
6277.7,0.06195
6285.3,0.06393
6293.0,0.06562
6300.6,0.06771
6308.3,0.07039
6315.9,0.07346
6323.6,0.07661
6331.4,0.08004
6339.1,0.08404
6346.9,0.08887
6354.6,0.09286
6362.4,0.09607
6370.3,0.09924
6378.1,0.10221
6385.9,0.10479
6393.8,0.10743
6401.7,0.10982
6409.6,0.11233
6417.5,0.11522
6425.5,0.11755
6433.5,0.1194
6441.5,0.12066
6449.5,0.12071
6457.5,0.11964
6465.6,0.11784
6473.6,0.1156
6481.7,0.11322
6489.8,0.11071
6498.0,0.10786
6506.1,0.10521
6514.3,0.10282
6522.5,0.10006
6530.7,0.09731
6538.9,0.0946
6547.2,0.09184
6555.5,0.08896
6563.8,0.08627
6572.1,0.08344
6580.4,0.08062
6588.8,0.07802
6597.2,0.0754
6605.6,0.0729
6614.0,0.07061
6622.5,0.06843
6630.9,0.0666
6639.4,0.06461
6647.9,0.0629
6656.5,0.06144
6665.0,0.06008
6673.6,0.05874
6682.2,0.05748
6690.8,0.05623
6699.5,0.05522
6708.1,0.05413
6716.8,0.05312
6725.5,0.05214
6734.3,0.05128
6743.0,0.05043
6751.8,0.0497
6760.6,0.04899
6769.4,0.0484
6778.3,0.0478
6787.1,0.04732
6796.0,0.04677
6805.0,0.04634
6813.9,0.04591
6822.9,0.04558
6831.9,0.04523
6840.9,0.04497
6849.9,0.04473
6859.0,0.04464
6868.0,0.04453
6877.2,0.0445
6886.3,0.04447
6895.5,0.04448
6904.6,0.04449
6913.8,0.0446
6923.1,0.04472
6932.3,0.04495
6941.6,0.04526
6950.9,0.04574
6960.2,0.04635
6969.6,0.04705
6979.0,0.04776
6988.4,0.04858
6997.8,0.04948
7007.3,0.05045
7016.8,0.05143
7026.3,0.05248
7035.8,0.05349
7045.4,0.05468
7054.9,0.05595
7064.5,0.05719
7074.2,0.05834
7083.9,0.05928
7093.5,0.05975
7103.3,0.05945
7113.0,0.05823
7122.8,0.05645
7132.6,0.05497
7142.4,0.0544
7152.2,0.05464
7162.1,0.05522
7172.0,0.05586
7182.0,0.05663
7191.9,0.05757
7201.9,0.0588
7211.9,0.06027
7222.0,0.0619
7232.0,0.06368
7242.1,0.06547
7252.3,0.0672
7262.4,0.06889
7272.6,0.07064
7282.8,0.0727
7293.1,0.07512
7303.3,0.07791
7313.6,0.08094
7324.0,0.08399
7334.3,0.08714
7344.7,0.09027
7355.1,0.09325
7365.6,0.09594
7376.1,0.0984
7386.6,0.10055
7397.1,0.1025
7407.7,0.10419
7418.3,0.10591
7428.9,0.10771
7439.6,0.1097
7450.3,0.1117
7461.0,0.1138
7471.7,0.11573
7482.5,0.11742
7493.3,0.11881
7504.2,0.12004
7515.0,0.12101
7525.9,0.1219
7536.9,0.12266
7547.9,0.12341
7558.9,0.12413
7569.9,0.12499
7581.0,0.12594
7592.0,0.12715
7603.2,0.12855
7614.3,0.13036
7625.5,0.1325
7636.8,0.135
7648.0,0.13765
7659.3,0.14045
7670.7,0.1432
7682.0,0.14592
7693.4,0.14842
7704.9,0.1508
7716.3,0.15284
7727.8,0.15457
7739.4,0.15582
7750.9,0.15671
7762.5,0.15722
7774.2,0.15753
7785.8,0.15759
7797.5,0.15788
7809.3,0.15872
7821.1,0.16026
7832.9,0.16186
7844.7,0.163
7856.6,0.16329
7868.5,0.16295
7880.5,0.16221
7892.5,0.1617
7904.5,0.16162
7916.6,0.16217
7928.7,0.16306
7940.8,0.16412
7953.0,0.16491
7965.2,0.16536
7977.5,0.16524
7989.8,0.16474
8002.1,0.16379
8014.5,0.16252
8026.9,0.16084
8039.3,0.15895
8051.8,0.15694
8064.3,0.15543
8076.9,0.15457
8089.5,0.1543
8102.1,0.15398
8114.8,0.15337
8127.5,0.15222
8140.3,0.15074
8153.1,0.149
8165.9,0.14722
8178.8,0.14519
8191.7,0.14279
8204.7,0.13968
8217.7,0.13596
8230.7,0.13167
8243.8,0.12698
8256.9,0.12184
8270.1,0.1164
8283.3,0.1108
8296.6,0.10522
8309.9,0.09977
8323.2,0.09466
8336.6,0.08999
8350.0,0.08591
8363.5,0.08248
8377.0,0.07982
8390.5,0.07799
8404.2,0.07707
8417.8,0.07696
8431.5,0.07738
8445.2,0.07785
8459.0,0.07808
8472.8,0.0782
8486.7,0.07869
8500.6,0.07994
8514.5,0.08214
8528.5,0.08502
8542.6,0.08806
8556.7,0.09079
8570.8,0.09305
8585.0,0.09496
8599.3,0.09679
8613.5,0.09862
8627.9,0.10038
8642.3,0.10173
8656.7,0.10234
8671.2,0.10206
8685.7,0.10106
8700.3,0.09958
8714.9,0.09789
8729.6,0.09593
8744.3,0.09362
8759.0,0.09087
8773.9,0.08771
8788.7,0.08431
8803.7,0.08087
8818.6,0.07754
8833.7,0.07451
8848.7,0.07191
8863.8,0.06985
8879.0,0.06844
8894.3,0.06754
8909.5,0.06678
8924.9,0.06582
8940.3,0.06442
8955.7,0.06256
8971.2,0.06043
8986.7,0.05819
9002.3,0.05602
9018.0,0.05412
9033.7,0.05264
9049.5,0.05176
9065.3,0.05152
9081.2,0.05174
9097.1,0.05214
9113.1,0.05249
9129.1,0.05255
9145.2,0.05223
9161.4,0.0516
9177.6,0.05071
9193.9,0.04973
9210.2,0.04886
9226.6,0.04819
9243.0,0.04769
9259.5,0.04736
9276.1,0.04699
9292.7,0.04665
9309.4,0.04642
9326.2,0.04638
9343.0,0.04658
9359.8,0.04703
9376.8,0.04768
9393.7,0.04847
9410.8,0.04914
9427.9,0.04956
9445.1,0.04974
9462.3,0.04971
9479.6,0.04955
9497.0,0.04935
9514.4,0.04914
9531.9,0.04896
9549.4,0.04877
9567.0,0.04855
9584.7,0.04828
9602.5,0.04785
9620.3,0.04721
9638.2,0.04637
9656.1,0.04534
9674.2,0.04411
9692.2,0.04272
9710.4,0.04125
9728.6,0.03976
9746.9,0.03833
9765.2,0.03697
9783.7,0.03576
9802.2,0.03471
9820.7,0.03384
9839.4,0.03316
9858.1,0.03264
9876.8,0.03222
9895.7,0.03192
9914.6,0.03166
9933.6,0.03151
9952.7,0.03144
9971.8,0.03142
9991.0,0.03146
10010.3,0.03162
10029.7,0.03188
10049.1,0.03223
10068.6,0.03261
10088.2,0.033
10107.9,0.03328
10127.6,0.03344
10147.4,0.03355
10167.3,0.03362
10187.3,0.03365
10207.4,0.03376
10227.5,0.03405
10247.7,0.03452
10268.0,0.0352
10288.4,0.03607
10308.8,0.03719
10329.4,0.03853
10350.0,0.04008
10370.7,0.04187
10391.5,0.04383
10412.3,0.04593
10433.3,0.04818
10454.3,0.05062
10475.5,0.05323
10496.7,0.05602
10518.0,0.0589
10539.3,0.06191
10560.8,0.06501
10582.3,0.06803
10604.0,0.07099
10625.7,0.07379
10647.5,0.07641
10669.4,0.07891
10691.4,0.08139
10713.5,0.08376
10735.7,0.08601
10758.0,0.0881
10780.3,0.09016
10802.8,0.09212
10825.4,0.09414
10848.0,0.09617
10870.8,0.09823
10893.6,0.10009
10916.5,0.10165
10939.5,0.10286
10962.7,0.10376
10985.9,0.1042
11009.2,0.10433
11032.7,0.10416
11056.2,0.10385
11079.8,0.1034
11103.5,0.10287
11127.3,0.10216
11151.3,0.1015
11175.3,0.10082
11199.5,0.10017
11223.7,0.09938
11248.0,0.09706
11272.5,0.08842
11297.0,0.07363
11321.7,0.06121
11346.5,0.05438
11371.4,0.04991
11396.4,0.04712
11421.5,0.04671
11446.7,0.04885
11472.0,0.05328
11497.5,0.06059
11523.0,0.06971
11548.7,0.07782
11574.5,0.0838
11600.3,0.08831
11626.3,0.09192
11652.5,0.09555
11678.7,0.09929
11705.1,0.10324
11731.6,0.1058
11758.2,0.10145
11784.9,0.09289
11811.7,0.10208
11838.7,0.11991
11865.8,0.12921
11893.0,0.13394
11920.3,0.13705
11947.8,0.13941
11975.4,0.14105
12003.1,0.14236
12031.0,0.14313
12059.0,0.1436
12087.1,0.14368
12115.3,0.14351
12143.7,0.14297
12172.2,0.1421
12200.8,0.14072
12229.6,0.13896
12258.5,0.13681
12287.6,0.13445
12316.8,0.13204
12346.1,0.12959
12375.5,0.12686
12405.2,0.12386
12434.9,0.12041
12464.8,0.11662
12494.8,0.11258
12525.0,0.10852
12555.3,0.10442
12585.8,0.10031
12616.4,0.0966
12647.2,0.09379
12678.1,0.09183
12709.2,0.09066
12740.4,0.09006
12771.8,0.08984
12803.3,0.09001
12835.0,0.09098
12866.9,0.0929
12898.9,0.09561
12931.1,0.09869
12963.4,0.10176
12995.9,0.10467
13028.5,0.10742
13061.3,0.10981
13094.3,0.11175
13127.5,0.11325
13160.8,0.11423
13194.3,0.11461
13228.0,0.11451
13261.8,0.11404
13295.8,0.11319
13330.0,0.11215
13364.3,0.11061
13398.8,0.10861
13433.6,0.10623
13468.5,0.10335
13503.5,0.09989
13538.8,0.09582
13574.2,0.09138
13609.9,0.08685
13645.7,0.08275
13681.7,0.07937
13717.9,0.07636
13754.3,0.07313
13790.8,0.06905
13827.6,0.06339
13864.6,0.05537
13901.8,0.04417
13939.2,0.03083
13976.7,0.02006
14014.5,0.01818
14052.5,0.02526
14090.7,0.03657
14129.0,0.04619
14167.6,0.05097
14206.5,0.05208
14245.5,0.0508
14284.7,0.04793
14324.2,0.0449
14363.9,0.04226
14403.8,0.0403
14443.9,0.03942
14484.3,0.03956
14524.8,0.04046
14565.6,0.04198
14606.7,0.04365
14647.9,0.04481
14689.4,0.04528
14731.2,0.04532
14773.1,0.04435
14815.3,0.04267
14857.8,0.04115
14900.5,0.03982
14943.4,0.039
14986.6,0.03859
15030.0,0.03776
15073.7,0.03649
15117.7,0.03506
15161.9,0.03356
15206.3,0.0323
15251.1,0.03117
15296.1,0.03069
15341.3,0.0312
15386.8,0.03212
15432.6,0.0335
15478.7,0.03514
15525.0,0.03707
15571.7,0.03903
15618.6,0.04053
15665.8,0.04139
15713.2,0.04225
15761.0,0.04282
15809.0,0.04272
15857.4,0.04219
15906.0,0.04176
15955.0,0.04134
16004.2,0.04103
16053.8,0.04036
16103.6,0.03951
16153.8,0.03864
16204.3,0.03776
16255.1,0.03682
16306.2,0.03584
16357.6,0.03506
16409.4,0.03464
16461.5,0.03368
16513.9,0.03257
16566.7,0.03194
16619.8,0.03154
16673.2,0.03116
16727.0,0.03055
16781.1,0.02995
16835.6,0.02947
16890.5,0.0289
16945.7,0.02853
17001.2,0.02847
17057.2,0.02885
17113.4,0.02921
17170.1,0.0296
17227.2,0.02996
17284.6,0.03019
17342.4,0.02998
17400.6,0.02999
17459.2,0.03036
17518.2,0.03099
17577.5,0.03142
17637.3,0.0316
17697.5,0.03181
17758.1,0.03199
17819.2,0.03179
17880.6,0.03153
17942.5,0.03173
18004.8,0.03255
18067.5,0.03284
18130.7,0.03284
18194.3,0.0332
18258.4,0.03301
18322.9,0.03278
18387.9,0.0329
18453.3,0.03314
18519.2,0.03325
18585.6,0.03314
18652.4,0.03326
18719.8,0.03318
18787.6,0.03309
18855.9,0.03314
18924.7,0.03331
18994.1,0.03359
19063.9,0.03372
19134.2,0.03386
19205.1,0.03419
19276.5,0.03436
19348.4,0.03437
19420.9,0.03443
19493.9,0.03456
19567.5,0.03449
19641.6,0.03446
19716.3,0.0347
19791.5,0.03496
19867.3,0.035
19943.8,0.03477
20020.8,0.03444
20098.4,0.03434
20176.6,0.03398
20255.4,0.03409
20334.8,0.03488
20414.9,0.03588
20495.6,0.03699
20576.9,0.03774
20658.9,0.03807
20741.5,0.03875
20824.8,0.03881
20908.8,0.03879
20993.5,0.03853
21078.8,0.03827
21164.8,0.03774
21251.6,0.03699
21339.1,0.03617
21427.2,0.03541
21516.1,0.03429
21605.8,0.03296
21696.2,0.03191
21787.3,0.03123
21879.3,0.03029
21972.0,0.02955
22065.4,0.0291
22159.7,0.02857
22254.8,0.02842
22350.8,0.02879
22447.5,0.02896
22545.1,0.02902
22643.6,0.02902
22742.9,0.02905
22843.1,0.02909
22944.2,0.02924
23046.1,0.02965
23149.0,0.02994
23252.8,0.03011
23357.6,0.03035
23463.3,0.03053
23569.9,0.0307
23677.5,0.03142
23786.1,0.03248
23895.8,0.03286
24006.4,0.03308
24118.0,0.0335
24230.7,0.03381
24344.5,0.03415
24459.3,0.03478
24575.3,0.03527
24692.3,0.03609
24810.4,0.03701
24929.7,0.03733
25050.1,0.03718
25171.7,0.03683
25294.5,0.03674
25418.5,0.03677
25543.7,0.03722
25670.2,0.03797
25797.9,0.03904
25926.9,0.04003
26057.2,0.04038
26188.8,0.0404
26321.7,0.03986
26456.0,0.03892
26591.7,0.03775
26728.8,0.03643
26867.2,0.03522
27007.2,0.03475
27148.6,0.03581
27291.5,0.03757
27435.9,0.03979
27581.8,0.0419
27729.3,0.04285
27878.4,0.04321
28029.1,0.04302
28181.4,0.04328
28335.4,0.04288
28491.1,0.04266
28648.5,0.04317
28807.7,0.04362
28968.6,0.04396
29131.3,0.04424
29295.9,0.04476
29462.4,0.04533
29630.7,0.04575
29801.0,0.04642
29973.3,0.04751
30147.5,0.04828
30323.8,0.04841
30502.2,0.04867
30682.7,0.04872
30865.3,0.04925
31050.2,0.05012
31237.2,0.05076
31426.5,0.05159
31618.2,0.05255
31812.1,0.05404
32008.5,0.05514
32207.3,0.05616
32408.6,0.05717
32612.4,0.05768
32818.8,0.05776
33027.9,0.05836
33239.6,0.05859
33454.1,0.05831
33671.3,0.05724
33891.4,0.05576
34114.3,0.05471
34340.3,0.05505
34569.2,0.056
34801.2,0.05702
35036.3,0.05849
35274.7,0.06017
35516.3,0.06231
35761.2,0.06322
36009.6,0.06313
36261.4,0.06428
36516.7,0.06581
36775.7,0.06569
37038.4,0.06414
37304.9,0.06435
37575.2,0.06655
37849.5,0.06753
38127.8,0.06722
38410.2,0.06625
38696.8,0.06534
38987.8,0.06511
39283.2,0.06392
39583.0,0.05916
39887.5,0.05642
40196.7,0.05565
40510.8,0.05395
40829.8,0.05085
41153.8,0.04791
41483.0,0.04572
41817.6,0.0429
42157.5,0.04024
42503.1,0.03831
42854.4,0.03726
43211.5,0.03836
43574.6,0.04192
43943.9,0.04544
44319.5,0.04719
44701.5,0.04876
45090.2,0.04929
45485.8,0.05057
45888.3,0.05279
46298.0,0.05383
46715.1,0.05458
47139.8,0.0551
47572.3,0.05627
48012.8,0.06035
48461.5,0.0619
48918.7,0.0616
49384.6,0.06487
49859.4,0.06626
