Database of Origin,University of Winnipeg Spectrophotometer Facility
Sample Description,Carbonaceous chondrites - RELAB archive 6. CV chondrites
Date Added,2018-07-23 23:45:03.346905

Data ID,RLA_MET_37_30       
Sample ID,TIL91722/8
Mineral Name,CV Chondrite
Grain Size,<125 um
Viewing Geometry,30/0
Material Class,CV3/ Reduced

Wavelength
305.0,0.018813
310.0,0.018762
315.0,0.019743
320.0,0.018921
325.0,0.019476
330.0,0.019778
335.0,0.019995
340.0,0.02102
345.0,0.021716
350.0,0.021547
355.0,0.021812
360.0,0.022303
365.0,0.022781
370.0,0.023704
375.0,0.024409
380.0,0.025089
385.0,0.025557
390.0,0.026466
395.0,0.027534
400.0,0.027505
405.0,0.028001
410.0,0.029769
415.0,0.030435
420.0,0.031225
425.0,0.032059
430.0,0.033016
435.0,0.033917
440.0,0.034935
445.0,0.035728
450.0,0.036401
455.0,0.036948
460.0,0.037414
465.0,0.037662
470.0,0.038028
475.0,0.038645
480.0,0.039558
485.0,0.039853
490.0,0.040794
495.0,0.04159
500.0,0.042323
505.0,0.043427
510.0,0.044452
515.0,0.045398
520.0,0.04646
525.0,0.047555
530.0,0.048452
535.0,0.049367
540.0,0.050347
545.0,0.05116
550.0,0.051423
555.0,0.052008
560.0,0.052846
565.0,0.053465
570.0,0.053915
575.0,0.054231
580.0,0.05484
585.0,0.055198
590.0,0.0554
595.0,0.055557
600.0,0.05547
605.0,0.055538
610.0,0.055859
615.0,0.056014
620.0,0.055971
625.0,0.056248
630.0,0.056326
635.0,0.056414
640.0,0.056354
645.0,0.056462
650.0,0.05651
655.0,0.056489
660.0,0.056422
665.0,0.05641
670.0,0.056476
675.0,0.05712
680.0,0.056919
685.0,0.057107
690.0,0.057107
695.0,0.056707
700.0,0.056701
705.0,0.056879
710.0,0.056943
715.0,0.057037
720.0,0.056906
725.0,0.057052
730.0,0.05692
735.0,0.057071
740.0,0.057122
745.0,0.056224
750.0,0.056024
755.0,0.056064
760.0,0.056806
765.0,0.05679
770.0,0.056774
775.0,0.056753
780.0,0.056884
785.0,0.056882
790.0,0.05706
795.0,0.056777
800.0,0.056607
805.0,0.056775
810.0,0.056628
815.0,0.056836
820.0,0.05668
825.0,0.056822
830.0,0.056648
835.0,0.057055
840.0,0.057076
845.0,0.057086
850.0,0.05701
855.0,0.057292
860.0,0.056893
865.0,0.057297
870.0,0.057285
875.0,0.057422
880.0,0.057312
885.0,0.057474
890.0,0.057787
895.0,0.057753
900.0,0.057788
905.0,0.057843
910.0,0.057765
915.0,0.057872
920.0,0.057886
925.0,0.058094
930.0,0.058289
935.0,0.058156
940.0,0.058237
945.0,0.058381
950.0,0.05841
955.0,0.058481
960.0,0.058505
965.0,0.058708
970.0,0.058751
975.0,0.059002
980.0,0.0591
985.0,0.05902
990.0,0.059096
995.0,0.059185
1000.0,0.059306
1005.0,0.05927
1010.0,0.059461
1015.0,0.05962
1020.0,0.059593
1025.0,0.059656
1030.0,0.059766
1035.0,0.059843
1040.0,0.059933
1045.0,0.059995
1050.0,0.060135
1055.0,0.060101
1060.0,0.060068
1065.0,0.059998
1070.0,0.060215
1075.0,0.060178
1080.0,0.060255
1085.0,0.060261
1090.0,0.06034
1095.0,0.060475
1100.0,0.060438
1105.0,0.060631
1110.0,0.060559
1115.0,0.06061
1120.0,0.060909
1125.0,0.060791
1130.0,0.060859
1135.0,0.061038
1140.0,0.061035
1145.0,0.061145
1150.0,0.061273
1155.0,0.061329
1160.0,0.061386
1165.0,0.06144
1170.0,0.061742
1175.0,0.061751
1180.0,0.061756
1185.0,0.061793
1190.0,0.062012
1195.0,0.062186
1200.0,0.062316
1205.0,0.062274
1210.0,0.062463
1215.0,0.06253
1220.0,0.062667
1225.0,0.062587
1230.0,0.062736
1235.0,0.062764
1240.0,0.062632
1245.0,0.063094
1250.0,0.063087
1255.0,0.063077
1260.0,0.063078
1265.0,0.06313
1270.0,0.063385
1275.0,0.063193
1280.0,0.063493
1285.0,0.063605
1290.0,0.063764
1295.0,0.063794
1300.0,0.063866
1305.0,0.063876
1310.0,0.063788
1315.0,0.06373
1320.0,0.063903
1325.0,0.063999
1330.0,0.064232
1335.0,0.064377
1340.0,0.064516
1345.0,0.064684
1350.0,0.064724
1355.0,0.064571
1360.0,0.064817
1365.0,0.064696
1370.0,0.064742
1375.0,0.064819
1380.0,0.065164
1385.0,0.064954
1390.0,0.064983
1395.0,0.065285
1400.0,0.065395
1405.0,0.065218
1410.0,0.065299
1415.0,0.065322
1420.0,0.065601
1425.0,0.065628
1430.0,0.065694
1435.0,0.065626
1440.0,0.065617
1445.0,0.065817
1450.0,0.065919
1455.0,0.065959
1460.0,0.065932
1465.0,0.066194
1470.0,0.066227
1475.0,0.066314
1480.0,0.066282
1485.0,0.066416
1490.0,0.066535
1495.0,0.0666
1500.0,0.066749
1505.0,0.06661
1510.0,0.066797
1515.0,0.066927
1520.0,0.066942
1525.0,0.067333
1530.0,0.067313
1535.0,0.067464
1540.0,0.067566
1545.0,0.067384
1550.0,0.067566
1555.0,0.067726
1560.0,0.06767
1565.0,0.067823
1570.0,0.068067
1575.0,0.067933
1580.0,0.067979
1585.0,0.067937
1590.0,0.068075
1595.0,0.068121
1600.0,0.068233
1605.0,0.068415
1610.0,0.06834
1615.0,0.068412
1620.0,0.068585
1625.0,0.068553
1630.0,0.068524
1635.0,0.068784
1640.0,0.068732
1645.0,0.068765
1650.0,0.068924
1655.0,0.069006
1660.0,0.069076
1665.0,0.069157
1670.0,0.069241
1675.0,0.069328
1680.0,0.069124
1685.0,0.069273
1690.0,0.069485
1695.0,0.069413
1700.0,0.069664
1705.0,0.069736
1710.0,0.069836
1715.0,0.069714
1720.0,0.069946
1725.0,0.06985
1730.0,0.070059
1735.0,0.070092
1740.0,0.070072
1745.0,0.070033
1750.0,0.070083
1755.0,0.07016
1760.0,0.070181
1765.0,0.070379
1770.0,0.070275
1775.0,0.070297
1780.0,0.070276
1785.0,0.070438
1790.0,0.070529
1795.0,0.070487
1800.0,0.070906
1805.0,0.070839
1810.0,0.071002
1815.0,0.070556
1820.0,0.070752
1825.0,0.070743
1830.0,0.070857
1835.0,0.071023
1840.0,0.070991
1845.0,0.071027
1850.0,0.070972
1855.0,0.071305
1860.0,0.070953
1865.0,0.071241
1870.0,0.071749
1875.0,0.070587
1880.0,0.070781
1885.0,0.071231
1890.0,0.071183
1895.0,0.071188
1900.0,0.071488
1905.0,0.070922
1910.0,0.070721
1915.0,0.070614
1920.0,0.070886
1925.0,0.070493
1930.0,0.070606
1935.0,0.070516
1940.0,0.070515
1945.0,0.070612
1950.0,0.070594
1955.0,0.070601
1960.0,0.070642
1965.0,0.070784
1970.0,0.070808
1975.0,0.070996
1980.0,0.070989
1985.0,0.071195
1990.0,0.071219
1995.0,0.071368
2000.0,0.071371
2005.0,0.071481
2010.0,0.071497
2015.0,0.071778
2020.0,0.071857
2025.0,0.071777
2030.0,0.071711
2035.0,0.071952
2040.0,0.072139
2045.0,0.071962
2050.0,0.071998
2055.0,0.072229
2060.0,0.07229
2065.0,0.072464
2070.0,0.072297
2075.0,0.072398
2080.0,0.07231
2085.0,0.072429
2090.0,0.072596
2095.0,0.072263
2100.0,0.072553
2105.0,0.072632
2110.0,0.072706
2115.0,0.072692
2120.0,0.072797
2125.0,0.072917
2130.0,0.072927
2135.0,0.073
2140.0,0.072859
2145.0,0.072933
2150.0,0.072841
2155.0,0.072816
2160.0,0.073081
2165.0,0.072832
2170.0,0.073018
2175.0,0.072904
2180.0,0.073083
2185.0,0.072966
2190.0,0.073054
2195.0,0.073112
2200.0,0.073229
2205.0,0.073315
2210.0,0.073537
2215.0,0.073307
2220.0,0.073368
2225.0,0.07343
2230.0,0.073459
2235.0,0.073381
2240.0,0.073494
2245.0,0.073359
2250.0,0.073373
2255.0,0.073273
2260.0,0.073268
2265.0,0.073385
2270.0,0.073286
2275.0,0.073384
2280.0,0.07357
2285.0,0.07337
2290.0,0.073444
2295.0,0.073388
2300.0,0.073629
2305.0,0.073673
2310.0,0.073711
2315.0,0.073694
2320.0,0.073484
2325.0,0.073547
2330.0,0.073477
2335.0,0.073586
2340.0,0.073596
2345.0,0.073569
2350.0,0.073289
2355.0,0.073372
2360.0,0.073591
2365.0,0.073623
2370.0,0.073187
2375.0,0.073325
2380.0,0.07324
2385.0,0.073424
2390.0,0.07325
2395.0,0.073016
2400.0,0.073049
2405.0,0.073203
2410.0,0.073306
2415.0,0.073407
2420.0,0.073193
2425.0,0.073215
2430.0,0.073639
2435.0,0.073442
2440.0,0.073428
2445.0,0.073411
2450.0,0.073525
2455.0,0.073156
2460.0,0.073346
2465.0,0.073268
2470.0,0.073247
2475.0,0.072819
2480.0,0.073031
2485.0,0.07293
2490.0,0.072795
2495.0,0.072946
2500.0,0.072756
2505.0,0.072911
2510.0,0.072816
2515.0,0.073177
2520.0,0.072767
2525.0,0.073143
2530.0,0.07315
2535.0,0.07289
2540.0,0.072973
2545.0,0.073704
2550.0,0.073343
2555.0,0.072106
2560.0,0.074666
2565.0,0.071365
2570.0,0.072216
2575.0,0.072482
2580.0,0.072027
2585.0,0.072539
2590.0,0.071565
2595.0,0.073201
2600.0,0.070652
