Database of Origin,University of Winnipeg Spectrophotometer Facility
Sample Description,16.12. Meteorites - Ureilites 16.12.3. Pierre Hudon (JSC) samples (b) RELAB + Nicolet FTIR merged spectra from RELAB
Other Information,bkr3ph031
Date Added,2018-07-23 23:49:07.786699

Data ID,RLA_MET2_10_7       
Sample ID,EET96042
Mineral Name,ureilite
Grain Size,<75 um
Viewing Geometry,30/0/30
Resolution,5/0.8-121 nm

Wavelength
305.0,0.03999
310.0,0.04014
315.0,0.03876
320.0,0.04066
325.0,0.04158
330.0,0.04148
335.0,0.0421
340.0,0.04263
345.0,0.04285
350.0,0.04345
355.0,0.04364
360.0,0.04436
365.0,0.04532
370.0,0.04631
375.0,0.04685
380.0,0.04795
385.0,0.0495
390.0,0.05071
395.0,0.05295
400.0,0.05465
405.0,0.05634
410.0,0.05774
415.0,0.05962
420.0,0.06155
425.0,0.06357
430.0,0.066
435.0,0.06841
440.0,0.07101
445.0,0.07305
450.0,0.07487
455.0,0.07638
460.0,0.0775
465.0,0.07872
470.0,0.0796
475.0,0.08073
480.0,0.08179
485.0,0.08344
490.0,0.085
495.0,0.08702
500.0,0.08922
505.0,0.09163
510.0,0.09451
515.0,0.09714
520.0,0.10016
525.0,0.10316
530.0,0.10619
535.0,0.10926
540.0,0.11226
545.0,0.11495
550.0,0.11755
555.0,0.11997
560.0,0.12227
565.0,0.1241
570.0,0.1258
575.0,0.12753
580.0,0.1289
585.0,0.13022
590.0,0.1312
595.0,0.13212
600.0,0.13274
605.0,0.13387
610.0,0.13424
615.0,0.13504
620.0,0.13528
625.0,0.13561
630.0,0.13612
635.0,0.13627
640.0,0.13668
645.0,0.13686
650.0,0.13701
655.0,0.13701
660.0,0.13704
665.0,0.13733
670.0,0.13741
675.0,0.13758
680.0,0.13784
685.0,0.13782
690.0,0.138
695.0,0.13787
700.0,0.13789
705.0,0.13817
710.0,0.13813
715.0,0.13821
720.0,0.13803
725.0,0.13796
730.0,0.1377
735.0,0.13774
740.0,0.1375
745.0,0.13722
750.0,0.13734
755.0,0.1368
760.0,0.13684
765.0,0.13631
770.0,0.13609
775.0,0.13568
780.0,0.13567
785.0,0.13514
790.0,0.13481
795.0,0.13475
800.0,0.13448
805.0,0.13429
810.0,0.13383
815.0,0.13355
820.0,0.13315
825.0,0.13275
830.0,0.13249
835.0,0.13188
840.0,0.13169
845.0,0.13108
850.0,0.13089
855.0,0.13025
860.0,0.12995
865.0,0.12964
870.0,0.1293
875.0,0.12891
880.0,0.1285
885.0,0.12811
890.0,0.1277
895.0,0.12749
900.0,0.12724
905.0,0.1271
910.0,0.12694
915.0,0.12673
920.0,0.12643
925.0,0.12628
930.0,0.12616
935.0,0.12596
940.0,0.12589
945.0,0.12585
950.0,0.1257
955.0,0.12556
960.0,0.12557
965.0,0.12565
970.0,0.12562
975.0,0.12567
980.0,0.12567
985.0,0.12567
990.0,0.12559
995.0,0.1255
1000.0,0.12546
1005.0,0.12549
1010.0,0.12554
1015.0,0.12554
1020.0,0.12574
1025.0,0.1259
1030.0,0.12606
1035.0,0.12616
1040.0,0.1264
1045.0,0.12648
1050.0,0.12649
1055.0,0.12665
1060.0,0.12672
1065.0,0.12678
1070.0,0.12687
1075.0,0.12712
1080.0,0.12712
1085.0,0.12721
1090.0,0.12735
1095.0,0.12759
1100.0,0.12764
1105.0,0.12784
1110.0,0.12807
1115.0,0.12811
1120.0,0.12813
1125.0,0.12818
1130.0,0.12828
1135.0,0.12839
1140.0,0.1286
1145.0,0.12878
1150.0,0.12905
1155.0,0.12914
1160.0,0.12926
1165.0,0.12924
1170.0,0.12915
1175.0,0.1291
1180.0,0.12911
1185.0,0.12922
1190.0,0.12932
1195.0,0.12934
1200.0,0.12932
1205.0,0.1294
1210.0,0.12924
1215.0,0.12908
1220.0,0.12909
1225.0,0.12907
1230.0,0.12899
1235.0,0.12901
1240.0,0.12914
1245.0,0.1291
1250.0,0.12908
1255.0,0.1291
1260.0,0.12906
1265.0,0.12904
1270.0,0.12905
1275.0,0.12905
1280.0,0.12897
1285.0,0.12906
1290.0,0.12908
1295.0,0.12917
1300.0,0.12918
1305.0,0.12928
1310.0,0.12928
1315.0,0.12934
1320.0,0.12933
1325.0,0.12935
1330.0,0.12941
1335.0,0.12944
1340.0,0.12941
1345.0,0.1293
1350.0,0.12919
1355.0,0.12933
1360.0,0.12939
1365.0,0.12957
1370.0,0.12955
1375.0,0.12984
1380.0,0.1297
1385.0,0.12975
1390.0,0.12961
1395.0,0.12968
1400.0,0.1295
1405.0,0.12948
1410.0,0.12941
1415.0,0.12945
1420.0,0.12962
1425.0,0.12973
1430.0,0.12979
1435.0,0.12986
1440.0,0.1299
1445.0,0.12979
1450.0,0.12969
1455.0,0.12959
1460.0,0.12951
1465.0,0.12951
1470.0,0.12957
1475.0,0.12949
1480.0,0.12957
1485.0,0.12972
1490.0,0.12974
1495.0,0.12963
1500.0,0.12968
1505.0,0.12965
1510.0,0.12954
1515.0,0.12951
1520.0,0.12956
1525.0,0.12957
1530.0,0.12956
1535.0,0.1295
1540.0,0.12952
1545.0,0.12952
1550.0,0.12951
1555.0,0.12945
1560.0,0.12942
1565.0,0.12931
1570.0,0.1293
1575.0,0.12932
1580.0,0.12933
1585.0,0.12936
1590.0,0.12945
1595.0,0.12928
1600.0,0.12922
1605.0,0.12923
1610.0,0.12922
1615.0,0.12913
1620.0,0.12915
1625.0,0.129
1630.0,0.12878
1635.0,0.12869
1640.0,0.12866
1645.0,0.1286
1650.0,0.12867
1655.0,0.12866
1660.0,0.12859
1665.0,0.12856
1670.0,0.12857
1675.0,0.12838
1680.0,0.12829
1685.0,0.12823
1690.0,0.12814
1695.0,0.1281
1700.0,0.12812
1705.0,0.12806
1710.0,0.12796
1715.0,0.12786
1720.0,0.12777
1725.0,0.12769
1730.0,0.12759
1735.0,0.1276
1740.0,0.12748
1745.0,0.12738
1750.0,0.12722
1755.0,0.12725
1760.0,0.1271
1765.0,0.12705
1770.0,0.12694
1775.0,0.12685
1780.0,0.12687
1785.0,0.12688
1790.0,0.12677
1795.0,0.12672
1800.0,0.12661
1805.0,0.1264
1810.0,0.12631
1815.0,0.12637
1820.0,0.1262
1825.0,0.12601
1830.0,0.12601
1835.0,0.12612
1840.0,0.12597
1845.0,0.12607
1850.0,0.12608
1855.0,0.12612
1860.0,0.12607
1865.0,0.12609
1870.0,0.12611
1875.0,0.12621
1880.0,0.12613
1885.0,0.12603
1890.0,0.12576
1895.0,0.12556
1900.0,0.12531
1905.0,0.12524
1910.0,0.12521
1915.0,0.12533
1920.0,0.1255
1925.0,0.12542
1930.0,0.12542
1935.0,0.12552
1940.0,0.12528
1945.0,0.12506
1950.0,0.12497
1955.0,0.12493
1960.0,0.12478
1965.0,0.12476
1970.0,0.1247
1975.0,0.12457
1980.0,0.12459
1985.0,0.12455
1990.0,0.12446
1995.0,0.12456
2000.0,0.12464
2005.0,0.12457
2010.0,0.12453
2015.0,0.12456
2020.0,0.12451
2025.0,0.12441
2030.0,0.12433
2035.0,0.12438
2040.0,0.12431
2045.0,0.12427
2050.0,0.12423
2055.0,0.12419
2060.0,0.12413
2065.0,0.12425
2070.0,0.12417
2075.0,0.12416
2080.0,0.12413
2085.0,0.12405
2090.0,0.12394
2095.0,0.12411
2100.0,0.12413
2105.0,0.12416
2110.0,0.12413
2115.0,0.12407
2120.0,0.12388
2125.0,0.1239
2130.0,0.12382
2135.0,0.12386
2140.0,0.12381
2145.0,0.1239
2150.0,0.12387
2155.0,0.12389
2160.0,0.12392
2165.0,0.12397
2170.0,0.12392
2175.0,0.12391
2180.0,0.12397
2185.0,0.12396
2190.0,0.12394
2195.0,0.12399
2200.0,0.12392
2205.0,0.12386
2210.0,0.12391
2215.0,0.12391
2220.0,0.12382
2225.0,0.1238
2230.0,0.12383
2235.0,0.12375
2240.0,0.12376
2245.0,0.12375
2250.0,0.12383
2255.0,0.12387
2260.0,0.12392
2265.0,0.12394
2270.0,0.12403
2275.0,0.124
2280.0,0.12401
2285.0,0.12396
2290.0,0.12385
2295.0,0.12377
2300.0,0.12374
2305.0,0.12363
2310.0,0.12351
2315.0,0.12351
2320.0,0.12347
2325.0,0.12344
2330.0,0.12339
2335.0,0.12349
2340.0,0.1235
2345.0,0.1235
2350.0,0.12351
2355.0,0.12348
2360.0,0.12335
2365.0,0.12323
2370.0,0.12315
2375.0,0.12297
2380.0,0.12305
2385.0,0.1231
2390.0,0.12318
2395.0,0.12323
2400.0,0.12331
2405.0,0.1232
2410.0,0.12318
2415.0,0.12319
2420.0,0.12321
2425.0,0.12314
2430.0,0.12309
2435.0,0.1229
2440.0,0.12279
2445.0,0.12263
2450.0,0.12266
2455.0,0.12261
2460.0,0.1226
2465.0,0.1225
2470.0,0.12252
2475.0,0.12225
2480.0,0.1223
2485.0,0.12223
2490.0,0.12231
2495.0,0.122
2500.0,0.12214
2505.0,0.12183
2510.0,0.12185
2515.0,0.12152
2520.0,0.1215
2525.0,0.12125
2530.0,0.12147
2535.0,0.12105
2540.0,0.12111
2545.0,0.12125
2550.0,0.1211
2551.9,0.12119
2553.1,0.12119
2554.4,0.1212
2555.7,0.12123
2556.9,0.12117
2558.2,0.12109
2559.4,0.12108
2560.7,0.12106
2562.0,0.12106
2563.2,0.12106
2564.5,0.12104
2565.8,0.12105
2567.1,0.12108
2568.3,0.12113
2569.6,0.12119
2570.9,0.12114
2572.1,0.12107
2573.4,0.1211
2574.7,0.12109
2576.0,0.12103
2577.3,0.12102
2578.5,0.12111
2579.8,0.12108
2581.1,0.12105
2582.4,0.12107
2583.7,0.12104
2585.0,0.121
2586.3,0.12107
2587.5,0.1211
2588.8,0.12109
2590.1,0.12112
2591.4,0.12111
2592.7,0.12108
2594.0,0.12101
2595.3,0.1209
2596.6,0.12094
2597.9,0.12102
2599.2,0.12109
2600.5,0.12106
2601.8,0.12105
2603.1,0.12107
2604.4,0.121
2605.8,0.12095
2607.1,0.12099
2608.4,0.121
2609.7,0.12095
2611.0,0.12092
2612.3,0.12097
2613.6,0.12103
2614.9,0.12101
2616.3,0.121
2617.6,0.12097
2618.9,0.12095
2620.2,0.12093
2621.6,0.12093
2622.9,0.12096
2624.2,0.12093
2625.5,0.12092
2626.9,0.12089
2628.2,0.12089
2629.5,0.12088
2630.9,0.12086
2632.2,0.12087
2633.5,0.12084
2634.9,0.12082
2636.2,0.12087
2637.6,0.12084
2638.9,0.1208
2640.2,0.12083
2641.6,0.12085
2642.9,0.12083
2644.3,0.12077
2645.6,0.12076
2647.0,0.12079
2648.3,0.1208
2649.7,0.12078
2651.0,0.12076
2652.4,0.12071
2653.8,0.12064
2655.1,0.12068
2656.5,0.12069
2657.8,0.12063
2659.2,0.12062
2660.6,0.12066
2661.9,0.12064
2663.3,0.12056
2664.7,0.12049
2666.0,0.12049
2667.4,0.12049
2668.8,0.12042
2670.1,0.12028
2671.5,0.12023
2672.9,0.12025
2674.3,0.12017
2675.7,0.12009
2677.0,0.12007
2678.4,0.12003
2679.8,0.11997
2681.2,0.11994
2682.6,0.11998
2684.0,0.12003
2685.4,0.11997
2686.8,0.11988
2688.1,0.11982
2689.5,0.11981
2690.9,0.11976
2692.3,0.11969
2693.7,0.11959
2695.1,0.1195
2696.5,0.11951
2697.9,0.11957
2699.3,0.11951
2700.8,0.11939
2702.1,0.11929
2703.6,0.11923
2705.0,0.11921
2706.4,0.11913
2707.8,0.11901
2709.2,0.11886
2710.6,0.11873
2712.1,0.11864
2713.5,0.11856
2714.9,0.1185
2716.3,0.11839
2717.7,0.11829
2719.2,0.11819
2720.6,0.11805
2722.0,0.1178
2723.4,0.11763
2724.9,0.11751
2726.3,0.11733
2727.7,0.11721
2729.2,0.11704
2730.6,0.1168
2732.1,0.11659
2733.5,0.11643
2734.9,0.11626
2736.4,0.11602
2737.8,0.1158
2739.3,0.11553
2740.7,0.11523
2742.2,0.11499
2743.6,0.1148
2745.1,0.11459
2746.5,0.11432
2748.0,0.11402
2749.4,0.1137
2750.9,0.11337
2752.4,0.11306
2753.8,0.11277
2755.3,0.11246
2756.7,0.11208
2758.2,0.11179
2759.7,0.11151
2761.1,0.11115
2762.6,0.11074
2764.1,0.11039
2765.6,0.11004
2767.0,0.10971
2768.5,0.10939
2770.0,0.10909
2771.5,0.10871
2773.0,0.10837
2774.4,0.10807
2775.9,0.1077
2777.4,0.10736
2778.9,0.10708
2780.4,0.10678
2781.9,0.1064
2783.4,0.10601
2784.9,0.10577
2786.4,0.10546
2787.9,0.10513
2789.4,0.10482
2790.9,0.10454
2792.4,0.10424
2793.9,0.10392
2795.4,0.10357
2796.9,0.1033
2798.4,0.10304
2799.9,0.10271
2801.4,0.10238
2802.9,0.10212
2804.4,0.10184
2806.0,0.1015
2807.5,0.10121
2809.0,0.10093
2810.5,0.10071
2812.1,0.10047
2813.6,0.10015
2815.1,0.09987
2816.6,0.09958
2818.2,0.09931
2819.7,0.09906
2821.2,0.09875
2822.8,0.09846
2824.3,0.09821
2825.9,0.09793
2827.4,0.09766
2828.9,0.0974
2830.5,0.0971
2832.0,0.0968
2833.6,0.0965
2835.1,0.09612
2836.7,0.09584
2838.2,0.09559
2839.8,0.09527
2841.3,0.09493
2842.9,0.09459
2844.4,0.09431
2846.0,0.09408
2847.6,0.09382
2849.1,0.09359
2850.7,0.09338
2852.3,0.09313
2853.8,0.09287
2855.4,0.09265
2857.0,0.09245
2858.6,0.09226
2860.1,0.09208
2861.7,0.09191
2863.3,0.09171
2864.9,0.09157
2866.5,0.09144
2868.1,0.09128
2869.6,0.09114
2871.2,0.09106
2872.8,0.09095
2874.4,0.09084
2876.0,0.09075
2877.6,0.09068
2879.2,0.09063
2880.8,0.09053
2882.4,0.09042
2884.0,0.09039
2885.6,0.09035
2887.2,0.09027
2888.8,0.0902
2890.4,0.09015
2892.0,0.0901
2893.6,0.09003
2895.3,0.09002
2896.9,0.09006
2898.5,0.09001
2900.1,0.08994
2901.8,0.08985
2903.4,0.08981
2905.0,0.08978
2906.6,0.08976
2908.3,0.08971
2909.9,0.08968
2911.5,0.08963
2913.2,0.0896
2914.8,0.08957
2916.4,0.08956
2918.1,0.0895
2919.7,0.08942
2921.4,0.0894
2923.0,0.08936
2924.7,0.08933
2926.3,0.08932
2928.0,0.08928
2929.6,0.08923
2931.3,0.08918
2932.9,0.08915
2934.6,0.08911
2936.3,0.08908
2937.9,0.08908
2939.6,0.08904
2941.3,0.08901
2942.9,0.08903
2944.6,0.08902
2946.3,0.08901
2947.9,0.08901
2949.6,0.08904
2951.3,0.08909
2953.0,0.08906
2954.7,0.08907
2956.3,0.0891
2958.0,0.08906
2959.7,0.08907
2961.4,0.0891
2963.1,0.08912
2964.8,0.08911
2966.5,0.0891
2968.2,0.08908
2969.9,0.08911
2971.6,0.08914
2973.3,0.08917
2975.0,0.08922
2976.7,0.08925
2978.4,0.08928
2980.1,0.08934
2981.9,0.08941
2983.6,0.08941
2985.3,0.0894
2987.0,0.08942
2988.7,0.08948
2990.4,0.08953
2992.2,0.08953
2993.9,0.08958
2995.6,0.08956
2997.4,0.08964
2999.1,0.08977
3000.8,0.0898
3002.6,0.0898
3004.3,0.08985
3006.1,0.08992
3007.8,0.08998
3009.5,0.09003
3011.3,0.09009
3013.0,0.09011
3014.8,0.09014
3016.5,0.09019
3018.3,0.09025
3020.1,0.09032
3021.8,0.09036
3023.6,0.09033
3025.3,0.09034
3027.1,0.09044
3028.9,0.09049
3030.6,0.09056
3032.4,0.09062
3034.2,0.09066
3036.0,0.0907
3037.7,0.09072
3039.5,0.09076
3041.3,0.09081
3043.1,0.09087
3044.9,0.09089
3046.7,0.09088
3048.5,0.09092
3050.3,0.09096
3052.1,0.09094
3053.8,0.09098
3055.6,0.09106
3057.4,0.09107
3059.3,0.09109
3061.1,0.09114
3062.9,0.0912
3064.7,0.09125
3066.5,0.09126
3068.3,0.09124
3070.1,0.09123
3071.9,0.09126
3073.8,0.09133
3075.6,0.09136
3077.4,0.09135
3079.2,0.09139
3081.1,0.09141
3082.9,0.09142
3084.7,0.09145
3086.6,0.0915
3088.4,0.09149
3090.2,0.0915
3092.1,0.09154
3093.9,0.09157
3095.8,0.09165
3097.6,0.09169
3099.5,0.09174
3101.3,0.09182
3103.2,0.09187
3105.1,0.09186
3106.9,0.09187
3108.8,0.09198
3110.6,0.09204
3112.5,0.09208
3114.4,0.09214
3116.2,0.09219
3118.1,0.09222
3120.0,0.09225
3121.9,0.09234
3123.8,0.0924
3125.6,0.09245
3127.5,0.09255
3129.4,0.09258
3131.3,0.0926
3133.2,0.0927
3135.1,0.09278
3137.0,0.09283
3138.9,0.09291
3140.8,0.09302
3142.7,0.0931
3144.6,0.09317
3146.5,0.09322
3148.4,0.09328
3150.3,0.09338
3152.2,0.09351
3154.1,0.09359
3156.1,0.09366
3158.0,0.09376
3159.9,0.09383
3161.8,0.09387
3163.8,0.09397
3165.7,0.09409
3167.6,0.0942
3169.6,0.09428
3171.5,0.09436
3173.5,0.09449
3175.4,0.09461
3177.3,0.09465
3179.3,0.09472
3181.2,0.09487
3183.2,0.09499
3185.1,0.09504
3187.1,0.09513
3189.1,0.09528
3191.0,0.09544
3193.0,0.09556
3195.0,0.09567
3196.9,0.09581
3198.9,0.09592
3200.9,0.096
3202.9,0.09608
3204.8,0.09618
3206.8,0.09628
3208.8,0.09639
3210.8,0.09655
3212.8,0.09668
3214.8,0.09682
3216.8,0.09697
3218.8,0.0971
3220.8,0.09724
3222.8,0.09737
3224.8,0.09747
3226.8,0.09758
3228.8,0.09773
3230.8,0.09785
3232.8,0.09795
3234.8,0.09803
3236.8,0.09817
3238.9,0.09832
3240.9,0.09845
3242.9,0.09854
3244.9,0.09862
3247.0,0.09872
3249.0,0.09887
3251.1,0.09898
3253.1,0.09909
3255.1,0.09918
3257.2,0.09931
3259.2,0.09944
3261.3,0.09959
3263.3,0.09972
3265.4,0.09984
3267.4,0.09992
3269.5,0.10001
3271.6,0.10009
3273.6,0.10022
3275.7,0.10031
3277.8,0.10036
3279.8,0.10048
3281.9,0.10063
3284.0,0.10075
3286.1,0.10086
3288.2,0.10097
3290.2,0.10106
3292.3,0.10116
3294.4,0.10125
3296.5,0.10136
3298.6,0.1015
3300.7,0.10158
3302.8,0.10165
3304.9,0.10175
3307.0,0.10184
3309.1,0.10187
3311.3,0.10197
3313.4,0.10212
3315.5,0.1022
3317.6,0.10224
3319.7,0.10233
3321.9,0.10245
3324.0,0.10256
3326.1,0.10262
3328.3,0.1027
3330.4,0.10281
3332.5,0.10293
3334.7,0.10302
3336.8,0.10312
3339.0,0.1032
3341.1,0.10328
3343.3,0.10338
3345.4,0.1035
3347.6,0.10359
3349.8,0.10365
3351.9,0.10371
3354.1,0.10377
3356.3,0.10382
3358.4,0.10389
3360.6,0.10398
3362.8,0.10407
3365.0,0.10413
3367.2,0.10417
3369.4,0.10418
3371.5,0.10419
3373.7,0.10424
3375.9,0.10431
3378.1,0.10439
3380.3,0.10446
3382.5,0.10455
3384.7,0.10465
3386.9,0.10471
3389.2,0.10477
3391.4,0.10481
3393.6,0.10484
3395.8,0.10488
3398.1,0.10487
3400.3,0.10486
3402.5,0.10486
3404.7,0.10488
3407.0,0.10487
3409.2,0.10485
3411.5,0.10484
3413.7,0.10486
3416.0,0.10493
3418.2,0.10499
3420.5,0.1051
3422.7,0.10527
3425.0,0.10547
3427.3,0.10562
3429.5,0.10576
3431.8,0.10584
3434.1,0.10594
3436.3,0.10613
3438.6,0.10624
3440.9,0.10629
3443.2,0.10637
3445.5,0.10645
3447.8,0.10651
3450.1,0.10659
3452.4,0.10671
3454.6,0.1068
3456.9,0.10688
3459.3,0.10691
3461.6,0.10696
3463.9,0.10706
3466.2,0.10714
3468.5,0.10717
3470.8,0.10718
3473.2,0.10722
3475.5,0.10726
3477.8,0.10731
3480.1,0.10739
3482.5,0.10744
3484.8,0.10749
3487.2,0.10748
3489.5,0.10748
3491.9,0.10748
3494.2,0.10747
3496.6,0.10745
3498.9,0.10746
3501.3,0.10753
3503.7,0.10764
3506.0,0.1078
3508.4,0.10793
3510.8,0.10803
3513.2,0.10814
3515.5,0.10824
3517.9,0.10834
3520.3,0.10839
3522.7,0.10845
3525.1,0.10853
3527.5,0.10859
3529.9,0.10862
3532.3,0.10871
3534.7,0.10883
3537.1,0.1089
3539.5,0.10895
3541.9,0.10899
3544.4,0.10904
3546.8,0.10909
3549.2,0.10914
3551.7,0.1092
3554.1,0.10923
3556.5,0.10925
3559.0,0.10931
3561.4,0.10938
3563.9,0.10941
3566.3,0.10946
3568.8,0.10953
3571.2,0.1096
3573.7,0.10967
3576.1,0.10971
3578.6,0.10975
3581.1,0.10979
3583.6,0.10985
3586.0,0.10987
3588.5,0.10989
3591.0,0.10994
3593.5,0.10999
3596.0,0.11002
3598.5,0.11005
3601.0,0.1101
3603.5,0.11016
3606.0,0.11023
3608.5,0.11027
3611.0,0.11029
3613.5,0.11034
3616.1,0.11039
3618.6,0.11046
3621.1,0.11049
3623.6,0.11054
3626.2,0.11061
3628.7,0.11065
3631.3,0.11067
3633.8,0.1107
3636.3,0.11077
3638.9,0.11081
3641.4,0.11082
3644.0,0.11087
3646.6,0.11093
3649.1,0.11098
3651.7,0.11102
3654.3,0.11106
3656.9,0.1111
3659.4,0.11113
3662.0,0.11118
3664.6,0.11124
3667.2,0.11128
3669.8,0.1113
3672.4,0.11129
3675.0,0.11135
3677.6,0.11142
3680.2,0.11149
3682.8,0.11151
3685.4,0.11152
3688.1,0.11156
3690.7,0.11162
3693.3,0.11167
3695.9,0.1117
3698.6,0.11176
3701.2,0.11179
3703.9,0.11182
3706.5,0.11188
3709.2,0.11193
3711.8,0.11196
3714.5,0.11198
3717.1,0.11204
3719.8,0.11206
3722.5,0.11206
3725.2,0.11208
3727.8,0.11211
3730.5,0.11216
3733.2,0.11219
3735.9,0.11222
3738.6,0.11227
3741.3,0.11228
3744.0,0.1123
3746.7,0.11237
3749.4,0.11244
3752.1,0.11244
3754.8,0.11246
3757.6,0.1125
3760.3,0.11253
3763.0,0.11255
3765.7,0.11255
3768.5,0.11257
3771.2,0.11259
3774.0,0.1126
3776.7,0.11264
3779.5,0.11267
3782.2,0.11268
3785.0,0.11271
3787.7,0.11274
3790.5,0.11279
3793.3,0.11283
3796.1,0.11283
3798.8,0.11285
3801.6,0.11287
3804.4,0.11286
3807.2,0.1129
3810.0,0.11292
3812.8,0.11294
3815.6,0.11297
3818.4,0.113
3821.2,0.11301
3824.1,0.11304
3826.9,0.11307
3829.7,0.11308
3832.5,0.11312
3835.4,0.11313
3838.2,0.11314
3841.1,0.11318
3843.9,0.1132
3846.8,0.11321
3849.6,0.11321
3852.5,0.11323
3855.3,0.11327
3858.2,0.11329
3861.1,0.1133
3863.9,0.1133
3866.8,0.1133
3869.7,0.11334
3872.6,0.11338
3875.5,0.11343
3878.4,0.11343
3881.3,0.1134
3884.2,0.11338
3887.1,0.1134
3890.0,0.11344
3893.0,0.11346
3895.9,0.11347
3898.8,0.1135
3901.7,0.11353
3904.7,0.11351
3907.6,0.11349
3910.6,0.11353
3913.5,0.11357
3916.5,0.11361
3919.4,0.11362
3922.4,0.1136
3925.4,0.11358
3928.4,0.11361
3931.3,0.11361
3934.3,0.11358
3937.3,0.11361
3940.3,0.11365
3943.3,0.11365
3946.3,0.11363
3949.3,0.11363
3952.3,0.11364
3955.3,0.11367
3958.3,0.11369
3961.4,0.11368
3964.4,0.11369
3967.4,0.1137
3970.5,0.11369
3973.5,0.11368
3976.6,0.11369
3979.6,0.1137
3982.6,0.11374
3985.7,0.11376
3988.8,0.11375
3991.9,0.11373
3994.9,0.11373
3998.0,0.11373
4001.1,0.11373
4004.2,0.11373
4007.3,0.11371
4010.4,0.11372
4013.5,0.11374
4016.6,0.11373
4019.7,0.11373
4022.8,0.11372
4025.9,0.11371
4029.1,0.1137
4032.2,0.11373
4035.3,0.11373
4038.5,0.11372
4041.6,0.11369
4044.8,0.11369
4047.9,0.11374
4051.1,0.11374
4054.3,0.11372
4057.4,0.11369
4060.6,0.11364
4063.8,0.11364
4067.0,0.11366
4070.2,0.11367
4073.4,0.11367
4076.6,0.11366
4079.8,0.11366
4083.0,0.11364
4086.2,0.11362
4089.4,0.1136
4092.7,0.11358
4095.9,0.11358
4099.1,0.11361
4102.4,0.1136
4105.6,0.1136
4108.9,0.11355
4112.1,0.11351
4115.4,0.11349
4118.7,0.11347
4122.0,0.11347
4125.2,0.11346
4128.5,0.1135
4131.8,0.11349
4135.1,0.11348
4138.4,0.11345
4141.7,0.11341
4145.0,0.1134
4148.3,0.11341
4151.6,0.11341
4155.0,0.1134
4158.3,0.1134
4161.6,0.11335
4165.0,0.11331
4168.3,0.11332
4171.7,0.11332
4175.0,0.11331
4178.4,0.1133
4181.8,0.11328
4185.2,0.11326
4188.5,0.11324
4191.9,0.11322
4195.3,0.1132
4198.7,0.11317
4202.1,0.11315
4205.5,0.1131
4208.9,0.11308
4212.4,0.11303
4215.8,0.11296
4219.2,0.11294
4222.6,0.11293
4226.1,0.1129
4229.5,0.11288
4233.0,0.11286
4236.5,0.11284
4239.9,0.1128
4243.4,0.11277
4246.9,0.11277
4250.3,0.11277
4253.8,0.11279
4257.3,0.11283
4260.8,0.11279
4264.3,0.11271
4267.8,0.11265
4271.3,0.11264
4274.9,0.11261
4278.4,0.11261
4281.9,0.11258
4285.5,0.11254
4289.0,0.11252
4292.6,0.11253
4296.1,0.11253
4299.7,0.11252
4303.3,0.11252
4306.8,0.11252
4310.4,0.11251
4314.0,0.11249
4317.6,0.11247
4321.2,0.11247
4324.8,0.11243
4328.4,0.11242
4332.0,0.11241
4335.6,0.11237
4339.3,0.11237
4342.9,0.11238
4346.5,0.11236
4350.2,0.11235
4353.8,0.11236
4357.5,0.11234
4361.1,0.1123
4364.8,0.11227
4368.5,0.11221
4372.2,0.1122
4375.9,0.1122
4379.6,0.11219
4383.3,0.11217
4387.0,0.11216
4390.7,0.11214
4394.4,0.11211
4398.1,0.11209
4401.9,0.11206
4405.6,0.11205
4409.4,0.11205
4413.1,0.11204
4416.9,0.112
4420.6,0.11195
4424.4,0.11194
4428.2,0.11195
4432.0,0.11192
4435.8,0.1119
4439.6,0.11186
4443.4,0.11181
4447.2,0.11176
4451.0,0.11174
4454.8,0.11173
4458.6,0.11172
4462.5,0.1117
4466.3,0.11167
4470.2,0.11163
4474.0,0.11159
4477.9,0.11157
4481.8,0.11154
4485.6,0.1115
4489.5,0.11149
4493.4,0.11147
4497.3,0.11146
4501.2,0.11144
4505.1,0.11137
4509.0,0.11134
4513.0,0.11136
4516.9,0.11135
4520.9,0.1113
4524.8,0.11125
4528.7,0.11121
4532.7,0.1112
4536.7,0.11118
4540.6,0.11117
4544.6,0.11113
4548.6,0.11108
4552.6,0.11101
4556.6,0.11098
4560.6,0.11095
4564.6,0.1109
4568.6,0.11082
4572.7,0.11078
4576.7,0.11074
4580.8,0.11071
4584.8,0.11067
4588.9,0.11065
4592.9,0.11064
4597.0,0.11059
4601.1,0.11054
4605.2,0.1105
4609.3,0.1104
4613.4,0.11033
4617.5,0.11026
4621.6,0.11021
4625.7,0.11017
4629.8,0.1101
4634.0,0.11005
4638.1,0.11003
4642.3,0.10995
4646.4,0.10985
4650.6,0.10978
4654.8,0.10975
4659.0,0.10969
4663.1,0.10962
4667.3,0.10957
4671.5,0.10956
4675.8,0.10952
4680.0,0.10945
4684.2,0.1094
4688.4,0.10936
4692.7,0.10931
4696.9,0.10925
4701.2,0.10919
4705.5,0.10916
4709.7,0.10913
4714.0,0.10905
4718.3,0.10897
4722.6,0.10895
4726.9,0.10891
4731.2,0.10886
4735.5,0.1088
4739.9,0.10873
4744.2,0.10868
4748.5,0.10864
4752.9,0.10855
4757.3,0.10848
4761.6,0.10841
4766.0,0.10834
4770.4,0.1083
4774.8,0.10824
4779.2,0.10815
4783.6,0.10807
4788.0,0.10799
4792.4,0.10795
4796.9,0.10788
4801.3,0.10779
4805.8,0.10771
4810.2,0.10763
4814.7,0.10756
4819.1,0.10748
4823.6,0.10738
4828.1,0.10729
4832.6,0.1072
4837.1,0.10711
4841.6,0.10701
4846.2,0.10691
4850.7,0.1068
4855.3,0.1067
4859.8,0.10662
4864.4,0.1065
4868.9,0.10635
4873.5,0.10623
4878.1,0.10607
4882.7,0.10591
4887.3,0.10574
4891.9,0.10558
4896.5,0.10538
4901.1,0.1052
4905.8,0.10502
4910.4,0.10486
4915.1,0.10466
4919.7,0.10448
4924.4,0.1043
4929.1,0.10409
4933.8,0.10391
4938.5,0.10379
4943.2,0.10368
4947.9,0.1036
4952.6,0.10347
4957.4,0.10336
4962.1,0.10329
4966.9,0.10325
4971.6,0.10324
4976.4,0.10321
4981.2,0.10318
4986.0,0.10316
4990.8,0.10317
4995.6,0.10318
5000.4,0.10315
5005.2,0.10311
5010.0,0.10309
5014.9,0.1031
5019.8,0.10306
5024.6,0.10302
5029.5,0.10298
5034.4,0.10294
5039.3,0.10288
5044.2,0.10282
5049.1,0.10275
5054.0,0.1027
5058.9,0.10263
5063.9,0.10256
5068.8,0.10249
5073.8,0.10244
5078.8,0.10236
5083.7,0.10226
5088.7,0.10217
5093.7,0.1021
5098.7,0.10198
5103.7,0.10188
5108.8,0.10179
5113.8,0.10171
5118.9,0.10159
5123.9,0.10148
5129.0,0.10139
5134.1,0.10132
5139.1,0.10122
5144.3,0.1011
5149.4,0.10098
5154.5,0.10087
5159.6,0.10078
5164.7,0.10069
5169.9,0.10057
5175.0,0.10049
5180.2,0.1004
5185.4,0.10033
5190.6,0.10026
5195.8,0.1002
5201.0,0.10012
5206.2,0.10005
5211.5,0.09997
5216.7,0.09991
5222.0,0.09986
5227.2,0.09979
5232.5,0.09972
5237.8,0.09969
5243.1,0.09965
5248.4,0.09964
5253.7,0.09962
5259.0,0.09956
5264.4,0.09954
5269.7,0.09956
5275.1,0.09953
5280.5,0.09953
5285.8,0.09949
5291.2,0.09944
5296.6,0.09939
5302.0,0.09936
5307.5,0.09933
5312.9,0.09932
5318.4,0.09927
5323.8,0.09921
5329.3,0.09916
5334.8,0.09914
5340.3,0.09907
5345.8,0.09897
5351.3,0.09888
5356.8,0.09881
5362.4,0.09875
5367.9,0.09868
5373.5,0.09855
5379.0,0.09845
5384.6,0.09835
5390.2,0.09825
5395.8,0.09811
5401.5,0.09796
5407.1,0.09782
5412.7,0.09769
5418.4,0.09754
5424.1,0.0974
5429.7,0.09728
5435.4,0.09717
5441.1,0.09704
5446.9,0.09694
5452.6,0.09686
5458.3,0.09678
5464.1,0.09668
5469.8,0.09664
5475.6,0.0966
5481.4,0.09656
5487.2,0.09655
5493.0,0.09654
5498.8,0.09648
5504.7,0.09643
5510.5,0.09639
5516.4,0.09634
5522.3,0.09627
5528.1,0.09618
5534.0,0.09607
5540.0,0.09598
5545.9,0.09584
5551.8,0.09568
5557.8,0.0955
5563.7,0.09528
5569.7,0.095
5575.7,0.09465
5581.7,0.09426
5587.7,0.09391
5593.7,0.09357
5599.8,0.0932
5605.8,0.09284
5611.9,0.09257
5618.0,0.09236
5624.1,0.09219
5630.2,0.09205
5636.3,0.09198
5642.4,0.09193
5648.6,0.09196
5654.7,0.09207
5660.9,0.09223
5667.1,0.09241
5673.3,0.0926
5679.5,0.0928
5685.7,0.09301
5692.0,0.09321
5698.2,0.09344
5704.5,0.09361
5710.8,0.0938
5717.1,0.094
5723.4,0.09419
5729.7,0.09436
5736.0,0.09447
5742.4,0.09452
5748.8,0.09459
5755.1,0.09464
5761.5,0.09461
5768.0,0.09453
5774.4,0.09448
5780.8,0.09442
5787.3,0.09432
5793.7,0.09419
5800.2,0.09405
5806.7,0.0939
5813.2,0.09375
5819.8,0.09356
5826.3,0.09339
5832.8,0.09324
5839.4,0.09308
5846.0,0.09289
5852.6,0.09272
5859.2,0.09252
5865.8,0.09233
5872.5,0.09218
5879.1,0.09198
5885.8,0.09178
5892.5,0.09166
5899.2,0.09145
5905.9,0.09128
5912.6,0.09112
5919.4,0.09093
5926.2,0.09069
5932.9,0.09042
5939.7,0.0901
5946.5,0.08984
5953.4,0.08956
5960.2,0.08927
5967.1,0.08891
5974.0,0.08855
5980.8,0.08824
5987.8,0.08791
5994.7,0.08762
6001.6,0.08741
6008.6,0.08727
6015.5,0.08722
6022.5,0.08721
6029.5,0.08731
6036.5,0.08743
6043.6,0.08757
6050.6,0.08779
6057.7,0.08805
6064.8,0.08826
6071.9,0.08843
6079.0,0.08865
6086.1,0.08883
6093.3,0.08893
6100.5,0.08904
6107.6,0.08911
6114.9,0.08913
6122.1,0.08914
6129.3,0.0892
6136.5,0.08922
6143.8,0.08917
6151.1,0.08911
6158.4,0.08904
6165.7,0.08899
6173.1,0.08896
6180.4,0.0889
6187.8,0.08881
6195.2,0.08876
6202.6,0.08871
6210.0,0.08861
6217.5,0.08849
6225.0,0.08843
6232.4,0.08834
6239.9,0.08823
6247.5,0.0881
6255.0,0.08794
6262.5,0.08781
6270.1,0.08772
6277.7,0.08766
6285.3,0.08764
6292.9,0.08766
6300.6,0.08774
6308.3,0.08789
6315.9,0.08804
6323.6,0.0882
6331.4,0.08833
6339.1,0.08843
6346.9,0.08858
6354.6,0.08869
6362.4,0.08875
6370.3,0.08879
6378.1,0.08882
6385.9,0.08888
6393.8,0.08888
6401.7,0.08885
6409.6,0.08884
6417.6,0.08884
6425.5,0.08885
6433.5,0.08886
6441.5,0.08887
6449.5,0.08885
6457.5,0.08879
6465.6,0.08875
6473.6,0.08868
6481.7,0.08859
6489.8,0.0885
6498.0,0.08845
6506.1,0.08838
6514.3,0.08829
6522.5,0.08819
6530.7,0.0881
6538.9,0.08798
6547.2,0.08785
6555.5,0.08772
6563.8,0.08761
6572.1,0.08747
6580.4,0.08737
6588.8,0.08728
6597.2,0.08715
6605.6,0.08705
6614.0,0.08695
6622.5,0.08682
6630.9,0.08668
6639.4,0.08653
6647.9,0.08645
6656.5,0.08639
6665.0,0.08631
6673.6,0.08619
6682.2,0.08606
6690.8,0.08594
6699.5,0.08585
6708.1,0.0857
6716.8,0.08557
6725.5,0.08546
6734.3,0.08533
6743.0,0.08519
6751.8,0.08506
6760.6,0.08493
6769.4,0.08477
6778.3,0.08459
6787.1,0.08441
6796.0,0.0842
6805.0,0.08407
6813.9,0.08399
6822.9,0.08387
6831.9,0.08377
6840.9,0.08372
6849.9,0.08363
6859.0,0.08349
6868.0,0.08334
6877.2,0.08327
6886.3,0.08316
6895.5,0.08306
6904.6,0.08293
6913.8,0.0828
6923.1,0.08265
6932.3,0.08248
6941.6,0.0823
6950.9,0.08211
6960.2,0.08189
6969.6,0.08169
6979.0,0.08149
6988.4,0.08128
6997.8,0.08107
7007.3,0.08084
7016.8,0.08058
7026.3,0.08033
7035.8,0.08008
7045.4,0.07983
7054.9,0.07959
7064.5,0.07942
7074.2,0.07923
7083.9,0.07903
7093.5,0.07883
7103.3,0.07864
7113.0,0.07845
7122.8,0.07823
7132.6,0.07803
7142.4,0.07788
7152.2,0.07767
7162.1,0.07744
7172.0,0.07723
7182.0,0.077
7191.9,0.07678
7201.9,0.0766
7211.9,0.07641
7222.0,0.07623
7232.0,0.07604
7242.1,0.07586
7252.3,0.07567
7262.4,0.0755
7272.6,0.07534
7282.8,0.07517
7293.1,0.07495
7303.3,0.07475
7313.6,0.07453
7324.0,0.0743
7334.3,0.07403
7344.7,0.07375
7355.1,0.07349
7365.6,0.07327
7376.1,0.07298
7386.6,0.07269
7397.1,0.07245
7407.7,0.07224
7418.3,0.07203
7428.9,0.07182
7439.6,0.07161
7450.3,0.07144
7461.0,0.07126
7471.7,0.07109
7482.5,0.0709
7493.3,0.07076
7504.2,0.07064
7515.0,0.07051
7525.9,0.07038
7536.9,0.07026
7547.9,0.07011
7558.9,0.06999
7569.9,0.06988
7581.0,0.0698
7592.0,0.06972
7603.2,0.06962
7614.4,0.06954
7625.5,0.06954
7636.8,0.06947
7648.0,0.06939
7659.3,0.0693
7670.7,0.06925
7682.0,0.06915
7693.4,0.06905
7704.9,0.06891
7716.3,0.0688
7727.8,0.06866
7739.4,0.06849
7750.9,0.0683
7762.5,0.0681
7774.2,0.06787
7785.8,0.06767
7797.5,0.06747
7809.3,0.06725
7821.1,0.06701
7832.9,0.06682
7844.7,0.06658
7856.6,0.06628
7868.5,0.06596
7880.5,0.06566
7892.5,0.06531
7904.5,0.06501
7916.6,0.06468
7928.7,0.06432
7940.8,0.06393
7953.0,0.06351
7965.2,0.06304
7977.5,0.06266
7989.8,0.06222
8002.1,0.06172
8014.5,0.06122
8026.9,0.06078
8039.3,0.06031
8051.8,0.0598
8064.3,0.05927
8076.9,0.05876
8089.5,0.05826
8102.1,0.05774
8114.8,0.0572
8127.5,0.05669
8140.3,0.05614
8153.1,0.05559
8165.9,0.05505
8178.8,0.05449
8191.7,0.05392
8204.7,0.05338
8217.7,0.05284
8230.7,0.05236
8243.8,0.05184
8257.0,0.05129
8270.1,0.05073
8283.3,0.05027
8296.6,0.04981
8309.9,0.04934
8323.2,0.04889
8336.6,0.04848
8350.0,0.04806
8363.5,0.0477
8377.0,0.04735
8390.5,0.04706
8404.2,0.04677
8417.8,0.0465
8431.5,0.04623
8445.2,0.04598
8459.0,0.04573
8472.8,0.04551
8486.7,0.04526
8500.6,0.04504
8514.5,0.04487
8528.5,0.04477
8542.6,0.04465
8556.7,0.04454
8570.8,0.04447
8585.0,0.04446
8599.3,0.04446
8613.5,0.04452
8627.9,0.04456
8642.3,0.04464
8656.7,0.04471
8671.2,0.04479
8685.7,0.0448
8700.3,0.04475
8714.9,0.04474
8729.6,0.04485
8744.3,0.04498
8759.0,0.04524
8773.9,0.04563
8788.7,0.04618
8803.7,0.04682
8818.6,0.04746
8833.7,0.04802
8848.7,0.04851
8863.8,0.04886
8879.0,0.04911
8894.3,0.04926
8909.5,0.04943
8924.9,0.04957
8940.3,0.04979
8955.7,0.05005
8971.2,0.0503
8986.8,0.05043
9002.3,0.05057
9018.0,0.05065
9033.7,0.05071
9049.5,0.05079
9065.3,0.05087
9081.2,0.05101
9097.1,0.05125
9113.1,0.05151
9129.1,0.05186
9145.2,0.05229
9161.4,0.05276
9177.6,0.05332
9193.9,0.054
9210.2,0.05477
9226.6,0.05556
9243.0,0.05636
9259.5,0.05724
9276.1,0.05816
9292.7,0.05913
9309.4,0.06016
9326.2,0.06121
9343.0,0.06223
9359.8,0.06327
9376.8,0.06418
9393.7,0.06489
9410.8,0.06549
9427.9,0.06603
9445.1,0.06648
9462.3,0.06686
9479.6,0.06718
9497.0,0.06747
9514.4,0.06771
9531.9,0.06789
9549.4,0.06793
9567.1,0.06788
9584.7,0.06777
9602.5,0.06767
9620.3,0.06757
9638.2,0.0674
9656.1,0.06714
9674.2,0.06684
9692.2,0.06657
9710.4,0.0663
9728.6,0.06603
9746.9,0.06578
9765.2,0.06555
9783.7,0.06534
9802.2,0.06516
9820.7,0.06511
9839.4,0.06502
9858.1,0.06496
9876.8,0.06496
9895.7,0.06502
9914.6,0.06511
9933.6,0.0652
9952.7,0.06527
9971.8,0.06529
9991.0,0.06528
10010.3,0.06534
10029.7,0.06539
10049.1,0.06548
10068.6,0.06569
10088.2,0.06608
10107.9,0.06662
10127.6,0.06716
10147.4,0.06758
10167.3,0.06785
10187.3,0.06787
10207.4,0.06769
10227.5,0.06732
10247.7,0.06699
10268.0,0.0668
10288.4,0.06671
10308.8,0.06678
10329.4,0.06707
10350.0,0.06746
10370.7,0.06787
10391.5,0.06832
10412.3,0.06891
10433.3,0.06973
10454.3,0.07123
10475.5,0.07377
10496.7,0.0769
10517.9,0.07976
10539.3,0.08183
10560.8,0.08315
10582.3,0.08393
10604.0,0.0843
10625.7,0.08439
10647.5,0.08434
10669.4,0.08413
10691.4,0.0838
10713.5,0.08343
10735.7,0.08304
10758.0,0.0826
10780.3,0.08208
10802.8,0.08153
10825.4,0.081
10848.0,0.08041
10870.8,0.07979
10893.6,0.07927
10916.5,0.07877
10939.5,0.07835
10962.7,0.07797
10985.9,0.07757
11009.2,0.07722
11032.7,0.07695
11056.2,0.07668
11079.8,0.07651
11103.5,0.07644
11127.3,0.07641
11151.3,0.07641
11175.3,0.07656
11199.5,0.07679
11223.7,0.077
11248.0,0.07721
11272.5,0.0773
11297.1,0.0773
11321.7,0.07732
11346.5,0.07708
11371.4,0.07659
11396.4,0.07606
11421.5,0.07523
11446.7,0.07388
11472.0,0.07212
11497.5,0.07004
11523.0,0.06797
11548.7,0.06606
11574.4,0.06442
11600.3,0.06304
11626.3,0.0619
11652.5,0.06089
11678.7,0.06003
11705.1,0.05922
11731.6,0.0584
11758.2,0.05759
11784.9,0.05675
11811.7,0.05582
11838.7,0.05514
11865.8,0.05498
11893.0,0.05556
11920.3,0.05667
11947.8,0.05795
11975.4,0.05916
12003.1,0.06015
12031.0,0.06094
12059.0,0.06161
12087.1,0.06233
12115.3,0.06306
12143.7,0.06359
12172.2,0.06402
12200.8,0.06446
12229.6,0.06489
12258.5,0.06533
12287.6,0.06582
12316.8,0.06618
12346.1,0.06642
12375.5,0.06675
12405.2,0.06705
12434.9,0.06715
12464.8,0.0672
12494.8,0.06728
12525.0,0.06745
12555.3,0.06758
12585.8,0.0677
12616.4,0.06784
12647.2,0.06795
12678.1,0.06806
12709.2,0.06813
12740.4,0.06826
12771.8,0.0684
12803.3,0.0684
12835.0,0.06834
12866.9,0.06834
12898.9,0.06829
12931.1,0.06813
12963.4,0.06781
12995.9,0.0674
13028.5,0.06701
13061.3,0.06662
13094.3,0.06619
13127.5,0.06561
13160.8,0.06496
13194.3,0.06427
13228.0,0.06348
13261.8,0.06264
13295.8,0.06181
13330.0,0.06102
13364.3,0.06022
13398.9,0.05928
13433.6,0.05825
13468.5,0.05722
13503.5,0.0562
13538.8,0.0552
13574.2,0.05425
13609.9,0.05352
13645.7,0.05304
13681.7,0.05248
13717.9,0.05196
13754.3,0.05145
13790.8,0.05097
13827.6,0.05074
13864.6,0.05065
13901.8,0.0505
13939.1,0.05031
13976.7,0.04998
14014.5,0.04964
14052.5,0.04921
14090.7,0.04872
14129.0,0.04817
14167.7,0.04751
14206.5,0.04691
14245.5,0.04625
14284.7,0.04554
14324.2,0.04489
14363.9,0.04416
14403.8,0.04344
14443.9,0.04268
14484.2,0.04188
14524.8,0.04126
14565.6,0.04069
14606.7,0.03996
14647.9,0.0394
14689.4,0.03897
14731.2,0.03871
14773.1,0.03839
14815.3,0.03808
14857.8,0.038
14900.5,0.03782
14943.4,0.03753
14986.6,0.03739
15030.0,0.03721
15073.7,0.03695
15117.7,0.03672
15161.9,0.03664
15206.3,0.03661
15251.1,0.03668
15296.1,0.03684
15341.3,0.03707
15386.8,0.03759
15432.6,0.03839
15478.7,0.03912
15525.0,0.04004
15571.7,0.04121
15618.6,0.04228
15665.8,0.04298
15713.2,0.04375
15761.0,0.0445
15809.0,0.04513
15857.4,0.04567
15906.0,0.04631
15955.0,0.0472
16004.2,0.0481
16053.8,0.04868
16103.6,0.04915
16153.8,0.04959
16204.3,0.04989
16255.1,0.05009
16306.2,0.05025
16357.6,0.05031
16409.4,0.05039
16461.5,0.05036
16513.9,0.05032
16566.7,0.05013
16619.8,0.05004
16673.2,0.0501
16727.0,0.05027
16781.1,0.05022
16835.6,0.05023
16890.5,0.0502
16945.7,0.05024
17001.2,0.05018
17057.2,0.05013
17113.4,0.0501
17170.1,0.05013
17227.2,0.05039
17284.6,0.05079
17342.4,0.05124
17400.6,0.05187
17459.2,0.05287
17518.2,0.05397
17577.5,0.05484
17637.3,0.05601
17697.5,0.05728
17758.1,0.05812
17819.2,0.059
17880.6,0.0601
17942.5,0.06087
18004.8,0.06148
18067.5,0.06245
18130.7,0.06376
18194.3,0.06516
18258.4,0.06634
18322.9,0.06706
18387.9,0.06782
18453.3,0.06852
18519.2,0.06922
18585.6,0.06983
18652.4,0.07069
18719.8,0.07179
18787.6,0.07326
18855.9,0.07496
18924.8,0.07686
18994.1,0.07844
19063.9,0.07925
19134.3,0.07924
19205.1,0.07886
19276.5,0.07814
19348.4,0.07751
19420.9,0.07706
19493.9,0.07649
19567.5,0.07569
19641.6,0.07488
19716.3,0.07431
19791.5,0.07402
19867.4,0.0739
19943.8,0.07368
20020.8,0.0724
20098.4,0.07069
20176.6,0.06874
20255.4,0.06656
20334.8,0.06422
20414.9,0.06188
20495.6,0.05969
20576.9,0.05771
20658.9,0.05639
20741.5,0.05556
20824.8,0.05524
20908.8,0.05545
20993.4,0.05577
21078.8,0.05637
21164.8,0.05672
21251.6,0.05723
21339.0,0.05782
21427.2,0.05819
21516.1,0.05795
21605.8,0.05758
21696.2,0.05673
21787.3,0.05624
21879.3,0.05609
21972.0,0.05598
22065.5,0.05619
22159.8,0.05789
22254.9,0.06013
22350.8,0.06225
22447.5,0.06471
22545.1,0.0683
22643.6,0.07091
22742.9,0.07261
22843.1,0.07425
22944.2,0.07643
23046.2,0.07839
23149.0,0.08033
23252.8,0.08256
23357.6,0.08547
23463.3,0.0883
23569.9,0.09072
23677.6,0.09283
23786.2,0.09455
23895.8,0.09596
24006.4,0.09681
24118.1,0.09674
24230.8,0.09834
24344.5,0.0986
24459.4,0.0965
24575.3,0.09445
24692.3,0.09354
24810.4,0.09269
24929.7,0.09185
25050.2,0.08998
