Database of Origin,University of Winnipeg Spectrophotometer Facility
Sample Description,"METALS AND ""IDES"" _ RELAB plus Nicolet"
Date Added,2018-07-23 22:17:46.204457

Data ID,RLA_MTL_2_3         
Sample ID,TRO201
Mineral Name,troilite
Grain Size,<45heat
Viewing Geometry,30/0/30
Resolution,5/1.2-129
Material Class,Sulphide

Wavelength
305.0,0.031158
310.0,0.032802
315.0,0.032848
320.0,0.033158
325.0,0.033693
330.0,0.033582
335.0,0.035442
340.0,0.034633
345.0,0.034742
350.0,0.034741
355.0,0.035216
360.0,0.034783
365.0,0.035239
370.0,0.035049
375.0,0.034885
380.0,0.034992
385.0,0.034606
390.0,0.034121
395.0,0.033593
400.0,0.033276
405.0,0.033236
410.0,0.032521
415.0,0.031844
420.0,0.031295
425.0,0.030985
430.0,0.030416
435.0,0.029898
440.0,0.029227
445.0,0.028628
450.0,0.028139
455.0,0.027531
460.0,0.026839
465.0,0.026295
470.0,0.025935
475.0,0.025373
480.0,0.025033
485.0,0.024661
490.0,0.024512
495.0,0.024168
500.0,0.023826
505.0,0.023565
510.0,0.02335
515.0,0.023053
520.0,0.022912
525.0,0.02288
530.0,0.022747
535.0,0.022583
540.0,0.022461
545.0,0.02247
550.0,0.022383
555.0,0.022255
560.0,0.02207
565.0,0.021991
570.0,0.021916
575.0,0.021868
580.0,0.021931
585.0,0.022031
590.0,0.022161
595.0,0.022339
600.0,0.022607
605.0,0.02287
610.0,0.023142
615.0,0.023474
620.0,0.023801
625.0,0.0242
630.0,0.024544
635.0,0.024916
640.0,0.02532
645.0,0.025613
650.0,0.026075
655.0,0.026366
660.0,0.0268
665.0,0.027145
670.0,0.027388
675.0,0.027772
680.0,0.028196
685.0,0.028583
690.0,0.028951
695.0,0.029482
700.0,0.029828
705.0,0.030148
710.0,0.030658
715.0,0.030896
720.0,0.031427
725.0,0.031718
730.0,0.032291
735.0,0.032645
740.0,0.03308
745.0,0.033622
750.0,0.03401
755.0,0.03433
760.0,0.034795
765.0,0.035219
770.0,0.03551
775.0,0.035896
780.0,0.036477
785.0,0.036915
790.0,0.037395
795.0,0.037579
800.0,0.037935
805.0,0.038447
810.0,0.039077
815.0,0.038725
820.0,0.03948
825.0,0.039981
830.0,0.040303
835.0,0.040347
840.0,0.040758
845.0,0.040687
850.0,0.041368
855.0,0.041265
860.0,0.041792
865.0,0.042196
870.0,0.042574
875.0,0.04284
880.0,0.042659
885.0,0.043333
890.0,0.043439
895.0,0.043704
900.0,0.044056
905.0,0.044282
910.0,0.044716
915.0,0.045048
920.0,0.044869
925.0,0.045686
930.0,0.046147
935.0,0.046282
940.0,0.046629
945.0,0.04685
950.0,0.047106
955.0,0.047103
960.0,0.047544
965.0,0.047882
970.0,0.047965
975.0,0.048341
980.0,0.048689
985.0,0.048867
990.0,0.049087
995.0,0.049344
1000.0,0.049715
1005.0,0.049864
1010.0,0.050073
1015.0,0.050452
1020.0,0.050612
1025.0,0.050864
1030.0,0.051114
1035.0,0.051263
1040.0,0.051615
1045.0,0.051827
1050.0,0.052138
1055.0,0.052365
1060.0,0.052541
1065.0,0.052784
1070.0,0.05301
1075.0,0.053164
1080.0,0.053554
1085.0,0.053642
1090.0,0.053972
1095.0,0.054097
1100.0,0.054395
1105.0,0.054695
1110.0,0.054852
1115.0,0.054987
1120.0,0.055276
1125.0,0.05555
1130.0,0.05583
1135.0,0.055933
1140.0,0.056162
1145.0,0.056426
1150.0,0.056749
1155.0,0.057048
1160.0,0.057318
1165.0,0.057319
1170.0,0.057775
1175.0,0.057914
1180.0,0.05811
1185.0,0.058408
1190.0,0.058558
1195.0,0.058677
1200.0,0.05887
1205.0,0.059264
1210.0,0.059433
1215.0,0.059627
1220.0,0.05988
1225.0,0.05995
1230.0,0.059991
1235.0,0.060291
1240.0,0.060643
1245.0,0.060774
1250.0,0.060808
1255.0,0.061056
1260.0,0.061343
1265.0,0.061549
1270.0,0.061844
1275.0,0.062048
1280.0,0.062409
1285.0,0.062674
1290.0,0.062866
1295.0,0.062997
1300.0,0.06312
1305.0,0.063386
1310.0,0.063518
1315.0,0.063715
1320.0,0.064108
1325.0,0.064312
1330.0,0.064448
1335.0,0.06441
1340.0,0.064705
1345.0,0.064887
1350.0,0.064708
1355.0,0.064812
1360.0,0.065027
1365.0,0.065231
1370.0,0.065569
1375.0,0.065753
1380.0,0.065854
1385.0,0.065999
1390.0,0.066472
1395.0,0.066131
1400.0,0.066371
1405.0,0.066499
1410.0,0.066749
1415.0,0.067065
1420.0,0.067133
1425.0,0.067311
1430.0,0.067536
1435.0,0.067936
1440.0,0.067864
1445.0,0.068031
1450.0,0.068002
1455.0,0.068283
1460.0,0.068369
1465.0,0.068579
1470.0,0.068612
1475.0,0.068847
1480.0,0.068889
1485.0,0.069248
1490.0,0.069359
1495.0,0.069383
1500.0,0.069449
1505.0,0.06979
1510.0,0.069949
1515.0,0.070126
1520.0,0.070069
1525.0,0.070443
1530.0,0.070661
1535.0,0.070669
1540.0,0.070783
1545.0,0.071044
1550.0,0.071185
1555.0,0.071358
1560.0,0.071653
1565.0,0.071567
1570.0,0.071866
1575.0,0.071876
1580.0,0.071937
1585.0,0.072182
1590.0,0.071984
1595.0,0.072344
1600.0,0.072599
1605.0,0.072681
1610.0,0.072653
1615.0,0.073001
1620.0,0.072972
1625.0,0.073095
1630.0,0.073273
1635.0,0.073348
1640.0,0.073493
1645.0,0.073687
1650.0,0.073792
1655.0,0.073942
1660.0,0.074016
1665.0,0.074266
1670.0,0.074327
1675.0,0.074523
1680.0,0.074654
1685.0,0.074921
1690.0,0.074944
1695.0,0.075027
1700.0,0.075365
1705.0,0.075279
1710.0,0.075319
1715.0,0.075264
1720.0,0.07543
1725.0,0.075493
1730.0,0.075603
1735.0,0.075592
1740.0,0.075691
1745.0,0.075882
1750.0,0.075889
1755.0,0.075944
1760.0,0.076064
1765.0,0.076269
1770.0,0.076296
1775.0,0.076513
1780.0,0.07665
1785.0,0.076749
1790.0,0.076798
1795.0,0.077004
1800.0,0.077146
1805.0,0.077248
1810.0,0.077604
1815.0,0.07759
1820.0,0.077596
1825.0,0.078361
1830.0,0.077972
1835.0,0.077706
1840.0,0.078153
1845.0,0.07878
1850.0,0.078569
1855.0,0.079225
1860.0,0.078819
1865.0,0.079267
1870.0,0.079426
1875.0,0.079503
1880.0,0.079471
1885.0,0.079254
1890.0,0.079548
1895.0,0.079749
1900.0,0.079656
1905.0,0.079826
1910.0,0.079938
1915.0,0.080127
1920.0,0.080206
1925.0,0.080759
1930.0,0.080516
1935.0,0.080481
1940.0,0.080776
1945.0,0.08083
1950.0,0.080658
1955.0,0.080691
1960.0,0.080851
1965.0,0.080824
1970.0,0.080764
1975.0,0.080933
1980.0,0.081081
1985.0,0.081183
1990.0,0.081307
1995.0,0.081495
2000.0,0.081283
2005.0,0.081523
2010.0,0.081493
2015.0,0.081438
2020.0,0.081663
2025.0,0.08165
2030.0,0.081687
2035.0,0.081961
2040.0,0.081877
2045.0,0.082109
2050.0,0.082013
2055.0,0.082054
2060.0,0.08208
2065.0,0.082277
2070.0,0.082506
2075.0,0.082384
2080.0,0.082682
2085.0,0.082551
2090.0,0.082588
2095.0,0.082755
2100.0,0.083083
2105.0,0.08309
2110.0,0.0831
2115.0,0.083213
2120.0,0.083297
2125.0,0.083306
2130.0,0.083295
2135.0,0.083327
2140.0,0.08338
2145.0,0.083447
2150.0,0.08351
2155.0,0.08357
2160.0,0.083663
2165.0,0.083786
2170.0,0.083865
2175.0,0.08384
2180.0,0.083938
2185.0,0.084156
2190.0,0.084214
2195.0,0.084269
2200.0,0.084416
2205.0,0.084621
2210.0,0.08452
2215.0,0.084693
2220.0,0.084864
2225.0,0.084911
2230.0,0.085045
2235.0,0.085187
2240.0,0.085237
2245.0,0.08536
2250.0,0.085502
2255.0,0.085618
2260.0,0.085707
2265.0,0.085541
2270.0,0.085523
2275.0,0.08588
2280.0,0.085699
2285.0,0.085936
2290.0,0.086011
2295.0,0.086144
2300.0,0.086495
2305.0,0.086547
2310.0,0.086674
2315.0,0.086492
2320.0,0.086521
2325.0,0.086709
2330.0,0.086505
2335.0,0.086647
2340.0,0.086616
2345.0,0.086591
2350.0,0.08654
2355.0,0.086511
2360.0,0.086625
2365.0,0.086767
2370.0,0.086863
2375.0,0.086941
2380.0,0.086944
2385.0,0.086875
2390.0,0.087224
2395.0,0.08724
2400.0,0.087397
2405.0,0.087429
2410.0,0.087608
2415.0,0.087265
2420.0,0.087695
2425.0,0.087926
2430.0,0.087792
2435.0,0.087828
2440.0,0.088112
2445.0,0.087903
2450.0,0.088034
2455.0,0.088216
2460.0,0.088202
2465.0,0.088274
2470.0,0.088069
2475.0,0.088424
2480.0,0.088301
2485.0,0.088331
2490.0,0.088574
2495.0,0.088485
2500.0,0.088736
2502.0,0.088305
2503.2,0.088383
2504.41,0.088621
2505.62,0.088554
2506.83,0.0887
2508.05,0.088713
2509.26,0.088502
2510.48,0.088506
2511.69,0.088705
2512.91,0.08861
2514.13,0.088422
2515.35,0.088371
2516.57,0.088647
2517.79,0.088911
2519.02,0.088871
2520.24,0.088813
2521.47,0.088872
2522.69,0.088671
2523.92,0.088446
2525.15,0.088407
2526.38,0.088533
2527.61,0.088735
2528.85,0.088839
2530.08,0.088846
2531.32,0.089155
2532.55,0.089079
2533.79,0.089032
2535.03,0.088969
2536.27,0.088795
2537.51,0.089143
2538.75,0.089152
2540.0,0.088866
2541.24,0.08899
2542.49,0.089001
2543.74,0.088928
2544.99,0.088781
2546.24,0.088793
2547.49,0.088949
2548.74,0.088782
2549.99,0.088741
2551.25,0.088999
2552.5,0.089043
2553.76,0.088921
2555.02,0.089072
2556.28,0.088983
2557.54,0.089207
2558.8,0.089385
2560.07,0.08902
2561.33,0.088708
2562.6,0.089202
2563.86,0.089602
2565.13,0.089256
2566.4,0.089333
2567.67,0.089566
2568.95,0.089432
2570.22,0.089286
2571.5,0.089732
2572.77,0.089414
2574.05,0.0891
2575.33,0.08955
2576.61,0.089436
2577.89,0.089431
2579.17,0.089888
2580.46,0.08948
2581.74,0.088957
2583.03,0.08917
2584.31,0.089004
2585.6,0.089466
2586.89,0.089299
2588.19,0.089077
2589.48,0.089562
2590.77,0.089872
2592.07,0.090035
2593.36,0.089794
2594.66,0.089317
2595.96,0.089983
2597.26,0.091029
2598.56,0.09044
2599.87,0.090063
2601.17,0.090013
2602.48,0.089975
2603.78,0.090037
2605.09,0.089731
2606.4,0.089747
2607.71,0.090404
2609.03,0.090229
2610.34,0.090037
2611.66,0.090216
2612.97,0.090092
2614.29,0.09024
2615.61,0.090422
2616.93,0.089999
2618.25,0.090717
2619.57,0.090996
2620.9,0.090298
2622.22,0.090795
2623.55,0.090671
2624.88,0.090581
2626.21,0.090371
2627.54,0.090285
2628.87,0.090877
2630.21,0.090202
2631.54,0.090562
2632.88,0.091087
2634.21,0.090651
2635.55,0.090697
2636.89,0.090793
2638.24,0.090515
2639.58,0.090487
2640.92,0.090525
2642.27,0.090559
2643.62,0.090722
2644.97,0.090712
2646.32,0.090503
2647.67,0.090809
2649.02,0.090882
2650.38,0.090908
2651.73,0.090738
2653.09,0.090828
2654.45,0.091146
2655.81,0.090837
2657.17,0.090725
2658.53,0.090679
2659.89,0.090445
2661.26,0.090735
2662.63,0.090875
2664.0,0.090654
2665.36,0.090313
2666.74,0.090814
2668.11,0.091459
2669.48,0.091257
2670.86,0.090445
2672.23,0.091548
2673.61,0.091415
2674.99,0.090676
2676.37,0.090391
2677.76,0.090672
2679.14,0.090964
2680.52,0.090878
2681.91,0.09077
2683.3,0.090486
2684.69,0.090848
2686.08,0.091197
2687.47,0.091059
2688.87,0.091101
2690.26,0.090945
2691.66,0.09099
2693.06,0.090701
2694.46,0.090457
2695.86,0.090981
2697.26,0.091081
2698.66,0.090887
2700.07,0.090777
2701.48,0.090523
2702.89,0.090963
2704.3,0.091221
2705.71,0.090884
2707.12,0.090789
2708.53,0.090477
2709.95,0.090391
2711.37,0.090618
2712.79,0.091353
2714.21,0.091448
2715.63,0.091163
2717.05,0.091027
2718.48,0.090758
2719.9,0.090415
2721.33,0.090476
2722.76,0.091504
2724.19,0.090875
2725.62,0.090885
2727.06,0.091529
2728.49,0.091257
2729.93,0.090891
2731.37,0.09086
2732.81,0.09072
2734.25,0.090541
2735.69,0.090503
2737.14,0.091053
2738.58,0.090746
2740.03,0.090292
2741.48,0.090922
2742.93,0.091541
2744.38,0.091669
2745.83,0.091344
2747.29,0.091141
2748.75,0.091165
2750.2,0.091236
2751.66,0.090979
2753.13,0.090954
2754.59,0.090768
2756.05,0.09053
2757.52,0.091523
2758.99,0.091435
2760.46,0.091081
2761.93,0.090868
2763.4,0.090856
2764.87,0.091494
2766.35,0.091486
2767.82,0.091136
2769.3,0.091429
2770.78,0.091198
2772.26,0.091302
2773.75,0.091483
2775.23,0.091193
2776.72,0.091086
2778.21,0.09118
2779.7,0.091148
2781.19,0.090894
2782.68,0.090848
2784.18,0.09107
2785.67,0.0911
2787.17,0.090914
2788.67,0.091126
2790.17,0.091452
2791.67,0.091305
2793.18,0.091013
2794.68,0.090847
2796.19,0.090989
2797.7,0.091025
2799.21,0.091131
2800.72,0.0912
2802.24,0.090983
2803.75,0.090903
2805.27,0.091106
2806.79,0.090973
2808.31,0.090894
2809.83,0.090885
2811.35,0.090844
2812.88,0.090841
2814.41,0.090754
2815.93,0.090604
2817.46,0.090712
2819.0,0.090737
2820.53,0.090621
2822.07,0.09054
2823.6,0.090629
2825.14,0.090484
2826.68,0.090236
2828.22,0.09009
2829.77,0.090146
2831.31,0.090153
2832.86,0.08999
2834.41,0.089769
2835.96,0.089836
2837.51,0.089823
2839.07,0.08991
2840.62,0.090027
2842.18,0.089935
2843.74,0.089837
2845.3,0.089779
2846.86,0.089968
2848.43,0.090075
2849.99,0.089914
2851.56,0.08983
2853.13,0.089701
2854.7,0.089631
2856.27,0.089625
2857.85,0.089568
2859.42,0.089556
2861.0,0.08968
2862.58,0.089682
2864.16,0.089581
2865.75,0.089623
2867.33,0.08969
2868.92,0.089778
2870.51,0.089696
2872.1,0.089506
2873.69,0.089669
2875.28,0.089954
2876.88,0.089839
2878.48,0.089676
2880.07,0.089716
2881.68,0.08986
2883.28,0.089809
2884.88,0.089602
2886.49,0.089754
2888.1,0.089945
2889.71,0.089908
2891.32,0.089929
2892.93,0.090009
2894.55,0.089962
2896.16,0.08999
2897.78,0.090175
2899.4,0.090364
2901.03,0.090205
2902.65,0.090208
2904.28,0.090335
2905.91,0.090225
2907.54,0.090028
2909.17,0.089992
2910.8,0.090045
2912.44,0.090202
2914.07,0.090123
2915.71,0.090224
2917.35,0.090396
2918.99,0.090342
2920.64,0.090402
2922.29,0.09034
2923.93,0.09033
2925.58,0.090304
2927.24,0.090271
2928.89,0.090398
2930.55,0.090532
2932.2,0.090372
2933.86,0.090084
2935.52,0.090236
2937.19,0.090629
2938.85,0.090677
2940.52,0.090561
2942.19,0.090478
2943.86,0.090497
2945.53,0.090683
2947.21,0.09087
2948.88,0.090826
2950.56,0.090716
2952.24,0.090867
2953.92,0.090867
2955.61,0.090797
2957.29,0.090649
2958.98,0.090775
2960.67,0.090972
2962.36,0.090813
2964.06,0.090788
2965.75,0.090723
2967.45,0.090716
2969.15,0.090926
2970.85,0.090982
2972.55,0.090987
2974.26,0.090949
2975.97,0.090865
2977.68,0.090934
2979.39,0.090938
2981.1,0.09096
2982.82,0.091049
2984.53,0.091
2986.25,0.091022
2987.97,0.091056
2989.7,0.091095
2991.42,0.09123
2993.15,0.091332
2994.88,0.091209
2996.61,0.091131
2998.34,0.091273
3000.08,0.091384
3001.82,0.091495
3003.55,0.091537
3005.3,0.091403
3007.04,0.091397
3008.78,0.091592
3010.53,0.091608
3012.28,0.091615
3014.03,0.091708
3015.79,0.091825
3017.54,0.091875
3019.3,0.091712
3021.06,0.09173
3022.82,0.091831
3024.58,0.091898
3026.35,0.092072
3028.12,0.09213
3029.89,0.092116
3031.66,0.092215
3033.43,0.092258
3035.21,0.09221
3036.99,0.09227
3038.77,0.092372
3040.55,0.092321
3042.33,0.092549
3044.12,0.092741
3045.91,0.092745
3047.7,0.092691
3049.49,0.092737
3051.29,0.092676
3053.08,0.092727
3054.88,0.092921
3056.68,0.092901
3058.49,0.092835
3060.29,0.092949
3062.1,0.09308
3063.91,0.093079
3065.72,0.093037
3067.54,0.093116
3069.35,0.093234
3071.17,0.093388
3072.99,0.093422
3074.81,0.09345
3076.64,0.093427
3078.47,0.093489
3080.29,0.093636
3082.13,0.093757
3083.96,0.093775
3085.79,0.093826
3087.63,0.093979
3089.47,0.094076
3091.31,0.093964
3093.16,0.093959
3095.01,0.09408
3096.85,0.094004
3098.71,0.093974
3100.56,0.094138
3102.41,0.094284
3104.27,0.09418
3106.13,0.094163
3107.99,0.09437
3109.86,0.094418
3111.73,0.094435
3113.59,0.094459
3115.47,0.09456
3117.34,0.094713
3119.21,0.094682
3121.09,0.094607
3122.97,0.094695
3124.86,0.094905
3126.74,0.095031
3128.63,0.094944
3130.52,0.094896
3132.41,0.094931
3134.3,0.094965
3136.2,0.095101
3138.1,0.095193
3140.0,0.09525
3141.9,0.095334
3143.81,0.095332
3145.71,0.095353
3147.62,0.095385
3149.54,0.095358
3151.45,0.09549
3153.37,0.09559
3155.29,0.095675
3157.21,0.095803
3159.13,0.095842
3161.06,0.095891
3162.99,0.095933
3164.92,0.095802
3166.85,0.095846
3168.79,0.096032
3170.72,0.096083
3172.67,0.096048
3174.61,0.096213
3176.55,0.0964
3178.5,0.096422
3180.45,0.096472
3182.4,0.096562
3184.36,0.096621
3186.32,0.096725
3188.27,0.09667
3190.24,0.096515
3192.2,0.096709
3194.17,0.096941
3196.14,0.0971
3198.11,0.097163
3200.08,0.097209
3202.06,0.097287
3204.04,0.097274
3206.02,0.097272
3208.0,0.097401
3209.99,0.09751
3211.98,0.097633
3213.97,0.097771
3215.96,0.097673
3217.96,0.09768
3219.96,0.097827
3221.96,0.097853
3223.96,0.09791
3225.97,0.098067
3227.98,0.098162
3229.99,0.098243
3232.0,0.098271
3234.02,0.098364
3236.04,0.098423
3238.06,0.098504
3240.08,0.098584
3242.11,0.098498
3244.14,0.098464
3246.17,0.098449
3248.2,0.098575
3250.24,0.098832
3252.28,0.098972
3254.32,0.098977
3256.37,0.098854
3258.41,0.098773
3260.46,0.098865
3262.51,0.09894
3264.57,0.098829
3266.63,0.098986
3268.69,0.099206
3270.75,0.099245
3272.81,0.099314
3274.88,0.099343
3276.95,0.09936
3279.02,0.099374
3281.1,0.099495
3283.18,0.099611
3285.26,0.099598
3287.34,0.099512
3289.43,0.099669
3291.51,0.09987
3293.61,0.099768
3295.7,0.099705
3297.8,0.099799
3299.9,0.100019
3302.0,0.100055
3304.1,0.09995
3306.21,0.100025
3308.32,0.100146
3310.43,0.100312
3312.55,0.100392
3314.66,0.100297
3316.79,0.100345
3318.91,0.100497
3321.03,0.100574
3323.16,0.1005
3325.29,0.100615
3327.43,0.100779
3329.57,0.10071
3331.71,0.100709
3333.85,0.100873
3335.99,0.101007
3338.14,0.101149
3340.29,0.101151
3342.45,0.101084
3344.6,0.101026
3346.76,0.10109
3348.92,0.101216
3351.09,0.10124
3353.26,0.101293
3355.43,0.101276
3357.6,0.101257
3359.78,0.101353
3361.96,0.101448
3364.14,0.101566
3366.32,0.101677
3368.51,0.101802
3370.7,0.10189
3372.89,0.101987
3375.09,0.102113
3377.29,0.10215
3379.49,0.102169
3381.69,0.102203
3383.9,0.102107
3386.11,0.102135
3388.32,0.102301
3390.54,0.102436
3392.76,0.102541
3394.98,0.102618
3397.21,0.102754
3399.43,0.102816
3401.66,0.10268
3403.9,0.102613
3406.13,0.102692
3408.37,0.10283
3410.61,0.102881
3412.86,0.102978
3415.11,0.103114
3417.36,0.103177
3419.61,0.103155
3421.87,0.103047
3424.13,0.103135
3426.39,0.103232
3428.66,0.103297
3430.93,0.103339
3433.2,0.103336
3435.48,0.103302
3437.76,0.103343
3440.04,0.103322
3442.32,0.103282
3444.61,0.10333
3446.9,0.103355
3449.19,0.103306
3451.49,0.103269
3453.79,0.103143
3456.09,0.103156
3458.4,0.103296
3460.7,0.103426
3463.02,0.103475
3465.33,0.103444
3467.65,0.103388
3469.97,0.103362
3472.29,0.103261
3474.62,0.103228
3476.95,0.103362
3479.29,0.103486
3481.62,0.103483
3483.96,0.103509
3486.3,0.103524
3488.65,0.10354
3491.0,0.103682
3493.35,0.103712
3495.71,0.103678
3498.07,0.103785
3500.43,0.103841
3502.79,0.103796
3505.16,0.103853
3507.53,0.104013
3509.91,0.104008
3512.29,0.103974
3514.67,0.104001
3517.05,0.103966
3519.44,0.103875
3521.83,0.103862
3524.23,0.103824
3526.62,0.103741
3529.02,0.103637
3531.43,0.103704
3533.83,0.103803
3536.24,0.103728
3538.66,0.103742
3541.08,0.103794
3543.5,0.103722
3545.92,0.103779
3548.35,0.10385
3550.78,0.103807
3553.21,0.103802
3555.65,0.103842
3558.09,0.103872
3560.53,0.10392
3562.98,0.103807
3565.43,0.103755
3567.88,0.103876
3570.34,0.103901
3572.8,0.1038
3575.27,0.103854
3577.73,0.103861
3580.2,0.103789
3582.68,0.103726
3585.16,0.103802
3587.64,0.103917
3590.12,0.103929
3592.61,0.103949
3595.1,0.103934
3597.6,0.103962
3600.09,0.103967
3602.6,0.103896
3605.1,0.103878
3607.61,0.103957
3610.12,0.10401
3612.64,0.103983
3615.16,0.103941
3617.68,0.103876
3620.21,0.103913
3622.74,0.103925
3625.27,0.103874
3627.81,0.103812
3630.35,0.103731
3632.89,0.103752
3635.44,0.103783
3637.99,0.103725
3640.54,0.103648
3643.1,0.1037
3645.66,0.103837
3648.23,0.103786
3650.8,0.103715
3653.37,0.10367
3655.95,0.103594
3658.53,0.103603
3661.11,0.103634
3663.7,0.103601
3666.29,0.103666
3668.89,0.103635
3671.48,0.103569
3674.09,0.103582
3676.69,0.103702
3679.3,0.103599
3681.91,0.103501
3684.53,0.10351
3687.15,0.103514
3689.78,0.103435
3692.4,0.103431
3695.04,0.103378
3697.67,0.103362
3700.31,0.103343
3702.95,0.10329
3705.6,0.103163
3708.25,0.103155
3710.91,0.103224
3713.56,0.103296
3716.23,0.10327
3718.89,0.103188
3721.56,0.103134
3724.23,0.103119
3726.91,0.103088
3729.59,0.102972
3732.28,0.102892
3734.97,0.102893
3737.66,0.102838
3740.36,0.102724
3743.06,0.102728
3745.76,0.102697
3748.47,0.102618
3751.18,0.102574
3753.9,0.102539
3756.62,0.10254
3759.34,0.102565
3762.07,0.102518
3764.8,0.102479
3767.54,0.102487
3770.28,0.102408
3773.02,0.102358
3775.77,0.102317
3778.52,0.102349
3781.28,0.10223
3784.04,0.102175
3786.8,0.102227
3789.57,0.102259
3792.34,0.102205
3795.12,0.102166
3797.9,0.102166
3800.69,0.102126
3803.47,0.102059
3806.27,0.101946
3809.06,0.101856
3811.86,0.101872
3814.67,0.10195
3817.48,0.101997
3820.29,0.101941
3823.11,0.101845
3825.93,0.101864
3828.76,0.101924
3831.59,0.101839
3834.42,0.10176
3837.26,0.101755
3840.1,0.101731
3842.95,0.101708
3845.8,0.101685
3848.65,0.101595
3851.51,0.10152
3854.38,0.101485
3857.24,0.10153
3860.12,0.101542
3862.99,0.10146
3865.87,0.101395
3868.76,0.101294
3871.65,0.101292
3874.54,0.101299
3877.44,0.101256
3880.34,0.101159
3883.25,0.101071
3886.16,0.101137
3889.07,0.101151
3891.99,0.101155
3894.92,0.101083
3897.85,0.10103
3900.78,0.101036
3903.72,0.100975
3906.66,0.100895
3909.6,0.100819
3912.55,0.100803
3915.51,0.100795
3918.47,0.100794
3921.43,0.100762
3924.4,0.100694
3927.38,0.100683
3930.35,0.100651
3933.33,0.100572
3936.32,0.10052
3939.31,0.100466
3942.31,0.10042
3945.31,0.100384
3948.31,0.100381
3951.32,0.100367
3954.34,0.100305
3957.35,0.100267
3960.38,0.100259
3963.41,0.100216
3966.44,0.100126
3969.48,0.100051
3972.52,0.100015
3975.56,0.09989
3978.61,0.099833
3981.67,0.09994
3984.73,0.09994
3987.8,0.099881
3990.87,0.099785
3993.99,0.099807
3997.02,0.099799
4000.1,0.099704
4003.19,0.099648
4006.29,0.099603
4009.39,0.099606
4012.49,0.099642
4015.6,0.099722
4018.71,0.099704
4021.83,0.099574
4024.95,0.099598
4028.08,0.099595
4031.21,0.099546
4034.35,0.099516
4037.49,0.099533
4040.64,0.09957
4043.79,0.099609
4046.94,0.099577
4050.11,0.099496
4053.27,0.099451
4056.44,0.099491
4059.62,0.099542
4062.8,0.099522
4065.99,0.099446
4069.18,0.099469
4072.38,0.099504
4075.58,0.099431
4078.78,0.099368
4082.0,0.099352
4085.21,0.099362
4088.43,0.099317
4091.66,0.099336
4094.89,0.099451
4098.13,0.099404
4101.37,0.099255
4104.62,0.099181
4107.87,0.099219
4111.13,0.099326
4114.39,0.099319
4117.66,0.099228
4120.93,0.099225
4124.21,0.099208
4127.5,0.099169
4130.79,0.099099
4134.08,0.09917
4137.38,0.099304
4140.68,0.09931
4143.99,0.099242
4147.31,0.099264
4150.63,0.099207
4153.95,0.099138
4157.29,0.099153
4160.62,0.099183
4163.96,0.099195
4167.31,0.099171
4170.66,0.099191
4174.02,0.099212
4177.39,0.099196
4180.75,0.099278
4184.13,0.09941
4187.51,0.099416
4190.89,0.099308
4194.28,0.099294
4197.68,0.099338
4201.08,0.099391
4204.49,0.099311
4207.9,0.099261
4211.32,0.099307
4214.74,0.09933
4218.17,0.099304
4221.61,0.099241
4225.05,0.099314
4228.5,0.099349
4231.95,0.099375
4235.4,0.099491
4238.87,0.099452
4242.34,0.099445
4245.81,0.099569
4249.29,0.099661
4252.78,0.099739
4256.27,0.099838
4259.77,0.099727
4263.27,0.099564
4266.78,0.099594
4270.29,0.09972
4273.81,0.099804
4277.34,0.099807
4280.87,0.099828
4284.41,0.099978
4287.95,0.10013
4291.5,0.100173
4295.06,0.10015
4298.62,0.100124
4302.19,0.100143
4305.76,0.100207
4309.34,0.100257
4312.92,0.100368
4316.52,0.100377
4320.11,0.100435
4323.72,0.100459
4327.32,0.10052
4330.94,0.100627
4334.56,0.100718
4338.19,0.100764
4341.82,0.100772
4345.46,0.100812
4349.11,0.100879
4352.76,0.100966
4356.42,0.101081
4360.08,0.101102
4363.75,0.101064
4367.43,0.101127
4371.11,0.101228
4374.8,0.101292
4378.49,0.101409
4382.19,0.101492
4385.9,0.101564
4389.61,0.101636
4393.33,0.101621
4397.06,0.101676
4400.79,0.101812
4404.53,0.101853
4408.28,0.101847
4412.03,0.101874
4415.79,0.101923
4419.55,0.101995
4423.32,0.102114
4427.1,0.102246
4430.88,0.102385
4434.68,0.102438
4438.47,0.10247
4442.28,0.102572
4446.08,0.102633
4449.9,0.102638
4453.72,0.102693
4457.55,0.102788
4461.39,0.102848
4465.23,0.102912
4469.08,0.102999
4472.94,0.103087
4476.8,0.103187
4480.67,0.103296
4484.55,0.103382
4488.43,0.10345
4492.32,0.103566
4496.21,0.10368
4500.12,0.103718
4504.03,0.103798
4507.94,0.103871
4511.87,0.10392
4515.8,0.104014
4519.73,0.104109
4523.68,0.104183
4527.63,0.104282
4531.59,0.104384
4535.55,0.104461
4539.52,0.104517
4543.5,0.104593
4547.49,0.104676
4551.48,0.104773
4555.48,0.104873
4559.49,0.104942
4563.5,0.10501
4567.52,0.105153
4571.55,0.105291
4575.58,0.105269
4579.63,0.105359
4583.67,0.105514
4587.73,0.105592
4591.79,0.10566
4595.86,0.105714
4599.94,0.105826
4604.03,0.105968
4608.12,0.106028
4612.22,0.106041
4616.33,0.106112
4620.44,0.106252
4624.56,0.106342
4628.69,0.106445
4632.83,0.106501
4636.97,0.10658
4641.12,0.106671
4645.28,0.106845
4649.45,0.106978
4653.62,0.107024
4657.8,0.10714
4661.99,0.107288
4666.19,0.107387
4670.39,0.107493
4674.6,0.107537
4678.82,0.10758
4683.05,0.107684
4687.28,0.107822
4691.52,0.107923
4695.77,0.107967
4700.03,0.108016
4704.3,0.108152
4708.57,0.108265
4712.85,0.108355
4717.14,0.108489
4721.43,0.108677
4725.74,0.10876
4730.05,0.10885
4734.37,0.108956
4738.7,0.109029
4743.03,0.109101
4747.38,0.109205
4751.73,0.109267
4756.09,0.109368
4760.45,0.109509
4764.83,0.10967
4769.21,0.109721
4773.6,0.109755
4778.0,0.109838
4782.41,0.109945
4786.83,0.110031
4791.25,0.110138
4795.68,0.110244
4800.13,0.110342
4804.57,0.110412
4809.03,0.110462
4813.5,0.110507
4817.97,0.110601
4822.45,0.110774
4826.94,0.110932
4831.44,0.110953
4835.95,0.111035
4840.46,0.111149
4844.99,0.111256
4849.52,0.111354
4854.06,0.111318
4858.61,0.111338
4863.17,0.111507
4867.73,0.111607
4872.31,0.111669
4876.89,0.111736
4881.48,0.111834
4886.08,0.111923
4890.69,0.112062
4895.31,0.112155
4899.94,0.112182
4904.57,0.11221
4909.22,0.112302
4913.87,0.112357
4918.53,0.112477
4923.21,0.112595
4927.88,0.112649
4932.57,0.112697
4937.27,0.112792
4941.98,0.112948
4946.69,0.11306
4951.42,0.11311
4956.15,0.113141
4960.9,0.113181
4965.65,0.113324
4970.41,0.11344
4975.18,0.113472
4979.96,0.11357
4984.75,0.113708
4989.54,0.113752
4994.35,0.113852
4999.17,0.113933
5003.99,0.113952
5008.83,0.114026
5013.67,0.114132
5018.52,0.114201
5023.39,0.114363
5028.26,0.114479
5033.14,0.114505
5038.03,0.114532
5042.93,0.114563
5047.84,0.114632
5052.76,0.114739
5057.69,0.114814
5062.63,0.114861
5067.58,0.114934
5072.54,0.115023
5077.51,0.115105
5082.49,0.115135
5087.47,0.11519
5092.47,0.115282
5097.48,0.1153
5102.5,0.115338
5107.52,0.115437
5112.56,0.115513
5117.61,0.115568
5122.66,0.115639
5127.73,0.115651
5132.81,0.115745
5137.89,0.115809
5142.99,0.115873
5148.1,0.115942
5153.22,0.116045
5158.34,0.116063
5163.48,0.116088
5168.63,0.116141
5173.79,0.116149
5178.96,0.11616
5184.13,0.116222
5189.32,0.11628
5194.52,0.116387
5199.73,0.116424
5204.96,0.116431
5210.19,0.116419
5215.43,0.116404
5220.68,0.116614
5225.94,0.116683
5231.22,0.11664
5236.5,0.11662
5241.79,0.116657
5247.1,0.11668
5252.42,0.116746
5257.74,0.116822
5263.08,0.116814
5268.43,0.116885
5273.79,0.116931
5279.16,0.116923
5284.54,0.116943
5289.93,0.116934
5295.34,0.116962
5300.75,0.117072
5306.18,0.117135
5311.61,0.117106
5317.06,0.117111
5322.52,0.117206
5327.99,0.117268
5333.47,0.117237
5338.96,0.117198
5344.47,0.117183
5349.98,0.117172
5355.51,0.117313
5361.05,0.117391
5366.6,0.117339
5372.16,0.117369
5377.73,0.117406
5383.32,0.117414
5388.91,0.117444
5394.52,0.117477
5400.14,0.1175
5405.77,0.117514
5411.41,0.117513
5417.07,0.117478
5422.74,0.117378
5428.41,0.117663
5434.1,0.117754
5439.81,0.117616
5445.52,0.11767
5451.25,0.117668
5456.98,0.117647
5462.73,0.117479
5468.5,0.117531
5474.27,0.11774
5480.06,0.117655
5485.86,0.117705
5491.67,0.117722
5497.49,0.117649
5503.33,0.117629
5509.18,0.117607
5515.04,0.11763
5520.91,0.11761
5526.8,0.117632
5532.69,0.117662
5538.61,0.117682
5544.53,0.117642
5550.47,0.117536
5556.41,0.117463
5562.38,0.117579
5568.35,0.11762
5574.34,0.117537
5580.34,0.117436
5586.35,0.117654
5592.38,0.117673
5598.42,0.1175
5604.47,0.117416
5610.54,0.117492
5616.61,0.117423
5622.71,0.117446
5628.81,0.117449
5634.93,0.117356
5641.06,0.117203
5647.21,0.117367
5653.36,0.117554
5659.54,0.117383
5665.72,0.117409
5671.92,0.117218
5678.13,0.117128
5684.36,0.117333
5690.6,0.117206
5696.85,0.11712
5703.12,0.11717
5709.4,0.116945
5715.69,0.117008
5722.0,0.117135
5728.33,0.117105
5734.66,0.117051
5741.01,0.117046
5747.38,0.116988
5753.76,0.117079
5760.15,0.117075
5766.56,0.116652
5772.98,0.117113
5779.41,0.117214
5785.86,0.116879
5792.33,0.116889
5798.81,0.11684
5805.3,0.116771
5811.81,0.116734
5818.33,0.1165
5824.87,0.116491
5831.42,0.116846
5837.99,0.116731
5844.57,0.116577
5851.17,0.116487
5857.78,0.116472
5864.41,0.116427
5871.05,0.1165
5877.7,0.116197
5884.38,0.116016
5891.06,0.116605
5897.76,0.116201
5904.48,0.116421
5911.21,0.116379
5917.96,0.115964
5924.73,0.115934
5931.5,0.115812
5938.3,0.115568
5945.11,0.116098
5951.93,0.116045
5958.78,0.115675
5965.63,0.115572
5972.51,0.115538
5979.39,0.115714
5986.3,0.11543
5993.22,0.115373
6000.16,0.115559
6007.11,0.115398
6014.08,0.11511
6021.06,0.115273
6028.06,0.115337
6035.08,0.115153
6042.12,0.114951
6049.17,0.114664
6056.23,0.115345
6063.32,0.11552
6070.42,0.114746
6077.53,0.114744
6084.67,0.115007
6091.82,0.114814
6098.98,0.114523
6106.17,0.114374
6113.37,0.114108
6120.58,0.114374
6127.82,0.114417
6135.07,0.114103
6142.34,0.113973
6149.63,0.113977
6156.93,0.113881
6164.25,0.113823
6171.59,0.113841
6178.95,0.113603
6186.32,0.113363
6193.71,0.113672
6201.12,0.113744
6208.54,0.113489
6215.99,0.1134
6223.45,0.113414
6230.93,0.113393
6238.43,0.113233
6245.95,0.113193
6253.48,0.113164
6261.03,0.113132
6268.6,0.113011
6276.19,0.112969
6283.8,0.112928
6291.43,0.112845
6299.07,0.112799
6306.73,0.112757
6314.42,0.112704
6322.12,0.112701
6329.84,0.112634
6337.57,0.112413
6345.33,0.11226
6353.11,0.112611
6360.9,0.112577
6368.72,0.1122
6376.55,0.112159
6384.4,0.112282
6392.27,0.112156
6400.17,0.112112
6408.08,0.111865
6416.01,0.111683
6423.96,0.1124
6431.93,0.112282
6439.92,0.111961
6447.93,0.112049
6455.96,0.11194
6464.01,0.111968
6472.08,0.1118
6480.17,0.111823
6488.28,0.11176
6496.41,0.111741
6504.56,0.112123
6512.73,0.112097
6520.92,0.111732
6529.14,0.111924
6537.37,0.111984
6545.63,0.111805
6553.9,0.111804
6562.2,0.111889
6570.51,0.111748
6578.85,0.111784
6587.21,0.111997
6595.59,0.111885
6603.99,0.111923
6612.42,0.11179
6620.86,0.111735
6629.33,0.111618
6637.82,0.111467
6646.33,0.11189
6654.86,0.111971
6663.41,0.111588
6671.99,0.111422
6680.59,0.111368
6689.21,0.111496
6697.85,0.111547
6706.51,0.111265
6715.2,0.111176
6723.91,0.111342
6732.64,0.111413
6741.4,0.111385
6750.18,0.111296
6758.98,0.111364
6767.8,0.111363
6776.65,0.11128
6785.52,0.111235
6794.41,0.111212
6803.33,0.111536
6812.27,0.111541
6821.23,0.111423
6830.22,0.111377
6839.23,0.111504
6848.26,0.11143
6857.32,0.111301
6866.4,0.111321
6875.51,0.111782
6884.64,0.111726
6893.8,0.111605
6902.98,0.1116
6912.18,0.111623
6921.41,0.111702
6930.66,0.111668
6939.94,0.111569
6949.24,0.11151
6958.57,0.111428
6967.92,0.111543
6977.3,0.11168
6986.7,0.111497
6996.13,0.111424
7005.59,0.11143
7015.07,0.11142
7024.57,0.111416
7034.1,0.111481
7043.66,0.111407
7053.25,0.111555
7062.85,0.111807
7072.49,0.11172
7082.15,0.111691
7091.84,0.111733
7101.55,0.111763
7111.3,0.111728
7121.06,0.111785
7130.86,0.111903
7140.68,0.111887
7150.53,0.111819
7160.41,0.111923
7170.31,0.111909
7180.24,0.11198
7190.2,0.112095
7200.19,0.112147
7210.2,0.11212
7220.24,0.112237
7230.31,0.112258
7240.41,0.112259
7250.54,0.112322
7260.69,0.112402
7270.88,0.112396
7281.09,0.112283
7291.33,0.11233
7301.6,0.112424
7311.9,0.112477
7322.22,0.112491
7332.58,0.11251
7342.97,0.112573
7353.38,0.112648
7363.83,0.112647
7374.3,0.112627
7384.81,0.112635
7395.34,0.112701
7405.91,0.112735
7416.5,0.112765
7427.13,0.112794
7437.78,0.112856
7448.47,0.112993
7459.19,0.113043
7469.94,0.113088
7480.71,0.113182
7491.52,0.11324
7502.37,0.11328
7513.24,0.113326
7524.14,0.113347
7535.08,0.113388
7546.05,0.113496
7557.05,0.113597
7568.08,0.113749
7579.15,0.113867
7590.24,0.113965
7601.37,0.114091
7612.53,0.114209
7623.73,0.114235
7634.96,0.114248
7646.22,0.114226
7657.51,0.114173
7668.84,0.114163
7680.2,0.114148
7691.59,0.114211
7703.02,0.114227
7714.49,0.114164
7725.98,0.114112
7737.52,0.114115
7749.08,0.114108
7760.68,0.114006
7772.32,0.114024
7783.99,0.114111
7795.69,0.11414
7807.43,0.114085
7819.21,0.1141
7831.02,0.114163
7842.87,0.114177
7854.75,0.114202
7866.67,0.114226
7878.62,0.11427
7890.62,0.114391
7902.64,0.114504
7914.71,0.114533
7926.81,0.114482
7938.95,0.114394
7951.13,0.114247
7963.34,0.114109
7975.59,0.114123
7987.88,0.114173
8000.21,0.114157
8012.57,0.114146
8024.98,0.114116
8037.42,0.114073
8049.9,0.114061
8062.42,0.114126
8074.98,0.114158
8087.57,0.114261
8100.21,0.114368
8112.89,0.114432
8125.6,0.114474
8138.36,0.114535
8151.16,0.114563
8163.99,0.114588
8176.87,0.114583
8189.79,0.11462
8202.75,0.114517
8215.75,0.114385
8228.79,0.114313
8241.87,0.114302
8254.99,0.114275
8268.16,0.114224
8281.37,0.114205
8294.62,0.114194
8307.91,0.114145
8321.24,0.114145
8334.62,0.114205
8348.04,0.114227
8361.51,0.114199
8375.02,0.114101
8388.57,0.114108
8402.16,0.114142
8415.8,0.114018
8429.49,0.113922
8443.22,0.113876
8456.99,0.11387
8470.81,0.113822
8484.67,0.113758
8498.58,0.113715
8512.54,0.113691
8526.54,0.113621
8540.58,0.113536
8554.68,0.113456
8568.82,0.113459
8583.0,0.11349
8597.24,0.113478
8611.52,0.113399
8625.85,0.113383
8640.23,0.113359
8654.65,0.113297
8669.12,0.11327
8683.64,0.113304
8698.21,0.113305
8712.83,0.113348
8727.5,0.113456
8742.22,0.113521
8756.99,0.113586
8771.8,0.11366
8786.67,0.113697
8801.59,0.113682
8816.56,0.113671
8831.58,0.113706
8846.65,0.113701
8861.77,0.113647
8876.94,0.113546
8892.17,0.113475
8907.45,0.113497
8922.78,0.113543
8938.16,0.113602
8953.6,0.113721
8969.09,0.113793
8984.64,0.113856
9000.23,0.113966
9015.89,0.114036
9031.59,0.114116
9047.36,0.114276
9063.17,0.11448
9079.05,0.114559
9094.97,0.114659
9110.96,0.114851
9127.0,0.114927
9143.1,0.115007
9159.25,0.115093
9175.46,0.115146
9191.73,0.115232
9208.06,0.115278
9224.44,0.115282
9240.88,0.115362
9257.38,0.115386
9273.94,0.115546
9290.56,0.115706
9307.24,0.11578
9323.98,0.115862
9340.78,0.115878
9357.64,0.115891
9374.57,0.115978
9391.55,0.116165
9408.59,0.116258
9425.7,0.116241
9442.87,0.116367
9460.1,0.116467
9477.4,0.116459
9494.75,0.116529
9512.17,0.116638
9529.66,0.116737
9547.21,0.116935
9564.83,0.117114
9582.5,0.117129
9600.25,0.117161
9618.06,0.117196
9635.94,0.117233
9653.88,0.11728
9671.89,0.117329
9689.97,0.117245
9708.12,0.117186
9726.33,0.117153
9744.62,0.117058
9762.97,0.117051
9781.39,0.11706
9799.88,0.116979
9818.44,0.116969
9837.07,0.116966
9855.77,0.116923
9874.54,0.116898
9893.39,0.116853
9912.3,0.116814
9931.29,0.116827
9950.36,0.116898
9969.49,0.116995
9988.7,0.117046
10007.98,0.117016
10027.34,0.117031
10046.77,0.117096
10066.28,0.117117
10085.87,0.117179
10105.53,0.11723
10125.26,0.117293
10145.08,0.117418
10164.97,0.117476
10184.94,0.117521
10204.99,0.117601
10225.12,0.117601
10245.33,0.117681
10265.61,0.117751
10285.98,0.117806
10306.43,0.11784
10326.96,0.117983
10347.57,0.118161
10368.27,0.118196
10389.05,0.1182
10409.91,0.118273
10430.86,0.118329
10451.88,0.118381
10473.0,0.11847
10494.2,0.118543
10515.49,0.118516
10536.86,0.118615
10558.32,0.118684
10579.87,0.118613
10601.5,0.118666
10623.23,0.11877
10645.04,0.118829
10666.94,0.118846
10688.94,0.118918
10711.02,0.119003
10733.2,0.11898
10755.47,0.118904
10777.83,0.118837
10800.28,0.118855
10822.83,0.118815
10845.47,0.118683
10868.21,0.11851
10891.04,0.118448
10913.97,0.118441
10936.99,0.118522
10960.12,0.118601
10983.34,0.118727
11006.66,0.11876
11030.07,0.118793
11053.59,0.118842
11077.21,0.118721
11100.93,0.118612
11124.75,0.118618
11148.68,0.118697
11172.71,0.118785
11196.84,0.118749
11221.07,0.118676
11245.41,0.118575
11269.86,0.118569
11294.41,0.118479
11319.07,0.118394
11343.84,0.118453
11368.72,0.118451
11393.7,0.118327
11418.8,0.1183
11444.01,0.118354
11469.33,0.118311
11494.76,0.118195
11520.3,0.118084
11545.96,0.118022
11571.73,0.118068
11597.62,0.118059
11623.62,0.118007
11649.74,0.117997
11675.98,0.118013
11702.34,0.118014
11728.81,0.118021
11755.41,0.118062
11782.13,0.118071
11808.96,0.118075
11835.92,0.118222
11863.01,0.118462
11890.22,0.118628
11917.55,0.118631
11945.01,0.118591
11972.6,0.118578
12000.31,0.118593
12028.16,0.118471
12056.13,0.118412
12084.23,0.118383
12112.46,0.118406
12140.83,0.118437
12169.33,0.118316
12197.96,0.118258
12226.73,0.118234
12255.64,0.118127
12284.68,0.11816
12313.86,0.118157
12343.18,0.118021
12372.64,0.117926
12402.24,0.117937
12431.98,0.117894
12461.86,0.117792
12491.89,0.117737
12522.07,0.117798
12552.38,0.117942
12582.85,0.11792
12613.47,0.117795
12644.23,0.117928
12675.15,0.118158
12706.21,0.118213
12737.43,0.118114
12768.81,0.11799
12800.33,0.11789
12832.02,0.117922
12863.86,0.117982
12895.86,0.118051
12928.02,0.117975
12960.34,0.117802
12992.82,0.117815
13025.46,0.117776
13058.27,0.117643
13091.25,0.117677
13124.39,0.117733
13157.7,0.117687
13191.18,0.117521
13224.83,0.117418
13258.66,0.117318
13292.65,0.11721
13326.83,0.117105
13361.17,0.116964
13395.7,0.116703
13430.4,0.116352
13465.29,0.116144
13500.35,0.116023
13535.6,0.115838
13571.03,0.115586
13606.65,0.115322
13642.46,0.115227
13678.46,0.115155
13714.64,0.115009
13751.02,0.114849
13787.59,0.11473
13824.36,0.114722
13861.32,0.114516
13898.49,0.114351
13935.85,0.114337
13973.41,0.114213
14011.17,0.114007
14049.15,0.11379
14087.32,0.113766
14125.71,0.113674
14164.3,0.113594
14203.11,0.113448
14242.13,0.113178
14281.36,0.112999
14320.81,0.113079
14360.49,0.113169
14400.38,0.113171
14440.49,0.11326
14480.82,0.113374
14521.39,0.113367
14562.18,0.113481
14603.2,0.113847
14644.45,0.114202
14685.93,0.114495
14727.66,0.114765
14769.62,0.115115
14811.81,0.115227
14854.25,0.115151
14896.94,0.115201
14939.87,0.115332
14983.05,0.11556
15026.48,0.115665
15070.16,0.115638
15114.1,0.115802
15158.29,0.115939
15202.74,0.115922
15247.46,0.116039
15292.43,0.116136
15337.68,0.116277
15383.19,0.116294
15428.97,0.116483
15475.03,0.116762
15521.36,0.116972
15567.97,0.117142
15614.87,0.117293
15662.04,0.117394
15709.5,0.117463
15757.25,0.117628
15805.29,0.117824
15853.62,0.11805
15902.26,0.118163
15951.19,0.11831
16000.42,0.11851
16049.95,0.118809
16099.8,0.119183
16149.95,0.119484
16200.42,0.119972
16251.21,0.120368
16302.31,0.120633
16353.74,0.120894
16405.49,0.121104
16457.57,0.121184
16509.98,0.121185
16562.73,0.121337
16615.82,0.121389
16669.24,0.121364
16723.02,0.12164
16777.14,0.121901
16831.61,0.122117
16886.43,0.122346
16941.62,0.122704
16997.16,0.123038
17053.08,0.123505
17109.36,0.124023
17166.01,0.124588
17223.04,0.125159
17280.45,0.125554
17338.24,0.125826
17396.43,0.126231
17455.0,0.126485
17513.97,0.126921
17573.34,0.12728
17633.11,0.127707
17693.29,0.127772
17753.89,0.127893
17814.9,0.128159
17876.33,0.128333
17938.18,0.12858
18000.47,0.128976
18063.19,0.129183
18126.35,0.129273
18189.95,0.129574
18254.0,0.129703
18318.5,0.129959
18383.46,0.130367
18448.88,0.130532
18514.77,0.130798
18581.13,0.1308
18647.97,0.130748
18715.29,0.130971
18783.1,0.131173
18851.4,0.131382
18920.2,0.131635
18989.51,0.131772
19059.32,0.131941
19129.65,0.131884
19200.5,0.131831
19271.88,0.131778
19343.79,0.13171
19416.24,0.131735
19489.23,0.131921
19562.77,0.131899
19636.88,0.13214
19711.54,0.132666
19786.78,0.133124
19862.59,0.133965
19938.98,0.13454
20015.96,0.134725
20093.55,0.135041
20171.73,0.135462
20250.53,0.135649
20329.94,0.135745
20409.98,0.136294
20490.65,0.136288
20571.96,0.135997
20653.92,0.136257
20736.54,0.136707
20819.82,0.137116
20903.77,0.137755
20988.4,0.13834
21073.72,0.138493
21159.73,0.138386
21246.46,0.138877
21333.89,0.139036
21422.04,0.139429
21510.93,0.140711
21600.56,0.1412
21690.94,0.141101
21782.08,0.14151
21873.99,0.141766
21966.67,0.142179
22060.15,0.142471
22154.42,0.142849
22249.51,0.142771
22345.41,0.142805
22442.14,0.142935
22539.72,0.143316
22638.14,0.143202
22737.43,0.142911
22837.6,0.143333
22938.65,0.143923
23040.6,0.143452
23143.46,0.143332
23247.24,0.143834
23351.96,0.143938
23457.63,0.144288
23564.25,0.144421
23671.85,0.144867
23780.44,0.145586
23890.02,0.145213
24000.63,0.145593
24112.26,0.147015
24224.93,0.147359
24338.66,0.147822
24453.47,0.148205
24569.36,0.148606
24686.36,0.149587
24804.47,0.14893
24923.73,0.147438
25044.13,0.148794
25165.71,0.149634
25288.46,0.15014
25412.43,0.151665
25537.61,0.151741
25664.04,0.151754
25791.72,0.15203
25920.68,0.15229
