Database of Origin,University of Winnipeg Spectrophotometer Facility
Sample Description,Carbonaceous chondrites - RELAB archive 7. Ungrouped chondrites and ATCCs
Other Information,c1mp21
Date Added,2018-07-23 23:45:03.786301

Data ID,RLA_MET_38_22       
Sample ID,EET87522/29
Mineral Name,Carbonaceous Chondrite
Grain Size,<125 um
Viewing Geometry,30/0
Material Class,CM2

Wavelength
305.0,0.017725
310.0,0.018036
315.0,0.019022
320.0,0.018373
325.0,0.018253
330.0,0.018278
335.0,0.018448
340.0,0.018903
345.0,0.019159
350.0,0.019247
355.0,0.019468
360.0,0.020011
365.0,0.020202
370.0,0.020577
375.0,0.020841
380.0,0.021515
385.0,0.021893
390.0,0.022332
395.0,0.022233
400.0,0.022812
405.0,0.022868
410.0,0.023583
415.0,0.024113
420.0,0.024274
425.0,0.024616
430.0,0.02495
435.0,0.025168
440.0,0.0255
445.0,0.025574
450.0,0.025951
455.0,0.026212
460.0,0.026225
465.0,0.026492
470.0,0.026657
475.0,0.026811
480.0,0.027292
485.0,0.027507
490.0,0.027699
495.0,0.027928
500.0,0.028244
505.0,0.028226
510.0,0.028848
515.0,0.029036
520.0,0.029357
525.0,0.029527
530.0,0.029828
535.0,0.030063
540.0,0.030276
545.0,0.030336
550.0,0.030521
555.0,0.030941
560.0,0.031281
565.0,0.031432
570.0,0.031639
575.0,0.031929
580.0,0.03177
585.0,0.03189
590.0,0.032014
595.0,0.032183
600.0,0.032311
605.0,0.03246
610.0,0.032768
615.0,0.032944
620.0,0.033029
625.0,0.033159
630.0,0.033374
635.0,0.033472
640.0,0.03357
645.0,0.03364
650.0,0.033629
655.0,0.033631
660.0,0.033772
665.0,0.033759
670.0,0.033755
675.0,0.033726
680.0,0.03386
685.0,0.0341
690.0,0.033897
695.0,0.0339
700.0,0.034012
705.0,0.033815
710.0,0.033942
715.0,0.033984
720.0,0.034163
725.0,0.03402
730.0,0.034185
735.0,0.03413
740.0,0.034302
745.0,0.034272
750.0,0.034329
755.0,0.034207
760.0,0.03426
765.0,0.034199
770.0,0.034284
775.0,0.03433
780.0,0.034414
785.0,0.034246
790.0,0.034421
795.0,0.034492
800.0,0.034604
805.0,0.034504
810.0,0.03477
815.0,0.034735
820.0,0.03486
825.0,0.034751
830.0,0.03476
835.0,0.034926
840.0,0.034912
845.0,0.034937
850.0,0.035078
855.0,0.035097
860.0,0.035228
865.0,0.035361
870.0,0.03501
875.0,0.034975
880.0,0.035094
885.0,0.035214
890.0,0.035255
895.0,0.035377
900.0,0.035458
905.0,0.035472
910.0,0.035371
915.0,0.035396
920.0,0.035402
925.0,0.035476
930.0,0.035465
935.0,0.035574
940.0,0.035567
945.0,0.035638
950.0,0.03584
955.0,0.035872
960.0,0.035692
965.0,0.035895
970.0,0.035906
975.0,0.035781
980.0,0.035776
985.0,0.035786
990.0,0.035798
995.0,0.035822
1000.0,0.035994
1005.0,0.036239
1010.0,0.036191
1015.0,0.036382
1020.0,0.036216
1025.0,0.036202
1030.0,0.036342
1035.0,0.0363
1040.0,0.03637
1045.0,0.036485
1050.0,0.036499
1055.0,0.03649
1060.0,0.036302
1065.0,0.036454
1070.0,0.036429
1075.0,0.03641
1080.0,0.036367
1085.0,0.036435
1090.0,0.036412
1095.0,0.036581
1100.0,0.03653
1105.0,0.036648
1110.0,0.036625
1115.0,0.036764
1120.0,0.036736
1125.0,0.036697
1130.0,0.036703
1135.0,0.036738
1140.0,0.036788
1145.0,0.03684
1150.0,0.036888
1155.0,0.036888
1160.0,0.036946
1165.0,0.03694
1170.0,0.037049
1175.0,0.037039
1180.0,0.037167
1185.0,0.037124
1190.0,0.037291
1195.0,0.037209
1200.0,0.037309
1205.0,0.037395
1210.0,0.037517
1215.0,0.037412
1220.0,0.037376
1225.0,0.037327
1230.0,0.037421
1235.0,0.037431
1240.0,0.037366
1245.0,0.037538
1250.0,0.037594
1255.0,0.037613
1260.0,0.037566
1265.0,0.037575
1270.0,0.037514
1275.0,0.037588
1280.0,0.037649
1285.0,0.037683
1290.0,0.037742
1295.0,0.03775
1300.0,0.037744
1305.0,0.037794
1310.0,0.03779
1315.0,0.037793
1320.0,0.037809
1325.0,0.037824
1330.0,0.037868
1335.0,0.037912
1340.0,0.038022
1345.0,0.038047
1350.0,0.038089
1355.0,0.03805
1360.0,0.038269
1365.0,0.038158
1370.0,0.038286
1375.0,0.038242
1380.0,0.038382
1385.0,0.038385
1390.0,0.038388
1395.0,0.038529
1400.0,0.038666
1405.0,0.038621
1410.0,0.038589
1415.0,0.038682
1420.0,0.038719
1425.0,0.038647
1430.0,0.038804
1435.0,0.038824
1440.0,0.038918
1445.0,0.038969
1450.0,0.038991
1455.0,0.039132
1460.0,0.039122
1465.0,0.039095
1470.0,0.039115
1475.0,0.039126
1480.0,0.039191
1485.0,0.039273
1490.0,0.039337
1495.0,0.039404
1500.0,0.03946
1505.0,0.039523
1510.0,0.039555
1515.0,0.039627
1520.0,0.039624
1525.0,0.039663
1530.0,0.039677
1535.0,0.039741
1540.0,0.039862
1545.0,0.039829
1550.0,0.039898
1555.0,0.039911
1560.0,0.040048
1565.0,0.040034
1570.0,0.040105
1575.0,0.0402
1580.0,0.040195
1585.0,0.040245
1590.0,0.040325
1595.0,0.040291
1600.0,0.040354
1605.0,0.040443
1610.0,0.040592
1615.0,0.040545
1620.0,0.040657
1625.0,0.040618
1630.0,0.040697
1635.0,0.040738
1640.0,0.040811
1645.0,0.040832
1650.0,0.040889
1655.0,0.04096
1660.0,0.04103
1665.0,0.041042
1670.0,0.04102
1675.0,0.041132
1680.0,0.04117
1685.0,0.041186
1690.0,0.041278
1695.0,0.041335
1700.0,0.04132
1705.0,0.041381
1710.0,0.041434
1715.0,0.041479
1720.0,0.041484
1725.0,0.041494
1730.0,0.041568
1735.0,0.041592
1740.0,0.041702
1745.0,0.04172
1750.0,0.041651
1755.0,0.041833
1760.0,0.041905
1765.0,0.041896
1770.0,0.041843
1775.0,0.041942
1780.0,0.041869
1785.0,0.041956
1790.0,0.041944
1795.0,0.042047
1800.0,0.042082
1805.0,0.042182
1810.0,0.042209
1815.0,0.042118
1820.0,0.042241
1825.0,0.042234
1830.0,0.042238
1835.0,0.042343
1840.0,0.042355
1845.0,0.042529
1850.0,0.042458
1855.0,0.042455
1860.0,0.042444
1865.0,0.042704
1870.0,0.042744
1875.0,0.042529
1880.0,0.042603
1885.0,0.042649
1890.0,0.042739
1895.0,0.042755
1900.0,0.042774
1905.0,0.043045
1910.0,0.042808
1915.0,0.042784
1920.0,0.042795
1925.0,0.042626
1930.0,0.042843
1935.0,0.042761
1940.0,0.042842
1945.0,0.042781
1950.0,0.042857
1955.0,0.043015
1960.0,0.043016
1965.0,0.04314
1970.0,0.043185
1975.0,0.043226
1980.0,0.04336
1985.0,0.043314
1990.0,0.04341
1995.0,0.043456
2000.0,0.043563
2005.0,0.043874
2010.0,0.043913
2015.0,0.044009
2020.0,0.044083
2025.0,0.044144
2030.0,0.044137
2035.0,0.044131
2040.0,0.044281
2045.0,0.044341
2050.0,0.044441
2055.0,0.044687
2060.0,0.044433
2065.0,0.044534
2070.0,0.044557
2075.0,0.044738
2080.0,0.044822
2085.0,0.044844
2090.0,0.044974
2095.0,0.045004
2100.0,0.045094
2105.0,0.045069
2110.0,0.045037
2115.0,0.045157
2120.0,0.045173
2125.0,0.0452
2130.0,0.045256
2135.0,0.045283
2140.0,0.045334
2145.0,0.045304
2150.0,0.045518
2155.0,0.045454
2160.0,0.045384
2165.0,0.045422
2170.0,0.045503
2175.0,0.045607
2180.0,0.045698
2185.0,0.045748
2190.0,0.045759
2195.0,0.045849
2200.0,0.045907
2205.0,0.046077
2210.0,0.046158
2215.0,0.046286
2220.0,0.046445
2225.0,0.046436
2230.0,0.046346
2235.0,0.046517
2240.0,0.046559
2245.0,0.046563
2250.0,0.046793
2255.0,0.046721
2260.0,0.046917
2265.0,0.04698
2270.0,0.047078
2275.0,0.047156
2280.0,0.047162
2285.0,0.047162
2290.0,0.047167
2295.0,0.04721
2300.0,0.047204
2305.0,0.04726
2310.0,0.047396
2315.0,0.047467
2320.0,0.047425
2325.0,0.047532
2330.0,0.04753
2335.0,0.047677
2340.0,0.047616
2345.0,0.04741
2350.0,0.047392
2355.0,0.047257
2360.0,0.047169
2365.0,0.047253
2370.0,0.047334
2375.0,0.047277
2380.0,0.047423
2385.0,0.047635
2390.0,0.047502
2395.0,0.047462
2400.0,0.047588
2405.0,0.047585
2410.0,0.047582
2415.0,0.047596
2420.0,0.047705
2425.0,0.047556
2430.0,0.047662
2435.0,0.047666
2440.0,0.047566
2445.0,0.047544
2450.0,0.047586
2455.0,0.047537
2460.0,0.047778
2465.0,0.047808
2470.0,0.047854
2475.0,0.047466
2480.0,0.047484
2485.0,0.04767
2490.0,0.047563
2495.0,0.047654
2500.0,0.04753
2505.0,0.047538
2510.0,0.047587
2515.0,0.047745
2520.0,0.047805
2525.0,0.047876
2530.0,0.048119
2535.0,0.047789
2540.0,0.048041
2545.0,0.048441
2550.0,0.048327
2555.0,0.048241
2560.0,0.048289
2565.0,0.048248
2570.0,0.048234
2575.0,0.048056
2580.0,0.048324
2585.0,0.048403
2590.0,0.048078
2595.0,0.048555
2600.0,0.047828
