Database of Origin,University of Winnipeg Spectrophotometer Facility
Sample Description,Merged RELAB + Nicolet data for hydroxides. See Master Hydroxides on HOSERLab website for additional info.
Date Added,2016-11-29 18:11:56.293832

Data ID,RLA_HYD_07          
Sample ID,OOH004
Mineral Name,Gibbsite
Grain Size,<45
Viewing Geometry,"30/0,30"
Resolution,5/0.6-129
Material Class,Hydroxide

Wavelength
320.0,0.566692
325.0,0.570715
330.0,0.575905
335.0,0.582752
340.0,0.587875
345.0,0.590361
350.0,0.594202
355.0,0.596561
360.0,0.600287
365.0,0.602772
370.0,0.606434
375.0,0.609675
380.0,0.614781
385.0,0.617665
390.0,0.621863
395.0,0.625564
400.0,0.627336
405.0,0.632245
410.0,0.642435
415.0,0.646446
420.0,0.650036
425.0,0.656459
430.0,0.663989
435.0,0.670092
440.0,0.675659
445.0,0.681876
450.0,0.683136
455.0,0.68802
460.0,0.690943
465.0,0.694224
470.0,0.69807
475.0,0.701779
480.0,0.702053
485.0,0.706807
490.0,0.709867
495.0,0.714323
500.0,0.717957
505.0,0.721731
510.0,0.725313
515.0,0.730049
520.0,0.733249
525.0,0.73781
530.0,0.743254
535.0,0.747468
540.0,0.751495
545.0,0.756536
550.0,0.759576
555.0,0.766056
560.0,0.768226
565.0,0.773486
570.0,0.776645
575.0,0.781453
580.0,0.782946
585.0,0.786128
590.0,0.786545
595.0,0.789886
600.0,0.791706
605.0,0.792533
610.0,0.794113
615.0,0.79438
620.0,0.795427
625.0,0.793913
630.0,0.797047
635.0,0.797173
640.0,0.798701
645.0,0.799798
650.0,0.802275
655.0,0.802596
660.0,0.80529
665.0,0.805383
670.0,0.807203
675.0,0.809156
680.0,0.812091
685.0,0.81186
690.0,0.812327
695.0,0.814142
700.0,0.815076
705.0,0.815028
710.0,0.816338
715.0,0.816832
720.0,0.817332
725.0,0.817556
730.0,0.819848
735.0,0.817602
740.0,0.819691
745.0,0.820422
750.0,0.818614
755.0,0.822082
760.0,0.820607
765.0,0.819808
770.0,0.818833
775.0,0.820149
780.0,0.822771
785.0,0.822999
790.0,0.824692
795.0,0.823984
800.0,0.826814
805.0,0.826773
810.0,0.827193
815.0,0.827588
820.0,0.828649
825.0,0.829258
830.0,0.831052
835.0,0.830647
840.0,0.832625
845.0,0.832824
850.0,0.832123
855.0,0.831795
860.0,0.832128
865.0,0.833137
870.0,0.83368
875.0,0.834577
880.0,0.835582
885.0,0.835958
890.0,0.835954
895.0,0.836891
900.0,0.836598
905.0,0.836753
910.0,0.839461
915.0,0.838241
920.0,0.839261
925.0,0.839316
930.0,0.839729
935.0,0.840316
940.0,0.843001
945.0,0.841234
950.0,0.84248
955.0,0.841528
960.0,0.840234
965.0,0.839635
970.0,0.840041
975.0,0.840424
980.0,0.840741
985.0,0.84172
990.0,0.841672
995.0,0.84037
1000.0,0.838862
1005.0,0.842677
1010.0,0.844427
1015.0,0.846191
1020.0,0.84757
1025.0,0.848569
1030.0,0.8491
1035.0,0.849817
1040.0,0.850521
1045.0,0.850474
1050.0,0.851706
1055.0,0.851831
1060.0,0.852033
1065.0,0.852982
1070.0,0.853191
1075.0,0.85338
1080.0,0.85355
1085.0,0.854344
1090.0,0.85456
1095.0,0.85512
1100.0,0.854985
1105.0,0.856012
1110.0,0.855957
1115.0,0.856605
1120.0,0.85661
1125.0,0.857351
1130.0,0.857581
1135.0,0.857129
1140.0,0.857305
1145.0,0.857913
1150.0,0.858727
1155.0,0.858655
1160.0,0.858414
1165.0,0.859295
1170.0,0.859028
1175.0,0.859096
1180.0,0.859846
1185.0,0.859582
1190.0,0.859782
1195.0,0.859894
1200.0,0.860091
1205.0,0.859414
1210.0,0.858917
1215.0,0.859997
1220.0,0.85985
1225.0,0.858719
1230.0,0.857628
1235.0,0.857725
1240.0,0.855887
1245.0,0.85473
1250.0,0.85323
1255.0,0.850991
1260.0,0.848757
1265.0,0.845353
1270.0,0.84207
1275.0,0.840365
1280.0,0.840519
1285.0,0.840976
1290.0,0.841287
1295.0,0.840687
1300.0,0.838408
1305.0,0.836086
1310.0,0.835762
1315.0,0.835941
1320.0,0.835571
1325.0,0.835396
1330.0,0.837352
1335.0,0.837464
1340.0,0.83761
1345.0,0.836972
1350.0,0.836928
1355.0,0.834572
1360.0,0.832814
1365.0,0.832606
1370.0,0.828075
1375.0,0.819775
1380.0,0.807937
1385.0,0.801924
1390.0,0.785018
1395.0,0.749301
1400.0,0.706193
1405.0,0.725543
1410.0,0.714987
1415.0,0.680553
1420.0,0.66274
1425.0,0.676481
1430.0,0.673968
1435.0,0.647939
1440.0,0.634899
1445.0,0.63155
1450.0,0.609663
1455.0,0.616983
1460.0,0.631195
1465.0,0.650994
1470.0,0.690969
1475.0,0.71635
1480.0,0.731444
1485.0,0.740805
1490.0,0.746303
1495.0,0.748265
1500.0,0.745715
1505.0,0.740818
1510.0,0.732882
1515.0,0.723432
1520.0,0.718025
1525.0,0.718468
1530.0,0.720488
1535.0,0.720635
1540.0,0.718138
1545.0,0.714033
1550.0,0.711497
1555.0,0.713989
1560.0,0.721408
1565.0,0.731092
1570.0,0.739602
1575.0,0.746745
1580.0,0.753391
1585.0,0.758347
1590.0,0.763478
1595.0,0.768331
1600.0,0.772783
1605.0,0.777325
1610.0,0.781465
1615.0,0.784871
1620.0,0.788648
1625.0,0.791173
1630.0,0.79267
1635.0,0.794794
1640.0,0.796207
1645.0,0.798351
1650.0,0.799304
1655.0,0.800366
1660.0,0.80176
1665.0,0.804193
1670.0,0.804621
1675.0,0.805382
1680.0,0.805259
1685.0,0.804917
1690.0,0.805806
1695.0,0.806028
1700.0,0.806013
1705.0,0.805981
1710.0,0.80626
1715.0,0.806085
1720.0,0.806235
1725.0,0.806516
1730.0,0.805016
1735.0,0.80426
1740.0,0.803541
1745.0,0.802438
1750.0,0.801392
1755.0,0.800188
1760.0,0.797861
1765.0,0.79672
1770.0,0.794169
1775.0,0.790141
1780.0,0.786413
1785.0,0.782384
1790.0,0.779217
1795.0,0.776323
1800.0,0.773822
1805.0,0.773141
1810.0,0.769645
1815.0,0.766295
1820.0,0.761446
1825.0,0.760469
1830.0,0.756617
1835.0,0.754802
1840.0,0.756409
1845.0,0.756814
1850.0,0.754744
1855.0,0.753121
1860.0,0.752225
1865.0,0.749307
1870.0,0.741675
1875.0,0.750451
1880.0,0.745426
1885.0,0.735097
1890.0,0.728183
1895.0,0.722973
1900.0,0.712741
1905.0,0.710072
1910.0,0.704908
1915.0,0.698588
1920.0,0.69213
1925.0,0.69077
1930.0,0.68716
1935.0,0.684571
1940.0,0.683208
1945.0,0.682494
1950.0,0.680783
1955.0,0.679253
1960.0,0.678929
1965.0,0.678577
1970.0,0.677653
1975.0,0.678118
1980.0,0.678169
1985.0,0.677802
1990.0,0.677536
1995.0,0.677208
2000.0,0.677346
2005.0,0.676974
2010.0,0.676808
2015.0,0.676193
2020.0,0.675683
2025.0,0.674976
2030.0,0.674604
2035.0,0.67443
2040.0,0.673524
2045.0,0.672986
2050.0,0.672437
2055.0,0.671818
2060.0,0.671527
2065.0,0.670434
2070.0,0.669845
2075.0,0.668565
2080.0,0.668299
2085.0,0.668184
2090.0,0.667746
2095.0,0.668085
2100.0,0.668907
2105.0,0.667724
2110.0,0.665916
2115.0,0.663762
2120.0,0.65952
2125.0,0.653026
2130.0,0.647411
2135.0,0.641985
2140.0,0.636679
2145.0,0.630647
2150.0,0.622529
2155.0,0.612228
2160.0,0.598542
2165.0,0.584541
2170.0,0.571289
2175.0,0.558118
2180.0,0.546908
2185.0,0.539148
2190.0,0.532511
2195.0,0.523035
2200.0,0.508984
2205.0,0.495575
2210.0,0.48532
2215.0,0.480481
2220.0,0.473575
2225.0,0.465484
2230.0,0.454075
2235.0,0.440042
2240.0,0.420392
2245.0,0.395292
2250.0,0.366574
2255.0,0.346042
2260.0,0.334086
2265.0,0.319158
2270.0,0.30626
2275.0,0.31554
2280.0,0.339336
2285.0,0.35836
2290.0,0.371773
2295.0,0.381482
2300.0,0.388951
2305.0,0.391733
2310.0,0.392013
2315.0,0.391245
2320.0,0.393897
2325.0,0.398528
2330.0,0.403387
2335.0,0.406777
2340.0,0.407702
2345.0,0.40332
2350.0,0.397169
2355.0,0.392855
2360.0,0.390472
2365.0,0.389882
2370.0,0.390358
2375.0,0.391353
2380.0,0.392711
2385.0,0.3931
2390.0,0.394045
2395.0,0.394693
2400.0,0.395019
2405.0,0.395985
2410.0,0.397791
2415.0,0.400309
2420.0,0.404228
2425.0,0.406543
2430.0,0.407652
2435.0,0.409494
2440.0,0.412574
2445.0,0.415172
2450.0,0.418017
2455.0,0.420754
2460.0,0.421345
2465.0,0.420208
2470.0,0.417941
2475.0,0.41436
2480.0,0.412774
2485.0,0.407773
2490.0,0.403822
2495.0,0.399416
2500.0,0.396613
2502.0,0.396285
2503.2,0.39625
2504.41,0.395633
2505.62,0.395621
2506.83,0.395202
2508.05,0.394749
2509.26,0.394647
2510.48,0.394563
2511.69,0.394291
2512.91,0.394381
2514.13,0.393182
2515.35,0.392448
2516.57,0.392435
2517.79,0.392614
2519.02,0.391879
2520.24,0.391172
2521.47,0.391513
2522.69,0.392164
2523.92,0.391839
2525.15,0.391565
2526.38,0.390599
2527.61,0.390026
2528.85,0.389866
2530.08,0.389498
2531.32,0.388477
2532.55,0.388013
2533.79,0.387342
2535.03,0.386388
2536.27,0.384622
2537.51,0.383189
2538.75,0.382112
2540.0,0.380585
2541.24,0.378787
2542.49,0.377025
2543.74,0.374604
2544.99,0.372388
2546.24,0.370447
2547.49,0.368253
2548.74,0.36659
2549.99,0.365464
2551.25,0.364213
2552.5,0.362946
2553.76,0.361649
2555.02,0.360987
2556.28,0.360636
2557.54,0.360164
2558.8,0.35857
2560.07,0.35753
2561.33,0.35659
2562.6,0.354707
2563.86,0.352939
2565.13,0.351683
2566.4,0.350497
2567.67,0.349782
2568.95,0.348805
2570.22,0.348021
2571.5,0.347075
2572.77,0.345817
2574.05,0.344463
2575.33,0.343978
2576.61,0.343951
2577.89,0.343381
2579.17,0.34216
2580.46,0.341516
2581.74,0.340547
2583.03,0.339341
2584.31,0.338276
2585.6,0.337186
2586.89,0.335837
2588.19,0.33442
2589.48,0.332861
2590.77,0.332065
2592.07,0.33106
2593.36,0.330321
2594.66,0.329733
2595.96,0.329378
2597.26,0.329439
2598.56,0.329449
2599.87,0.32876
2601.17,0.328789
2602.48,0.328593
2603.78,0.328234
2605.09,0.327158
2606.4,0.326106
2607.71,0.325437
2609.03,0.325291
2610.34,0.324493
2611.66,0.324444
2612.97,0.324163
2614.29,0.32322
2615.61,0.322487
2616.93,0.322756
2618.25,0.322478
2619.57,0.322244
2620.9,0.321848
2622.22,0.321598
2623.55,0.320662
2624.88,0.320533
2626.21,0.319549
2627.54,0.318477
2628.87,0.317341
2630.21,0.316287
2631.54,0.314304
2632.88,0.312707
2634.21,0.312189
2635.55,0.311718
2636.89,0.310236
2638.24,0.309607
2639.58,0.308724
2640.92,0.307588
2642.27,0.305491
2643.62,0.303637
2644.97,0.302204
2646.32,0.301128
2647.67,0.29928
2649.02,0.297437
2650.38,0.295665
2651.73,0.29389
2653.09,0.291821
2654.45,0.289491
2655.81,0.287058
2657.17,0.284891
2658.53,0.282635
2659.89,0.281031
2661.26,0.278253
2662.63,0.275377
2664.0,0.272394
2665.36,0.269712
2666.74,0.267503
2668.11,0.26575
2669.48,0.263224
2670.86,0.261063
2672.23,0.256715
2673.61,0.253614
2674.99,0.251225
2676.37,0.248397
2677.76,0.244589
2679.14,0.24149
2680.52,0.238561
2681.91,0.234721
2683.3,0.230622
2684.69,0.226052
2686.08,0.221893
2687.47,0.21768
2688.87,0.213294
2690.26,0.20957
2691.66,0.204931
2693.06,0.200465
2694.46,0.195772
2695.86,0.191003
2697.26,0.1865
2698.66,0.182241
2700.07,0.177409
2701.48,0.172576
2702.89,0.168254
2704.3,0.164324
2705.71,0.160191
2707.12,0.156134
2708.53,0.152418
2709.95,0.148853
2711.37,0.144762
2712.79,0.140909
2714.21,0.137613
2715.63,0.134171
2717.05,0.129499
2718.48,0.12529
2719.9,0.121617
2721.33,0.117471
2722.76,0.11302
2724.19,0.1092
2725.62,0.10363
2727.06,0.098256
2728.49,0.094103
2729.93,0.089979
2731.37,0.08586
2732.81,0.081134
2734.25,0.076003
2735.69,0.071127
2737.14,0.065872
2738.58,0.061324
2740.03,0.056989
2741.48,0.052097
2742.93,0.046973
2744.38,0.042292
2745.83,0.038644
2747.29,0.035419
2748.75,0.031936
2750.2,0.028317
2751.66,0.02511
2753.13,0.022618
2754.59,0.020701
2756.05,0.019411
2757.52,0.01812
2758.99,0.017332
2760.46,0.017165
2761.93,0.017035
2763.4,0.01711
2764.87,0.018019
2766.35,0.018608
2767.82,0.019241
2769.3,0.02017
2770.78,0.021263
2772.26,0.021922
2773.75,0.0224
2775.23,0.022914
2776.72,0.023812
2778.21,0.024939
2779.7,0.025504
2781.19,0.026136
2782.68,0.02682
2784.18,0.027106
2785.67,0.027293
2787.17,0.027317
2788.67,0.026961
2790.17,0.026446
2791.67,0.026173
2793.18,0.025747
2794.68,0.025391
2796.19,0.024901
2797.7,0.023467
2799.21,0.022397
2800.72,0.021756
2802.24,0.021085
2803.75,0.019985
2805.27,0.018172
2806.79,0.016643
2808.31,0.015214
2809.83,0.013867
2811.35,0.013341
2812.88,0.012609
2814.41,0.011887
2815.93,0.011273
2817.46,0.010354
2819.0,0.009481
2820.53,0.008909
2822.07,0.008395
2823.6,0.008249
2825.14,0.008379
2826.68,0.009222
2828.22,0.010051
2829.77,0.010946
2831.31,0.01242
2832.86,0.013984
2834.41,0.015298
2835.96,0.016137
2837.51,0.01654
2839.07,0.017192
2840.62,0.01797
2842.18,0.018588
2843.74,0.019153
2845.3,0.01992
2846.86,0.020712
2848.43,0.021361
2849.99,0.02199
2851.56,0.022712
2853.13,0.023159
2854.7,0.023936
2856.27,0.024743
2857.85,0.025063
2859.42,0.025811
2861.0,0.026721
2862.58,0.027161
2864.16,0.027878
2865.75,0.028409
2867.33,0.028317
2868.92,0.02837
2870.51,0.028632
2872.1,0.028424
2873.69,0.028603
2875.28,0.029521
2876.88,0.029851
2878.48,0.029505
2880.07,0.029448
2881.68,0.029381
2883.28,0.029514
2884.88,0.029395
2886.49,0.029675
2888.1,0.029998
2889.71,0.029917
2891.32,0.029672
2892.93,0.03006
2894.55,0.030251
2896.16,0.029846
2897.78,0.030222
2899.4,0.030493
2901.03,0.030695
2902.65,0.030777
2904.28,0.030635
2905.91,0.030683
2907.54,0.031028
2909.17,0.031431
2910.8,0.031445
2912.44,0.031808
2914.07,0.031805
2915.71,0.031868
2917.35,0.032326
2918.99,0.0325
2920.64,0.032424
2922.29,0.032757
2923.93,0.033735
2925.58,0.034251
2927.24,0.033903
2928.89,0.033946
2930.55,0.034295
2932.2,0.034468
2933.86,0.034579
2935.52,0.03463
2937.19,0.034524
2938.85,0.034773
2940.52,0.034996
2942.19,0.035005
2943.86,0.034991
2945.53,0.03549
2947.21,0.03584
2948.88,0.035882
2950.56,0.036141
2952.24,0.036409
2953.92,0.036558
2955.61,0.036869
2957.29,0.037023
2958.98,0.037393
2960.67,0.038199
2962.36,0.038949
2964.06,0.039294
2965.75,0.039886
2967.45,0.040764
2969.15,0.041664
2970.85,0.042143
2972.55,0.042926
2974.26,0.043568
2975.97,0.044042
2977.68,0.044651
2979.39,0.04544
2981.1,0.046301
2982.82,0.046988
2984.53,0.047529
2986.25,0.048482
2987.97,0.049183
2989.7,0.049486
2991.42,0.049951
2993.15,0.050619
2994.88,0.051326
2996.61,0.051917
2998.34,0.052669
3000.08,0.053563
3001.82,0.054099
3003.55,0.054901
3005.3,0.055602
3007.04,0.056333
3008.78,0.056615
3010.53,0.05678
3012.28,0.057755
3014.03,0.058731
3015.79,0.058923
3017.54,0.059351
3019.3,0.059795
3021.06,0.06053
3022.82,0.061115
3024.58,0.0619
3026.35,0.062564
3028.12,0.062832
3029.89,0.063289
3031.66,0.064046
3033.43,0.064435
3035.21,0.064729
3036.99,0.06499
3038.77,0.065676
3040.55,0.066247
3042.33,0.066407
3044.12,0.066582
3045.91,0.067264
3047.7,0.067724
3049.49,0.0681
3051.29,0.068688
3053.08,0.069513
3054.88,0.069879
3056.68,0.07019
3058.49,0.070648
3060.29,0.071217
3062.1,0.072013
3063.91,0.072532
3065.72,0.07267
3067.54,0.073125
3069.35,0.073492
3071.17,0.073891
3072.99,0.074777
3074.81,0.075432
3076.64,0.075833
3078.47,0.076546
3080.29,0.076687
3082.13,0.077042
3083.96,0.077501
3085.79,0.077915
3087.63,0.078554
3089.47,0.079057
3091.31,0.079263
3093.16,0.079785
3095.01,0.08024
3096.85,0.080911
3098.71,0.081182
3100.56,0.081481
3102.41,0.081979
3104.27,0.08239
3106.13,0.083071
3107.99,0.084096
3109.86,0.085011
3111.73,0.085523
3113.59,0.085834
3115.47,0.086317
3117.34,0.086737
3119.21,0.087505
3121.09,0.088339
3122.97,0.089053
3124.86,0.089447
3126.74,0.09005
3128.63,0.090728
3130.52,0.091185
3132.41,0.091533
3134.3,0.091981
3136.2,0.09269
3138.1,0.093563
3140.0,0.094163
3141.9,0.094632
3143.81,0.095184
3145.71,0.095513
3147.62,0.096042
3149.54,0.096527
3151.45,0.097103
3153.37,0.097786
3155.29,0.097982
3157.21,0.098521
3159.13,0.099229
3161.06,0.099626
3162.99,0.100057
3164.92,0.100799
3166.85,0.101259
3168.79,0.101352
3170.72,0.101763
3172.67,0.102377
3174.61,0.102783
3176.55,0.103284
3178.5,0.103622
3180.45,0.103643
3182.4,0.104191
3184.36,0.105027
3186.32,0.105227
3188.27,0.105359
3190.24,0.105805
3192.2,0.106272
3194.17,0.106879
3196.14,0.107526
3198.11,0.108023
3200.08,0.108538
3202.06,0.108935
3204.04,0.109205
3206.02,0.109754
3208.0,0.110413
3209.99,0.110882
3211.98,0.111175
3213.97,0.111614
3215.96,0.112038
3217.96,0.11221
3219.96,0.112709
3221.96,0.113261
3223.96,0.113939
3225.97,0.114504
3227.98,0.114647
3229.99,0.115128
3232.0,0.115905
3234.02,0.116242
3236.04,0.116335
3238.06,0.116559
3240.08,0.116983
3242.11,0.117421
3244.14,0.11783
3246.17,0.118155
3248.2,0.118689
3250.24,0.119252
3252.28,0.119543
3254.32,0.119871
3256.37,0.120189
3258.41,0.120606
3260.46,0.121234
3262.51,0.121369
3264.57,0.121825
3266.63,0.122446
3268.69,0.122736
3270.75,0.12275
3272.81,0.123141
3274.88,0.123524
3276.95,0.123552
3279.02,0.123795
3281.1,0.12426
3283.18,0.124609
3285.26,0.124818
3287.34,0.124928
3289.43,0.125115
3291.51,0.125172
3293.61,0.125645
3295.7,0.125992
3297.8,0.126056
3299.9,0.126306
3302.0,0.126641
3304.1,0.126756
3306.21,0.126908
3308.32,0.127193
3310.43,0.127383
3312.55,0.127678
3314.66,0.127923
3316.79,0.127931
3318.91,0.128165
3321.03,0.128372
3323.16,0.128479
3325.29,0.128754
3327.43,0.129201
3329.57,0.129564
3331.71,0.129691
3333.85,0.130006
3335.99,0.130415
3338.14,0.130885
3340.29,0.131055
3342.45,0.131173
3344.6,0.131378
3346.76,0.131719
3348.92,0.132123
3351.09,0.132632
3353.26,0.133152
3355.43,0.133629
3357.6,0.134061
3359.78,0.134336
3361.96,0.134721
3364.14,0.134995
3366.32,0.135172
3368.51,0.135621
3370.7,0.136303
3372.89,0.136901
3375.09,0.137153
3377.29,0.137496
3379.49,0.138085
3381.69,0.138664
3383.9,0.139234
3386.11,0.139507
3388.32,0.140013
3390.54,0.140705
3392.76,0.141159
3394.98,0.141552
3397.21,0.141899
3399.43,0.14241
3401.66,0.142749
3403.9,0.142886
3406.13,0.143206
3408.37,0.144016
3410.61,0.144649
3412.86,0.14481
3415.11,0.145318
3417.36,0.146175
3419.61,0.146784
3421.87,0.147069
3424.13,0.147595
3426.39,0.147894
3428.66,0.148137
3430.93,0.148666
3433.2,0.14909
3435.48,0.149769
3437.76,0.150667
3440.04,0.151088
3442.32,0.151412
3444.61,0.151698
3446.9,0.152427
3449.19,0.153125
3451.49,0.153635
3453.79,0.15399
3456.09,0.154245
3458.4,0.154754
3460.7,0.155421
3463.02,0.156035
3465.33,0.156567
3467.65,0.156991
3469.97,0.157389
3472.29,0.157878
3474.62,0.158471
3476.95,0.158868
3479.29,0.159379
3481.62,0.159891
3483.96,0.160359
3486.3,0.160943
3488.65,0.16124
3491.0,0.16154
3493.35,0.162119
3495.71,0.16249
3498.07,0.162928
3500.43,0.16358
3502.79,0.164213
3505.16,0.164569
3507.53,0.165235
3509.91,0.165792
3512.29,0.166149
3514.67,0.166772
3517.05,0.167273
3519.44,0.167683
3521.83,0.168194
3524.23,0.168684
3526.62,0.169404
3529.02,0.169937
3531.43,0.170524
3533.83,0.171367
3536.24,0.17199
3538.66,0.172543
3541.08,0.173155
3543.5,0.173663
3545.92,0.174059
3548.35,0.174536
3550.78,0.175271
3553.21,0.176047
3555.65,0.176781
3558.09,0.177502
3560.53,0.178189
3562.98,0.178714
3565.43,0.179128
3567.88,0.179652
3570.34,0.180341
3572.8,0.181077
3575.27,0.181591
3577.73,0.182178
3580.2,0.182933
3582.68,0.183564
3585.16,0.183952
3587.64,0.184539
3590.12,0.185375
3592.61,0.185975
3595.1,0.186517
3597.6,0.187159
3600.09,0.187899
3602.6,0.188602
3605.1,0.189086
3607.61,0.189781
3610.12,0.190346
3612.64,0.190921
3615.16,0.191534
3617.68,0.192092
3620.21,0.192644
3622.74,0.193366
3625.27,0.193849
3627.81,0.194403
3630.35,0.195132
3632.89,0.195964
3635.44,0.196604
3637.99,0.197291
3640.54,0.197828
3643.1,0.198405
3645.66,0.198939
3648.23,0.199562
3650.8,0.200225
3653.37,0.200461
3655.95,0.200879
3658.53,0.20154
3661.11,0.201901
3663.7,0.202442
3666.29,0.203175
3668.89,0.203873
3671.48,0.204336
3674.09,0.204842
3676.69,0.205246
3679.3,0.20567
3681.91,0.206078
3684.53,0.206555
3687.15,0.206999
3689.78,0.20762
3692.4,0.208144
3695.04,0.208724
3697.67,0.209373
3700.31,0.209716
3702.95,0.210069
3705.6,0.210697
3708.25,0.211143
3710.91,0.211466
3713.56,0.211941
3716.23,0.212109
3718.89,0.212564
3721.56,0.213094
3724.23,0.213362
3726.91,0.213565
3729.59,0.213903
3732.28,0.214429
3734.97,0.214934
3737.66,0.215244
3740.36,0.215381
3743.06,0.215616
3745.76,0.21594
3748.47,0.216331
3751.18,0.216506
3753.9,0.2167
3756.62,0.217092
3759.34,0.217458
3762.07,0.217707
3764.8,0.217965
3767.54,0.218256
3770.28,0.218606
3773.02,0.218725
3775.77,0.218993
3778.52,0.219332
3781.28,0.219571
3784.04,0.219765
3786.8,0.220216
3789.57,0.220547
3792.34,0.220811
3795.12,0.221107
3797.9,0.221384
3800.69,0.221536
3803.47,0.221952
3806.27,0.22245
3809.06,0.222597
3811.86,0.222723
3814.67,0.22315
3817.48,0.223363
3820.29,0.223406
3823.11,0.223697
3825.93,0.224057
3828.76,0.224232
3831.59,0.224396
3834.42,0.224228
3837.26,0.224211
3840.1,0.224234
3842.95,0.224345
3845.8,0.224687
3848.65,0.225501
3851.51,0.226279
3854.38,0.226798
3857.24,0.227236
3860.12,0.227757
3862.99,0.228194
3865.87,0.228753
3868.76,0.229096
3871.65,0.229392
3874.54,0.229806
3877.44,0.230204
3880.34,0.23046
3883.25,0.23083
3886.16,0.231167
3889.07,0.231176
3891.99,0.23135
3894.92,0.231516
3897.85,0.231598
3900.78,0.231766
3903.72,0.231694
3906.66,0.23167
3909.6,0.23182
3912.55,0.232026
3915.51,0.231905
3918.47,0.231847
3921.43,0.232056
3924.4,0.232245
3927.38,0.232228
3930.35,0.232151
3933.33,0.232237
3936.32,0.23256
3939.31,0.232672
3942.31,0.232588
3945.31,0.232472
3948.31,0.232449
3951.32,0.232631
3954.34,0.23267
3957.35,0.232504
3960.38,0.232571
3963.41,0.23263
3966.44,0.232578
3969.48,0.232498
3972.52,0.232467
3975.56,0.232406
3978.61,0.232472
3981.67,0.23251
3984.73,0.232545
3987.8,0.232671
3990.87,0.232805
3993.94,0.233
3997.02,0.233158
4000.1,0.233344
4003.19,0.23351
4006.29,0.233586
4009.39,0.233864
4012.49,0.23393
4015.6,0.233984
4018.71,0.233932
4021.83,0.234133
4024.95,0.234413
4028.08,0.234466
4031.21,0.234523
4034.35,0.234586
4037.49,0.234569
4040.64,0.234796
4043.79,0.234827
4046.94,0.234933
4050.11,0.234784
4053.27,0.234764
4056.44,0.234826
4059.62,0.234804
4062.8,0.234867
4065.99,0.235105
4069.18,0.235092
4072.38,0.235009
4075.58,0.235128
4078.78,0.235388
4082.0,0.23546
4085.21,0.235431
4088.43,0.235291
4091.66,0.23522
4094.89,0.23546
4098.13,0.235733
4101.37,0.235784
4104.62,0.235746
4107.87,0.235691
4111.13,0.235778
4114.39,0.235857
4117.66,0.235764
4120.93,0.235898
4124.21,0.236071
4127.5,0.235886
4130.79,0.235903
4134.08,0.236176
4137.38,0.236239
4140.68,0.236218
4143.99,0.236276
4147.31,0.236264
4150.63,0.23645
4153.95,0.236521
4157.29,0.236605
4160.62,0.236625
4163.96,0.236607
4167.31,0.236561
4170.66,0.236805
4174.02,0.236951
4177.39,0.236991
4180.75,0.236926
4184.13,0.237125
4187.51,0.237193
4190.89,0.237231
4194.28,0.237231
4197.68,0.237313
4201.08,0.237448
4204.49,0.237564
4207.9,0.237563
4211.32,0.237414
4214.74,0.237143
4218.17,0.237074
4221.61,0.23702
4225.05,0.236936
4228.5,0.236653
4231.95,0.236349
4235.4,0.236093
4238.87,0.235612
4242.34,0.234656
4245.81,0.233327
4249.29,0.231314
4252.78,0.228318
4256.27,0.224106
4259.77,0.218681
4263.27,0.212377
4266.78,0.207588
4270.29,0.207287
4273.81,0.211858
4277.34,0.218352
4280.87,0.224035
4284.41,0.228203
4287.95,0.231166
4291.5,0.233113
4295.06,0.234466
4298.62,0.235422
4302.19,0.236239
4305.76,0.237071
4309.34,0.23782
4312.92,0.238315
4316.52,0.238572
4320.11,0.238793
4323.72,0.239154
4327.32,0.23928
4330.94,0.239514
4334.56,0.239803
4338.19,0.239997
4341.82,0.24
4345.46,0.24005
4349.11,0.240125
4352.76,0.240117
4356.42,0.240022
4360.08,0.240157
4363.75,0.240154
4367.43,0.240081
4371.11,0.239796
4374.8,0.239648
4378.49,0.2395
4382.19,0.239454
4385.9,0.239249
4389.61,0.239159
4393.33,0.239093
4397.06,0.239045
4400.79,0.238955
4404.53,0.23899
4408.28,0.238858
4412.03,0.238696
4415.79,0.238443
4419.55,0.238302
4423.32,0.238136
4427.1,0.237955
4430.88,0.237676
4434.68,0.237306
4438.47,0.236903
4442.28,0.236706
4446.08,0.236453
4449.9,0.236246
4453.72,0.235938
4457.55,0.235626
4461.39,0.235155
4465.23,0.23476
4469.08,0.234313
4472.94,0.233912
4476.8,0.23349
4480.67,0.23314
4484.55,0.232784
4488.43,0.232392
4492.32,0.2319
4496.21,0.231561
4500.12,0.231022
4504.03,0.230387
4507.94,0.229763
4511.87,0.229373
4515.8,0.228816
4519.73,0.228085
4523.68,0.227377
4527.63,0.22679
4531.59,0.226028
4535.55,0.225241
4539.52,0.22444
4543.5,0.223813
4547.49,0.223002
4551.48,0.22204
4555.48,0.221025
4559.49,0.220084
4563.5,0.218952
4567.52,0.217727
4571.55,0.216512
4575.58,0.215449
4579.63,0.214221
4583.67,0.212911
4587.73,0.211423
4591.79,0.209813
4595.86,0.20823
4599.94,0.206763
4604.03,0.204981
4608.12,0.203284
4612.22,0.20151
4616.33,0.199551
4620.44,0.197641
4624.56,0.195875
4628.69,0.194216
4632.83,0.192651
4636.97,0.191267
4641.12,0.189933
4645.28,0.188727
4649.45,0.187817
4653.62,0.186965
4657.8,0.186231
4661.99,0.185609
4666.19,0.185103
4670.39,0.184592
4674.6,0.18404
4678.82,0.183374
4683.05,0.182683
4687.28,0.181876
4691.52,0.181079
4695.77,0.180256
4700.03,0.179348
4704.3,0.178271
4708.57,0.177384
4712.85,0.176437
4717.14,0.175353
4721.43,0.174309
4725.74,0.173278
4730.05,0.172189
4734.37,0.171316
4738.7,0.170393
4743.03,0.169714
4747.38,0.168951
4751.73,0.168093
4756.09,0.167232
4760.45,0.166432
4764.83,0.165715
4769.21,0.165175
4773.6,0.164507
4778.0,0.164011
4782.41,0.163557
4786.83,0.163023
4791.25,0.162619
4795.68,0.162218
4800.13,0.161831
4804.57,0.161701
4809.03,0.161525
4813.5,0.161217
4817.97,0.160887
4822.45,0.160774
4826.94,0.160649
4831.44,0.160409
4835.95,0.159935
4840.46,0.159489
4844.99,0.159255
4849.52,0.159121
4854.06,0.158607
4858.61,0.158059
4863.17,0.157565
4867.73,0.157049
4872.31,0.156539
4876.89,0.15619
4881.48,0.155798
4886.08,0.155547
4890.69,0.155243
4895.31,0.154827
4899.94,0.154485
4904.57,0.154131
4909.22,0.1537
4913.87,0.153402
4918.53,0.15301
4923.21,0.152551
4927.88,0.151872
4932.57,0.151256
4937.27,0.150679
4941.98,0.150007
4946.69,0.149223
4951.42,0.148312
4956.15,0.1473
4960.9,0.146616
4965.65,0.146021
4970.41,0.145265
4975.18,0.144482
4979.96,0.144007
4984.75,0.143451
4989.54,0.143055
4994.35,0.142902
4999.17,0.142983
5003.99,0.143289
5008.83,0.143821
5013.67,0.144519
5018.52,0.145414
5023.39,0.146367
5028.26,0.147493
5033.14,0.148719
5038.03,0.149954
5042.93,0.151082
5047.84,0.152312
5052.76,0.153543
5057.69,0.15479
5062.63,0.155927
5067.58,0.157202
5072.54,0.158414
5077.51,0.159373
5082.49,0.160245
5087.47,0.161285
5092.47,0.162261
5097.48,0.163315
5102.5,0.1642
5107.52,0.164956
5112.56,0.165628
5117.61,0.166449
5122.66,0.167208
5127.73,0.16797
5132.81,0.168662
5137.89,0.169301
5142.99,0.169932
5148.1,0.170628
5153.22,0.17128
5158.34,0.171983
5163.48,0.172483
5168.63,0.173121
5173.79,0.173937
5178.96,0.174575
5184.13,0.17503
5189.32,0.175496
5194.52,0.175916
5199.73,0.17636
5204.96,0.176596
5210.19,0.176788
5215.43,0.176967
5220.68,0.177028
5225.94,0.177029
5231.22,0.177123
5236.5,0.177043
5241.79,0.176975
5247.1,0.176768
5252.42,0.176597
5257.74,0.1764
5263.08,0.176215
5268.43,0.175803
5273.79,0.175581
5279.16,0.175371
5284.54,0.175242
5289.93,0.175094
5295.34,0.174968
5300.75,0.17481
5306.18,0.174733
5311.61,0.174605
5317.06,0.174615
5322.52,0.174521
5327.99,0.174503
5333.47,0.174518
5338.96,0.174743
5344.47,0.174973
5349.98,0.175149
5355.51,0.174952
5361.05,0.174966
5366.6,0.175134
5372.16,0.175387
5377.73,0.175518
5383.32,0.175351
5388.91,0.175174
5394.52,0.175238
5400.14,0.175157
5405.77,0.175085
5411.41,0.175013
5417.07,0.175022
5422.74,0.174909
5428.41,0.17473
5434.1,0.174553
5439.81,0.174498
5445.52,0.174316
5451.25,0.174029
5456.98,0.173611
5462.73,0.173329
5468.5,0.172921
5474.27,0.172571
5480.06,0.172316
5485.86,0.171946
5491.67,0.171419
5497.49,0.170979
5503.33,0.170471
5509.18,0.170037
5515.04,0.169506
5520.91,0.169029
5526.8,0.168516
5532.69,0.168169
5538.61,0.167808
5544.53,0.167562
5550.47,0.167283
5556.41,0.167057
5562.38,0.166777
5568.35,0.166679
5574.34,0.166589
5580.34,0.166507
5586.35,0.166255
5592.38,0.166252
5598.42,0.166238
5604.47,0.166127
5610.54,0.165894
5616.61,0.165799
5622.71,0.165542
5628.81,0.165453
5634.93,0.165117
5641.06,0.164739
5647.21,0.164316
5653.36,0.164018
5659.54,0.163698
5665.72,0.163242
5671.92,0.162813
5678.13,0.162357
5684.36,0.16181
5690.6,0.161403
5696.85,0.160569
5703.12,0.159924
5709.4,0.159361
5715.69,0.158608
5722.0,0.157824
5728.33,0.157291
5734.66,0.156618
5741.01,0.155922
5747.38,0.155111
5753.76,0.154281
5760.15,0.153418
5766.56,0.152915
5772.98,0.151574
5779.41,0.150546
5785.86,0.149694
5792.33,0.148803
5798.81,0.147817
5805.3,0.146822
5811.81,0.145677
5818.33,0.144789
5824.87,0.143603
5831.42,0.142302
5837.99,0.141184
5844.57,0.140191
5851.17,0.139047
5857.78,0.137921
5864.41,0.136625
5871.05,0.135316
5877.7,0.134165
5884.38,0.132838
5891.06,0.131008
5897.76,0.130228
5904.48,0.128861
5911.21,0.127815
5917.96,0.126833
5924.73,0.125755
5931.5,0.124736
5938.3,0.123708
5945.11,0.122159
5951.93,0.121448
5958.78,0.120739
5965.63,0.119977
5972.51,0.118972
5979.39,0.117754
5986.3,0.117068
5993.22,0.116392
6000.16,0.115482
6007.11,0.114807
6014.08,0.114163
6021.06,0.113381
6028.06,0.112498
6035.08,0.111902
6042.12,0.111335
6049.17,0.110962
6056.23,0.109827
6063.32,0.109202
6070.42,0.109019
6077.53,0.108466
6084.67,0.107816
6091.82,0.107567
6098.98,0.107422
6106.17,0.107169
6113.37,0.106916
6120.58,0.106588
6127.82,0.106644
6135.07,0.106906
6142.34,0.106878
6149.63,0.106882
6156.93,0.107158
6164.25,0.107427
6171.59,0.107651
6178.95,0.107978
6186.32,0.108019
6193.71,0.108055
6201.12,0.108377
6208.54,0.108715
6215.99,0.108772
6223.45,0.10884
6230.93,0.108946
6238.43,0.108924
6245.95,0.108849
6253.48,0.108804
6261.03,0.108644
6268.6,0.10846
6276.19,0.108218
6283.8,0.107928
6291.43,0.107661
6299.07,0.107529
6306.73,0.107207
6314.42,0.106781
6322.12,0.106359
6329.84,0.105939
6337.57,0.105364
6345.33,0.105014
6353.11,0.104559
6360.9,0.104084
6368.72,0.103717
6376.55,0.103269
6384.4,0.10277
6392.27,0.102358
6400.17,0.101808
6408.08,0.101444
6416.01,0.100734
6423.96,0.099723
6431.93,0.09947
6439.92,0.099225
6447.93,0.098731
6455.96,0.098188
6464.01,0.09771
6472.08,0.097486
6480.17,0.097177
6488.28,0.097019
6496.41,0.096856
6504.56,0.096944
6512.73,0.097201
6520.92,0.09754
6529.14,0.097722
6537.37,0.098368
6545.63,0.099109
6553.9,0.099636
6562.2,0.10009
6570.51,0.100694
6578.85,0.101094
6587.21,0.101646
6595.59,0.102309
6603.99,0.102708
6612.42,0.103097
6620.86,0.103423
6629.33,0.10347
6637.82,0.103567
6646.33,0.103539
6654.86,0.103741
6663.41,0.103928
6671.99,0.103915
6680.59,0.103676
6689.21,0.103431
6697.85,0.103272
6706.51,0.103032
6715.2,0.102481
6723.91,0.102008
6732.64,0.10169
6741.4,0.101291
6750.18,0.10075
6758.98,0.100031
6767.8,0.099393
6776.65,0.098885
6785.52,0.09826
6794.41,0.097512
6803.33,0.096773
6812.27,0.0965
6821.23,0.096147
6830.22,0.09567
6839.23,0.095265
6848.26,0.094992
6857.32,0.094682
6866.4,0.094437
6875.51,0.09408
6884.64,0.094181
6893.8,0.094149
6902.98,0.093957
6912.18,0.093757
6921.41,0.093427
6930.66,0.093079
6939.94,0.092787
6949.24,0.092697
6958.57,0.092685
6967.92,0.092551
6977.3,0.092591
6986.7,0.092738
6996.13,0.092769
7005.59,0.092807
7015.07,0.092961
7024.57,0.093098
7034.1,0.093234
7043.66,0.093393
7053.25,0.09341
7062.85,0.093496
7072.49,0.093606
7082.15,0.093697
7091.84,0.093859
7101.55,0.09395
7111.3,0.093912
7121.06,0.093739
7130.86,0.09354
7140.68,0.093312
7150.53,0.093018
7160.41,0.092575
7170.31,0.0922
7180.24,0.091717
7190.2,0.091336
7200.19,0.090929
7210.2,0.090552
7220.24,0.090027
7230.31,0.089473
7240.41,0.089096
7250.54,0.088931
7260.69,0.088741
7270.88,0.08836
7281.09,0.087966
7291.33,0.087847
7301.6,0.087731
7311.9,0.087508
7322.22,0.087334
7332.58,0.087377
7342.97,0.087397
7353.38,0.087477
7363.83,0.08761
7374.3,0.087801
7384.81,0.087886
7395.34,0.087947
7405.91,0.088082
7416.5,0.088469
7427.13,0.08878
7437.78,0.088913
7448.47,0.089135
7459.19,0.089464
7469.94,0.089659
7480.71,0.089841
7491.52,0.090063
7502.37,0.090299
7513.24,0.090456
7524.14,0.090656
7535.08,0.090785
7546.05,0.090942
7557.05,0.091226
7568.08,0.091313
7579.15,0.091441
7590.24,0.091623
7601.37,0.091719
7612.53,0.091666
7623.73,0.091622
7634.96,0.091558
7646.22,0.091456
7657.51,0.091204
7668.84,0.090882
7680.2,0.090625
7691.59,0.090286
7703.02,0.089845
7714.49,0.089422
7725.98,0.089101
7737.52,0.088625
7749.08,0.087942
7760.68,0.087359
7772.32,0.086948
7783.99,0.086397
7795.69,0.085724
7807.43,0.085017
7819.21,0.084345
7831.02,0.08367
7842.87,0.083193
7854.75,0.082654
7866.67,0.081972
7878.62,0.081299
7890.62,0.080647
7902.64,0.080021
7914.71,0.079372
7926.81,0.078686
7938.95,0.078019
7951.13,0.0772
7963.34,0.076306
7975.59,0.075343
7987.88,0.074401
8000.21,0.073545
8012.57,0.072709
8024.98,0.07187
8037.42,0.071062
8049.9,0.070196
8062.42,0.069281
8074.98,0.068403
8087.57,0.067614
8100.21,0.066857
8112.89,0.066033
8125.6,0.065154
8138.36,0.064426
8151.16,0.063578
8163.99,0.06272
8176.87,0.061764
8189.79,0.060845
8202.75,0.059877
8215.75,0.058876
8228.79,0.057674
8241.87,0.056627
8254.99,0.055692
8268.16,0.054651
8281.37,0.053582
8294.62,0.052673
8307.91,0.051649
8321.24,0.050511
8334.62,0.049338
8348.04,0.048229
8361.51,0.047121
8375.02,0.046181
8388.57,0.045216
8402.16,0.044069
8415.8,0.042856
8429.49,0.041851
8443.22,0.040826
8456.99,0.039732
8470.81,0.038526
8484.67,0.037472
8498.58,0.036398
8512.54,0.035318
8526.54,0.034256
8540.58,0.033296
8554.68,0.032372
8568.82,0.031522
8583.0,0.030596
8597.24,0.029752
8611.52,0.028887
8625.85,0.028208
8640.23,0.027596
8654.65,0.026892
8669.12,0.026183
8683.64,0.025653
8698.21,0.025219
8712.83,0.024985
8727.5,0.024588
8742.22,0.024243
8756.99,0.023922
8771.8,0.023758
8786.67,0.023457
8801.59,0.023329
8816.56,0.023318
8831.58,0.023506
8846.65,0.023599
8861.77,0.023701
8876.94,0.023912
8892.17,0.024346
8907.45,0.024796
8922.78,0.025252
8938.16,0.025769
8953.6,0.026558
8969.09,0.027397
8984.64,0.028412
9000.23,0.029588
9015.89,0.030817
9031.59,0.031911
9047.36,0.033148
9063.17,0.034555
9079.05,0.036133
9094.97,0.037661
9110.96,0.039107
9127.0,0.040367
9143.1,0.041448
9159.25,0.042628
9175.46,0.044342
9191.73,0.046273
9208.06,0.048273
9224.44,0.050389
9240.88,0.052779
9257.38,0.054955
9273.94,0.056901
9290.56,0.058645
9307.24,0.060366
9323.98,0.061772
9340.78,0.062756
9357.64,0.063535
9374.57,0.06412
9391.55,0.064454
9408.59,0.064669
9425.7,0.064646
9442.87,0.064362
9460.1,0.06369
9477.4,0.062935
9494.75,0.062226
9512.17,0.061376
9529.66,0.06029
9547.21,0.059421
9564.83,0.058474
9582.5,0.057545
9600.25,0.056519
9618.06,0.055653
9635.94,0.054788
9653.88,0.053619
9671.89,0.05232
9689.97,0.051202
9708.12,0.050091
9726.33,0.048821
9744.62,0.047505
9762.97,0.046139
9781.39,0.044764
9799.88,0.04367
9818.44,0.042488
9837.07,0.041243
9855.77,0.039867
9874.54,0.03845
9893.39,0.03698
9912.3,0.035856
9931.29,0.034655
9950.36,0.033444
9969.49,0.032358
9988.7,0.031445
10007.98,0.030658
10027.34,0.030004
10046.77,0.029034
10066.28,0.028079
10085.87,0.027276
10105.53,0.026632
10125.26,0.025919
10145.08,0.025163
10164.97,0.024454
10184.94,0.023943
10204.99,0.023379
10225.12,0.02299
10245.33,0.02287
10265.61,0.022851
10285.98,0.022882
10306.43,0.023078
10326.96,0.023224
10347.57,0.02325
10368.27,0.023216
10389.05,0.023242
10409.91,0.023348
10430.86,0.023241
10451.88,0.022761
10473.0,0.022439
10494.2,0.022221
10515.49,0.021801
10536.86,0.021208
10558.32,0.02086
10579.87,0.020632
10601.5,0.020222
10623.23,0.019816
10645.04,0.019552
10666.94,0.019246
10688.94,0.019021
10711.02,0.018757
10733.2,0.018474
10755.47,0.018173
10777.83,0.017985
10800.28,0.017672
10822.83,0.017241
10845.47,0.016922
10868.21,0.016853
10891.04,0.016707
10913.97,0.016507
10936.99,0.01662
10960.12,0.016909
10983.34,0.016934
11006.66,0.016797
11030.07,0.016548
11053.59,0.016415
11077.21,0.016127
11100.93,0.015558
11124.75,0.015201
11148.68,0.015085
11172.71,0.014739
11196.84,0.014408
11221.07,0.014328
11245.41,0.014292
11269.86,0.014078
11294.41,0.013985
11319.07,0.014059
11343.84,0.014426
11368.72,0.014512
11393.7,0.014662
11418.8,0.015273
11444.01,0.015744
11469.33,0.016009
11494.76,0.016527
11520.3,0.016903
11545.96,0.017328
11571.73,0.01798
11597.62,0.018807
11623.62,0.019483
11649.74,0.020082
11675.98,0.020527
11702.34,0.021123
11728.81,0.021755
11755.41,0.022297
11782.13,0.022686
11808.96,0.023091
11835.92,0.023449
11863.01,0.023787
11890.22,0.024016
11917.55,0.02442
11945.01,0.024796
11972.6,0.025139
12000.31,0.025305
12028.16,0.025344
12056.13,0.025451
12084.23,0.025572
12112.46,0.025501
12140.83,0.025778
12169.33,0.026116
12197.96,0.026353
12226.73,0.026842
12255.64,0.027792
12284.68,0.028733
12313.86,0.029448
12343.18,0.030095
12372.64,0.031075
12402.24,0.032081
12431.98,0.032913
12461.86,0.033747
12491.89,0.034291
12522.07,0.034725
12552.38,0.035291
12582.85,0.035692
12613.47,0.036009
12644.23,0.036111
12675.15,0.036297
12706.21,0.036288
12737.43,0.036525
12768.81,0.036754
12800.33,0.036689
12832.02,0.036744
12863.86,0.037
12895.86,0.037046
12928.02,0.037153
12960.34,0.037343
12992.82,0.03728
13025.46,0.037118
13058.27,0.03723
13091.25,0.037353
13124.39,0.03768
13157.7,0.037826
13191.18,0.037782
13224.83,0.037768
13258.66,0.037686
13292.65,0.037607
13326.83,0.037514
13361.17,0.037231
13395.7,0.037089
13430.4,0.036747
13465.29,0.036394
13500.35,0.036173
13535.6,0.035924
13571.03,0.035575
13606.65,0.035259
13642.46,0.034885
13678.46,0.034333
13714.64,0.034092
13751.02,0.033873
13787.59,0.033488
13824.36,0.033128
13861.32,0.032731
13898.49,0.032274
13935.85,0.031947
13973.41,0.031749
14011.17,0.031366
14049.15,0.030965
14087.32,0.030939
14125.71,0.03087
14164.3,0.030321
14203.11,0.030208
14242.13,0.03019
14281.36,0.029947
14320.81,0.029603
14360.49,0.029431
14400.38,0.029123
14440.49,0.029329
14480.82,0.029648
14521.39,0.02981
14562.18,0.030028
14603.2,0.030306
14644.45,0.030557
14685.93,0.030865
14727.66,0.031305
14769.62,0.032214
14811.81,0.033008
14854.25,0.033961
14896.94,0.034821
14939.87,0.035358
14983.05,0.035913
15026.48,0.036318
15070.16,0.036371
15114.1,0.036271
15158.29,0.035924
15202.74,0.035568
15247.46,0.03523
15292.43,0.034639
15337.68,0.034211
15383.19,0.033879
15428.97,0.033517
15475.03,0.033241
15521.36,0.033042
15567.97,0.033108
15614.87,0.032864
15662.04,0.032817
15709.5,0.033206
15757.25,0.03378
15805.29,0.03439
15853.62,0.034967
15902.26,0.03514
15951.19,0.035431
16000.42,0.036041
16049.95,0.036598
16099.8,0.036838
16149.95,0.037142
16200.42,0.037304
16251.21,0.037413
16302.31,0.038026
16353.74,0.038565
16405.49,0.038821
16457.57,0.03938
16509.98,0.040407
16562.73,0.041309
16615.82,0.042317
16669.24,0.043756
16723.02,0.044826
16777.14,0.04582
16831.61,0.04689
16886.43,0.048167
16941.62,0.048988
16997.16,0.04976
17053.08,0.050407
17109.36,0.050732
17166.01,0.051091
17223.04,0.051894
17280.45,0.052707
17338.24,0.053834
17396.43,0.054538
17455.0,0.055272
17513.97,0.056376
17573.34,0.057352
17633.11,0.058121
17693.29,0.059244
17753.89,0.060586
17814.9,0.061562
17876.33,0.0621
17938.18,0.062094
18000.47,0.061454
18063.19,0.060517
18126.35,0.05946
18189.95,0.058057
18254.0,0.056742
18318.5,0.056093
18383.46,0.05582
18448.88,0.055392
18514.77,0.055187
18581.13,0.055665
18647.97,0.056569
18715.29,0.057166
18783.1,0.057628
18851.4,0.058131
18920.2,0.058523
18989.51,0.058925
19059.32,0.058939
19129.65,0.058752
19200.5,0.058864
19271.88,0.059561
19343.79,0.059855
19416.24,0.059652
19489.23,0.059529
19562.77,0.059748
19636.88,0.059621
19711.54,0.059639
19786.78,0.060187
19862.59,0.061239
19938.98,0.0622
20015.96,0.062626
20093.55,0.062543
20171.73,0.062607
20250.53,0.062718
20329.94,0.062589
20409.98,0.062298
20490.65,0.061274
20571.96,0.0604
20653.92,0.06015
20736.54,0.060109
20819.82,0.060645
20903.77,0.061256
20988.4,0.061597
21073.72,0.061495
21159.73,0.060425
21246.46,0.059393
21333.89,0.060929
21422.04,0.059565
21510.93,0.057358
21600.56,0.056522
21690.94,0.055441
21782.08,0.054554
21873.99,0.05254
21966.67,0.04979
22060.15,0.049507
22154.42,0.052165
22249.51,0.05406
22345.41,0.055101
22442.14,0.055987
22539.72,0.056285
22638.14,0.056756
22737.43,0.057039
22837.6,0.056042
22938.65,0.054745
23040.6,0.053656
23143.46,0.052177
23247.24,0.050622
23351.96,0.049191
23457.63,0.047849
23564.25,0.046489
23671.85,0.044711
23780.44,0.044852
23890.02,0.04813
24000.63,0.047942
24112.26,0.045521
24224.93,0.046312
24338.66,0.048963
24453.47,0.05014
24569.36,0.049042
24686.36,0.048761
24804.47,0.048516
24923.73,0.048424
25044.13,0.050433
25165.71,0.048231
25288.46,0.045864
25412.43,0.044174
25537.61,0.044235
25664.04,0.04207
25791.72,0.037114
25920.68,0.037052
