Database of Origin,University of Winnipeg Spectrophotometer Facility
Sample Description,See Master Clays in HOSERLab database
Date Added,2016-12-11 20:58:41.879847

Data ID,RLA_CLAY_34         
Sample ID,ALL001
Mineral Name,Allophane
Grain Size,<45um
Viewing Geometry,"30/0,30"
Resolution,"5,0.6-129"
Material Class,Phyllosilicate

Wavelength
305.0,0.106349
310.0,0.117991
315.0,0.126049
320.0,0.137121
325.0,0.148152
330.0,0.163105
335.0,0.182156
340.0,0.208306
345.0,0.234878
350.0,0.26339
355.0,0.290617
360.0,0.323414
365.0,0.362077
370.0,0.399607
375.0,0.431292
380.0,0.460641
385.0,0.486262
390.0,0.513385
395.0,0.543109
400.0,0.569744
405.0,0.581698
410.0,0.597506
415.0,0.620739
420.0,0.630247
425.0,0.6397
430.0,0.653281
435.0,0.661258
440.0,0.671732
445.0,0.683151
450.0,0.686452
455.0,0.698419
460.0,0.702532
465.0,0.708421
470.0,0.715227
475.0,0.718874
480.0,0.723384
485.0,0.724049
490.0,0.728039
495.0,0.729525
500.0,0.729323
505.0,0.731602
510.0,0.726047
515.0,0.727927
520.0,0.719795
525.0,0.719378
530.0,0.709813
535.0,0.703969
540.0,0.694593
545.0,0.684803
550.0,0.674231
555.0,0.661376
560.0,0.64997
565.0,0.634934
570.0,0.622582
575.0,0.605806
580.0,0.591394
585.0,0.576118
590.0,0.558597
595.0,0.545668
600.0,0.525867
605.0,0.513998
610.0,0.496062
615.0,0.481962
620.0,0.466342
625.0,0.452433
630.0,0.440128
635.0,0.426361
640.0,0.415561
645.0,0.403913
650.0,0.394429
655.0,0.383968
660.0,0.376491
665.0,0.368293
670.0,0.360815
675.0,0.355441
680.0,0.348156
685.0,0.344102
690.0,0.338224
695.0,0.334832
700.0,0.331505
705.0,0.327586
710.0,0.326208
715.0,0.322866
720.0,0.323194
725.0,0.318108
730.0,0.317544
735.0,0.318036
740.0,0.316723
745.0,0.318615
750.0,0.319217
755.0,0.318762
760.0,0.321663
765.0,0.320968
770.0,0.324466
775.0,0.326487
780.0,0.326887
785.0,0.330976
790.0,0.33194
795.0,0.334351
800.0,0.336026
805.0,0.338967
810.0,0.342054
815.0,0.34388
820.0,0.347143
825.0,0.350477
830.0,0.352114
835.0,0.354346
840.0,0.358084
845.0,0.361484
850.0,0.364696
855.0,0.367832
860.0,0.370984
865.0,0.374403
870.0,0.378523
875.0,0.38328
880.0,0.385809
885.0,0.390475
890.0,0.393736
895.0,0.394639
900.0,0.398973
905.0,0.404176
910.0,0.407495
915.0,0.410301
920.0,0.414625
925.0,0.418646
930.0,0.423687
935.0,0.427797
940.0,0.432486
945.0,0.436201
950.0,0.440591
955.0,0.444325
960.0,0.447982
965.0,0.452949
970.0,0.458957
975.0,0.463238
980.0,0.466811
985.0,0.471666
990.0,0.474075
995.0,0.476677
1000.0,0.480359
1005.0,0.484527
1010.0,0.488525
1015.0,0.493838
1020.0,0.498434
1025.0,0.50241
1030.0,0.50576
1035.0,0.509081
1040.0,0.512036
1045.0,0.515087
1050.0,0.517728
1055.0,0.521204
1060.0,0.524889
1065.0,0.528134
1070.0,0.532462
1075.0,0.536723
1080.0,0.540182
1085.0,0.543793
1090.0,0.547773
1095.0,0.550633
1100.0,0.554266
1105.0,0.557551
1110.0,0.560569
1115.0,0.563723
1120.0,0.56608
1125.0,0.568403
1130.0,0.571398
1135.0,0.573761
1140.0,0.576494
1145.0,0.579327
1150.0,0.582701
1155.0,0.584668
1160.0,0.587577
1165.0,0.589949
1170.0,0.592956
1175.0,0.595489
1180.0,0.599035
1185.0,0.601497
1190.0,0.604413
1195.0,0.606629
1200.0,0.608255
1205.0,0.611695
1210.0,0.613939
1215.0,0.615789
1220.0,0.617985
1225.0,0.620622
1230.0,0.621139
1235.0,0.62335
1240.0,0.625531
1245.0,0.627702
1250.0,0.629783
1255.0,0.632212
1260.0,0.634459
1265.0,0.636379
1270.0,0.638208
1275.0,0.639771
1280.0,0.641356
1285.0,0.643219
1290.0,0.645598
1295.0,0.647169
1300.0,0.648971
1305.0,0.650882
1310.0,0.652976
1315.0,0.654064
1320.0,0.655907
1325.0,0.657035
1330.0,0.658225
1335.0,0.659333
1340.0,0.660515
1345.0,0.659935
1350.0,0.659529
1355.0,0.66085
1360.0,0.661692
1365.0,0.661748
1370.0,0.662046
1375.0,0.663594
1380.0,0.662564
1385.0,0.658922
1390.0,0.654729
1395.0,0.648198
1400.0,0.638367
1405.0,0.626229
1410.0,0.619423
1415.0,0.603354
1420.0,0.61876
1425.0,0.627174
1430.0,0.634418
1435.0,0.646358
1440.0,0.645429
1445.0,0.649537
1450.0,0.65137
1455.0,0.653604
1460.0,0.655724
1465.0,0.657779
1470.0,0.65947
1475.0,0.661346
1480.0,0.663698
1485.0,0.666136
1490.0,0.669666
1495.0,0.672023
1500.0,0.67542
1505.0,0.677341
1510.0,0.680167
1515.0,0.681322
1520.0,0.682836
1525.0,0.683885
1530.0,0.684799
1535.0,0.684887
1540.0,0.686658
1545.0,0.687641
1550.0,0.688993
1555.0,0.691267
1560.0,0.69215
1565.0,0.692737
1570.0,0.694424
1575.0,0.694283
1580.0,0.694886
1585.0,0.696102
1590.0,0.697203
1595.0,0.69754
1600.0,0.699505
1605.0,0.700922
1610.0,0.701328
1615.0,0.700648
1620.0,0.70119
1625.0,0.700394
1630.0,0.69911
1635.0,0.699612
1640.0,0.700185
1645.0,0.701715
1650.0,0.702728
1655.0,0.70653
1660.0,0.707821
1665.0,0.710441
1670.0,0.711383
1675.0,0.712733
1680.0,0.710509
1685.0,0.711087
1690.0,0.709327
1695.0,0.709965
1700.0,0.710504
1705.0,0.710372
1710.0,0.711338
1715.0,0.710594
1720.0,0.711383
1725.0,0.70991
1730.0,0.709851
1735.0,0.709018
1740.0,0.708168
1745.0,0.707734
1750.0,0.70863
1755.0,0.708599
1760.0,0.706633
1765.0,0.704537
1770.0,0.706989
1775.0,0.703387
1780.0,0.705189
1785.0,0.703807
1790.0,0.704383
1795.0,0.705251
1800.0,0.702461
1805.0,0.704676
1810.0,0.700094
1815.0,0.701199
1820.0,0.698196
1825.0,0.703741
1830.0,0.701176
1835.0,0.695581
1840.0,0.701235
1845.0,0.701539
1850.0,0.700313
1855.0,0.699933
1860.0,0.69486
1865.0,0.690889
1870.0,0.667305
1875.0,0.67802
1880.0,0.659339
1885.0,0.631157
1890.0,0.615277
1895.0,0.585622
1900.0,0.559412
1905.0,0.539033
1910.0,0.533753
1915.0,0.530043
1920.0,0.533834
1925.0,0.542533
1930.0,0.546867
1935.0,0.553176
1940.0,0.555225
1945.0,0.559718
1950.0,0.566868
1955.0,0.567206
1960.0,0.574495
1965.0,0.578135
1970.0,0.581073
1975.0,0.589136
1980.0,0.589081
1985.0,0.595484
1990.0,0.600013
1995.0,0.604676
2000.0,0.607364
2005.0,0.610367
2010.0,0.618697
2015.0,0.619165
2020.0,0.626349
2025.0,0.629609
2030.0,0.634632
2035.0,0.636934
2040.0,0.636934
2045.0,0.640208
2050.0,0.640518
2055.0,0.643982
2060.0,0.646518
2065.0,0.645013
2070.0,0.64778
2075.0,0.648609
2080.0,0.650618
2085.0,0.651122
2090.0,0.651121
2095.0,0.652863
2100.0,0.652275
2105.0,0.654529
2110.0,0.652494
2115.0,0.654844
2120.0,0.650848
2125.0,0.656376
2130.0,0.653746
2135.0,0.65282
2140.0,0.650446
2145.0,0.650751
2150.0,0.646036
2155.0,0.644747
2160.0,0.641841
2165.0,0.641816
2170.0,0.636388
2175.0,0.637871
2180.0,0.636048
2185.0,0.632168
2190.0,0.631079
2195.0,0.622643
2200.0,0.623808
2205.0,0.618511
2210.0,0.607527
2215.0,0.612391
2220.0,0.61328
2225.0,0.612931
2230.0,0.605131
2235.0,0.598707
2240.0,0.586063
2245.0,0.576172
2250.0,0.56933
2255.0,0.560465
2260.0,0.564259
2265.0,0.566462
2270.0,0.567933
2275.0,0.569301
2280.0,0.572389
2285.0,0.578365
2290.0,0.584068
2295.0,0.587547
2300.0,0.590772
2305.0,0.595739
2310.0,0.594681
2315.0,0.591682
2320.0,0.59232
2325.0,0.59173
2330.0,0.591129
2335.0,0.587976
2340.0,0.588851
2345.0,0.584346
2350.0,0.581972
2355.0,0.579086
2360.0,0.572687
2365.0,0.571771
2370.0,0.561517
2375.0,0.558734
2380.0,0.549972
2385.0,0.544339
2390.0,0.542452
2395.0,0.540201
2400.0,0.533931
2405.0,0.529967
2410.0,0.532485
2415.0,0.524991
2420.0,0.523123
2425.0,0.524269
2430.0,0.518187
2435.0,0.515099
2440.0,0.504433
2445.0,0.504922
2450.0,0.498818
2455.0,0.493013
2460.0,0.489465
2465.0,0.485298
2470.0,0.484499
2475.0,0.480397
2480.0,0.480447
2485.0,0.475901
2490.0,0.469578
2495.0,0.469876
2500.0,0.464744
2505.0,0.458987
2509.26,0.45841
2511.69,0.457802
2514.13,0.457072
2516.57,0.456331
2519.02,0.455421
2521.47,0.454477
2523.92,0.453608
2526.38,0.45289
2528.85,0.4519
2531.32,0.45092
2533.79,0.450183
2536.27,0.44942
2538.75,0.448447
2541.24,0.447503
2543.74,0.446425
2546.24,0.445394
2548.74,0.444229
2551.25,0.443215
2553.76,0.442261
2556.28,0.441232
2558.8,0.440054
2561.33,0.438714
2563.86,0.43714
2566.4,0.435826
2568.95,0.434774
2571.5,0.433525
2574.05,0.432002
2576.61,0.430667
2579.17,0.429538
2581.74,0.428607
2584.31,0.427444
2586.89,0.426285
2589.48,0.425414
2592.07,0.424502
2594.66,0.423205
2597.26,0.421592
2599.87,0.42071
2602.48,0.419756
2605.09,0.418073
2607.71,0.416503
2610.34,0.415065
2612.97,0.413821
2615.61,0.412273
2618.25,0.410581
2620.9,0.408749
2623.55,0.407273
2626.21,0.405605
2628.87,0.403752
2631.54,0.401746
2634.22,0.399615
2636.89,0.397351
2639.58,0.395136
2642.27,0.392349
2644.97,0.389472
2647.67,0.386168
2650.38,0.382845
2653.09,0.379081
2655.81,0.374671
2658.53,0.369642
2661.26,0.363923
2664.0,0.356902
2666.74,0.347712
2669.48,0.332009
2672.23,0.3079
2674.99,0.281452
2677.76,0.262928
2680.52,0.243086
2683.3,0.215586
2686.08,0.19199
2688.87,0.189532
2691.66,0.196783
2694.46,0.196419
2697.26,0.187706
2700.07,0.175349
2702.89,0.160962
2705.71,0.146937
2708.53,0.137852
2711.37,0.134928
2714.21,0.136031
2717.05,0.137812
2719.9,0.137343
2722.76,0.132827
2725.62,0.124709
2728.49,0.116498
2731.37,0.109681
2734.25,0.102264
2737.14,0.093462
2740.03,0.085351
2742.93,0.079039
2745.83,0.074513
2748.75,0.070974
2751.66,0.066884
2754.59,0.062317
2757.52,0.056798
2760.46,0.051047
2763.4,0.047762
2766.35,0.048235
2769.3,0.050369
2772.26,0.05215
2775.23,0.053264
2778.21,0.054025
2781.19,0.0547
2784.18,0.055865
2787.17,0.057243
2790.17,0.058845
2793.18,0.060336
2796.19,0.062
2799.21,0.063585
2802.24,0.065099
2805.27,0.066437
2808.31,0.067796
2811.35,0.069142
2814.41,0.070423
2817.46,0.07146
2820.53,0.072414
2823.6,0.073298
2826.68,0.074238
2829.77,0.074732
2832.86,0.075339
2835.96,0.075797
2839.07,0.076057
2842.18,0.076033
2845.3,0.076129
2848.43,0.076202
2851.56,0.076568
2854.7,0.076724
2857.85,0.076711
2861.0,0.076856
2864.16,0.077037
2867.33,0.07686
2870.51,0.0767
2873.69,0.076773
2876.88,0.077207
2880.07,0.077007
2883.28,0.076866
2886.49,0.077199
2889.71,0.077699
2892.93,0.077738
2896.17,0.077816
2899.4,0.07775
2902.65,0.077889
2905.91,0.077976
2909.17,0.078262
2912.44,0.07833
2915.71,0.078396
2918.99,0.07853
2922.29,0.078947
2925.58,0.079269
2928.89,0.079593
2932.2,0.079851
2935.52,0.080185
2938.85,0.080292
2942.19,0.080541
2945.53,0.080897
2948.88,0.08141
2952.24,0.081625
2955.61,0.081842
2958.98,0.082079
2962.36,0.082658
2965.75,0.08321
2969.15,0.083674
2972.55,0.084177
2975.97,0.08482
2979.39,0.085231
2982.82,0.085919
2986.25,0.086301
2989.7,0.086663
2993.15,0.087385
2996.61,0.088069
3000.08,0.088716
3003.55,0.089317
3007.04,0.089826
3010.53,0.090712
3014.03,0.091187
3017.54,0.091411
3021.06,0.091818
3024.58,0.092519
3028.12,0.093315
3031.66,0.093824
3035.21,0.093839
3038.77,0.094161
3042.33,0.094561
3045.91,0.095181
3049.49,0.095537
3053.08,0.095693
3056.68,0.096061
3060.29,0.096447
3063.91,0.096609
3067.54,0.096954
3071.17,0.097201
3074.81,0.097642
3078.47,0.097893
3082.13,0.098251
3085.79,0.098694
3089.47,0.099337
3093.16,0.099968
3096.85,0.100705
3100.56,0.101084
3104.27,0.102047
3107.99,0.102396
3111.73,0.102519
3115.47,0.103399
3119.21,0.104034
3122.97,0.105049
3126.74,0.105511
3130.52,0.106408
3134.3,0.107222
3138.1,0.107581
3141.9,0.108617
3145.71,0.11014
3149.54,0.110319
3153.37,0.111114
3155.29,0.111599
3157.21,0.111845
3159.13,0.112053
3161.06,0.112225
3162.99,0.112864
3164.92,0.113786
3166.85,0.114303
3168.79,0.114594
3170.72,0.114894
3172.67,0.115527
3174.61,0.115825
3176.55,0.115814
3178.5,0.116287
3180.45,0.117048
3182.4,0.117114
3184.36,0.117722
3186.32,0.118377
3188.27,0.118585
3190.24,0.119219
3192.2,0.119752
3194.17,0.12009
3196.14,0.120707
3198.11,0.121486
3200.08,0.122269
3202.06,0.122431
3204.04,0.122466
3206.02,0.122651
3208.0,0.12271
3209.99,0.123161
3211.98,0.123716
3213.97,0.124073
3215.96,0.124319
3217.96,0.124865
3219.96,0.125353
3221.96,0.125775
3223.96,0.12617
3225.97,0.126572
3227.98,0.12683
3229.99,0.127389
3232.0,0.127905
3234.02,0.128135
3236.04,0.128645
3238.06,0.129002
3240.08,0.129719
3242.11,0.130467
3244.14,0.13063
3246.17,0.130909
3248.2,0.131438
3250.24,0.131617
3252.28,0.131977
3254.32,0.132472
3256.37,0.132989
3258.41,0.133769
3260.46,0.134042
3262.51,0.134493
3264.57,0.134775
3266.63,0.134765
3268.69,0.135325
3270.75,0.135805
3272.81,0.136435
3274.88,0.136894
3276.95,0.137034
3279.02,0.137296
3281.1,0.138041
3283.18,0.138514
3285.26,0.139051
3287.34,0.139597
3289.43,0.139882
3291.51,0.14027
3293.61,0.140717
3295.7,0.141035
3297.8,0.141533
3299.9,0.141804
3302.0,0.142389
3304.1,0.142939
3306.21,0.143283
3308.32,0.143683
3310.43,0.143995
3312.55,0.144518
3314.66,0.144999
3316.79,0.145574
3318.91,0.14594
3321.03,0.14629
3323.16,0.146539
3325.29,0.146532
3327.43,0.146837
3329.57,0.147052
3331.71,0.14747
3333.85,0.148132
3335.99,0.148602
3338.14,0.14895
3340.29,0.148785
3342.45,0.148516
3344.6,0.148584
3346.76,0.148602
3348.92,0.148887
3351.09,0.14909
3353.26,0.148837
3355.43,0.149202
3357.6,0.149476
3359.78,0.149329
3361.96,0.149346
3364.14,0.149802
3366.32,0.150237
3368.51,0.150234
3370.7,0.149813
3372.89,0.149486
3375.09,0.149646
3377.29,0.150203
3379.49,0.150494
3381.69,0.150704
3383.9,0.151334
3386.11,0.151843
3388.32,0.152191
3390.54,0.152575
3392.76,0.153039
3394.98,0.153343
3397.21,0.153646
3399.43,0.153656
3401.66,0.15372
3403.9,0.153553
3406.13,0.153287
3408.37,0.153414
3410.61,0.153691
3412.86,0.153981
3415.11,0.154435
3417.36,0.154882
3419.61,0.155391
3421.87,0.156059
3424.13,0.156975
3426.39,0.158134
3428.66,0.159515
3430.93,0.160404
3433.2,0.161054
3435.48,0.161959
3437.76,0.162912
3440.04,0.163779
3442.32,0.164732
3444.61,0.165691
3446.9,0.166049
3449.19,0.166441
3451.49,0.166937
3453.79,0.167855
3456.09,0.168841
3458.4,0.16958
3460.7,0.170258
3463.02,0.170833
3465.33,0.171006
3467.65,0.171222
3469.97,0.171449
3472.29,0.171704
3474.62,0.172184
3476.95,0.1727
3479.29,0.17315
3481.62,0.173551
3483.96,0.173946
3486.3,0.174312
3488.65,0.174938
3491.0,0.175703
3493.35,0.176237
3495.71,0.176794
3498.07,0.177178
3500.43,0.177107
3502.79,0.17709
3505.16,0.177561
3507.53,0.178552
3509.91,0.179742
3512.29,0.180532
3514.67,0.181585
3517.05,0.182944
3519.44,0.184023
3521.83,0.185092
3524.23,0.186082
3526.62,0.186841
3529.02,0.18784
3531.43,0.18901
3533.83,0.189914
3536.24,0.190649
3538.66,0.191705
3541.08,0.192697
3543.5,0.193486
3545.92,0.194046
3548.35,0.194836
3550.78,0.19565
3553.21,0.196248
3555.65,0.196883
3558.09,0.197649
3560.53,0.19793
3562.98,0.198432
3565.43,0.199245
3567.88,0.200101
3570.34,0.200354
3572.8,0.20065
3575.27,0.201345
3577.73,0.201893
3580.2,0.202475
3582.68,0.203349
3585.16,0.203646
3587.64,0.203811
3590.12,0.20437
3592.61,0.205129
3595.1,0.20549
3597.6,0.20618
3600.09,0.207028
3602.6,0.207523
3605.1,0.207888
3607.61,0.208303
3610.12,0.208814
3612.64,0.209406
3615.16,0.209839
3617.68,0.210224
3620.21,0.21078
3622.74,0.211546
3625.27,0.212189
3627.81,0.212554
3630.35,0.212986
3632.89,0.213487
3635.44,0.213974
3637.99,0.214427
3640.54,0.214988
3643.1,0.215646
3645.66,0.21617
3648.23,0.216694
3650.8,0.216963
3653.37,0.217293
3655.95,0.217778
3658.53,0.218028
3661.11,0.218654
3663.7,0.21954
3666.29,0.220195
3668.89,0.220465
3671.48,0.220917
3674.09,0.22151
3676.69,0.222138
3679.3,0.222849
3681.91,0.223381
3684.53,0.223822
3687.15,0.224383
3689.78,0.224847
3692.4,0.225173
3695.04,0.225718
3697.67,0.226198
3700.31,0.226778
3702.95,0.226924
3705.6,0.227353
3708.25,0.227968
3710.91,0.228764
3713.56,0.229307
3716.23,0.229637
3718.89,0.229947
3721.56,0.230712
3724.23,0.23137
3726.91,0.231658
3729.59,0.232051
3732.28,0.23259
3734.97,0.232964
3737.66,0.233319
3740.36,0.233663
3743.06,0.234107
3745.76,0.234735
3748.47,0.235478
3751.18,0.235929
3753.9,0.23625
3756.62,0.236727
3759.34,0.237171
3762.07,0.237857
3764.8,0.23861
3767.54,0.239123
3770.28,0.239412
3773.02,0.239955
3775.77,0.24063
3778.52,0.240951
3781.28,0.241033
3784.04,0.241129
3786.8,0.241346
3789.57,0.24193
3792.34,0.242675
3795.12,0.243091
3797.9,0.243492
3800.69,0.243503
3803.47,0.243698
3806.27,0.244525
3809.06,0.245217
3811.86,0.245393
3814.67,0.245841
3817.48,0.246264
3820.29,0.246641
3823.11,0.247019
3825.93,0.247391
3828.76,0.247772
3831.59,0.247952
3834.42,0.248253
3837.26,0.248746
3840.1,0.249064
3842.95,0.249512
3845.8,0.249884
3848.65,0.25018
3851.51,0.250368
3854.38,0.250733
3857.24,0.251231
3860.12,0.251331
3862.99,0.251336
3865.87,0.25185
3868.76,0.252194
3871.65,0.252429
3874.54,0.252713
3877.44,0.253038
3880.34,0.253404
3883.25,0.253727
3886.16,0.253931
3889.07,0.253843
3891.99,0.25391
3894.92,0.254525
3897.85,0.254936
3900.78,0.255145
3903.72,0.255363
3906.66,0.255436
3909.6,0.255367
3912.55,0.255416
3915.51,0.255476
3918.47,0.255992
3921.43,0.256631
3924.4,0.256758
3927.38,0.256997
3930.35,0.257036
3933.33,0.25716
3936.32,0.257378
3939.31,0.25749
3942.31,0.257643
3945.31,0.257546
3948.31,0.257602
3951.32,0.257722
3954.34,0.257739
3957.35,0.257736
3960.38,0.257993
3963.41,0.258259
3966.44,0.258343
3969.48,0.258405
3972.52,0.25845
3975.56,0.25857
3978.61,0.258821
3981.67,0.259027
3984.73,0.259043
3987.8,0.259199
3990.87,0.259319
3993.94,0.259063
3997.02,0.259085
4000.1,0.259576
4003.19,0.259726
4006.29,0.259695
4009.39,0.259439
4012.49,0.25931
4015.6,0.259562
4018.71,0.259429
4021.83,0.259514
4024.95,0.259887
4028.08,0.260035
4031.21,0.259746
4034.35,0.259474
4037.49,0.259461
4040.64,0.25956
4043.79,0.259397
4046.94,0.259511
4050.11,0.25957
4053.27,0.259402
4056.44,0.259339
4059.62,0.259382
4062.8,0.259205
4065.99,0.259151
4069.18,0.258966
4072.38,0.258677
4075.58,0.258696
4078.78,0.258864
4082.0,0.25887
4085.21,0.258855
4088.43,0.258807
4091.66,0.258538
4094.89,0.25827
4098.13,0.258185
4101.37,0.258084
4104.62,0.257775
4107.87,0.257503
4111.13,0.257701
4114.39,0.257432
4117.66,0.257169
4120.93,0.25724
4124.21,0.256983
4127.5,0.256619
4130.79,0.256715
4134.08,0.257065
4137.38,0.25704
4140.68,0.256497
4143.99,0.256314
4147.31,0.256212
4150.63,0.256204
4153.95,0.256043
4157.29,0.255695
4160.62,0.255595
4163.96,0.255758
4167.31,0.255763
4170.66,0.255545
4174.02,0.255227
4177.39,0.255157
4180.75,0.254986
4184.13,0.254969
4187.51,0.254725
4190.89,0.254255
4194.28,0.254075
4197.68,0.254097
4201.08,0.254069
4204.49,0.254225
4207.9,0.254323
4211.32,0.254278
4214.74,0.254275
4218.17,0.254388
4221.61,0.254331
4225.05,0.25466
4228.5,0.254786
4231.95,0.25481
4235.4,0.254678
4238.87,0.254698
4242.34,0.254693
4245.81,0.254364
4249.29,0.253698
4252.78,0.253099
4256.27,0.252754
4259.77,0.25251
4263.27,0.252712
4266.78,0.253166
4270.29,0.252835
4273.81,0.252337
4277.34,0.252298
4280.87,0.25243
4284.41,0.252451
4287.95,0.25255
4291.5,0.252524
4295.06,0.252201
4298.62,0.251727
4302.19,0.251656
4305.76,0.251736
4309.34,0.251537
4312.92,0.251177
4316.52,0.251215
4320.11,0.251182
4323.72,0.250805
4327.32,0.250374
4330.94,0.250274
4334.56,0.25027
4338.19,0.250192
4341.82,0.249888
4345.46,0.24983
4349.11,0.24981
4352.76,0.24992
4356.42,0.249765
4360.08,0.249668
4363.75,0.249729
4367.43,0.249624
4371.11,0.249575
4374.8,0.249601
4378.49,0.249451
4382.19,0.249332
4385.9,0.249186
4389.61,0.249213
4393.33,0.249285
4397.06,0.249454
4400.79,0.24934
4404.53,0.249066
4408.28,0.249025
4412.03,0.249116
4415.79,0.249312
4419.55,0.249505
4423.32,0.249294
4427.1,0.24896
4430.88,0.248902
4434.68,0.249214
4438.47,0.249106
4442.28,0.249063
4446.08,0.249276
4449.9,0.24945
4453.72,0.249437
4457.55,0.24935
4461.39,0.249072
4465.23,0.249018
4469.08,0.24909
4472.94,0.249279
4476.8,0.249431
4480.67,0.249537
4484.55,0.24964
4488.43,0.249635
4492.32,0.249675
4496.21,0.250052
4500.12,0.2502
4504.03,0.250111
4507.94,0.249964
4511.87,0.249797
4515.8,0.249785
4519.73,0.250112
4523.68,0.250274
4527.63,0.250353
4531.59,0.250442
4535.55,0.250446
4539.52,0.250441
4543.5,0.250365
4547.49,0.25046
4551.48,0.250633
4555.48,0.250387
4559.49,0.250436
4563.5,0.250556
4567.52,0.250527
4571.55,0.250352
4575.58,0.250199
4579.63,0.250032
4583.67,0.250114
4587.73,0.250152
4591.79,0.25011
4595.86,0.250107
4599.94,0.25026
4604.03,0.250179
4608.12,0.250109
4612.22,0.249943
4616.33,0.249842
4620.44,0.250115
4624.56,0.25035
4628.69,0.249961
4632.83,0.249638
4636.97,0.249662
4641.12,0.249771
4645.28,0.249639
4649.45,0.249694
4653.62,0.249757
4657.8,0.249762
4661.99,0.249478
4666.19,0.249251
4670.39,0.249185
4674.6,0.249121
4678.82,0.249056
4683.05,0.249128
4687.28,0.249121
4691.52,0.249143
4695.77,0.24908
4700.03,0.249135
4704.3,0.248967
4708.57,0.248838
4712.85,0.248718
4717.14,0.248587
4721.43,0.248557
4725.74,0.248715
4730.05,0.248634
4734.37,0.24855
4738.7,0.248406
4743.03,0.248312
4747.38,0.248222
4751.73,0.248294
4756.09,0.248201
4760.45,0.248176
4764.83,0.247906
4769.21,0.247676
4773.6,0.247554
4778.0,0.247511
4782.41,0.246944
4786.83,0.246667
4791.25,0.246441
4795.68,0.246283
4800.13,0.246082
4804.57,0.245929
4809.03,0.245379
4813.5,0.244964
4817.97,0.244614
4822.45,0.244177
4826.94,0.243844
4831.44,0.243333
4835.95,0.242729
4840.46,0.242451
4844.99,0.242063
4849.52,0.241311
4854.06,0.240357
4858.61,0.239736
4863.17,0.239104
4867.73,0.238621
4872.31,0.237961
4876.89,0.237047
4881.48,0.236125
4886.08,0.23536
4890.69,0.234426
4895.31,0.233375
4899.94,0.232262
4904.57,0.231426
4909.22,0.230254
4913.87,0.228964
4918.53,0.227497
4923.21,0.226524
4927.88,0.225489
4932.57,0.224529
4937.27,0.223591
4941.98,0.222879
4946.69,0.222102
4951.42,0.221149
4956.15,0.220282
4960.9,0.219397
4965.65,0.218369
4970.41,0.217608
4975.18,0.216909
4979.96,0.215947
4984.75,0.215038
4989.54,0.214414
4994.35,0.213548
4999.17,0.212721
5003.99,0.212233
5008.83,0.211884
5013.67,0.211416
5018.52,0.210923
5023.39,0.210389
5028.26,0.210121
5033.14,0.2098
5038.03,0.209396
5042.93,0.208744
5047.84,0.208246
5052.76,0.20783
5057.69,0.207424
5062.63,0.206929
5067.58,0.206643
5072.54,0.206347
5077.51,0.205948
5082.49,0.205363
5087.47,0.204772
5092.47,0.204075
5097.48,0.203697
5102.5,0.203349
5107.52,0.20277
5112.56,0.202145
5117.61,0.201435
5122.66,0.200598
5127.73,0.2001
5132.81,0.199467
5137.89,0.19895
5142.99,0.198328
5148.1,0.197651
5153.22,0.196988
5158.34,0.1961
5163.48,0.195397
5168.63,0.194829
5173.79,0.194024
5178.96,0.19317
5184.13,0.192221
5189.32,0.191246
5194.52,0.190434
5199.73,0.189758
5204.96,0.18869
5210.19,0.187554
5215.43,0.186581
5220.68,0.185566
5225.94,0.184112
5231.22,0.182795
5236.5,0.181367
5241.79,0.180017
5247.1,0.178553
5252.42,0.176812
5257.74,0.175171
5263.08,0.17366
5268.43,0.172092
5273.79,0.170783
5279.16,0.169509
5284.54,0.168132
5289.93,0.166703
5295.34,0.165633
5300.75,0.164661
5306.18,0.163667
5311.61,0.162687
5317.06,0.161879
5322.52,0.161123
5327.99,0.160566
5333.47,0.160055
5338.96,0.159736
5344.47,0.159542
5349.98,0.159399
5355.51,0.159655
5361.05,0.160077
5366.6,0.160072
5372.16,0.160572
5377.73,0.161425
5383.32,0.162249
5388.91,0.162975
5394.52,0.163905
5400.14,0.164938
5405.77,0.165874
5411.41,0.166544
5417.07,0.167077
5422.74,0.167674
5428.41,0.168347
5434.1,0.168304
5439.81,0.168484
5445.52,0.168503
5451.25,0.168363
5456.98,0.168221
5462.73,0.168208
5468.5,0.16806
5474.27,0.167566
5480.06,0.166968
5485.86,0.166735
5491.67,0.166176
5497.49,0.165774
5503.33,0.165549
5509.18,0.165483
5515.04,0.165129
5520.91,0.164827
5526.8,0.164547
5532.69,0.164435
5538.61,0.164139
5544.53,0.163881
5550.47,0.16362
5556.41,0.163484
5562.38,0.16326
5568.35,0.163099
5574.34,0.162829
5580.34,0.162969
5586.35,0.163036
5592.38,0.162658
5598.42,0.162239
5604.47,0.162258
5610.54,0.162386
5616.61,0.162431
5622.71,0.162359
5628.81,0.16221
5634.93,0.162337
5641.06,0.162803
5647.21,0.163257
5653.36,0.163184
5659.54,0.162841
5665.72,0.162822
5671.92,0.162574
5678.13,0.162722
5684.36,0.162604
5690.6,0.162484
5696.85,0.162405
5703.12,0.162269
5709.4,0.161845
5715.69,0.162054
5722.0,0.16179
5728.33,0.161398
5734.66,0.160923
5741.01,0.160486
5747.38,0.159726
5753.76,0.159289
5760.15,0.158384
5766.56,0.157733
5772.98,0.15705
5779.41,0.155707
5785.86,0.154376
5792.33,0.153032
5798.81,0.151272
5805.3,0.149776
5811.81,0.147897
5818.33,0.146485
5824.87,0.14485
5831.42,0.142547
5837.99,0.139941
5844.57,0.137639
5851.17,0.135186
5857.78,0.133036
5864.41,0.130722
5871.05,0.12838
5877.7,0.12593
5884.38,0.124444
5891.06,0.121808
5897.76,0.119248
5904.48,0.116504
5911.21,0.113883
5917.96,0.111626
5924.73,0.109364
5931.5,0.10686
5938.3,0.104904
5945.11,0.102575
5951.93,0.100004
5958.78,0.097599
5965.63,0.095642
5972.51,0.093563
5979.39,0.091144
5986.3,0.08898
5993.22,0.087541
6000.16,0.08536
6007.11,0.083208
6014.08,0.081463
6021.06,0.079993
6028.06,0.07806
6035.08,0.076295
6042.12,0.074571
6049.17,0.073769
6056.23,0.072836
6063.32,0.071177
6070.42,0.069498
6077.53,0.068189
6084.67,0.066772
6091.82,0.065707
6098.98,0.064566
6106.17,0.063702
6113.37,0.063136
6120.58,0.06299
6127.82,0.06249
6135.07,0.062277
6142.34,0.062498
6149.63,0.063128
6156.93,0.063946
6164.25,0.065225
6171.59,0.066575
6178.95,0.068047
6186.32,0.069844
6193.71,0.072181
6201.12,0.074194
6208.54,0.075889
6215.99,0.077718
6223.45,0.079365
6230.93,0.080756
6238.43,0.082119
6245.95,0.083311
6253.48,0.084228
6261.03,0.085202
6268.6,0.08619
6276.19,0.086962
6283.8,0.087691
6291.43,0.088514
6299.07,0.089253
6306.73,0.08999
6314.42,0.090924
6322.12,0.091874
6329.84,0.092755
6337.57,0.093788
6345.33,0.095149
6353.11,0.096609
6360.9,0.097277
6368.72,0.09794
6376.55,0.099485
6384.4,0.10039
6392.27,0.101147
6400.17,0.102288
6408.08,0.103121
6416.01,0.104556
6423.96,0.1063
6431.93,0.106426
6439.92,0.106717
6447.93,0.107317
6455.96,0.107904
6464.01,0.108695
6472.08,0.109337
6480.17,0.110161
6488.28,0.110847
6496.41,0.111567
6504.56,0.111813
6512.73,0.111365
6520.92,0.111049
6529.14,0.111235
6537.37,0.111
6545.63,0.110987
6553.9,0.110971
6562.2,0.110867
6570.51,0.110734
6578.85,0.110619
6587.21,0.110241
6595.59,0.109967
6603.99,0.109733
6612.42,0.109346
6620.86,0.109118
6629.33,0.108872
6637.82,0.109025
6646.33,0.108998
6654.86,0.107754
6663.41,0.106954
6671.99,0.106492
6680.59,0.105962
6689.21,0.105436
6697.85,0.10468
6706.51,0.104057
6715.2,0.103494
6723.91,0.102677
6732.64,0.101824
6741.4,0.100971
6750.18,0.100281
6758.98,0.099626
6767.8,0.098552
6776.65,0.097614
6785.52,0.096752
6794.41,0.095849
6803.33,0.094449
6812.27,0.093039
6821.23,0.092247
6830.22,0.091951
6839.23,0.0913
6848.26,0.090379
6857.32,0.089421
6866.4,0.088724
6875.51,0.087766
6884.64,0.086614
6893.8,0.0855
6902.98,0.084545
6912.18,0.083661
6921.41,0.082681
6930.66,0.081399
6939.94,0.08011
6949.24,0.078816
6958.57,0.077944
6967.92,0.077268
6977.3,0.075976
6986.7,0.074914
6996.13,0.074489
7005.59,0.074159
7015.07,0.074308
7024.57,0.074685
7034.1,0.074748
7043.66,0.074691
7053.25,0.07488
7062.85,0.074822
7072.49,0.074595
7082.15,0.074308
7091.84,0.07427
7101.55,0.074233
7111.3,0.074255
7121.06,0.074076
7130.86,0.07355
7140.68,0.0731
7150.53,0.072764
7160.41,0.072261
7170.31,0.071711
7180.24,0.071213
7190.2,0.070735
7200.19,0.070172
7210.2,0.069625
7220.24,0.068993
7230.31,0.068334
7240.41,0.067642
7250.54,0.066863
7260.69,0.066334
7270.88,0.065953
7281.09,0.065214
7291.33,0.064578
7301.6,0.063804
7311.9,0.063103
7322.22,0.062413
7332.58,0.062029
7342.97,0.061334
7353.38,0.0604
7363.83,0.059637
7374.3,0.058945
7384.81,0.058094
7395.34,0.057435
7405.91,0.056543
7416.5,0.056087
7427.13,0.055766
7437.78,0.055493
7448.47,0.055172
7459.19,0.054753
7469.94,0.054302
7480.71,0.053811
7491.52,0.053148
7502.37,0.052521
7513.24,0.051815
7524.14,0.05155
7535.08,0.051153
7546.05,0.050577
7557.05,0.049946
7568.08,0.049471
7579.15,0.048885
7590.24,0.048251
7601.37,0.047755
7612.53,0.047175
7623.73,0.04662
7634.96,0.046524
7646.22,0.046182
7657.51,0.046015
7668.84,0.045937
7680.2,0.045635
7691.59,0.045273
7703.02,0.045041
7714.49,0.044779
7725.98,0.044785
7737.52,0.044588
7749.08,0.044276
7760.68,0.043999
7772.32,0.043774
7783.99,0.043385
7795.69,0.043055
7807.43,0.042544
7819.21,0.042243
7831.02,0.041789
7842.87,0.041261
7854.75,0.040493
7866.67,0.039984
7878.62,0.039619
7890.62,0.039103
7902.64,0.03848
7914.71,0.037864
7926.81,0.036945
7938.95,0.035954
7951.13,0.034808
7963.34,0.033832
7975.59,0.033077
7987.88,0.032245
8000.21,0.031114
8012.57,0.030266
8024.98,0.029477
8037.42,0.028739
8049.9,0.028161
8062.42,0.027607
8074.98,0.026835
8087.57,0.026278
8100.21,0.025837
8112.89,0.025443
8125.6,0.024863
8138.36,0.024508
8151.16,0.023858
8163.99,0.023491
8176.87,0.023313
8189.79,0.023027
8202.75,0.022618
8215.75,0.022456
8228.79,0.022118
8241.87,0.021822
8254.99,0.021525
8268.16,0.021202
8281.37,0.020815
8294.62,0.020524
8307.91,0.0202
8321.24,0.019868
8334.62,0.019732
8348.04,0.019821
8361.51,0.019653
8375.02,0.019681
8388.57,0.01977
8402.16,0.019896
8415.8,0.019884
8429.49,0.019915
8443.22,0.019741
8456.99,0.019782
8470.81,0.020007
8484.67,0.020192
8498.58,0.020145
8512.54,0.020284
8526.54,0.020524
8540.58,0.020756
8554.68,0.020908
8568.82,0.021153
8583.0,0.02144
8597.24,0.021396
8611.52,0.021177
8625.85,0.021377
8640.23,0.02144
8654.65,0.021731
8669.12,0.022185
8683.64,0.022586
8698.21,0.022636
8712.83,0.023239
8727.5,0.023837
8742.22,0.023966
8756.99,0.024259
8771.8,0.024736
8786.67,0.025317
8801.59,0.025878
8816.56,0.026269
8831.58,0.02681
8846.65,0.027218
8861.77,0.02806
8876.94,0.028564
8892.17,0.028816
8907.45,0.029275
8922.78,0.029671
8938.16,0.029973
8953.6,0.030155
8969.09,0.030213
8984.64,0.030537
9000.23,0.030872
9015.89,0.031249
9031.59,0.031744
9047.36,0.032262
9063.17,0.032435
9079.05,0.032905
9094.97,0.03376
9110.96,0.034359
9127.0,0.034518
9143.1,0.034897
9159.25,0.035197
9175.46,0.035853
9191.73,0.036295
9208.06,0.036701
9224.44,0.037147
9240.88,0.037319
9257.38,0.037233
9273.94,0.037495
9290.56,0.037965
9307.24,0.038792
9323.98,0.039019
9340.78,0.039064
9357.64,0.039395
9374.57,0.040052
9391.55,0.04033
9408.59,0.040937
9425.7,0.041109
9442.87,0.041225
9460.1,0.041435
9477.4,0.041808
9494.75,0.041964
9512.17,0.041915
9529.66,0.041469
9547.21,0.04114
9564.83,0.041064
9582.5,0.040902
9600.25,0.040207
9618.06,0.039722
9635.94,0.03903
9653.88,0.038494
9671.89,0.038113
9689.97,0.037894
9708.12,0.037701
9726.33,0.03707
9744.62,0.036356
9762.97,0.036195
9781.39,0.035816
9799.88,0.035175
9818.44,0.034716
9837.07,0.034654
9855.77,0.034639
9874.54,0.034594
9893.39,0.034533
9912.3,0.034447
9931.29,0.034156
9950.36,0.034087
9969.49,0.034315
9988.7,0.034272
10007.98,0.033788
10027.34,0.033991
10046.77,0.034495
10066.28,0.034335
10085.87,0.034128
10105.53,0.034262
10125.26,0.034352
10145.08,0.034653
10164.97,0.034825
10184.94,0.034939
10204.99,0.035062
10225.12,0.035306
10245.33,0.035459
10265.61,0.035476
10285.98,0.035697
10306.43,0.036274
10326.96,0.036618
10347.57,0.036774
10368.27,0.037051
10389.05,0.037345
10409.91,0.037418
10430.86,0.037348
10451.88,0.036999
10473.0,0.036817
10494.2,0.036993
10515.49,0.037421
10536.86,0.037563
10558.32,0.037601
10579.87,0.03743
10601.5,0.037406
10623.23,0.037502
10645.04,0.037565
10666.94,0.037226
10688.94,0.037002
10711.02,0.036825
10733.2,0.036924
10755.47,0.037026
10777.83,0.037168
10800.28,0.037459
10822.83,0.037371
10845.47,0.037198
10868.21,0.037242
10891.04,0.037399
10913.97,0.037521
10936.99,0.037552
10960.12,0.037766
10983.34,0.038076
11006.66,0.038313
11030.07,0.038602
11053.59,0.039198
11077.21,0.039116
11100.93,0.039003
11124.75,0.039213
11148.68,0.039527
11172.71,0.039739
11196.84,0.039821
11221.07,0.039626
11245.41,0.039453
11269.86,0.039308
11294.41,0.039454
11319.07,0.039502
11343.84,0.039278
11368.72,0.039054
11393.7,0.038846
11418.8,0.038682
11444.01,0.038483
11469.33,0.038439
11494.76,0.038466
11520.3,0.038122
11545.96,0.037329
11571.73,0.036714
11597.62,0.036824
11623.62,0.036707
11649.74,0.036085
11675.98,0.035445
11702.34,0.035249
11728.81,0.034706
11755.41,0.033983
11782.13,0.03365
11808.96,0.033552
11835.92,0.033122
11863.01,0.032382
11890.22,0.031697
11917.55,0.031408
11945.01,0.031059
11972.6,0.030532
12000.31,0.030337
12028.16,0.03017
12056.13,0.029682
12084.23,0.029334
12112.46,0.028954
12140.83,0.028662
12169.33,0.028664
12197.96,0.02807
12226.73,0.027285
12255.64,0.027202
12284.68,0.026847
12313.86,0.026612
12343.18,0.026425
12372.64,0.026031
12402.24,0.025454
12431.98,0.025292
12461.86,0.024947
12491.89,0.024539
12522.07,0.024568
12552.38,0.024801
12582.85,0.025196
12613.47,0.025675
12644.23,0.025831
12675.15,0.025957
12706.21,0.026192
12737.43,0.026399
12768.81,0.026427
12800.33,0.026759
12832.02,0.027103
12863.86,0.027848
12895.86,0.028184
12928.02,0.028828
12960.34,0.029457
12992.82,0.029643
13025.46,0.029855
13058.27,0.030505
13091.25,0.030472
13124.39,0.030172
13157.7,0.030458
13191.18,0.030864
13224.83,0.030641
13258.66,0.031219
13292.65,0.031664
13326.83,0.031635
13361.17,0.031704
13395.7,0.031757
13430.4,0.031709
13465.29,0.031587
13500.35,0.031456
13535.6,0.031741
13571.03,0.031567
13606.65,0.03172
13642.46,0.031604
13678.46,0.031293
13714.64,0.031329
13751.02,0.031359
13787.59,0.03126
13824.36,0.031392
13861.32,0.030992
13898.49,0.03073
13935.85,0.030717
13973.41,0.030641
14011.17,0.0301
14049.15,0.030444
14087.32,0.030404
14125.71,0.029483
14164.3,0.028866
14203.11,0.028306
14242.13,0.0277
14281.36,0.027211
14320.81,0.026464
14360.49,0.025891
14400.38,0.025461
14440.49,0.02499
14480.82,0.025095
14521.39,0.02546
14562.18,0.024914
14603.2,0.024389
14644.45,0.024541
14685.93,0.024479
14727.66,0.023932
14769.62,0.022971
14811.81,0.022377
14854.25,0.022509
14896.94,0.022933
14939.87,0.023514
14983.05,0.023774
15026.48,0.023806
15070.16,0.024067
15114.1,0.024513
15158.29,0.024491
15202.74,0.024666
15247.46,0.024294
15292.43,0.023894
15337.68,0.024029
15383.19,0.024036
15428.97,0.02367
15475.03,0.023934
15521.36,0.024258
15567.97,0.024242
15614.87,0.023934
15662.04,0.023679
15709.5,0.023166
15757.25,0.022841
15805.29,0.022578
15853.62,0.022274
15902.26,0.021824
15951.19,0.021459
16000.42,0.021405
16049.95,0.021235
16099.8,0.020637
16149.95,0.019802
16200.42,0.019542
16251.21,0.019615
16302.31,0.019379
16353.74,0.019138
16405.49,0.019511
16457.57,0.019962
16509.98,0.019478
16562.73,0.018927
16615.82,0.018847
16669.24,0.018689
16723.02,0.018353
16777.14,0.018323
16831.61,0.018311
16886.43,0.018041
16941.62,0.017021
16997.16,0.016796
17053.08,0.017323
17109.36,0.017845
17166.01,0.017364
17223.04,0.016896
17280.45,0.016785
17338.24,0.017102
17396.43,0.016719
17455.0,0.016858
17513.97,0.017208
17573.34,0.017126
17633.11,0.017517
17693.29,0.018138
17753.89,0.018988
17814.9,0.019987
17876.33,0.020825
17938.18,0.021543
18000.47,0.022459
18063.19,0.024066
18126.35,0.024942
18189.95,0.026271
18254.0,0.027419
18318.5,0.029629
18383.46,0.031896
18448.88,0.034615
18514.77,0.036707
18581.13,0.037619
18647.97,0.039279
18715.29,0.041872
18783.1,0.043426
18851.4,0.04529
18920.2,0.048605
18989.51,0.050376
19059.32,0.050877
19129.65,0.05246
19200.5,0.054586
19271.88,0.057314
19343.79,0.058594
19416.24,0.059217
19489.23,0.060412
19562.77,0.062456
19636.88,0.062985
19711.54,0.062382
19786.78,0.062312
19862.59,0.063413
19938.98,0.064261
20015.96,0.065107
20093.55,0.065303
20171.73,0.064605
20250.53,0.064214
20329.94,0.064396
20409.98,0.063496
20490.65,0.062406
20571.96,0.061503
20653.92,0.061182
20736.54,0.062604
20819.82,0.063248
20903.77,0.063368
20988.4,0.063946
21073.72,0.065114
21159.73,0.06687
21246.46,0.067374
21333.89,0.066943
21422.04,0.065412
21510.93,0.064479
21600.56,0.063315
21690.94,0.063529
21782.08,0.061857
21873.99,0.060579
21966.67,0.060505
22060.15,0.060259
22154.42,0.060727
22249.51,0.061819
22345.41,0.060894
22442.14,0.059582
22539.72,0.058318
22638.14,0.058182
22737.43,0.056066
22837.6,0.054452
22938.65,0.05404
23040.6,0.055625
23143.46,0.056029
23247.24,0.053394
23351.96,0.051137
23457.63,0.053822
23564.25,0.055731
23671.85,0.057957
23780.44,0.056179
23890.02,0.054572
24000.63,0.053908
24112.26,0.054743
24224.93,0.050542
24338.66,0.048638
24453.47,0.051726
24569.36,0.056962
24686.36,0.052469
24804.47,0.052022
24923.73,0.052979
25044.13,0.052883
25165.71,0.046212
25288.46,0.053199
25412.43,0.062481
25537.61,0.065842
25664.04,0.059583
25791.72,0.058076
25920.68,0.051763
