Database of Origin,University of Winnipeg Spectrophotometer Facility
Sample Description,"Zeolites: RELAB + Nicolet spectra, Merged at 2.5 microns; note change in viewing geometry"
Date Added,2018-07-23 23:09:47.925478

Data ID,RLA_ZEO_1_25        
Sample ID,zeo129
Mineral Name,mordenite
Grain Size,<45 um
Viewing Geometry,"30/0,30"
Resolution,5/.6-129 nm

Wavelength
305.0,0.211155
310.0,0.222867
315.0,0.230632
320.0,0.240505
325.0,0.253778
330.0,0.27084
335.0,0.28637
340.0,0.301623
345.0,0.318224
350.0,0.333412
355.0,0.348779
360.0,0.36199
365.0,0.372479
370.0,0.385403
375.0,0.401584
380.0,0.418244
385.0,0.436136
390.0,0.453575
395.0,0.469546
400.0,0.482753
405.0,0.494492
410.0,0.505442
415.0,0.516602
420.0,0.528257
425.0,0.541106
430.0,0.553288
435.0,0.568491
440.0,0.578925
445.0,0.589845
450.0,0.596954
455.0,0.606483
460.0,0.610911
465.0,0.617777
470.0,0.619714
475.0,0.626902
480.0,0.630202
485.0,0.63738
490.0,0.642491
495.0,0.651739
500.0,0.658422
505.0,0.66787
510.0,0.675126
515.0,0.68435
520.0,0.691047
525.0,0.699536
530.0,0.705517
535.0,0.713849
540.0,0.718552
545.0,0.724853
550.0,0.728616
555.0,0.734103
560.0,0.737097
565.0,0.741137
570.0,0.743425
575.0,0.746692
580.0,0.748987
585.0,0.751307
590.0,0.752677
595.0,0.755265
600.0,0.756546
605.0,0.757948
610.0,0.760222
615.0,0.762472
620.0,0.763323
625.0,0.765721
630.0,0.766824
635.0,0.769167
640.0,0.770824
645.0,0.772045
650.0,0.77349
655.0,0.775087
660.0,0.77709
665.0,0.777368
670.0,0.779874
675.0,0.780025
680.0,0.782283
685.0,0.782555
690.0,0.784495
695.0,0.7852
700.0,0.787263
705.0,0.787169
710.0,0.789261
715.0,0.789753
720.0,0.791283
725.0,0.792813
730.0,0.792557
735.0,0.795006
740.0,0.79426
745.0,0.796045
750.0,0.796148
755.0,0.796335
760.0,0.798083
765.0,0.797949
770.0,0.799417
775.0,0.799747
780.0,0.801019
785.0,0.802189
790.0,0.801754
795.0,0.799955
800.0,0.803092
805.0,0.801912
810.0,0.802425
815.0,0.803383
820.0,0.801537
825.0,0.801278
830.0,0.802577
835.0,0.802558
840.0,0.80298
845.0,0.802094
850.0,0.802731
855.0,0.801251
860.0,0.80066
865.0,0.800406
870.0,0.800251
875.0,0.800724
880.0,0.80005
885.0,0.801142
890.0,0.799583
895.0,0.799279
900.0,0.800766
905.0,0.799046
910.0,0.799216
915.0,0.800084
920.0,0.799573
925.0,0.799107
930.0,0.799451
935.0,0.799589
940.0,0.799001
945.0,0.799334
950.0,0.797637
955.0,0.797977
960.0,0.797914
965.0,0.797297
970.0,0.798309
975.0,0.798108
980.0,0.797952
985.0,0.798696
990.0,0.797983
995.0,0.798488
1000.0,0.798328
1005.0,0.79838
1010.0,0.797706
1015.0,0.798004
1020.0,0.798894
1025.0,0.799223
1030.0,0.798955
1035.0,0.798412
1040.0,0.798946
1045.0,0.798618
1050.0,0.798649
1055.0,0.798786
1060.0,0.799127
1065.0,0.798843
1070.0,0.798715
1075.0,0.79901
1080.0,0.798915
1085.0,0.798777
1090.0,0.79849
1095.0,0.798558
1100.0,0.79889
1105.0,0.798305
1110.0,0.798395
1115.0,0.798348
1120.0,0.797768
1125.0,0.798311
1130.0,0.798046
1135.0,0.7978
1140.0,0.797215
1145.0,0.79673
1150.0,0.795022
1155.0,0.794065
1160.0,0.794261
1165.0,0.794829
1170.0,0.795111
1175.0,0.795086
1180.0,0.796254
1185.0,0.795593
1190.0,0.79589
1195.0,0.795627
1200.0,0.796444
1205.0,0.797005
1210.0,0.797282
1215.0,0.796821
1220.0,0.796699
1225.0,0.796938
1230.0,0.796824
1235.0,0.79648
1240.0,0.796263
1245.0,0.796499
1250.0,0.796006
1255.0,0.795548
1260.0,0.794863
1265.0,0.795505
1270.0,0.794116
1275.0,0.793727
1280.0,0.792942
1285.0,0.792339
1290.0,0.792652
1295.0,0.791561
1300.0,0.79116
1305.0,0.790873
1310.0,0.790462
1315.0,0.79009
1320.0,0.789571
1325.0,0.788247
1330.0,0.787721
1335.0,0.787247
1340.0,0.785448
1345.0,0.784566
1350.0,0.783898
1355.0,0.783569
1360.0,0.782206
1365.0,0.778992
1370.0,0.777803
1375.0,0.776337
1380.0,0.775872
1385.0,0.770131
1390.0,0.766418
1395.0,0.761777
1400.0,0.751604
1405.0,0.738026
1410.0,0.726968
1415.0,0.723231
1420.0,0.723971
1425.0,0.72619
1430.0,0.730259
1435.0,0.735248
1440.0,0.740597
1445.0,0.744429
1450.0,0.748027
1455.0,0.749092
1460.0,0.749488
1465.0,0.748928
1470.0,0.751594
1475.0,0.754352
1480.0,0.756659
1485.0,0.759689
1490.0,0.761087
1495.0,0.763999
1500.0,0.765257
1505.0,0.766275
1510.0,0.766603
1515.0,0.767533
1520.0,0.768488
1525.0,0.769709
1530.0,0.769473
1535.0,0.77066
1540.0,0.770354
1545.0,0.7709
1550.0,0.771114
1555.0,0.770686
1560.0,0.770952
1565.0,0.771971
1570.0,0.771914
1575.0,0.771311
1580.0,0.772237
1585.0,0.7726
1590.0,0.772349
1595.0,0.772153
1600.0,0.772621
1605.0,0.77295
1610.0,0.772625
1615.0,0.772679
1620.0,0.773624
1625.0,0.771887
1630.0,0.771586
1635.0,0.771355
1640.0,0.772358
1645.0,0.772621
1650.0,0.77228
1655.0,0.772726
1660.0,0.772442
1665.0,0.772157
1670.0,0.772548
1675.0,0.773015
1680.0,0.772759
1685.0,0.772113
1690.0,0.772425
1695.0,0.772118
1700.0,0.772399
1705.0,0.771488
1710.0,0.771109
1715.0,0.770585
1720.0,0.770858
1725.0,0.769006
1730.0,0.768943
1735.0,0.766866
1740.0,0.766341
1745.0,0.76547
1750.0,0.764225
1755.0,0.763411
1760.0,0.762572
1765.0,0.761623
1770.0,0.760648
1775.0,0.759288
1780.0,0.758924
1785.0,0.757885
1790.0,0.757536
1795.0,0.757009
1800.0,0.756611
1805.0,0.756153
1810.0,0.755334
1815.0,0.755728
1820.0,0.755225
1825.0,0.754395
1830.0,0.754304
1835.0,0.754099
1840.0,0.751804
1845.0,0.749922
1850.0,0.748312
1855.0,0.747102
1860.0,0.743539
1865.0,0.741527
1870.0,0.737739
1875.0,0.723121
1880.0,0.709635
1885.0,0.692555
1890.0,0.662122
1895.0,0.616012
1900.0,0.5724
1905.0,0.544865
1910.0,0.535564
1915.0,0.537388
1920.0,0.549813
1925.0,0.567233
1930.0,0.585565
1935.0,0.600723
1940.0,0.612465
1945.0,0.62076
1950.0,0.627595
1955.0,0.632913
1960.0,0.637721
1965.0,0.642901
1970.0,0.648619
1975.0,0.654043
1980.0,0.659377
1985.0,0.666099
1990.0,0.671397
1995.0,0.676438
2000.0,0.681815
2005.0,0.685915
2010.0,0.690596
2015.0,0.694357
2020.0,0.698767
2025.0,0.702081
2030.0,0.703818
2035.0,0.70527
2040.0,0.706881
2045.0,0.708704
2050.0,0.71031
2055.0,0.710281
2060.0,0.711356
2065.0,0.710993
2070.0,0.711449
2075.0,0.712478
2080.0,0.712337
2085.0,0.711981
2090.0,0.712703
2095.0,0.713203
2100.0,0.712125
2105.0,0.712595
2110.0,0.712214
2115.0,0.713361
2120.0,0.713172
2125.0,0.714201
2130.0,0.714771
2135.0,0.715054
2140.0,0.715355
2145.0,0.714989
2150.0,0.71558
2155.0,0.715608
2160.0,0.715247
2165.0,0.713703
2170.0,0.713196
2175.0,0.712058
2180.0,0.712011
2185.0,0.711858
2190.0,0.711222
2195.0,0.710131
2200.0,0.708651
2205.0,0.708035
2210.0,0.708129
2215.0,0.706799
2220.0,0.708113
2225.0,0.707875
2230.0,0.706403
2235.0,0.705416
2240.0,0.706125
2245.0,0.705251
2250.0,0.704753
2255.0,0.704038
2260.0,0.704022
2265.0,0.703943
2270.0,0.702381
2275.0,0.700855
2280.0,0.699172
2285.0,0.696104
2290.0,0.694566
2295.0,0.692635
2300.0,0.692873
2305.0,0.693305
2310.0,0.692864
2315.0,0.690698
2320.0,0.690927
2325.0,0.688732
2330.0,0.687109
2335.0,0.685566
2340.0,0.682492
2345.0,0.679386
2350.0,0.675854
2355.0,0.672473
2360.0,0.668817
2365.0,0.663942
2370.0,0.659208
2375.0,0.654914
2380.0,0.648669
2385.0,0.644816
2390.0,0.637948
2395.0,0.633171
2400.0,0.62768
2405.0,0.620778
2410.0,0.615263
2415.0,0.60938
2420.0,0.602396
2425.0,0.595671
2430.0,0.59005
2435.0,0.584605
2440.0,0.578865
2445.0,0.573574
2450.0,0.568503
2455.0,0.562418
2460.0,0.558766
2465.0,0.553202
2470.0,0.548698
2475.0,0.544358
2480.0,0.530947
2485.0,0.53274
2490.0,0.5293
2495.0,0.525223
2500.0,0.520918
2505.0,0.518241
2510.0,0.514961
2515.0,0.512758
2520.0,0.509661
2525.0,0.507614
2530.0,0.506299
2535.0,0.502894
2540.0,0.50132
2545.0,0.501717
2550.0,0.498399
2555.0,0.497533
2560.0,0.496067
2565.0,0.495598
2570.0,0.494561
2575.0,0.49257
2580.0,0.491544
2581.74,0.49119
2583.03,0.491524
2584.31,0.491216
2585.6,0.490743
2586.89,0.490493
2588.19,0.490163
2589.48,0.489998
2590.77,0.490248
2592.07,0.489816
2593.36,0.488643
2594.66,0.487508
2595.96,0.487126
2597.26,0.4874
2598.56,0.487458
2599.87,0.486824
2601.17,0.48644
2602.48,0.486125
2603.78,0.485368
2605.09,0.484519
2606.4,0.483866
2607.71,0.48369
2609.03,0.483425
2610.34,0.482628
2611.66,0.482058
2612.97,0.481293
2614.29,0.480004
2615.61,0.479342
2616.93,0.479253
2618.25,0.479034
2619.57,0.478715
2620.9,0.477694
2622.22,0.477351
2623.55,0.477278
2624.88,0.476233
2626.21,0.475198
2627.54,0.474438
2628.87,0.474037
2630.21,0.472747
2631.54,0.471933
2632.88,0.471766
2634.21,0.470707
2635.55,0.469465
2636.89,0.468291
2638.24,0.467307
2639.58,0.466368
2640.92,0.465189
2642.27,0.463921
2643.62,0.462308
2644.97,0.461362
2646.32,0.460635
2647.67,0.459337
2649.02,0.457748
2650.38,0.455835
2651.73,0.454051
2653.09,0.452653
2654.45,0.451151
2655.81,0.449636
2657.17,0.447409
2658.53,0.445014
2659.89,0.442698
2661.26,0.440729
2662.63,0.438704
2664.0,0.436271
2665.36,0.433607
2666.74,0.430646
2668.11,0.427164
2669.48,0.42311
2670.86,0.417118
2672.23,0.409775
2673.61,0.403458
2674.99,0.397957
2676.37,0.394109
2677.76,0.391098
2679.14,0.387545
2680.52,0.384169
2681.91,0.381011
2683.3,0.377173
2684.69,0.373333
2686.08,0.368442
2687.47,0.36356
2688.87,0.35906
2690.26,0.353957
2691.66,0.348229
2693.06,0.342114
2694.46,0.335552
2695.86,0.328887
2697.26,0.322011
2698.66,0.314921
2700.07,0.308109
2701.48,0.301107
2702.89,0.293331
2704.3,0.28574
2705.71,0.278025
2707.12,0.270306
2708.53,0.263271
2709.95,0.257221
2711.37,0.25064
2712.79,0.243971
2714.21,0.237157
2715.63,0.229759
2717.05,0.222012
2718.48,0.214656
2719.9,0.207844
2721.33,0.20121
2722.76,0.193828
2724.19,0.186968
2725.62,0.180515
2727.06,0.174615
2728.49,0.169042
2729.93,0.163596
2731.37,0.158486
2732.81,0.154179
2734.25,0.150164
2735.69,0.147036
2737.14,0.144192
2738.58,0.141322
2740.03,0.139024
2741.48,0.137302
2742.93,0.135522
2744.38,0.133725
2745.83,0.132236
2747.29,0.131396
2748.75,0.130649
2750.2,0.130069
2751.66,0.129635
2753.13,0.129299
2754.59,0.12903
2756.05,0.129062
2757.52,0.128626
2758.99,0.12843
2760.46,0.128374
2761.93,0.128435
2763.4,0.128826
2764.87,0.128988
2766.35,0.129216
2767.82,0.129689
2769.3,0.12992
2770.78,0.130263
2772.26,0.130269
2773.75,0.130178
2775.23,0.130484
2776.72,0.130668
2778.21,0.130651
2779.7,0.130352
2781.19,0.130102
2782.68,0.130247
2784.18,0.130239
2785.67,0.130058
2787.17,0.129946
2788.67,0.129885
2790.17,0.130015
2791.67,0.130035
2793.18,0.130226
2794.68,0.130725
2796.19,0.131339
2797.7,0.13198
2799.21,0.132344
2800.72,0.132798
2802.24,0.13351
2803.75,0.133974
2805.27,0.134437
2806.79,0.135487
2808.31,0.136102
2809.83,0.136794
2811.35,0.137528
2812.88,0.13791
2814.41,0.138609
2815.93,0.139327
2817.46,0.139673
2819.0,0.140265
2820.53,0.141448
2822.07,0.142262
2823.6,0.142926
2825.14,0.143821
2826.68,0.144984
2828.22,0.145879
2829.77,0.146543
2831.31,0.147544
2832.86,0.148086
2834.41,0.148366
2835.96,0.149222
2837.51,0.150544
2839.07,0.151399
2840.62,0.151868
2842.18,0.153187
2843.74,0.154203
2845.3,0.154685
2846.86,0.155082
2848.43,0.155603
2849.99,0.156424
2851.56,0.157179
2853.13,0.157746
2854.7,0.158705
2856.27,0.159311
2857.85,0.159648
2859.42,0.160162
2861.0,0.160926
2862.58,0.161497
2864.16,0.162018
2865.75,0.162441
2867.33,0.162819
2868.92,0.163572
2870.51,0.164202
2872.1,0.164527
2873.69,0.164855
2875.28,0.165185
2876.88,0.165589
2878.48,0.166223
2880.07,0.166563
2881.68,0.166705
2883.28,0.167113
2884.88,0.167662
2886.49,0.168089
2888.1,0.16858
2889.71,0.168858
2891.32,0.169086
2892.93,0.169663
2894.55,0.170052
2896.16,0.170382
2897.78,0.170529
2899.4,0.171018
2901.03,0.17151
2902.65,0.17188
2904.28,0.172207
2905.91,0.172411
2907.54,0.172739
2909.17,0.173173
2910.8,0.173742
2912.44,0.1742
2914.07,0.174584
2915.71,0.174962
2917.35,0.175483
2918.99,0.17613
2920.64,0.176731
2922.29,0.176822
2923.93,0.17717
2925.58,0.177608
2927.24,0.178049
2928.89,0.178661
2930.55,0.179188
2932.2,0.179772
2933.86,0.180356
2935.52,0.180766
2937.19,0.181192
2938.85,0.181589
2940.52,0.18196
2942.19,0.182492
2943.86,0.182985
2945.53,0.183545
2947.21,0.184357
2948.88,0.184548
2950.56,0.185099
2952.24,0.186046
2953.92,0.186773
2955.61,0.187374
2957.29,0.187778
2958.98,0.188221
2960.67,0.189013
2962.36,0.189716
2964.06,0.190194
2965.75,0.190645
2967.45,0.191514
2969.15,0.192219
2970.85,0.192818
2972.55,0.193287
2974.26,0.193721
2975.97,0.194412
2977.68,0.194765
2979.39,0.195178
2981.1,0.196016
2982.82,0.196828
2984.53,0.197138
2986.25,0.197325
2987.97,0.197998
2989.7,0.198631
2991.42,0.199009
2993.15,0.19912
2994.88,0.199491
2996.61,0.200147
2998.34,0.200865
3000.08,0.201416
3001.82,0.201434
3003.55,0.201484
3005.3,0.201835
3007.04,0.202257
3008.78,0.202296
3010.53,0.202432
3012.28,0.203394
3014.03,0.203865
3015.79,0.203765
3017.54,0.203635
3019.3,0.203722
3021.06,0.204154
3022.82,0.204392
3024.58,0.204451
3026.35,0.204748
3028.12,0.204594
3029.89,0.204766
3031.66,0.205178
3033.43,0.205491
3035.21,0.205745
3036.99,0.205756
3038.77,0.205591
3040.55,0.205656
3042.33,0.205762
3044.12,0.205704
3045.91,0.205799
3047.7,0.206012
3049.49,0.20622
3051.29,0.206238
3053.08,0.206166
3054.88,0.20619
3056.68,0.206359
3058.49,0.20645
3060.29,0.20683
3062.1,0.207149
3063.91,0.207301
3065.72,0.207149
3067.54,0.207314
3069.35,0.207505
3071.17,0.207492
3072.99,0.207744
3074.81,0.208332
3076.64,0.208866
3078.47,0.20927
3080.29,0.209867
3082.13,0.210221
3083.96,0.210733
3085.79,0.211538
3087.63,0.212025
3089.47,0.212576
3091.31,0.213407
3093.16,0.214013
3095.01,0.214886
3096.85,0.215895
3098.71,0.21675
3100.56,0.217484
3102.41,0.218476
3104.27,0.219588
3106.13,0.220744
3107.99,0.221576
3109.86,0.222496
3111.73,0.223417
3113.59,0.224365
3115.47,0.225535
3117.34,0.226547
3119.21,0.227409
3121.09,0.228487
3122.97,0.229705
3124.86,0.230778
3126.74,0.23183
3128.63,0.23284
3130.52,0.233825
3132.41,0.235071
3134.3,0.2363
3136.2,0.237487
3138.1,0.238503
3140.0,0.239478
3141.9,0.240628
3143.81,0.241681
3145.71,0.242677
3147.62,0.243784
3149.54,0.244909
3151.45,0.246281
3153.37,0.247357
3155.29,0.248627
3157.21,0.249654
3159.13,0.250744
3161.06,0.252077
3162.99,0.253466
3164.92,0.254688
3166.85,0.25611
3168.79,0.257714
3170.72,0.258936
3172.67,0.260347
3174.61,0.261762
3176.55,0.263223
3178.5,0.264532
3180.45,0.265813
3182.4,0.267282
3184.36,0.268548
3186.32,0.269807
3188.27,0.271196
3190.24,0.272479
3192.2,0.273779
3194.17,0.275318
3196.14,0.276719
3198.11,0.277986
3200.08,0.279289
3202.06,0.280441
3204.04,0.281735
3206.02,0.283187
3208.0,0.284103
3209.99,0.285054
3211.98,0.286276
3213.97,0.287655
3215.96,0.288877
3217.96,0.289828
3219.96,0.2907
3221.96,0.291621
3223.96,0.292504
3225.97,0.293429
3227.98,0.294275
3229.99,0.295304
3232.0,0.296414
3234.02,0.297115
3236.04,0.297581
3238.06,0.298298
3240.08,0.29914
3242.11,0.299813
3244.14,0.300566
3246.17,0.301612
3248.2,0.302565
3250.24,0.303494
3252.28,0.304122
3254.32,0.30499
3256.37,0.305837
3258.41,0.306414
3260.46,0.307289
3262.51,0.308259
3264.57,0.309054
3266.63,0.309661
3268.69,0.310682
3270.75,0.312186
3272.81,0.313497
3274.88,0.314289
3276.95,0.315164
3279.02,0.31631
3281.1,0.317313
3283.18,0.31819
3285.26,0.319438
3287.34,0.320788
3289.43,0.321846
3291.51,0.322725
3293.61,0.323832
3295.7,0.325076
3297.8,0.32635
3299.9,0.327459
3302.0,0.328709
3304.1,0.330068
3306.21,0.331193
3308.32,0.332306
3310.43,0.333643
3312.55,0.334835
3314.66,0.336103
3316.79,0.337325
3318.91,0.338428
3321.03,0.339706
3323.16,0.341043
3325.29,0.342357
3327.43,0.343446
3329.57,0.34479
3331.71,0.345928
3333.85,0.347048
3335.99,0.34809
3338.14,0.349273
3340.29,0.350584
3342.45,0.351691
3344.6,0.352739
3346.76,0.354111
3348.92,0.355266
3351.09,0.356089
3353.26,0.356887
3355.43,0.35796
3357.6,0.35906
3359.78,0.360078
3361.96,0.361092
3364.14,0.362141
3366.32,0.363185
3368.51,0.364031
3370.7,0.365069
3372.89,0.366382
3375.09,0.367526
3377.29,0.368612
3379.49,0.369795
3381.69,0.371064
3383.9,0.372354
3386.11,0.373615
3388.32,0.374837
3390.54,0.37614
3392.76,0.37747
3394.98,0.378912
3397.21,0.380019
3399.43,0.380959
3401.66,0.382018
3403.9,0.383121
3406.13,0.384106
3408.37,0.384987
3410.61,0.386027
3412.86,0.38721
3415.11,0.388332
3417.36,0.389572
3419.61,0.391083
3421.87,0.392765
3424.13,0.39428
3426.39,0.395923
3428.66,0.397584
3430.93,0.398936
3433.2,0.400126
3435.48,0.401053
3437.76,0.401984
3440.04,0.402926
3442.32,0.40402
3444.61,0.405316
3446.9,0.406371
3449.19,0.407018
3451.49,0.407747
3453.79,0.408618
3456.09,0.409469
3458.4,0.410482
3460.7,0.411587
3463.02,0.412302
3465.33,0.412844
3467.65,0.413693
3469.97,0.414383
3472.29,0.414995
3474.62,0.415445
3476.95,0.415742
3479.29,0.416306
3481.62,0.416758
3483.96,0.417238
3486.3,0.417513
3488.65,0.417602
3491.0,0.417974
3493.35,0.418429
3495.71,0.418781
3498.07,0.419003
3500.43,0.419243
3502.79,0.419565
3505.16,0.420409
3507.53,0.421393
3509.91,0.422302
3512.29,0.422929
3514.67,0.423398
3517.05,0.424086
3519.44,0.425222
3521.83,0.426181
3524.23,0.42703
3526.62,0.428024
3529.02,0.429274
3531.43,0.430651
3533.83,0.43189
3536.24,0.433234
3538.66,0.434723
3541.08,0.436121
3543.5,0.437662
3545.92,0.439281
3548.35,0.440883
3550.78,0.442529
3553.21,0.444126
3555.65,0.445854
3558.09,0.447382
3560.53,0.448833
3562.98,0.45023
3565.43,0.451728
3567.88,0.453424
3570.34,0.454937
3572.8,0.456317
3575.27,0.457728
3577.73,0.458952
3580.2,0.460313
3582.68,0.461857
3585.16,0.463255
3587.64,0.464496
3590.12,0.46569
3592.61,0.466897
3595.1,0.468074
3597.6,0.469354
3600.09,0.470505
3602.6,0.47166
3605.1,0.472678
3607.61,0.473828
3610.12,0.474922
3612.64,0.476014
3615.16,0.477052
3617.68,0.478005
3620.21,0.478747
3622.74,0.479746
3625.27,0.481018
3627.81,0.482029
3630.35,0.482817
3632.89,0.483764
3635.44,0.484806
3637.99,0.485733
3640.54,0.486501
3643.1,0.487437
3645.66,0.488324
3648.23,0.489039
3650.8,0.489824
3653.37,0.490806
3655.95,0.491646
3658.53,0.492312
3661.11,0.492974
3663.7,0.493894
3666.29,0.494923
3668.89,0.495757
3671.48,0.496341
3674.09,0.496931
3676.69,0.497661
3679.3,0.498529
3681.91,0.499182
3684.53,0.49999
3687.15,0.500791
3689.78,0.50152
3692.4,0.502156
3695.04,0.503087
3697.67,0.504047
3700.31,0.504661
3702.95,0.505176
3705.6,0.505898
3708.25,0.506686
3710.91,0.507197
3713.56,0.507728
3716.23,0.508577
3718.89,0.509218
3721.56,0.509836
3724.23,0.510374
3726.91,0.510922
3729.59,0.511562
3732.28,0.512274
3734.97,0.512734
3737.66,0.513344
3740.36,0.513832
3743.06,0.51438
3745.76,0.51487
3748.47,0.515213
3751.18,0.515721
3753.9,0.516457
3756.62,0.516943
3759.34,0.517358
3762.07,0.51772
3764.8,0.518304
3767.54,0.518975
3770.28,0.519483
3773.02,0.519954
3775.77,0.520382
3778.52,0.520735
3781.28,0.521365
3784.04,0.52199
3786.8,0.522376
3789.57,0.522652
3792.34,0.523015
3795.12,0.523379
3797.9,0.523794
3800.69,0.524358
3803.47,0.524734
3806.27,0.524986
3809.06,0.525517
3811.86,0.526025
3814.67,0.526392
3817.48,0.526687
3820.29,0.527083
3823.11,0.527475
3825.93,0.527725
3828.76,0.528083
3831.59,0.528459
3834.42,0.528567
3837.26,0.528806
3840.1,0.529182
3842.95,0.529518
3845.8,0.529848
3848.65,0.529974
3851.51,0.530161
3854.38,0.530402
3857.24,0.530649
3860.12,0.530825
3862.99,0.531153
3865.87,0.531474
3868.76,0.531626
3871.65,0.531886
3874.54,0.532066
3877.44,0.53226
3880.34,0.532416
3883.25,0.53282
3886.16,0.533032
3889.07,0.533163
3891.99,0.533213
3894.92,0.533158
3897.85,0.533161
3900.78,0.533352
3903.72,0.533573
3906.66,0.533762
3909.6,0.533775
3912.55,0.533697
3915.51,0.533827
3918.47,0.534048
3921.43,0.534029
3924.4,0.53415
3927.38,0.534118
3930.35,0.534183
3933.33,0.53432
3936.32,0.534404
3939.31,0.534196
3942.31,0.534124
3945.31,0.534144
3948.31,0.534009
3951.32,0.533938
3954.34,0.533888
3957.35,0.533744
3960.38,0.53359
3963.41,0.533421
3966.44,0.533371
3969.48,0.533237
3972.52,0.533202
3975.56,0.533178
3978.61,0.533152
3981.67,0.533085
3984.73,0.533076
3987.8,0.533137
3990.87,0.533087
3993.94,0.532974
3997.02,0.533041
4000.1,0.532972
4003.19,0.53292
4006.29,0.533128
4009.39,0.533237
4012.49,0.533108
4015.6,0.532954
4018.71,0.532978
4021.83,0.533119
4024.95,0.53315
4028.08,0.533115
4031.21,0.532902
4034.35,0.53265
4037.49,0.532375
4040.64,0.532301
4043.79,0.532383
4046.94,0.532297
4050.11,0.531947
4053.27,0.531613
4056.44,0.53137
4059.62,0.531176
4062.8,0.53092
4065.99,0.530773
4069.18,0.530508
4072.38,0.530082
4075.58,0.529655
4078.78,0.529449
4082.0,0.529153
4085.21,0.528587
4088.43,0.528216
4091.66,0.528105
4094.89,0.527736
4098.13,0.527278
4101.37,0.526874
4104.62,0.526575
4107.87,0.526227
4111.13,0.525897
4114.39,0.5256
4117.66,0.525218
4120.93,0.524821
4124.21,0.524384
4127.5,0.52387
4130.79,0.523464
4134.08,0.522943
4137.38,0.522843
4140.68,0.522478
4143.99,0.521931
4147.31,0.521578
4150.63,0.521167
4153.95,0.520616
4157.29,0.520117
4160.62,0.519611
4163.96,0.519285
4167.31,0.519005
4170.66,0.518632
4174.02,0.517998
4177.39,0.517249
4180.75,0.516589
4184.13,0.516303
4187.51,0.515938
4190.89,0.515471
4194.28,0.514863
4197.68,0.514258
4201.08,0.513709
4204.49,0.513068
4207.9,0.512385
4211.32,0.511479
4214.74,0.510553
4218.17,0.509786
4221.61,0.509126
4225.05,0.508516
4228.5,0.507696
4231.95,0.506951
4235.4,0.506545
4238.87,0.506181
4242.34,0.505712
4245.81,0.505284
4249.29,0.504783
4252.78,0.504353
4256.27,0.504088
4259.77,0.50338
4263.27,0.50193
4266.78,0.500624
4270.29,0.499916
4273.81,0.499527
4277.34,0.498989
4280.87,0.498316
4284.41,0.497682
4287.95,0.497064
4291.5,0.496497
4295.06,0.495887
4298.62,0.495082
4302.19,0.494185
4305.76,0.493315
4309.34,0.492829
4312.92,0.492266
4316.52,0.491596
4320.11,0.490695
4323.72,0.489968
4327.32,0.489277
4330.94,0.488379
4334.56,0.487508
4338.19,0.48667
4341.82,0.485778
4345.46,0.484901
4349.11,0.484063
4352.76,0.483225
4356.42,0.482246
4360.08,0.481389
4363.75,0.480501
4367.43,0.479618
4371.11,0.478719
4374.8,0.477931
4378.49,0.477076
4382.19,0.476097
4385.9,0.475103
4389.61,0.474117
4393.33,0.472997
4397.06,0.472077
4400.79,0.47128
4404.53,0.470396
4408.28,0.469504
4412.03,0.468567
4415.79,0.467763
4419.55,0.466856
4423.32,0.465888
4427.1,0.465171
4430.88,0.464323
4434.68,0.463402
4438.47,0.462484
4442.28,0.461685
4446.08,0.460765
4449.9,0.459894
4453.72,0.458946
4457.55,0.458097
4461.39,0.457311
4465.23,0.456467
4469.08,0.455488
4472.94,0.454717
4476.8,0.453879
4480.67,0.4531
4484.55,0.45218
4488.43,0.451344
4492.32,0.450619
4496.21,0.449825
4500.12,0.449104
4504.03,0.448383
4507.94,0.447639
4511.87,0.44682
4515.8,0.445922
4519.73,0.445166
4523.68,0.444595
4527.63,0.443946
4531.59,0.443071
4535.55,0.442179
4539.52,0.441528
4543.5,0.440948
4547.49,0.440156
4551.48,0.439205
4555.48,0.438433
4559.49,0.437805
4563.5,0.437098
4567.52,0.436442
4571.55,0.43583
4575.58,0.435051
4579.63,0.434263
4583.67,0.433609
4587.73,0.43293
4591.79,0.432218
4595.86,0.431517
4599.94,0.43082
4604.03,0.430201
4608.12,0.429633
4612.22,0.428901
4616.33,0.428072
4620.44,0.427351
4624.56,0.426617
4628.69,0.425834
4632.83,0.42528
4636.97,0.424688
4641.12,0.424141
4645.28,0.423528
4649.45,0.422754
4653.62,0.421916
4657.8,0.421243
4661.99,0.420696
4666.19,0.420244
4670.39,0.419623
4674.6,0.419046
4678.82,0.41839
4683.05,0.417707
4687.28,0.417012
4691.52,0.416454
4695.77,0.415957
4700.03,0.415486
4704.3,0.415063
4708.57,0.414574
4712.85,0.414082
4717.14,0.413589
4721.43,0.412972
4725.74,0.412358
4730.05,0.411859
4734.37,0.411279
4738.7,0.410504
4743.03,0.409892
4747.38,0.409456
4751.73,0.408893
4756.09,0.408101
4760.45,0.40748
4764.83,0.406914
4769.21,0.406239
4773.6,0.40559
4778.0,0.404897
4782.41,0.404025
4786.83,0.403217
4791.25,0.402423
4795.68,0.401659
4800.13,0.400827
4804.57,0.399842
4809.03,0.398873
4813.5,0.398164
4817.97,0.39743
4822.45,0.396612
4826.94,0.395509
4831.44,0.394397
4835.95,0.393414
4840.46,0.392555
4844.99,0.391539
4849.52,0.390406
4854.06,0.389107
4858.61,0.387905
4863.17,0.38675
4867.73,0.385469
4872.31,0.384071
4876.89,0.382699
4881.48,0.381412
4886.08,0.380121
4890.69,0.378747
4895.31,0.377347
4899.94,0.375814
4904.57,0.374292
4909.22,0.37281
4913.87,0.371301
4918.53,0.369658
4923.21,0.36801
4927.88,0.366406
4932.57,0.364915
4937.27,0.36338
4941.98,0.361869
4946.69,0.360287
4951.42,0.358674
4956.15,0.357131
4960.9,0.355626
4965.65,0.35402
4970.41,0.352375
4975.18,0.350714
4979.96,0.349086
4984.75,0.34749
4989.54,0.345941
4994.35,0.344343
4999.17,0.342665
5003.99,0.341096
5008.83,0.339639
5013.67,0.338004
5018.52,0.336539
5023.39,0.335159
5028.26,0.333832
5033.14,0.332382
5038.03,0.331091
5042.93,0.329853
5047.84,0.328601
5052.76,0.327168
5057.69,0.325657
5062.63,0.324305
5067.58,0.323005
5072.54,0.321752
5077.51,0.320626
5082.49,0.319338
5087.47,0.318103
5092.47,0.316922
5097.48,0.315846
5102.5,0.314689
5107.52,0.313603
5112.56,0.312592
5117.61,0.311589
5122.66,0.310439
5127.73,0.309562
5132.81,0.308763
5137.89,0.307792
5142.99,0.306879
5148.1,0.306091
5153.22,0.305264
5158.34,0.304499
5163.48,0.303777
5168.63,0.303073
5173.79,0.302316
5178.96,0.301599
5184.13,0.300822
5189.32,0.300195
5194.52,0.299459
5199.73,0.298754
5204.96,0.297987
5210.19,0.297188
5215.43,0.296275
5220.68,0.295374
5225.94,0.294382
5231.22,0.293205
5236.5,0.292061
5241.79,0.290837
5247.1,0.289524
5252.42,0.288184
5257.74,0.286784
5263.08,0.28528
5268.43,0.283747
5273.79,0.282145
5279.16,0.280387
5284.54,0.278596
5289.93,0.276871
5295.34,0.275086
5300.75,0.273172
5306.18,0.271337
5311.61,0.269601
5317.06,0.267775
5322.52,0.265843
5327.99,0.264063
5333.47,0.262355
5338.96,0.260621
5344.47,0.258877
5349.98,0.257239
5355.51,0.255626
5361.05,0.254141
5366.6,0.252832
5372.16,0.251705
5377.73,0.250407
5383.32,0.249213
5388.91,0.248269
5394.52,0.247381
5400.14,0.246598
5405.77,0.245818
5411.41,0.245011
5417.07,0.244325
5422.74,0.243546
5428.41,0.242777
5434.1,0.242256
5439.81,0.241733
5445.52,0.241173
5451.25,0.2406
5456.98,0.239949
5462.73,0.239408
5468.5,0.238859
5474.27,0.238451
5480.06,0.237947
5485.86,0.237311
5491.67,0.236754
5497.49,0.236291
5503.33,0.235809
5509.18,0.235314
5515.04,0.23483
5520.91,0.234246
5526.8,0.233749
5532.69,0.233302
5538.61,0.232788
5544.53,0.232247
5550.47,0.231661
5556.41,0.231112
5562.38,0.230817
5568.35,0.2305
5574.34,0.230013
5580.34,0.229584
5586.35,0.229464
5592.38,0.229421
5598.42,0.229275
5604.47,0.22916
5610.54,0.229065
5616.61,0.228841
5622.71,0.228589
5628.81,0.228585
5634.93,0.228557
5641.06,0.228429
5647.21,0.228238
5653.36,0.228364
5659.54,0.228312
5665.72,0.228264
5671.92,0.228207
5678.13,0.228112
5684.36,0.228071
5690.6,0.22804
5696.85,0.228016
5703.12,0.228071
5709.4,0.227864
5715.69,0.227788
5722.0,0.227708
5728.33,0.227615
5734.66,0.22737
5741.01,0.226994
5747.38,0.22649
5753.76,0.225822
5760.15,0.225062
5766.56,0.224166
5772.98,0.223221
5779.41,0.222435
5785.86,0.22153
5792.33,0.220573
5798.81,0.219357
5805.3,0.218131
5811.81,0.216842
5818.33,0.215389
5824.87,0.213829
5831.42,0.212411
5837.99,0.210559
5844.57,0.208532
5851.17,0.206468
5857.78,0.204243
5864.41,0.201729
5871.05,0.198835
5877.7,0.195636
5884.38,0.192074
5891.06,0.188121
5897.76,0.184337
5904.48,0.18058
5911.21,0.17725
5917.96,0.174072
5924.73,0.17072
5931.5,0.166896
5938.3,0.16293
5945.11,0.158712
5951.93,0.154407
5958.78,0.149903
5965.63,0.145249
5972.51,0.140187
5979.39,0.134979
5986.3,0.129928
5993.22,0.124996
6000.16,0.119732
6007.11,0.114566
6014.08,0.109701
6021.06,0.104913
6028.06,0.100244
6035.08,0.096013
6042.12,0.092043
6049.17,0.088444
6056.23,0.084471
6063.32,0.080814
6070.42,0.078061
6077.53,0.075463
6084.67,0.072799
6091.82,0.070492
6098.98,0.068773
6106.17,0.067449
6113.37,0.066661
6120.58,0.066415
6127.82,0.066786
6135.07,0.067978
6142.34,0.069552
6149.63,0.071514
6156.93,0.073763
6164.25,0.076092
6171.59,0.078426
6178.95,0.080877
6186.32,0.08339
6193.71,0.085656
6201.12,0.087912
6208.54,0.090382
6215.99,0.092913
6223.45,0.095403
6230.93,0.098225
6238.43,0.101479
6245.95,0.104878
6253.48,0.10818
6261.03,0.111538
6268.6,0.114859
6276.19,0.117942
6283.8,0.120902
6291.43,0.123609
6299.07,0.126043
6306.73,0.128489
6314.42,0.130677
6322.12,0.132561
6329.84,0.134463
6337.57,0.136262
6345.33,0.137797
6353.11,0.139076
6360.9,0.140324
6368.72,0.141403
6376.55,0.142204
6384.4,0.142855
6392.27,0.14348
6400.17,0.144083
6408.08,0.144581
6416.01,0.144947
6423.96,0.145306
6431.93,0.145848
6439.92,0.146419
6447.93,0.14694
6455.96,0.147402
6464.01,0.147984
6472.08,0.148388
6480.17,0.148408
6488.28,0.148497
6496.41,0.148588
6504.56,0.148425
6512.73,0.148227
6520.92,0.148088
6529.14,0.147656
6537.37,0.147244
6545.63,0.146588
6553.9,0.145718
6562.2,0.144884
6570.51,0.144057
6578.85,0.143089
6587.21,0.142032
6595.59,0.140984
6603.99,0.139929
6612.42,0.138828
6620.86,0.137712
6629.33,0.136486
6637.82,0.13524
6646.33,0.133803
6654.86,0.132613
6663.41,0.131641
6671.99,0.130432
6680.59,0.12921
6689.21,0.127959
6697.85,0.126603
6706.51,0.125381
6715.2,0.124113
6723.91,0.122615
6732.64,0.121126
6741.4,0.119667
6750.18,0.118107
6758.98,0.116546
6767.8,0.114952
6776.65,0.113231
6785.52,0.111256
6794.41,0.10938
6803.33,0.107207
6812.27,0.105097
6821.23,0.1032
6830.22,0.101129
6839.23,0.098867
6848.26,0.096749
6857.32,0.094689
6866.4,0.092651
6875.51,0.090421
6884.64,0.088535
6893.8,0.086924
6902.98,0.085346
6912.18,0.083787
6921.41,0.082203
6930.66,0.080757
6939.94,0.079305
6949.24,0.077935
6958.57,0.076833
6967.92,0.075647
6977.3,0.074412
6986.7,0.073527
6996.13,0.07281
7005.59,0.072116
7015.07,0.071692
7024.57,0.071425
7034.1,0.071306
7043.66,0.07146
7053.25,0.071551
7062.85,0.071595
7072.49,0.07192
7082.15,0.07222
7091.84,0.072448
7101.55,0.072678
7111.3,0.072808
7121.06,0.072793
7130.86,0.072799
7140.68,0.072732
7150.53,0.072335
7160.41,0.07189
7170.31,0.071545
7180.24,0.070946
7190.2,0.070301
7200.19,0.069673
7210.2,0.068855
7220.24,0.068006
7230.31,0.067288
7240.41,0.0663
7250.54,0.065148
7260.69,0.064127
7270.88,0.063196
7281.09,0.062319
7291.33,0.061327
7301.6,0.060131
7311.9,0.059007
7322.22,0.058034
7332.58,0.05702
7342.97,0.055857
7353.38,0.054776
7363.83,0.053756
7374.3,0.052731
7384.81,0.051676
7395.34,0.050552
7405.91,0.049597
7416.5,0.048767
7427.13,0.047808
7437.78,0.046866
7448.47,0.046006
7459.19,0.045136
7469.94,0.044259
7480.71,0.043469
7491.52,0.042657
7502.37,0.041854
7513.24,0.041085
7524.14,0.040245
7535.08,0.039574
7546.05,0.039077
7557.05,0.038467
7568.08,0.037777
7579.15,0.037239
7590.24,0.036824
7601.37,0.036414
7612.53,0.035954
7623.73,0.035556
7634.96,0.035417
7646.22,0.035357
7657.51,0.035194
7668.84,0.034957
7680.2,0.034901
7691.59,0.03504
7703.02,0.035367
7714.49,0.035754
7725.98,0.036162
7737.52,0.036685
7749.08,0.037273
7760.68,0.037944
7772.32,0.038654
7783.99,0.039394
7795.69,0.040347
7807.43,0.041454
7819.21,0.042642
7831.02,0.043905
7842.87,0.045305
7854.75,0.046868
7866.67,0.048591
7878.62,0.050272
7890.62,0.052036
7902.64,0.053964
7914.71,0.056074
7926.81,0.058158
7938.95,0.060161
7951.13,0.062026
7963.34,0.063724
7975.59,0.065226
7987.88,0.066265
8000.21,0.066752
8012.57,0.066695
8024.98,0.065894
8037.42,0.064347
8049.9,0.062367
8062.42,0.060064
8074.98,0.057452
8087.57,0.054867
8100.21,0.052351
8112.89,0.050096
8125.6,0.048081
8138.36,0.04654
8151.16,0.045351
8163.99,0.044467
8176.87,0.043818
8189.79,0.043299
8202.75,0.043056
8215.75,0.042974
8228.79,0.042969
8241.87,0.042985
8254.99,0.043167
8268.16,0.043473
8281.37,0.043636
8294.62,0.043701
8307.91,0.043829
8321.24,0.044044
8334.62,0.044202
8348.04,0.044276
8361.51,0.044417
8375.02,0.044556
8388.57,0.044645
8402.16,0.045014
8415.8,0.045281
8429.49,0.04549
8443.22,0.045746
8456.99,0.046073
8470.81,0.046345
8484.67,0.046577
8498.58,0.046861
8512.54,0.0471
8526.54,0.047165
8540.58,0.0472
8554.68,0.047461
8568.82,0.047573
8583.0,0.04755
8597.24,0.047567
8611.52,0.047584
8625.85,0.04756
8640.23,0.047491
8654.65,0.047395
8669.12,0.047382
8683.64,0.047452
8698.21,0.047456
8712.83,0.047352
8727.5,0.04727
8742.22,0.04723
8756.99,0.047133
8771.8,0.046903
8786.67,0.04677
8801.59,0.046655
8816.56,0.046566
8831.58,0.046638
8846.65,0.046818
8861.77,0.046996
8876.94,0.047133
8892.17,0.047432
8907.45,0.047843
8922.78,0.048409
8938.16,0.049136
8953.6,0.049709
8969.09,0.050189
8984.64,0.050767
9000.23,0.051235
9015.89,0.051848
9031.59,0.052605
9047.36,0.052926
9063.17,0.053128
9079.05,0.05345
9094.97,0.053686
9110.96,0.053612
9127.0,0.05328
9143.1,0.053274
9159.25,0.053263
9175.46,0.052965
9191.73,0.052629
9208.06,0.052364
9224.44,0.052041
9240.88,0.051641
9257.38,0.051166
9273.94,0.050856
9290.56,0.05051
9307.24,0.05025
9323.98,0.050185
9340.78,0.049864
9357.64,0.049412
9374.57,0.049119
9391.55,0.048559
9408.59,0.048144
9425.7,0.048051
9442.87,0.048029
9460.1,0.047875
9477.4,0.047539
9494.75,0.047348
9512.17,0.047237
9529.66,0.047018
9547.21,0.046644
9564.83,0.04626
9582.5,0.0461
9600.25,0.046052
9618.06,0.045939
9635.94,0.04573
9653.88,0.045602
9671.89,0.045596
9689.97,0.045472
9708.12,0.045275
9726.33,0.045244
9744.62,0.045383
9762.97,0.045505
9781.39,0.045544
9799.88,0.045737
9818.44,0.045863
9837.07,0.045974
9855.77,0.046152
9874.54,0.046545
9893.39,0.046805
9912.3,0.047185
9931.29,0.047819
9950.36,0.04834
9969.49,0.048772
9988.7,0.049254
10007.98,0.049801
10027.34,0.050484
10046.77,0.051348
10066.28,0.05218
10085.87,0.053089
10105.53,0.054131
10125.26,0.055355
10145.08,0.056645
10164.97,0.057969
10184.94,0.059452
10204.99,0.060915
10225.12,0.062293
10245.33,0.063915
10265.61,0.065827
10285.98,0.068032
10306.43,0.070207
10326.96,0.072309
10347.57,0.074388
10368.27,0.07642
10389.05,0.078615
10409.91,0.081126
10430.86,0.083672
10451.88,0.085997
10473.0,0.088209
10494.2,0.09071
10515.49,0.093293
10536.86,0.095614
10558.32,0.09776
10579.87,0.100109
10601.5,0.102228
10623.23,0.10409
10645.04,0.105872
10666.94,0.10755
10688.94,0.109261
10711.02,0.110787
10733.2,0.112154
10755.47,0.113498
10777.83,0.114783
10800.28,0.115734
10822.83,0.116685
10845.47,0.117759
10868.21,0.118465
10891.04,0.118853
10913.97,0.119654
10936.99,0.120529
10960.12,0.120905
10983.34,0.121213
11006.66,0.121834
11030.07,0.122795
11053.59,0.123455
11077.21,0.123926
11100.93,0.12428
11124.75,0.124877
11148.68,0.125619
11172.71,0.125951
11196.84,0.125993
11221.07,0.125984
11245.41,0.125869
11269.86,0.125372
11294.41,0.124799
11319.07,0.124606
11343.84,0.124067
11368.72,0.123179
11393.7,0.122298
11418.8,0.121643
11444.01,0.12105
11469.33,0.120197
11494.76,0.119704
11520.3,0.119552
11545.96,0.119257
11571.73,0.118825
11597.62,0.118321
11623.62,0.117959
11649.74,0.117718
11675.98,0.11739
11702.34,0.116973
11728.81,0.116316
11755.41,0.115536
11782.13,0.114657
11808.96,0.11342
11835.92,0.112063
11863.01,0.110431
11890.22,0.108566
11917.55,0.106602
11945.01,0.104405
11972.6,0.101461
12000.31,0.097977
12028.16,0.09427
12056.13,0.09015
12084.23,0.085865
12112.46,0.08146
12140.83,0.077447
12169.33,0.074026
12197.96,0.070928
12226.73,0.068273
12255.64,0.065797
12284.68,0.063602
12313.86,0.062254
12343.18,0.061156
12372.64,0.059927
12402.24,0.058724
12431.98,0.057646
12461.86,0.056847
12491.89,0.056156
12522.07,0.055651
12552.38,0.055249
12582.85,0.05506
12613.47,0.055043
12644.23,0.054869
12675.15,0.0546
12706.21,0.054567
12737.43,0.054594
12768.81,0.05458
12800.33,0.05435
12832.02,0.054196
12863.86,0.054376
12895.86,0.054376
12928.02,0.0543
12960.34,0.054227
12992.82,0.054292
13025.46,0.054261
13058.27,0.054413
13091.25,0.054416
13124.39,0.05422
13157.7,0.053999
13191.18,0.053673
13224.83,0.053432
13258.66,0.052944
13292.65,0.052052
13326.83,0.051424
13361.17,0.051042
13395.7,0.050532
13430.4,0.04982
13465.29,0.049264
13500.35,0.049036
13535.6,0.04883
13571.03,0.048372
13606.65,0.047982
13642.46,0.047667
13678.46,0.047356
13714.64,0.047389
13751.02,0.047662
13787.59,0.047734
13824.36,0.047593
13861.32,0.047502
13898.49,0.047641
13935.85,0.047895
13973.41,0.048034
14011.17,0.047886
14049.15,0.048003
14087.32,0.048526
14125.71,0.048427
14164.3,0.048298
14203.11,0.048555
14242.13,0.048774
14281.36,0.048904
14320.81,0.049212
14360.49,0.049751
14400.38,0.050091
14440.49,0.0501
14480.82,0.050094
14521.39,0.050055
14562.18,0.050313
14603.2,0.0505
14644.45,0.050365
14685.93,0.050276
14727.66,0.050341
14769.62,0.050513
14811.81,0.050254
14854.25,0.050042
14896.94,0.049981
14939.87,0.04956
14983.05,0.049063
15026.48,0.0485
15070.16,0.047929
15114.1,0.047367
15158.29,0.046911
15202.74,0.046171
15247.46,0.04517
15292.43,0.044196
15337.68,0.04344
15383.19,0.042442
15428.97,0.041532
15475.03,0.040686
15521.36,0.039837
15567.97,0.039479
15614.87,0.03957
15662.04,0.039301
15709.5,0.039123
15757.25,0.039188
15805.29,0.039223
15853.62,0.039422
15902.26,0.040219
15951.19,0.040616
16000.42,0.040671
16049.95,0.04105
16099.8,0.041263
16149.95,0.041383
16200.42,0.041328
16251.21,0.041046
16302.31,0.040627
16353.74,0.040204
16405.49,0.040063
16457.57,0.039993
16509.98,0.039835
16562.73,0.039668
16615.82,0.039318
16669.24,0.039014
16723.02,0.038875
16777.14,0.038867
16831.61,0.039084
16886.43,0.039399
16941.62,0.039364
16997.16,0.03957
17053.08,0.04005
17109.36,0.03987
17166.01,0.040008
17223.04,0.040453
17280.45,0.040807
17338.24,0.040872
17396.43,0.040814
17455.0,0.041174
17513.97,0.041719
17573.34,0.042108
17633.11,0.041906
17693.29,0.041943
17753.89,0.041945
17814.9,0.04165
17876.33,0.041495
17938.18,0.041391
18000.47,0.041437
18063.19,0.041352
18126.35,0.041096
18189.95,0.041148
18254.0,0.041222
18318.5,0.041467
18383.46,0.041795
18448.88,0.04137
18514.77,0.041302
18581.13,0.041841
18647.97,0.042019
18715.29,0.041465
18783.1,0.040703
18851.4,0.040586
18920.2,0.040453
18989.51,0.040245
19059.32,0.04028
19129.65,0.040434
19200.5,0.040497
19271.88,0.040035
19343.79,0.039359
19416.24,0.038938
19489.23,0.038999
19562.77,0.039312
19636.88,0.038943
19711.54,0.038598
19786.78,0.038793
19862.59,0.039125
19938.98,0.039273
20015.96,0.039409
20093.55,0.040247
20171.73,0.041938
20250.53,0.043879
20329.94,0.045876
20409.98,0.047183
20490.65,0.048168
20571.96,0.050389
20653.92,0.053352
20736.54,0.055201
20819.82,0.056347
20903.77,0.057548
20988.4,0.058644
21073.72,0.059326
21159.73,0.060368
21246.46,0.061136
21333.89,0.061826
21422.04,0.061798
21510.93,0.061987
21600.56,0.062894
21690.94,0.063517
21782.08,0.063828
21873.99,0.064355
21966.67,0.065124
22060.15,0.065758
22154.42,0.066335
22249.51,0.066426
22345.41,0.065035
22442.14,0.063578
22539.72,0.063648
22638.14,0.063958
22737.43,0.063298
22837.6,0.062786
22938.65,0.062549
23040.6,0.061935
23143.46,0.061238
23247.24,0.061429
23351.96,0.061759
23457.63,0.06121
23564.25,0.059877
23671.85,0.060114
23780.44,0.059907
23890.02,0.058965
24000.63,0.05801
24112.26,0.057965
24224.93,0.058242
24338.66,0.057164
24453.47,0.056675
24569.36,0.056992
24686.36,0.057932
24804.47,0.058551
24923.73,0.058831
25044.13,0.059319
25165.71,0.05989
25288.46,0.061119
25412.43,0.060133
25537.61,0.059111
25664.04,0.057667
25791.72,0.060439
25920.68,0.059879
