Database of Origin,University of Winnipeg Spectrophotometer Facility
Sample Description,See Master Clays in HOSERLab database
Date Added,2016-12-11 20:57:06.439743

Data ID,RLA_CLAY_26         
Sample ID,SRP101
Mineral Name,Serpentinite
Grain Size,<45um
Viewing Geometry,"30/0,30"
Resolution,"5,0.6-129"
Material Class,Phyllosilicate

Wavelength
305.0,0.420062
310.0,0.450656
315.0,0.477527
320.0,0.49599
325.0,0.511957
330.0,0.524467
335.0,0.53518
340.0,0.547956
345.0,0.55816
350.0,0.57122
355.0,0.58274
360.0,0.590799
365.0,0.595655
370.0,0.605485
375.0,0.609946
380.0,0.615823
385.0,0.618626
390.0,0.627737
395.0,0.640454
400.0,0.644292
405.0,0.639261
410.0,0.645456
415.0,0.646624
420.0,0.649429
425.0,0.653593
430.0,0.654772
435.0,0.660045
440.0,0.660896
445.0,0.669308
450.0,0.672347
455.0,0.676699
460.0,0.681069
465.0,0.686666
470.0,0.697212
475.0,0.702566
480.0,0.70923
485.0,0.713376
490.0,0.71665
495.0,0.719411
500.0,0.72366
505.0,0.726825
510.0,0.728844
515.0,0.733732
520.0,0.733916
525.0,0.739714
530.0,0.738886
535.0,0.742225
540.0,0.74145
545.0,0.746781
550.0,0.745715
555.0,0.748774
560.0,0.748852
565.0,0.751083
570.0,0.751974
575.0,0.752431
580.0,0.753415
585.0,0.754282
590.0,0.755641
595.0,0.753773
600.0,0.756072
605.0,0.756206
610.0,0.755509
615.0,0.754722
620.0,0.753362
625.0,0.75279
630.0,0.753654
635.0,0.753181
640.0,0.75293
645.0,0.751514
650.0,0.751142
655.0,0.752842
660.0,0.751781
665.0,0.753197
670.0,0.752828
675.0,0.753473
680.0,0.752553
685.0,0.753039
690.0,0.753236
695.0,0.7538
700.0,0.753771
705.0,0.753124
710.0,0.752898
715.0,0.751886
720.0,0.754809
725.0,0.757084
730.0,0.758713
735.0,0.758215
740.0,0.757194
745.0,0.753592
750.0,0.756656
755.0,0.753625
760.0,0.761267
765.0,0.758421
770.0,0.760163
775.0,0.759065
780.0,0.758608
785.0,0.757562
790.0,0.762585
795.0,0.758206
800.0,0.76035
805.0,0.762153
810.0,0.758311
815.0,0.761441
820.0,0.758932
825.0,0.765023
830.0,0.761257
835.0,0.76124
840.0,0.761595
845.0,0.761359
850.0,0.760791
855.0,0.763149
860.0,0.760283
865.0,0.759349
870.0,0.757911
875.0,0.758068
880.0,0.761412
885.0,0.75332
890.0,0.754882
895.0,0.757485
900.0,0.757665
905.0,0.755715
910.0,0.753024
915.0,0.75616
920.0,0.753264
925.0,0.754395
930.0,0.754084
935.0,0.754045
940.0,0.752342
945.0,0.749367
950.0,0.749666
955.0,0.751607
960.0,0.75299
965.0,0.752405
970.0,0.751887
975.0,0.751951
980.0,0.75214
985.0,0.752011
990.0,0.749137
995.0,0.750216
1000.0,0.749713
1005.0,0.749571
1010.0,0.74923
1015.0,0.74949
1020.0,0.748324
1025.0,0.746186
1030.0,0.748177
1035.0,0.748856
1040.0,0.747593
1045.0,0.746514
1050.0,0.747165
1055.0,0.74673
1060.0,0.746832
1065.0,0.744727
1070.0,0.744864
1075.0,0.744874
1080.0,0.743915
1085.0,0.744076
1090.0,0.742526
1095.0,0.743811
1100.0,0.742206
1105.0,0.742519
1110.0,0.741861
1115.0,0.740981
1120.0,0.740043
1125.0,0.740646
1130.0,0.740182
1135.0,0.737886
1140.0,0.739436
1145.0,0.739051
1150.0,0.738948
1155.0,0.739072
1160.0,0.737622
1165.0,0.739931
1170.0,0.738132
1175.0,0.737308
1180.0,0.737599
1185.0,0.735674
1190.0,0.738546
1195.0,0.737491
1200.0,0.739276
1205.0,0.738737
1210.0,0.735876
1215.0,0.738368
1220.0,0.736639
1225.0,0.736768
1230.0,0.736086
1235.0,0.736108
1240.0,0.736036
1245.0,0.734696
1250.0,0.735009
1255.0,0.735037
1260.0,0.733789
1265.0,0.733356
1270.0,0.73271
1275.0,0.732586
1280.0,0.731404
1285.0,0.729552
1290.0,0.730657
1295.0,0.731365
1300.0,0.732309
1305.0,0.732362
1310.0,0.73314
1315.0,0.732739
1320.0,0.731403
1325.0,0.731469
1330.0,0.731133
1335.0,0.731416
1340.0,0.730004
1345.0,0.730943
1350.0,0.728677
1355.0,0.721684
1360.0,0.716246
1365.0,0.719245
1370.0,0.723372
1375.0,0.719389
1380.0,0.695738
1385.0,0.643122
1390.0,0.627114
1395.0,0.643825
1400.0,0.668081
1405.0,0.684464
1410.0,0.698564
1415.0,0.705467
1420.0,0.707607
1425.0,0.710788
1430.0,0.710324
1435.0,0.713577
1440.0,0.714341
1445.0,0.712861
1450.0,0.713161
1455.0,0.714581
1460.0,0.715882
1465.0,0.715708
1470.0,0.714444
1475.0,0.716204
1480.0,0.714957
1485.0,0.716503
1490.0,0.716147
1495.0,0.716906
1500.0,0.716399
1505.0,0.716195
1510.0,0.717164
1515.0,0.716273
1520.0,0.715373
1525.0,0.715987
1530.0,0.715063
1535.0,0.715744
1540.0,0.71613
1545.0,0.717636
1550.0,0.71763
1555.0,0.715775
1560.0,0.715768
1565.0,0.716264
1570.0,0.714962
1575.0,0.715157
1580.0,0.713658
1585.0,0.715922
1590.0,0.71468
1595.0,0.714395
1600.0,0.71348
1605.0,0.71499
1610.0,0.713779
1615.0,0.71472
1620.0,0.71332
1625.0,0.712194
1630.0,0.711789
1635.0,0.712945
1640.0,0.711602
1645.0,0.713098
1650.0,0.710735
1655.0,0.710452
1660.0,0.711158
1665.0,0.711358
1670.0,0.711073
1675.0,0.710048
1680.0,0.710213
1685.0,0.708562
1690.0,0.70882
1695.0,0.708003
1700.0,0.708219
1705.0,0.70854
1710.0,0.707256
1715.0,0.7065
1720.0,0.706811
1725.0,0.706222
1730.0,0.705827
1735.0,0.705177
1740.0,0.704043
1745.0,0.703889
1750.0,0.704151
1755.0,0.702723
1760.0,0.702517
1765.0,0.701432
1770.0,0.701892
1775.0,0.701375
1780.0,0.701487
1785.0,0.700788
1790.0,0.700154
1795.0,0.70035
1800.0,0.698748
1805.0,0.699211
1810.0,0.697883
1815.0,0.69638
1820.0,0.696548
1825.0,0.697213
1830.0,0.69598
1835.0,0.693145
1840.0,0.69694
1845.0,0.695423
1850.0,0.695464
1855.0,0.693874
1860.0,0.693585
1865.0,0.689642
1870.0,0.682428
1875.0,0.692251
1880.0,0.685358
1885.0,0.676286
1890.0,0.66935
1895.0,0.663734
1900.0,0.652669
1905.0,0.646913
1910.0,0.640067
1915.0,0.636206
1920.0,0.63132
1925.0,0.633885
1930.0,0.632453
1935.0,0.631899
1940.0,0.633092
1945.0,0.632289
1950.0,0.633807
1955.0,0.632158
1960.0,0.634914
1965.0,0.633516
1970.0,0.633769
1975.0,0.633203
1980.0,0.63493
1985.0,0.636567
1990.0,0.637129
1995.0,0.638405
2000.0,0.639559
2005.0,0.644228
2010.0,0.645493
2015.0,0.647351
2020.0,0.648403
2025.0,0.64905
2030.0,0.649605
2035.0,0.650745
2040.0,0.651647
2045.0,0.652823
2050.0,0.655025
2055.0,0.655994
2060.0,0.656535
2065.0,0.657884
2070.0,0.657877
2075.0,0.656749
2080.0,0.653097
2085.0,0.651559
2090.0,0.646608
2095.0,0.644811
2100.0,0.645395
2105.0,0.64289
2110.0,0.646911
2115.0,0.644855
2120.0,0.646289
2125.0,0.64246
2130.0,0.642532
2135.0,0.644394
2140.0,0.645611
2145.0,0.646853
2150.0,0.647632
2155.0,0.649069
2160.0,0.649213
2165.0,0.651321
2170.0,0.649585
2175.0,0.649573
2180.0,0.649508
2185.0,0.650431
2190.0,0.648633
2195.0,0.648748
2200.0,0.647256
2205.0,0.646609
2210.0,0.645757
2215.0,0.64403
2220.0,0.641419
2225.0,0.636967
2230.0,0.630328
2235.0,0.622521
2240.0,0.618205
2245.0,0.610534
2250.0,0.607106
2255.0,0.601464
2260.0,0.598857
2265.0,0.591602
2270.0,0.584988
2275.0,0.579825
2280.0,0.575677
2285.0,0.572063
2290.0,0.563265
2295.0,0.556412
2300.0,0.549137
2305.0,0.540975
2310.0,0.526997
2315.0,0.507504
2320.0,0.483041
2325.0,0.467507
2330.0,0.47306
2335.0,0.480874
2340.0,0.481569
2345.0,0.506298
2350.0,0.540949
2355.0,0.556378
2360.0,0.56002
2365.0,0.561067
2370.0,0.553668
2375.0,0.541816
2380.0,0.535171
2385.0,0.532477
2390.0,0.533714
2395.0,0.52957
2400.0,0.525995
2405.0,0.525645
2410.0,0.526332
2415.0,0.523625
2420.0,0.520789
2425.0,0.517045
2430.0,0.513241
2435.0,0.511376
2440.0,0.514341
2445.0,0.513713
2450.0,0.510762
2455.0,0.513363
2460.0,0.513413
2465.0,0.516208
2470.0,0.510804
2475.0,0.506454
2480.0,0.501939
2485.0,0.497251
2490.0,0.488547
2495.0,0.481487
2500.0,0.474505
2505.0,0.468759
2510.0,0.466371
2515.0,0.463985
2520.0,0.469639
2525.15,0.471232
2530.08,0.474388
2535.03,0.477005
2540.0,0.476946
2544.99,0.478048
2549.99,0.47589
2552.5,0.474045
2553.76,0.473984
2556.28,0.473545
2558.8,0.473091
2561.33,0.471709
2563.86,0.472672
2565.13,0.473338
2566.4,0.474051
2567.67,0.474594
2568.95,0.474519
2570.22,0.475278
2571.5,0.476417
2572.77,0.47569
2574.05,0.475251
2575.33,0.477113
2576.61,0.476907
2577.89,0.477013
2579.17,0.477765
2580.46,0.477854
2581.74,0.477555
2583.03,0.478315
2584.31,0.477867
2585.6,0.481021
2586.89,0.481179
2588.19,0.481327
2589.48,0.483225
2590.77,0.483958
2592.07,0.482383
2593.36,0.481833
2594.66,0.480865
2595.96,0.483191
2597.26,0.48637
2598.56,0.48572
2599.87,0.484691
2601.17,0.483962
2602.48,0.484008
2603.78,0.484535
2605.09,0.483244
2606.4,0.483602
2607.71,0.485814
2609.03,0.486197
2610.34,0.485254
2611.66,0.485277
2612.97,0.485389
2614.29,0.485643
2615.61,0.484795
2616.93,0.483393
2618.25,0.485472
2619.57,0.485824
2620.9,0.484156
2622.22,0.485933
2623.55,0.485535
2624.88,0.48477
2626.21,0.483593
2627.54,0.482846
2628.87,0.483821
2630.21,0.482931
2631.54,0.48331
2632.88,0.484533
2634.21,0.483083
2635.55,0.482977
2636.89,0.482423
2638.24,0.481681
2639.58,0.48055
2640.92,0.479475
2642.27,0.47795
2643.62,0.477646
2644.97,0.476617
2646.32,0.474559
2647.67,0.472549
2649.02,0.470124
2650.38,0.467999
2651.73,0.466223
2653.09,0.464531
2654.45,0.463466
2655.81,0.461908
2657.17,0.461673
2658.53,0.460813
2659.89,0.459352
2661.26,0.458073
2662.63,0.457032
2664.0,0.455132
2665.36,0.452551
2666.74,0.450358
2668.11,0.448481
2669.48,0.444991
2670.86,0.438911
2672.23,0.434441
2673.61,0.425954
2674.99,0.412655
2676.37,0.396901
2677.76,0.379082
2679.14,0.364573
2680.52,0.353753
2681.91,0.346398
2683.3,0.33819
2684.69,0.329621
2686.08,0.319793
2687.47,0.309035
2688.87,0.296809
2690.26,0.284223
2691.66,0.27004
2693.06,0.253656
2694.46,0.233104
2695.86,0.207223
2697.26,0.173617
2698.66,0.13394
2700.07,0.094107
2701.48,0.063837
2702.89,0.048266
2704.3,0.042929
2705.71,0.03864
2707.12,0.034026
2708.53,0.031517
2709.95,0.031942
2711.37,0.033323
2712.79,0.035221
2714.21,0.037056
2715.63,0.038788
2717.05,0.041268
2718.48,0.044835
2719.9,0.049134
2721.33,0.054571
2722.76,0.061121
2724.19,0.066518
2725.62,0.071848
2727.06,0.075961
2728.49,0.078519
2729.93,0.081054
2731.37,0.08317
2732.81,0.084262
2734.25,0.084058
2735.69,0.083279
2737.14,0.081691
2738.58,0.080398
2740.03,0.079487
2741.48,0.077737
2742.93,0.07646
2744.38,0.076388
2745.83,0.077385
2747.29,0.0802
2748.75,0.08468
2750.2,0.090688
2751.66,0.097967
2753.13,0.106193
2754.59,0.11466
2756.05,0.123778
2757.52,0.133208
2758.99,0.139872
2760.46,0.144816
2761.93,0.149113
2763.4,0.153306
2764.87,0.157073
2766.35,0.159941
2767.82,0.162824
2769.3,0.165157
2770.78,0.167136
2772.26,0.169375
2773.75,0.171411
2775.23,0.173048
2776.72,0.174371
2778.21,0.175046
2779.7,0.17611
2781.19,0.177864
2782.68,0.178612
2784.18,0.178704
2785.67,0.179318
2787.17,0.179578
2788.67,0.179822
2790.17,0.180331
2791.67,0.180524
2793.18,0.181287
2794.68,0.181549
2796.19,0.182155
2797.7,0.183124
2799.21,0.183493
2800.72,0.183638
2802.24,0.18387
2803.75,0.18449
2805.27,0.185222
2806.79,0.186236
2808.31,0.186957
2809.83,0.187278
2811.35,0.187892
2812.88,0.188675
2814.41,0.189605
2815.93,0.191217
2817.46,0.192538
2819.0,0.193517
2820.53,0.195154
2822.07,0.197199
2823.6,0.198989
2825.14,0.200855
2826.68,0.202414
2828.22,0.20362
2829.77,0.205161
2831.31,0.207161
2832.86,0.208517
2834.41,0.209434
2835.96,0.210513
2837.51,0.211737
2839.07,0.213156
2840.62,0.214439
2842.18,0.215641
2843.74,0.216574
2845.3,0.217074
2846.86,0.217452
2848.43,0.218166
2849.99,0.21872
2851.56,0.218595
2853.13,0.218458
2854.7,0.219407
2856.27,0.219997
2857.85,0.220143
2859.42,0.221151
2861.0,0.222391
2862.58,0.223376
2864.16,0.223817
2865.75,0.224771
2867.33,0.225951
2868.92,0.22699
2870.51,0.227952
2872.1,0.229244
2873.69,0.230592
2875.28,0.231479
2876.88,0.232452
2878.48,0.233879
2880.07,0.234777
2881.68,0.235791
2883.28,0.236602
2884.88,0.236624
2886.49,0.237364
2888.1,0.237799
2889.71,0.238095
2891.32,0.238537
2892.93,0.23922
2894.55,0.239497
2896.16,0.239837
2897.78,0.240803
2899.4,0.241497
2901.03,0.24128
2902.65,0.241186
2904.28,0.241518
2905.91,0.241903
2907.54,0.242163
2909.17,0.242238
2910.8,0.24203
2912.44,0.242292
2914.07,0.242636
2915.71,0.242932
2917.35,0.243132
2918.99,0.243245
2920.64,0.243284
2922.29,0.243428
2923.93,0.243932
2925.58,0.244451
2927.24,0.244711
2928.89,0.244807
2930.55,0.245082
2932.2,0.245384
2933.86,0.245428
2935.52,0.245728
2937.19,0.24613
2938.85,0.246832
2940.52,0.247161
2942.19,0.24733
2943.86,0.247584
2945.53,0.248142
2947.21,0.248548
2948.88,0.248634
2950.56,0.249085
2952.24,0.249902
2953.92,0.250381
2955.61,0.250831
2957.29,0.251237
2958.98,0.251571
2960.67,0.251869
2962.36,0.252367
2964.06,0.252873
2965.75,0.253364
2967.45,0.253816
2969.15,0.254725
2970.85,0.255174
2972.55,0.255576
2974.26,0.256297
2975.97,0.256656
2977.68,0.256849
2979.39,0.257197
2981.1,0.257922
2982.82,0.258372
2984.53,0.258999
2986.25,0.259693
2987.97,0.260018
2989.7,0.260051
2991.42,0.260224
2993.15,0.260828
2994.88,0.261345
2996.61,0.261882
2998.34,0.262576
3000.08,0.263292
3001.82,0.263605
3003.55,0.263507
3005.3,0.263811
3007.04,0.264251
3008.78,0.264678
3010.53,0.265132
3012.28,0.265859
3014.03,0.266277
3015.79,0.266244
3017.54,0.266907
3019.3,0.267513
3021.06,0.267902
3022.82,0.268254
3024.58,0.268392
3026.35,0.2689
3028.12,0.269456
3029.89,0.270231
3031.66,0.271004
3033.43,0.27145
3035.21,0.271698
3036.99,0.271944
3038.77,0.272581
3040.55,0.273097
3042.33,0.273343
3044.12,0.273675
3045.91,0.274166
3047.7,0.274699
3049.49,0.275345
3051.29,0.276122
3053.08,0.276558
3054.88,0.276966
3056.68,0.277097
3058.49,0.277449
3060.29,0.278493
3062.1,0.279388
3063.91,0.279943
3065.72,0.280828
3067.54,0.28173
3069.35,0.281984
3071.17,0.282299
3072.99,0.283053
3074.81,0.284151
3076.64,0.284471
3078.47,0.284346
3080.29,0.284651
3082.13,0.284992
3083.96,0.285284
3085.79,0.285702
3087.63,0.286129
3089.47,0.286571
3091.31,0.286907
3093.16,0.287
3095.01,0.287358
3096.85,0.287885
3098.71,0.288265
3100.56,0.288633
3102.41,0.28911
3104.27,0.289577
3106.13,0.290137
3107.99,0.290337
3109.86,0.290583
3111.73,0.290844
3113.59,0.291108
3115.47,0.29165
3117.34,0.292306
3119.21,0.292672
3121.09,0.29316
3122.97,0.293589
3124.86,0.293901
3126.74,0.294327
3128.63,0.294628
3130.52,0.295168
3132.41,0.29587
3134.3,0.296555
3136.2,0.297164
3138.1,0.297616
3140.0,0.298266
3141.9,0.299084
3143.81,0.299701
3145.71,0.300784
3147.62,0.301742
3149.54,0.302511
3151.45,0.303378
3153.37,0.304113
3155.29,0.304615
3157.21,0.305311
3159.13,0.305913
3161.06,0.30624
3162.99,0.307027
3164.92,0.308106
3166.85,0.309189
3168.79,0.309716
3170.72,0.310031
3172.67,0.310371
3174.61,0.31105
3176.55,0.311691
3178.5,0.31215
3180.45,0.312622
3182.4,0.313443
3184.36,0.314241
3186.32,0.31493
3188.27,0.31562
3190.24,0.316157
3192.2,0.316728
3194.17,0.317299
3196.14,0.317891
3198.11,0.318313
3200.08,0.319147
3202.06,0.319967
3204.04,0.32033
3206.02,0.320551
3208.0,0.321055
3209.99,0.321707
3211.98,0.322126
3213.97,0.322299
3215.96,0.322251
3217.96,0.322496
3219.96,0.322575
3221.96,0.322517
3223.96,0.322661
3225.97,0.323067
3227.98,0.322955
3229.99,0.322555
3232.0,0.32235
3234.02,0.322298
3236.04,0.322548
3238.06,0.322992
3240.08,0.323678
3242.11,0.324438
3244.14,0.325032
3246.17,0.325633
3248.2,0.326129
3250.24,0.326629
3252.28,0.327117
3254.32,0.327592
3256.37,0.328283
3258.41,0.328833
3260.46,0.329362
3262.51,0.330218
3264.57,0.330729
3266.63,0.330841
3268.69,0.331223
3270.75,0.331758
3272.81,0.332181
3274.88,0.333102
3276.95,0.333928
3279.02,0.334274
3281.1,0.33471
3283.18,0.335509
3285.26,0.336274
3287.34,0.336597
3289.43,0.336949
3291.51,0.337411
3293.61,0.33768
3295.7,0.33809
3297.8,0.338484
3299.9,0.338918
3302.0,0.339357
3304.1,0.339832
3306.21,0.34039
3308.32,0.340938
3310.43,0.341653
3312.55,0.342163
3314.66,0.342561
3316.79,0.343278
3318.91,0.344021
3321.03,0.344617
3323.16,0.344617
3325.29,0.344665
3327.43,0.345267
3329.57,0.345894
3331.71,0.346181
3333.85,0.346208
3335.99,0.346456
3338.14,0.347002
3340.29,0.347008
3342.45,0.347054
3344.6,0.347085
3346.76,0.346967
3348.92,0.346765
3351.09,0.346658
3353.26,0.346492
3355.43,0.346262
3357.6,0.345979
3359.78,0.345413
3361.96,0.34484
3364.14,0.344096
3366.32,0.343213
3368.51,0.342073
3370.7,0.340934
3372.89,0.340067
3375.09,0.339209
3377.29,0.338238
3379.49,0.337613
3381.69,0.337568
3383.9,0.33767
3386.11,0.337489
3388.32,0.337359
3390.54,0.337497
3392.76,0.337382
3394.98,0.337105
3397.21,0.336641
3399.43,0.335968
3401.66,0.334695
3403.9,0.333095
3406.13,0.331558
3408.37,0.330135
3410.61,0.328725
3412.86,0.3277
3415.11,0.32696
3417.36,0.326617
3419.61,0.327073
3421.87,0.328454
3424.13,0.330546
3426.39,0.332733
3428.66,0.334935
3430.93,0.337395
3433.2,0.339659
3435.48,0.341638
3437.76,0.343721
3440.04,0.345686
3442.32,0.347225
3444.61,0.348693
3446.9,0.350012
3449.19,0.351379
3451.49,0.352447
3453.79,0.35328
3456.09,0.354299
3458.4,0.355791
3460.7,0.356805
3463.02,0.357478
3465.33,0.358099
3467.65,0.358601
3469.97,0.358757
3472.29,0.358922
3474.62,0.358845
3476.95,0.358657
3479.29,0.358395
3481.62,0.358372
3483.96,0.358417
3486.3,0.358713
3488.65,0.358857
3491.0,0.358513
3493.35,0.358307
3495.71,0.358255
3498.07,0.357911
3500.43,0.357497
3502.79,0.357563
3505.16,0.358422
3507.53,0.359488
3509.91,0.360773
3512.29,0.362275
3514.67,0.364142
3517.05,0.365915
3519.44,0.367329
3521.83,0.36912
3524.23,0.371074
3526.62,0.372926
3529.02,0.374947
3531.43,0.376955
3533.83,0.378913
3536.24,0.380815
3538.66,0.382746
3541.08,0.384265
3543.5,0.385689
3545.92,0.387154
3548.35,0.388439
3550.78,0.389724
3553.21,0.391003
3555.65,0.391879
3558.09,0.392591
3560.53,0.393149
3562.98,0.393914
3565.43,0.394576
3567.88,0.395255
3570.34,0.395749
3572.8,0.395941
3575.27,0.396151
3577.73,0.396693
3580.2,0.396651
3582.68,0.396426
3585.16,0.396276
3587.64,0.396251
3590.12,0.396159
3592.61,0.395878
3595.1,0.395805
3597.6,0.395647
3600.09,0.39488
3602.6,0.393793
3605.1,0.392749
3607.61,0.39177
3610.12,0.391247
3612.64,0.391631
3615.16,0.392618
3617.68,0.394586
3620.21,0.397015
3622.74,0.398913
3625.27,0.400367
3627.81,0.402004
3630.35,0.403758
3632.89,0.405223
3635.44,0.406368
3637.99,0.407581
3640.54,0.408698
3643.1,0.409479
3645.66,0.410454
3648.23,0.411339
3650.8,0.411837
3653.37,0.412378
3655.95,0.412826
3658.53,0.41318
3661.11,0.413605
3663.7,0.414003
3666.29,0.414163
3668.89,0.414516
3671.48,0.414901
3674.09,0.415316
3676.69,0.415738
3679.3,0.415995
3681.91,0.41618
3684.53,0.416545
3687.15,0.416418
3689.78,0.416268
3692.4,0.417005
3695.04,0.418082
3697.67,0.418711
3700.31,0.419092
3702.95,0.419527
3705.6,0.419884
3708.25,0.419919
3710.91,0.419511
3713.56,0.418848
3716.23,0.418265
3718.89,0.417988
3721.56,0.417973
3724.23,0.417767
3726.91,0.417128
3729.59,0.416807
3732.28,0.417857
3734.97,0.419948
3737.66,0.421915
3740.36,0.422977
3743.06,0.423871
3745.76,0.424802
3748.47,0.425868
3751.18,0.426914
3753.9,0.427754
3756.62,0.428539
3759.34,0.429158
3762.07,0.429876
3764.8,0.430301
3767.54,0.43068
3770.28,0.43147
3773.02,0.432134
3775.77,0.432462
3778.52,0.432687
3781.28,0.433218
3784.04,0.433839
3786.8,0.434103
3789.57,0.434145
3792.34,0.434743
3795.12,0.435305
3797.9,0.435711
3800.69,0.435994
3803.47,0.436271
3806.27,0.436403
3809.06,0.436663
3811.86,0.437099
3814.67,0.437649
3817.48,0.438165
3820.29,0.438365
3823.11,0.438615
3825.93,0.439177
3828.76,0.439565
3831.59,0.439877
3834.42,0.439963
3837.26,0.440304
3840.1,0.440761
3842.95,0.441094
3845.8,0.441331
3848.65,0.441481
3851.51,0.441665
3854.38,0.441888
3857.24,0.442035
3860.12,0.442269
3862.99,0.442523
3865.87,0.442785
3868.76,0.443156
3871.65,0.443431
3874.54,0.443625
3877.44,0.444162
3880.34,0.444446
3883.25,0.44456
3886.16,0.444702
3889.07,0.44475
3891.99,0.444916
3894.92,0.445152
3897.85,0.445308
3900.78,0.445487
3903.72,0.445529
3906.66,0.445596
3909.6,0.44566
3912.55,0.44586
3915.51,0.446095
3918.47,0.446347
3921.43,0.44641
3924.4,0.446516
3927.38,0.446654
3930.35,0.446791
3933.33,0.446604
3936.32,0.446548
3939.31,0.446714
3942.31,0.446714
3945.31,0.446606
3948.31,0.446666
3951.32,0.44675
3954.34,0.446735
3957.35,0.446597
3960.38,0.44662
3963.41,0.446656
3966.44,0.446873
3969.48,0.447008
3972.52,0.447229
3975.56,0.447445
3978.61,0.447799
3981.67,0.448039
3984.73,0.448189
3987.8,0.44851
3990.87,0.448956
3993.94,0.449231
3997.02,0.449374
4000.1,0.44957
4003.19,0.449958
4006.29,0.45038
4009.39,0.450807
4012.49,0.450926
4015.6,0.450993
4018.71,0.45108
4021.83,0.451343
4024.95,0.451462
4028.08,0.451818
4031.21,0.452055
4034.35,0.452087
4037.49,0.452149
4040.64,0.45238
4043.79,0.452355
4046.94,0.452482
4050.11,0.452586
4053.27,0.452741
4056.44,0.452788
4059.62,0.452757
4062.8,0.452378
4065.99,0.452391
4069.18,0.452657
4072.38,0.452678
4075.58,0.452609
4078.78,0.452855
4082.0,0.452814
4085.21,0.452755
4088.43,0.452816
4091.66,0.452857
4094.89,0.452863
4098.13,0.452763
4101.37,0.452588
4104.62,0.452711
4107.87,0.452689
4111.13,0.452589
4114.39,0.452614
4117.66,0.452668
4120.93,0.452539
4124.21,0.452482
4127.5,0.45232
4130.79,0.452434
4134.08,0.452307
4137.38,0.45223
4140.68,0.452234
4143.99,0.452428
4147.31,0.452453
4150.63,0.452305
4153.95,0.451959
4157.29,0.451811
4160.62,0.451836
4163.96,0.451824
4167.31,0.451776
4170.66,0.451837
4174.02,0.451897
4177.39,0.451797
4180.75,0.45162
4184.13,0.451547
4187.51,0.451387
4190.89,0.451318
4194.28,0.451307
4197.68,0.451385
4201.08,0.451178
4204.49,0.450807
4207.9,0.450449
4211.32,0.450068
4214.74,0.449633
4218.17,0.449353
4221.61,0.44931
4225.05,0.449251
4228.5,0.448712
4231.95,0.448529
4235.4,0.448431
4238.87,0.448376
4242.34,0.448279
4245.81,0.448543
4249.29,0.448881
4252.78,0.449106
4256.27,0.449331
4259.77,0.449347
4263.27,0.44882
4266.78,0.448152
4270.29,0.447835
4273.81,0.447779
4277.34,0.447779
4280.87,0.447993
4284.41,0.447916
4287.95,0.447883
4291.5,0.447808
4295.06,0.447814
4298.62,0.447927
4302.19,0.447949
4305.76,0.447574
4309.34,0.447701
4312.92,0.447935
4316.52,0.448166
4320.11,0.448064
4323.72,0.448118
4327.32,0.448145
4330.94,0.448174
4334.56,0.448233
4338.19,0.44836
4341.82,0.448301
4345.46,0.448476
4349.11,0.448637
4352.76,0.448599
4356.42,0.448295
4360.08,0.448335
4363.75,0.448345
4367.43,0.448583
4371.11,0.448556
4374.8,0.448372
4378.49,0.448312
4382.19,0.448324
4385.9,0.448195
4389.61,0.448356
4393.33,0.448433
4397.06,0.44841
4400.79,0.448293
4404.53,0.448422
4408.28,0.448566
4412.03,0.448333
4415.79,0.448126
4419.55,0.44807
4423.32,0.447935
4427.1,0.447964
4430.88,0.447976
4434.68,0.448241
4438.47,0.448212
4442.28,0.448037
4446.08,0.447897
4449.9,0.447877
4453.72,0.447706
4457.55,0.447693
4461.39,0.447774
4465.23,0.447749
4469.08,0.447649
4472.94,0.447554
4476.8,0.447506
4480.67,0.447591
4484.55,0.447445
4488.43,0.447412
4492.32,0.447352
4496.21,0.447233
4500.12,0.447035
4504.03,0.447037
4507.94,0.446873
4511.87,0.446847
4515.8,0.44672
4519.73,0.44652
4523.68,0.44647
4527.63,0.4464
4531.59,0.4462
4535.55,0.446073
4539.52,0.445854
4543.5,0.445662
4547.49,0.445369
4551.48,0.445273
4555.48,0.445141
4559.49,0.445014
4563.5,0.444752
4567.52,0.444442
4571.55,0.444212
4575.58,0.444108
4579.63,0.443765
4583.67,0.44366
4587.73,0.443475
4591.79,0.443138
4595.86,0.442869
4599.94,0.442844
4604.03,0.44254
4608.12,0.442406
4612.22,0.44214
4616.33,0.441961
4620.44,0.441831
4624.56,0.441679
4628.69,0.441267
4632.83,0.441119
4636.97,0.440896
4641.12,0.440804
4645.28,0.440734
4649.45,0.440773
4653.62,0.440748
4657.8,0.440692
4661.99,0.440398
4666.19,0.440315
4670.39,0.440159
4674.6,0.440082
4678.82,0.439867
4683.05,0.439782
4687.28,0.439425
4691.52,0.439061
4695.77,0.438765
4700.03,0.43843
4704.3,0.437873
4708.57,0.437407
4712.85,0.436728
4717.14,0.435778
4721.43,0.434828
4725.74,0.434013
4730.05,0.432836
4734.37,0.431583
4738.7,0.430316
4743.03,0.429091
4747.38,0.427606
4751.73,0.426202
4756.09,0.424794
4760.45,0.423683
4764.83,0.422456
4769.21,0.421432
4773.6,0.420607
4778.0,0.419982
4782.41,0.419542
4786.83,0.419323
4791.25,0.419303
4795.68,0.419588
4800.13,0.419955
4804.57,0.420354
4809.03,0.420613
4813.5,0.4211
4817.97,0.421586
4822.45,0.422163
4826.94,0.422377
4831.44,0.422469
4835.95,0.422742
4840.46,0.422894
4844.99,0.422769
4849.52,0.422484
4854.06,0.422023
4858.61,0.421498
4863.17,0.420711
4867.73,0.419946
4872.31,0.418984
4876.89,0.418009
4881.48,0.416965
4886.08,0.415942
4890.69,0.414503
4895.31,0.413345
4899.94,0.412297
4904.57,0.411245
4909.22,0.410268
4913.87,0.409689
4918.53,0.409162
4923.21,0.40882
4927.88,0.408622
4932.57,0.408752
4937.27,0.408999
4941.98,0.409402
4946.69,0.409722
4951.42,0.409958
4956.15,0.409812
4960.9,0.409699
4965.65,0.409352
4970.41,0.408904
4975.18,0.408272
4979.96,0.40755
4984.75,0.406727
4989.54,0.4058
4994.35,0.404729
4999.17,0.40384
5003.99,0.402965
5008.83,0.402313
5013.67,0.401673
5018.52,0.401148
5023.39,0.400698
5028.26,0.400525
5033.14,0.400286
5038.03,0.400138
5042.93,0.399875
5047.84,0.39979
5052.76,0.399788
5057.69,0.399848
5062.63,0.399698
5067.58,0.399803
5072.54,0.399913
5077.51,0.400234
5082.49,0.400527
5087.47,0.400834
5092.47,0.401136
5097.48,0.401561
5102.5,0.401875
5107.52,0.402365
5112.56,0.402665
5117.61,0.402967
5122.66,0.403119
5127.73,0.403358
5132.81,0.403519
5137.89,0.403642
5142.99,0.403721
5148.1,0.403979
5153.22,0.404229
5158.34,0.404458
5163.48,0.404523
5168.63,0.404744
5173.79,0.404723
5178.96,0.404762
5184.13,0.404717
5189.32,0.404506
5194.52,0.404065
5199.73,0.40371
5204.96,0.403027
5210.19,0.40229
5215.43,0.401175
5220.68,0.400348
5225.94,0.399211
5231.22,0.397951
5236.5,0.396449
5241.79,0.394897
5247.1,0.393299
5252.42,0.39177
5257.74,0.390029
5263.08,0.388302
5268.43,0.386433
5273.79,0.384702
5279.16,0.382881
5284.54,0.381134
5289.93,0.379276
5295.34,0.377501
5300.75,0.375741
5306.18,0.373957
5311.61,0.371906
5317.06,0.370102
5322.52,0.368219
5327.99,0.366415
5333.47,0.364619
5338.96,0.363073
5344.47,0.361621
5349.98,0.360224
5355.51,0.358757
5361.05,0.357618
5366.6,0.356518
5372.16,0.355697
5377.73,0.354814
5383.32,0.354235
5388.91,0.353658
5394.52,0.353247
5400.14,0.352847
5405.77,0.352645
5411.41,0.35251
5417.07,0.352545
5422.74,0.352281
5428.41,0.352272
5434.1,0.351954
5439.81,0.351433
5445.52,0.350875
5451.25,0.350414
5456.98,0.349646
5462.73,0.348721
5468.5,0.347685
5474.27,0.346737
5480.06,0.345521
5485.86,0.344571
5491.67,0.343375
5497.49,0.34229
5503.33,0.341049
5509.18,0.339911
5515.04,0.338768
5520.91,0.337868
5526.8,0.336911
5532.69,0.336045
5538.61,0.334989
5544.53,0.334039
5550.47,0.333131
5556.41,0.332314
5562.38,0.331402
5568.35,0.330546
5574.34,0.3295
5580.34,0.328737
5586.35,0.328004
5592.38,0.327319
5598.42,0.326323
5604.47,0.325238
5610.54,0.323998
5616.61,0.322767
5622.71,0.321574
5628.81,0.320193
5634.93,0.318413
5641.06,0.316889
5647.21,0.315664
5653.36,0.314491
5659.54,0.312902
5665.72,0.311666
5671.92,0.310312
5678.13,0.309067
5684.36,0.307954
5690.6,0.306892
5696.85,0.305673
5703.12,0.304834
5709.4,0.303878
5715.69,0.303203
5722.0,0.302342
5728.33,0.301599
5734.66,0.300882
5741.01,0.300242
5747.38,0.299236
5753.76,0.298605
5760.15,0.29773
5766.56,0.296614
5772.98,0.295462
5779.41,0.294276
5785.86,0.292622
5792.33,0.291306
5798.81,0.289577
5805.3,0.287786
5811.81,0.285719
5818.33,0.28368
5824.87,0.28144
5831.42,0.279364
5837.99,0.276755
5844.57,0.274077
5851.17,0.271004
5857.78,0.26805
5864.41,0.264898
5871.05,0.261899
5877.7,0.258926
5884.38,0.256168
5891.06,0.253271
5897.76,0.250652
5904.48,0.248131
5911.21,0.245755
5917.96,0.243401
5924.73,0.24127
5931.5,0.239239
5938.3,0.237445
5945.11,0.235818
5951.93,0.234206
5958.78,0.232512
5965.63,0.230933
5972.51,0.229527
5979.39,0.228244
5986.3,0.226651
5993.22,0.225396
6000.16,0.223878
6007.11,0.222299
6014.08,0.220447
6021.06,0.218631
6028.06,0.216681
6035.08,0.214598
6042.12,0.212215
6049.17,0.209983
6056.23,0.207488
6063.32,0.204844
6070.42,0.202095
6077.53,0.19972
6084.67,0.197543
6091.82,0.195677
6098.98,0.193981
6106.17,0.192648
6113.37,0.191306
6120.58,0.190263
6127.82,0.189334
6135.07,0.188669
6142.34,0.188038
6149.63,0.18775
6156.93,0.18754
6164.25,0.187617
6171.59,0.187821
6178.95,0.188028
6186.32,0.188075
6193.71,0.188336
6201.12,0.188315
6208.54,0.188242
6215.99,0.188173
6223.45,0.188111
6230.93,0.187453
6238.43,0.186426
6245.95,0.184949
6253.48,0.183314
6261.03,0.181272
6268.6,0.179097
6276.19,0.176918
6283.8,0.174869
6291.43,0.173135
6299.07,0.172121
6306.73,0.171586
6314.42,0.171325
6322.12,0.171192
6329.84,0.171336
6337.57,0.171588
6345.33,0.171875
6353.11,0.172738
6360.9,0.173544
6368.72,0.174458
6376.55,0.1759
6384.4,0.177323
6392.27,0.178643
6400.17,0.180368
6408.08,0.181951
6416.01,0.183747
6423.96,0.186196
6431.93,0.18809
6439.92,0.189773
6447.93,0.191688
6455.96,0.19351
6464.01,0.195306
6472.08,0.196843
6480.17,0.198562
6488.28,0.200403
6496.41,0.202226
6504.56,0.203949
6512.73,0.205238
6520.92,0.206088
6529.14,0.207009
6537.37,0.207384
6545.63,0.207461
6553.9,0.207661
6562.2,0.20755
6570.51,0.207138
6578.85,0.206473
6587.21,0.205497
6595.59,0.204532
6603.99,0.203501
6612.42,0.202222
6620.86,0.20102
6629.33,0.200093
6637.82,0.19927
6646.33,0.197991
6654.86,0.196629
6663.41,0.195356
6671.99,0.194235
6680.59,0.19305
6689.21,0.191856
6697.85,0.190633
6706.51,0.189461
6715.2,0.188136
6723.91,0.186649
6732.64,0.185074
6741.4,0.183564
6750.18,0.181941
6758.98,0.180347
6767.8,0.178756
6776.65,0.176964
6785.52,0.175083
6794.41,0.173373
6803.33,0.171484
6812.27,0.169855
6821.23,0.168701
6830.22,0.167786
6839.23,0.16708
6848.26,0.166505
6857.32,0.16603
6866.4,0.165895
6875.51,0.165986
6884.64,0.166128
6893.8,0.166317
6902.98,0.166784
6912.18,0.167286
6921.41,0.167653
6930.66,0.168046
6939.94,0.168342
6949.24,0.168582
6958.57,0.168917
6967.92,0.169163
6977.3,0.169494
6986.7,0.169821
6996.13,0.170277
7005.59,0.170752
7015.07,0.171134
7024.57,0.171506
7034.1,0.171883
7043.66,0.172198
7053.25,0.172371
7062.85,0.172211
7072.49,0.171852
7082.15,0.171642
7091.84,0.171673
7101.55,0.171727
7111.3,0.171644
7121.06,0.171465
7130.86,0.171492
7140.68,0.171617
7150.53,0.171919
7160.41,0.172365
7170.31,0.172813
7180.24,0.173269
7190.2,0.173544
7200.19,0.173733
7210.2,0.173727
7220.24,0.173485
7230.31,0.172975
7240.41,0.172288
7250.54,0.171506
7260.69,0.170629
7270.88,0.169665
7281.09,0.168638
7291.33,0.167484
7301.6,0.165936
7311.9,0.164313
7322.22,0.162141
7332.58,0.160291
7342.97,0.159828
7353.38,0.159812
7363.83,0.159026
7374.3,0.157608
7384.81,0.155806
7395.34,0.153875
7405.91,0.152213
7416.5,0.150409
7427.13,0.148246
7437.78,0.146076
7448.47,0.143595
7459.19,0.141737
7469.94,0.140768
7480.71,0.14041
7491.52,0.140154
7502.37,0.139824
7513.24,0.139252
7524.14,0.138731
7535.08,0.138062
7546.05,0.137191
7557.05,0.136098
7568.08,0.13511
7579.15,0.134046
7590.24,0.132925
7601.37,0.131854
7612.53,0.131013
7623.73,0.130109
7634.96,0.129307
7646.22,0.12863
7657.51,0.128003
7668.84,0.127278
7680.2,0.12648
7691.59,0.125713
7703.02,0.124886
7714.49,0.123689
7725.98,0.122412
7737.52,0.121024
7749.08,0.11925
7760.68,0.117223
7772.32,0.115036
7783.99,0.11268
7795.69,0.110517
7807.43,0.108545
7819.21,0.106791
7831.02,0.105136
7842.87,0.103716
7854.75,0.102222
7866.67,0.100916
7878.62,0.09936
7890.62,0.097773
7902.64,0.096379
7914.71,0.094794
7926.81,0.09304
7938.95,0.091726
7951.13,0.090321
7963.34,0.088767
7975.59,0.087188
7987.88,0.085726
8000.21,0.084062
8012.57,0.082579
8024.98,0.081027
8037.42,0.079387
8049.9,0.077506
8062.42,0.075679
8074.98,0.073679
8087.57,0.071915
8100.21,0.070045
8112.89,0.068024
8125.6,0.066147
8138.36,0.064485
8151.16,0.062574
8163.99,0.060685
8176.87,0.058854
8189.79,0.057304
8202.75,0.055471
8215.75,0.053903
8228.79,0.05239
8241.87,0.050599
8254.99,0.048574
8268.16,0.046701
8281.37,0.044854
8294.62,0.043027
8307.91,0.041445
8321.24,0.040173
8334.62,0.038613
8348.04,0.03709
8361.51,0.035646
8375.02,0.034494
8388.57,0.033273
8402.16,0.032201
8415.8,0.031053
8429.49,0.029924
8443.22,0.028611
8456.99,0.027516
8470.81,0.026183
8484.67,0.024947
8498.58,0.023756
8512.54,0.022695
8526.54,0.0216
8540.58,0.020629
8554.68,0.019623
8568.82,0.018956
8583.0,0.018106
8597.24,0.017444
8611.52,0.016711
8625.85,0.016038
8640.23,0.015448
8654.65,0.01505
8669.12,0.014828
8683.64,0.015034
8698.21,0.015123
8712.83,0.015217
8727.5,0.015617
8742.22,0.016186
8756.99,0.016825
8771.8,0.018
8786.67,0.019133
8801.59,0.020464
8816.56,0.021754
8831.58,0.023468
8846.65,0.025553
8861.77,0.027955
8876.94,0.030567
8892.17,0.033534
8907.45,0.036644
8922.78,0.039777
8938.16,0.04291
8953.6,0.046253
8969.09,0.049507
8984.64,0.052996
9000.23,0.056063
9015.89,0.058131
9031.59,0.058902
9047.36,0.058512
9063.17,0.057463
9079.05,0.056229
9094.97,0.05478
9110.96,0.053603
9127.0,0.052632
9143.1,0.051755
9159.25,0.050684
9175.46,0.049534
9191.73,0.048109
9208.06,0.046926
9224.44,0.045491
9240.88,0.043972
9257.38,0.042577
9273.94,0.041458
9290.56,0.040471
9307.24,0.039944
9323.98,0.039075
9340.78,0.038385
9357.64,0.038419
9374.57,0.038688
9391.55,0.03889
9408.59,0.03936
9425.7,0.040071
9442.87,0.041385
9460.1,0.042793
9477.4,0.044664
9494.75,0.046587
9512.17,0.048474
9529.66,0.050276
9547.21,0.051601
9564.83,0.052648
9582.5,0.053638
9600.25,0.0542
9618.06,0.054423
9635.94,0.054194
9653.88,0.053973
9671.89,0.053967
9689.97,0.053967
9708.12,0.05379
9726.33,0.053911
9744.62,0.053984
9762.97,0.054186
9781.39,0.054348
9799.88,0.054479
9818.44,0.054707
9837.07,0.055059
9855.77,0.0555
9874.54,0.056038
9893.39,0.056546
9912.3,0.056992
9931.29,0.057069
9950.36,0.057406
9969.49,0.057858
9988.7,0.058371
10007.98,0.058756
10027.34,0.059046
10046.77,0.059294
10066.28,0.05956
10085.87,0.059666
10105.53,0.059812
10125.26,0.060087
10145.08,0.060585
10164.97,0.060833
10184.94,0.061079
10204.99,0.061487
10225.12,0.062037
10245.33,0.062443
10265.61,0.063095
10285.98,0.063712
10306.43,0.064158
10326.96,0.06431
10347.57,0.064412
10368.27,0.064216
10389.05,0.063904
10409.91,0.063391
10430.86,0.062891
10451.88,0.06211
10473.0,0.061233
10494.2,0.06016
10515.49,0.059262
10536.86,0.058402
10558.32,0.057894
10579.87,0.05749
10601.5,0.05769
10623.23,0.058398
10645.04,0.059475
10666.94,0.061041
10688.94,0.062804
10711.02,0.065124
10733.2,0.068061
10755.47,0.071267
10777.83,0.07499
10800.28,0.078917
10822.83,0.082718
10845.47,0.086316
10868.21,0.090255
10891.04,0.094248
10913.97,0.0982
10936.99,0.102193
10960.12,0.105988
10983.34,0.109421
11006.66,0.112392
11030.07,0.114825
11053.59,0.117112
11077.21,0.119181
11100.93,0.121027
11124.75,0.122699
11148.68,0.124253
11172.71,0.125339
11196.84,0.126063
11221.07,0.126553
11245.41,0.127315
11269.86,0.127924
11294.41,0.12804
11319.07,0.12789
11343.84,0.127659
11368.72,0.127242
11393.7,0.126743
11418.8,0.126695
11444.01,0.126711
11469.33,0.12672
11494.76,0.126901
11520.3,0.126745
11545.96,0.126226
11571.73,0.125534
11597.62,0.124634
11623.62,0.123716
11649.74,0.122983
11675.98,0.12186
11702.34,0.120402
11728.81,0.119343
11755.41,0.118456
11782.13,0.117081
11808.96,0.115631
11835.92,0.114408
11863.01,0.113221
11890.22,0.112144
11917.55,0.110936
11945.01,0.109765
11972.6,0.10858
12000.31,0.106951
12028.16,0.105136
12056.13,0.103585
12084.23,0.101985
12112.46,0.100489
12140.83,0.099198
12169.33,0.097748
12197.96,0.096085
12226.73,0.094417
12255.64,0.092777
12284.68,0.090994
12313.86,0.089163
12343.18,0.087307
12372.64,0.085343
12402.24,0.083372
12431.98,0.081597
12461.86,0.079798
12491.89,0.077837
12522.07,0.076206
12552.38,0.074975
12582.85,0.073861
12613.47,0.072496
12644.23,0.070471
12675.15,0.068992
12706.21,0.067212
12737.43,0.064924
12768.81,0.062577
12800.33,0.060598
12832.02,0.058577
12863.86,0.056808
12895.86,0.055179
12928.02,0.05375
12960.34,0.052236
12992.82,0.050524
13025.46,0.048991
13058.27,0.047445
13091.25,0.045241
13124.39,0.042914
13157.7,0.041171
13191.18,0.039548
13224.83,0.037338
13258.66,0.035305
13292.65,0.033801
13326.83,0.032472
13361.17,0.031159
13395.7,0.029941
13430.4,0.028916
13465.29,0.027962
13500.35,0.026791
13535.6,0.025503
13571.03,0.024139
13606.65,0.022841
13642.46,0.021194
13678.46,0.019873
13714.64,0.019244
13751.02,0.018536
13787.59,0.017642
13824.36,0.016757
13861.32,0.015715
13898.49,0.014867
13935.85,0.01419
13973.41,0.013724
14011.17,0.012882
14049.15,0.012413
14087.32,0.012311
14125.71,0.01242
14164.3,0.012286
14203.11,0.012217
14242.13,0.012294
14281.36,0.012747
14320.81,0.012846
14360.49,0.01313
14400.38,0.013951
14440.49,0.015321
14480.82,0.01659
14521.39,0.017706
14562.18,0.018652
14603.2,0.019964
14644.45,0.021462
14685.93,0.022823
14727.66,0.024389
14769.62,0.026206
14811.81,0.027968
14854.25,0.030188
14896.94,0.03213
14939.87,0.034121
14983.05,0.035979
15026.48,0.037929
15070.16,0.039558
15114.1,0.040808
15158.29,0.041793
15202.74,0.042985
15247.46,0.043712
15292.43,0.044383
15337.68,0.045095
15383.19,0.045907
15428.97,0.046795
15475.03,0.047355
15521.36,0.047641
15567.97,0.048384
15614.87,0.048878
15662.04,0.049778
15709.5,0.050682
15757.25,0.051386
15805.29,0.051946
15853.62,0.052828
15902.26,0.05355
15951.19,0.05385
16000.42,0.053955
16049.95,0.053777
16099.8,0.053461
16149.95,0.053344
16200.42,0.052934
16251.21,0.052474
16302.31,0.051815
16353.74,0.051522
16405.49,0.051513
16457.57,0.051132
16509.98,0.05003
16562.73,0.048968
16615.82,0.047909
16669.24,0.046262
16723.02,0.044052
16777.14,0.04241
16831.61,0.040956
16886.43,0.039658
16941.62,0.038785
16997.16,0.038275
17053.08,0.037621
17109.36,0.037271
17166.01,0.036869
17223.04,0.036494
17280.45,0.035898
17338.24,0.035344
17396.43,0.035257
17455.0,0.035009
17513.97,0.034134
17573.34,0.034032
17633.11,0.033751
17693.29,0.033469
17753.89,0.033446
17814.9,0.033251
17876.33,0.033501
17938.18,0.033915
18000.47,0.033759
18063.19,0.034109
18126.35,0.034282
18189.95,0.034711
18254.0,0.034461
18318.5,0.034086
18383.46,0.033451
18448.88,0.032801
18514.77,0.032619
18581.13,0.03179
18647.97,0.029834
18715.29,0.030324
18783.1,0.030826
18851.4,0.029815
18920.2,0.029553
18989.51,0.029093
19059.32,0.028168
19129.65,0.027282
19200.5,0.02723
19271.88,0.02868
19343.79,0.030191
19416.24,0.03188
19489.23,0.034248
19562.77,0.037127
19636.88,0.040441
19711.54,0.043972
19786.78,0.047005
19862.59,0.050005
19938.98,0.052724
20015.96,0.054884
20093.55,0.057556
20171.73,0.060896
20250.53,0.064128
20329.94,0.066199
20409.98,0.068305
20490.65,0.071074
20571.96,0.073219
20653.92,0.074509
20736.54,0.076475
20819.82,0.078858
20903.77,0.08117
20988.4,0.083374
21073.72,0.085339
21159.73,0.087582
21246.46,0.089255
21333.89,0.090796
21422.04,0.093679
21510.93,0.09665
21600.56,0.099527
21690.94,0.103316
21782.08,0.10572
21873.99,0.107003
21966.67,0.108615
22060.15,0.110148
22154.42,0.109471
22249.51,0.10832
22345.41,0.109019
22442.14,0.110403
22539.72,0.113588
22638.14,0.117471
22737.43,0.121866
22837.6,0.126643
22938.65,0.127982
23040.6,0.124609
23143.46,0.117644
23247.24,0.107632
23351.96,0.096088
23457.63,0.084741
23564.25,0.075815
23671.85,0.070161
23780.44,0.066464
23890.02,0.066037
24000.63,0.066712
24112.26,0.06668
24224.93,0.065666
24338.66,0.064676
24453.47,0.063795
24569.36,0.064708
24686.36,0.067651
24804.47,0.07354
24923.73,0.077396
25044.13,0.077883
25165.71,0.079973
25288.46,0.0774
25412.43,0.075348
25537.61,0.075152
25664.04,0.075811
25791.72,0.077537
25920.68,0.077885
