Database of Origin,University of Winnipeg Spectrophotometer Facility
Sample Description,"RELAB + Nicolet merged data for spinels. Merged @2500nm, different viewing geometries. See Master Spinels in the PSF database for additional information."
Date Added,2016-11-08 17:54:00.426979

Data ID,RLA_SPI_11          
Sample ID,SPI120
Mineral Name,Spinel
Grain Size,<45
Viewing Geometry,"30/0,30/30"
Resolution,5/1.2-129
Composition,Mg
Material Class,Oxide

Wavelength
300.0,0.052548
305.0,0.050719
310.0,0.053743
315.0,0.054059
320.0,0.054142
325.0,0.054393
330.0,0.054909
335.0,0.054315
340.0,0.054346
345.0,0.053855
350.0,0.053766
355.0,0.053575
360.0,0.053513
365.0,0.053111
370.0,0.053547
375.0,0.053359
380.0,0.053278
385.0,0.052988
390.0,0.052979
395.0,0.052986
400.0,0.052943
405.0,0.053597
410.0,0.052836
415.0,0.053571
420.0,0.053552
425.0,0.0537
430.0,0.054109
435.0,0.054186
440.0,0.054111
445.0,0.053992
450.0,0.054199
455.0,0.05418
460.0,0.053974
465.0,0.053958
470.0,0.053838
475.0,0.053885
480.0,0.053896
485.0,0.053938
490.0,0.054042
495.0,0.054165
500.0,0.054313
505.0,0.054576
510.0,0.055459
515.0,0.055524
520.0,0.055908
525.0,0.056318
530.0,0.056778
535.0,0.057572
540.0,0.058224
545.0,0.058898
550.0,0.059702
555.0,0.060707
560.0,0.061421
565.0,0.062397
570.0,0.063357
575.0,0.064587
580.0,0.065745
585.0,0.066906
590.0,0.068259
595.0,0.069722
600.0,0.071271
605.0,0.07288
610.0,0.074746
615.0,0.076669
620.0,0.078585
625.0,0.080467
630.0,0.082466
635.0,0.084179
640.0,0.086078
645.0,0.087389
650.0,0.089039
655.0,0.090164
660.0,0.091321
665.0,0.092491
670.0,0.093227
675.0,0.094047
680.0,0.094748
685.0,0.095389
690.0,0.095482
695.0,0.096077
700.0,0.096528
705.0,0.097013
710.0,0.097114
715.0,0.097156
720.0,0.097722
725.0,0.097934
730.0,0.098574
735.0,0.099259
740.0,0.100266
745.0,0.100934
750.0,0.101648
755.0,0.10243
760.0,0.103171
765.0,0.104227
770.0,0.105319
775.0,0.106302
780.0,0.107396
785.0,0.108385
790.0,0.109819
795.0,0.110998
800.0,0.112378
805.0,0.113554
810.0,0.114674
815.0,0.11726
820.0,0.118141
825.0,0.119454
830.0,0.121316
835.0,0.123852
840.0,0.125557
845.0,0.127577
850.0,0.129792
855.0,0.131958
860.0,0.134981
865.0,0.13722
870.0,0.141324
875.0,0.144195
880.0,0.148048
885.0,0.15219
890.0,0.156386
895.0,0.160054
900.0,0.163842
905.0,0.168037
910.0,0.171065
915.0,0.174375
920.0,0.176962
925.0,0.18024
930.0,0.18271
935.0,0.184368
940.0,0.18563
945.0,0.186981
950.0,0.187483
955.0,0.187827
960.0,0.187993
965.0,0.188193
970.0,0.187602
975.0,0.187151
980.0,0.18596
985.0,0.185231
990.0,0.183816
995.0,0.182348
1000.0,0.180441
1005.0,0.179273
1010.0,0.177253
1015.0,0.175709
1020.0,0.173664
1025.0,0.171857
1030.0,0.170222
1035.0,0.168328
1040.0,0.166629
1045.0,0.164838
1050.0,0.163196
1055.0,0.161517
1060.0,0.159777
1065.0,0.158171
1070.0,0.156263
1075.0,0.155129
1080.0,0.153759
1085.0,0.152367
1090.0,0.15112
1095.0,0.150146
1100.0,0.149091
1105.0,0.147965
1110.0,0.147247
1115.0,0.146474
1120.0,0.146091
1125.0,0.145484
1130.0,0.144693
1135.0,0.144479
1140.0,0.144102
1145.0,0.143759
1150.0,0.143603
1155.0,0.143486
1160.0,0.143468
1165.0,0.143522
1170.0,0.143473
1175.0,0.143931
1180.0,0.144489
1185.0,0.144846
1190.0,0.145661
1195.0,0.14629
1200.0,0.148108
1205.0,0.148702
1210.0,0.149933
1215.0,0.151069
1220.0,0.152458
1225.0,0.153763
1230.0,0.154839
1235.0,0.156659
1240.0,0.158267
1245.0,0.160251
1250.0,0.162123
1255.0,0.164004
1260.0,0.165854
1265.0,0.168155
1270.0,0.17066
1275.0,0.173496
1280.0,0.17636
1285.0,0.179072
1290.0,0.182016
1295.0,0.184915
1300.0,0.188112
1305.0,0.192386
1310.0,0.196425
1315.0,0.199893
1320.0,0.204093
1325.0,0.208197
1330.0,0.212721
1335.0,0.217054
1340.0,0.222166
1345.0,0.227604
1350.0,0.233345
1355.0,0.239743
1360.0,0.246691
1365.0,0.250769
1370.0,0.255437
1375.0,0.261277
1380.0,0.270837
1385.0,0.274419
1390.0,0.279702
1395.0,0.286388
1400.0,0.292926
1405.0,0.29831
1410.0,0.302866
1415.0,0.31055
1420.0,0.316417
1425.0,0.322164
1430.0,0.328255
1435.0,0.333599
1440.0,0.339111
1445.0,0.344352
1450.0,0.3495
1455.0,0.355029
1460.0,0.360032
1465.0,0.365528
1470.0,0.370476
1475.0,0.375183
1480.0,0.379164
1485.0,0.383179
1490.0,0.387134
1495.0,0.390936
1500.0,0.394805
1505.0,0.399233
1510.0,0.402994
1515.0,0.406447
1520.0,0.409497
1525.0,0.412385
1530.0,0.415626
1535.0,0.418478
1540.0,0.421601
1545.0,0.424236
1550.0,0.427522
1555.0,0.4303
1560.0,0.432525
1565.0,0.43597
1570.0,0.438252
1575.0,0.440612
1580.0,0.443033
1585.0,0.442621
1590.0,0.445291
1595.0,0.447158
1600.0,0.449075
1605.0,0.451807
1610.0,0.453535
1615.0,0.455706
1620.0,0.457774
1625.0,0.459573
1630.0,0.461427
1635.0,0.463901
1640.0,0.465392
1645.0,0.467774
1650.0,0.469862
1655.0,0.47199
1660.0,0.473541
1665.0,0.475233
1670.0,0.477198
1675.0,0.479157
1680.0,0.480751
1685.0,0.481694
1690.0,0.484832
1695.0,0.485561
1700.0,0.488503
1705.0,0.490117
1710.0,0.491746
1715.0,0.493785
1720.0,0.495319
1725.0,0.497188
1730.0,0.498921
1735.0,0.500668
1740.0,0.502423
1745.0,0.503787
1750.0,0.505355
1755.0,0.507145
1760.0,0.508703
1765.0,0.510795
1770.0,0.512576
1775.0,0.513459
1780.0,0.515388
1785.0,0.517248
1790.0,0.518903
1795.0,0.520595
1800.0,0.522688
1805.0,0.524497
1810.0,0.526516
1815.0,0.528624
1820.0,0.530589
1825.0,0.531746
1830.0,0.533872
1835.0,0.536669
1840.0,0.537636
1845.0,0.538696
1850.0,0.540023
1855.0,0.541223
1860.0,0.542438
1865.0,0.545542
1870.0,0.54854
1875.0,0.546221
1880.0,0.547977
1885.0,0.549768
1890.0,0.551418
1895.0,0.553222
1900.0,0.555539
1905.0,0.555694
1910.0,0.557211
1915.0,0.558706
1920.0,0.559294
1925.0,0.560006
1930.0,0.562398
1935.0,0.563022
1940.0,0.564443
1945.0,0.565428
1950.0,0.566748
1955.0,0.568272
1960.0,0.570025
1965.0,0.570586
1970.0,0.571831
1975.0,0.573454
1980.0,0.574745
1985.0,0.576331
1990.0,0.578069
1995.0,0.579279
2000.0,0.5809
2005.0,0.582144
2010.0,0.584339
2015.0,0.585161
2020.0,0.586265
2025.0,0.58789
2030.0,0.589073
2035.0,0.589847
2040.0,0.591276
2045.0,0.592334
2050.0,0.594302
2055.0,0.595057
2060.0,0.596366
2065.0,0.597963
2070.0,0.598469
2075.0,0.600009
2080.0,0.6017
2085.0,0.602614
2090.0,0.603681
2095.0,0.604875
2100.0,0.606229
2105.0,0.60738
2110.0,0.60876
2115.0,0.609761
2120.0,0.611965
2125.0,0.612366
2130.0,0.613908
2135.0,0.615405
2140.0,0.615777
2145.0,0.616651
2150.0,0.617421
2155.0,0.618203
2160.0,0.618952
2165.0,0.619313
2170.0,0.619954
2175.0,0.621282
2180.0,0.622023
2185.0,0.623151
2190.0,0.623846
2195.0,0.625048
2200.0,0.625705
2205.0,0.626728
2210.0,0.627335
2215.0,0.628478
2220.0,0.6298
2225.0,0.631177
2230.0,0.631722
2235.0,0.63339
2240.0,0.634215
2245.0,0.635427
2250.0,0.636138
2255.0,0.636944
2260.0,0.638377
2265.0,0.639541
2270.0,0.640641
2275.0,0.641397
2280.0,0.642937
2285.0,0.643655
2290.0,0.645163
2295.0,0.646453
2300.0,0.647491
2305.0,0.648226
2310.0,0.649062
2315.0,0.649483
2320.0,0.651068
2325.0,0.651573
2330.0,0.652956
2335.0,0.65374
2340.0,0.654795
2345.0,0.655252
2350.0,0.656021
2355.0,0.656695
2360.0,0.657088
2365.0,0.657589
2370.0,0.658568
2375.0,0.659431
2380.0,0.660556
2385.0,0.661118
2390.0,0.662373
2395.0,0.662601
2400.0,0.663374
2405.0,0.664934
2410.0,0.666232
2415.0,0.667247
2420.0,0.66699
2425.0,0.667665
2430.0,0.669164
2435.0,0.670502
2440.0,0.670603
2445.0,0.671756
2450.0,0.672137
2455.0,0.672317
2460.0,0.67333
2465.0,0.673816
2470.0,0.674603
2475.0,0.676023
2480.0,0.677463
2485.0,0.678608
2490.0,0.678865
2495.0,0.680365
2500.0,0.681462
2502.0,0.68105
2503.2,0.680817
2504.41,0.680577
2505.62,0.680669
2506.83,0.681352
2508.05,0.682347
2509.26,0.681926
2510.48,0.681559
2511.69,0.682011
2512.91,0.682099
2514.13,0.68175
2515.35,0.682406
2516.57,0.682573
2517.79,0.68273
2519.02,0.682561
2520.24,0.682708
2521.47,0.682394
2522.69,0.682451
2523.92,0.682749
2525.15,0.683682
2526.38,0.684488
2527.61,0.683594
2528.85,0.682973
2530.08,0.683168
2531.32,0.682625
2532.55,0.682385
2533.79,0.683099
2535.03,0.683717
2536.27,0.683517
2537.51,0.683467
2538.75,0.684481
2540.0,0.685204
2541.24,0.684483
2542.49,0.684441
2543.74,0.684498
2544.99,0.684203
2546.24,0.683927
2547.49,0.684657
2548.74,0.685785
2549.99,0.685518
2551.25,0.684976
2552.5,0.684671
2553.76,0.684907
2555.02,0.684943
2556.28,0.685216
2557.54,0.685368
2558.8,0.685116
2560.07,0.685073
2561.33,0.684471
2562.6,0.683539
2563.86,0.683682
2565.13,0.684935
2566.4,0.685821
2567.67,0.68593
2568.95,0.685697
2570.22,0.685709
2571.5,0.685264
2572.77,0.686056
2574.05,0.685554
2575.33,0.685828
2576.61,0.687172
2577.89,0.686613
2579.17,0.686068
2580.46,0.686413
2581.74,0.686822
2583.03,0.686596
2584.31,0.686177
2585.6,0.685597
2586.89,0.687286
2588.19,0.68741
2589.48,0.686817
2590.77,0.68592
2592.07,0.685985
2593.36,0.686891
2594.66,0.687036
2595.96,0.686025
2597.26,0.687141
2598.56,0.688462
2599.87,0.688278
2601.17,0.687957
2602.48,0.687798
2603.78,0.687988
2605.09,0.687674
2606.4,0.688067
2607.71,0.688611
2609.03,0.688797
2610.34,0.688799
2611.66,0.688621
2612.97,0.688814
2614.29,0.689016
2615.61,0.689875
2616.93,0.690025
2618.25,0.689102
2619.57,0.689389
2620.9,0.688944
2622.22,0.687943
2623.55,0.68868
2624.88,0.688633
2626.21,0.688845
2627.54,0.689011
2628.87,0.689761
2630.21,0.689984
2631.54,0.688293
2632.88,0.689485
2634.21,0.690208
2635.55,0.689585
2636.89,0.690087
2638.24,0.689784
2639.58,0.690008
2640.92,0.690548
2642.27,0.69115
2643.62,0.691271
2644.97,0.691148
2646.32,0.690865
2647.67,0.690465
2649.02,0.6909
2650.38,0.690984
2651.73,0.690296
2653.09,0.689972
2654.45,0.690339
2655.81,0.691619
2657.17,0.691509
2658.53,0.691117
2659.89,0.690424
2661.26,0.690108
2662.63,0.6906
2664.0,0.6911
2665.36,0.691003
2666.74,0.69022
2668.11,0.690551
2669.48,0.690753
2670.86,0.690965
2672.23,0.690008
2673.61,0.691407
2674.99,0.690593
2676.37,0.69032
2677.76,0.689877
2679.14,0.689787
2680.52,0.689418
2681.91,0.689104
2683.3,0.688847
2684.69,0.688109
2686.08,0.68722
2687.47,0.685997
2688.87,0.68495
2690.26,0.684495
2691.66,0.68346
2693.06,0.681745
2694.46,0.679159
2695.86,0.676401
2697.26,0.672047
2698.66,0.663953
2700.07,0.651497
2701.48,0.638206
2702.89,0.629246
2704.3,0.623041
2705.71,0.614369
2707.12,0.603481
2708.53,0.595342
2709.95,0.589988
2711.37,0.58661
2712.79,0.585408
2714.21,0.587802
2715.63,0.591454
2717.05,0.596224
2718.48,0.602693
2719.9,0.609667
2721.33,0.617221
2722.76,0.623707
2724.19,0.628637
2725.62,0.630888
2727.06,0.633308
2728.49,0.63523
2729.93,0.636306
2731.37,0.636991
2732.81,0.637616
2734.25,0.637495
2735.69,0.636736
2737.14,0.636263
2738.58,0.636741
2740.03,0.635713
2741.48,0.635323
2742.93,0.635182
2744.38,0.636039
2745.83,0.636893
2747.29,0.637574
2748.75,0.639282
2750.2,0.641428
2751.66,0.643053
2753.13,0.643577
2754.59,0.644393
2756.05,0.645109
2757.52,0.645335
2758.99,0.646755
2760.46,0.64695
2761.93,0.646336
2763.4,0.645561
2764.87,0.64558
2766.35,0.645456
2767.82,0.645539
2769.3,0.645316
2770.78,0.645161
2772.26,0.644904
2773.75,0.645987
2775.23,0.646451
2776.72,0.646272
2778.21,0.64647
2779.7,0.646632
2781.19,0.64583
2782.68,0.644773
2784.18,0.644433
2785.67,0.64444
2787.17,0.643524
2788.67,0.642998
2790.17,0.642656
2791.67,0.641721
2793.18,0.640422
2794.68,0.640286
2796.19,0.640081
2797.7,0.639498
2799.21,0.638911
2800.72,0.638868
2802.24,0.638573
2803.75,0.637616
2805.27,0.63711
2806.79,0.637155
2808.31,0.63652
2809.83,0.63612
2811.35,0.635542
2812.88,0.634638
2814.41,0.63454
2815.93,0.634804
2817.46,0.634295
2819.0,0.633688
2820.53,0.633381
2822.07,0.633217
2823.6,0.632092
2825.14,0.631694
2826.68,0.63144
2828.22,0.631457
2829.77,0.630938
2831.31,0.630248
2832.86,0.629398
2834.41,0.628618
2835.96,0.628625
2837.51,0.629127
2839.07,0.628708
2840.62,0.628171
2842.18,0.627607
2843.74,0.627378
2845.3,0.627238
2846.86,0.626815
2848.43,0.626022
2849.99,0.625147
2851.56,0.624745
2853.13,0.624849
2854.7,0.624614
2856.27,0.624314
2857.85,0.62341
2859.42,0.622689
2861.0,0.622672
2862.58,0.622149
2864.16,0.621804
2865.75,0.621471
2867.33,0.621021
2868.92,0.620862
2870.51,0.620609
2872.1,0.620286
2873.69,0.620231
2875.28,0.620719
2876.88,0.619993
2878.48,0.61957
2880.07,0.619089
2881.68,0.619327
2883.28,0.619753
2884.88,0.619474
2886.49,0.618192
2888.1,0.617395
2889.71,0.617507
2891.32,0.617716
2892.93,0.617493
2894.55,0.6177
2896.16,0.617457
2897.78,0.616995
2899.4,0.616826
2901.03,0.616686
2902.65,0.616144
2904.28,0.615979
2905.91,0.61563
2907.54,0.615587
2909.17,0.615382
2910.8,0.615223
2912.44,0.615649
2914.07,0.615296
2915.71,0.614623
2917.35,0.614397
2918.99,0.614278
2920.64,0.61399
2922.29,0.61384
2923.93,0.613824
2925.58,0.613617
2927.24,0.613695
2928.89,0.614078
2930.55,0.614383
2932.2,0.614045
2933.86,0.613724
2935.52,0.613488
2937.19,0.613303
2938.85,0.6134
2940.52,0.613862
2942.19,0.614059
2943.86,0.613978
2945.53,0.613826
2947.21,0.613602
2948.88,0.613652
2950.56,0.614162
2952.24,0.614016
2953.92,0.613698
2955.61,0.613196
2957.29,0.613158
2958.98,0.613393
2960.67,0.613755
2962.36,0.613431
2964.06,0.613169
2965.75,0.613167
2967.45,0.613396
2969.15,0.613724
2970.85,0.613562
2972.55,0.613293
2974.26,0.613448
2975.97,0.613726
2977.68,0.613643
2979.39,0.613481
2981.1,0.613348
2982.82,0.613324
2984.53,0.613619
2986.25,0.613686
2987.97,0.613745
2989.7,0.613621
2991.42,0.613526
2993.15,0.613572
2994.88,0.613712
2996.61,0.613997
2998.34,0.614095
3000.08,0.614345
3001.82,0.614395
3003.55,0.614281
3005.3,0.614647
3007.04,0.615175
3008.78,0.616098
3010.53,0.61616
3012.28,0.615956
3014.03,0.615913
3015.79,0.616198
3017.54,0.616353
3019.3,0.616555
3021.06,0.616855
3022.82,0.617664
3024.58,0.618275
3026.35,0.618366
3028.12,0.618399
3029.89,0.618551
3031.66,0.618547
3033.43,0.618963
3035.21,0.619579
3036.99,0.619679
3038.77,0.620164
3040.55,0.620671
3042.33,0.621057
3044.12,0.621433
3045.91,0.621176
3047.7,0.621337
3049.49,0.621985
3051.29,0.622634
3053.08,0.623136
3054.88,0.62356
3056.68,0.624216
3058.49,0.624711
3060.29,0.624538
3062.1,0.624792
3063.91,0.625473
3065.72,0.625711
3067.54,0.626106
3069.35,0.626838
3071.17,0.627091
3072.99,0.627571
3074.81,0.627819
3076.64,0.627971
3078.47,0.628568
3080.29,0.629084
3082.13,0.629446
3083.96,0.629779
3085.79,0.62977
3087.63,0.629912
3089.47,0.630341
3091.31,0.631214
3093.16,0.632147
3095.01,0.632513
3096.85,0.632177
3098.71,0.632515
3100.56,0.632756
3102.41,0.63287
3104.27,0.633182
3106.13,0.633767
3107.99,0.634183
3109.86,0.63445
3111.73,0.634443
3113.59,0.634826
3115.47,0.635037
3117.34,0.635323
3119.21,0.635813
3121.09,0.636201
3122.97,0.636389
3124.86,0.636862
3126.74,0.637129
3128.63,0.637269
3130.52,0.637293
3132.41,0.637571
3134.3,0.63814
3136.2,0.638839
3138.1,0.639294
3140.0,0.639501
3141.9,0.639779
3143.81,0.640338
3145.71,0.640536
3147.62,0.64085
3149.54,0.641566
3151.45,0.641882
3153.37,0.641725
3155.29,0.642082
3157.21,0.642394
3159.13,0.642996
3161.06,0.643648
3162.99,0.643872
3164.92,0.64361
3166.85,0.643833
3168.79,0.644462
3170.72,0.645202
3172.67,0.645742
3174.61,0.646229
3176.55,0.646356
3178.5,0.646427
3180.45,0.646344
3182.4,0.646867
3184.36,0.647329
3186.32,0.648152
3188.27,0.648416
3190.24,0.648121
3192.2,0.648088
3194.17,0.648513
3196.14,0.648997
3198.11,0.649603
3200.08,0.650017
3202.06,0.650308
3204.04,0.65051
3206.02,0.651121
3208.0,0.651316
3209.99,0.651659
3211.98,0.651825
3213.97,0.651633
3215.96,0.651509
3217.96,0.652006
3219.96,0.652442
3221.96,0.652523
3223.96,0.652656
3225.97,0.652927
3227.98,0.653103
3229.99,0.653175
3232.0,0.653075
3234.02,0.653415
3236.04,0.653748
3238.06,0.654129
3240.08,0.654169
3242.11,0.6544
3244.14,0.65439
3246.17,0.654761
3248.2,0.655149
3250.24,0.655206
3252.28,0.655154
3254.32,0.655425
3256.37,0.655463
3258.41,0.655394
3260.46,0.655942
3262.51,0.656275
3264.57,0.65631
3266.63,0.656458
3268.69,0.656665
3270.75,0.656708
3272.81,0.656831
3274.88,0.657217
3276.95,0.657462
3279.02,0.657759
3281.1,0.657952
3283.18,0.658371
3285.26,0.658671
3287.34,0.659089
3289.43,0.659425
3291.51,0.65962
3293.61,0.659589
3295.7,0.659708
3297.8,0.65997
3299.9,0.660082
3302.0,0.660269
3304.1,0.660645
3306.21,0.660779
3308.32,0.661174
3310.43,0.661212
3312.55,0.661402
3314.66,0.661669
3316.79,0.661916
3318.91,0.662387
3321.03,0.662418
3323.16,0.662006
3325.29,0.662059
3327.43,0.662104
3329.57,0.662097
3331.71,0.661873
3333.85,0.66183
3335.99,0.661807
3338.14,0.661481
3340.29,0.660848
3342.45,0.660788
3344.6,0.660507
3346.76,0.659867
3348.92,0.659301
3351.09,0.658454
3353.26,0.657681
3355.43,0.657112
3357.6,0.656641
3359.78,0.656403
3361.96,0.655804
3364.14,0.655444
3366.32,0.654938
3368.51,0.654495
3370.7,0.654267
3372.89,0.653905
3375.09,0.653246
3377.29,0.653244
3379.49,0.653417
3381.69,0.65401
3383.9,0.654847
3386.11,0.655411
3388.32,0.655523
3390.54,0.655461
3392.76,0.655349
3394.98,0.655532
3397.21,0.655373
3399.43,0.655054
3401.66,0.654521
3403.9,0.654281
3406.13,0.653717
3408.37,0.65345
3410.61,0.653293
3412.86,0.653465
3415.11,0.653638
3417.36,0.654019
3419.61,0.654507
3421.87,0.65533
3424.13,0.656299
3426.39,0.657431
3428.66,0.658335
3430.93,0.659313
3433.2,0.660429
3435.48,0.661007
3437.76,0.661119
3440.04,0.661571
3442.32,0.662347
3444.61,0.662999
3446.9,0.663134
3449.19,0.663377
3451.49,0.66371
3453.79,0.664202
3456.09,0.664517
3458.4,0.664671
3460.7,0.664712
3463.02,0.664533
3465.33,0.66405
3467.65,0.663441
3469.97,0.662611
3472.29,0.661945
3474.62,0.661504
3476.95,0.661352
3479.29,0.661293
3481.62,0.661588
3483.96,0.661942
3486.3,0.662235
3488.65,0.662613
3491.0,0.663096
3493.35,0.663087
3495.71,0.663384
3498.07,0.663708
3500.43,0.664103
3502.79,0.664628
3505.16,0.665211
3507.53,0.666068
3509.91,0.667305
3512.29,0.668281
3514.67,0.669082
3517.05,0.669784
3519.44,0.670688
3521.83,0.671454
3524.23,0.672111
3526.62,0.672815
3529.02,0.673615
3531.43,0.674162
3533.83,0.674771
3536.24,0.675159
3538.66,0.675523
3541.08,0.675894
3543.5,0.676196
3545.92,0.676539
3548.35,0.677053
3550.78,0.677512
3553.21,0.678031
3555.65,0.678364
3558.09,0.678837
3560.53,0.67912
3562.98,0.679394
3565.43,0.679918
3567.88,0.68055
3570.34,0.680974
3572.8,0.681102
3575.27,0.681164
3577.73,0.681359
3580.2,0.681616
3582.68,0.681999
3585.16,0.682228
3587.64,0.682516
3590.12,0.682518
3592.61,0.682884
3595.1,0.68312
3597.6,0.68316
3600.09,0.683108
3602.6,0.683337
3605.1,0.68361
3607.61,0.684031
3610.12,0.684388
3612.64,0.684291
3615.16,0.684081
3617.68,0.684336
3620.21,0.684357
3622.74,0.684486
3625.27,0.684629
3627.81,0.684507
3630.35,0.684464
3632.89,0.684431
3635.44,0.684612
3637.99,0.685016
3640.54,0.685047
3643.1,0.685157
3645.66,0.685188
3648.23,0.685204
3650.8,0.685295
3653.37,0.685433
3655.95,0.685525
3658.53,0.685709
3661.11,0.685935
3663.7,0.68623
3666.29,0.686158
3668.89,0.686301
3671.48,0.686458
3674.09,0.686513
3676.69,0.686513
3679.3,0.686575
3681.91,0.68677
3684.53,0.68716
3687.15,0.687327
3689.78,0.687269
3692.4,0.687412
3695.04,0.687829
3697.67,0.687917
3700.31,0.687862
3702.95,0.687743
3705.6,0.687731
3708.25,0.688083
3710.91,0.688381
3713.56,0.688278
3716.23,0.688378
3718.89,0.688378
3721.56,0.688609
3724.23,0.688849
3726.91,0.688942
3729.59,0.688523
3732.28,0.688535
3734.97,0.688849
3737.66,0.688837
3740.36,0.688649
3743.06,0.68889
3745.76,0.68904
3748.47,0.689125
3751.18,0.688966
3753.9,0.68909
3756.62,0.689151
3759.34,0.689551
3762.07,0.689451
3764.8,0.689204
3767.54,0.689111
3770.28,0.689397
3773.02,0.689332
3775.77,0.689344
3778.52,0.689125
3781.28,0.689142
3784.04,0.689223
3786.8,0.689216
3789.57,0.689056
3792.34,0.689144
3795.12,0.689033
3797.9,0.688842
3800.69,0.68863
3803.47,0.688709
3806.27,0.688359
3809.06,0.688371
3811.86,0.688447
3814.67,0.688159
3817.48,0.687902
3820.29,0.6876
3823.11,0.687379
3825.93,0.687303
3828.76,0.686927
3831.59,0.686608
3834.42,0.686441
3837.26,0.686503
3840.1,0.686491
3842.95,0.686299
3845.8,0.685939
3848.65,0.685935
3851.51,0.685744
3854.38,0.685656
3857.24,0.685587
3860.12,0.685659
3862.99,0.685459
3865.87,0.685487
3868.76,0.685663
3871.65,0.685811
3874.54,0.685759
3877.44,0.68578
3880.34,0.685847
3883.25,0.685892
3886.16,0.685792
3889.07,0.685818
3891.99,0.685782
3894.92,0.685761
3897.85,0.685821
3900.78,0.685832
3903.72,0.685866
3906.66,0.68602
3909.6,0.686042
3912.55,0.686168
3915.51,0.68593
3918.47,0.685802
3921.43,0.685818
3924.4,0.685768
3927.38,0.685545
3930.35,0.685278
3933.33,0.685235
3936.32,0.684978
3939.31,0.684488
3942.31,0.683829
3945.31,0.682835
3948.31,0.681878
3951.32,0.680857
3954.34,0.679979
3957.35,0.678956
3960.38,0.677833
3963.41,0.676651
3966.44,0.675892
3969.48,0.675366
3972.52,0.674909
3975.56,0.674424
3978.61,0.6741
3981.67,0.6739
3984.73,0.674007
3987.8,0.674407
3990.87,0.675133
3993.94,0.676144
3997.02,0.677324
4000.1,0.67835
4003.19,0.679299
4006.29,0.680415
4009.39,0.681352
4012.49,0.682018
4015.6,0.682701
4018.71,0.683284
4021.83,0.683603
4024.95,0.683881
4028.08,0.684548
4031.21,0.685454
4034.35,0.686187
4037.49,0.686877
4040.64,0.687512
4043.79,0.6881
4046.94,0.688628
4050.11,0.689033
4053.27,0.689644
4056.44,0.690003
4059.62,0.690317
4062.8,0.690562
4065.99,0.691033
4069.18,0.691345
4072.38,0.691471
4075.58,0.691597
4078.78,0.691885
4082.0,0.691911
4085.21,0.692145
4088.43,0.692076
4091.66,0.692026
4094.89,0.692245
4098.13,0.692654
4101.37,0.692544
4104.62,0.692444
4107.87,0.692556
4111.13,0.692908
4114.39,0.692935
4117.66,0.692818
4120.93,0.692958
4124.21,0.693218
4127.5,0.693265
4130.79,0.693529
4134.08,0.693387
4137.38,0.693382
4140.68,0.69346
4143.99,0.693613
4147.31,0.69337
4150.63,0.69318
4153.95,0.69326
4157.29,0.693408
4160.62,0.693327
4163.96,0.693294
4167.31,0.693415
4170.66,0.693403
4174.02,0.693175
4177.39,0.693142
4180.75,0.693039
4184.13,0.693137
4187.51,0.69313
4190.89,0.69298
4194.28,0.692597
4197.68,0.692585
4201.08,0.692656
4204.49,0.692825
4207.9,0.692894
4211.32,0.692975
4214.74,0.693075
4218.17,0.692899
4221.61,0.692647
4225.05,0.692768
4228.5,0.692708
4231.95,0.692647
4235.4,0.69259
4238.87,0.692718
4242.34,0.69267
4245.81,0.692509
4249.29,0.692285
4252.78,0.692137
4256.27,0.692026
4259.77,0.692009
4263.27,0.691766
4266.78,0.691526
4270.29,0.691402
4273.81,0.691619
4277.34,0.691564
4280.87,0.691566
4284.41,0.691509
4287.95,0.691402
4291.5,0.691086
4295.06,0.691145
4298.62,0.691271
4302.19,0.69144
4305.76,0.6912
4309.34,0.690979
4312.92,0.690896
4316.52,0.690881
4320.11,0.690608
4323.72,0.690491
4327.32,0.690441
4330.94,0.69041
4334.56,0.69031
4338.19,0.69041
4341.82,0.690451
4345.46,0.690596
4349.11,0.690455
4352.76,0.69021
4356.42,0.690067
4360.08,0.690048
4363.75,0.689868
4367.43,0.689746
4371.11,0.689723
4374.8,0.689775
4378.49,0.689504
4382.19,0.689251
4385.9,0.689225
4389.61,0.689313
4393.33,0.689047
4397.06,0.68894
4400.79,0.688818
4404.53,0.688709
4408.28,0.68869
4412.03,0.688757
4415.79,0.688678
4419.55,0.68845
4423.32,0.688259
4427.1,0.688309
4430.88,0.688197
4434.68,0.688069
4438.47,0.688033
4442.28,0.688224
4446.08,0.688064
4449.9,0.687881
4453.72,0.687676
4457.55,0.687572
4461.39,0.687317
4465.23,0.687293
4469.08,0.687101
4472.94,0.686936
4476.8,0.686739
4480.67,0.686701
4484.55,0.686539
4488.43,0.686522
4492.32,0.686546
4496.21,0.686641
4500.12,0.686263
4504.03,0.686223
4507.94,0.68633
4511.87,0.686375
4515.8,0.686323
4519.73,0.686346
4523.68,0.686265
4527.63,0.686101
4531.59,0.685856
4535.55,0.68559
4539.52,0.685385
4543.5,0.685328
4547.49,0.685104
4551.48,0.684973
4555.48,0.685052
4559.49,0.685166
4563.5,0.684988
4567.52,0.684783
4571.55,0.684621
4575.58,0.684555
4579.63,0.684184
4583.67,0.684157
4587.73,0.68405
4591.79,0.683993
4595.86,0.683996
4599.94,0.684065
4604.03,0.684043
4608.12,0.684065
4612.22,0.683672
4616.33,0.68357
4620.44,0.683425
4624.56,0.683149
4628.69,0.682794
4632.83,0.68272
4636.97,0.68267
4641.12,0.682451
4645.28,0.682235
4649.45,0.682185
4653.62,0.681797
4657.8,0.681474
4661.99,0.681317
4666.19,0.681283
4670.39,0.681145
4674.6,0.681133
4678.82,0.680765
4683.05,0.68066
4687.28,0.680684
4691.52,0.680779
4695.77,0.680693
4700.03,0.680798
4704.3,0.680738
4708.57,0.680719
4712.85,0.680658
4717.14,0.680693
4721.43,0.680722
4725.74,0.680629
4730.05,0.680274
4734.37,0.680134
4738.7,0.680091
4743.03,0.680196
4747.38,0.680153
4751.73,0.679982
4756.09,0.679803
4760.45,0.679668
4764.83,0.679437
4769.21,0.679306
4773.6,0.67923
4778.0,0.679249
4782.41,0.678928
4786.83,0.678676
4791.25,0.678592
4795.68,0.678711
4800.13,0.678775
4804.57,0.678768
4809.03,0.678471
4813.5,0.678316
4817.97,0.678204
4822.45,0.678314
4826.94,0.678126
4831.44,0.677902
4835.95,0.677845
4840.46,0.677774
4844.99,0.677598
4849.52,0.677545
4854.06,0.677429
4858.61,0.677362
4863.17,0.677215
4867.73,0.677086
4872.31,0.677024
4876.89,0.677043
4881.48,0.676953
4886.08,0.676765
4890.69,0.676389
4895.31,0.676353
4899.94,0.676384
4904.57,0.676384
4909.22,0.67617
4913.87,0.676089
4918.53,0.675847
4923.21,0.675666
4927.88,0.675368
4932.57,0.675247
4937.27,0.675192
4941.98,0.675119
4946.69,0.674897
4951.42,0.674921
4956.15,0.674697
4960.9,0.674526
4965.65,0.674429
4970.41,0.67444
4975.18,0.674253
4979.96,0.674069
4984.75,0.673829
4989.54,0.673746
4994.35,0.673422
4999.17,0.673394
5003.99,0.673339
5008.83,0.673382
5013.67,0.673198
5018.52,0.67293
5023.39,0.672454
5028.26,0.672316
5033.14,0.672325
5038.03,0.672497
5042.93,0.672442
5047.84,0.672085
5052.76,0.671804
5057.69,0.671747
5062.63,0.671678
5067.58,0.671562
5072.54,0.67129
5077.51,0.671195
5082.49,0.670976
5087.47,0.670522
5092.47,0.670224
5097.48,0.670146
5102.5,0.669929
5107.52,0.669682
5112.56,0.669258
5117.61,0.669111
5122.66,0.668985
5127.73,0.668932
5132.81,0.668604
5137.89,0.668459
5142.99,0.668366
5148.1,0.668347
5153.22,0.668062
5158.34,0.667962
5163.48,0.667783
5168.63,0.667498
5173.79,0.667303
5178.96,0.667255
5184.13,0.66706
5189.32,0.666784
5194.52,0.666437
5199.73,0.666303
5204.96,0.665949
5210.19,0.665642
5215.43,0.66514
5220.68,0.664845
5225.94,0.664847
5231.22,0.664633
5236.5,0.664129
5241.79,0.663829
5247.1,0.66366
5252.42,0.663503
5257.74,0.663046
5263.08,0.66272
5268.43,0.662354
5273.79,0.662082
5279.16,0.661711
5284.54,0.6614
5289.93,0.661238
5295.34,0.660983
5300.75,0.660562
5306.18,0.660443
5311.61,0.660165
5317.06,0.659946
5322.52,0.659508
5327.99,0.659037
5333.47,0.658487
5338.96,0.658107
5344.47,0.65764
5349.98,0.657372
5355.51,0.656751
5361.05,0.656572
5366.6,0.656456
5372.16,0.655992
5377.73,0.655399
5383.32,0.655114
5388.91,0.654823
5394.52,0.654524
5400.14,0.654052
5405.77,0.653696
5411.41,0.653282
5417.07,0.652844
5422.74,0.652344
5428.41,0.65179
5434.1,0.651683
5439.81,0.651569
5445.52,0.650955
5451.25,0.650731
5456.98,0.650343
5462.73,0.650053
5468.5,0.649218
5474.27,0.64874
5480.06,0.648423
5485.86,0.647705
5491.67,0.647088
5497.49,0.646532
5503.33,0.64568
5509.18,0.645028
5515.04,0.644014
5520.91,0.643034
5526.8,0.641597
5532.69,0.640188
5538.61,0.637992
5544.53,0.634909
5550.47,0.630414
5556.41,0.625684
5562.38,0.621904
5568.35,0.62006
5574.34,0.619372
5580.34,0.619731
5586.35,0.621464
5592.38,0.625358
5598.42,0.628816
5604.47,0.63123
5610.54,0.632936
5616.61,0.634462
5622.71,0.635209
5628.81,0.635925
5634.93,0.636053
5641.06,0.636146
5647.21,0.635627
5653.36,0.635577
5659.54,0.635332
5665.72,0.634807
5671.92,0.634645
5678.13,0.633986
5684.36,0.633212
5690.6,0.633196
5696.85,0.632691
5703.12,0.632463
5709.4,0.632232
5715.69,0.631283
5722.0,0.630752
5728.33,0.630638
5734.66,0.630505
5741.01,0.630355
5747.38,0.629777
5753.76,0.629246
5760.15,0.628625
5766.56,0.628487
5772.98,0.627057
5779.41,0.626976
5785.86,0.626679
5792.33,0.626139
5798.81,0.625382
5805.3,0.624254
5811.81,0.623048
5818.33,0.621949
5824.87,0.619862
5831.42,0.617811
5837.99,0.616334
5844.57,0.61443
5851.17,0.612199
5857.78,0.609779
5864.41,0.606745
5871.05,0.603476
5877.7,0.600459
5884.38,0.59691
5891.06,0.592284
5897.76,0.590067
5904.48,0.585729
5911.21,0.583145
5917.96,0.580288
5924.73,0.576871
5931.5,0.573916
5938.3,0.571056
5945.11,0.566847
5951.93,0.564799
5958.78,0.562489
5965.63,0.560076
5972.51,0.557454
5979.39,0.554839
5986.3,0.553145
5993.22,0.551013
6000.16,0.549024
6007.11,0.547923
6014.08,0.546647
6021.06,0.545412
6028.06,0.544387
6035.08,0.543657
6042.12,0.542957
6049.17,0.542591
6056.23,0.541156
6063.32,0.541563
6070.42,0.542579
6077.53,0.542622
6084.67,0.542986
6091.82,0.543814
6098.98,0.544556
6106.17,0.544951
6113.37,0.545332
6120.58,0.54536
6127.82,0.546141
6135.07,0.547256
6142.34,0.547487
6149.63,0.547599
6156.93,0.547716
6164.25,0.547756
6171.59,0.547792
6178.95,0.54812
6186.32,0.547987
6193.71,0.547349
6201.12,0.547333
6208.54,0.547392
6215.99,0.546752
6223.45,0.546191
6230.93,0.545627
6238.43,0.54516
6245.95,0.544482
6253.48,0.544113
6261.03,0.543592
6268.6,0.543107
6276.19,0.542467
6283.8,0.541958
6291.43,0.541268
6299.07,0.540913
6306.73,0.540749
6314.42,0.540604
6322.12,0.540378
6329.84,0.54059
6337.57,0.540552
6345.33,0.540583
6353.11,0.540002
6360.9,0.540023
6368.72,0.539876
6376.55,0.539312
6384.4,0.538891
6392.27,0.538541
6400.17,0.537799
6408.08,0.537216
6416.01,0.535914
6423.96,0.533766
6431.93,0.53289
6439.92,0.531772
6447.93,0.529862
6455.96,0.528094
6464.01,0.525531
6472.08,0.523283
6480.17,0.520395
6488.28,0.517858
6496.41,0.514758
6504.56,0.511403
6512.73,0.509022
6520.92,0.507156
6529.14,0.503809
6537.37,0.50111
6545.63,0.498003
6553.9,0.494646
6562.2,0.490965
6570.51,0.487963
6578.85,0.484111
6587.21,0.480154
6595.59,0.477068
6603.99,0.473482
6612.42,0.470189
6620.86,0.466925
6629.33,0.463535
6637.82,0.460463
6646.33,0.456459
6654.86,0.453884
6663.41,0.451733
6671.99,0.449188
6680.59,0.44639
6689.21,0.443699
6697.85,0.440977
6706.51,0.439328
6715.2,0.437175
6723.91,0.435012
6732.64,0.432852
6741.4,0.430924
6750.18,0.428942
6758.98,0.426979
6767.8,0.425036
6776.65,0.423156
6785.52,0.420965
6794.41,0.41903
6803.33,0.416715
6812.27,0.415381
6821.23,0.414027
6830.22,0.412566
6839.23,0.410815
6848.26,0.40988
6857.32,0.408704
6866.4,0.407541
6875.51,0.405587
6884.64,0.405021
6893.8,0.404629
6902.98,0.404265
6912.18,0.403734
6921.41,0.40351
6930.66,0.403353
6939.94,0.403146
6949.24,0.402904
6958.57,0.403268
6967.92,0.403275
6977.3,0.40347
6986.7,0.40411
6996.13,0.4046
7005.59,0.405257
7015.07,0.406185
7024.57,0.407379
7034.1,0.408564
7043.66,0.409932
7053.25,0.411352
7062.85,0.413106
7072.49,0.415364
7082.15,0.417412
7091.84,0.419618
7101.55,0.422028
7111.3,0.424726
7121.06,0.427122
7130.86,0.429416
7140.68,0.431755
7150.53,0.433972
7160.41,0.436375
7170.31,0.439328
7180.24,0.442154
7190.2,0.445228
7200.19,0.448193
7210.2,0.450948
7220.24,0.453392
7230.31,0.455502
7240.41,0.457456
7250.54,0.459181
7260.69,0.460758
7270.88,0.462266
7281.09,0.463499
7291.33,0.46462
7301.6,0.466
7311.9,0.467153
7322.22,0.468086
7332.58,0.468862
7342.97,0.469428
7353.38,0.469959
7363.83,0.470539
7374.3,0.470801
7384.81,0.47081
7395.34,0.470758
7405.91,0.470584
7416.5,0.470218
7427.13,0.469873
7437.78,0.469521
7448.47,0.469261
7459.19,0.468959
7469.94,0.468414
7480.71,0.467786
7491.52,0.467087
7502.37,0.466309
7513.24,0.465369
7524.14,0.464567
7535.08,0.463751
7546.05,0.462716
7557.05,0.461764
7568.08,0.460939
7579.15,0.460166
7590.24,0.459311
7601.37,0.458652
7612.53,0.457984
7623.73,0.457215
7634.96,0.456297
7646.22,0.455226
7657.51,0.454136
7668.84,0.453073
7680.2,0.452059
7691.59,0.450972
7703.02,0.449842
7714.49,0.448821
7725.98,0.44781
7737.52,0.44663
7749.08,0.445386
7760.68,0.44386
7772.32,0.442231
7783.99,0.440603
7795.69,0.439142
7807.43,0.437743
7819.21,0.436037
7831.02,0.434341
7842.87,0.432835
7854.75,0.431236
7866.67,0.429742
7878.62,0.428238
7890.62,0.426777
7902.64,0.425335
7914.71,0.423779
7926.81,0.421857
7938.95,0.419927
7951.13,0.417888
7963.34,0.415873
7975.59,0.413898
7987.88,0.412099
8000.21,0.410189
8012.57,0.408131
8024.98,0.405909
8037.42,0.403808
8049.9,0.401966
8062.42,0.399896
8074.98,0.397695
8087.57,0.395633
8100.21,0.393453
8112.89,0.391526
8125.6,0.389682
8138.36,0.387798
8151.16,0.385951
8163.99,0.384528
8176.87,0.382975
8189.79,0.381159
8202.75,0.379527
8215.75,0.378154
8228.79,0.376484
8241.87,0.374802
8254.99,0.37322
8268.16,0.371811
8281.37,0.370293
8294.62,0.368733
8307.91,0.367276
8321.24,0.366058
8334.62,0.364826
8348.04,0.363415
8361.51,0.36213
8375.02,0.360836
8388.57,0.359332
8402.16,0.357814
8415.8,0.35603
8429.49,0.354426
8443.22,0.352722
8456.99,0.351143
8470.81,0.349527
8484.67,0.348249
8498.58,0.34721
8512.54,0.346263
8526.54,0.345152
8540.58,0.344321
8554.68,0.343555
8568.82,0.342875
8583.0,0.342149
8597.24,0.341578
8611.52,0.341302
8625.85,0.341314
8640.23,0.341142
8654.65,0.340866
8669.12,0.340671
8683.64,0.340483
8698.21,0.340272
8712.83,0.340015
8727.5,0.339472
8742.22,0.338932
8756.99,0.338432
8771.8,0.337593
8786.67,0.336569
8801.59,0.33586
8816.56,0.334842
8831.58,0.333365
8846.65,0.33169
8861.77,0.33031
8876.94,0.328658
8892.17,0.326812
8907.45,0.324935
8922.78,0.323155
8938.16,0.321114
8953.6,0.31907
8969.09,0.316919
8984.64,0.31479
9000.23,0.312327
9015.89,0.309846
9031.59,0.307055
9047.36,0.303774
9063.17,0.300226
9079.05,0.296714
9094.97,0.293341
9110.96,0.290493
9127.0,0.287169
9143.1,0.283714
9159.25,0.280638
9175.46,0.278127
9191.73,0.275408
9208.06,0.272953
9224.44,0.270737
9240.88,0.268629
9257.38,0.266631
9273.94,0.265044
9290.56,0.263286
9307.24,0.261473
9323.98,0.259633
9340.78,0.258082
9357.64,0.256174
9374.57,0.254187
9391.55,0.25207
9408.59,0.250059
9425.7,0.247785
9442.87,0.245524
9460.1,0.243109
9477.4,0.240732
9494.75,0.23807
9512.17,0.235405
9529.66,0.232453
9547.21,0.229678
9564.83,0.226702
9582.5,0.224077
9600.25,0.221351
9618.06,0.218641
9635.94,0.215843
9653.88,0.213328
9671.89,0.210597
9689.97,0.207829
9708.12,0.20487
9726.33,0.202398
9744.62,0.199892
9762.97,0.197427
9781.39,0.19506
9799.88,0.192947
9818.44,0.190518
9837.07,0.188724
9855.77,0.186813
9874.54,0.184924
9893.39,0.183423
9912.3,0.181955
9931.29,0.180396
9950.36,0.179159
9969.49,0.177634
9988.7,0.17619
10007.98,0.174463
10027.34,0.172892
10046.77,0.171086
10066.28,0.16928
10085.87,0.167344
10105.53,0.165393
10125.26,0.163249
10145.08,0.16141
10164.97,0.159585
10184.94,0.157729
10204.99,0.155435
10225.12,0.153189
10245.33,0.151036
10265.61,0.14908
10285.98,0.146953
10306.43,0.144962
10326.96,0.142847
10347.57,0.140717
10368.27,0.138447
10389.05,0.136661
10409.91,0.134757
10430.86,0.132911
10451.88,0.130981
10473.0,0.129694
10494.2,0.128048
10515.49,0.126611
10536.86,0.125671
10558.32,0.125174
10579.87,0.124469
10601.5,0.123829
10623.23,0.123244
10645.04,0.123132
10666.94,0.122737
10688.94,0.122709
10711.02,0.122554
10733.2,0.122368
10755.47,0.122114
10777.83,0.121959
10800.28,0.121407
10822.83,0.121276
10845.47,0.121098
10868.21,0.120936
10891.04,0.120584
10913.97,0.119977
10936.99,0.119052
10960.12,0.118067
10983.34,0.116913
11006.66,0.116149
11030.07,0.115154
11053.59,0.11416
11077.21,0.112949
11100.93,0.11169
11124.75,0.110393
11148.68,0.109404
11172.71,0.108266
11196.84,0.107153
11221.07,0.106016
11245.41,0.10549
11269.86,0.105023
11294.41,0.104555
11319.07,0.103375
11343.84,0.102218
11368.72,0.101086
11393.7,0.099975
11418.8,0.098547
11444.01,0.097719
11469.33,0.097124
11494.76,0.09666
11520.3,0.09607
11545.96,0.095568
11571.73,0.094505
11597.62,0.093258
11623.62,0.09204
11649.74,0.090703
11675.98,0.089218
11702.34,0.087793
11728.81,0.086489
11755.41,0.085613
11782.13,0.084103
11808.96,0.082704
11835.92,0.081966
11863.01,0.081519
11890.22,0.080852
11917.55,0.080626
11945.01,0.080505
11972.6,0.080129
12000.31,0.079525
12028.16,0.079406
12056.13,0.079318
12084.23,0.079218
12112.46,0.078666
12140.83,0.078171
12169.33,0.077134
12197.96,0.076034
12226.73,0.074585
12255.64,0.073305
12284.68,0.07183
12313.86,0.070355
12343.18,0.069049
12372.64,0.068223
12402.24,0.067019
12431.98,0.065482
12461.86,0.063653
12491.89,0.062249
12522.07,0.060664
12552.38,0.059332
12582.85,0.057771
12613.47,0.056298
12644.23,0.054433
12675.15,0.052708
12706.21,0.05089
12737.43,0.049327
12768.81,0.047742
12800.33,0.04627
12832.02,0.044783
12863.86,0.043688
12895.86,0.042251
12928.02,0.040957
12960.34,0.039729
12992.82,0.038475
13025.46,0.037198
13058.27,0.036129
13091.25,0.034664
13124.39,0.033357
13157.7,0.031925
13191.18,0.030816
13224.83,0.029515
13258.66,0.028349
13292.65,0.026857
13326.83,0.025651
13361.17,0.024352
13395.7,0.023224
13430.4,0.021987
13465.29,0.020738
13500.35,0.019041
13535.6,0.017668
13571.03,0.016653
13606.65,0.01572
13642.46,0.014337
13678.46,0.013405
13714.64,0.012653
13751.02,0.011989
13787.59,0.011161
13824.36,0.010604
13861.32,0.009895
13898.49,0.009458
13935.85,0.008594
13973.41,0.007747
14011.17,0.006886
14049.15,0.006719
14087.32,0.006871
14125.71,0.007366
14164.3,0.007297
14203.11,0.007109
14242.13,0.006993
14281.36,0.007366
14320.81,0.007725
14360.49,0.008323
14400.38,0.008325
14440.49,0.008765
14480.82,0.009091
14521.39,0.009465
14562.18,0.009826
14603.2,0.01094
14644.45,0.011228
14685.93,0.011865
14727.66,0.012477
14769.62,0.012962
14811.81,0.013483
14854.25,0.014737
14896.94,0.015651
14939.87,0.016519
14983.05,0.016802
15026.48,0.017473
15070.16,0.018663
15114.1,0.019984
15158.29,0.020816
15202.74,0.021949
15247.46,0.022886
15292.43,0.02429
15337.68,0.025763
15383.19,0.02759
15428.97,0.029289
15475.03,0.031625
15521.36,0.034264
15567.97,0.037171
15614.87,0.04025
15662.04,0.043507
15709.5,0.046753
15757.25,0.050481
15805.29,0.054447
15853.62,0.058076
15902.26,0.061409
15951.19,0.065344
16000.42,0.069184
16049.95,0.073417
16099.8,0.076589
16149.95,0.079218
16200.42,0.082618
16251.21,0.085682
16302.31,0.087907
16353.74,0.090698
16405.49,0.093458
16457.57,0.096311
16509.98,0.098787
16562.73,0.100924
16615.82,0.10292
16669.24,0.104598
16723.02,0.106173
16777.14,0.109082
16831.61,0.111405
16886.43,0.113325
16941.62,0.115504
16997.16,0.116944
17053.08,0.118162
17109.36,0.119899
17166.01,0.12101
17223.04,0.121638
17280.45,0.121581
17338.24,0.121262
17396.43,0.121026
17455.0,0.120543
17513.97,0.119544
17573.34,0.118745
17633.11,0.117607
17693.29,0.116311
17753.89,0.114771
17814.9,0.113553
17876.33,0.112359
17938.18,0.110936
18000.47,0.109313
18063.19,0.107979
18126.35,0.105849
18189.95,0.103674
18254.0,0.101443
18318.5,0.09978
18383.46,0.096951
18448.88,0.093946
18514.77,0.090436
18581.13,0.087241
18647.97,0.084076
18715.29,0.08022
18783.1,0.076872
18851.4,0.073722
18920.2,0.070343
18989.51,0.067107
19059.32,0.063465
19129.65,0.059951
19200.5,0.056493
19271.88,0.053186
19343.79,0.050122
19416.24,0.046334
19489.23,0.043495
19562.77,0.041342
19636.88,0.038511
19711.54,0.035694
19786.78,0.033053
19862.59,0.031571
19938.98,0.031592
20015.96,0.031502
20093.55,0.031932
20171.73,0.03379
20250.53,0.035903
20329.94,0.038511
20409.98,0.040571
20490.65,0.042656
20571.96,0.046282
20653.92,0.050624
20736.54,0.053888
20819.82,0.057238
20903.77,0.062301
20988.4,0.068885
21073.72,0.075404
21159.73,0.07987
21246.46,0.084243
21333.89,0.089373
21422.04,0.094069
21510.93,0.096548
21600.56,0.099339
21690.94,0.103127
21782.08,0.105566
21873.99,0.1084
21966.67,0.108657
22060.15,0.108345
22154.42,0.111331
22249.51,0.112107
22345.41,0.111769
22442.14,0.112266
22539.72,0.114019
22638.14,0.114191
22737.43,0.114705
22837.6,0.11425
22938.65,0.115752
23040.6,0.115721
23143.46,0.116922
23247.24,0.117358
23351.96,0.117724
23457.63,0.118324
23564.25,0.119668
23671.85,0.114743
23780.44,0.113691
23890.02,0.115354
24000.63,0.117122
24112.26,0.110543
24224.93,0.114717
24338.66,0.108828
24453.47,0.106558
24569.36,0.114543
24686.36,0.125614
24804.47,0.120998
24923.73,0.118883
25044.13,0.107986
25165.71,0.108897
25288.46,0.097821
25412.43,0.103234
25537.61,0.085877
25664.04,0.096284
25791.72,0.103753
25920.68,0.137203
