Database of Origin,University of Winnipeg Spectrophotometer Facility
Sample Description,Carbonates and Oxolates - RELAB+Nicolet spectra Newly merged spectra (merged by RELAB)
Other Information,dry seived
Date Added,2018-08-06 20:49:03.391514

Data ID,RLA_CARB_1_55       
Sample ID,CRB217
Mineral Name,Brugnatellite
Locality,Cava di Serpentino del Crestun/ Torre Santa Maria/ Valmalenco/ Sondrio/ Italy
Grain Size,<45 um
Viewing Geometry,30/0/30
Resolution,5/ 0.6-129 nm
Formula,Mg6Fe+3(CO3)(OH)13*4(H2O)
Composition,Powdered sample provided.

Wavelength
305.0,0.291249
310.0,0.327654
315.0,0.35491
320.0,0.372563
325.0,0.391052
330.0,0.406289
335.0,0.419338
340.0,0.432223
345.0,0.446017
350.0,0.454701
355.0,0.464151
360.0,0.472619
365.0,0.480219
370.0,0.490266
375.0,0.500189
380.0,0.507927
385.0,0.513611
390.0,0.519788
395.0,0.524351
400.0,0.526381
405.0,0.530261
410.0,0.527505
415.0,0.532176
420.0,0.534583
425.0,0.539007
430.0,0.543207
435.0,0.549774
440.0,0.555737
445.0,0.564055
450.0,0.569449
455.0,0.577142
460.0,0.583004
465.0,0.590057
470.0,0.594331
475.0,0.600108
480.0,0.604144
485.0,0.609791
490.0,0.612373
495.0,0.617809
500.0,0.620505
505.0,0.624246
510.0,0.627055
515.0,0.632073
520.0,0.635588
525.0,0.641381
530.0,0.645758
535.0,0.651636
540.0,0.65646
545.0,0.662626
550.0,0.667167
555.0,0.672396
560.0,0.67558
565.0,0.680289
570.0,0.681944
575.0,0.68434
580.0,0.685451
585.0,0.687501
590.0,0.687467
595.0,0.688457
600.0,0.689383
605.0,0.689741
610.0,0.689521
615.0,0.690012
620.0,0.690247
625.0,0.691671
630.0,0.691523
635.0,0.692238
640.0,0.692145
645.0,0.69264
650.0,0.692998
655.0,0.692862
660.0,0.692922
665.0,0.692977
670.0,0.691938
675.0,0.692284
680.0,0.692122
685.0,0.692763
690.0,0.692545
695.0,0.691769
700.0,0.69245
705.0,0.691763
710.0,0.691518
715.0,0.691104
720.0,0.68998
725.0,0.691225
730.0,0.689985
735.0,0.690264
740.0,0.691232
745.0,0.690039
750.0,0.689751
755.0,0.688976
760.0,0.689119
765.0,0.688187
770.0,0.688234
775.0,0.687233
780.0,0.687861
785.0,0.68728
790.0,0.687886
795.0,0.685718
800.0,0.688115
805.0,0.68518
810.0,0.684574
815.0,0.684673
820.0,0.682897
825.0,0.68343
830.0,0.682591
835.0,0.682906
840.0,0.680907
845.0,0.681459
850.0,0.682046
855.0,0.683197
860.0,0.681689
865.0,0.680999
870.0,0.680106
875.0,0.679851
880.0,0.678334
885.0,0.67887
890.0,0.680236
895.0,0.6794
900.0,0.677116
905.0,0.677804
910.0,0.677065
915.0,0.677377
920.0,0.676638
925.0,0.674787
930.0,0.677135
935.0,0.677728
940.0,0.676031
945.0,0.674369
950.0,0.673966
955.0,0.67004
960.0,0.673166
965.0,0.674033
970.0,0.674473
975.0,0.674331
980.0,0.674156
985.0,0.675183
990.0,0.675137
995.0,0.674005
1000.0,0.675042
1005.0,0.67465
1010.0,0.674405
1015.0,0.674269
1020.0,0.673755
1025.0,0.674826
1030.0,0.675081
1035.0,0.674154
1040.0,0.674946
1045.0,0.675052
1050.0,0.674845
1055.0,0.674975
1060.0,0.675298
1065.0,0.675116
1070.0,0.674498
1075.0,0.675228
1080.0,0.674765
1085.0,0.675276
1090.0,0.675194
1095.0,0.675297
1100.0,0.675731
1105.0,0.675585
1110.0,0.675831
1115.0,0.67626
1120.0,0.6756
1125.0,0.676216
1130.0,0.675838
1135.0,0.676668
1140.0,0.6761
1145.0,0.675701
1150.0,0.675316
1155.0,0.675478
1160.0,0.675321
1165.0,0.674747
1170.0,0.674431
1175.0,0.675397
1180.0,0.675265
1185.0,0.675914
1190.0,0.676843
1195.0,0.676489
1200.0,0.676606
1205.0,0.676468
1210.0,0.677811
1215.0,0.677642
1220.0,0.677408
1225.0,0.677466
1230.0,0.677936
1235.0,0.678092
1240.0,0.677153
1245.0,0.678236
1250.0,0.677446
1255.0,0.677177
1260.0,0.677593
1265.0,0.677694
1270.0,0.676521
1275.0,0.675563
1280.0,0.6747
1285.0,0.674175
1290.0,0.6741
1295.0,0.67364
1300.0,0.673208
1305.0,0.673997
1310.0,0.674495
1315.0,0.673764
1320.0,0.674307
1325.0,0.67419
1330.0,0.674001
1335.0,0.673655
1340.0,0.672053
1345.0,0.671731
1350.0,0.67087
1355.0,0.66995
1360.0,0.665101
1365.0,0.660135
1370.0,0.659128
1375.0,0.651379
1380.0,0.647741
1385.0,0.644835
1420.0,0.639214
1425.0,0.640093
1430.0,0.641664
1435.0,0.643538
1440.0,0.645144
1445.0,0.647326
1450.0,0.649846
1455.0,0.651588
1460.0,0.653224
1465.0,0.65443
1470.0,0.655386
1475.0,0.656507
1480.0,0.65775
1485.0,0.658955
1490.0,0.66018
1495.0,0.661562
1500.0,0.662691
1505.0,0.663633
1510.0,0.664435
1515.0,0.665191
1520.0,0.665883
1525.0,0.666397
1530.0,0.666928
1535.0,0.667341
1540.0,0.667878
1545.0,0.668213
1550.0,0.668494
1555.0,0.668714
1560.0,0.668946
1565.0,0.669189
1570.0,0.669419
1575.0,0.669595
1580.0,0.669807
1585.0,0.669725
1590.0,0.669785
1595.0,0.669922
1600.0,0.669895
1605.0,0.669809
1610.0,0.669715
1615.0,0.669662
1620.0,0.669749
1625.0,0.669533
1630.0,0.669468
1635.0,0.669338
1640.0,0.669076
1645.0,0.668978
1650.0,0.668732
1655.0,0.668427
1660.0,0.668094
1665.0,0.667781
1670.0,0.667029
1675.0,0.666552
1680.0,0.666227
1685.0,0.664928
1690.0,0.665149
1695.0,0.665884
1700.0,0.665778
1705.31,0.665417
1709.81,0.665144
1715.46,0.664474
1720.02,0.663878
1724.6,0.663287
1730.35,0.663017
1734.98,0.662873
1739.64,0.662799
1745.5,0.662434
1750.21,0.662008
1754.95,0.661929
1759.72,0.661465
1764.51,0.661262
1770.54,0.66094
1775.39,0.660654
1780.27,0.660226
1785.17,0.660082
1790.1,0.659859
1795.06,0.659772
1800.05,0.659501
1805.06,0.659147
1810.1,0.658885
1815.17,0.658439
1820.27,0.658002
1825.4,0.657562
1830.56,0.657036
1834.44,0.656611
1839.65,0.656027
1844.89,0.65516
1850.16,0.654129
1855.45,0.652865
1859.45,0.651695
1864.8,0.649752
1870.18,0.647191
1875.59,0.644179
1879.67,0.641125
1885.14,0.635819
1890.64,0.628713
1894.79,0.621975
1900.34,0.610939
1904.53,0.601695
1910.15,0.589251
1914.38,0.580526
1920.05,0.57127
1924.33,0.568642
1930.06,0.570376
1934.38,0.572223
1940.17,0.573802
1944.54,0.575066
1950.39,0.577566
1954.8,0.58012
1960.72,0.583865
1965.18,0.586219
1969.66,0.588081
1975.66,0.590018
1980.19,0.591111
1984.74,0.592115
1989.31,0.592981
1995.43,0.594079
2000.05,0.594968
2004.69,0.595605
2009.35,0.596242
2015.6,0.596981
2020.32,0.597566
2025.05,0.59844
2029.81,0.599353
2034.59,0.600388
2039.39,0.601395
2044.22,0.602416
2050.69,0.603732
2055.57,0.604794
2060.47,0.60588
2065.39,0.607119
2070.34,0.608183
2075.31,0.60949
2080.31,0.610528
2085.33,0.611391
2090.38,0.612243
2095.45,0.613125
2100.54,0.61361
2105.66,0.614192
2110.8,0.614448
2114.25,0.614568
2119.43,0.614914
2124.65,0.615131
2129.88,0.615054
2135.15,0.614849
2140.44,0.615171
2145.75,0.615541
2149.31,0.615722
2154.67,0.61583
2160.06,0.615469
2165.47,0.614703
2170.91,0.613607
2174.55,0.61255
2180.04,0.610377
2185.55,0.607655
2189.25,0.605911
2194.81,0.602855
2200.4,0.600011
2204.14,0.598519
2209.78,0.596301
2215.44,0.593916
2219.24,0.591942
2224.95,0.588359
2230.7,0.583973
2234.54,0.580677
2240.33,0.574729
2244.21,0.571102
2250.06,0.564681
2255.93,0.557851
2259.87,0.55474
2265.79,0.551064
2269.76,0.548592
2275.74,0.546937
2279.74,0.546094
2285.77,0.543535
2289.81,0.540619
2295.9,0.534945
2299.97,0.530852
2304.06,0.5267
2310.22,0.520993
2314.35,0.517351
2320.56,0.513899
2324.72,0.514404
2331.0,0.52025
2335.2,0.525802
2339.41,0.532317
2345.76,0.542731
2350.02,0.548134
2354.28,0.551973
2360.72,0.555084
2365.03,0.555896
2369.35,0.556018
2375.86,0.555965
2380.23,0.555915
2384.61,0.555374
2389.0,0.554764
2395.63,0.552765
2400.06,0.550956
2404.52,0.548429
2408.98,0.544287
2415.72,0.531359
2420.23,0.518
2424.76,0.50054
2429.3,0.485168
2433.87,0.475943
2440.74,0.462055
2445.35,0.45068
2449.97,0.441586
2454.61,0.43122
2459.27,0.421063
2463.94,0.415735
2470.99,0.399848
2475.71,0.384083
2480.45,0.374952
2485.2,0.378654
2489.98,0.38874
2494.77,0.396324
2499.58,0.401729
2504.41,0.412616
2509.26,0.426281
2514.13,0.436747
2519.02,0.437639
2523.92,0.43172
2528.85,0.425303
2533.79,0.425135
2541.24,0.440498
2543.74,0.445033
2548.74,0.452903
2553.76,0.459888
2556.28,0.463276
2558.8,0.46655
2561.33,0.469728
2563.86,0.472668
2566.4,0.475583
2568.95,0.478018
2571.5,0.479974
2574.05,0.48166
2576.61,0.48313
2579.17,0.484231
2581.74,0.484908
2584.31,0.484772
2586.89,0.484209
2589.48,0.482761
2592.07,0.480216
2594.66,0.477269
2597.26,0.474333
2599.87,0.471879
2602.48,0.469421
2605.09,0.466557
2607.71,0.463523
2610.34,0.460583
2612.97,0.457594
2615.61,0.454397
2618.25,0.451027
2620.9,0.44756
2623.55,0.444166
2626.21,0.440879
2628.87,0.437245
2631.54,0.433452
2634.22,0.42985
2636.89,0.427054
2639.58,0.424947
2642.27,0.423869
2644.97,0.424369
2647.67,0.425497
2650.38,0.426199
2653.09,0.42624
2655.81,0.425783
2658.53,0.424277
2661.26,0.421983
2664.0,0.418937
2666.74,0.414647
2669.48,0.409015
2672.23,0.401687
2674.99,0.391674
2677.76,0.376448
2680.52,0.350753
2683.3,0.31937
2686.08,0.293402
2688.87,0.276857
2691.66,0.26467
2694.46,0.251797
2697.26,0.234563
2700.07,0.207042
2702.89,0.163211
2705.71,0.124248
2708.53,0.114108
2711.37,0.119743
2714.21,0.126365
2717.05,0.130837
2719.9,0.132447
2722.76,0.1315
2725.62,0.128346
2728.49,0.123876
2731.37,0.120313
2734.25,0.117517
2737.14,0.113913
2740.03,0.11054
2742.93,0.107951
2745.83,0.106385
2748.75,0.106133
2751.66,0.106005
2754.59,0.105489
2757.52,0.104261
2760.46,0.102195
2763.4,0.099886
2766.35,0.097193
2769.3,0.093938
2772.26,0.090887
2775.23,0.088721
2778.21,0.087887
2781.19,0.087875
2784.18,0.088057
2787.17,0.087919
2790.17,0.087313
2793.18,0.086215
2796.19,0.085137
2799.21,0.08399
2802.24,0.083229
2805.27,0.082688
2808.31,0.082227
2811.35,0.082088
2814.41,0.081935
2817.46,0.081989
2820.53,0.082038
2823.6,0.081966
2826.68,0.082035
2829.77,0.081994
2832.86,0.081942
2835.96,0.081747
2839.07,0.081733
2842.18,0.081778
2845.3,0.081588
2848.43,0.081449
2851.56,0.081548
2854.7,0.081494
2857.85,0.08138
2861.0,0.081324
2864.16,0.081423
2867.33,0.081528
2870.51,0.081639
2873.69,0.081721
2876.88,0.081864
2880.07,0.082097
2883.28,0.08229
2886.49,0.082475
2889.71,0.082676
2892.93,0.082799
2896.17,0.083011
2899.4,0.083213
2902.65,0.083662
2905.91,0.084127
2909.17,0.084603
2912.44,0.085346
2915.71,0.086504
2918.99,0.087382
2922.29,0.088243
2925.58,0.089376
2928.89,0.090481
2932.2,0.09145
2935.52,0.092487
2938.85,0.093353
2942.19,0.0942
2945.53,0.095002
2948.88,0.095779
2952.24,0.096423
2955.61,0.096954
2958.98,0.097378
2962.36,0.097878
2965.75,0.098383
2969.15,0.098858
2972.55,0.09944
2975.97,0.099973
2979.39,0.100509
2986.25,0.102282
2989.7,0.10313
2993.15,0.103906
2996.61,0.104475
3000.08,0.104915
3003.55,0.105356
3007.04,0.10577
3010.53,0.106168
3014.03,0.106396
3017.54,0.106622
3021.06,0.107053
3024.58,0.10736
3028.12,0.107321
3031.66,0.10729
3035.21,0.107151
3038.77,0.106949
3042.33,0.106966
3045.91,0.107043
3049.49,0.106925
3053.08,0.106939
3056.68,0.107182
3060.29,0.107572
3063.91,0.107963
3067.54,0.108722
3071.17,0.109291
3074.81,0.109904
3078.47,0.110762
3082.13,0.111624
3085.79,0.112344
3089.47,0.113401
3093.16,0.114379
3096.85,0.115439
3100.56,0.1164
3104.27,0.117044
3107.99,0.117805
3111.73,0.118689
3115.47,0.119669
3119.21,0.12082
3122.97,0.121826
3126.74,0.122814
3130.52,0.123876
3134.3,0.124918
3138.1,0.125843
3141.9,0.126826
3145.71,0.127948
3149.54,0.129057
3153.37,0.130098
3157.21,0.131145
3161.06,0.132147
3164.92,0.133035
3168.79,0.133857
3172.67,0.134895
3176.55,0.135904
3180.45,0.136768
3184.36,0.137662
3188.27,0.138469
3192.2,0.139421
3196.14,0.140415
3200.08,0.141374
3204.04,0.142448
3208.0,0.143039
3211.98,0.143865
3215.96,0.144551
3219.96,0.14584
3223.96,0.145953
3227.98,0.146909
3232.0,0.147407
3236.04,0.148446
3240.08,0.149044
3244.14,0.149755
3248.2,0.1506
3252.28,0.151288
3256.37,0.152003
3260.46,0.152335
3264.57,0.152725
3268.69,0.153201
3272.81,0.153257
3276.95,0.154286
3281.1,0.154336
3285.26,0.154842
3289.43,0.155426
3293.61,0.1559
3297.8,0.156795
3302.0,0.157017
3306.21,0.157291
3310.43,0.15773
3314.66,0.158471
3318.91,0.159532
3323.16,0.160593
3327.43,0.162139
3331.71,0.16353
3335.99,0.164633
3340.29,0.166141
3344.6,0.16698
3348.92,0.168131
3353.26,0.169058
3357.6,0.170298
3361.96,0.171163
3366.32,0.172091
3370.7,0.172908
3375.09,0.173516
3379.49,0.174194
3383.9,0.175083
3388.32,0.176209
3392.76,0.176918
3397.21,0.177266
3401.66,0.176886
3406.13,0.176852
3410.61,0.176193
3415.11,0.175974
3419.61,0.176992
3424.13,0.178722
3428.66,0.181033
3433.2,0.183428
3437.76,0.185458
3442.32,0.18699
3446.9,0.188722
3451.49,0.190178
3456.09,0.19152
3460.7,0.193012
3465.33,0.194002
3469.97,0.195074
3474.62,0.19542
3479.29,0.196211
3483.96,0.197015
3488.65,0.197489
3493.35,0.197671
3498.07,0.197825
3502.79,0.198519
3507.53,0.200401
3512.29,0.202508
3517.05,0.205479
3521.83,0.207863
3526.62,0.210094
3531.43,0.211711
3536.24,0.213597
3541.08,0.216022
3543.5,0.217236
3545.92,0.218022
3548.35,0.218879
3550.78,0.219795
3553.21,0.220565
3555.65,0.221498
3558.09,0.222605
3560.53,0.223384
3562.98,0.223999
3565.43,0.224659
3567.88,0.225573
3570.34,0.226272
3572.8,0.22673
3575.27,0.22723
3577.73,0.227975
3580.2,0.228407
3582.68,0.228788
3585.16,0.229435
3587.64,0.230214
3590.12,0.230687
3592.61,0.231248
3595.1,0.231689
3597.6,0.232284
3600.09,0.232805
3602.6,0.233147
3605.1,0.233703
3607.61,0.234159
3610.12,0.234564
3612.64,0.235009
3615.16,0.235408
3617.68,0.23566
3620.21,0.235752
3622.74,0.236007
3625.27,0.23646
3627.81,0.236936
3630.35,0.237101
3632.89,0.237498
3635.44,0.238221
3637.99,0.239052
3640.54,0.239366
3643.1,0.239454
3645.66,0.239922
3648.23,0.240607
3650.8,0.241238
3653.37,0.241877
3655.95,0.242479
3658.53,0.243012
3661.11,0.243619
3663.7,0.244236
3666.29,0.244548
3668.89,0.245111
3671.48,0.245531
3674.09,0.245853
3676.69,0.246061
3679.3,0.246357
3681.91,0.246694
3684.53,0.246988
3687.15,0.247129
3689.78,0.247235
3692.4,0.247232
3695.04,0.247462
3697.67,0.247509
3700.31,0.247247
3702.95,0.247006
3705.6,0.247457
3708.25,0.248198
3710.91,0.24859
3713.56,0.248919
3716.23,0.249002
3718.89,0.248636
3721.56,0.248565
3724.23,0.24842
3726.91,0.247936
3729.59,0.247523
3732.28,0.247219
3734.97,0.246805
3737.66,0.246379
3740.36,0.245984
3743.06,0.24557
3745.76,0.245025
3748.47,0.244514
3751.18,0.244193
3753.9,0.244046
3756.62,0.243732
3759.34,0.243857
3762.07,0.243988
3764.8,0.243952
3767.54,0.244068
3770.28,0.244158
3773.02,0.244175
3775.77,0.244274
3778.52,0.244267
3781.28,0.244421
3784.04,0.244764
3786.8,0.245424
3789.57,0.246145
3792.34,0.246916
3795.12,0.247357
3797.9,0.247918
3800.69,0.248489
3803.47,0.249074
3806.27,0.249472
3809.06,0.249773
3811.86,0.250311
3814.67,0.250894
3817.48,0.251364
3820.29,0.251844
3823.11,0.252355
3825.93,0.252977
3828.76,0.253151
3831.59,0.253423
3834.42,0.253865
3837.26,0.254209
3840.1,0.254515
3842.95,0.254795
3845.8,0.254947
3848.65,0.255173
3851.51,0.255283
3854.38,0.255516
3857.24,0.255554
3860.12,0.255526
3862.99,0.25559
3865.87,0.255661
3868.76,0.255695
3871.65,0.255852
3874.54,0.255685
3877.44,0.255634
3880.34,0.255507
3883.25,0.255266
3886.16,0.255096
3889.07,0.25517
3891.99,0.254934
3894.92,0.254653
3897.85,0.254466
3900.78,0.254062
3903.72,0.253486
3906.66,0.253116
3909.6,0.252823
3912.55,0.252799
3915.51,0.252667
3918.47,0.252415
3921.43,0.252026
3924.4,0.25167
3927.38,0.251535
3930.35,0.251512
3933.33,0.251605
3936.32,0.251893
3939.31,0.252065
3942.31,0.252064
3945.31,0.252076
3948.31,0.25248
3951.32,0.252839
3954.34,0.253249
3957.35,0.253644
3960.38,0.253969
3963.41,0.254309
3966.44,0.254899
3969.48,0.255417
3972.52,0.256
3975.56,0.257023
3978.61,0.258621
3981.67,0.26034
3984.73,0.2618
3987.8,0.263422
3990.87,0.265142
3993.94,0.266415
3997.02,0.267369
4000.1,0.268472
4003.19,0.269874
4006.29,0.270809
4009.39,0.271633
4012.49,0.272534
4015.6,0.273485
4018.71,0.274333
4021.83,0.275219
4024.95,0.27588
4028.08,0.276674
4031.21,0.277305
4034.35,0.277947
4037.49,0.278631
4040.64,0.279234
4043.79,0.279689
4046.94,0.280372
4050.11,0.281137
4053.27,0.281865
4056.44,0.282535
4059.62,0.283333
4062.8,0.284014
4065.99,0.284739
4069.18,0.285426
4072.38,0.286204
4075.58,0.287018
4078.78,0.287885
4082.0,0.288684
4085.21,0.289259
4088.43,0.289635
4091.66,0.290346
4094.89,0.291232
4098.13,0.292051
4101.37,0.292843
4104.62,0.293533
4107.87,0.294172
4111.13,0.294844
4114.39,0.295383
4117.66,0.296029
4120.93,0.296796
4124.21,0.297478
4127.5,0.298049
4130.79,0.298666
4134.08,0.299211
4137.38,0.29968
4140.68,0.300195
4143.99,0.301085
4147.31,0.301528
4150.63,0.301987
4153.95,0.302524
4157.29,0.302878
4160.62,0.30321
4163.96,0.30369
4167.31,0.304118
4170.66,0.304617
4174.02,0.304942
4177.39,0.30544
4180.75,0.306009
4184.13,0.306642
4187.51,0.307185
4190.89,0.307848
4194.28,0.308564
4197.68,0.309418
4201.08,0.310355
4204.49,0.311341
4207.9,0.31217
4211.32,0.31295
4214.74,0.313617
4218.17,0.314145
4221.61,0.314712
4225.05,0.315555
4228.5,0.316099
4231.95,0.316679
4235.4,0.31735
4238.87,0.318192
4242.34,0.318761
4245.81,0.319212
4249.29,0.320014
4252.78,0.320723
4256.27,0.321033
4259.77,0.321988
4263.27,0.322716
4266.78,0.323118
4270.29,0.323391
4273.81,0.3238
4277.34,0.32407
4280.87,0.324596
4284.41,0.325117
4287.95,0.325566
4291.5,0.325816
4295.06,0.326265
4298.62,0.326486
4302.19,0.326941
4305.76,0.327441
4309.34,0.327971
4312.92,0.32832
4316.52,0.328572
4320.11,0.329001
4323.72,0.329322
4327.32,0.329448
4330.94,0.329831
4334.56,0.330071
4338.19,0.330206
4341.82,0.33048
4345.46,0.330688
4349.11,0.330748
4352.76,0.330909
4356.42,0.330921
4360.08,0.331037
4363.75,0.331218
4367.43,0.331408
4371.11,0.331351
4374.8,0.331311
4378.49,0.331468
4382.19,0.331876
4385.9,0.332001
4389.61,0.332047
4393.33,0.332026
4397.06,0.332023
4400.79,0.331961
4404.53,0.331955
4408.28,0.331944
4412.03,0.33198
4415.79,0.3319
4419.55,0.33197
4423.32,0.332031
4427.1,0.331939
4430.88,0.33182
4434.68,0.331838
4438.47,0.331761
4442.28,0.331519
4446.08,0.331346
4449.9,0.331439
4453.72,0.331412
4457.55,0.331245
4461.39,0.331061
4465.23,0.331015
4469.08,0.330779
4472.94,0.33052
4476.8,0.330232
4480.67,0.330076
4484.55,0.329816
4488.43,0.329538
4492.32,0.329283
4496.21,0.329108
4500.12,0.328914
4504.03,0.328543
4507.94,0.327947
4511.87,0.327473
4515.8,0.326951
4519.73,0.326386
4523.68,0.325811
4527.63,0.325477
4531.59,0.325042
4535.55,0.324734
4539.52,0.324514
4543.5,0.324301
4547.49,0.323837
4551.48,0.323487
4555.48,0.323154
4559.49,0.322714
4563.5,0.322256
4567.52,0.321918
4571.55,0.321332
4575.58,0.320757
4579.63,0.320164
4583.67,0.319604
4587.73,0.319025
4591.79,0.318594
4595.86,0.318088
4599.94,0.317551
4604.03,0.316927
4608.12,0.316289
4612.22,0.315721
4616.33,0.315344
4620.44,0.314682
4624.56,0.313926
4628.69,0.313383
4632.83,0.312686
4636.97,0.311883
4641.12,0.311288
4645.28,0.310467
4649.45,0.309676
4653.62,0.309037
4657.8,0.30841
4661.99,0.30768
4666.19,0.306929
4670.39,0.305922
4674.6,0.305074
4678.82,0.304365
4683.05,0.303723
4687.28,0.302932
4691.52,0.302292
4695.77,0.301571
4700.03,0.300842
4704.3,0.30005
4708.57,0.299451
4712.85,0.298968
4717.14,0.298436
4721.43,0.297841
4725.74,0.297288
4730.05,0.296854
4734.37,0.296523
4738.7,0.296152
4743.03,0.295674
4747.38,0.295243
4751.73,0.294763
4756.09,0.294221
4760.45,0.293817
4764.83,0.2934
4769.21,0.293101
4773.6,0.292685
4778.0,0.292206
4782.41,0.291532
4786.83,0.290974
4791.25,0.290616
4795.68,0.29043
4800.13,0.290035
4804.57,0.289642
4809.03,0.289008
4813.5,0.288487
4817.97,0.287985
4822.45,0.287477
4826.94,0.286996
4831.44,0.286618
4835.95,0.286157
4840.46,0.285853
4844.99,0.285282
4849.52,0.284744
4854.06,0.284319
4858.61,0.283857
4863.17,0.28347
4867.73,0.283123
4872.31,0.282564
4876.89,0.282098
4881.48,0.281668
4886.08,0.281256
4890.69,0.280617
4895.31,0.280076
4899.94,0.279521
4904.57,0.279033
4909.22,0.278454
4913.87,0.278104
4918.53,0.277617
4923.21,0.277047
4927.88,0.276491
4932.57,0.275914
4937.27,0.275305
4941.98,0.274837
4946.69,0.274169
4951.42,0.27342
4956.15,0.272866
4960.9,0.272558
4965.65,0.272051
4970.41,0.271407
4975.18,0.27062
4979.96,0.269992
4984.75,0.269486
4989.54,0.269048
4994.35,0.268559
4999.17,0.268062
5003.99,0.267344
5008.83,0.266779
5013.67,0.266255
5018.52,0.26582
5023.39,0.265116
5028.26,0.264491
5033.14,0.263988
5038.03,0.26352
5042.93,0.262983
5047.84,0.262739
5052.76,0.262611
5057.69,0.262535
5062.63,0.262482
5067.58,0.262539
5072.54,0.262526
5077.51,0.262589
5082.49,0.262519
5087.47,0.262659
5092.47,0.262757
5097.48,0.262917
5102.5,0.262918
5107.52,0.262874
5112.56,0.263029
5117.61,0.263327
5122.66,0.263413
5127.73,0.26353
5132.81,0.263728
5137.89,0.263959
5142.99,0.263928
5148.1,0.264005
5153.22,0.264033
5158.34,0.264089
5163.48,0.264114
5168.63,0.264133
5173.79,0.264094
5178.96,0.264017
5184.13,0.263803
5189.32,0.263704
5194.52,0.263567
5199.73,0.263436
5204.96,0.263091
5210.19,0.262817
5215.43,0.262481
5220.68,0.262238
5225.94,0.261881
5231.22,0.261515
5236.5,0.261027
5241.79,0.260578
5247.1,0.259992
5252.42,0.259435
5257.74,0.25905
5263.08,0.258688
5268.43,0.258147
5273.79,0.257849
5279.16,0.257543
5284.54,0.257325
5289.93,0.25712
5295.34,0.25684
5300.75,0.256529
5306.18,0.256667
5311.61,0.256771
5317.06,0.256993
5322.52,0.257175
5327.99,0.257172
5333.47,0.257028
5338.96,0.257142
5344.47,0.257201
5349.98,0.256943
5355.51,0.256461
5361.05,0.256295
5366.6,0.25607
5372.16,0.255674
5377.73,0.255128
5383.32,0.254751
5388.91,0.254305
5394.52,0.253848
5400.14,0.253319
5405.77,0.252932
5411.41,0.252312
5417.07,0.251558
5422.74,0.250682
5428.41,0.249966
5434.1,0.249147
5439.81,0.248231
5445.52,0.247228
5451.25,0.24617
5456.98,0.244839
5462.73,0.24327
5468.5,0.241509
5474.27,0.239762
5480.06,0.237805
5485.86,0.235663
5491.67,0.233768
5497.49,0.232324
5503.33,0.23117
5509.18,0.230913
5515.04,0.231314
5520.91,0.232246
5526.8,0.233275
5532.69,0.234359
5538.61,0.235282
5544.53,0.235957
5550.47,0.236325
5556.41,0.236537
5562.38,0.236531
5568.35,0.23642
5574.34,0.236206
5580.34,0.236019
5586.35,0.235524
5592.38,0.23527
5598.42,0.234814
5604.47,0.234393
5610.54,0.233752
5616.61,0.23319
5622.71,0.232471
5628.81,0.231802
5634.93,0.231036
5641.06,0.230365
5647.21,0.229554
5653.36,0.228946
5659.54,0.228193
5665.72,0.227309
5671.92,0.226209
5678.13,0.225264
5684.36,0.22431
5690.6,0.223504
5696.85,0.222455
5703.12,0.221329
5709.4,0.220159
5715.69,0.21902
5722.0,0.217694
5728.33,0.216462
5734.66,0.215043
5741.01,0.213633
5747.38,0.212048
5753.76,0.210416
5760.15,0.208653
5766.56,0.207034
5772.98,0.204803
5779.41,0.202813
5785.86,0.20063
5792.33,0.198365
5798.81,0.195887
5805.3,0.193343
5811.81,0.190277
5818.33,0.187291
5824.87,0.18398
5831.42,0.18061
5837.99,0.177193
5844.57,0.173819
5851.17,0.170304
5857.78,0.166852
5864.41,0.163179
5871.05,0.159413
5877.7,0.155789
5884.38,0.152277
5891.06,0.148304
5897.76,0.144973
5904.48,0.14113
5911.21,0.137624
5917.96,0.134087
5924.73,0.130363
5931.5,0.126789
5938.3,0.12327
5945.11,0.11933
5951.93,0.115994
5958.78,0.112578
5965.63,0.109224
5972.51,0.105877
5979.39,0.102543
5986.3,0.099383
5993.22,0.096415
6000.16,0.093384
6007.11,0.090732
6014.08,0.088011
6021.06,0.085289
6028.06,0.082633
6035.08,0.080164
6042.12,0.077835
6049.17,0.075974
6056.23,0.074044
6063.32,0.072411
6070.42,0.071221
6077.53,0.070301
6084.67,0.069525
6091.82,0.069137
6098.98,0.068944
6106.17,0.068735
6113.37,0.068456
6120.58,0.068213
6127.82,0.068148
6135.07,0.068197
6142.34,0.067943
6149.63,0.067577
6156.93,0.066929
6164.25,0.065766
6171.59,0.064235
6178.95,0.062319
6186.32,0.059965
6193.71,0.057349
6201.12,0.055153
6208.54,0.053574
6215.99,0.052297
6223.45,0.051457
6230.93,0.051321
6238.43,0.052069
6245.95,0.053588
6253.48,0.055625
6261.03,0.057821
6268.6,0.06002
6276.19,0.062028
6283.8,0.063934
6291.43,0.065658
6299.07,0.067505
6306.73,0.069463
6314.42,0.071431
6322.12,0.073348
6329.84,0.074886
6337.57,0.076011
6345.33,0.076803
6353.11,0.077109
6360.9,0.077096
6368.72,0.076888
6376.55,0.076461
6384.4,0.075824
6392.27,0.07475
6400.17,0.072928
6408.08,0.070803
6416.01,0.068258
6423.96,0.065504
6431.93,0.0635
6439.92,0.062104
6447.93,0.061034
6455.96,0.060318
6464.01,0.059664
6472.08,0.059286
6480.17,0.059153
6488.28,0.059676
6496.41,0.060846
6504.56,0.062819
6512.73,0.065229
6520.92,0.067806
6529.14,0.070336
6537.37,0.07269
6545.63,0.074984
6553.9,0.077365
6562.2,0.079537
6570.51,0.081369
6578.85,0.082924
6587.21,0.084253
6595.59,0.085618
6603.99,0.087143
6612.42,0.088636
6620.86,0.089975
6629.33,0.091049
6637.82,0.091992
6646.33,0.092852
6654.86,0.09339
6663.41,0.093736
6671.99,0.094019
6680.59,0.094126
6689.21,0.094134
6697.85,0.093906
6706.51,0.0936
6715.2,0.09297
6723.91,0.09202
6732.64,0.090831
6741.4,0.089427
6750.18,0.08767
6758.98,0.085707
6767.8,0.083381
6776.65,0.080832
6785.52,0.078096
6794.41,0.074936
6803.33,0.071493
6812.27,0.068363
6821.23,0.065439
6830.22,0.063031
6839.23,0.061274
6848.26,0.060553
6857.32,0.060385
6866.4,0.060487
6875.51,0.060746
6884.64,0.060923
6893.8,0.061272
6902.98,0.06163
6912.18,0.061714
6921.41,0.061519
6930.66,0.060752
6939.94,0.059812
6949.24,0.058749
6958.57,0.057615
6967.92,0.056275
6977.3,0.054913
6986.7,0.05367
6996.13,0.052479
7005.59,0.051342
7015.07,0.050351
7024.57,0.049515
7034.1,0.049097
7043.66,0.048974
7053.25,0.04904
7062.85,0.04953
7072.49,0.050618
7082.15,0.052208
7091.84,0.054526
7101.55,0.05713
7111.3,0.059902
7121.06,0.062355
7130.86,0.064339
7140.68,0.065846
7150.53,0.066745
7160.41,0.067102
7170.31,0.067412
7180.24,0.067784
7190.2,0.068612
7200.19,0.069661
7210.2,0.070516
7220.24,0.07141
7230.31,0.072039
7240.41,0.072611
7250.54,0.073351
7260.69,0.073922
7270.88,0.074448
7281.09,0.075047
7291.33,0.075694
7301.6,0.076439
7311.9,0.077067
7322.22,0.077685
7332.58,0.078294
7342.97,0.078827
7353.38,0.079376
7363.83,0.079549
7374.3,0.079598
7384.81,0.079672
7395.34,0.079628
7405.91,0.079605
7416.5,0.079607
7427.13,0.079283
7437.78,0.078557
7448.47,0.077998
7459.19,0.077999
7469.94,0.078495
7480.71,0.07887
7491.52,0.079011
7502.37,0.078994
7513.24,0.078672
7524.14,0.078506
7535.08,0.078603
7546.05,0.078605
7557.05,0.078665
7568.08,0.078811
7579.15,0.079027
7590.24,0.079121
7601.37,0.079238
7612.53,0.079487
7623.73,0.079832
7634.96,0.080111
7646.22,0.080342
7657.51,0.080473
7668.84,0.080548
7680.2,0.080865
7691.59,0.081089
7703.02,0.081366
7714.49,0.081658
7725.98,0.081834
7737.52,0.081936
7749.08,0.082189
7760.68,0.082473
7772.32,0.082678
7783.99,0.082983
7795.69,0.083237
7807.43,0.083497
7819.21,0.083849
7831.02,0.084261
7842.87,0.0846
7854.75,0.085085
7866.67,0.085721
7878.62,0.086299
7890.62,0.086891
7902.64,0.08766
7914.71,0.088427
7926.81,0.08914
7938.95,0.089866
7951.13,0.090516
7963.34,0.091339
7975.59,0.092146
7987.88,0.092812
8000.21,0.093352
8012.57,0.093977
8024.98,0.094534
8037.42,0.095105
8049.9,0.095752
8062.42,0.096472
8074.98,0.096849
8087.57,0.097337
8100.21,0.098221
8112.89,0.098979
8125.6,0.09975
8138.36,0.100473
8151.16,0.10104
8163.99,0.10163
8176.87,0.102261
8189.79,0.102572
8202.75,0.102776
8215.75,0.102932
8228.79,0.103186
8241.87,0.10342
8254.99,0.103728
8268.16,0.104052
8281.37,0.104566
8294.62,0.105015
8307.91,0.10527
8321.24,0.105665
8334.62,0.105954
8348.04,0.106238
8361.51,0.106413
8375.02,0.106562
8388.57,0.107052
8402.16,0.107421
8415.8,0.107679
8429.49,0.108083
8443.22,0.108341
8456.99,0.108512
8470.81,0.108704
8484.67,0.108993
8498.58,0.109508
8512.54,0.109682
8526.54,0.109777
8540.58,0.110007
8554.68,0.110432
8568.82,0.110628
8583.0,0.110994
8597.24,0.111554
8611.52,0.111959
8625.85,0.112114
8640.23,0.11211
8654.65,0.112469
8669.12,0.112874
8683.64,0.112979
8698.21,0.11313
8712.83,0.113148
8727.5,0.113292
8742.22,0.113438
8756.99,0.113606
8771.8,0.113794
8786.67,0.113756
8801.59,0.11361
8816.56,0.11374
8831.58,0.113766
8846.65,0.113414
8861.77,0.113051
8876.94,0.112932
8892.17,0.112693
8907.45,0.112465
8922.78,0.112207
8938.16,0.111693
8953.6,0.111185
8969.09,0.110721
8984.64,0.110088
9000.23,0.109606
9015.89,0.10881
9031.59,0.107587
9047.36,0.106467
9063.17,0.105713
9079.05,0.105196
9094.97,0.104556
9110.96,0.104019
9127.0,0.103382
9143.1,0.102495
9159.25,0.101644
9175.46,0.100881
9191.73,0.100294
9208.06,0.099498
9224.44,0.098733
9240.88,0.098116
9257.38,0.097572
9273.94,0.097202
9290.56,0.097034
9307.24,0.096797
9323.98,0.096478
9340.78,0.096151
9357.64,0.095924
9374.57,0.095865
9391.55,0.095784
9408.59,0.095643
9425.7,0.095315
9442.87,0.094626
9460.1,0.093944
9477.4,0.093309
9494.75,0.092604
9512.17,0.091697
9529.66,0.091361
9547.21,0.091203
9564.83,0.09138
9582.5,0.091616
9600.25,0.091943
9618.06,0.092036
9635.94,0.091863
9653.88,0.091385
9671.89,0.090428
9689.97,0.089055
9708.12,0.087744
9726.33,0.086489
9744.62,0.084988
9762.97,0.083572
9781.39,0.082181
9799.88,0.080797
9818.44,0.079897
9837.07,0.07918
9855.77,0.078966
9874.54,0.079416
9893.39,0.080056
9912.3,0.080767
9931.29,0.081149
9950.36,0.081034
9969.49,0.080662
9988.7,0.080129
10007.98,0.079587
10027.34,0.079102
10046.77,0.078582
10066.28,0.078067
10085.87,0.077533
10105.53,0.076891
10125.26,0.076091
10145.08,0.075371
10164.97,0.075019
10184.94,0.074717
10204.99,0.074043
10225.12,0.073603
10245.33,0.07363
10265.61,0.073408
10285.98,0.072645
10306.43,0.072353
10326.96,0.072176
10347.57,0.07172
10368.27,0.07138
10389.05,0.07087
10409.91,0.070222
10430.86,0.069723
10451.88,0.069347
10473.0,0.069103
10494.2,0.06885
10515.49,0.068444
10536.86,0.068068
10558.32,0.067776
10579.87,0.067814
10601.5,0.067585
10623.23,0.067402
10645.04,0.067579
10666.94,0.067645
10688.94,0.067509
10711.02,0.067555
10733.2,0.067766
10755.47,0.067759
10777.83,0.067853
10800.28,0.067751
10822.83,0.067571
10845.47,0.067437
10868.21,0.067257
10891.04,0.067193
10913.97,0.067281
10936.99,0.067125
10960.12,0.066788
10983.34,0.066751
11006.66,0.066765
11030.07,0.066344
11053.59,0.06574
11077.21,0.065284
11100.93,0.065101
11124.75,0.064689
11148.68,0.063923
11172.71,0.063119
11196.84,0.062193
11221.07,0.061171
11245.41,0.06009
11269.86,0.058857
11294.41,0.05768
11319.07,0.056511
11343.84,0.055377
11368.72,0.054305
11393.7,0.053195
11418.8,0.052212
11444.01,0.051307
11469.33,0.050585
11494.76,0.05006
11520.3,0.049447
11545.96,0.048728
11571.73,0.047909
11597.62,0.047032
11623.62,0.045437
11649.74,0.042816
11675.98,0.040626
11702.34,0.04019
11728.81,0.042397
11755.41,0.04585
11782.13,0.048577
11808.96,0.049765
11835.92,0.05064
11863.01,0.051192
11890.22,0.051341
11917.55,0.05123
11945.01,0.051344
11972.6,0.051177
12000.31,0.050603
12028.16,0.050578
12056.13,0.050989
12084.23,0.051093
12112.46,0.050878
12140.83,0.050641
12169.33,0.050678
12197.96,0.050507
12226.73,0.050208
12255.64,0.049981
12284.68,0.049999
12313.86,0.05011
12343.18,0.049923
12372.64,0.049365
12402.24,0.048767
12431.98,0.048355
12461.86,0.047868
12491.89,0.047619
12522.07,0.047513
12552.38,0.047295
12582.85,0.047638
12613.47,0.048293
12644.23,0.048846
12675.15,0.04903
12706.21,0.049311
12737.43,0.050082
12768.81,0.050909
12800.33,0.051849
12832.02,0.052911
12863.86,0.053915
12895.86,0.054648
12928.02,0.055219
12960.34,0.056061
12992.82,0.056986
13025.46,0.057557
13058.27,0.058073
13091.25,0.058791
13124.39,0.059136
13157.7,0.059098
13191.18,0.059192
13224.83,0.059452
13258.66,0.059556
13292.65,0.059491
13326.83,0.059716
13361.17,0.059769
13395.7,0.059657
13430.4,0.059747
13465.29,0.060037
13500.35,0.059986
13535.6,0.0598
13571.03,0.060057
13606.65,0.06018
13642.46,0.060021
13678.46,0.060435
13714.64,0.060439
13751.02,0.060132
13787.59,0.060434
13824.36,0.060922
13861.32,0.06088
13898.49,0.060398
13935.85,0.060031
13973.41,0.060109
14011.17,0.060506
14049.15,0.060602
14087.32,0.060482
14125.71,0.060023
14164.3,0.059562
14203.11,0.059602
14242.13,0.059902
14281.36,0.059942
14320.81,0.059849
14360.49,0.06016
14400.38,0.060592
14440.49,0.060416
14480.82,0.060462
14521.39,0.060532
14562.18,0.060758
14603.2,0.060294
14644.45,0.059406
14685.93,0.058975
14727.66,0.058755
14769.62,0.057634
14811.81,0.057052
14854.25,0.056775
14896.94,0.05633
14939.87,0.056096
14983.05,0.056148
15026.48,0.056301
15070.16,0.055974
15114.1,0.055515
15158.29,0.055415
15202.74,0.055331
15247.46,0.055234
15292.43,0.055288
15337.68,0.054943
15383.19,0.054601
15428.97,0.054861
15475.03,0.055114
15521.36,0.055022
15567.97,0.054628
15614.87,0.054356
15662.04,0.054135
15709.5,0.053846
15757.25,0.054003
15805.29,0.054454
15853.62,0.054456
15902.26,0.054314
15951.19,0.053845
16000.42,0.053692
16049.95,0.053623
16099.8,0.053253
16149.95,0.053171
16200.42,0.053385
16251.21,0.053526
16302.31,0.053613
16353.74,0.053611
16405.49,0.053687
16457.57,0.053667
16509.98,0.054285
16562.73,0.054487
16615.82,0.054195
16669.24,0.054368
16723.02,0.054727
16777.14,0.054762
16831.61,0.055729
16886.43,0.05628
16941.62,0.056441
16997.16,0.056389
17053.08,0.056708
17109.36,0.057112
17166.01,0.058066
17223.04,0.05861
17280.45,0.058385
17338.24,0.058455
17396.43,0.059144
17455.0,0.059605
17513.97,0.060347
17573.34,0.060392
17633.11,0.060986
17693.29,0.061306
17753.89,0.06132
17814.9,0.061651
17876.33,0.062275
17938.18,0.062794
18000.47,0.063128
18063.19,0.063335
18126.35,0.064097
18189.95,0.064688
18254.0,0.064679
18318.5,0.063688
18383.46,0.064387
18448.88,0.066521
18514.77,0.069392
18581.13,0.067531
18647.97,0.064097
18715.29,0.064323
18783.1,0.065512
18851.4,0.066529
18920.2,0.066725
18989.51,0.06659
19059.32,0.066514
19129.65,0.066526
19200.5,0.067068
19271.88,0.067124
19343.79,0.067228
19416.24,0.067882
19489.23,0.067217
19562.77,0.06777
19636.88,0.067355
19711.54,0.066996
19786.78,0.06818
19862.59,0.068608
19938.98,0.068341
20015.96,0.069081
20093.55,0.069759
20171.73,0.070574
20250.53,0.071362
20329.94,0.071014
20409.98,0.070727
20490.65,0.070368
20571.96,0.070942
20653.92,0.072126
20736.54,0.072375
20819.82,0.070793
20903.77,0.070937
20988.4,0.071385
21073.72,0.071955
21159.73,0.070934
21246.46,0.071814
21333.89,0.074004
21422.04,0.073565
21510.93,0.072605
21600.56,0.072818
21690.94,0.073441
21782.08,0.073461
21873.99,0.073497
21966.67,0.072945
22060.15,0.071893
22154.42,0.0736
22249.51,0.07387
22345.41,0.073787
22442.14,0.074333
22539.72,0.074499
22638.14,0.074985
22737.43,0.074645
22837.6,0.073617
22938.65,0.073535
23040.6,0.073462
23143.46,0.073092
23247.24,0.071634
23351.96,0.070989
23457.63,0.071055
23564.25,0.070571
23671.85,0.070832
23780.44,0.074003
23890.02,0.071918
24000.63,0.068001
24112.26,0.067808
24224.93,0.068675
24338.66,0.06718
24453.47,0.067178
24569.36,0.067737
24686.36,0.071562
24804.47,0.072304
24923.73,0.07122
25044.13,0.068029
25165.71,0.06627
25288.46,0.065608
25412.43,0.069041
25537.61,0.070455
25664.04,0.071011
25791.72,0.073326
25920.68,0.073974
