Database of Origin,University of Winnipeg Spectrophotometer Facility
Sample Description,See Master Clays in HOSERLab database
Date Added,2016-12-11 20:57:06.001776

Data ID,RLA_CLAY_08         
Sample ID,GLA101
Mineral Name,Glauconite
Grain Size,<45um
Viewing Geometry,"30/0,30"
Resolution,"5,0.6-129"
Material Class,Phyllosilicate

Wavelength
305.0,0.025211
310.0,0.023877
315.0,0.022943
320.0,0.023319
325.0,0.024168
330.0,0.024052
335.0,0.024145
340.0,0.024429
345.0,0.025241
350.0,0.025675
355.0,0.025908
360.0,0.026769
365.0,0.027337
370.0,0.028053
375.0,0.029472
380.0,0.030835
385.0,0.03248
390.0,0.034282
395.0,0.036118
400.0,0.038113
405.0,0.039545
410.0,0.040883
415.0,0.042617
420.0,0.044544
425.0,0.046872
430.0,0.049716
435.0,0.053001
440.0,0.05617
445.0,0.059078
450.0,0.061225
455.0,0.063024
460.0,0.064292
465.0,0.065408
470.0,0.066652
475.0,0.068117
480.0,0.06991
485.0,0.072208
490.0,0.074971
495.0,0.078284
500.0,0.081847
505.0,0.086038
510.0,0.090524
515.0,0.095228
520.0,0.100289
525.0,0.105984
530.0,0.111736
535.0,0.117644
540.0,0.12359
545.0,0.129404
550.0,0.134554
555.0,0.139529
560.0,0.143737
565.0,0.147437
570.0,0.150341
575.0,0.152936
580.0,0.154964
585.0,0.156523
590.0,0.157685
595.0,0.158878
600.0,0.159634
605.0,0.160397
610.0,0.160973
615.0,0.161628
620.0,0.161805
625.0,0.16233
630.0,0.162309
635.0,0.163057
640.0,0.163225
645.0,0.163712
650.0,0.163776
655.0,0.164111
660.0,0.164365
665.0,0.164666
670.0,0.164885
675.0,0.165312
680.0,0.165671
685.0,0.166049
690.0,0.166555
695.0,0.167065
700.0,0.167432
705.0,0.168203
710.0,0.168767
715.0,0.169567
720.0,0.170236
725.0,0.17135
730.0,0.17205
735.0,0.173179
740.0,0.173998
745.0,0.174931
750.0,0.176146
755.0,0.17701
760.0,0.178119
765.0,0.179248
770.0,0.180327
775.0,0.18133
780.0,0.182198
785.0,0.183501
790.0,0.184364
795.0,0.185492
800.0,0.185922
805.0,0.186825
810.0,0.187405
815.0,0.187894
820.0,0.188182
825.0,0.188315
830.0,0.188092
835.0,0.188759
840.0,0.188289
845.0,0.188046
850.0,0.187647
855.0,0.187137
860.0,0.187285
865.0,0.18536
870.0,0.18557
875.0,0.185382
880.0,0.184149
885.0,0.183766
890.0,0.184004
895.0,0.183686
900.0,0.184063
905.0,0.183347
910.0,0.183626
915.0,0.18358
920.0,0.183418
925.0,0.183285
930.0,0.183586
935.0,0.183432
940.0,0.183724
945.0,0.184551
950.0,0.18434
955.0,0.185143
960.0,0.185129
965.0,0.185806
970.0,0.185813
975.0,0.186717
980.0,0.187028
985.0,0.187917
990.0,0.188194
995.0,0.188835
1000.0,0.188905
1005.0,0.189256
1010.0,0.190045
1015.0,0.190731
1020.0,0.191199
1025.0,0.191656
1030.0,0.192278
1035.0,0.192876
1040.0,0.193677
1045.0,0.194334
1050.0,0.194814
1055.0,0.195254
1060.0,0.196139
1065.0,0.196859
1070.0,0.197089
1075.0,0.198393
1080.0,0.198479
1085.0,0.199895
1090.0,0.200306
1095.0,0.201709
1100.0,0.201538
1105.0,0.20321
1110.0,0.204182
1115.0,0.205104
1120.0,0.206107
1125.0,0.207618
1130.0,0.208476
1135.0,0.209824
1140.0,0.211256
1145.0,0.212724
1150.0,0.214006
1155.0,0.214812
1160.0,0.216002
1165.0,0.21796
1170.0,0.219561
1175.0,0.220356
1180.0,0.223215
1185.0,0.223513
1190.0,0.224647
1195.0,0.226426
1200.0,0.227918
1205.0,0.229288
1210.0,0.231247
1215.0,0.232035
1220.0,0.234489
1225.0,0.235874
1230.0,0.237658
1235.0,0.238781
1240.0,0.24078
1245.0,0.242763
1250.0,0.244441
1255.0,0.246335
1260.0,0.248128
1265.0,0.250317
1270.0,0.252162
1275.0,0.253844
1280.0,0.255981
1285.0,0.258254
1290.0,0.260109
1295.0,0.262758
1300.0,0.264014
1305.0,0.266744
1310.0,0.268546
1315.0,0.270184
1320.0,0.272501
1325.0,0.274496
1330.0,0.277009
1335.0,0.279345
1340.0,0.281547
1345.0,0.283938
1350.0,0.285315
1355.0,0.287794
1360.0,0.28951
1365.0,0.29285
1370.0,0.294754
1375.0,0.296476
1380.0,0.298439
1385.0,0.301099
1390.0,0.302374
1395.0,0.303893
1400.0,0.305228
1405.0,0.306719
1410.0,0.307487
1415.0,0.309534
1420.0,0.311541
1425.0,0.313662
1430.0,0.316347
1435.0,0.318877
1440.0,0.321867
1445.0,0.324117
1450.0,0.326888
1455.0,0.329788
1460.0,0.33278
1465.0,0.335528
1470.0,0.338309
1475.0,0.341272
1480.0,0.343361
1485.0,0.346454
1490.0,0.348683
1495.0,0.351411
1500.0,0.353896
1505.0,0.356458
1510.0,0.359206
1515.0,0.36163
1520.0,0.364481
1525.0,0.366475
1530.0,0.368018
1535.0,0.370685
1540.0,0.372468
1545.0,0.375349
1550.0,0.37747
1555.0,0.378704
1560.0,0.380963
1565.0,0.383245
1570.0,0.384736
1575.0,0.387607
1580.0,0.388679
1585.0,0.391038
1590.0,0.393485
1595.0,0.396301
1600.0,0.397925
1605.0,0.399477
1610.0,0.400712
1615.0,0.402692
1620.0,0.404463
1625.0,0.406617
1630.0,0.407515
1635.0,0.408833
1640.0,0.410193
1645.0,0.413263
1650.0,0.414434
1655.0,0.4163
1660.0,0.417937
1665.0,0.419107
1670.0,0.420943
1675.0,0.422726
1680.0,0.42382
1685.0,0.424984
1690.0,0.426713
1695.0,0.428005
1700.0,0.429013
1705.0,0.430867
1710.0,0.432121
1715.0,0.433462
1720.0,0.435038
1725.0,0.436109
1730.0,0.436594
1735.0,0.437587
1740.0,0.438671
1745.0,0.440158
1750.0,0.441513
1755.0,0.44251
1760.0,0.443166
1765.0,0.443949
1770.0,0.445502
1775.0,0.446283
1780.0,0.447332
1785.0,0.448354
1790.0,0.4491
1795.0,0.450425
1800.0,0.451107
1805.0,0.45245
1810.0,0.453197
1815.0,0.454502
1820.0,0.455152
1825.0,0.456732
1830.0,0.457694
1835.0,0.45808
1840.0,0.459417
1845.0,0.46032
1850.0,0.460711
1855.0,0.460912
1860.0,0.460836
1865.0,0.459966
1870.0,0.45888
1875.0,0.459146
1880.0,0.456139
1885.0,0.451981
1890.0,0.447317
1895.0,0.439457
1900.0,0.429728
1905.0,0.421464
1910.0,0.416425
1915.0,0.414433
1920.0,0.415032
1925.0,0.417872
1930.0,0.419422
1935.0,0.422135
1940.0,0.424117
1945.0,0.426049
1950.0,0.426847
1955.0,0.429413
1960.0,0.431703
1965.0,0.434619
1970.0,0.435996
1975.0,0.437997
1980.0,0.440121
1985.0,0.44257
1990.0,0.445104
1995.0,0.446521
2000.0,0.44857
2005.0,0.450985
2010.0,0.453372
2015.0,0.455058
2020.0,0.456471
2025.0,0.458244
2030.0,0.459959
2035.0,0.462306
2040.0,0.463642
2045.0,0.465115
2050.0,0.466085
2055.0,0.467189
2060.0,0.46821
2065.0,0.470118
2070.0,0.470472
2075.0,0.471766
2080.0,0.47261
2085.0,0.472729
2090.0,0.474125
2095.0,0.475203
2100.0,0.475526
2105.0,0.476179
2110.0,0.476231
2115.0,0.476921
2120.0,0.477728
2125.0,0.478831
2130.0,0.479129
2135.0,0.479506
2140.0,0.479388
2145.0,0.479048
2150.0,0.478481
2155.0,0.478054
2160.0,0.478081
2165.0,0.47744
2170.0,0.476355
2175.0,0.476152
2180.0,0.474646
2185.0,0.473646
2190.0,0.472404
2195.0,0.471549
2200.0,0.469863
2205.0,0.468854
2210.0,0.466821
2215.0,0.467171
2220.0,0.467366
2225.0,0.466146
2230.0,0.46502
2235.0,0.463613
2240.0,0.460753
2245.0,0.459374
2250.0,0.457916
2255.0,0.456159
2260.0,0.454791
2265.0,0.454049
2270.0,0.452229
2275.0,0.451656
2280.0,0.449526
2285.0,0.447805
2290.0,0.444865
2295.0,0.44195
2300.0,0.439565
2305.0,0.438126
2310.0,0.437528
2315.0,0.438781
2320.0,0.440813
2325.0,0.441303
2330.0,0.442003
2335.0,0.441793
2340.0,0.440692
2345.0,0.438223
2350.0,0.435785
2355.0,0.433908
2360.0,0.431288
2365.0,0.430094
2370.0,0.427421
2375.0,0.42631
2380.0,0.4255
2385.0,0.424691
2390.0,0.423896
2395.0,0.423501
2400.0,0.423839
2405.0,0.42281
2410.0,0.421859
2415.0,0.420668
2420.0,0.419229
2425.0,0.417276
2430.0,0.416156
2435.0,0.41461
2440.0,0.412764
2445.0,0.410962
2450.0,0.409131
2455.0,0.406873
2460.0,0.4039
2465.0,0.401951
2470.0,0.400258
2475.0,0.397978
2480.0,0.396247
2485.0,0.394317
2490.0,0.39151
2495.0,0.390139
2500.0,0.388649
2505.0,0.387849
2510.0,0.386406
2515.0,0.385862
2520.0,0.385074
2525.15,0.384363
2530.08,0.383007
2535.03,0.383788
2540.0,0.383395
2544.99,0.382066
2549.99,0.381811
2552.5,0.381579
2553.76,0.381285
2556.28,0.381767
2558.8,0.381507
2561.33,0.380237
2563.86,0.379691
2565.13,0.379666
2566.4,0.379397
2567.67,0.379552
2568.95,0.379064
2570.22,0.378779
2571.5,0.378645
2572.77,0.379056
2574.05,0.378035
2575.33,0.377822
2576.61,0.378177
2577.89,0.377994
2579.17,0.377954
2580.46,0.378232
2581.74,0.377508
2583.03,0.376949
2584.31,0.376357
2585.6,0.376641
2586.89,0.376832
2588.19,0.376536
2589.48,0.376136
2590.77,0.376186
2592.07,0.376449
2593.36,0.375947
2594.66,0.373981
2595.96,0.373189
2597.26,0.373852
2598.56,0.374538
2599.87,0.374101
2601.17,0.373893
2602.48,0.3735
2603.78,0.373006
2605.09,0.372498
2606.4,0.372299
2607.71,0.371774
2609.03,0.371401
2610.34,0.371084
2611.66,0.370829
2612.97,0.370433
2614.29,0.369734
2615.61,0.369227
2616.93,0.368458
2618.25,0.367677
2619.57,0.36814
2620.9,0.367493
2622.22,0.367846
2623.55,0.367375
2624.88,0.366321
2626.21,0.365194
2627.54,0.364566
2628.87,0.364885
2630.21,0.364113
2631.54,0.362511
2632.88,0.36261
2634.21,0.362388
2635.55,0.362076
2636.89,0.36159
2638.24,0.360775
2639.58,0.359244
2640.92,0.358421
2642.27,0.357655
2643.62,0.357038
2644.97,0.356738
2646.32,0.355615
2647.67,0.354614
2649.02,0.354102
2650.38,0.352715
2651.73,0.351093
2653.09,0.349695
2654.45,0.349091
2655.81,0.34811
2657.17,0.346221
2658.53,0.34497
2659.89,0.34412
2661.26,0.342145
2662.63,0.34065
2664.0,0.338497
2665.36,0.336264
2666.74,0.33421
2668.11,0.332311
2669.48,0.329169
2670.86,0.325525
2672.23,0.320751
2673.61,0.316916
2674.99,0.312361
2676.37,0.308168
2677.76,0.304048
2679.14,0.301306
2680.52,0.298128
2681.91,0.295087
2683.3,0.291121
2684.69,0.286134
2686.08,0.280713
2687.47,0.274646
2688.87,0.268695
2690.26,0.262075
2691.66,0.254485
2693.06,0.2469
2694.46,0.238507
2695.86,0.230061
2697.26,0.221975
2698.66,0.214387
2700.07,0.20687
2701.48,0.199569
2702.89,0.191487
2704.3,0.184056
2705.71,0.177219
2707.12,0.171008
2708.53,0.166239
2709.95,0.16328
2711.37,0.162414
2712.79,0.162679
2714.21,0.162213
2715.63,0.160862
2717.05,0.159063
2718.48,0.156348
2719.9,0.152192
2721.33,0.147547
2722.76,0.142518
2724.19,0.138132
2725.62,0.132793
2727.06,0.128361
2728.49,0.125591
2729.93,0.122887
2731.37,0.119787
2732.81,0.116776
2734.25,0.11407
2735.69,0.111233
2737.14,0.10789
2738.58,0.104939
2740.03,0.101861
2741.48,0.098831
2742.93,0.095656
2744.38,0.09335
2745.83,0.090834
2747.29,0.087618
2748.75,0.084601
2750.2,0.082389
2751.66,0.079962
2753.13,0.077132
2754.59,0.074727
2756.05,0.073194
2757.52,0.072108
2758.99,0.070596
2760.46,0.068832
2761.93,0.067511
2763.4,0.067097
2764.87,0.067081
2766.35,0.066845
2767.82,0.066449
2769.3,0.066091
2770.78,0.065408
2772.26,0.064976
2773.75,0.064982
2775.23,0.064031
2776.72,0.062996
2778.21,0.062339
2779.7,0.061821
2781.19,0.061505
2782.68,0.061009
2784.18,0.060572
2785.67,0.060209
2787.17,0.059682
2788.67,0.059275
2790.17,0.058499
2791.67,0.058058
2793.18,0.057748
2794.68,0.057415
2796.19,0.05716
2797.7,0.057059
2799.21,0.057005
2800.72,0.056388
2802.24,0.056272
2803.75,0.056194
2805.27,0.055738
2806.79,0.055657
2808.31,0.055911
2809.83,0.055951
2811.35,0.055715
2812.88,0.055679
2814.41,0.055335
2815.93,0.055141
2817.46,0.055602
2819.0,0.055932
2820.53,0.055932
2822.07,0.05605
2823.6,0.056028
2825.14,0.05594
2826.68,0.056233
2828.22,0.05673
2829.77,0.05729
2831.31,0.057897
2832.86,0.05854
2834.41,0.059179
2835.96,0.059718
2837.51,0.060362
2839.07,0.060945
2840.62,0.061751
2842.18,0.062509
2843.74,0.063232
2845.3,0.064311
2846.86,0.065351
2848.43,0.065982
2849.99,0.066568
2851.56,0.067594
2853.13,0.068381
2854.7,0.068904
2856.27,0.069686
2857.85,0.070658
2859.42,0.071344
2861.0,0.071799
2862.58,0.072108
2864.16,0.072463
2865.75,0.072778
2867.33,0.073012
2868.92,0.073197
2870.51,0.073644
2872.1,0.073916
2873.69,0.073962
2875.28,0.074451
2876.88,0.074763
2878.48,0.074475
2880.07,0.074422
2881.68,0.0746
2883.28,0.074713
2884.88,0.074874
2886.49,0.074475
2888.1,0.074078
2889.71,0.074425
2891.32,0.074908
2892.93,0.075158
2894.55,0.075071
2896.16,0.07501
2897.78,0.07509
2899.4,0.075021
2901.03,0.075126
2902.65,0.075316
2904.28,0.075205
2905.91,0.075288
2907.54,0.075309
2909.17,0.07498
2910.8,0.074786
2912.44,0.074663
2914.07,0.074767
2915.71,0.07501
2917.35,0.075274
2918.99,0.075318
2920.64,0.075047
2922.29,0.075063
2923.93,0.075227
2925.58,0.075237
2927.24,0.075371
2928.89,0.075213
2930.55,0.074894
2932.2,0.074875
2933.86,0.075146
2935.52,0.075545
2937.19,0.075753
2938.85,0.075589
2940.52,0.075401
2942.19,0.075058
2943.86,0.074983
2945.53,0.075075
2947.21,0.075446
2948.88,0.075568
2950.56,0.075487
2952.24,0.075507
2953.92,0.075216
2955.61,0.075016
2957.29,0.075402
2958.98,0.075302
2960.67,0.075083
2962.36,0.075248
2964.06,0.075504
2965.75,0.075456
2967.45,0.075363
2969.15,0.075187
2970.85,0.074882
2972.55,0.074857
2974.26,0.075204
2975.97,0.075027
2977.68,0.07485
2979.39,0.074758
2981.1,0.074863
2982.82,0.075121
2984.53,0.075177
2986.25,0.075312
2987.97,0.075183
2989.7,0.07485
2991.42,0.074608
2993.15,0.074484
2994.88,0.074491
2996.61,0.074803
2998.34,0.07481
3000.08,0.074597
3001.82,0.074423
3003.55,0.074333
3005.3,0.074408
3007.04,0.074401
3008.78,0.074323
3010.53,0.07412
3012.28,0.073932
3014.03,0.074053
3015.79,0.074195
3017.54,0.074154
3019.3,0.074131
3021.06,0.07422
3022.82,0.074046
3024.58,0.073521
3026.35,0.073216
3028.12,0.073519
3029.89,0.073611
3031.66,0.073264
3033.43,0.073184
3035.21,0.073252
3036.99,0.073067
3038.77,0.073128
3040.55,0.073172
3042.33,0.073181
3044.12,0.073044
3045.91,0.072743
3047.7,0.072678
3049.49,0.072876
3051.29,0.072981
3053.08,0.072615
3054.88,0.072276
3056.68,0.072201
3058.49,0.072235
3060.29,0.072402
3062.1,0.072532
3063.91,0.072432
3065.72,0.072373
3067.54,0.072213
3069.35,0.072266
3071.17,0.07229
3072.99,0.07221
3074.81,0.072112
3076.64,0.072234
3078.47,0.072309
3080.29,0.072076
3082.13,0.072063
3083.96,0.072155
3085.79,0.071974
3087.63,0.071877
3089.47,0.07195
3091.31,0.071903
3093.16,0.071825
3095.01,0.071796
3096.85,0.071866
3098.71,0.07203
3100.56,0.072266
3102.41,0.072273
3104.27,0.07204
3106.13,0.072044
3107.99,0.07229
3109.86,0.072485
3111.73,0.072412
3113.59,0.072354
3115.47,0.072564
3117.34,0.072748
3119.21,0.072808
3121.09,0.072955
3122.97,0.073167
3124.86,0.073197
3126.74,0.073098
3128.63,0.073158
3130.52,0.073352
3132.41,0.07364
3134.3,0.073635
3136.2,0.073707
3138.1,0.074007
3140.0,0.074182
3141.9,0.074308
3143.81,0.074512
3145.71,0.074702
3147.62,0.074982
3149.54,0.075082
3151.45,0.074968
3153.37,0.075232
3155.29,0.07566
3157.21,0.07599
3159.13,0.076077
3161.06,0.076347
3162.99,0.076607
3164.92,0.076834
3166.85,0.077021
3168.79,0.0773
3170.72,0.077401
3172.67,0.077489
3174.61,0.078066
3176.55,0.078659
3178.5,0.07871
3180.45,0.078856
3182.4,0.0793
3184.36,0.079715
3186.32,0.080073
3188.27,0.080372
3190.24,0.080694
3192.2,0.08108
3194.17,0.081335
3196.14,0.081618
3198.11,0.082144
3200.08,0.082772
3202.06,0.083162
3204.04,0.083442
3206.02,0.083758
3208.0,0.084158
3209.99,0.084795
3211.98,0.085494
3213.97,0.085993
3215.96,0.086461
3217.96,0.086822
3219.96,0.087111
3221.96,0.087612
3223.96,0.088364
3225.97,0.088979
3227.98,0.089489
3229.99,0.089966
3232.0,0.090485
3234.02,0.090961
3236.04,0.091624
3238.06,0.092309
3240.08,0.092839
3242.11,0.093319
3244.14,0.094003
3246.17,0.094617
3248.2,0.095107
3250.24,0.095617
3252.28,0.096314
3254.32,0.0971
3256.37,0.097633
3258.41,0.098209
3260.46,0.098762
3262.51,0.099244
3264.57,0.099868
3266.63,0.100523
3268.69,0.101201
3270.75,0.102144
3272.81,0.102899
3274.88,0.103461
3276.95,0.103783
3279.02,0.104127
3281.1,0.104833
3283.18,0.105619
3285.26,0.106145
3287.34,0.106623
3289.43,0.10726
3291.51,0.107944
3293.61,0.10851
3295.7,0.109242
3297.8,0.1099
3299.9,0.110526
3302.0,0.111051
3304.1,0.111693
3306.21,0.112206
3308.32,0.112675
3310.43,0.113313
3312.55,0.113848
3314.66,0.114284
3316.79,0.114696
3318.91,0.115193
3321.03,0.115759
3323.16,0.116496
3325.29,0.117069
3327.43,0.117433
3329.57,0.117883
3331.71,0.11827
3333.85,0.118728
3335.99,0.11908
3338.14,0.119434
3340.29,0.119735
3342.45,0.120134
3344.6,0.120575
3346.76,0.12104
3348.92,0.121428
3351.09,0.121598
3353.26,0.121852
3355.43,0.12201
3357.6,0.122244
3359.78,0.122681
3361.96,0.122892
3364.14,0.123017
3366.32,0.123198
3368.51,0.123427
3370.7,0.123722
3372.89,0.124126
3375.09,0.124611
3377.29,0.125017
3379.49,0.125199
3381.69,0.125332
3383.9,0.125715
3386.11,0.126266
3388.32,0.12671
3390.54,0.127051
3392.76,0.127468
3394.98,0.127645
3397.21,0.127756
3399.43,0.128135
3401.66,0.12848
3403.9,0.12853
3406.13,0.128729
3408.37,0.128784
3410.61,0.128834
3412.86,0.129084
3415.11,0.129444
3417.36,0.129882
3419.61,0.130376
3421.87,0.131171
3424.13,0.132007
3426.39,0.132927
3428.66,0.13369
3430.93,0.134474
3433.2,0.135236
3435.48,0.135907
3437.76,0.136808
3440.04,0.137651
3442.32,0.138381
3444.61,0.138897
3446.9,0.13947
3449.19,0.140139
3451.49,0.140701
3453.79,0.141226
3456.09,0.141777
3458.4,0.142406
3460.7,0.142865
3463.02,0.143336
3465.33,0.143851
3467.65,0.144137
3469.97,0.144248
3472.29,0.144653
3474.62,0.14503
3476.95,0.145448
3479.29,0.145631
3481.62,0.145646
3483.96,0.145934
3486.3,0.146525
3488.65,0.146962
3491.0,0.147256
3493.35,0.147561
3495.71,0.14785
3498.07,0.148208
3500.43,0.148674
3502.79,0.149166
3505.16,0.149654
3507.53,0.150285
3509.91,0.151175
3512.29,0.152148
3514.67,0.153278
3517.05,0.154265
3519.44,0.15525
3521.83,0.156156
3524.23,0.157033
3526.62,0.158037
3529.02,0.15899
3531.43,0.159678
3533.83,0.160532
3536.24,0.161389
3538.66,0.162429
3541.08,0.16344
3543.5,0.164331
3545.92,0.165174
3548.35,0.165839
3550.78,0.166515
3553.21,0.167427
3555.65,0.16831
3558.09,0.169017
3560.53,0.169757
3562.98,0.170606
3565.43,0.171453
3567.88,0.172252
3570.34,0.173078
3572.8,0.173792
3575.27,0.174379
3577.73,0.175147
3580.2,0.175934
3582.68,0.176753
3585.16,0.177338
3587.64,0.177955
3590.12,0.178855
3592.61,0.179763
3595.1,0.180441
3597.6,0.181194
3600.09,0.182013
3602.6,0.182634
3605.1,0.183293
3607.61,0.184073
3610.12,0.184754
3612.64,0.185356
3615.16,0.186044
3617.68,0.186676
3620.21,0.18743
3622.74,0.18826
3625.27,0.189006
3627.81,0.189663
3630.35,0.190334
3632.89,0.191087
3635.44,0.19175
3637.99,0.192471
3640.54,0.193269
3643.1,0.193919
3645.66,0.194403
3648.23,0.194881
3650.8,0.195546
3653.37,0.196406
3655.95,0.197191
3658.53,0.197897
3661.11,0.198463
3663.7,0.199118
3666.29,0.199833
3668.89,0.200493
3671.48,0.201236
3674.09,0.201948
3676.69,0.202663
3679.3,0.203293
3681.91,0.20393
3684.53,0.20471
3687.15,0.205426
3689.78,0.206113
3692.4,0.206889
3695.04,0.207599
3697.67,0.20819
3700.31,0.208857
3702.95,0.209537
3705.6,0.21017
3708.25,0.210929
3710.91,0.211702
3713.56,0.212332
3716.23,0.212973
3718.89,0.213533
3721.56,0.21406
3724.23,0.214752
3726.91,0.215426
3729.59,0.216034
3732.28,0.216661
3734.97,0.217323
3737.66,0.217875
3740.36,0.21834
3743.06,0.219003
3745.76,0.219821
3748.47,0.220484
3751.18,0.220947
3753.9,0.221416
3756.62,0.221923
3759.34,0.222431
3762.07,0.222735
3764.8,0.223171
3767.54,0.223759
3770.28,0.224274
3773.02,0.224615
3775.77,0.224992
3778.52,0.2253
3781.28,0.225577
3784.04,0.225813
3786.8,0.225929
3789.57,0.225987
3792.34,0.226179
3795.12,0.226159
3797.9,0.226162
3800.69,0.226049
3803.47,0.225788
3806.27,0.225539
3809.06,0.225317
3811.86,0.225119
3814.67,0.225054
3817.48,0.224915
3820.29,0.224801
3823.11,0.22459
3825.93,0.224383
3828.76,0.224246
3831.59,0.224125
3834.42,0.224011
3837.26,0.224114
3840.1,0.224105
3842.95,0.223947
3845.8,0.223919
3848.65,0.224088
3851.51,0.224071
3854.38,0.224002
3857.24,0.224027
3860.12,0.224127
3862.99,0.224125
3865.87,0.224236
3868.76,0.224452
3871.65,0.224421
3874.54,0.22426
3877.44,0.224288
3880.34,0.224299
3883.25,0.224294
3886.16,0.224354
3889.07,0.224474
3891.99,0.224568
3894.92,0.224654
3897.85,0.224612
3900.78,0.224587
3903.72,0.224627
3906.66,0.224563
3909.6,0.224399
3912.55,0.224355
3915.51,0.22424
3918.47,0.224219
3921.43,0.224116
3924.4,0.223935
3927.38,0.223722
3930.35,0.223434
3933.33,0.223057
3936.32,0.222724
3939.31,0.222402
3942.31,0.222075
3945.31,0.221706
3948.31,0.221346
3951.32,0.221
3954.34,0.220523
3957.35,0.219954
3960.38,0.219458
3963.41,0.218868
3966.44,0.218166
3969.48,0.217379
3972.52,0.216614
3975.56,0.215814
3978.61,0.214963
3981.67,0.214312
3984.73,0.213899
3987.8,0.213319
3990.87,0.212939
3993.94,0.212779
3997.02,0.212709
4000.1,0.212764
4003.19,0.212947
4006.29,0.213303
4009.39,0.21396
4012.49,0.214794
4015.6,0.215751
4018.71,0.216694
4021.83,0.217813
4024.95,0.219055
4028.08,0.220343
4031.21,0.221801
4034.35,0.223346
4037.49,0.224879
4040.64,0.226606
4043.79,0.228403
4046.94,0.23018
4050.11,0.231952
4053.27,0.233781
4056.44,0.235539
4059.62,0.237336
4062.8,0.23912
4065.99,0.240753
4069.18,0.242285
4072.38,0.244002
4075.58,0.245463
4078.78,0.246891
4082.0,0.248414
4085.21,0.249763
4088.43,0.250945
4091.66,0.252102
4094.89,0.253199
4098.13,0.25437
4101.37,0.255442
4104.62,0.256545
4107.87,0.25758
4111.13,0.258651
4114.39,0.259502
4117.66,0.260366
4120.93,0.261145
4124.21,0.261966
4127.5,0.26276
4130.79,0.26357
4134.08,0.264198
4137.38,0.264665
4140.68,0.265214
4143.99,0.265865
4147.31,0.266444
4150.63,0.267068
4153.95,0.267423
4157.29,0.26775
4160.62,0.26821
4163.96,0.268734
4167.31,0.269117
4170.66,0.269483
4174.02,0.269744
4177.39,0.270168
4180.75,0.270661
4184.13,0.271141
4187.51,0.271349
4190.89,0.271555
4194.28,0.271849
4197.68,0.272078
4201.08,0.27209
4204.49,0.272239
4207.9,0.272347
4211.32,0.272356
4214.74,0.272319
4218.17,0.272239
4221.61,0.272115
4225.05,0.272018
4228.5,0.271709
4231.95,0.27149
4235.4,0.271294
4238.87,0.271097
4242.34,0.270792
4245.81,0.270393
4249.29,0.269968
4252.78,0.269405
4256.27,0.268418
4259.77,0.266861
4263.27,0.264601
4266.78,0.262207
4270.29,0.259898
4273.81,0.258339
4277.34,0.257959
4280.87,0.259318
4284.41,0.261989
4287.95,0.264931
4291.5,0.267432
4295.06,0.269441
4298.62,0.270801
4302.19,0.271818
4305.76,0.272802
4309.34,0.273692
4312.92,0.274494
4316.52,0.275422
4320.11,0.276177
4323.72,0.276692
4327.32,0.277025
4330.94,0.277418
4334.56,0.277852
4338.19,0.278251
4341.82,0.278403
4345.46,0.27873
4349.11,0.27891
4352.76,0.279183
4356.42,0.279359
4360.08,0.279598
4363.75,0.279656
4367.43,0.279631
4371.11,0.279704
4374.8,0.279856
4378.49,0.279887
4382.19,0.279906
4385.9,0.279962
4389.61,0.280009
4393.33,0.279955
4397.06,0.279931
4400.79,0.279843
4404.53,0.279856
4408.28,0.279884
4412.03,0.2799
4415.79,0.279886
4419.55,0.279945
4423.32,0.279951
4427.1,0.279892
4430.88,0.279754
4434.68,0.279709
4438.47,0.279621
4442.28,0.279615
4446.08,0.279568
4449.9,0.27947
4453.72,0.27942
4457.55,0.279384
4461.39,0.279158
4465.23,0.279097
4469.08,0.279049
4472.94,0.278933
4476.8,0.278794
4480.67,0.278802
4484.55,0.27876
4488.43,0.278623
4492.32,0.278412
4496.21,0.278308
4500.12,0.278217
4504.03,0.278104
4507.94,0.277935
4511.87,0.277849
4515.8,0.277763
4519.73,0.277669
4523.68,0.277471
4527.63,0.277236
4531.59,0.276894
4535.55,0.276833
4539.52,0.276687
4543.5,0.276456
4547.49,0.276254
4551.48,0.276111
4555.48,0.275968
4559.49,0.275877
4563.5,0.2755
4567.52,0.275042
4571.55,0.274766
4575.58,0.274604
4579.63,0.274238
4583.67,0.273962
4587.73,0.273615
4591.79,0.273318
4595.86,0.27294
4599.94,0.272536
4604.03,0.272223
4608.12,0.272009
4612.22,0.271588
4616.33,0.271044
4620.44,0.270554
4624.56,0.27016
4628.69,0.269688
4632.83,0.269328
4636.97,0.26892
4641.12,0.268526
4645.28,0.268144
4649.45,0.267847
4653.62,0.267526
4657.8,0.267279
4661.99,0.266932
4666.19,0.266627
4670.39,0.266419
4674.6,0.266308
4678.82,0.266133
4683.05,0.266087
4687.28,0.26605
4691.52,0.266042
4695.77,0.265899
4700.03,0.265846
4704.3,0.265738
4708.57,0.265732
4712.85,0.26566
4717.14,0.265648
4721.43,0.265613
4725.74,0.265527
4730.05,0.26541
4734.37,0.265357
4738.7,0.265135
4743.03,0.265014
4747.38,0.264816
4751.73,0.264637
4756.09,0.264373
4760.45,0.264082
4764.83,0.263825
4769.21,0.263569
4773.6,0.263225
4778.0,0.262918
4782.41,0.262532
4786.83,0.262189
4791.25,0.261834
4795.68,0.261531
4800.13,0.261127
4804.57,0.260833
4809.03,0.260546
4813.5,0.260245
4817.97,0.259865
4822.45,0.259499
4826.94,0.259071
4831.44,0.258734
4835.95,0.258365
4840.46,0.258076
4844.99,0.257664
4849.52,0.257311
4854.06,0.25684
4858.61,0.256479
4863.17,0.256096
4867.73,0.255756
4872.31,0.255375
4876.89,0.255051
4881.48,0.254629
4886.08,0.254184
4890.69,0.253718
4895.31,0.253293
4899.94,0.252684
4904.57,0.252167
4909.22,0.251694
4913.87,0.251241
4918.53,0.250743
4923.21,0.250199
4927.88,0.249614
4932.57,0.249115
4937.27,0.248608
4941.98,0.248202
4946.69,0.247593
4951.42,0.246935
4956.15,0.246282
4960.9,0.245737
4965.65,0.245087
4970.41,0.244456
4975.18,0.2438
4979.96,0.243193
4984.75,0.242518
4989.54,0.241947
4994.35,0.241377
4999.17,0.240877
5003.99,0.240354
5008.83,0.239904
5013.67,0.239355
5018.52,0.238829
5023.39,0.238363
5028.26,0.238068
5033.14,0.237588
5038.03,0.237243
5042.93,0.236896
5047.84,0.236621
5052.76,0.236242
5057.69,0.235861
5062.63,0.235473
5067.58,0.23504
5072.54,0.234531
5077.51,0.234142
5082.49,0.233604
5087.47,0.233094
5092.47,0.232653
5097.48,0.232182
5102.5,0.231588
5107.52,0.231007
5112.56,0.230408
5117.61,0.229869
5122.66,0.229229
5127.73,0.228574
5132.81,0.227892
5137.89,0.227258
5142.99,0.226518
5148.1,0.22581
5153.22,0.225286
5158.34,0.225054
5163.48,0.224529
5168.63,0.223961
5173.79,0.223465
5178.96,0.223054
5184.13,0.222513
5189.32,0.222064
5194.52,0.221463
5199.73,0.22077
5204.96,0.220107
5210.19,0.219583
5215.43,0.218836
5220.68,0.218348
5225.94,0.217814
5231.22,0.217171
5236.5,0.216427
5241.79,0.215714
5247.1,0.215025
5252.42,0.214315
5257.74,0.213483
5263.08,0.2127
5268.43,0.211886
5273.79,0.211063
5279.16,0.210189
5284.54,0.209501
5289.93,0.2087
5295.34,0.207785
5300.75,0.206939
5306.18,0.20613
5311.61,0.205268
5317.06,0.204472
5322.52,0.203634
5327.99,0.202805
5333.47,0.201871
5338.96,0.200977
5344.47,0.200033
5349.98,0.199076
5355.51,0.198049
5361.05,0.19727
5366.6,0.196372
5372.16,0.195388
5377.73,0.194312
5383.32,0.19338
5388.91,0.19233
5394.52,0.191231
5400.14,0.190031
5405.77,0.188852
5411.41,0.187499
5417.07,0.186028
5422.74,0.184277
5428.41,0.182689
5434.1,0.181172
5439.81,0.179181
5445.52,0.177018
5451.25,0.174715
5456.98,0.1722
5462.73,0.169519
5468.5,0.166547
5474.27,0.163654
5480.06,0.160602
5485.86,0.15748
5491.67,0.154545
5497.49,0.15171
5503.33,0.14904
5509.18,0.146686
5515.04,0.144777
5520.91,0.143064
5526.8,0.141667
5532.69,0.140576
5538.61,0.139831
5544.53,0.139284
5550.47,0.138908
5556.41,0.138882
5562.38,0.139346
5568.35,0.139987
5574.34,0.140724
5580.34,0.141491
5586.35,0.142631
5592.38,0.143748
5598.42,0.144544
5604.47,0.14523
5610.54,0.145826
5616.61,0.146274
5622.71,0.146644
5628.81,0.146959
5634.93,0.147009
5641.06,0.146871
5647.21,0.146799
5653.36,0.147018
5659.54,0.146796
5665.72,0.146747
5671.92,0.146455
5678.13,0.146094
5684.36,0.145926
5690.6,0.145698
5696.85,0.145384
5703.12,0.145313
5709.4,0.14477
5715.69,0.144323
5722.0,0.144013
5728.33,0.143611
5734.66,0.143102
5741.01,0.142531
5747.38,0.1419
5753.76,0.141267
5760.15,0.140668
5766.56,0.1397
5772.98,0.138883
5779.41,0.138365
5785.86,0.137396
5792.33,0.136507
5798.81,0.135494
5805.3,0.134465
5811.81,0.133359
5818.33,0.132161
5824.87,0.130755
5831.42,0.129747
5837.99,0.12854
5844.57,0.127307
5851.17,0.125882
5857.78,0.124434
5864.41,0.122917
5871.05,0.121467
5877.7,0.120037
5884.38,0.118362
5891.06,0.116931
5897.76,0.115361
5904.48,0.1137
5911.21,0.112149
5917.96,0.110395
5924.73,0.108641
5931.5,0.106841
5938.3,0.105027
5945.11,0.103359
5951.93,0.10197
5958.78,0.100315
5965.63,0.098781
5972.51,0.097025
5979.39,0.095618
5986.3,0.094179
5993.22,0.092664
6000.16,0.091153
6007.11,0.089766
6014.08,0.088159
6021.06,0.08673
6028.06,0.085496
6035.08,0.084179
6042.12,0.082744
6049.17,0.081268
6056.23,0.080013
6063.32,0.079278
6070.42,0.078152
6077.53,0.077106
6084.67,0.076308
6091.82,0.07562
6098.98,0.074871
6106.17,0.074204
6113.37,0.073435
6120.58,0.073025
6127.82,0.073009
6135.07,0.072898
6142.34,0.072723
6149.63,0.072709
6156.93,0.072873
6164.25,0.073166
6171.59,0.073699
6178.95,0.074251
6186.32,0.07475
6193.71,0.075734
6201.12,0.076754
6208.54,0.077456
6215.99,0.078359
6223.45,0.079209
6230.93,0.079968
6238.43,0.080709
6245.95,0.081435
6253.48,0.082072
6261.03,0.082663
6268.6,0.083185
6276.19,0.083767
6283.8,0.084424
6291.43,0.085108
6299.07,0.085771
6306.73,0.08649
6314.42,0.087164
6322.12,0.08787
6329.84,0.088596
6337.57,0.089395
6345.33,0.090046
6353.11,0.091111
6360.9,0.092263
6368.72,0.093105
6376.55,0.094015
6384.4,0.095129
6392.27,0.095995
6400.17,0.096951
6408.08,0.097628
6416.01,0.097983
6423.96,0.099074
6431.93,0.100017
6439.92,0.100401
6447.93,0.10065
6455.96,0.100427
6464.01,0.100161
6472.08,0.099724
6480.17,0.099178
6488.28,0.098457
6496.41,0.097777
6504.56,0.097414
6512.73,0.096984
6520.92,0.096263
6529.14,0.095678
6537.37,0.095151
6545.63,0.094475
6553.9,0.093745
6562.2,0.093003
6570.51,0.092257
6578.85,0.091447
6587.21,0.090801
6595.59,0.089936
6603.99,0.089143
6612.42,0.08833
6620.86,0.087435
6629.33,0.086561
6637.82,0.085669
6646.33,0.084828
6654.86,0.08426
6663.41,0.0835
6671.99,0.082665
6680.59,0.081853
6689.21,0.081107
6697.85,0.080483
6706.51,0.079798
6715.2,0.078886
6723.91,0.078166
6732.64,0.07755
6741.4,0.076909
6750.18,0.076152
6758.98,0.075384
6767.8,0.074617
6776.65,0.073796
6785.52,0.072878
6794.41,0.071986
6803.33,0.071118
6812.27,0.070358
6821.23,0.06965
6830.22,0.068929
6839.23,0.068206
6848.26,0.067565
6857.32,0.06688
6866.4,0.066201
6875.51,0.065711
6884.64,0.065344
6893.8,0.064881
6902.98,0.064485
6912.18,0.064081
6921.41,0.063776
6930.66,0.063432
6939.94,0.063052
6949.24,0.062633
6958.57,0.062267
6967.92,0.061931
6977.3,0.061821
6986.7,0.061601
6996.13,0.061454
7005.59,0.061457
7015.07,0.061562
7024.57,0.061668
7034.1,0.062015
7043.66,0.062261
7053.25,0.062586
7062.85,0.063115
7072.49,0.063622
7082.15,0.064149
7091.84,0.064746
7101.55,0.06534
7111.3,0.065985
7121.06,0.066695
7130.86,0.067385
7140.68,0.067946
7150.53,0.068453
7160.41,0.069079
7170.31,0.069643
7180.24,0.070124
7190.2,0.070427
7200.19,0.070538
7210.2,0.070475
7220.24,0.070311
7230.31,0.07013
7240.41,0.069966
7250.54,0.069862
7260.69,0.069751
7270.88,0.069765
7281.09,0.06987
7291.33,0.070053
7301.6,0.070263
7311.9,0.070485
7322.22,0.070673
7332.58,0.070854
7342.97,0.070985
7353.38,0.071123
7363.83,0.071283
7374.3,0.071423
7384.81,0.071517
7395.34,0.07165
7405.91,0.071852
7416.5,0.072058
7427.13,0.072259
7437.78,0.072549
7448.47,0.072851
7459.19,0.073073
7469.94,0.073302
7480.71,0.073541
7491.52,0.073715
7502.37,0.073913
7513.24,0.074053
7524.14,0.074142
7535.08,0.074248
7546.05,0.074394
7557.05,0.074508
7568.08,0.074639
7579.15,0.074766
7590.24,0.074872
7601.37,0.074968
7612.53,0.075057
7623.73,0.075233
7634.96,0.07546
7646.22,0.075673
7657.51,0.075895
7668.84,0.07607
7680.2,0.076278
7691.59,0.076464
7703.02,0.076699
7714.49,0.076913
7725.98,0.077096
7737.52,0.077207
7749.08,0.077275
7760.68,0.077334
7772.32,0.077386
7783.99,0.077334
7795.69,0.077289
7807.43,0.077281
7819.21,0.077203
7831.02,0.077099
7842.87,0.077017
7854.75,0.076971
7866.67,0.076902
7878.62,0.076752
7890.62,0.076661
7902.64,0.076535
7914.71,0.076286
7926.81,0.076012
7938.95,0.075736
7951.13,0.075465
7963.34,0.07514
7975.59,0.074752
7987.88,0.074411
8000.21,0.074048
8012.57,0.073643
8024.98,0.073191
8037.42,0.072725
8049.9,0.072219
8062.42,0.071672
8074.98,0.071046
8087.57,0.070366
8100.21,0.069687
8112.89,0.068957
8125.6,0.068103
8138.36,0.067213
8151.16,0.066334
8163.99,0.06538
8176.87,0.064357
8189.79,0.063248
8202.75,0.062145
8215.75,0.061045
8228.79,0.059911
8241.87,0.058724
8254.99,0.057468
8268.16,0.056208
8281.37,0.054942
8294.62,0.05376
8307.91,0.052584
8321.24,0.051376
8334.62,0.050187
8348.04,0.049014
8361.51,0.04786
8375.02,0.046746
8388.57,0.045622
8402.16,0.04456
8415.8,0.043457
8429.49,0.042358
8443.22,0.041258
8456.99,0.04019
8470.81,0.039101
8484.67,0.038131
8498.58,0.037154
8512.54,0.036223
8526.54,0.035344
8540.58,0.034526
8554.68,0.033672
8568.82,0.032874
8583.0,0.0321
8597.24,0.031426
8611.52,0.030727
8625.85,0.03002
8640.23,0.029416
8654.65,0.028981
8669.12,0.028606
8683.64,0.028234
8698.21,0.027844
8712.83,0.027472
8727.5,0.02715
8742.22,0.02694
8756.99,0.026768
8771.8,0.026649
8786.67,0.026419
8801.59,0.026199
8816.56,0.026005
8831.58,0.025917
8846.65,0.025928
8861.77,0.02595
8876.94,0.025966
8892.17,0.026114
8907.45,0.026081
8922.78,0.026045
8938.16,0.0261
8953.6,0.026135
8969.09,0.02608
8984.64,0.02602
9000.23,0.026075
9015.89,0.026249
9031.59,0.026465
9047.36,0.026771
9063.17,0.026895
9079.05,0.027054
9094.97,0.027411
9110.96,0.027703
9127.0,0.027919
9143.1,0.02806
9159.25,0.028157
9175.46,0.028287
9191.73,0.028426
9208.06,0.028582
9224.44,0.028648
9240.88,0.028753
9257.38,0.02888
9273.94,0.02898
9290.56,0.029042
9307.24,0.029199
9323.98,0.029321
9340.78,0.029472
9357.64,0.029601
9374.57,0.029724
9391.55,0.029837
9408.59,0.029932
9425.7,0.029868
9442.87,0.029868
9460.1,0.030012
9477.4,0.030089
9494.75,0.030082
9512.17,0.030068
9529.66,0.030037
9547.21,0.030076
9564.83,0.030048
9582.5,0.02999
9600.25,0.029914
9618.06,0.029826
9635.94,0.029732
9653.88,0.029712
9671.89,0.029654
9689.97,0.029557
9708.12,0.029393
9726.33,0.029343
9744.62,0.029244
9762.97,0.029133
9781.39,0.029033
9799.88,0.02888
9818.44,0.028742
9837.07,0.028709
9855.77,0.028687
9874.54,0.02872
9893.39,0.028711
9912.3,0.028701
9931.29,0.028764
9950.36,0.028794
9969.49,0.028665
9988.7,0.028648
10007.98,0.028722
10027.34,0.028787
10046.77,0.028758
10066.28,0.028692
10085.87,0.028695
10105.53,0.028744
10125.26,0.028781
10145.08,0.028756
10164.97,0.028755
10184.94,0.028748
10204.99,0.028787
10225.12,0.028909
10245.33,0.028905
10265.61,0.028898
10285.98,0.028842
10306.43,0.028873
10326.96,0.0289
10347.57,0.028991
10368.27,0.029114
10389.05,0.029177
10409.91,0.029136
10430.86,0.029155
10451.88,0.029257
10473.0,0.029358
10494.2,0.029449
10515.49,0.029604
10536.86,0.029655
10558.32,0.029688
10579.87,0.029826
10601.5,0.029959
10623.23,0.030057
10645.04,0.030242
10666.94,0.030339
10688.94,0.030423
10711.02,0.030475
10733.2,0.030617
10755.47,0.030727
10777.83,0.030827
10800.28,0.030936
10822.83,0.031043
10845.47,0.031062
10868.21,0.031069
10891.04,0.031098
10913.97,0.031155
10936.99,0.031177
10960.12,0.031268
10983.34,0.031424
11006.66,0.031589
11030.07,0.031819
11053.59,0.032023
11077.21,0.032246
11100.93,0.032515
11124.75,0.032619
11148.68,0.032723
11172.71,0.032938
11196.84,0.033147
11221.07,0.033145
11245.41,0.033239
11269.86,0.033351
11294.41,0.033481
11319.07,0.033599
11343.84,0.033766
11368.72,0.034043
11393.7,0.034507
11418.8,0.03505
11444.01,0.035522
11469.33,0.035824
11494.76,0.036039
11520.3,0.036123
11545.96,0.0361
11571.73,0.035985
11597.62,0.035973
11623.62,0.03602
11649.74,0.03606
11675.98,0.03591
11702.34,0.03566
11728.81,0.035762
11755.41,0.036076
11782.13,0.036372
11808.96,0.036792
11835.92,0.037021
11863.01,0.037185
11890.22,0.037216
11917.55,0.037101
11945.01,0.036799
11972.6,0.036236
12000.31,0.03584
12028.16,0.035926
12056.13,0.036029
12084.23,0.036065
12112.46,0.036026
12140.83,0.035826
12169.33,0.035425
12197.96,0.035167
12226.73,0.035044
12255.64,0.034953
12284.68,0.034776
12313.86,0.034593
12343.18,0.034499
12372.64,0.034393
12402.24,0.034345
12431.98,0.03437
12461.86,0.034434
12491.89,0.034518
12522.07,0.034567
12552.38,0.034609
12582.85,0.034659
12613.47,0.034828
12644.23,0.034912
12675.15,0.034964
12706.21,0.035081
12737.43,0.035189
12768.81,0.035292
12800.33,0.035366
12832.02,0.035408
12863.86,0.035429
12895.86,0.03541
12928.02,0.035439
12960.34,0.035369
12992.82,0.035289
13025.46,0.03513
13058.27,0.034956
13091.25,0.034781
13124.39,0.034673
13157.7,0.034521
13191.18,0.034202
13224.83,0.033868
13258.66,0.033606
13292.65,0.033187
13326.83,0.032827
13361.17,0.032192
13395.7,0.03132
13430.4,0.030359
13465.29,0.029264
13500.35,0.02813
13535.6,0.027367
13571.03,0.027337
13606.65,0.027938
13642.46,0.028694
13678.46,0.029454
13714.64,0.030112
13751.02,0.030605
13787.59,0.030888
13824.36,0.03108
13861.32,0.031135
13898.49,0.031029
13935.85,0.0307
13973.41,0.030422
14011.17,0.030193
14049.15,0.029964
14087.32,0.029524
14125.71,0.029169
14164.3,0.028903
14203.11,0.02849
14242.13,0.027947
14281.36,0.027506
14320.81,0.027053
14360.49,0.026651
14400.38,0.02636
14440.49,0.026127
14480.82,0.025981
14521.39,0.025742
14562.18,0.025451
14603.2,0.025232
14644.45,0.025032
14685.93,0.024835
14727.66,0.02476
14769.62,0.024649
14811.81,0.024381
14854.25,0.024347
14896.94,0.024359
14939.87,0.024323
14983.05,0.024197
15026.48,0.024092
15070.16,0.024136
15114.1,0.024054
15158.29,0.023885
15202.74,0.023867
15247.46,0.023743
15292.43,0.023477
15337.68,0.023377
15383.19,0.023363
15428.97,0.02321
15475.03,0.023199
15521.36,0.02316
15567.97,0.022986
15614.87,0.022759
15662.04,0.022792
15709.5,0.022656
15757.25,0.022495
15805.29,0.022274
15853.62,0.022195
15902.26,0.022168
15951.19,0.022152
16000.42,0.022071
16049.95,0.022049
16099.8,0.021937
16149.95,0.021929
16200.42,0.022004
16251.21,0.022204
16302.31,0.022421
16353.74,0.022529
16405.49,0.022573
16457.57,0.022665
16509.98,0.022742
16562.73,0.022775
16615.82,0.0227
16669.24,0.022755
16723.02,0.02278
16777.14,0.022748
16831.61,0.022615
16886.43,0.022725
16941.62,0.022861
16997.16,0.02296
17053.08,0.023103
17109.36,0.023412
17166.01,0.023679
17223.04,0.023795
17280.45,0.024034
17338.24,0.024668
17396.43,0.02509
17455.0,0.0254
17513.97,0.025737
17573.34,0.026075
17633.11,0.026579
17693.29,0.027137
17753.89,0.027686
17814.9,0.028307
17876.33,0.028847
17938.18,0.029363
18000.47,0.029946
18063.19,0.030473
18126.35,0.031094
18189.95,0.031901
18254.0,0.032318
18318.5,0.03282
18383.46,0.033455
18448.88,0.034193
18514.77,0.034745
18581.13,0.035161
18647.97,0.035643
18715.29,0.03612
18783.1,0.036261
18851.4,0.036339
18920.2,0.036361
18989.51,0.036619
19059.32,0.036902
19129.65,0.037087
19200.5,0.037147
19271.88,0.037284
19343.79,0.037321
19416.24,0.037288
19489.23,0.037116
19562.77,0.037269
19636.88,0.038125
19711.54,0.038716
19786.78,0.038663
19862.59,0.038979
19938.98,0.039476
20015.96,0.039788
20093.55,0.040013
20171.73,0.040116
20250.53,0.040282
20329.94,0.040593
20409.98,0.040903
20490.65,0.041421
20571.96,0.041651
20653.92,0.041788
20736.54,0.042322
20819.82,0.0427
20903.77,0.042892
20988.4,0.043222
21073.72,0.043443
21159.73,0.043701
21246.46,0.044236
21333.89,0.044762
21422.04,0.044837
21510.93,0.044749
21600.56,0.044799
21690.94,0.044945
21782.08,0.044755
21873.99,0.044427
21966.67,0.044324
22060.15,0.04445
22154.42,0.044843
22249.51,0.045131
22345.41,0.044691
22442.14,0.04458
22539.72,0.044388
22638.14,0.044133
22737.43,0.044117
22837.6,0.044003
22938.65,0.044227
23040.6,0.043997
23143.46,0.043953
23247.24,0.044191
23351.96,0.044486
23457.63,0.044701
23564.25,0.044766
23671.85,0.044835
23780.44,0.044449
23890.02,0.044102
24000.63,0.043183
24112.26,0.042741
24224.93,0.042297
24338.66,0.042573
24453.47,0.043094
24569.36,0.042795
24686.36,0.04277
24804.47,0.042777
24923.73,0.042054
