Database of Origin,University of Winnipeg Spectrophotometer Facility
Sample Description,"RELAB + Nicolet data for Zircons. Merged @2500nm, different viewing geometries. See Master Zircons in the PSF sample database for additional information."
Date Added,2016-11-08 17:44:51.915209

Data ID,RLA_ZIR_02          
Sample ID,ZIR102
Mineral Name,Zircon
Grain Size,<45
Viewing Geometry,"30/0,30"
Resolution,5 nm
Material Class,Nesosilicate

Wavelength
300.0,0.159688
305.0,0.162468
310.0,0.16727
315.0,0.17441
320.0,0.182836
325.0,0.192276
330.0,0.201646
335.0,0.211268
340.0,0.219696
345.0,0.228203
350.0,0.235937
355.0,0.243779
360.0,0.251059
365.0,0.258433
370.0,0.265144
375.0,0.272118
380.0,0.278192
385.0,0.28511
390.0,0.291224
395.0,0.297529
400.0,0.305562
405.0,0.310319
410.0,0.31537
415.0,0.31999
420.0,0.324703
425.0,0.330654
430.0,0.336582
435.0,0.34376
440.0,0.350927
445.0,0.357978
450.0,0.364213
455.0,0.370405
460.0,0.375442
465.0,0.380738
470.0,0.385012
475.0,0.388763
480.0,0.39232
485.0,0.396739
490.0,0.401946
495.0,0.405973
500.0,0.410286
505.0,0.413231
510.0,0.416915
515.0,0.420703
520.0,0.425862
525.0,0.4307
530.0,0.435654
535.0,0.440217
540.0,0.445867
545.0,0.452888
550.0,0.460228
555.0,0.467828
560.0,0.475424
565.0,0.484485
570.0,0.492815
575.0,0.500757
580.0,0.508664
585.0,0.515634
590.0,0.522047
595.0,0.531345
600.0,0.53917
605.0,0.545674
610.0,0.551407
615.0,0.555948
620.0,0.561376
625.0,0.567351
630.0,0.571822
635.0,0.576034
640.0,0.579272
645.0,0.580621
650.0,0.57738
655.0,0.575836
660.0,0.588516
665.0,0.599666
670.0,0.608051
675.0,0.612352
680.0,0.616179
685.0,0.617809
690.0,0.618535
695.0,0.626595
700.0,0.631674
705.0,0.634285
710.0,0.637259
715.0,0.639606
720.0,0.641271
725.0,0.643984
730.0,0.644935
735.0,0.647434
740.0,0.648292
745.0,0.650025
750.0,0.651398
755.0,0.652975
760.0,0.653925
765.0,0.654792
770.0,0.656547
775.0,0.65734
780.0,0.65893
785.0,0.658871
790.0,0.660172
795.0,0.659698
800.0,0.660438
805.0,0.660527
810.0,0.661241
815.0,0.661789
820.0,0.662274
825.0,0.661633
830.0,0.662357
835.0,0.6619
840.0,0.662942
845.0,0.662122
850.0,0.662761
855.0,0.662774
860.0,0.663106
865.0,0.663858
870.0,0.66548
875.0,0.664743
880.0,0.664266
885.0,0.66386
890.0,0.664332
895.0,0.663585
900.0,0.662942
905.0,0.66472
910.0,0.664917
915.0,0.666762
920.0,0.667897
925.0,0.669341
930.0,0.669318
935.0,0.669134
940.0,0.667705
945.0,0.669061
950.0,0.66969
955.0,0.669988
960.0,0.672207
965.0,0.672729
970.0,0.672716
975.0,0.673873
980.0,0.674682
985.0,0.674312
990.0,0.675963
995.0,0.675327
1000.0,0.67582
1005.0,0.676128
1010.0,0.677388
1015.0,0.677428
1020.0,0.677521
1025.0,0.676001
1030.0,0.675225
1035.0,0.674295
1040.0,0.672414
1045.0,0.670935
1050.0,0.670166
1055.0,0.668915
1060.0,0.667794
1065.0,0.668556
1070.0,0.669918
1075.0,0.670555
1080.0,0.670557
1085.0,0.6694
1090.0,0.667208
1095.0,0.664788
1100.0,0.660836
1105.0,0.657694
1110.0,0.655519
1115.0,0.654758
1120.0,0.655117
1125.0,0.658372
1130.0,0.662209
1135.0,0.665378
1140.0,0.669234
1145.0,0.671988
1150.0,0.674424
1155.0,0.677148
1160.0,0.681509
1165.0,0.683594
1170.0,0.687438
1175.0,0.691008
1180.0,0.693653
1185.0,0.695483
1190.0,0.697612
1195.0,0.697974
1200.0,0.699033
1205.0,0.6999
1210.0,0.701805
1215.0,0.701827
1220.0,0.702977
1225.0,0.702618
1230.0,0.704088
1235.0,0.704022
1240.0,0.704435
1245.0,0.704192
1250.0,0.704256
1255.0,0.704168
1260.0,0.704869
1265.0,0.704686
1270.0,0.704688
1275.0,0.703862
1280.0,0.703476
1285.0,0.703161
1290.0,0.70343
1295.0,0.703451
1300.0,0.704351
1305.0,0.704432
1310.0,0.704756
1315.0,0.704741
1320.0,0.704275
1325.0,0.7045
1330.0,0.704984
1335.0,0.704811
1340.0,0.70487
1345.0,0.706016
1350.0,0.705129
1355.0,0.705823
1360.0,0.708013
1365.0,0.710197
1370.0,0.710237
1375.0,0.712453
1380.0,0.713281
1385.0,0.714
1390.0,0.714196
1395.0,0.71506
1400.0,0.715024
1405.0,0.714887
1410.0,0.714941
1415.0,0.715753
1420.0,0.715594
1425.0,0.715025
1430.0,0.715834
1435.0,0.716343
1440.0,0.716394
1445.0,0.717064
1450.0,0.71749
1455.0,0.717055
1460.0,0.716631
1465.0,0.715865
1470.0,0.714998
1475.0,0.714367
1480.0,0.713511
1485.0,0.712566
1490.0,0.711823
1495.0,0.709772
1500.0,0.708904
1505.0,0.710051
1510.0,0.711568
1515.0,0.713458
1520.0,0.717809
1525.0,0.719672
1530.0,0.719946
1535.0,0.720692
1540.0,0.72172
1545.0,0.722105
1550.0,0.724329
1555.0,0.726373
1560.0,0.728249
1565.0,0.730243
1570.0,0.731717
1575.0,0.732386
1580.0,0.732903
1585.0,0.732766
1590.0,0.733151
1595.0,0.73366
1600.0,0.734512
1605.0,0.735587
1610.0,0.736908
1615.0,0.737351
1620.0,0.737441
1625.0,0.737256
1630.0,0.736947
1635.0,0.736952
1640.0,0.736991
1645.0,0.737501
1650.0,0.737402
1655.0,0.737014
1660.0,0.736629
1665.0,0.737251
1670.0,0.738119
1675.0,0.738053
1680.0,0.739647
1685.0,0.739455
1690.0,0.739389
1695.0,0.738806
1700.0,0.739296
1705.0,0.739539
1710.0,0.739461
1715.0,0.740335
1720.0,0.742115
1725.0,0.743447
1730.0,0.744487
1735.0,0.745714
1740.0,0.746123
1745.0,0.746243
1750.0,0.746378
1755.0,0.746632
1760.0,0.746648
1765.0,0.747204
1770.0,0.7477
1775.0,0.748194
1780.0,0.748469
1785.0,0.74867
1790.0,0.74881
1795.0,0.74881
1800.0,0.749187
1805.0,0.749606
1810.0,0.750423
1815.0,0.750514
1820.0,0.750667
1825.0,0.7513
1830.0,0.751011
1835.0,0.751492
1840.0,0.751598
1845.0,0.750752
1850.0,0.750754
1855.0,0.750983
1860.0,0.749523
1865.0,0.750282
1870.0,0.751576
1875.0,0.749257
1880.0,0.748312
1885.0,0.749097
1890.0,0.748433
1895.0,0.748625
1900.0,0.748869
1905.0,0.748602
1910.0,0.748158
1915.0,0.746667
1920.0,0.745159
1925.0,0.744862
1930.0,0.744683
1935.0,0.745084
1940.0,0.745196
1945.0,0.745472
1950.0,0.745881
1955.0,0.746021
1960.0,0.745384
1965.0,0.746183
1970.0,0.746742
1975.0,0.747347
1980.0,0.747018
1985.0,0.74742
1990.0,0.747864
1995.0,0.748454
2000.0,0.748981
2005.0,0.750414
2010.0,0.750472
2015.0,0.750419
2020.0,0.748835
2025.0,0.747915
2030.0,0.746978
2035.0,0.746513
2040.0,0.745817
2045.0,0.745621
2050.0,0.744573
2055.0,0.74458
2060.0,0.744324
2065.0,0.744072
2070.0,0.743726
2075.0,0.744255
2080.0,0.744882
2085.0,0.745464
2090.0,0.745633
2095.0,0.746567
2100.0,0.747137
2105.0,0.747432
2110.0,0.747828
2115.0,0.748336
2120.0,0.748829
2125.0,0.749358
2130.0,0.748815
2135.0,0.748581
2140.0,0.749263
2145.0,0.74915
2150.0,0.748783
2155.0,0.748813
2160.0,0.748698
2165.0,0.748197
2170.0,0.748476
2175.0,0.749082
2180.0,0.749638
2185.0,0.750113
2190.0,0.750353
2195.0,0.750495
2200.0,0.750164
2205.0,0.7501
2210.0,0.750609
2215.0,0.750941
2220.0,0.750984
2225.0,0.751371
2230.0,0.751384
2235.0,0.751814
2240.0,0.751973
2245.0,0.751882
2250.0,0.751284
2255.0,0.750618
2260.0,0.750407
2265.0,0.750419
2270.0,0.750759
2275.0,0.750531
2280.0,0.751244
2285.0,0.750378
2290.0,0.750827
2295.0,0.751347
2300.0,0.753266
2305.0,0.753528
2310.0,0.754103
2315.0,0.754153
2320.0,0.753213
2325.0,0.751884
2330.0,0.752709
2335.0,0.75229
2340.0,0.752518
2345.0,0.75214
2350.0,0.752342
2355.0,0.751172
2360.0,0.751271
2365.0,0.750116
2370.0,0.75056
2375.0,0.749016
2380.0,0.749314
2385.0,0.750125
2390.0,0.750357
2395.0,0.749667
2400.0,0.750247
2405.0,0.749718
2410.0,0.748576
2415.0,0.747566
2420.0,0.747992
2425.0,0.748086
2430.0,0.74823
2435.0,0.747149
2440.0,0.747167
2445.0,0.746724
2450.0,0.747448
2455.0,0.746881
2460.0,0.747279
2465.0,0.745072
2470.0,0.743815
2475.0,0.743026
2480.0,0.74187
2485.0,0.741278
2490.0,0.742039
2495.0,0.741923
2500.0,0.739276
2505.0,0.739058
2510.0,0.738006
2515.0,0.738273
2520.0,0.739649
2525.0,0.740205
2530.0,0.740294
2531.32,0.739423
2532.55,0.73973
2533.79,0.740662
2535.03,0.740631
2536.27,0.739343
2537.51,0.739612
2538.75,0.74125
2540.0,0.740693
2541.24,0.73988
2542.49,0.739669
2543.74,0.739389
2544.99,0.74081
2546.24,0.741358
2547.49,0.740662
2548.74,0.740606
2549.99,0.741087
2551.25,0.740014
2552.5,0.739203
2553.76,0.739538
2555.02,0.741025
2556.28,0.740909
2557.54,0.740604
2558.8,0.740593
2560.07,0.738948
2561.33,0.736012
2562.6,0.736563
2563.86,0.739678
2565.13,0.74166
2566.4,0.743288
2567.67,0.742627
2568.95,0.739751
2570.22,0.738154
2571.5,0.739717
2572.77,0.740435
2574.05,0.736614
2575.33,0.739629
2576.61,0.741309
2577.89,0.739664
2579.17,0.741172
2580.46,0.740487
2581.74,0.737634
2583.03,0.738262
2584.31,0.7364
2585.6,0.739828
2586.89,0.741614
2588.19,0.738622
2589.48,0.740579
2590.77,0.741851
2592.07,0.741229
2593.36,0.73842
2594.66,0.731915
2595.96,0.732361
2597.26,0.746103
2598.56,0.747858
2599.87,0.742185
2601.17,0.739016
2602.48,0.738135
2603.78,0.739068
2605.09,0.738237
2606.4,0.737385
2607.71,0.740613
2609.03,0.742089
2610.34,0.740602
2611.65,0.740651
2612.97,0.740181
2614.29,0.738993
2615.61,0.738927
2616.93,0.735705
2618.25,0.736947
2619.57,0.74156
2620.9,0.737297
2622.22,0.739181
2623.55,0.742371
2624.88,0.738725
2626.21,0.735091
2627.54,0.733848
2628.87,0.738958
2630.21,0.736632
2631.54,0.734317
2632.88,0.740224
2634.21,0.738713
2635.55,0.736318
2636.89,0.737277
2638.24,0.736248
2639.58,0.734799
2640.92,0.734411
2642.27,0.733802
2643.62,0.733728
2644.97,0.733688
2646.32,0.731674
2647.67,0.733375
2649.02,0.733645
2650.38,0.732376
2651.73,0.730962
2653.09,0.72939
2654.45,0.731049
2655.81,0.731339
2657.17,0.730677
2658.53,0.730533
2659.89,0.72764
2661.26,0.727159
2662.63,0.728199
2664.0,0.726742
2665.36,0.721368
2666.74,0.720262
2668.11,0.724525
2669.48,0.72658
2670.86,0.719217
2672.23,0.721496
2673.61,0.726182
2674.99,0.718744
2676.37,0.711721
2677.76,0.710507
2679.14,0.712444
2680.52,0.711395
2681.91,0.709956
2683.3,0.703754
2684.69,0.698345
2686.08,0.695709
2687.47,0.691415
2688.87,0.686249
2690.26,0.679422
2691.66,0.670172
2693.06,0.659056
2694.46,0.64701
2695.86,0.638427
2697.26,0.627283
2698.66,0.611782
2700.07,0.593885
2701.48,0.576003
2702.89,0.560407
2704.3,0.54709
2705.71,0.534286
2707.12,0.525877
2708.53,0.521656
2709.95,0.521656
2711.37,0.52644
2712.79,0.537173
2714.21,0.546644
2715.63,0.550958
2717.05,0.554037
2718.48,0.556618
2719.9,0.557888
2721.33,0.556983
2722.76,0.562301
2724.19,0.561246
2725.62,0.555877
2727.06,0.556669
2728.49,0.555464
2729.93,0.551857
2731.37,0.549598
2732.81,0.547842
2734.25,0.545412
2735.69,0.542939
2737.14,0.543048
2738.58,0.540322
2740.03,0.53609
2741.48,0.537594
2742.93,0.540629
2744.38,0.540283
2745.83,0.536909
2747.29,0.533828
2748.75,0.531441
2750.2,0.528634
2751.66,0.525138
2753.13,0.520811
2754.59,0.515103
2756.05,0.507453
2757.52,0.50481
2758.99,0.500818
2760.46,0.49259
2761.93,0.486234
2763.4,0.486081
2764.87,0.494679
2766.35,0.503544
2767.82,0.507815
2769.3,0.511173
2770.78,0.513756
2772.26,0.514463
2773.75,0.515717
2775.23,0.514378
2776.72,0.511597
2778.21,0.509711
2779.7,0.508087
2781.19,0.50677
2782.68,0.505803
2784.18,0.505077
2785.67,0.503521
2787.17,0.500973
2788.67,0.500912
2790.17,0.502224
2791.67,0.500895
2793.18,0.497878
2794.68,0.496159
2796.19,0.495044
2797.7,0.493763
2799.21,0.492334
2800.72,0.490606
2802.24,0.488086
2803.75,0.48567
2805.27,0.486164
2806.79,0.486277
2808.31,0.483714
2809.83,0.481767
2811.35,0.480105
2812.88,0.478571
2814.41,0.47743
2815.93,0.47625
2817.46,0.474658
2819.0,0.47269
2820.53,0.471427
2822.07,0.470988
2823.6,0.47041
2825.14,0.469003
2826.68,0.467268
2828.22,0.465485
2829.77,0.464224
2831.31,0.463003
2832.86,0.46152
2834.41,0.460518
2835.96,0.45961
2837.51,0.458701
2839.07,0.457545
2840.62,0.456508
2842.18,0.455436
2843.74,0.454323
2845.3,0.452756
2846.86,0.451265
2848.43,0.450133
2849.99,0.448601
2851.56,0.447479
2853.13,0.446555
2854.7,0.445172
2856.27,0.444397
2857.85,0.443448
2859.42,0.442269
2861.0,0.440842
2862.58,0.439988
2864.16,0.438801
2865.75,0.437274
2867.33,0.436289
2868.92,0.435431
2870.51,0.434334
2872.1,0.432836
2873.69,0.431738
2875.28,0.430962
2876.88,0.429898
2878.48,0.428665
2880.07,0.427652
2881.68,0.426721
2883.28,0.425333
2884.88,0.424075
2886.49,0.423545
2888.1,0.422438
2889.71,0.421434
2891.32,0.420832
2892.93,0.420169
2894.55,0.419284
2896.16,0.418365
2897.78,0.417447
2899.4,0.416427
2901.03,0.415642
2902.65,0.415476
2904.28,0.415037
2905.91,0.414124
2907.53,0.413483
2909.17,0.412781
2910.8,0.412121
2912.44,0.41183
2914.07,0.41115
2915.71,0.410761
2917.35,0.410942
2918.99,0.410783
2920.64,0.410377
2922.29,0.409925
2923.93,0.409933
2925.58,0.409944
2927.24,0.409667
2928.89,0.409306
2930.55,0.409157
2932.2,0.409049
2933.86,0.408781
2935.52,0.408511
2937.19,0.408474
2938.85,0.408261
2940.52,0.407929
2942.19,0.408093
2943.86,0.408174
2945.53,0.407593
2947.21,0.407514
2948.88,0.407878
2950.56,0.408416
2952.24,0.408637
2953.92,0.408613
2955.61,0.408463
2957.29,0.408536
2958.98,0.408582
2960.67,0.408692
2962.36,0.408889
2964.06,0.408979
2965.75,0.40923
2967.45,0.409312
2969.15,0.409289
2970.85,0.409487
2972.55,0.409882
2974.26,0.410148
2975.97,0.410558
2977.68,0.410361
2979.39,0.410457
2981.1,0.41094
2982.82,0.41148
2984.53,0.411787
2986.25,0.412062
2987.97,0.412276
2989.7,0.412271
2991.42,0.412367
2993.15,0.412893
2994.88,0.413812
2996.61,0.414132
2998.34,0.414119
3000.08,0.41402
3001.82,0.414193
3003.55,0.414924
3005.3,0.415556
3007.04,0.415747
3008.78,0.416031
3010.53,0.41596
3012.28,0.416039
3014.03,0.416402
3015.79,0.41699
3017.54,0.417591
3019.3,0.417921
3021.06,0.418446
3022.82,0.418846
3024.58,0.419405
3026.35,0.419877
3028.12,0.420577
3029.89,0.420879
3031.66,0.420794
3033.43,0.421369
3035.21,0.422376
3036.99,0.422827
3038.77,0.423081
3040.55,0.423117
3042.33,0.423393
3044.12,0.424005
3045.91,0.4245
3047.7,0.42497
3049.49,0.425471
3051.29,0.425593
3053.08,0.426208
3054.88,0.426871
3056.68,0.427572
3058.49,0.428374
3060.29,0.428995
3062.1,0.429558
3063.91,0.429838
3065.72,0.430223
3067.54,0.430991
3069.35,0.43185
3071.17,0.432273
3072.99,0.432814
3074.81,0.433668
3076.64,0.434207
3078.46,0.434743
3080.29,0.435486
3082.13,0.436319
3083.96,0.436847
3085.79,0.437457
3087.63,0.437932
3089.47,0.438231
3091.31,0.439022
3093.16,0.439829
3095.01,0.440673
3096.85,0.441744
3098.71,0.442226
3100.56,0.442805
3102.41,0.443502
3104.27,0.443955
3106.13,0.444425
3107.99,0.445349
3109.86,0.446244
3111.73,0.446885
3113.59,0.447678
3115.47,0.448399
3117.34,0.448853
3119.21,0.449666
3121.09,0.450352
3122.97,0.451047
3124.86,0.451977
3126.74,0.452687
3128.63,0.453258
3130.52,0.454057
3132.41,0.45504
3134.3,0.455833
3136.2,0.456663
3138.1,0.457499
3140.0,0.458349
3141.9,0.459258
3143.81,0.459945
3145.71,0.460802
3147.62,0.461626
3149.54,0.462314
3151.45,0.462753
3153.37,0.463319
3155.29,0.464087
3157.21,0.465153
3159.13,0.466199
3161.06,0.46693
3162.99,0.467622
3164.92,0.468393
3166.85,0.469344
3168.79,0.470394
3170.72,0.471097
3172.67,0.471754
3174.61,0.472598
3176.55,0.473148
3178.5,0.473877
3180.45,0.474676
3182.4,0.475439
3184.36,0.47642
3186.32,0.47728
3188.27,0.478055
3190.24,0.478796
3192.2,0.479655
3194.17,0.480755
3196.14,0.481625
3198.11,0.482227
3200.08,0.48306
3202.06,0.483915
3204.04,0.484727
3206.02,0.485305
3208.0,0.485933
3209.99,0.486696
3211.98,0.487422
3213.97,0.488299
3215.96,0.489193
3217.96,0.490078
3219.96,0.490877
3221.96,0.491537
3223.96,0.492074
3225.97,0.492888
3227.98,0.493798
3229.99,0.49475
3232.0,0.495598
3234.02,0.496315
3236.04,0.497089
3238.06,0.498107
3240.08,0.498796
3242.11,0.499359
3244.14,0.500095
3246.17,0.500806
3248.2,0.501685
3250.24,0.502578
3252.28,0.503533
3254.32,0.504193
3256.37,0.505135
3258.41,0.505869
3260.46,0.506507
3262.51,0.507164
3264.57,0.507861
3266.63,0.508754
3268.69,0.509865
3270.75,0.510655
3272.81,0.511319
3274.88,0.512464
3276.95,0.513236
3279.02,0.513698
3281.1,0.514325
3283.18,0.515322
3285.26,0.516183
3287.34,0.516844
3289.43,0.517391
3291.51,0.518129
3293.61,0.518897
3295.7,0.519725
3297.8,0.520847
3299.89,0.521819
3302.0,0.522633
3304.1,0.522847
3306.21,0.523735
3308.32,0.525018
3310.43,0.525566
3312.55,0.525935
3314.66,0.526706
3316.78,0.5276
3318.91,0.528288
3321.03,0.529064
3323.16,0.529825
3325.29,0.530493
3327.43,0.531026
3329.57,0.531581
3331.71,0.53254
3333.85,0.53334
3335.99,0.533786
3338.14,0.534309
3340.29,0.53515
3342.45,0.535805
3344.6,0.536365
3346.76,0.536993
3348.92,0.537735
3351.09,0.538027
3353.26,0.538165
3355.43,0.538524
3357.6,0.539098
3359.78,0.539463
3361.96,0.53999
3364.14,0.54011
3366.32,0.53994
3368.51,0.539956
3370.7,0.540123
3372.89,0.540154
3375.09,0.540174
3377.29,0.540493
3379.49,0.541129
3381.69,0.541746
3383.9,0.542528
3386.11,0.543703
3388.32,0.544665
3390.54,0.545622
3392.76,0.546259
3394.98,0.546417
3397.21,0.546498
3399.43,0.546708
3401.66,0.546651
3403.9,0.546359
3406.13,0.546345
3408.37,0.546438
3410.61,0.546438
3412.86,0.546556
3415.11,0.546877
3417.36,0.54735
3419.61,0.548165
3421.87,0.54936
3424.13,0.551073
3426.39,0.552952
3428.66,0.554944
3430.93,0.556697
3433.2,0.558169
3435.48,0.559581
3437.76,0.561034
3440.04,0.561986
3442.32,0.562936
3444.61,0.563994
3446.9,0.565044
3449.19,0.566199
3451.49,0.567324
3453.79,0.568327
3456.09,0.569135
3458.4,0.570143
3460.7,0.571337
3463.02,0.572065
3465.33,0.572795
3467.65,0.5736
3469.97,0.574197
3472.29,0.574667
3474.62,0.575103
3476.95,0.575791
3479.29,0.57647
3481.62,0.576991
3483.96,0.577448
3486.3,0.578328
3488.65,0.579241
3491.0,0.579942
3493.35,0.580408
3495.71,0.580737
3498.07,0.581031
3500.43,0.581339
3502.79,0.582075
3505.16,0.583264
3507.53,0.58477
3509.91,0.586596
3512.29,0.588535
3514.67,0.590147
3517.05,0.591426
3519.44,0.592956
3521.83,0.594509
3524.22,0.595714
3526.62,0.596771
3529.02,0.598002
3531.43,0.598971
3533.83,0.599744
3536.24,0.600594
3538.66,0.601677
3541.08,0.602852
3543.5,0.603778
3545.92,0.604564
3548.35,0.605449
3550.78,0.606137
3553.21,0.607065
3555.65,0.607984
3558.09,0.608757
3560.53,0.609542
3562.98,0.610214
3565.43,0.611103
3567.88,0.612001
3570.34,0.612843
3572.8,0.613378
3575.27,0.614007
3577.73,0.614604
3580.2,0.615187
3582.68,0.615802
3585.16,0.61674
3587.64,0.617637
3590.12,0.618372
3592.61,0.61918
3595.1,0.6197
3597.6,0.62026
3600.09,0.621067
3602.6,0.621727
3605.1,0.622351
3607.61,0.623086
3610.12,0.623746
3612.64,0.624479
3615.16,0.625394
3617.68,0.626271
3620.21,0.626752
3622.74,0.627232
3625.27,0.628005
3627.81,0.62876
3630.35,0.629509
3632.89,0.630304
3635.44,0.630832
3637.99,0.631326
3640.54,0.631773
3643.1,0.632273
3645.66,0.632934
3648.23,0.633602
3650.8,0.634297
3653.37,0.63505
3655.95,0.635676
3658.53,0.636405
3661.11,0.637002
3663.7,0.637418
3666.29,0.638202
3668.89,0.63891
3671.48,0.639539
3674.09,0.640082
3676.69,0.640779
3679.3,0.641461
3681.91,0.642009
3684.53,0.6426
3687.15,0.643227
3689.78,0.64376
3692.4,0.644241
3695.04,0.644998
3697.67,0.64583
3700.31,0.646531
3702.95,0.647131
3705.6,0.647592
3708.25,0.64825
3710.91,0.649015
3713.56,0.649688
3716.23,0.65035
3718.89,0.650933
3721.56,0.6516
3724.23,0.652175
3726.91,0.652764
3729.59,0.653409
3732.28,0.654053
3734.97,0.654628
3737.66,0.655303
3740.36,0.655957
3743.06,0.656555
3745.76,0.657134
3748.47,0.657809
3751.18,0.658491
3753.9,0.658965
3756.62,0.65939
3759.34,0.659889
3762.07,0.660483
3764.8,0.66127
3767.54,0.662002
3770.28,0.662667
3773.02,0.663161
3775.77,0.663854
3778.52,0.664467
3781.28,0.664953
3784.04,0.66563
3786.8,0.66612
3789.57,0.666802
3792.34,0.667491
3795.12,0.668028
3797.9,0.66859
3800.69,0.669039
3803.47,0.669493
3806.27,0.670139
3809.06,0.670817
3811.86,0.6713
3814.67,0.671823
3817.48,0.67236
3820.29,0.672856
3823.11,0.673222
3825.93,0.673669
3828.76,0.674278
3831.59,0.674785
3834.42,0.675129
3837.26,0.675566
3840.1,0.676121
3842.95,0.676499
3845.8,0.676918
3848.65,0.677468
3851.51,0.677967
3854.38,0.678466
3857.24,0.678884
3860.12,0.679223
3862.99,0.679515
3865.87,0.67992
3868.76,0.680456
3871.65,0.68106
3874.54,0.681329
3877.44,0.681623
3880.34,0.682126
3883.25,0.682639
3886.16,0.683044
3889.07,0.683367
3891.99,0.683545
3894.92,0.683783
3897.85,0.684087
3900.78,0.684463
3903.72,0.684823
3906.66,0.685291
3909.6,0.685395
3912.55,0.685572
3915.51,0.685778
3918.47,0.686086
3921.43,0.686328
3924.4,0.686493
3927.37,0.686654
3930.35,0.686987
3933.33,0.687115
3936.32,0.68751
3939.31,0.687938
3942.31,0.688143
3945.31,0.688116
3948.31,0.688215
3951.32,0.688373
3954.34,0.688574
3957.35,0.688778
3960.38,0.689174
3963.41,0.689441
3966.44,0.689395
3969.48,0.689584
3972.52,0.689771
3975.56,0.68986
3978.61,0.690186
3981.67,0.690401
3984.73,0.690461
3987.8,0.690809
3990.87,0.691126
3993.94,0.691164
3997.02,0.691386
4000.1,0.69161
4003.19,0.692015
4006.29,0.692326
4009.39,0.692616
4012.49,0.692633
4015.6,0.692902
4018.71,0.693286
4021.83,0.693518
4024.95,0.693572
4028.08,0.693684
4031.21,0.69376
4034.35,0.693915
4037.49,0.694086
4040.64,0.69419
4043.79,0.694418
4046.94,0.694567
4050.11,0.694551
4053.27,0.694678
4056.44,0.694746
4059.62,0.694815
4062.8,0.694892
4065.99,0.695008
4069.18,0.695145
4072.38,0.695185
4075.58,0.695294
4078.78,0.695354
4082.0,0.695383
4085.21,0.695441
4088.43,0.695285
4091.66,0.695172
4094.89,0.695057
4098.13,0.695021
4101.37,0.695208
4104.62,0.695342
4107.87,0.695222
4111.13,0.695125
4114.39,0.695397
4117.66,0.69542
4120.93,0.695325
4124.21,0.695448
4127.5,0.695421
4130.78,0.69527
4134.08,0.695101
4137.38,0.695162
4140.68,0.695068
4143.99,0.695171
4147.31,0.695171
4150.63,0.694931
4153.95,0.694799
4157.29,0.694958
4160.62,0.69503
4163.96,0.694962
4167.31,0.694785
4170.66,0.69471
4174.02,0.694788
4177.39,0.69475
4180.75,0.694721
4184.13,0.694695
4187.51,0.694477
4190.89,0.694393
4194.28,0.694261
4197.68,0.694183
4201.08,0.694121
4204.49,0.693833
4207.9,0.693517
4211.32,0.693402
4214.74,0.692975
4218.17,0.692686
4221.61,0.692649
4225.05,0.692621
4228.5,0.692843
4231.95,0.693222
4235.4,0.693348
4238.87,0.693496
4242.34,0.693483
4245.81,0.693585
4249.29,0.693495
4252.78,0.693498
4256.27,0.693289
4259.77,0.691801
4263.27,0.689848
4266.78,0.689413
4270.29,0.689942
4273.81,0.690334
4277.34,0.690764
4280.87,0.691239
4284.41,0.691446
4287.95,0.691646
4291.5,0.691698
4295.06,0.691872
4298.62,0.692174
4302.19,0.692268
4305.76,0.692314
4309.34,0.692529
4312.92,0.692707
4316.52,0.692554
4320.11,0.692411
4323.72,0.692578
4327.32,0.692488
4330.94,0.692232
4334.56,0.692264
4338.19,0.692308
4341.82,0.692265
4345.46,0.692213
4349.11,0.692034
4352.76,0.692018
4356.42,0.691965
4360.08,0.69163
4363.75,0.691541
4367.43,0.691702
4371.11,0.691531
4374.8,0.691417
4378.49,0.691371
4382.19,0.691355
4385.9,0.691298
4389.61,0.691126
4393.33,0.690793
4397.06,0.690597
4400.79,0.690547
4404.53,0.690413
4408.28,0.690458
4412.03,0.690229
4415.79,0.689925
4419.55,0.68977
4423.32,0.689693
4427.1,0.689511
4430.88,0.689257
4434.67,0.68904
4438.47,0.68873
4442.27,0.688539
4446.08,0.688478
4449.9,0.688535
4453.72,0.688497
4457.55,0.688236
4461.39,0.687797
4465.23,0.687551
4469.08,0.687306
4472.94,0.687015
4476.8,0.686602
4480.67,0.68623
4484.55,0.686098
4488.43,0.685774
4492.32,0.685585
4496.21,0.685401
4500.12,0.685166
4504.03,0.684846
4507.94,0.684442
4511.87,0.684129
4515.8,0.683941
4519.73,0.683752
4523.68,0.683392
4527.63,0.682841
4531.59,0.68246
4535.55,0.682051
4539.52,0.681608
4543.5,0.681231
4547.49,0.680759
4551.48,0.680296
4555.48,0.679847
4559.49,0.679509
4563.5,0.679023
4567.52,0.67859
4571.55,0.678053
4575.58,0.677403
4579.62,0.676969
4583.67,0.676655
4587.73,0.676202
4591.79,0.675649
4595.86,0.675089
4599.94,0.674417
4604.03,0.673734
4608.12,0.673182
4612.22,0.672777
4616.33,0.672277
4620.44,0.671616
4624.56,0.671027
4628.69,0.670461
4632.83,0.669888
4636.97,0.669314
4641.12,0.668573
4645.28,0.6679
4649.45,0.667369
4653.62,0.666815
4657.8,0.666115
4661.99,0.665275
4666.19,0.664541
4670.39,0.664017
4674.6,0.663362
4678.82,0.662535
4683.05,0.661882
4687.28,0.661137
4691.52,0.660321
4695.77,0.659591
4700.03,0.658631
4704.3,0.657844
4708.57,0.657291
4712.85,0.656573
4717.14,0.65576
4721.43,0.654896
4725.74,0.65408
4730.05,0.653393
4734.37,0.652496
4738.7,0.651305
4743.03,0.650136
4747.38,0.648879
4751.73,0.647667
4756.09,0.646405
4760.45,0.645146
4764.83,0.64386
4769.21,0.642617
4773.6,0.64127
4778.0,0.639629
4782.41,0.638194
4786.83,0.636747
4791.25,0.635117
4795.68,0.633353
4800.13,0.63164
4804.57,0.629819
4809.03,0.628026
4813.5,0.62612
4817.97,0.623999
4822.45,0.621837
4826.94,0.619565
4831.44,0.617377
4835.95,0.615033
4840.46,0.612384
4844.99,0.609525
4849.52,0.606852
4854.06,0.604079
4858.61,0.601274
4863.17,0.598502
4867.73,0.595497
4872.31,0.592795
4876.89,0.589986
4881.48,0.586926
4886.08,0.583839
4890.69,0.580874
4895.31,0.577682
4899.94,0.574597
4904.57,0.571962
4909.22,0.569328
4913.87,0.566653
4918.53,0.564079
4923.21,0.561664
4927.88,0.559293
4932.57,0.556738
4937.27,0.554107
4941.98,0.551395
4946.69,0.548644
4951.42,0.545842
4956.15,0.54312
4960.89,0.54047
4965.65,0.538093
4970.41,0.535493
4975.18,0.533039
4979.96,0.530906
4984.75,0.528886
4989.54,0.526727
4994.35,0.524597
4999.17,0.522448
5003.99,0.520355
5008.83,0.518238
5013.67,0.516188
5018.52,0.513837
5023.39,0.511839
5028.26,0.51024
5033.14,0.508316
5038.03,0.506417
5042.93,0.504454
5047.84,0.502555
5052.76,0.500606
5057.69,0.498438
5062.63,0.496431
5067.58,0.494364
5072.54,0.492208
5077.51,0.489872
5082.49,0.487527
5087.47,0.485108
5092.47,0.482641
5097.48,0.479764
5102.5,0.476921
5107.52,0.47393
5112.56,0.471236
5117.61,0.468201
5122.66,0.465046
5127.73,0.461967
5132.81,0.459016
5137.89,0.456062
5142.99,0.453422
5148.1,0.45056
5153.22,0.448473
5158.34,0.446698
5163.48,0.444758
5168.63,0.443559
5173.79,0.442785
5178.96,0.442378
5184.13,0.442112
5189.32,0.442038
5194.52,0.442354
5199.73,0.442613
5204.95,0.443287
5210.19,0.443868
5215.43,0.443493
5220.68,0.444434
5225.94,0.444324
5231.22,0.44319
5236.5,0.442454
5241.79,0.442051
5247.1,0.441743
5252.42,0.440918
5257.74,0.440029
5263.08,0.438955
5268.43,0.438262
5273.79,0.437717
5279.16,0.437333
5284.54,0.437316
5289.93,0.43691
5295.34,0.436382
5300.75,0.436623
5306.18,0.435666
5311.61,0.434625
5317.06,0.433717
5322.52,0.432588
5327.99,0.431323
5333.47,0.430232
5338.96,0.42898
5344.47,0.427694
5349.98,0.426115
5355.51,0.426028
5361.05,0.426857
5366.6,0.426522
5372.16,0.42648
5377.73,0.427022
5383.32,0.427801
5388.91,0.428526
5394.52,0.429335
5400.14,0.429877
5405.77,0.430404
5411.41,0.430674
5417.07,0.430479
5422.74,0.429154
5428.41,0.429746
5434.1,0.430212
5439.81,0.427595
5445.52,0.425945
5451.25,0.424531
5456.98,0.423248
5462.73,0.421366
5468.5,0.420278
5474.27,0.420223
5480.06,0.418223
5485.86,0.417215
5491.67,0.416651
5497.49,0.414957
5503.33,0.414006
5509.18,0.413286
5515.04,0.412625
5520.91,0.411241
5526.8,0.410586
5532.69,0.409957
5538.61,0.408967
5544.53,0.407277
5550.47,0.405417
5556.41,0.403445
5562.38,0.402182
5568.35,0.399953
5574.34,0.397069
5580.34,0.393629
5586.35,0.393171
5592.38,0.393116
5598.42,0.39247
5604.47,0.393407
5610.54,0.396899
5616.61,0.399897
5622.71,0.403877
5628.81,0.408179
5634.93,0.411929
5641.06,0.415
5647.21,0.420356
5653.36,0.427201
5659.54,0.430207
5665.72,0.434903
5671.92,0.438012
5678.13,0.440769
5684.36,0.446455
5690.6,0.449903
5696.85,0.452799
5703.12,0.457459
5709.4,0.458838
5715.69,0.462367
5722.0,0.467923
5728.33,0.471224
5734.66,0.473597
5741.01,0.475699
5747.38,0.477625
5753.76,0.480147
5760.15,0.482979
5766.56,0.480328
5772.98,0.484117
5779.41,0.489014
5785.86,0.48748
5792.33,0.487535
5798.81,0.487265
5805.3,0.487253
5811.81,0.487791
5818.33,0.486209
5824.87,0.48536
5831.42,0.489526
5837.99,0.490404
5844.57,0.489377
5851.17,0.48774
5857.78,0.486568
5864.41,0.485236
5871.05,0.485608
5877.7,0.483595
5884.38,0.479792
5891.06,0.485046
5897.76,0.481473
5904.48,0.48129
5911.21,0.48183
5917.96,0.477493
5924.73,0.475838
5931.5,0.473602
5938.3,0.469548
5945.11,0.472327
5951.93,0.473008
5958.78,0.468589
5965.63,0.465757
5972.51,0.462767
5979.39,0.463905
5986.3,0.460605
5993.22,0.45831
6000.16,0.458799
6007.11,0.456664
6014.08,0.452492
6021.06,0.451673
6028.06,0.450939
6035.08,0.448333
6042.12,0.445045
6049.17,0.440403
6056.23,0.443442
6063.32,0.446749
6070.42,0.439601
6077.53,0.437194
6084.67,0.438568
6091.82,0.43672
6098.98,0.433279
6106.17,0.431296
6113.37,0.427766
6120.58,0.428044
6127.82,0.428886
6135.07,0.425024
6142.34,0.421254
6149.63,0.419435
6156.93,0.417035
6164.25,0.414399
6171.59,0.413615
6178.94,0.410947
6186.32,0.406978
6193.71,0.407149
6201.12,0.406447
6208.54,0.40283
6215.99,0.400373
6223.45,0.398336
6230.93,0.396359
6238.43,0.393982
6245.95,0.391635
6253.48,0.389525
6261.03,0.387395
6268.6,0.385287
6276.19,0.383633
6283.8,0.382203
6291.43,0.381066
6299.07,0.380395
6306.73,0.38008
6314.42,0.379864
6322.12,0.380172
6329.83,0.380506
6337.57,0.380611
6345.33,0.37965
6353.11,0.382603
6360.9,0.384582
6368.72,0.382305
6376.55,0.382538
6384.4,0.384542
6392.27,0.38364
6400.17,0.383155
6408.08,0.381331
6416.01,0.378605
6423.96,0.383584
6431.93,0.384228
6439.92,0.380875
6447.93,0.379749
6455.96,0.377398
6464.01,0.376093
6472.08,0.373502
6480.17,0.371603
6488.28,0.369818
6496.41,0.368271
6504.56,0.37021
6512.73,0.369428
6520.92,0.365073
6529.14,0.364471
6537.37,0.364541
6545.63,0.362766
6553.9,0.361625
6562.2,0.361427
6570.51,0.360452
6578.85,0.359857
6587.21,0.361717
6595.59,0.359947
6603.99,0.359869
6612.42,0.359277
6620.86,0.358409
6629.33,0.357709
6637.82,0.356526
6646.33,0.35984
6654.86,0.362712
6663.41,0.360988
6671.99,0.360246
6680.59,0.360677
6689.21,0.362149
6697.85,0.363789
6706.51,0.362861
6715.2,0.362506
6723.91,0.363953
6732.64,0.364304
6741.4,0.36404
6750.18,0.363209
6758.98,0.362782
6767.8,0.361968
6776.65,0.360578
6785.52,0.359479
6794.41,0.358149
6803.33,0.358607
6812.27,0.357112
6821.23,0.35423
6830.22,0.352308
6839.23,0.351989
6848.26,0.350157
6857.32,0.346913
6866.4,0.344523
6875.51,0.345298
6884.64,0.343411
6893.8,0.339644
6902.98,0.336973
6912.18,0.334386
6921.41,0.332687
6930.66,0.33012
6939.94,0.327803
6949.24,0.325669
6958.57,0.323022
6967.92,0.321331
6977.3,0.321213
6986.7,0.318583
6996.13,0.316642
7005.59,0.315065
7015.07,0.313464
7024.57,0.311187
7034.1,0.309796
7043.66,0.307392
7053.24,0.305766
7062.85,0.305065
7072.49,0.302659
7082.15,0.299994
7091.84,0.297831
7101.55,0.295621
7111.3,0.29335
7121.06,0.291013
7130.86,0.289177
7140.68,0.28692
7150.53,0.284537
7160.41,0.282838
7170.31,0.280842
7180.24,0.279177
7190.2,0.277768
7200.19,0.275667
7210.2,0.274016
7220.24,0.273012
7230.31,0.271977
7240.41,0.270545
7250.54,0.269583
7260.69,0.268554
7270.88,0.267558
7281.09,0.266383
7291.33,0.265908
7301.6,0.264674
7311.9,0.263483
7322.22,0.262401
7332.58,0.261118
7342.97,0.259696
7353.38,0.258852
7363.83,0.257269
7374.3,0.255408
7384.81,0.253392
7395.34,0.251542
7405.91,0.249668
7416.5,0.248209
7427.13,0.246791
7437.78,0.245508
7448.47,0.244308
7459.19,0.24331
7469.94,0.242081
7480.71,0.24112
7491.52,0.239997
7502.37,0.238956
7513.24,0.237756
7524.14,0.236576
7535.08,0.235307
7546.05,0.234025
7557.05,0.232471
7568.08,0.231138
7579.14,0.229591
7590.24,0.228044
7601.37,0.226115
7612.53,0.224129
7623.73,0.222161
7634.96,0.220333
7646.22,0.218305
7657.51,0.216394
7668.84,0.214293
7680.2,0.212233
7691.59,0.21005
7703.02,0.208287
7714.49,0.206628
7725.98,0.205098
7737.51,0.203323
7749.08,0.201561
7760.68,0.199706
7772.32,0.197792
7783.99,0.195512
7795.69,0.193311
7807.43,0.190843
7819.21,0.188308
7831.02,0.185858
7842.87,0.183738
7854.75,0.181392
7866.67,0.179264
7878.62,0.177215
7890.62,0.175408
7902.64,0.173497
7914.71,0.171416
7926.81,0.169063
7938.95,0.16668
7951.13,0.163945
7963.34,0.161308
7975.59,0.15852
7987.88,0.155814
8000.21,0.152913
8012.57,0.149939
8024.98,0.146835
8037.42,0.143878
8049.9,0.140494
8062.42,0.137102
8074.98,0.133592
8087.57,0.130023
8100.21,0.126352
8112.89,0.122737
8125.6,0.118998
8138.36,0.115497
8151.16,0.111892
8163.99,0.108448
8176.87,0.104781
8189.79,0.101314
8202.75,0.097854
8215.74,0.094748
8228.79,0.09153
8241.87,0.088528
8254.99,0.085447
8268.16,0.082661
8281.37,0.079794
8294.62,0.077186
8307.91,0.074653
8321.24,0.072283
8334.62,0.06986
8348.04,0.067543
8361.51,0.065105
8375.02,0.063004
8388.57,0.060774
8402.16,0.058642
8415.8,0.056423
8429.49,0.054423
8443.22,0.052361
8456.99,0.050462
8470.81,0.048453
8484.67,0.046637
8498.58,0.044812
8512.54,0.043076
8526.54,0.041068
8540.58,0.039275
8554.68,0.037507
8568.82,0.036059
8583.0,0.034606
8597.24,0.033193
8611.52,0.031671
8625.85,0.030532
8640.22,0.029425
8654.65,0.028587
8669.12,0.02769
8683.64,0.027136
8698.21,0.026712
8712.83,0.02662
8727.5,0.026575
8742.22,0.026825
8756.98,0.026914
8771.8,0.027201
8786.67,0.027578
8801.59,0.028159
8816.56,0.02854
8831.58,0.029357
8846.65,0.03049
8861.77,0.031885
8876.94,0.032901
8892.17,0.034062
8907.45,0.035384
8922.78,0.03698
8938.16,0.038535
8953.6,0.040454
8969.09,0.042502
8984.64,0.044878
9000.23,0.047097
9015.89,0.04974
9031.59,0.052328
9047.36,0.055349
9063.17,0.05836
9079.04,0.061308
9094.97,0.063974
9110.96,0.066699
9127.0,0.069134
9143.09,0.071519
9159.25,0.073686
9175.46,0.075931
9191.73,0.07788
9208.05,0.079789
9224.44,0.08125
9240.88,0.082673
9257.38,0.083946
9273.94,0.0853
9290.56,0.086517
9307.24,0.087758
9323.98,0.088865
9340.78,0.090123
9357.64,0.091288
9374.57,0.092263
9391.55,0.093081
9408.59,0.094116
9425.7,0.094856
9442.87,0.095769
9460.1,0.096542
9477.39,0.097431
9494.75,0.098266
9512.17,0.099312
9529.66,0.100367
9547.21,0.101528
9564.82,0.102581
9582.5,0.103742
9600.25,0.104855
9618.06,0.106313
9635.94,0.107925
9653.88,0.10971
9671.89,0.111697
9689.97,0.114202
9708.12,0.11653
9726.33,0.1191
9744.61,0.121628
9762.97,0.124096
9781.39,0.126101
9799.88,0.127843
9818.44,0.129156
9837.07,0.130247
9855.77,0.131084
9874.54,0.131828
9893.39,0.132043
9912.3,0.132127
9931.29,0.132421
9950.35,0.132718
9969.49,0.132909
9988.7,0.133371
10007.98,0.133872
10027.34,0.134598
10046.77,0.135249
10066.28,0.13606
10085.87,0.136918
10105.53,0.137781
10125.26,0.138488
10145.08,0.139147
10164.97,0.139918
10184.94,0.140815
10204.99,0.141334
10225.12,0.141729
10245.33,0.142341
10265.61,0.142983
10285.98,0.143226
10306.43,0.143544
10326.96,0.143742
10347.57,0.143726
10368.27,0.14347
10389.05,0.143581
10409.91,0.143548
10430.85,0.143638
10451.88,0.14354
10473.0,0.143435
10494.2,0.143086
10515.49,0.142733
10536.86,0.142391
10558.32,0.141893
10579.87,0.14125
10601.5,0.140906
10623.23,0.140681
10645.04,0.140557
10666.94,0.140287
10688.94,0.140095
10711.02,0.139675
10733.2,0.139295
10755.47,0.138893
10777.83,0.138504
10800.28,0.137933
10822.83,0.137403
10845.47,0.136636
10868.21,0.135906
10891.04,0.13525
10913.97,0.134703
10936.99,0.134076
10960.12,0.133736
10983.34,0.13339
11006.66,0.133106
11030.07,0.132939
11053.59,0.132728
11077.21,0.132546
11100.93,0.132658
11124.75,0.132532
11148.68,0.132457
11172.7,0.132604
11196.84,0.13262
11221.07,0.132464
11245.41,0.132487
11269.86,0.132361
11294.41,0.132179
11319.07,0.131979
11343.84,0.132072
11368.72,0.131886
11393.7,0.131701
11418.8,0.131385
11444.01,0.131099
11469.33,0.130769
11494.76,0.130361
11520.3,0.12958
11545.96,0.128965
11571.73,0.128108
11597.62,0.126874
11623.62,0.125387
11649.74,0.123972
11675.98,0.122529
11702.34,0.121096
11728.81,0.119388
11755.41,0.117794
11782.13,0.116347
11808.96,0.115065
11835.92,0.113773
11863.01,0.112591
11890.22,0.111293
11917.55,0.110501
11945.01,0.109952
11972.6,0.109272
12000.31,0.108393
12028.16,0.107744
12056.13,0.107177
12084.23,0.106785
12112.46,0.10635
12140.83,0.105889
12169.33,0.105345
12197.96,0.104935
12226.73,0.104363
12255.64,0.103955
12284.68,0.103653
12313.86,0.103356
12343.18,0.102746
12372.64,0.102266
12402.24,0.101684
12431.98,0.100877
12461.86,0.099633
12491.89,0.098666
12522.06,0.097535
12552.38,0.096093
12582.85,0.094996
12613.47,0.094317
12644.23,0.093555
12675.15,0.093186
12706.21,0.09316
12737.43,0.093475
12768.8,0.093619
12800.33,0.094002
12832.02,0.094378
12863.86,0.09472
12895.86,0.095016
12928.02,0.095549
12960.34,0.095847
12992.82,0.095986
13025.46,0.09593
13058.27,0.09604
13091.25,0.09606
13124.39,0.096072
13157.7,0.095778
13191.18,0.095512
13224.83,0.095442
13258.66,0.095206
13292.65,0.09509
13326.83,0.094931
13361.17,0.094297
13395.7,0.093921
13430.4,0.093429
13465.29,0.092885
13500.35,0.092337
13535.6,0.092087
13571.03,0.091672
13606.65,0.090679
13642.46,0.089953
13678.46,0.089672
13714.64,0.089052
13751.02,0.088612
13787.59,0.088037
13824.36,0.087343
13861.32,0.087018
13898.48,0.086892
13935.85,0.086345
13973.41,0.085727
14011.17,0.08541
14049.15,0.084947
14087.32,0.084304
14125.71,0.083612
14164.3,0.08303
14203.11,0.082525
14242.13,0.08183
14281.36,0.08115
14320.81,0.08028
14360.48,0.079849
14400.38,0.079374
14440.49,0.078629
14480.82,0.077861
14521.39,0.077256
14562.18,0.076819
14603.2,0.076214
14644.45,0.075527
14685.93,0.075283
14727.66,0.075033
14769.62,0.074772
14811.81,0.074396
14854.25,0.074209
14896.94,0.074237
14939.87,0.073936
14983.05,0.073585
15026.48,0.073476
15070.16,0.073363
15114.1,0.073368
15158.29,0.073268
15202.74,0.073254
15247.46,0.073368
15292.43,0.073744
15337.68,0.074225
15383.19,0.074816
15428.97,0.075574
15475.03,0.077001
15521.36,0.078703
15567.97,0.080389
15614.86,0.082311
15662.04,0.084853
15709.5,0.087129
15757.25,0.089099
15805.29,0.091454
15853.62,0.093815
15902.25,0.09573
15951.18,0.097386
16000.42,0.098574
16049.95,0.09984
16099.8,0.10072
16149.95,0.101044
16200.42,0.101253
16251.21,0.101167
16302.31,0.100445
16353.74,0.099677
16405.49,0.098735
16457.57,0.097087
16509.98,0.094717
16562.73,0.092598
16615.82,0.090671
16669.24,0.088905
16723.02,0.087006
16777.13,0.085514
16831.61,0.084629
16886.43,0.083659
16941.62,0.082738
16997.16,0.08226
17053.07,0.081736
17109.36,0.08131
17166.01,0.08122
17223.04,0.080978
17280.45,0.080073
17338.24,0.079318
17396.43,0.079032
17455.0,0.079038
17513.97,0.078762
17573.34,0.078261
17633.11,0.077867
17693.29,0.077432
17753.89,0.077075
17814.9,0.076652
17876.33,0.07614
17938.18,0.075879
18000.47,0.075927
18063.19,0.075363
18126.35,0.075038
18189.95,0.074749
18254.0,0.074242
18318.5,0.074103
18383.46,0.074415
18448.88,0.074195
18514.77,0.073171
18581.13,0.072588
18647.97,0.073473
18715.29,0.074105
18783.1,0.072829
18851.4,0.071647
18920.2,0.07115
18989.51,0.070561
19059.32,0.069465
19129.65,0.070914
19200.5,0.077978
19271.88,0.07526
19343.79,0.067546
19416.23,0.066732
19489.23,0.066327
19562.77,0.065981
19636.88,0.065249
19711.54,0.064552
19786.77,0.063796
19862.59,0.064443
19938.98,0.064882
20015.96,0.064708
20093.54,0.063726
20171.73,0.063516
20250.53,0.063451
20329.94,0.063348
20409.98,0.063003
20490.65,0.063531
20571.96,0.064205
20653.92,0.06573
20736.54,0.067197
20819.82,0.069755
20903.77,0.073527
20988.4,0.077757
21073.72,0.083865
21159.73,0.090938
21246.46,0.097039
21333.89,0.104733
21422.04,0.112949
21510.93,0.120547
21600.56,0.127288
21690.94,0.133273
21782.08,0.137848
21873.99,0.142285
21966.67,0.146921
22060.15,0.151194
22154.42,0.15474
22249.51,0.157813
22345.41,0.159762
22442.14,0.162148
22539.72,0.163956
22638.14,0.166474
22737.43,0.16861
22837.6,0.168707
22938.65,0.166938
23040.6,0.165731
23143.46,0.162781
23247.24,0.157145
23351.96,0.149858
23457.62,0.143221
23564.25,0.137219
23671.85,0.132826
23780.44,0.129466
23890.02,0.127822
24000.63,0.128419
24112.26,0.132236
24224.93,0.13863
24338.66,0.143758
24453.47,0.149562
24569.36,0.157907
24686.36,0.164675
24804.47,0.168046
24923.72,0.173039
25044.13,0.174404
25165.7,0.173176
25288.46,0.171948
25412.43,0.177819
25537.61,0.182673
25664.03,0.186047
25791.71,0.184763
25920.67,0.185827
