Database of Origin,University of Winnipeg Spectrophotometer Facility
Sample Description,RELAB plus Nicolet data. See HOSERLab website for further details
Date Added,2016-11-01 21:25:23.307844

Data ID,RLA_PER_01          
Sample ID,PER101
Mineral Name,perovskite
Grain Size,<45
Viewing Geometry,30/0;30
Resolution,5nm

Wavelength
300.0,0.100976
305.0,0.095927
310.0,0.091802
315.0,0.090802
320.0,0.089864
325.0,0.090555
330.0,0.09379
335.0,0.102565
340.0,0.114527
345.0,0.12781
350.0,0.141843
355.0,0.157086
360.0,0.174033
365.0,0.19289
370.0,0.212729
375.0,0.231777
380.0,0.249965
385.0,0.267385
390.0,0.285063
395.0,0.301224
400.0,0.317835
405.0,0.332133
410.0,0.347321
415.0,0.352857
420.0,0.365938
425.0,0.383292
430.0,0.39404
435.0,0.406046
440.0,0.414318
445.0,0.425673
450.0,0.429924
455.0,0.437356
460.0,0.44275
465.0,0.450202
470.0,0.454759
475.0,0.458163
480.0,0.46221
485.0,0.467451
490.0,0.472461
495.0,0.475601
500.0,0.47818
505.0,0.486415
510.0,0.486783
515.0,0.488904
520.0,0.496253
525.0,0.499266
530.0,0.504512
535.0,0.509066
540.0,0.512157
545.0,0.518786
550.0,0.522789
555.0,0.528911
560.0,0.536619
565.0,0.538799
570.0,0.542929
575.0,0.546489
580.0,0.554542
585.0,0.558655
590.0,0.561861
595.0,0.565254
600.0,0.568982
605.0,0.573271
610.0,0.577982
615.0,0.581189
620.0,0.585517
625.0,0.58844
630.0,0.594546
635.0,0.597334
640.0,0.59968
645.0,0.604634
650.0,0.604978
655.0,0.60962
660.0,0.61169
665.0,0.61504
670.0,0.616135
675.0,0.61994
680.0,0.622299
685.0,0.625333
690.0,0.6281
695.0,0.628851
700.0,0.633834
705.0,0.634991
710.0,0.636474
715.0,0.639263
720.0,0.642957
725.0,0.6445
730.0,0.646864
735.0,0.648117
740.0,0.650114
745.0,0.649471
750.0,0.65303
755.0,0.653836
760.0,0.656247
765.0,0.658415
770.0,0.6604
775.0,0.660029
780.0,0.664084
785.0,0.662951
790.0,0.664879
795.0,0.666223
800.0,0.668727
805.0,0.671018
810.0,0.67148
815.0,0.673115
820.0,0.672049
825.0,0.673954
830.0,0.676283
835.0,0.676725
840.0,0.67879
845.0,0.679756
850.0,0.681885
855.0,0.679323
860.0,0.681813
865.0,0.68088
870.0,0.682174
875.0,0.682798
880.0,0.684757
885.0,0.684474
890.0,0.68882
895.0,0.690826
900.0,0.692345
905.0,0.692446
910.0,0.693569
915.0,0.695439
920.0,0.695093
925.0,0.695397
930.0,0.69933
935.0,0.697975
940.0,0.700996
945.0,0.700373
950.0,0.700976
955.0,0.703238
960.0,0.706596
965.0,0.707424
970.0,0.70795
975.0,0.710777
980.0,0.710739
985.0,0.711342
990.0,0.711709
995.0,0.713412
1000.0,0.713435
1005.0,0.715337
1010.0,0.714685
1015.0,0.716201
1020.0,0.716305
1025.0,0.716772
1030.0,0.719714
1035.0,0.719416
1040.0,0.719823
1045.0,0.720668
1050.0,0.721677
1055.0,0.724246
1060.0,0.72124
1065.0,0.723211
1070.0,0.724511
1075.0,0.725814
1080.0,0.725417
1085.0,0.727125
1090.0,0.729093
1095.0,0.72803
1100.0,0.728548
1105.0,0.731716
1110.0,0.730757
1115.0,0.731526
1120.0,0.733072
1125.0,0.73452
1130.0,0.734749
1135.0,0.735905
1140.0,0.737326
1145.0,0.738513
1150.0,0.738049
1155.0,0.740519
1160.0,0.744289
1165.0,0.745045
1170.0,0.744717
1175.0,0.746761
1180.0,0.747309
1185.0,0.749803
1190.0,0.750482
1195.0,0.751189
1200.0,0.755453
1205.0,0.754693
1210.0,0.756116
1215.0,0.75528
1220.0,0.757728
1225.0,0.759149
1230.0,0.761483
1235.0,0.763531
1240.0,0.765854
1245.0,0.766137
1250.0,0.765687
1255.0,0.767928
1260.0,0.769235
1265.0,0.76968
1270.0,0.770769
1275.0,0.771989
1280.0,0.772899
1285.0,0.772079
1290.0,0.775295
1295.0,0.776235
1300.0,0.774969
1305.0,0.779293
1310.0,0.778409
1315.0,0.777717
1320.0,0.781472
1325.0,0.782901
1330.0,0.782993
1335.0,0.782935
1340.0,0.785007
1345.0,0.785937
1350.0,0.785573
1355.0,0.78372
1360.0,0.782803
1365.0,0.784287
1370.0,0.784806
1375.0,0.786134
1380.0,0.788699
1385.0,0.785692
1390.0,0.785008
1395.0,0.783113
1400.0,0.783813
1405.0,0.786291
1410.0,0.789449
1415.0,0.788607
1420.0,0.792513
1425.0,0.796249
1430.0,0.793973
1435.0,0.7965
1440.0,0.794862
1445.0,0.797092
1450.0,0.798887
1455.0,0.801105
1460.0,0.800543
1465.0,0.803078
1470.0,0.802464
1475.0,0.805951
1480.0,0.806574
1485.0,0.805188
1490.0,0.807433
1495.0,0.807429
1500.0,0.808662
1505.0,0.808356
1510.0,0.811449
1515.0,0.810394
1520.0,0.811202
1525.0,0.812004
1530.0,0.812947
1535.0,0.812746
1540.0,0.813492
1545.0,0.814343
1550.0,0.815462
1555.0,0.815658
1560.0,0.820666
1565.0,0.821649
1570.0,0.823204
1575.0,0.822363
1580.0,0.822386
1585.0,0.823081
1590.0,0.824392
1595.0,0.823393
1600.0,0.823955
1605.0,0.825518
1610.0,0.825235
1615.0,0.828542
1620.0,0.827501
1625.0,0.828087
1630.0,0.828364
1635.0,0.828431
1640.0,0.825292
1645.0,0.828364
1650.0,0.828561
1655.0,0.830683
1660.0,0.832219
1665.0,0.829553
1670.0,0.832844
1675.0,0.832178
1680.0,0.830283
1685.0,0.830915
1690.0,0.831983
1695.0,0.830126
1700.0,0.832453
1705.0,0.833317
1710.0,0.831833
1715.0,0.834237
1720.0,0.833707
1725.0,0.832955
1730.0,0.833895
1735.0,0.833642
1740.0,0.833773
1745.0,0.834555
1750.0,0.833335
1755.0,0.835673
1760.0,0.833021
1765.0,0.833115
1770.0,0.834078
1775.0,0.832172
1780.0,0.832297
1785.0,0.832902
1790.0,0.835819
1795.0,0.833621
1800.0,0.832071
1805.0,0.833434
1810.0,0.831828
1815.0,0.832065
1820.0,0.830352
1825.0,0.833138
1830.0,0.83077
1835.0,0.82646
1840.0,0.830936
1845.0,0.831185
1850.0,0.831749
1855.0,0.828602
1860.0,0.831846
1865.0,0.831362
1870.0,0.833112
1875.0,0.832128
1880.0,0.831683
1885.0,0.828547
1890.0,0.828378
1895.0,0.828001
1900.0,0.82741
1905.0,0.828519
1910.0,0.830271
1915.0,0.828579
1920.0,0.825908
1925.0,0.829742
1930.0,0.826544
1935.0,0.826689
1940.0,0.827456
1945.0,0.828332
1950.0,0.826733
1955.0,0.826409
1960.0,0.82608
1965.0,0.827893
1970.0,0.827078
1975.0,0.827063
1980.0,0.827093
1985.0,0.826619
1990.0,0.827312
1995.0,0.828722
2000.0,0.828853
2005.0,0.828981
2010.0,0.829894
2015.0,0.829398
2020.0,0.829068
2025.0,0.83182
2030.0,0.830174
2035.0,0.829923
2040.0,0.831351
2045.0,0.833271
2050.0,0.831732
2055.0,0.831107
2060.0,0.832617
2065.0,0.83283
2070.0,0.833833
2075.0,0.832559
2080.0,0.834315
2085.0,0.833532
2090.0,0.834534
2095.0,0.833586
2100.0,0.835309
2105.0,0.835274
2110.0,0.833611
2115.0,0.834364
2120.0,0.835137
2125.0,0.835746
2130.0,0.837637
2135.0,0.834943
2140.0,0.835836
2145.0,0.837062
2150.0,0.836373
2155.0,0.835622
2160.0,0.835863
2165.0,0.834807
2170.0,0.834608
2175.0,0.834464
2180.0,0.8348
2185.0,0.837457
2190.0,0.838398
2195.0,0.837923
2200.0,0.839181
2205.0,0.840026
2210.0,0.840165
2215.0,0.83668
2220.0,0.839194
2225.0,0.836698
2230.0,0.835771
2235.0,0.834576
2240.0,0.834708
2245.0,0.833069
2250.0,0.831057
2255.0,0.829961
2260.0,0.829614
2265.0,0.829107
2270.0,0.83012
2275.0,0.829291
2280.0,0.829739
2285.0,0.829235
2290.0,0.828182
2295.0,0.826017
2300.0,0.82414
2305.0,0.825647
2310.0,0.824118
2315.0,0.823271
2320.0,0.821196
2325.0,0.822341
2330.0,0.821311
2335.0,0.820321
2340.0,0.818485
2345.0,0.817892
2350.0,0.816981
2355.0,0.819142
2360.0,0.822175
2365.0,0.822895
2370.0,0.824205
2375.0,0.823927
2380.0,0.824864
2385.0,0.827582
2390.0,0.826031
2395.0,0.826897
2400.0,0.82531
2405.0,0.82605
2410.0,0.826749
2415.0,0.828669
2420.0,0.828129
2425.0,0.8306
2430.0,0.830766
2435.0,0.828752
2440.0,0.828975
2445.0,0.828429
2450.0,0.827775
2455.0,0.827453
2460.0,0.826852
2465.0,0.827646
2470.0,0.824917
2475.0,0.829332
2480.0,0.828166
2485.0,0.826725
2490.0,0.826075
2495.0,0.824502
2500.0,0.825833
2502.0,0.825614
2503.2,0.825697
2504.41,0.825926
2505.62,0.826086
2506.83,0.825405
2508.05,0.825347
2509.26,0.824846
2510.48,0.824788
2511.69,0.825002
2512.91,0.825478
2514.13,0.824535
2515.35,0.82435
2516.57,0.82419
2517.79,0.8247
2519.02,0.824841
2520.24,0.824846
2521.47,0.824691
2522.69,0.82472
2523.92,0.823743
2525.15,0.823665
2526.38,0.823183
2527.61,0.823276
2528.85,0.823548
2530.08,0.823159
2531.32,0.822318
2532.55,0.821876
2533.79,0.821725
2535.03,0.822338
2536.27,0.822308
2537.51,0.822158
2538.75,0.821842
2540.0,0.821613
2541.24,0.821462
2542.49,0.820689
2543.74,0.819839
2544.99,0.82084
2546.24,0.821263
2547.49,0.820641
2548.74,0.819785
2549.99,0.819926
2551.25,0.819649
2552.5,0.819508
2553.76,0.819493
2555.02,0.820159
2556.28,0.81998
2557.54,0.819401
2558.8,0.818609
2560.07,0.817976
2561.33,0.816839
2562.6,0.817539
2563.86,0.818448
2565.13,0.81855
2566.4,0.819367
2567.67,0.819318
2568.95,0.817651
2570.22,0.816528
2571.5,0.817106
2572.77,0.81716
2574.05,0.815186
2575.33,0.816956
2576.61,0.817544
2577.89,0.816547
2579.17,0.81768
2580.46,0.817062
2581.74,0.815016
2583.03,0.815434
2584.31,0.814515
2585.6,0.816246
2586.89,0.817228
2588.19,0.81574
2589.48,0.816119
2590.77,0.816746
2592.07,0.816323
2593.36,0.814267
2594.66,0.809614
2595.96,0.810708
2597.26,0.81838
2598.56,0.819104
2599.87,0.816148
2601.17,0.81485
2602.48,0.814194
2603.78,0.814243
2605.09,0.812784
2606.4,0.812201
2607.71,0.814282
2609.03,0.815303
2610.34,0.814243
2611.66,0.814763
2612.97,0.814495
2614.29,0.813649
2615.61,0.813353
2616.93,0.811369
2618.25,0.812653
2619.57,0.814179
2620.9,0.811744
2622.22,0.813708
2623.55,0.81575
2624.88,0.813766
2626.21,0.811364
2627.54,0.810552
2628.87,0.812556
2630.21,0.810514
2631.54,0.809215
2632.88,0.812497
2634.21,0.811539
2635.55,0.810562
2636.89,0.81134
2638.24,0.810305
2639.58,0.809357
2640.92,0.808963
2642.27,0.808496
2643.62,0.80872
2644.97,0.807927
2646.32,0.806935
2647.67,0.807869
2649.02,0.808088
2650.38,0.806911
2651.73,0.805263
2653.09,0.803785
2654.45,0.804329
2655.81,0.804315
2657.17,0.80429
2658.53,0.804417
2659.89,0.802808
2661.26,0.802783
2662.63,0.802798
2664.0,0.800775
2665.36,0.797455
2666.74,0.796983
2668.11,0.799506
2669.48,0.799735
2670.86,0.795155
2672.23,0.796716
2673.61,0.799521
2674.99,0.795301
2676.37,0.791893
2677.76,0.790736
2679.14,0.791198
2680.52,0.79095
2681.91,0.790016
2683.3,0.786559
2684.69,0.784163
2686.08,0.782787
2687.47,0.781012
2688.87,0.778153
2690.26,0.775547
2691.66,0.772008
2693.06,0.767078
2694.46,0.761093
2695.86,0.757262
2697.26,0.7526
2698.66,0.744772
2700.07,0.733755
2701.48,0.723711
2702.89,0.716578
2704.3,0.709811
2705.71,0.69911
2707.12,0.686338
2708.53,0.671368
2709.95,0.656248
2711.37,0.64333
2712.79,0.633417
2714.21,0.624593
2715.63,0.615808
2717.05,0.608554
2718.48,0.603551
2719.9,0.598412
2721.33,0.593083
2722.76,0.592743
2724.19,0.589986
2725.62,0.586267
2727.06,0.586899
2728.49,0.586087
2729.93,0.582966
2731.37,0.580365
2732.81,0.578143
2734.25,0.575012
2735.69,0.571113
2737.14,0.568628
2738.58,0.565181
2740.03,0.560154
2741.48,0.55785
2742.93,0.5575
2744.38,0.555536
2745.83,0.551865
2747.29,0.548223
2748.75,0.545165
2750.2,0.541995
2751.66,0.5385
2753.13,0.535155
2754.59,0.530512
2756.05,0.5253
2757.52,0.523696
2758.99,0.52267
2760.46,0.518523
2761.93,0.513846
2763.4,0.50946
2764.87,0.506947
2766.35,0.503679
2767.82,0.498686
2769.3,0.494432
2770.78,0.490679
2772.26,0.486396
2773.75,0.482881
2775.23,0.478806
2776.72,0.474363
2778.21,0.470284
2779.7,0.467323
2781.19,0.463462
2782.68,0.459398
2784.18,0.455883
2785.67,0.452373
2787.17,0.448264
2788.67,0.445527
2790.17,0.444142
2791.67,0.441852
2793.18,0.438871
2794.68,0.436659
2796.19,0.434744
2797.7,0.433159
2799.21,0.431637
2800.72,0.430412
2802.24,0.429051
2803.75,0.427684
2805.27,0.427646
2806.79,0.428068
2808.31,0.427242
2809.83,0.42661
2811.35,0.426182
2812.88,0.425696
2814.41,0.425394
2815.93,0.425346
2817.46,0.425351
2819.0,0.425292
2820.53,0.42538
2822.07,0.426124
2823.6,0.426231
2825.14,0.426274
2826.68,0.426304
2828.22,0.426654
2829.77,0.427193
2831.31,0.427363
2832.86,0.427373
2834.41,0.42802
2835.96,0.428472
2837.51,0.428919
2839.07,0.429031
2840.62,0.429639
2842.18,0.429974
2843.74,0.430033
2845.3,0.430028
2846.86,0.430018
2848.43,0.430023
2849.99,0.42978
2851.56,0.430076
2853.13,0.430446
2854.7,0.430067
2856.27,0.430018
2857.85,0.429634
2859.42,0.429337
2861.0,0.428992
2862.58,0.42871
2864.16,0.428336
2865.75,0.427981
2867.33,0.4273
2868.92,0.427339
2870.51,0.426926
2872.1,0.426221
2873.69,0.42589
2875.28,0.425988
2876.88,0.425278
2878.48,0.424719
2880.07,0.42395
2881.68,0.423241
2883.28,0.422652
2884.88,0.422011
2886.49,0.421014
2888.1,0.420163
2889.71,0.41923
2891.32,0.418612
2892.93,0.417888
2894.55,0.417061
2896.16,0.416225
2897.78,0.415345
2899.4,0.414363
2901.03,0.413381
2902.65,0.412535
2904.28,0.411587
2905.91,0.410576
2907.54,0.409953
2909.17,0.40918
2910.8,0.408505
2912.44,0.407722
2914.07,0.407119
2915.71,0.406215
2917.35,0.405077
2918.99,0.404469
2920.64,0.404187
2922.29,0.403366
2923.93,0.402593
2925.58,0.401883
2927.24,0.401586
2928.89,0.400959
2930.55,0.400833
2932.2,0.400555
2933.86,0.400376
2935.52,0.399919
2937.19,0.399627
2938.85,0.39953
2940.52,0.399894
2942.19,0.400123
2943.86,0.399748
2945.53,0.399476
2947.21,0.399603
2948.88,0.399763
2950.56,0.399991
2952.24,0.399792
2953.92,0.400137
2955.61,0.400366
2957.29,0.400594
2958.98,0.400643
2960.67,0.400959
2962.36,0.400988
2964.06,0.401187
2965.75,0.401489
2967.45,0.401659
2969.15,0.401878
2970.85,0.402194
2972.55,0.402126
2974.26,0.402131
2975.97,0.402335
2977.68,0.402607
2979.39,0.402622
2981.1,0.402753
2982.82,0.403064
2984.53,0.40373
2986.25,0.404124
2987.97,0.404693
2989.7,0.404989
2991.42,0.405232
2993.15,0.405957
2994.88,0.406691
2996.61,0.407206
2998.34,0.407979
3000.08,0.40868
3001.82,0.409389
3003.55,0.409934
3005.3,0.410581
3007.04,0.411213
3008.78,0.41183
3010.53,0.412608
3012.28,0.413687
3014.03,0.414509
3015.79,0.415204
3017.54,0.416283
3019.3,0.417246
3021.06,0.417912
3022.82,0.418656
3024.58,0.419468
3026.35,0.420416
3028.12,0.42132
3029.89,0.422244
3031.66,0.423095
3033.43,0.423907
3035.21,0.425088
3036.99,0.426347
3038.77,0.427271
3040.55,0.428146
3042.33,0.429255
3044.12,0.430164
3045.91,0.431097
3047.7,0.432133
3049.49,0.433173
3051.29,0.434083
3053.08,0.435118
3054.88,0.436402
3056.68,0.437627
3058.49,0.438638
3060.29,0.439674
3062.1,0.440743
3063.91,0.441706
3065.72,0.4428
3067.54,0.444005
3069.35,0.445051
3071.17,0.446237
3072.99,0.44719
3074.81,0.44823
3076.64,0.449431
3078.47,0.450477
3080.29,0.45159
3082.13,0.45248
3083.96,0.453447
3085.79,0.454765
3087.63,0.456004
3089.47,0.456637
3091.31,0.45757
3093.16,0.458406
3095.01,0.45933
3096.85,0.460536
3098.71,0.461605
3100.56,0.462407
3102.41,0.463545
3104.27,0.464377
3106.13,0.465402
3107.99,0.466423
3109.86,0.467157
3111.73,0.468193
3113.59,0.469506
3115.47,0.47041
3117.34,0.47112
3119.21,0.472262
3121.09,0.473322
3122.97,0.474295
3124.86,0.475204
3126.74,0.476074
3128.63,0.477178
3130.52,0.478126
3132.41,0.479093
3134.3,0.480143
3136.2,0.481257
3138.1,0.482356
3140.0,0.48309
3141.9,0.484062
3143.81,0.485326
3145.71,0.486444
3147.62,0.487548
3149.54,0.488715
3151.45,0.489814
3153.37,0.490844
3155.29,0.491763
3157.21,0.492721
3159.13,0.493747
3161.06,0.494807
3162.99,0.495973
3164.92,0.497028
3166.85,0.497879
3168.79,0.49892
3170.72,0.500048
3172.67,0.500884
3174.61,0.501535
3176.55,0.502532
3178.5,0.503738
3180.45,0.504642
3182.4,0.505542
3184.36,0.506281
3186.32,0.507112
3188.27,0.508045
3190.24,0.508814
3192.2,0.509494
3194.17,0.510574
3196.14,0.511337
3198.11,0.51194
3200.08,0.512596
3202.06,0.513515
3204.04,0.514278
3206.02,0.514769
3208.0,0.515469
3209.99,0.516247
3211.98,0.51669
3213.97,0.517409
3215.96,0.518338
3217.96,0.519062
3219.96,0.519524
3221.96,0.520146
3223.96,0.520754
3225.97,0.52109
3227.98,0.521192
3229.99,0.521581
3232.0,0.522072
3234.02,0.522577
3236.04,0.522995
3238.06,0.523292
3240.08,0.523486
3242.11,0.523973
3244.14,0.524425
3246.17,0.524814
3248.2,0.524785
3250.24,0.524945
3252.28,0.525577
3254.32,0.526272
3256.37,0.526559
3258.41,0.526613
3260.46,0.526642
3262.51,0.527216
3264.57,0.5276
3266.63,0.528091
3268.69,0.528664
3270.75,0.528907
3272.81,0.529228
3274.88,0.529564
3276.95,0.53005
3279.02,0.530541
3281.1,0.530993
3283.18,0.531353
3285.26,0.53164
3287.34,0.532
3289.43,0.532301
3291.51,0.532904
3293.61,0.53321
3295.7,0.533361
3297.8,0.533726
3299.9,0.534129
3302.0,0.534518
3304.1,0.535106
3306.21,0.535325
3308.32,0.535403
3310.43,0.535583
3312.55,0.535889
3314.66,0.53585
3316.79,0.535763
3318.91,0.535476
3321.03,0.535442
3323.16,0.535563
3325.29,0.535568
3327.43,0.535383
3329.57,0.535072
3331.71,0.534596
3333.85,0.534105
3335.99,0.533385
3338.14,0.532641
3340.29,0.531703
3342.45,0.530604
3344.6,0.529476
3346.76,0.528343
3348.92,0.526851
3351.09,0.52495
3353.26,0.522825
3355.43,0.520803
3357.6,0.518459
3359.78,0.515975
3361.96,0.513199
3364.14,0.510058
3366.32,0.50702
3368.51,0.503451
3370.7,0.499615
3372.89,0.496139
3375.09,0.493144
3377.29,0.490708
3379.49,0.488972
3381.69,0.488073
3383.9,0.48836
3386.11,0.489395
3388.32,0.490538
3390.54,0.491097
3392.76,0.490601
3394.98,0.488899
3397.21,0.48573
3399.43,0.481218
3401.66,0.475554
3403.9,0.469165
3406.13,0.462252
3408.37,0.454964
3410.61,0.447666
3412.86,0.44103
3415.11,0.434943
3417.36,0.430446
3419.61,0.427932
3421.87,0.427796
3424.13,0.430135
3426.39,0.43487
3428.66,0.441108
3430.93,0.448605
3433.2,0.457405
3435.48,0.466428
3437.76,0.474042
3440.04,0.480075
3442.32,0.484986
3444.61,0.488987
3446.9,0.492235
3449.19,0.49538
3451.49,0.498448
3453.79,0.501171
3456.09,0.50365
3458.4,0.506174
3460.7,0.508527
3463.02,0.510676
3465.33,0.512436
3467.65,0.513442
3469.97,0.51403
3472.29,0.513952
3474.62,0.513481
3476.95,0.512567
3479.29,0.511118
3481.62,0.509718
3483.96,0.508862
3486.3,0.508731
3488.65,0.508006
3491.0,0.505979
3493.35,0.502887
3495.71,0.498346
3498.07,0.492512
3500.43,0.486143
3502.79,0.480406
3505.16,0.476857
3507.53,0.47691
3509.91,0.480887
3512.29,0.489011
3514.67,0.500631
3517.05,0.512611
3519.44,0.522796
3521.83,0.53057
3524.23,0.53604
3526.62,0.540172
3529.02,0.543415
3531.43,0.545924
3533.83,0.548078
3536.24,0.549823
3538.66,0.551257
3541.08,0.552599
3543.5,0.553829
3545.92,0.554889
3548.35,0.555944
3550.78,0.556882
3553.21,0.557641
3555.65,0.558346
3558.09,0.559177
3560.53,0.559877
3562.98,0.560446
3565.43,0.560966
3567.88,0.561759
3570.34,0.562337
3572.8,0.562872
3575.27,0.563319
3577.73,0.563893
3580.2,0.564481
3582.68,0.565152
3585.16,0.565561
3587.64,0.565852
3590.12,0.56611
3592.61,0.566698
3595.1,0.567204
3597.6,0.567607
3600.09,0.567914
3602.6,0.568235
3605.1,0.568415
3607.61,0.568881
3610.12,0.569139
3612.64,0.569465
3615.16,0.5698
3617.68,0.570384
3620.21,0.570661
3622.74,0.570792
3625.27,0.570894
3627.81,0.571079
3630.35,0.571249
3632.89,0.571424
3635.44,0.571643
3637.99,0.571993
3640.54,0.572051
3643.1,0.57208
3645.66,0.572275
3648.23,0.572542
3650.8,0.572688
3653.37,0.57281
3655.95,0.573155
3658.53,0.573374
3661.11,0.573549
3663.7,0.573758
3666.29,0.574083
3668.89,0.574278
3671.48,0.574667
3674.09,0.575036
3676.69,0.575279
3679.3,0.575698
3681.91,0.576096
3684.53,0.576388
3687.15,0.57648
3689.78,0.576709
3692.4,0.576879
3695.04,0.577025
3697.67,0.577511
3700.31,0.578124
3702.95,0.578279
3705.6,0.578372
3708.25,0.578454
3710.91,0.578678
3713.56,0.578615
3716.23,0.578688
3718.89,0.578989
3721.56,0.57914
3724.23,0.579422
3726.91,0.57964
3729.59,0.579718
3732.28,0.579772
3734.97,0.580029
3737.66,0.580243
3740.36,0.580516
3743.06,0.580695
3745.76,0.580793
3748.47,0.58108
3751.18,0.581342
3753.9,0.581653
3756.62,0.581789
3759.34,0.582042
3762.07,0.582329
3764.8,0.582631
3767.54,0.582874
3770.28,0.583224
3773.02,0.583301
3775.77,0.583399
3778.52,0.583671
3781.28,0.584011
3784.04,0.584245
3786.8,0.584434
3789.57,0.584429
3792.34,0.58458
3795.12,0.584843
3797.9,0.585173
3800.69,0.585115
3803.47,0.585377
3806.27,0.585888
3809.06,0.58615
3811.86,0.586316
3814.67,0.586442
3817.48,0.586641
3820.29,0.586953
3823.11,0.587079
3825.93,0.587099
3828.76,0.587385
3831.59,0.58775
3834.42,0.587886
3837.26,0.588144
3840.1,0.58847
3842.95,0.588703
3845.8,0.588878
3848.65,0.589048
3851.51,0.589223
3854.38,0.589525
3857.24,0.589841
3860.12,0.590108
3862.99,0.590264
3865.87,0.590536
3868.76,0.5909
3871.65,0.591095
3874.54,0.591289
3877.44,0.591445
3880.34,0.591537
3883.25,0.591921
3886.16,0.592286
3889.07,0.592442
3891.99,0.592476
3894.92,0.592626
3897.85,0.592821
3900.78,0.592972
3903.72,0.59301
3906.66,0.593244
3909.6,0.593492
3912.55,0.593652
3915.51,0.593662
3918.47,0.593886
3921.43,0.594168
3924.4,0.594416
3927.38,0.594454
3930.35,0.594561
3933.33,0.594673
3936.32,0.594921
3939.31,0.595135
3942.31,0.595257
3945.31,0.595291
3948.31,0.59532
3951.32,0.595407
3954.34,0.595485
3957.35,0.595782
3960.38,0.595966
3963.41,0.596093
3966.44,0.59618
3969.48,0.59637
3972.52,0.596404
3975.56,0.596564
3978.61,0.596793
3981.67,0.596944
3984.73,0.597313
3987.8,0.597566
3990.87,0.597527
3993.94,0.597517
3997.02,0.597678
4000.1,0.597887
4003.19,0.598028
4006.29,0.598198
4009.39,0.598422
4012.49,0.598582
4015.6,0.598772
4018.71,0.598961
4021.83,0.599166
4024.95,0.599302
4028.08,0.599477
4031.21,0.599491
4034.35,0.599584
4037.49,0.599817
4040.64,0.600036
4043.79,0.600133
4046.94,0.600255
4050.11,0.600478
4053.27,0.600648
4056.44,0.600882
4059.62,0.60112
4062.8,0.601324
4065.99,0.601572
4069.18,0.601621
4072.38,0.601733
4075.58,0.601932
4078.78,0.602097
4082.0,0.602185
4085.21,0.602292
4088.43,0.602447
4091.66,0.602622
4094.89,0.602744
4098.13,0.602865
4101.37,0.603089
4104.62,0.603274
4107.87,0.603269
4111.13,0.603478
4114.39,0.603653
4117.66,0.603789
4120.93,0.60395
4124.21,0.604134
4127.5,0.604222
4130.79,0.604363
4134.08,0.604577
4137.38,0.604849
4140.68,0.60498
4143.99,0.60517
4147.31,0.60533
4150.63,0.6055
4153.95,0.605685
4157.29,0.605933
4160.62,0.606133
4163.96,0.606239
4167.31,0.606414
4170.66,0.606721
4174.02,0.607022
4177.39,0.6071
4180.75,0.607183
4184.13,0.607504
4187.51,0.607722
4190.89,0.607956
4194.28,0.608082
4197.68,0.608238
4201.08,0.60815
4204.49,0.608291
4207.9,0.60868
4211.32,0.609016
4214.74,0.609176
4218.17,0.609453
4221.61,0.609978
4225.05,0.610469
4228.5,0.610863
4231.95,0.611203
4235.4,0.611558
4238.87,0.611981
4242.34,0.612482
4245.81,0.612798
4249.29,0.612837
4252.78,0.61274
4256.27,0.612652
4259.77,0.61221
4263.27,0.611685
4266.78,0.611874
4270.29,0.612579
4273.81,0.613206
4277.34,0.613649
4280.87,0.613965
4284.41,0.614057
4287.95,0.614232
4291.5,0.614383
4295.06,0.614689
4298.62,0.614767
4302.19,0.615059
4305.76,0.61519
4309.34,0.615146
4312.92,0.615166
4316.52,0.615253
4320.11,0.615355
4323.72,0.61553
4327.32,0.61574
4330.94,0.615861
4334.56,0.615856
4338.19,0.61607
4341.82,0.616386
4345.46,0.616678
4349.11,0.616712
4352.76,0.616765
4356.42,0.616877
4360.08,0.617169
4363.75,0.617344
4367.43,0.617509
4371.11,0.617655
4374.8,0.617786
4378.49,0.617918
4382.19,0.618073
4385.9,0.618321
4389.61,0.618671
4393.33,0.618948
4397.06,0.619157
4400.79,0.619459
4404.53,0.619522
4408.28,0.61975
4412.03,0.619994
4415.79,0.620169
4419.55,0.620329
4423.32,0.620489
4427.1,0.620626
4430.88,0.620757
4434.68,0.620903
4438.47,0.62099
4442.28,0.621185
4446.08,0.621355
4449.9,0.621462
4453.72,0.621428
4457.55,0.621593
4461.39,0.621797
4465.23,0.62189
4469.08,0.62205
4472.94,0.622303
4476.8,0.622454
4480.67,0.622561
4484.55,0.622585
4488.43,0.622677
4492.32,0.622809
4496.21,0.622974
4500.12,0.623018
4504.03,0.623115
4507.94,0.623236
4511.87,0.623523
4515.8,0.623596
4519.73,0.623606
4523.68,0.623514
4527.63,0.623679
4531.59,0.623883
4535.55,0.623902
4539.52,0.623971
4543.5,0.624087
4547.49,0.624155
4551.48,0.624248
4555.48,0.624204
4559.49,0.624112
4563.5,0.624043
4567.52,0.624155
4571.55,0.624073
4575.58,0.623917
4579.63,0.623796
4583.67,0.623815
4587.73,0.623723
4591.79,0.623509
4595.86,0.623392
4599.94,0.623421
4604.03,0.623329
4608.12,0.623125
4612.22,0.622867
4616.33,0.622741
4620.44,0.622541
4624.56,0.622395
4628.69,0.622429
4632.83,0.622454
4636.97,0.622356
4641.12,0.62224
4645.28,0.62204
4649.45,0.621924
4653.62,0.621792
4657.8,0.621875
4661.99,0.621943
4666.19,0.621933
4670.39,0.621705
4674.6,0.621491
4678.82,0.621379
4683.05,0.621447
4687.28,0.621321
4691.52,0.621335
4695.77,0.621228
4700.03,0.621097
4704.3,0.620951
4708.57,0.620786
4712.85,0.620596
4717.14,0.62048
4721.43,0.620276
4725.74,0.620144
4730.05,0.619872
4734.37,0.619794
4738.7,0.619517
4743.03,0.619308
4747.38,0.619167
4751.73,0.619075
4756.09,0.619007
4760.45,0.619026
4764.83,0.618939
4769.21,0.6189
4773.6,0.618754
4778.0,0.618725
4782.41,0.618807
4786.83,0.618958
4791.25,0.619055
4795.68,0.619011
4800.13,0.619089
4804.57,0.619303
4809.03,0.619342
4813.5,0.619493
4817.97,0.619464
4822.45,0.619294
4826.94,0.619172
4831.44,0.619245
4835.95,0.619167
4840.46,0.619152
4844.99,0.619162
4849.52,0.619337
4854.06,0.619235
4858.61,0.619123
4863.17,0.618963
4867.73,0.61888
4872.31,0.618729
4876.89,0.61852
4881.48,0.618345
4886.08,0.6182
4890.69,0.617937
4895.31,0.617854
4899.94,0.617679
4904.57,0.617529
4909.22,0.617441
4913.87,0.617324
4918.53,0.617072
4923.21,0.616897
4927.88,0.616775
4932.57,0.616493
4937.27,0.616124
4941.98,0.615861
4946.69,0.61553
4951.42,0.615146
4956.15,0.614733
4960.9,0.614602
4965.65,0.614519
4970.41,0.614296
4975.18,0.613945
4979.96,0.613722
4984.75,0.61362
4989.54,0.613552
4994.35,0.613343
4999.17,0.613231
5003.99,0.613134
5008.83,0.613148
5013.67,0.613211
5018.52,0.613226
5023.39,0.613197
5028.26,0.613372
5033.14,0.613382
5038.03,0.613396
5042.93,0.613231
5047.84,0.613202
5052.76,0.613231
5057.69,0.613236
5062.63,0.613231
5067.58,0.61343
5072.54,0.613547
5077.51,0.613625
5082.49,0.613605
5087.47,0.613916
5092.47,0.61415
5097.48,0.614325
5102.5,0.614446
5107.52,0.614514
5112.56,0.614699
5117.61,0.614884
5122.66,0.614942
5127.73,0.615142
5132.81,0.615278
5137.89,0.615477
5142.99,0.615681
5148.1,0.615744
5153.22,0.615808
5158.34,0.615983
5163.48,0.615963
5168.63,0.615934
5173.79,0.615929
5178.96,0.615968
5184.13,0.616017
5189.32,0.616221
5194.52,0.616245
5199.73,0.616051
5204.96,0.61589
5210.19,0.615817
5215.43,0.61554
5220.68,0.615545
5225.94,0.615594
5231.22,0.615477
5236.5,0.615219
5241.79,0.615146
5247.1,0.615049
5252.42,0.615039
5257.74,0.614898
5263.08,0.614714
5268.43,0.614383
5273.79,0.614023
5279.16,0.613722
5284.54,0.613561
5289.93,0.613284
5295.34,0.613046
5300.75,0.612944
5306.18,0.6129
5311.61,0.612774
5317.06,0.612633
5322.52,0.61239
5327.99,0.612399
5333.47,0.612239
5338.96,0.61203
5344.47,0.611806
5349.98,0.611442
5355.51,0.611291
5361.05,0.61149
5366.6,0.611233
5372.16,0.610853
5377.73,0.610562
5383.32,0.610474
5388.91,0.610173
5394.52,0.609896
5400.14,0.609716
5405.77,0.609351
5411.41,0.609108
5417.07,0.608986
5422.74,0.608491
5428.41,0.608534
5434.1,0.608602
5439.81,0.608189
5445.52,0.607659
5451.25,0.607377
5456.98,0.607056
5462.73,0.606546
5468.5,0.606337
5474.27,0.606385
5480.06,0.60604
5485.86,0.605763
5491.67,0.605549
5497.49,0.605121
5503.33,0.604659
5509.18,0.604572
5515.04,0.604232
5520.91,0.603847
5526.8,0.603318
5532.69,0.603133
5538.61,0.602778
5544.53,0.602297
5550.47,0.601674
5556.41,0.601383
5562.38,0.601144
5568.35,0.600887
5574.34,0.600289
5580.34,0.599618
5586.35,0.599399
5592.38,0.59952
5598.42,0.598937
5604.47,0.59831
5610.54,0.598028
5616.61,0.597707
5622.71,0.597124
5628.81,0.596545
5634.93,0.595782
5641.06,0.594824
5647.21,0.594279
5653.36,0.594129
5659.54,0.593317
5665.72,0.59268
5671.92,0.591664
5678.13,0.590361
5684.36,0.589481
5690.6,0.588421
5696.85,0.586724
5703.12,0.585479
5709.4,0.583559
5715.69,0.581624
5722.0,0.580224
5728.33,0.578756
5734.66,0.576947
5741.01,0.575367
5747.38,0.57367
5753.76,0.572708
5760.15,0.571516
5766.56,0.569581
5772.98,0.568463
5779.41,0.568006
5785.86,0.5663
5792.33,0.564365
5798.81,0.5624
5805.3,0.560334
5811.81,0.558253
5818.33,0.555827
5824.87,0.55309
5831.42,0.551252
5837.99,0.549123
5844.57,0.546429
5851.17,0.543464
5857.78,0.54044
5864.41,0.53674
5871.05,0.533395
5877.7,0.529287
5884.38,0.525198
5891.06,0.521668
5897.76,0.518119
5904.48,0.514322
5911.21,0.510958
5917.96,0.506844
5924.73,0.502795
5931.5,0.499032
5938.3,0.49505
5945.11,0.491996
5951.93,0.489084
5958.78,0.485579
5965.63,0.482035
5972.51,0.478738
5979.39,0.475967
5986.3,0.473142
5993.22,0.470186
6000.16,0.468008
6007.11,0.466132
6014.08,0.46373
6021.06,0.461965
6028.06,0.46072
6035.08,0.459529
6042.12,0.45808
6049.17,0.456544
6056.23,0.456865
6063.32,0.458231
6070.42,0.45776
6077.53,0.457638
6084.67,0.459043
6091.82,0.459972
6098.98,0.460487
6106.17,0.461226
6113.37,0.461766
6120.58,0.463171
6127.82,0.465101
6135.07,0.466039
6142.34,0.466657
6149.63,0.46761
6156.93,0.468529
6164.25,0.469316
6171.59,0.470429
6178.95,0.471202
6186.32,0.471582
6193.71,0.472924
6201.12,0.474124
6208.54,0.474455
6215.99,0.474878
6223.45,0.475432
6230.93,0.475695
6238.43,0.475807
6245.95,0.475846
6253.48,0.475875
6261.03,0.475899
6268.6,0.476011
6276.19,0.476098
6283.8,0.4762
6291.43,0.476405
6299.07,0.476614
6306.73,0.476764
6314.42,0.47691
6322.12,0.476881
6329.84,0.476969
6337.57,0.47693
6345.33,0.476448
6353.11,0.476847
6360.9,0.477567
6368.72,0.477129
6376.55,0.476964
6384.4,0.477358
6392.27,0.476969
6400.17,0.476657
6408.08,0.47604
6416.01,0.475077
6423.96,0.475559
6431.93,0.475773
6439.92,0.475116
6447.93,0.474732
6455.96,0.474538
6464.01,0.474275
6472.08,0.474013
6480.17,0.473881
6488.28,0.473979
6496.41,0.474139
6504.56,0.475282
6512.73,0.476186
6520.92,0.476137
6529.14,0.476662
6537.37,0.477537
6545.63,0.477698
6553.9,0.477732
6562.2,0.478097
6570.51,0.477956
6578.85,0.477892
6587.21,0.478194
6595.59,0.478067
6603.99,0.478009
6612.42,0.478204
6620.86,0.478485
6629.33,0.478651
6637.82,0.478675
6646.33,0.479677
6654.86,0.480984
6663.41,0.481169
6671.99,0.481301
6680.59,0.481743
6689.21,0.482278
6697.85,0.483119
6706.51,0.483469
6715.2,0.48359
6723.91,0.484115
6732.64,0.484393
6741.4,0.484188
6750.18,0.483513
6758.98,0.482458
6767.8,0.480878
6776.65,0.478758
6785.52,0.475836
6794.41,0.472248
6803.33,0.468125
6812.27,0.463954
6821.23,0.460142
6830.22,0.457901
6839.23,0.456875
6848.26,0.456034
6857.32,0.454794
6866.4,0.453369
6875.51,0.452577
6884.64,0.452023
6893.8,0.45105
6902.98,0.449986
6912.18,0.449042
6921.41,0.448089
6930.66,0.447234
6939.94,0.446295
6949.24,0.445245
6958.57,0.444074
6967.92,0.443126
6977.3,0.442474
6986.7,0.441536
6996.13,0.440442
7005.59,0.439562
7015.07,0.438526
7024.57,0.437272
7034.1,0.436231
7043.66,0.435079
7053.25,0.433786
7062.85,0.432677
7072.49,0.431593
7082.15,0.430251
7091.84,0.429075
7101.55,0.427918
7111.3,0.426644
7121.06,0.425409
7130.86,0.424296
7140.68,0.422964
7150.53,0.42149
7160.41,0.419978
7170.31,0.418578
7180.24,0.416915
7190.2,0.415024
7200.19,0.412744
7210.2,0.410245
7220.24,0.407731
7230.31,0.405082
7240.41,0.402277
7250.54,0.399379
7260.69,0.39651
7270.88,0.39387
7281.09,0.391216
7291.33,0.388347
7301.6,0.385207
7311.9,0.381886
7322.22,0.378541
7332.58,0.375386
7342.97,0.371866
7353.38,0.368292
7363.83,0.364486
7374.3,0.360601
7384.81,0.356551
7395.34,0.352521
7405.91,0.348427
7416.5,0.344499
7427.13,0.340648
7437.78,0.337036
7448.47,0.333633
7459.19,0.330608
7469.94,0.32792
7480.71,0.325674
7491.52,0.323758
7502.37,0.322441
7513.24,0.321493
7524.14,0.320933
7535.08,0.320758
7546.05,0.321002
7557.05,0.321459
7568.08,0.322373
7579.15,0.323447
7590.24,0.324794
7601.37,0.326247
7612.53,0.327983
7623.73,0.329792
7634.96,0.331736
7646.22,0.333676
7657.51,0.335631
7668.84,0.337488
7680.2,0.339297
7691.59,0.34093
7703.02,0.34251
7714.49,0.34393
7725.98,0.345257
7737.52,0.346288
7749.08,0.347255
7760.68,0.34797
7772.32,0.348403
7783.99,0.348636
7795.69,0.348908
7807.43,0.349059
7819.21,0.349122
7831.02,0.348874
7842.87,0.348578
7854.75,0.348213
7866.67,0.347659
7878.62,0.346847
7890.62,0.346103
7902.64,0.345136
7914.71,0.343959
7926.81,0.342593
7938.95,0.34129
7951.13,0.339715
7963.34,0.338154
7975.59,0.336661
7987.88,0.335247
8000.21,0.333778
8012.57,0.33249
8024.98,0.331119
8037.42,0.329787
8049.9,0.328357
8062.42,0.32705
8074.98,0.325727
8087.57,0.32458
8100.21,0.323452
8112.89,0.322309
8125.6,0.321235
8138.36,0.320311
8151.16,0.319246
8163.99,0.318279
8176.87,0.317238
8189.79,0.316261
8202.75,0.315303
8215.75,0.314326
8228.79,0.313368
8241.87,0.312391
8254.99,0.311317
8268.16,0.310369
8281.37,0.309348
8294.62,0.308259
8307.91,0.306912
8321.24,0.305371
8334.62,0.303664
8348.04,0.301914
8361.51,0.300037
8375.02,0.298127
8388.57,0.296114
8402.16,0.29415
8415.8,0.292137
8429.49,0.290173
8443.22,0.288155
8456.99,0.286142
8470.81,0.283799
8484.67,0.281392
8498.58,0.278888
8512.54,0.276365
8526.54,0.273784
8540.58,0.271085
8554.68,0.268397
8568.82,0.265893
8583.0,0.263292
8597.24,0.260861
8611.52,0.258381
8625.85,0.255877
8640.23,0.253189
8654.65,0.25085
8669.12,0.248546
8683.64,0.246358
8698.21,0.244165
8712.83,0.242143
8727.5,0.240096
8742.22,0.238127
8756.99,0.236022
8771.8,0.233849
8786.67,0.231408
8801.59,0.229055
8816.56,0.226303
8831.58,0.223415
8846.65,0.220357
8861.77,0.217245
8876.94,0.213959
8892.17,0.211003
8907.45,0.208047
8922.78,0.205008
8938.16,0.201853
8953.6,0.198853
8969.09,0.195781
8984.64,0.192941
9000.23,0.190112
9015.89,0.187389
9031.59,0.184569
9047.36,0.182065
9063.17,0.179527
9079.05,0.177306
9094.97,0.175035
9110.96,0.172862
9127.0,0.170674
9143.1,0.168535
9159.25,0.166376
9175.46,0.164164
9191.73,0.16166
9208.06,0.159122
9224.44,0.156419
9240.88,0.15394
9257.38,0.151416
9273.94,0.149321
9290.56,0.147303
9307.24,0.145704
9323.98,0.144226
9340.78,0.142777
9357.64,0.140968
9374.57,0.139174
9391.55,0.137118
9408.59,0.134886
9425.7,0.132382
9442.87,0.129976
9460.1,0.127491
9477.4,0.125138
9494.75,0.122887
9512.17,0.121011
9529.66,0.119115
9547.21,0.117481
9564.83,0.115823
9582.5,0.114481
9600.25,0.113329
9618.06,0.112376
9635.94,0.11134
9653.88,0.110436
9671.89,0.109391
9689.97,0.108657
9708.12,0.107801
9726.33,0.106911
9744.62,0.105749
9762.97,0.104534
9781.39,0.10292
9799.88,0.101515
9818.44,0.099949
9837.07,0.098233
9855.77,0.096405
9874.54,0.094713
9893.39,0.09287
9912.3,0.090945
9931.29,0.088918
9950.36,0.087027
9969.49,0.08497
9988.7,0.083113
10007.98,0.081236
10027.34,0.079335
10046.77,0.077502
10066.28,0.075883
10085.87,0.074128
10105.53,0.072694
10125.26,0.071333
10145.08,0.070107
10164.97,0.068785
10184.94,0.067555
10204.99,0.06615
10225.12,0.064886
10245.33,0.063622
10265.61,0.062542
10285.98,0.061414
10306.43,0.060505
10326.96,0.059557
10347.57,0.058804
10368.27,0.057929
10389.05,0.057345
10409.91,0.056626
10430.86,0.055911
10451.88,0.055138
10473.0,0.054491
10494.2,0.053645
10515.49,0.052921
10536.86,0.052085
10558.32,0.051404
10579.87,0.050616
10601.5,0.04995
10623.23,0.049104
10645.04,0.048365
10666.94,0.047544
10688.94,0.046926
10711.02,0.04609
10733.2,0.045278
10755.47,0.044452
10777.83,0.044048
10800.28,0.04363
10822.83,0.043314
10845.47,0.04291
10868.21,0.04258
10891.04,0.042079
10913.97,0.041525
10936.99,0.04081
10960.12,0.040339
10983.34,0.03976
11006.66,0.039361
11030.07,0.038846
11053.59,0.038408
11077.21,0.037932
11100.93,0.037611
11124.75,0.037212
11148.68,0.037242
11172.71,0.037062
11196.84,0.036721
11221.07,0.036313
11245.41,0.036191
11269.86,0.035968
11294.41,0.036036
11319.07,0.036123
11343.84,0.036187
11368.72,0.03625
11393.7,0.036571
11418.8,0.036843
11444.01,0.037285
11469.33,0.037587
11494.76,0.038243
11520.3,0.038909
11545.96,0.039711
11571.73,0.040484
11597.62,0.041549
11623.62,0.042463
11649.74,0.04364
11675.98,0.044986
11702.34,0.046391
11728.81,0.047665
11755.41,0.049182
11782.13,0.05066
11808.96,0.052561
11835.92,0.054588
11863.01,0.056689
11890.22,0.058857
11917.55,0.061478
11945.01,0.0642
11972.6,0.06704
12000.31,0.069913
12028.16,0.07318
12056.13,0.076574
12084.23,0.080303
12112.46,0.084173
12140.83,0.088475
12169.33,0.092832
12197.96,0.097596
12226.73,0.102555
12255.64,0.10765
12284.68,0.112969
12313.86,0.118555
12343.18,0.124117
12372.64,0.129981
12402.24,0.135698
12431.98,0.141211
12461.86,0.146657
12491.89,0.151966
12522.07,0.156828
12552.38,0.161602
12582.85,0.165807
12613.47,0.169556
12644.23,0.172988
12675.15,0.175944
12706.21,0.178132
12737.43,0.179834
12768.81,0.180962
12800.33,0.181851
12832.02,0.182226
12863.86,0.182143
12895.86,0.181856
12928.02,0.181672
12960.34,0.181127
12992.82,0.18051
13025.46,0.179844
13058.27,0.179367
13091.25,0.178754
13124.39,0.17822
13157.7,0.177534
13191.18,0.177004
13224.83,0.176678
13258.66,0.176649
13292.65,0.176435
13326.83,0.176537
13361.17,0.176659
13395.7,0.176795
13430.4,0.176985
13465.29,0.177432
13500.35,0.177981
13535.6,0.178618
13571.03,0.179007
13606.65,0.179586
13642.46,0.18014
13678.46,0.180772
13714.64,0.181249
13751.02,0.181881
13787.59,0.182615
13824.36,0.183339
13861.32,0.183932
13898.49,0.184846
13935.85,0.185512
13973.41,0.186076
14011.17,0.186655
14049.15,0.187462
14087.32,0.187919
14125.71,0.188498
14164.3,0.189227
14203.11,0.19
14242.13,0.190501
14281.36,0.190928
14320.81,0.191308
14360.49,0.191604
14400.38,0.191799
14440.49,0.192086
14480.82,0.191969
14521.39,0.192168
14562.18,0.192372
14603.2,0.192295
14644.45,0.192319
14685.93,0.192484
14727.66,0.192285
14769.62,0.192246
14811.81,0.192319
14854.25,0.192231
14896.94,0.192124
14939.87,0.192314
14983.05,0.192581
15026.48,0.192698
15070.16,0.192591
15114.1,0.192295
15158.29,0.192178
15202.74,0.192484
15247.46,0.192878
15292.43,0.193175
15337.68,0.193184
15383.19,0.193354
15428.97,0.193612
15475.03,0.194137
15521.36,0.194492
15567.97,0.194687
15614.87,0.194896
15662.04,0.195105
15709.5,0.195299
15757.25,0.195333
15805.29,0.194876
15853.62,0.194735
15902.26,0.195017
15951.19,0.195635
16000.42,0.196354
16049.95,0.197137
16099.8,0.198027
16149.95,0.198897
16200.42,0.199534
16251.21,0.199942
16302.31,0.200613
16353.74,0.201376
16405.49,0.201683
16457.57,0.202315
16509.98,0.202709
16562.73,0.202748
16615.82,0.202514
16669.24,0.202733
16723.02,0.202986
16777.14,0.20284
16831.61,0.202621
16886.43,0.202592
16941.62,0.202514
16997.16,0.202611
17053.08,0.202572
17109.36,0.202174
17166.01,0.201897
17223.04,0.202013
17280.45,0.201819
17338.24,0.201226
17396.43,0.200399
17455.0,0.199884
17513.97,0.199208
17573.34,0.198527
17633.11,0.197487
17693.29,0.196617
17753.89,0.195455
17814.9,0.194468
17876.33,0.192941
17938.18,0.191196
18000.47,0.188692
18063.19,0.185201
18126.35,0.181224
18189.95,0.177199
18254.0,0.172429
18318.5,0.166687
18383.46,0.160698
18448.88,0.154645
18514.77,0.148067
18581.13,0.141644
18647.97,0.13562
18715.29,0.129101
18783.1,0.122625
18851.4,0.116397
18920.2,0.110261
18989.51,0.105215
19059.32,0.100479
19129.65,0.096001
19200.5,0.091426
19271.88,0.0876
19343.79,0.083555
19416.24,0.080108
19489.23,0.076549
19562.77,0.072898
19636.88,0.06984
19711.54,0.067842
19786.78,0.066539
19862.59,0.067044
19938.98,0.069621
20015.96,0.073331
20093.55,0.076613
20171.73,0.079899
20250.53,0.083195
20329.94,0.085801
20409.98,0.087454
20490.65,0.089501
20571.96,0.092982
20653.92,0.098807
20736.54,0.10555
20819.82,0.113431
20903.77,0.122951
20988.4,0.13317
21073.72,0.143526
21159.73,0.154115
21246.46,0.164043
21333.89,0.172181
21422.04,0.177884
21510.93,0.182124
21600.56,0.184803
21690.94,0.186786
21782.08,0.188575
21873.99,0.189844
21966.67,0.189198
22060.15,0.188707
22154.42,0.187885
22249.51,0.186951
22345.41,0.184934
22442.14,0.182265
22539.72,0.178934
22638.14,0.175896
22737.43,0.171335
22837.6,0.166128
22938.65,0.160916
23040.6,0.155218
23143.46,0.149943
23247.24,0.14462
23351.96,0.140205
23457.63,0.137998
23564.25,0.136486
23671.85,0.137925
23780.44,0.140905
23890.02,0.144547
24000.63,0.150075
24112.26,0.156361
24224.93,0.162258
24338.66,0.168968
24453.47,0.172317
24569.36,0.174816
24686.36,0.175638
24804.47,0.179892
24923.73,0.186446
25044.13,0.191283
25165.71,0.190778
25288.46,0.190457
25412.43,0.190924
25537.61,0.195382
25664.04,0.199772
25791.72,0.201556
25920.68,0.201746
