Database of Origin,University of Winnipeg Spectrophotometer Facility
Sample Description,"RELAB plus Nicolet Melilite data. Merged @2500nm, different viewing geometries. See Master Melilites in PSF sample database for additional info."
Date Added,2016-11-08 17:15:35.841924

Data ID,RLA_MEL_06          
Sample ID,MEL107
Mineral Name,Melilite
Grain Size,<45
Viewing Geometry,"30/0,30"
Resolution,5 nm
Material Class,Sorosilicate

Wavelength
300.0,0.17722
305.0,0.184154
310.0,0.188468
315.0,0.195322
320.0,0.204264
325.0,0.214309
330.0,0.221787
335.0,0.229407
340.0,0.237193
345.0,0.244519
350.0,0.251108
355.0,0.259197
360.0,0.266213
365.0,0.272794
370.0,0.280055
375.0,0.287518
380.0,0.295438
385.0,0.303367
390.0,0.311489
395.0,0.319838
400.0,0.326596
405.0,0.332412
410.0,0.334418
415.0,0.341218
420.0,0.347624
425.0,0.353703
430.0,0.359195
435.0,0.366546
440.0,0.373353
445.0,0.380574
450.0,0.388073
455.0,0.392815
460.0,0.396876
465.0,0.40104
470.0,0.404126
475.0,0.408051
480.0,0.4119
485.0,0.415962
490.0,0.419827
495.0,0.423993
500.0,0.428759
505.0,0.433354
510.0,0.437689
515.0,0.442456
520.0,0.453138
525.0,0.456905
530.0,0.461413
535.0,0.467066
540.0,0.472444
545.0,0.478322
550.0,0.485605
555.0,0.491981
560.0,0.499438
565.0,0.507483
570.0,0.51622
575.0,0.524475
580.0,0.531482
585.0,0.538874
590.0,0.54452
595.0,0.549466
600.0,0.552996
605.0,0.55667
610.0,0.558404
615.0,0.561252
620.0,0.562438
625.0,0.565197
630.0,0.565889
635.0,0.567834
640.0,0.56927
645.0,0.570428
650.0,0.571597
655.0,0.572724
660.0,0.574416
665.0,0.575335
670.0,0.576162
675.0,0.577712
680.0,0.579459
685.0,0.581773
690.0,0.582892
695.0,0.582656
700.0,0.58581
705.0,0.586852
710.0,0.588028
715.0,0.583628
720.0,0.585105
725.0,0.586073
730.0,0.588283
735.0,0.588778
740.0,0.590324
745.0,0.591392
750.0,0.591776
755.0,0.59272
760.0,0.593882
765.0,0.595323
770.0,0.594839
775.0,0.595705
780.0,0.59628
785.0,0.597754
790.0,0.598182
795.0,0.598958
800.0,0.600408
805.0,0.599641
810.0,0.599373
815.0,0.599484
820.0,0.600428
825.0,0.600607
830.0,0.600413
835.0,0.601638
840.0,0.601073
845.0,0.601517
850.0,0.601899
855.0,0.601134
860.0,0.600444
865.0,0.602467
870.0,0.602256
875.0,0.601286
880.0,0.602614
885.0,0.60195
890.0,0.603989
895.0,0.604124
900.0,0.603901
905.0,0.604919
910.0,0.605683
915.0,0.605555
920.0,0.606452
925.0,0.60697
930.0,0.607049
935.0,0.609286
940.0,0.608452
945.0,0.609456
950.0,0.610262
955.0,0.609756
960.0,0.610104
965.0,0.611312
970.0,0.611001
975.0,0.611608
980.0,0.611948
985.0,0.612514
990.0,0.611965
995.0,0.612117
1000.0,0.61152
1005.0,0.612096
1010.0,0.61173
1015.0,0.612066
1020.0,0.612385
1025.0,0.612846
1030.0,0.612989
1035.0,0.613331
1040.0,0.613735
1045.0,0.614226
1050.0,0.614155
1055.0,0.614961
1060.0,0.614504
1065.0,0.615238
1070.0,0.616107
1075.0,0.616525
1080.0,0.616858
1085.0,0.617346
1090.0,0.618008
1095.0,0.618489
1100.0,0.61837
1105.0,0.619078
1110.0,0.61912
1115.0,0.620604
1120.0,0.622067
1125.0,0.621838
1130.0,0.621624
1135.0,0.623429
1140.0,0.622693
1145.0,0.624012
1150.0,0.623869
1155.0,0.623801
1160.0,0.62422
1165.0,0.624954
1170.0,0.624919
1175.0,0.625375
1180.0,0.625933
1185.0,0.626357
1190.0,0.626583
1195.0,0.626859
1200.0,0.628718
1205.0,0.62958
1210.0,0.63034
1215.0,0.630449
1220.0,0.630846
1225.0,0.630708
1230.0,0.630896
1235.0,0.631906
1240.0,0.631842
1245.0,0.63252
1250.0,0.632918
1255.0,0.632724
1260.0,0.633453
1265.0,0.634063
1270.0,0.633928
1275.0,0.634407
1280.0,0.633999
1285.0,0.635127
1290.0,0.635527
1295.0,0.636188
1300.0,0.63636
1305.0,0.636975
1310.0,0.637825
1315.0,0.638325
1320.0,0.638621
1325.0,0.63956
1330.0,0.640049
1335.0,0.640722
1340.0,0.64092
1345.0,0.641599
1350.0,0.641492
1355.0,0.642395
1360.0,0.64399
1365.0,0.643108
1370.0,0.643251
1375.0,0.643618
1380.0,0.64616
1385.0,0.644043
1390.0,0.645671
1395.0,0.644088
1400.0,0.645635
1405.0,0.645426
1410.0,0.646546
1415.0,0.6468
1420.0,0.648388
1425.0,0.648702
1430.0,0.649551
1435.0,0.649675
1440.0,0.651037
1445.0,0.651118
1450.0,0.651965
1455.0,0.652104
1460.0,0.65258
1465.0,0.653618
1470.0,0.65403
1475.0,0.654528
1480.0,0.655163
1485.0,0.656299
1490.0,0.656053
1495.0,0.656581
1500.0,0.657496
1505.0,0.658885
1510.0,0.659397
1515.0,0.659589
1520.0,0.661197
1525.0,0.660814
1530.0,0.661033
1535.0,0.662013
1540.0,0.662796
1545.0,0.663773
1550.0,0.663933
1555.0,0.6636
1560.0,0.664556
1565.0,0.665448
1570.0,0.665728
1575.0,0.665607
1580.0,0.666156
1585.0,0.666689
1590.0,0.667225
1595.0,0.66841
1600.0,0.669054
1605.0,0.669444
1610.0,0.669402
1615.0,0.670343
1620.0,0.670078
1625.0,0.66945
1630.0,0.669893
1635.0,0.670108
1640.0,0.670714
1645.0,0.670269
1650.0,0.670717
1655.0,0.671794
1660.0,0.672871
1665.0,0.672022
1670.0,0.671358
1675.0,0.671644
1680.0,0.671478
1685.0,0.671158
1690.0,0.672406
1695.0,0.673324
1700.0,0.673895
1705.0,0.673435
1710.0,0.674398
1715.0,0.674296
1720.0,0.674493
1725.0,0.674991
1730.0,0.674844
1735.0,0.67434
1740.0,0.674715
1745.0,0.67399
1750.0,0.67453
1755.0,0.675033
1760.0,0.675411
1765.0,0.675542
1770.0,0.675141
1775.0,0.675072
1780.0,0.675554
1785.0,0.67573
1790.0,0.675934
1795.0,0.676345
1800.0,0.676557
1805.0,0.676857
1810.0,0.677226
1815.0,0.678046
1820.0,0.676967
1825.0,0.677943
1830.0,0.677783
1835.0,0.680679
1840.0,0.677928
1845.0,0.677998
1850.0,0.677421
1855.0,0.677244
1860.0,0.677431
1865.0,0.678402
1870.0,0.678435
1875.0,0.675464
1880.0,0.67555
1885.0,0.675126
1890.0,0.674517
1895.0,0.672808
1900.0,0.671287
1905.0,0.668535
1910.0,0.667345
1915.0,0.667103
1920.0,0.667851
1925.0,0.667741
1930.0,0.668095
1935.0,0.668351
1940.0,0.668766
1945.0,0.66889
1950.0,0.668994
1955.0,0.669626
1960.0,0.67026
1965.0,0.670743
1970.0,0.671302
1975.0,0.672052
1980.0,0.672586
1985.0,0.673084
1990.0,0.673291
1995.0,0.673561
2000.0,0.674537
2005.0,0.675529
2010.0,0.675976
2015.0,0.676346
2020.0,0.676782
2025.0,0.677215
2030.0,0.677745
2035.0,0.678803
2040.0,0.678743
2045.0,0.678957
2050.0,0.679411
2055.0,0.679132
2060.0,0.679176
2065.0,0.67945
2070.0,0.67905
2075.0,0.679502
2080.0,0.679501
2085.0,0.68011
2090.0,0.680136
2095.0,0.680363
2100.0,0.679849
2105.0,0.680377
2110.0,0.680472
2115.0,0.681094
2120.0,0.681445
2125.0,0.682066
2130.0,0.681814
2135.0,0.681656
2140.0,0.681086
2145.0,0.680388
2150.0,0.680173
2155.0,0.679637
2160.0,0.680288
2165.0,0.679042
2170.0,0.678398
2175.0,0.678391
2180.0,0.678286
2185.0,0.67833
2190.0,0.678007
2195.0,0.678155
2200.0,0.677852
2205.0,0.677948
2210.0,0.676977
2215.0,0.676571
2220.0,0.676611
2225.0,0.676724
2230.0,0.67594
2235.0,0.674972
2240.0,0.674837
2245.0,0.674314
2250.0,0.674439
2255.0,0.674153
2260.0,0.673522
2265.0,0.673288
2270.0,0.672597
2275.0,0.672412
2280.0,0.671476
2285.0,0.671409
2290.0,0.670776
2295.0,0.670191
2300.0,0.669229
2305.0,0.668625
2310.0,0.666961
2315.0,0.667057
2320.0,0.66612
2325.0,0.665411
2330.0,0.665059
2335.0,0.665333
2340.0,0.666384
2345.0,0.667103
2350.0,0.667472
2355.0,0.668237
2360.0,0.669983
2365.0,0.670925
2370.0,0.671772
2375.0,0.67245
2380.0,0.672406
2385.0,0.671818
2390.0,0.672286
2395.0,0.672123
2400.0,0.671243
2405.0,0.671908
2410.0,0.670794
2415.0,0.671173
2420.0,0.670503
2425.0,0.669482
2430.0,0.668847
2435.0,0.66729
2440.0,0.666362
2445.0,0.664967
2450.0,0.66437
2455.0,0.662293
2460.0,0.660486
2465.0,0.65967
2470.0,0.658205
2475.0,0.656611
2480.0,0.656538
2485.0,0.654371
2490.0,0.652997
2495.0,0.652046
2500.0,0.651348
2502.0,0.651129
2503.2,0.65134
2504.41,0.651248
2505.62,0.6514
2506.83,0.651324
2508.05,0.651169
2509.26,0.650622
2510.48,0.650574
2511.69,0.650502
2512.91,0.650139
2514.13,0.64994
2515.35,0.65004
2516.57,0.65004
2517.79,0.650103
2519.02,0.650159
2520.24,0.649812
2521.47,0.649585
2522.69,0.649385
2523.92,0.649154
2525.15,0.649202
2526.38,0.648819
2527.61,0.649114
2528.85,0.649457
2530.08,0.649493
2531.32,0.649609
2532.55,0.649182
2533.79,0.648663
2535.03,0.648843
2536.27,0.649585
2537.51,0.650235
2538.75,0.651037
2540.0,0.651416
2541.24,0.651823
2542.49,0.652118
2543.74,0.65294
2544.99,0.653922
2546.24,0.654165
2547.49,0.654424
2548.74,0.655087
2549.99,0.656116
2551.25,0.656323
2552.5,0.657014
2553.76,0.658075
2555.02,0.659156
2556.28,0.659427
2557.54,0.659866
2558.8,0.660277
2560.07,0.661147
2561.33,0.661031
2562.6,0.661163
2563.86,0.661909
2565.13,0.662978
2566.4,0.664143
2567.67,0.664223
2568.95,0.663633
2570.22,0.663673
2571.5,0.664726
2572.77,0.665595
2574.05,0.664901
2575.33,0.665715
2576.61,0.666134
2577.89,0.665767
2579.17,0.666186
2580.46,0.666358
2581.74,0.666509
2583.03,0.666477
2584.31,0.666166
2585.6,0.667479
2586.89,0.668189
2588.19,0.66789
2589.48,0.66862
2590.77,0.668943
2592.07,0.668624
2593.36,0.668149
2594.66,0.666445
2595.96,0.667922
2597.26,0.671444
2598.56,0.671947
2599.87,0.670467
2601.17,0.669625
2602.48,0.669262
2603.78,0.669282
2605.09,0.669091
2606.4,0.669537
2607.71,0.671097
2609.03,0.67103
2610.34,0.670331
2611.66,0.670714
2612.97,0.670479
2614.29,0.670583
2615.61,0.670986
2616.93,0.670619
2618.25,0.671317
2619.57,0.671831
2620.9,0.670922
2622.22,0.671648
2623.55,0.672262
2624.88,0.671736
2626.21,0.670894
2627.54,0.67087
2628.87,0.671712
2630.21,0.671201
2631.54,0.670982
2632.88,0.67257
2634.21,0.672103
2635.55,0.671289
2636.89,0.6717
2638.24,0.671464
2639.58,0.670914
2640.92,0.670778
2642.27,0.670938
2643.62,0.670774
2644.97,0.6701
2646.32,0.669577
2647.67,0.670427
2649.02,0.670567
2650.38,0.669725
2651.73,0.66923
2653.09,0.669067
2654.45,0.669043
2655.81,0.669035
2657.17,0.668939
2658.53,0.668312
2659.89,0.667443
2661.26,0.667
2662.63,0.667076
2664.0,0.665691
2665.36,0.664335
2666.74,0.664004
2668.11,0.665284
2669.48,0.66451
2670.86,0.661147
2672.23,0.659595
2673.61,0.65849
2674.99,0.655202
2676.37,0.653032
2677.76,0.652856
2679.14,0.652916
2680.52,0.65221
2681.91,0.651604
2683.3,0.649541
2684.69,0.648148
2686.08,0.646493
2687.47,0.643843
2688.87,0.641067
2690.26,0.638537
2691.66,0.635461
2693.06,0.632078
2694.46,0.628475
2695.86,0.625235
2697.26,0.621673
2698.66,0.617427
2700.07,0.61272
2701.48,0.607601
2702.89,0.602191
2704.3,0.596278
2705.71,0.589435
2707.12,0.581979
2708.53,0.574143
2709.95,0.565984
2711.37,0.558292
2712.79,0.551932
2714.21,0.545461
2715.63,0.538439
2717.05,0.532159
2718.48,0.526426
2719.9,0.520373
2721.33,0.514141
2722.76,0.508695
2724.19,0.502236
2725.62,0.495198
2727.06,0.489712
2728.49,0.484071
2729.93,0.478996
2731.37,0.474224
2732.81,0.469572
2734.25,0.464649
2735.69,0.460156
2737.14,0.456533
2738.58,0.452356
2740.03,0.447776
2741.48,0.444712
2742.93,0.442075
2744.38,0.439134
2745.83,0.435659
2747.29,0.432308
2748.75,0.429335
2750.2,0.427149
2751.66,0.425302
2753.13,0.423427
2754.59,0.421603
2756.05,0.419808
2757.52,0.418962
2758.99,0.41745
2760.46,0.41504
2761.93,0.412954
2763.4,0.411697
2764.87,0.411314
2766.35,0.410647
2767.82,0.409163
2769.3,0.40819
2770.78,0.406977
2772.26,0.406151
2773.75,0.405361
2775.23,0.404072
2776.72,0.403227
2778.21,0.402624
2779.7,0.402249
2781.19,0.40195
2782.68,0.401535
2784.18,0.401754
2785.67,0.402097
2787.17,0.40171
2788.67,0.402217
2790.17,0.402887
2791.67,0.403011
2793.18,0.403003
2794.68,0.402967
2796.19,0.40329
2797.7,0.403921
2799.21,0.404408
2800.72,0.404487
2802.24,0.404471
2803.75,0.404751
2805.27,0.405581
2806.79,0.405991
2808.31,0.406119
2809.83,0.406546
2811.35,0.407069
2812.88,0.407727
2814.41,0.407986
2815.93,0.40799
2817.46,0.408202
2819.0,0.408768
2820.53,0.408948
2822.07,0.409534
2823.6,0.410177
2825.14,0.410815
2826.68,0.411789
2828.22,0.412499
2829.77,0.413013
2831.31,0.414051
2832.86,0.415204
2834.41,0.416185
2835.96,0.416955
2837.51,0.417869
2839.07,0.418787
2840.62,0.41972
2842.18,0.420135
2843.74,0.420761
2845.3,0.421711
2846.86,0.422274
2848.43,0.422776
2849.99,0.423478
2851.56,0.424113
2853.13,0.42428
2854.7,0.42424
2856.27,0.424743
2857.85,0.425242
2859.42,0.425661
2861.0,0.425972
2862.58,0.4261
2864.16,0.426064
2865.75,0.426471
2867.33,0.426842
2868.92,0.426618
2870.51,0.42665
2872.1,0.427069
2873.69,0.427352
2875.28,0.427488
2876.88,0.427544
2878.48,0.427783
2880.07,0.427696
2881.68,0.427676
2883.28,0.427716
2884.88,0.427712
2886.49,0.427684
2888.1,0.428011
2889.71,0.428346
2891.32,0.428466
2892.93,0.428581
2894.55,0.428577
2896.16,0.428645
2897.78,0.428813
2899.4,0.428717
2901.03,0.428861
2902.65,0.429216
2904.28,0.429383
2905.91,0.429339
2907.54,0.429503
2909.17,0.429499
2910.8,0.429519
2912.44,0.429471
2914.07,0.429838
2915.71,0.430273
2917.35,0.430397
2918.99,0.430632
2920.64,0.430927
2922.29,0.431318
2923.93,0.431733
2925.58,0.431973
2927.24,0.432188
2928.89,0.432483
2930.55,0.432527
2932.2,0.432767
2933.86,0.433297
2935.52,0.433509
2937.19,0.433912
2938.85,0.434327
2940.52,0.434307
2942.19,0.43453
2943.86,0.435436
2945.53,0.435926
2947.21,0.436393
2948.88,0.436557
2950.56,0.436848
2952.24,0.43773
2953.92,0.438368
2955.61,0.438679
2957.29,0.43913
2958.98,0.439729
2960.67,0.440235
2962.36,0.440682
2964.06,0.441624
2965.75,0.442346
2967.45,0.442641
2969.15,0.442885
2970.85,0.443152
2972.55,0.444038
2974.26,0.445055
2975.97,0.445865
2977.68,0.446495
2979.39,0.446986
2981.1,0.447632
2982.82,0.448215
2984.53,0.448622
2986.25,0.449328
2987.97,0.450266
2989.7,0.451139
2991.42,0.451614
2993.15,0.451929
2994.88,0.452604
2996.61,0.452915
2998.34,0.453621
3000.08,0.454558
3001.82,0.455261
3003.55,0.455939
3005.3,0.456414
3007.04,0.456713
3008.78,0.457499
3010.53,0.458341
3012.28,0.459051
3014.03,0.459677
3015.79,0.460232
3017.54,0.46101
3019.3,0.461525
3021.06,0.462015
3022.82,0.462291
3024.58,0.462446
3026.35,0.462729
3028.12,0.463264
3029.89,0.464066
3031.66,0.464633
3033.43,0.465243
3035.21,0.46573
3036.99,0.466117
3038.77,0.466412
3040.55,0.467026
3042.33,0.467605
3044.12,0.468148
3045.91,0.468582
3047.7,0.468945
3049.49,0.469372
3051.29,0.469931
3053.08,0.470414
3054.88,0.470673
3056.68,0.470952
3058.49,0.471192
3060.29,0.471846
3062.1,0.472628
3063.91,0.473171
3065.72,0.473989
3067.54,0.474611
3069.35,0.474675
3071.17,0.474487
3072.99,0.474687
3074.81,0.475377
3076.64,0.475752
3078.47,0.476219
3080.29,0.476434
3082.13,0.47659
3083.96,0.476853
3085.79,0.477184
3087.63,0.477659
3089.47,0.477898
3091.31,0.478094
3093.16,0.478373
3095.01,0.478764
3096.85,0.479287
3098.71,0.479965
3100.56,0.480228
3102.41,0.4804
3104.27,0.480592
3106.13,0.48105
3107.99,0.481501
3109.86,0.481936
3111.73,0.482379
3113.59,0.483013
3115.47,0.48332
3117.34,0.483719
3119.21,0.484262
3121.09,0.484821
3122.97,0.485327
3124.86,0.485694
3126.74,0.486121
3128.63,0.486712
3130.52,0.487358
3132.41,0.487809
3134.3,0.488148
3136.2,0.488471
3138.1,0.488739
3140.0,0.489106
3141.9,0.489584
3143.81,0.489971
3145.71,0.490338
3147.62,0.490965
3149.54,0.491499
3151.45,0.491815
3153.37,0.492373
3155.29,0.492928
3157.21,0.493347
3159.13,0.493941
3161.06,0.494627
3162.99,0.49529
3164.92,0.495884
3166.85,0.496459
3168.79,0.497033
3170.72,0.497432
3172.67,0.497556
3174.61,0.497983
3176.55,0.498773
3178.5,0.499503
3180.45,0.500189
3182.4,0.50058
3184.36,0.500979
3186.32,0.501462
3188.27,0.501945
3190.24,0.502547
3192.2,0.50305
3194.17,0.503353
3196.14,0.503848
3198.11,0.504255
3200.08,0.504578
3202.06,0.505096
3204.04,0.505555
3206.02,0.505559
3208.0,0.505803
3209.99,0.506493
3211.98,0.507099
3213.97,0.507706
3215.96,0.50826
3217.96,0.5083
3219.96,0.508783
3221.96,0.509465
3223.96,0.5101
3225.97,0.510507
3227.98,0.510766
3229.99,0.511169
3232.0,0.511751
3234.02,0.51227
3236.04,0.512402
3238.06,0.512641
3240.08,0.51314
3242.11,0.513499
3244.14,0.513635
3246.17,0.513902
3248.2,0.514033
3250.24,0.514185
3252.28,0.514756
3254.32,0.51539
3256.37,0.515605
3258.41,0.515889
3260.46,0.515961
3262.51,0.516076
3264.57,0.516348
3266.63,0.516483
3268.69,0.516423
3270.75,0.516312
3272.81,0.516128
3274.88,0.516272
3276.95,0.515913
3279.02,0.515585
3281.1,0.515342
3283.18,0.514979
3285.26,0.514269
3287.34,0.513559
3289.43,0.512621
3291.51,0.511548
3293.61,0.510311
3295.7,0.50836
3297.8,0.505735
3299.9,0.50301
3302.0,0.499638
3304.1,0.495222
3306.21,0.489752
3308.32,0.483524
3310.43,0.4771
3312.55,0.470757
3314.66,0.464868
3316.79,0.46018
3318.91,0.456581
3321.03,0.454175
3323.16,0.452615
3325.29,0.451925
3327.43,0.45167
3329.57,0.451399
3331.71,0.451155
3333.85,0.450688
3335.99,0.449695
3338.14,0.448362
3340.29,0.446479
3342.45,0.443499
3344.6,0.439856
3346.76,0.436226
3348.92,0.432631
3351.09,0.429878
3353.26,0.428198
3355.43,0.427496
3357.6,0.42752
3359.78,0.428621
3361.96,0.430149
3364.14,0.431833
3366.32,0.433572
3368.51,0.435037
3370.7,0.436086
3372.89,0.437315
3375.09,0.438695
3377.29,0.439904
3379.49,0.440949
3381.69,0.442003
3383.9,0.442833
3386.11,0.443667
3388.32,0.444209
3390.54,0.444508
3392.76,0.44458
3394.98,0.444309
3397.21,0.443898
3399.43,0.443459
3401.66,0.443056
3403.9,0.442442
3406.13,0.441835
3408.37,0.441021
3410.61,0.440387
3412.86,0.439685
3415.11,0.438975
3417.36,0.438288
3419.61,0.437554
3421.87,0.437079
3424.13,0.436696
3426.39,0.436405
3428.66,0.435763
3430.93,0.434534
3433.2,0.43305
3435.48,0.431697
3437.76,0.430229
3440.04,0.428506
3442.32,0.426275
3444.61,0.423606
3446.9,0.420849
3449.19,0.418192
3451.49,0.415323
3453.79,0.412311
3456.09,0.409542
3458.4,0.407196
3460.7,0.405034
3463.02,0.402959
3465.33,0.400789
3467.65,0.398263
3469.97,0.395714
3472.29,0.393627
3474.62,0.391784
3476.95,0.390551
3479.29,0.39042
3481.62,0.391297
3483.96,0.393312
3486.3,0.396241
3488.65,0.399552
3491.0,0.402995
3493.35,0.406706
3495.71,0.410651
3498.07,0.414709
3500.43,0.419042
3502.79,0.423782
3505.16,0.428597
3507.53,0.433768
3509.91,0.439058
3512.29,0.44454
3514.67,0.450389
3517.05,0.456458
3519.44,0.462981
3521.83,0.469704
3524.23,0.476729
3526.62,0.483879
3529.02,0.490801
3531.43,0.497213
3533.83,0.503301
3536.24,0.50854
3538.66,0.513343
3541.08,0.517544
3543.5,0.521299
3545.92,0.52453
3548.35,0.527236
3550.78,0.529625
3553.21,0.531716
3555.65,0.533563
3558.09,0.535215
3560.53,0.536643
3562.98,0.538163
3565.43,0.539675
3567.88,0.541092
3570.34,0.542309
3572.8,0.543502
3575.27,0.544703
3577.73,0.546087
3580.2,0.547412
3582.68,0.548696
3585.16,0.549853
3587.64,0.550978
3590.12,0.552255
3592.61,0.553328
3595.1,0.554174
3597.6,0.554972
3600.09,0.555579
3602.6,0.556325
3605.1,0.556807
3607.61,0.557242
3610.12,0.557577
3612.64,0.557956
3615.16,0.558459
3617.68,0.55897
3620.21,0.559353
3622.74,0.559644
3625.27,0.559744
3627.81,0.560015
3630.35,0.560239
3632.89,0.56053
3635.44,0.560717
3637.99,0.560981
3640.54,0.560801
3643.1,0.560969
3645.66,0.561264
3648.23,0.561459
3650.8,0.561695
3653.37,0.561795
3655.95,0.561711
3658.53,0.561723
3661.11,0.561711
3663.7,0.561803
3666.29,0.561787
3668.89,0.561639
3671.48,0.561615
3674.09,0.561707
3676.69,0.561715
3679.3,0.561775
3681.91,0.561695
3684.53,0.561559
3687.15,0.561288
3689.78,0.561088
3692.4,0.560837
3695.04,0.560574
3697.67,0.560235
3700.31,0.560091
3702.95,0.559876
3705.6,0.559588
3708.25,0.559114
3710.91,0.558511
3713.56,0.558072
3716.23,0.55747
3718.89,0.556935
3721.56,0.556496
3724.23,0.556073
3726.91,0.555591
3729.59,0.554765
3732.28,0.554007
3734.97,0.553249
3737.66,0.552439
3740.36,0.551409
3743.06,0.550384
3745.76,0.549055
3748.47,0.547527
3751.18,0.545796
3753.9,0.543765
3756.62,0.541387
3759.34,0.538499
3762.07,0.535035
3764.8,0.531285
3767.54,0.527084
3770.28,0.522783
3773.02,0.518215
3775.77,0.513471
3778.52,0.50856
3781.28,0.503684
3784.04,0.498693
3786.8,0.493614
3789.57,0.488232
3792.34,0.482602
3795.12,0.476765
3797.9,0.470629
3800.69,0.464353
3803.47,0.458113
3806.27,0.452153
3809.06,0.446719
3811.86,0.441943
3814.67,0.438236
3817.48,0.435603
3820.29,0.43394
3823.11,0.432938
3825.93,0.432555
3828.76,0.432683
3831.59,0.433114
3834.42,0.43378
3837.26,0.43469
3840.1,0.435651
3842.95,0.436625
3845.8,0.437622
3848.65,0.438432
3851.51,0.438851
3854.38,0.438779
3857.24,0.43771
3860.12,0.435571
3862.99,0.432228
3865.87,0.427851
3868.76,0.42272
3871.65,0.417562
3874.54,0.412666
3877.44,0.408501
3880.34,0.40505
3883.25,0.402097
3886.16,0.399392
3889.07,0.396624
3891.99,0.394094
3894.92,0.391896
3897.85,0.389829
3900.78,0.387655
3903.72,0.385424
3906.66,0.382927
3909.6,0.379779
3912.55,0.375901
3915.51,0.371528
3918.47,0.366888
3921.43,0.361969
3924.4,0.357025
3927.38,0.352393
3930.35,0.348244
3933.33,0.344502
3936.32,0.340963
3939.31,0.33732
3942.31,0.332979
3945.31,0.327833
3948.31,0.322319
3951.32,0.316793
3954.34,0.311399
3957.35,0.306408
3960.38,0.301951
3963.41,0.298129
3966.44,0.294953
3969.48,0.292428
3972.52,0.290884
3975.56,0.290293
3978.61,0.290505
3981.67,0.291634
3984.73,0.29402
3987.8,0.297854
3990.87,0.30336
3993.94,0.310585
3997.02,0.31951
4000.1,0.329592
4003.19,0.340596
4006.29,0.352182
4009.39,0.36398
4012.49,0.375749
4015.6,0.386865
4018.71,0.396995
4021.83,0.406175
4024.95,0.414669
4028.08,0.422565
4031.21,0.430006
4034.35,0.437271
4037.49,0.444405
4040.64,0.451438
4043.79,0.458121
4046.94,0.464429
4050.11,0.470274
4053.27,0.475668
4056.44,0.480328
4059.62,0.484318
4062.8,0.487853
4065.99,0.491132
4069.18,0.494053
4072.38,0.496734
4075.58,0.499168
4078.78,0.50155
4082.0,0.503624
4085.21,0.505755
4088.43,0.507558
4091.66,0.509154
4094.89,0.510526
4098.13,0.511899
4101.37,0.513116
4104.62,0.514281
4107.87,0.515286
4111.13,0.516332
4114.39,0.517237
4117.66,0.518067
4120.93,0.518945
4124.21,0.519591
4127.5,0.520273
4130.79,0.520856
4134.08,0.521327
4137.38,0.521837
4140.68,0.522125
4143.99,0.522432
4147.31,0.522783
4150.63,0.523146
4153.95,0.523342
4157.29,0.523585
4160.62,0.523796
4163.96,0.523968
4167.31,0.524191
4170.66,0.524503
4174.02,0.524654
4177.39,0.524718
4180.75,0.524866
4184.13,0.525017
4187.51,0.524917
4190.89,0.525013
4194.28,0.525077
4197.68,0.525089
4201.08,0.525065
4204.49,0.525089
4207.9,0.525097
4211.32,0.525085
4214.74,0.524909
4218.17,0.524762
4221.61,0.524554
4225.05,0.524119
4228.5,0.523625
4231.95,0.523258
4235.4,0.523154
4238.87,0.522807
4242.34,0.522368
4245.81,0.522177
4249.29,0.521754
4252.78,0.521027
4256.27,0.52009
4259.77,0.519332
4263.27,0.518885
4266.78,0.518709
4270.29,0.518478
4273.81,0.518191
4277.34,0.518011
4280.87,0.517951
4284.41,0.51778
4287.95,0.517337
4291.5,0.51675
4295.06,0.516395
4298.62,0.516136
4302.19,0.515729
4305.76,0.515103
4309.34,0.514584
4312.92,0.514029
4316.52,0.513567
4320.11,0.513084
4323.72,0.512621
4327.32,0.511967
4330.94,0.511424
4334.56,0.511069
4338.19,0.510698
4341.82,0.510351
4345.46,0.510104
4349.11,0.509697
4352.76,0.509385
4356.42,0.50917
4360.08,0.508811
4363.75,0.508424
4367.43,0.507937
4371.11,0.507462
4374.8,0.506964
4378.49,0.506341
4382.19,0.505675
4385.9,0.504989
4389.61,0.504195
4393.33,0.503205
4397.06,0.502344
4400.79,0.501318
4404.53,0.500297
4408.28,0.499387
4412.03,0.498398
4415.79,0.49736
4419.55,0.496219
4423.32,0.495122
4427.1,0.494057
4430.88,0.492972
4434.68,0.491938
4438.47,0.490829
4442.28,0.489788
4446.08,0.488723
4449.9,0.487833
4453.72,0.486871
4457.55,0.486109
4461.39,0.485447
4465.23,0.484789
4469.08,0.483975
4472.94,0.483205
4476.8,0.482435
4480.67,0.481912
4484.55,0.481266
4488.43,0.480588
4492.32,0.479802
4496.21,0.47894
4500.12,0.477922
4504.03,0.476973
4507.94,0.475888
4511.87,0.474854
4515.8,0.473546
4519.73,0.472201
4523.68,0.470733
4527.63,0.469293
4531.59,0.467749
4535.55,0.466332
4539.52,0.464756
4543.5,0.463272
4547.49,0.461784
4551.48,0.460364
4555.48,0.458979
4559.49,0.457575
4563.5,0.456023
4567.52,0.454407
4571.55,0.452811
4575.58,0.451251
4579.63,0.449607
4583.67,0.447971
4587.73,0.446439
4591.79,0.444911
4595.86,0.443379
4599.94,0.441747
4604.03,0.439872
4608.12,0.438065
4612.22,0.436254
4616.33,0.434362
4620.44,0.432415
4624.56,0.430636
4628.69,0.428833
4632.83,0.427125
4636.97,0.42531
4641.12,0.423522
4645.28,0.421934
4649.45,0.420474
4653.62,0.418942
4657.8,0.417781
4661.99,0.416891
4666.19,0.416417
4670.39,0.416129
4674.6,0.416193
4678.82,0.416512
4683.05,0.417011
4687.28,0.417621
4691.52,0.418348
4695.77,0.419186
4700.03,0.420067
4704.3,0.420889
4708.57,0.421823
4712.85,0.422597
4717.14,0.42359
4721.43,0.42436
4725.74,0.425011
4730.05,0.425421
4734.37,0.425545
4738.7,0.425485
4743.03,0.425433
4747.38,0.42515
4751.73,0.424759
4756.09,0.424125
4760.45,0.423443
4764.83,0.422641
4769.21,0.421799
4773.6,0.420885
4778.0,0.420067
4782.41,0.419341
4786.83,0.418783
4791.25,0.418252
4795.68,0.418052
4800.13,0.417949
4804.57,0.418036
4809.03,0.41814
4813.5,0.418364
4817.97,0.418787
4822.45,0.419221
4826.94,0.419708
4831.44,0.420223
4835.95,0.420538
4840.46,0.420698
4844.99,0.420634
4849.52,0.420462
4854.06,0.420199
4858.61,0.419816
4863.17,0.419237
4867.73,0.418531
4872.31,0.417618
4876.89,0.416684
4881.48,0.415926
4886.08,0.415387
4890.69,0.414693
4895.31,0.414063
4899.94,0.413356
4904.57,0.412818
4909.22,0.4121
4913.87,0.411537
4918.53,0.411262
4923.21,0.411158
4927.88,0.410955
4932.57,0.410787
4937.27,0.410624
4941.98,0.410372
4946.69,0.409893
4951.42,0.409199
4956.15,0.408122
4960.9,0.406849
4965.65,0.405341
4970.41,0.403641
4975.18,0.401694
4979.96,0.39964
4984.75,0.397749
4989.54,0.396276
4994.35,0.395087
4999.17,0.394026
5003.99,0.393069
5008.83,0.392203
5013.67,0.391297
5018.52,0.390575
5023.39,0.390148
5028.26,0.390248
5033.14,0.390503
5038.03,0.391034
5042.93,0.391469
5047.84,0.391932
5052.76,0.392099
5057.69,0.391995
5062.63,0.391596
5067.58,0.390954
5072.54,0.390052
5077.51,0.389223
5082.49,0.388245
5087.47,0.387331
5092.47,0.386198
5097.48,0.384758
5102.5,0.383138
5107.52,0.381885
5112.56,0.380872
5117.61,0.379887
5122.66,0.378694
5127.73,0.377241
5132.81,0.37565
5137.89,0.374082
5142.99,0.372334
5148.1,0.370614
5153.22,0.368911
5158.34,0.367195
5163.48,0.365476
5168.63,0.363696
5173.79,0.361833
5178.96,0.360014
5184.13,0.358067
5189.32,0.356152
5194.52,0.354217
5199.73,0.352234
5204.96,0.350231
5210.19,0.348244
5215.43,0.346129
5220.68,0.344167
5225.94,0.34204
5231.22,0.339961
5236.5,0.337779
5241.79,0.335788
5247.1,0.333857
5252.42,0.332169
5257.74,0.330474
5263.08,0.328826
5268.43,0.32725
5273.79,0.325726
5279.16,0.32413
5284.54,0.32259
5289.93,0.321022
5295.34,0.319578
5300.75,0.318161
5306.18,0.316701
5311.61,0.315289
5317.06,0.314132
5322.52,0.312931
5327.99,0.311682
5333.47,0.310425
5338.96,0.309288
5344.47,0.307968
5349.98,0.306643
5355.51,0.305358
5361.05,0.303938
5366.6,0.302566
5372.16,0.301297
5377.73,0.299912
5383.32,0.298468
5388.91,0.296912
5394.52,0.295396
5400.14,0.293696
5405.77,0.291737
5411.41,0.289559
5417.07,0.287269
5422.74,0.284576
5428.41,0.281739
5434.1,0.278579
5439.81,0.275124
5445.52,0.271258
5451.25,0.266833
5456.98,0.261878
5462.73,0.256217
5468.5,0.249666
5474.27,0.242145
5480.06,0.234122
5485.86,0.225819
5491.67,0.217848
5497.49,0.210754
5503.33,0.204745
5509.18,0.199922
5515.04,0.196056
5520.91,0.192864
5526.8,0.190282
5532.69,0.187984
5538.61,0.18559
5544.53,0.182566
5550.47,0.178608
5556.41,0.173757
5562.38,0.169544
5568.35,0.167529
5574.34,0.167641
5580.34,0.168909
5586.35,0.172388
5592.38,0.178848
5598.42,0.18656
5604.47,0.193291
5610.54,0.198294
5616.61,0.201801
5622.71,0.20435
5628.81,0.205958
5634.93,0.2069
5641.06,0.207299
5647.21,0.207482
5653.36,0.207582
5659.54,0.207458
5665.72,0.207275
5671.92,0.207055
5678.13,0.20684
5684.36,0.206636
5690.6,0.206537
5696.85,0.206477
5703.12,0.206437
5709.4,0.206469
5715.69,0.206533
5722.0,0.206469
5728.33,0.206489
5734.66,0.206417
5741.01,0.206425
5747.38,0.206377
5753.76,0.206333
5760.15,0.206285
5766.56,0.206106
5772.98,0.206138
5779.41,0.206182
5785.86,0.206221
5792.33,0.206297
5798.81,0.206401
5805.3,0.206608
5811.81,0.206736
5818.33,0.206968
5824.87,0.207091
5831.42,0.207223
5837.99,0.207127
5844.57,0.20688
5851.17,0.206505
5857.78,0.206062
5864.41,0.205427
5871.05,0.204909
5877.7,0.204171
5884.38,0.203457
5891.06,0.202607
5897.76,0.201729
5904.48,0.200799
5911.21,0.199722
5917.96,0.198856
5924.73,0.198027
5931.5,0.197141
5938.3,0.196355
5945.11,0.195693
5951.93,0.194879
5958.78,0.194133
5965.63,0.193402
5972.51,0.1926
5979.39,0.191683
5986.3,0.190685
5993.22,0.189752
6000.16,0.188655
6007.11,0.187701
6014.08,0.186624
6021.06,0.185491
6028.06,0.18431
6035.08,0.183121
6042.12,0.181924
6049.17,0.180799
6056.23,0.179574
6063.32,0.178357
6070.42,0.17732
6077.53,0.176386
6084.67,0.175377
6091.82,0.174367
6098.98,0.17329
6106.17,0.172329
6113.37,0.171359
6120.58,0.170302
6127.82,0.169177
6135.07,0.168267
6142.34,0.167545
6149.63,0.166982
6156.93,0.166476
6164.25,0.166069
6171.59,0.16565
6178.95,0.165307
6186.32,0.165119
6193.71,0.164892
6201.12,0.164521
6208.54,0.164194
6215.99,0.16389
6223.45,0.163595
6230.93,0.163312
6238.43,0.163236
6245.95,0.163344
6253.48,0.163627
6261.03,0.16407
6268.6,0.164732
6276.19,0.165454
6283.8,0.166192
6291.43,0.16703
6299.07,0.167972
6306.73,0.169249
6314.42,0.171056
6322.12,0.173091
6329.84,0.175153
6337.57,0.177252
6345.33,0.179554
6353.11,0.181944
6360.9,0.183819
6368.72,0.185315
6376.55,0.18642
6384.4,0.186803
6392.27,0.186468
6400.17,0.185239
6408.08,0.183468
6416.01,0.18127
6423.96,0.178038
6431.93,0.174603
6439.92,0.171311
6447.93,0.167453
6455.96,0.163583
6464.01,0.15929
6472.08,0.154977
6480.17,0.150417
6488.28,0.145917
6496.41,0.14148
6504.56,0.136632
6512.73,0.132064
6520.92,0.128322
6529.14,0.124224
6537.37,0.120171
6545.63,0.116361
6553.9,0.112766
6562.2,0.109267
6570.51,0.106175
6578.85,0.103011
6587.21,0.099831
6595.59,0.09709
6603.99,0.094469
6612.42,0.091872
6620.86,0.089685
6629.33,0.087575
6637.82,0.085648
6646.33,0.083509
6654.86,0.081546
6663.41,0.079831
6671.99,0.078267
6680.59,0.076623
6689.21,0.075091
6697.85,0.073515
6706.51,0.072266
6715.2,0.071109
6723.91,0.070056
6732.64,0.06901
6741.4,0.068173
6750.18,0.067307
6758.98,0.066664
6767.8,0.066038
6776.65,0.065476
6785.52,0.064913
6794.41,0.064486
6803.33,0.063963
6812.27,0.063644
6821.23,0.063385
6830.22,0.063177
6839.23,0.062818
6848.26,0.062679
6857.32,0.062507
6866.4,0.062324
6875.51,0.0622
6884.64,0.062256
6893.8,0.062324
6902.98,0.062479
6912.18,0.062679
6921.41,0.062998
6930.66,0.063229
6939.94,0.063445
6949.24,0.063776
6958.57,0.064271
6967.92,0.064901
6977.3,0.065583
6986.7,0.066357
6996.13,0.067379
7005.59,0.068468
7015.07,0.069657
7024.57,0.070914
7034.1,0.072294
7043.66,0.073678
7053.25,0.075167
7062.85,0.076519
7072.49,0.077696
7082.15,0.078634
7091.84,0.07918
7101.55,0.079196
7111.3,0.079093
7121.06,0.078793
7130.86,0.07853
7140.68,0.078486
7150.53,0.078869
7160.41,0.079571
7170.31,0.080645
7180.24,0.082049
7190.2,0.083693
7200.19,0.08554
7210.2,0.087627
7220.24,0.089881
7230.31,0.092159
7240.41,0.094501
7250.54,0.096915
7260.69,0.099301
7270.88,0.101746
7281.09,0.104308
7291.33,0.106977
7301.6,0.109638
7311.9,0.112554
7322.22,0.115634
7332.58,0.118663
7342.97,0.121631
7353.38,0.124571
7363.83,0.127352
7374.3,0.129822
7384.81,0.13218
7395.34,0.134422
7405.91,0.136429
7416.5,0.138212
7427.13,0.13996
7437.78,0.141624
7448.47,0.143263
7459.19,0.144859
7469.94,0.146387
7480.71,0.14778
7491.52,0.149053
7502.37,0.150194
7513.24,0.151227
7524.14,0.152093
7535.08,0.152867
7546.05,0.153597
7557.05,0.154307
7568.08,0.154917
7579.15,0.155472
7590.24,0.155987
7601.37,0.156525
7612.53,0.157076
7623.73,0.157595
7634.96,0.158109
7646.22,0.158795
7657.51,0.159406
7668.84,0.159992
7680.2,0.160511
7691.59,0.16097
7703.02,0.161241
7714.49,0.161532
7725.98,0.161752
7737.52,0.161872
7749.08,0.16182
7760.68,0.161596
7772.32,0.161313
7783.99,0.161117
7795.69,0.160854
7807.43,0.160539
7819.21,0.160363
7831.02,0.16032
7842.87,0.160343
7854.75,0.160363
7866.67,0.160296
7878.62,0.160244
7890.62,0.16016
7902.64,0.159881
7914.71,0.159553
7926.81,0.159238
7938.95,0.158935
7951.13,0.15868
7963.34,0.158309
7975.59,0.157966
7987.88,0.157638
8000.21,0.157319
8012.57,0.15692
8024.98,0.156501
8037.42,0.155963
8049.9,0.155408
8062.42,0.154893
8074.98,0.15453
8087.57,0.154223
8100.21,0.153992
8112.89,0.153816
8125.6,0.153677
8138.36,0.153581
8151.16,0.153481
8163.99,0.153413
8176.87,0.153322
8189.79,0.153114
8202.75,0.152879
8215.75,0.152536
8228.79,0.151997
8241.87,0.151307
8254.99,0.150481
8268.16,0.149451
8281.37,0.148442
8294.62,0.147413
8307.91,0.146208
8321.24,0.144899
8334.62,0.143487
8348.04,0.141903
8361.51,0.140207
8375.02,0.138296
8388.57,0.136126
8402.16,0.133832
8415.8,0.131446
8429.49,0.129084
8443.22,0.126706
8456.99,0.124372
8470.81,0.12209
8484.67,0.119852
8498.58,0.117777
8512.54,0.115866
8526.54,0.114055
8540.58,0.112219
8554.68,0.110444
8568.82,0.108696
8583.0,0.106769
8597.24,0.104922
8611.52,0.103179
8625.85,0.101595
8640.23,0.100079
8654.65,0.098602
8669.12,0.09721
8683.64,0.095809
8698.21,0.094417
8712.83,0.093033
8727.5,0.09154
8742.22,0.090156
8756.99,0.088776
8771.8,0.087431
8786.67,0.086114
8801.59,0.08479
8816.56,0.083553
8831.58,0.082416
8846.65,0.081239
8861.77,0.080146
8876.94,0.079232
8892.17,0.078386
8907.45,0.077664
8922.78,0.077058
8938.16,0.076515
8953.6,0.076172
8969.09,0.075869
8984.64,0.075709
9000.23,0.075578
9015.89,0.075374
9031.59,0.075199
9047.36,0.075242
9063.17,0.075302
9079.05,0.075334
9094.97,0.07541
9110.96,0.075578
9127.0,0.075793
9143.1,0.0762
9159.25,0.076559
9175.46,0.076934
9191.73,0.077257
9208.06,0.077385
9224.44,0.077401
9240.88,0.077624
9257.38,0.078051
9273.94,0.078446
9290.56,0.078725
9307.24,0.078945
9323.98,0.079009
9340.78,0.079061
9357.64,0.079388
9374.57,0.079755
9391.55,0.080126
9408.59,0.080696
9425.7,0.081211
9442.87,0.081734
9460.1,0.082256
9477.4,0.082735
9494.75,0.08321
9512.17,0.083896
9529.66,0.084714
9547.21,0.085456
9564.83,0.086234
9582.5,0.086869
9600.25,0.087259
9618.06,0.08765
9635.94,0.087746
9653.88,0.087607
9671.89,0.087196
9689.97,0.086609
9708.12,0.085823
9726.33,0.084702
9744.62,0.083346
9762.97,0.082061
9781.39,0.081059
9799.88,0.080469
9818.44,0.080202
9837.07,0.080509
9855.77,0.081279
9874.54,0.082236
9893.39,0.08327
9912.3,0.084215
9931.29,0.084906
9950.36,0.08534
9969.49,0.085592
9988.7,0.085819
10007.98,0.086106
10027.34,0.086274
10046.77,0.086306
10066.28,0.086406
10085.87,0.086553
10105.53,0.086661
10125.26,0.086701
10145.08,0.086789
10164.97,0.086781
10184.94,0.086685
10204.99,0.086589
10225.12,0.086637
10245.33,0.086713
10265.61,0.086912
10285.98,0.087076
10306.43,0.087252
10326.96,0.087559
10347.57,0.087902
10368.27,0.088444
10389.05,0.089334
10409.91,0.090535
10430.86,0.092091
10451.88,0.093711
10473.0,0.095255
10494.2,0.096759
10515.49,0.098507
10536.86,0.100513
10558.32,0.102424
10579.87,0.104471
10601.5,0.106566
10623.23,0.108501
10645.04,0.110484
10666.94,0.112463
10688.94,0.114354
10711.02,0.116105
10733.2,0.117773
10755.47,0.119405
10777.83,0.121029
10800.28,0.122609
10822.83,0.124129
10845.47,0.125641
10868.21,0.127105
10891.04,0.128513
10913.97,0.129914
10936.99,0.131214
10960.12,0.132435
10983.34,0.133552
11006.66,0.134646
11030.07,0.135719
11053.59,0.136796
11077.21,0.137877
11100.93,0.139078
11124.75,0.140562
11148.68,0.142266
11172.71,0.144161
11196.84,0.146036
11221.07,0.146387
11245.41,0.143379
11269.86,0.136158
11294.41,0.124879
11319.07,0.111729
11343.84,0.101228
11368.72,0.09555
11393.7,0.092821
11418.8,0.09178
11444.01,0.092817
11469.33,0.096775
11494.76,0.103701
11520.3,0.112894
11545.96,0.123083
11571.73,0.132244
11597.62,0.13978
11623.62,0.145438
11649.74,0.149176
11675.98,0.15163
11702.34,0.152903
11728.81,0.151781
11755.41,0.149515
11782.13,0.148346
11808.96,0.147281
11835.92,0.150561
11863.01,0.156414
11890.22,0.160347
11917.55,0.162259
11945.01,0.163116
11972.6,0.163455
12000.31,0.16322
12028.16,0.162322
12056.13,0.160926
12084.23,0.159398
12112.46,0.157579
12140.83,0.155352
12169.33,0.152603
12197.96,0.14944
12226.73,0.145809
12255.64,0.14162
12284.68,0.1369
12313.86,0.131913
12343.18,0.126686
12372.64,0.121001
12402.24,0.114769
12431.98,0.108166
12461.86,0.101459
12491.89,0.095012
12522.07,0.08941
12552.38,0.08463
12582.85,0.080581
12613.47,0.077305
12644.23,0.074476
12675.15,0.071915
12706.21,0.069673
12737.43,0.068169
12768.81,0.067099
12800.33,0.06605
12832.02,0.064945
12863.86,0.064143
12895.86,0.063556
12928.02,0.063525
12960.34,0.063916
12992.82,0.06447
13025.46,0.065073
13058.27,0.065659
13091.25,0.065986
13124.39,0.065914
13157.7,0.065922
13191.18,0.066062
13224.83,0.065922
13258.66,0.065767
13292.65,0.065631
13326.83,0.065284
13361.17,0.064702
13395.7,0.063916
13430.4,0.063074
13465.29,0.062352
13500.35,0.061478
13535.6,0.060249
13571.03,0.058741
13606.65,0.05657
13642.46,0.053977
13678.46,0.05134
13714.64,0.049209
13751.02,0.048635
13787.59,0.049772
13824.36,0.052014
13861.32,0.054584
13898.49,0.057089
13935.85,0.058984
13973.41,0.060185
14011.17,0.06064
14049.15,0.061709
14087.32,0.064889
14125.71,0.069549
14164.3,0.073706
14203.11,0.076739
14242.13,0.079224
14281.36,0.081307
14320.81,0.083146
14360.49,0.084674
14400.38,0.0856
14440.49,0.08627
14480.82,0.086944
14521.39,0.087347
14562.18,0.087535
14603.2,0.087375
14644.45,0.086713
14685.93,0.086214
14727.66,0.085336
14769.62,0.084116
14811.81,0.082831
14854.25,0.081506
14896.94,0.079914
14939.87,0.078315
14983.05,0.076954
15026.48,0.075582
15070.16,0.073882
15114.1,0.072075
15158.29,0.070227
15202.74,0.068268
15247.46,0.065799
15292.43,0.062846
15337.68,0.060157
15383.19,0.057716
15428.97,0.055561
15475.03,0.053921
15521.36,0.05286
15567.97,0.052593
15614.87,0.053012
15662.04,0.053913
15709.5,0.054811
15757.25,0.055972
15805.29,0.057097
15853.62,0.058274
15902.26,0.059515
15951.19,0.0607
16000.42,0.06155
16049.95,0.062032
16099.8,0.062136
16149.95,0.061861
16200.42,0.061183
16251.21,0.06056
16302.31,0.060229
16353.74,0.060153
16405.49,0.060612
16457.57,0.061869
16509.98,0.063409
16562.73,0.06522
16615.82,0.06674
16669.24,0.067814
16723.02,0.068264
16777.14,0.068436
16831.61,0.068364
16886.43,0.067742
16941.62,0.067387
16997.16,0.066916
17053.08,0.066266
17109.36,0.06607
17166.01,0.065739
17223.04,0.065436
17280.45,0.065408
17338.24,0.065108
17396.43,0.064913
17455.0,0.065288
17513.97,0.06524
17573.34,0.065128
17633.11,0.065077
17693.29,0.065268
17753.89,0.065663
17814.9,0.066242
17876.33,0.066357
17938.18,0.066389
18000.47,0.066325
18063.19,0.065934
18126.35,0.065172
18189.95,0.064299
18254.0,0.064067
18318.5,0.063453
18383.46,0.063177
18448.88,0.063062
18514.77,0.062575
18581.13,0.062395
18647.97,0.062391
18715.29,0.062435
18783.1,0.063074
18851.4,0.063592
18920.2,0.063501
18989.51,0.063393
19059.32,0.063632
19129.65,0.064382
19200.5,0.065164
19271.88,0.065276
19343.79,0.065336
19416.24,0.06601
19489.23,0.066026
19562.77,0.065535
19636.88,0.065519
19711.54,0.06538
19786.78,0.064686
19862.59,0.063852
19938.98,0.063373
20015.96,0.063082
20093.55,0.06206
20171.73,0.060792
20250.53,0.059487
20329.94,0.059591
20409.98,0.059758
20490.65,0.059435
20571.96,0.059539
20653.92,0.059718
20736.54,0.058904
20819.82,0.058158
20903.77,0.057835
20988.4,0.057097
21073.72,0.055944
21159.73,0.054931
21246.46,0.054416
21333.89,0.054236
21422.04,0.054173
21510.93,0.054416
21600.56,0.054923
21690.94,0.055238
21782.08,0.055425
21873.99,0.057073
21966.67,0.059028
22060.15,0.061649
22154.42,0.065731
22249.51,0.069848
22345.41,0.07379
22442.14,0.07711
22539.72,0.079751
22638.14,0.081734
22737.43,0.0823
22837.6,0.083916
22938.65,0.085221
23040.6,0.086118
23143.46,0.086912
23247.24,0.087483
23351.96,0.087579
23457.63,0.088245
23564.25,0.089151
23671.85,0.090124
23780.44,0.089937
23890.02,0.08866
24000.63,0.086817
24112.26,0.086059
24224.93,0.085205
24338.66,0.083729
24453.47,0.083022
24569.36,0.083868
24686.36,0.083409
24804.47,0.082224
24923.73,0.082029
25044.13,0.083453
25165.71,0.085005
25288.46,0.08544
25412.43,0.082336
25537.61,0.083637
25664.04,0.087299
25791.72,0.083577
25920.68,0.07926
