Database of Origin,University of Winnipeg Spectrophotometer Facility
Sample Description,"Zeolites: RELAB + Nicolet spectra, Merged at 2.5 microns; note change in viewing geometry"
Date Added,2018-07-23 23:09:47.538132

Data ID,RLA_ZEO_1_14        
Sample ID,zeo118
Mineral Name,chabazite
Grain Size,<45 um
Viewing Geometry,"30/0,30"
Resolution,5/.6-129 nm

Wavelength
305.0,0.597803
310.0,0.595984
315.0,0.600691
320.0,0.601708
325.0,0.599501
330.0,0.606698
335.0,0.608464
340.0,0.613882
345.0,0.613076
350.0,0.617722
355.0,0.619549
360.0,0.621227
365.0,0.623056
370.0,0.624646
375.0,0.62614
380.0,0.629488
385.0,0.63261
390.0,0.635596
395.0,0.638195
400.0,0.644887
405.0,0.647982
410.0,0.651292
415.0,0.653995
420.0,0.656679
425.0,0.662074
430.0,0.664808
435.0,0.670616
440.0,0.673973
445.0,0.67955
450.0,0.682364
455.0,0.687071
460.0,0.689262
465.0,0.692486
470.0,0.693576
475.0,0.697041
480.0,0.69767
485.0,0.700948
490.0,0.703189
495.0,0.70691
500.0,0.709828
505.0,0.712288
510.0,0.714872
515.0,0.719152
520.0,0.720785
525.0,0.7255
530.0,0.72879
535.0,0.732779
540.0,0.736796
545.0,0.743163
550.0,0.748011
555.0,0.753979
560.0,0.761006
565.0,0.76663
570.0,0.773048
575.0,0.77895
580.0,0.785125
585.0,0.789895
590.0,0.793915
595.0,0.797193
600.0,0.799649
605.0,0.801101
610.0,0.803455
615.0,0.804619
620.0,0.804161
625.0,0.804984
630.0,0.806051
635.0,0.806872
640.0,0.807017
645.0,0.807548
650.0,0.80822
655.0,0.808678
660.0,0.80978
665.0,0.810498
670.0,0.811291
675.0,0.810872
680.0,0.812293
685.0,0.813514
690.0,0.813109
695.0,0.81477
700.0,0.815258
705.0,0.813557
710.0,0.815084
715.0,0.81403
720.0,0.814569
725.0,0.81538
730.0,0.815057
735.0,0.815779
740.0,0.815559
745.0,0.815828
750.0,0.816164
755.0,0.815479
760.0,0.815833
765.0,0.815661
770.0,0.815582
775.0,0.81499
780.0,0.816192
785.0,0.814453
790.0,0.815012
795.0,0.815023
800.0,0.815729
805.0,0.812859
810.0,0.81559
815.0,0.813296
820.0,0.814836
825.0,0.813657
830.0,0.813704
835.0,0.812239
840.0,0.814625
845.0,0.812622
850.0,0.814368
855.0,0.813365
860.0,0.814279
865.0,0.81463
870.0,0.812353
875.0,0.814968
880.0,0.812587
885.0,0.815787
890.0,0.812526
895.0,0.81721
900.0,0.812249
905.0,0.816578
910.0,0.81366
915.0,0.816572
920.0,0.813541
925.0,0.816651
930.0,0.812236
935.0,0.816676
940.0,0.813474
945.0,0.81465
950.0,0.812875
955.0,0.812989
960.0,0.812843
965.0,0.811109
970.0,0.811062
975.0,0.809974
980.0,0.811676
985.0,0.811299
990.0,0.813656
995.0,0.811744
1000.0,0.812855
1005.0,0.812445
1010.0,0.815095
1015.0,0.814288
1020.0,0.815835
1025.0,0.814622
1030.0,0.816329
1035.0,0.815983
1040.0,0.816733
1045.0,0.815065
1050.0,0.817174
1055.0,0.816555
1060.0,0.818167
1065.0,0.81612
1070.0,0.817199
1075.0,0.816972
1080.0,0.816229
1085.0,0.817037
1090.0,0.815884
1095.0,0.816201
1100.0,0.816459
1105.0,0.815802
1110.0,0.815888
1115.0,0.816723
1120.0,0.816126
1125.0,0.815853
1130.0,0.81539
1135.0,0.813091
1140.0,0.8129
1145.0,0.810455
1150.0,0.806848
1155.0,0.802983
1160.0,0.801417
1165.0,0.801263
1170.0,0.801736
1175.0,0.802321
1180.0,0.804042
1185.0,0.804172
1190.0,0.804528
1195.0,0.805722
1200.0,0.805046
1205.0,0.804696
1210.0,0.804775
1215.0,0.805651
1220.0,0.806713
1225.0,0.804712
1230.0,0.808204
1235.0,0.805944
1240.0,0.8071
1245.0,0.807038
1250.0,0.806515
1255.0,0.80626
1260.0,0.806589
1265.0,0.806942
1270.0,0.807814
1275.0,0.807176
1280.0,0.806414
1285.0,0.806049
1290.0,0.806815
1295.0,0.806167
1300.0,0.80516
1305.0,0.804344
1310.0,0.803893
1315.0,0.80241
1320.0,0.800094
1325.0,0.79839
1330.0,0.79532
1335.0,0.792441
1340.0,0.789769
1345.0,0.785206
1350.0,0.782619
1355.0,0.778182
1360.0,0.777216
1365.0,0.775261
1370.0,0.77055
1375.0,0.767258
1380.0,0.761952
1385.0,0.755924
1390.0,0.744914
1395.0,0.728909
1400.0,0.708966
1405.0,0.688114
1410.0,0.666306
1415.0,0.647198
1420.0,0.634004
1425.0,0.627261
1430.0,0.625161
1435.0,0.62751
1440.0,0.63223
1445.0,0.639097
1450.0,0.644799
1455.0,0.650895
1460.0,0.653573
1465.0,0.654349
1470.0,0.656966
1475.0,0.662148
1480.0,0.669642
1485.0,0.677514
1490.0,0.684385
1495.0,0.691034
1500.0,0.69685
1505.0,0.702717
1510.0,0.708175
1515.0,0.712239
1520.0,0.715634
1525.0,0.719375
1530.0,0.723208
1535.0,0.725854
1540.0,0.729081
1545.0,0.73025
1550.0,0.732022
1555.0,0.735108
1560.0,0.734832
1565.0,0.737282
1570.0,0.738596
1575.0,0.739716
1580.0,0.742734
1585.0,0.744281
1590.0,0.744427
1595.0,0.74557
1600.0,0.746752
1605.0,0.747934
1610.0,0.749633
1615.0,0.751491
1620.0,0.750965
1625.0,0.752045
1630.0,0.751455
1635.0,0.752664
1640.0,0.753322
1645.0,0.754536
1650.0,0.755332
1655.0,0.755367
1660.0,0.756485
1665.0,0.757644
1670.0,0.757093
1675.0,0.757665
1680.0,0.757373
1685.0,0.757133
1690.0,0.756923
1695.0,0.756334
1700.0,0.756105
1705.0,0.754173
1710.0,0.753211
1715.0,0.751744
1720.0,0.750496
1725.0,0.748219
1730.0,0.74711
1735.0,0.743946
1740.0,0.741719
1745.0,0.739869
1750.0,0.737504
1755.0,0.735501
1760.0,0.733823
1765.0,0.732387
1770.0,0.731075
1775.0,0.728915
1780.0,0.728449
1785.0,0.726874
1790.0,0.725349
1795.0,0.725487
1800.0,0.723481
1805.0,0.725569
1810.0,0.722238
1815.0,0.724674
1820.0,0.720372
1825.0,0.724267
1830.0,0.720577
1835.0,0.721609
1840.0,0.717645
1845.0,0.71865
1850.0,0.712293
1855.0,0.710616
1860.0,0.701455
1865.0,0.69511
1870.0,0.677368
1875.0,0.665301
1880.0,0.640346
1885.0,0.609908
1890.0,0.573427
1895.0,0.525954
1900.0,0.473564
1905.0,0.423629
1910.0,0.389323
1915.0,0.369609
1920.0,0.362969
1925.0,0.365312
1930.0,0.374038
1935.0,0.385671
1940.0,0.400821
1945.0,0.413224
1950.0,0.42547
1955.0,0.435152
1960.0,0.444841
1965.0,0.451355
1970.0,0.460572
1975.0,0.467994
1980.0,0.477866
1985.0,0.487418
1990.0,0.497559
1995.0,0.508042
2000.0,0.51874
2005.0,0.528415
2010.0,0.539813
2015.0,0.549029
2020.0,0.559029
2025.0,0.566344
2030.0,0.575116
2035.0,0.579765
2040.0,0.586498
2045.0,0.590898
2050.0,0.596186
2055.0,0.599207
2060.0,0.602548
2065.0,0.605691
2070.0,0.608221
2075.0,0.612954
2080.0,0.613923
2085.0,0.619534
2090.0,0.62025
2095.0,0.625129
2100.0,0.625851
2105.0,0.630916
2110.0,0.629998
2115.0,0.634499
2120.0,0.634333
2125.0,0.637984
2130.0,0.637224
2135.0,0.641499
2140.0,0.640251
2145.0,0.643167
2150.0,0.644191
2155.0,0.645456
2160.0,0.646604
2165.0,0.646411
2170.0,0.647328
2175.0,0.647785
2180.0,0.649502
2185.0,0.648991
2190.0,0.650317
2195.0,0.649404
2200.0,0.651333
2205.0,0.650747
2210.0,0.652484
2215.0,0.651258
2220.0,0.652519
2225.0,0.650609
2230.0,0.652852
2235.0,0.651625
2240.0,0.651272
2245.0,0.648685
2250.0,0.64995
2255.0,0.647425
2260.0,0.646841
2265.0,0.644123
2270.0,0.643663
2275.0,0.640216
2280.0,0.63859
2285.0,0.63481
2290.0,0.631431
2295.0,0.627889
2300.0,0.625493
2305.0,0.619504
2310.0,0.615047
2315.0,0.608988
2320.0,0.604217
2325.0,0.59658
2330.0,0.590497
2335.0,0.582959
2340.0,0.575461
2345.0,0.568894
2350.0,0.558756
2355.0,0.551667
2360.0,0.538708
2365.0,0.531494
2370.0,0.519247
2375.0,0.512139
2380.0,0.50071
2385.0,0.491222
2390.0,0.478694
2395.0,0.47084
2400.0,0.459185
2405.0,0.450941
2410.0,0.440098
2415.0,0.432943
2420.0,0.423878
2425.0,0.416578
2430.0,0.408686
2435.0,0.401829
2440.0,0.396559
2445.0,0.390307
2450.0,0.384941
2455.0,0.379066
2460.0,0.375526
2465.0,0.369271
2470.0,0.365017
2475.0,0.359709
2480.0,0.3607
2485.0,0.350905
2490.0,0.346586
2495.0,0.341319
2500.0,0.3379
2505.0,0.33261
2510.0,0.329501
2515.0,0.324864
2520.0,0.322224
2525.0,0.317989
2530.0,0.316038
2535.0,0.313112
2540.0,0.311835
2545.0,0.30837
2550.0,0.307638
2555.0,0.306503
2560.0,0.304531
2565.0,0.302998
2570.0,0.301156
2575.0,0.299617
2580.0,0.29819
2581.74,0.297135
2583.03,0.296559
2584.31,0.295834
2585.6,0.296366
2586.89,0.296449
2588.19,0.295241
2589.48,0.294873
2590.77,0.294489
2592.07,0.293891
2593.36,0.292925
2594.66,0.29165
2595.96,0.29149
2597.26,0.292341
2598.56,0.291975
2599.87,0.290953
2601.17,0.289807
2602.48,0.288805
2603.78,0.288568
2605.09,0.287508
2606.4,0.286127
2607.71,0.286312
2609.03,0.286302
2610.34,0.285587
2611.66,0.284925
2612.97,0.283839
2614.29,0.282888
2615.61,0.282243
2616.93,0.281469
2618.25,0.281028
2619.57,0.280469
2620.9,0.279338
2622.22,0.27906
2623.55,0.278555
2624.88,0.277398
2626.21,0.275973
2627.54,0.274594
2628.87,0.274317
2630.21,0.273121
2631.54,0.271865
2632.88,0.271679
2634.21,0.271127
2635.55,0.270034
2636.89,0.269226
2638.24,0.267771
2639.58,0.266646
2640.92,0.265445
2642.27,0.264154
2643.62,0.263102
2644.97,0.261891
2646.32,0.26056
2647.67,0.259328
2649.02,0.258268
2650.38,0.25686
2651.73,0.255244
2653.09,0.253768
2654.45,0.252584
2655.81,0.251024
2657.17,0.249474
2658.53,0.248178
2659.89,0.246579
2661.26,0.244995
2662.63,0.243574
2664.0,0.241282
2665.36,0.23868
2666.74,0.236535
2668.11,0.235126
2669.48,0.233503
2670.86,0.230993
2672.23,0.228773
2673.61,0.226751
2674.99,0.223669
2676.37,0.220856
2677.76,0.218406
2679.14,0.216455
2680.52,0.214154
2681.91,0.211569
2683.3,0.208459
2684.69,0.20565
2686.08,0.203064
2687.47,0.199992
2688.87,0.196662
2690.26,0.193531
2691.66,0.189742
2693.06,0.186134
2694.46,0.182764
2695.86,0.179142
2697.26,0.174989
2698.66,0.170844
2700.07,0.166898
2701.48,0.163063
2702.89,0.158992
2704.3,0.154544
2705.71,0.149486
2707.12,0.145117
2708.53,0.140833
2709.95,0.135724
2711.37,0.130979
2712.79,0.126232
2714.21,0.121155
2715.63,0.11648
2717.05,0.111816
2718.48,0.107434
2719.9,0.103246
2721.33,0.099028
2722.76,0.094703
2724.19,0.090931
2725.62,0.087202
2727.06,0.083655
2728.49,0.080475
2729.93,0.077651
2731.37,0.075114
2732.81,0.072666
2734.25,0.070274
2735.69,0.068209
2737.14,0.066185
2738.58,0.064177
2740.03,0.062351
2741.48,0.060884
2742.93,0.059304
2744.38,0.05814
2745.83,0.056944
2747.29,0.055861
2748.75,0.054962
2750.2,0.054067
2751.66,0.053007
2753.13,0.051813
2754.59,0.051132
2756.05,0.050676
2757.52,0.049802
2758.99,0.048997
2760.46,0.048489
2761.93,0.048127
2763.4,0.047952
2764.87,0.047669
2766.35,0.047595
2767.82,0.047552
2769.3,0.047044
2770.78,0.046626
2772.26,0.046153
2773.75,0.04552
2775.23,0.045155
2776.72,0.045049
2778.21,0.04483
2779.7,0.04432
2781.19,0.04389
2782.68,0.043771
2784.18,0.043712
2785.67,0.043578
2787.17,0.043372
2788.67,0.0433
2790.17,0.043095
2791.67,0.042469
2793.18,0.042387
2794.68,0.042506
2796.19,0.042287
2797.7,0.041945
2799.21,0.041906
2800.72,0.041925
2802.24,0.041661
2803.75,0.041395
2805.27,0.040969
2806.79,0.040773
2808.31,0.040802
2809.83,0.040717
2811.35,0.040566
2812.88,0.040576
2814.41,0.040847
2815.93,0.04091
2817.46,0.040776
2819.0,0.040531
2820.53,0.040795
2822.07,0.041012
2823.6,0.040775
2825.14,0.040532
2826.68,0.040619
2828.22,0.040814
2829.77,0.040798
2831.31,0.040715
2832.86,0.040971
2834.41,0.040892
2835.96,0.040822
2837.51,0.040834
2839.07,0.040754
2840.62,0.040944
2842.18,0.041154
2843.74,0.041198
2845.3,0.041146
2846.86,0.041332
2848.43,0.041205
2849.99,0.041005
2851.56,0.040971
2853.13,0.040903
2854.7,0.04102
2856.27,0.040953
2857.85,0.04099
2859.42,0.041141
2861.0,0.041359
2862.58,0.041207
2864.16,0.041113
2865.75,0.041274
2867.33,0.041283
2868.92,0.041296
2870.51,0.041698
2872.1,0.041549
2873.69,0.041401
2875.28,0.041557
2876.88,0.041618
2878.48,0.0418
2880.07,0.041835
2881.68,0.0415
2883.28,0.041232
2884.88,0.041386
2886.49,0.041681
2888.1,0.041608
2889.71,0.041523
2891.32,0.041417
2892.93,0.04144
2894.55,0.041632
2896.16,0.041676
2897.78,0.041435
2899.4,0.041318
2901.03,0.041661
2902.65,0.041813
2904.28,0.041791
2905.91,0.041954
2907.54,0.041867
2909.17,0.041842
2910.8,0.042172
2912.44,0.042094
2914.07,0.041813
2915.71,0.041938
2917.35,0.041969
2918.99,0.041999
2920.64,0.042033
2922.29,0.042257
2923.93,0.042287
2925.58,0.042228
2927.24,0.042553
2928.89,0.042586
2930.55,0.042331
2932.2,0.042553
2933.86,0.043129
2935.52,0.04335
2937.19,0.043023
2938.85,0.043028
2940.52,0.043211
2942.19,0.043329
2943.86,0.043543
2945.53,0.043729
2947.21,0.043881
2948.88,0.043895
2950.56,0.044208
2952.24,0.0444
2953.92,0.044778
2955.61,0.045121
2957.29,0.044811
2958.98,0.044508
2960.67,0.044847
2962.36,0.045247
2964.06,0.04536
2965.75,0.045689
2967.45,0.045901
2969.15,0.046023
2970.85,0.046217
2972.55,0.046307
2974.26,0.046502
2975.97,0.046915
2977.68,0.04723
2979.39,0.047356
2981.1,0.047603
2982.82,0.047891
2984.53,0.048218
2986.25,0.048252
2987.97,0.048284
2989.7,0.048647
2991.42,0.049075
2993.15,0.049524
2994.88,0.049411
2996.61,0.049436
2998.34,0.049792
3000.08,0.050115
3001.82,0.05049
3003.55,0.050724
3005.3,0.050864
3007.04,0.051164
3008.78,0.051521
3010.53,0.051723
3012.28,0.051892
3014.03,0.052235
3015.79,0.052363
3017.54,0.052406
3019.3,0.052746
3021.06,0.052919
3022.82,0.053121
3024.58,0.053354
3026.35,0.053517
3028.12,0.053781
3029.89,0.053979
3031.66,0.054025
3033.43,0.054162
3035.21,0.054498
3036.99,0.054671
3038.77,0.054516
3040.55,0.054261
3042.33,0.054513
3044.12,0.054872
3045.91,0.054991
3047.7,0.054889
3049.49,0.054899
3051.29,0.055006
3053.08,0.05493
3054.88,0.054767
3056.68,0.054742
3058.49,0.05463
3060.29,0.054601
3062.1,0.054616
3063.91,0.054732
3065.72,0.054703
3067.54,0.054672
3069.35,0.054667
3071.17,0.054499
3072.99,0.054386
3074.81,0.054479
3076.64,0.054848
3078.47,0.055153
3080.29,0.055143
3082.13,0.055174
3083.96,0.055236
3085.79,0.055404
3087.63,0.055792
3089.47,0.056127
3091.31,0.056265
3093.16,0.05628
3095.01,0.056503
3096.85,0.056942
3098.71,0.057157
3100.56,0.057411
3102.41,0.057823
3104.27,0.058247
3106.13,0.058673
3107.99,0.05908
3109.86,0.059295
3111.73,0.059709
3113.59,0.06021
3115.47,0.060705
3117.34,0.060967
3119.21,0.061218
3121.09,0.06185
3122.97,0.062478
3124.86,0.063002
3126.74,0.063522
3128.63,0.064032
3130.52,0.064523
3132.41,0.064997
3134.3,0.065483
3136.2,0.065926
3138.1,0.06643
3140.0,0.067037
3141.9,0.067565
3143.81,0.06819
3145.71,0.068846
3147.62,0.069469
3149.54,0.070067
3151.45,0.070635
3153.37,0.071229
3155.29,0.071799
3157.21,0.072427
3159.13,0.073042
3161.06,0.073604
3162.99,0.074202
3164.92,0.074782
3166.85,0.075231
3168.79,0.075895
3170.72,0.076737
3172.67,0.077543
3174.61,0.078168
3176.55,0.078947
3178.5,0.079801
3180.45,0.080391
3182.4,0.080904
3184.36,0.081644
3186.32,0.08229
3188.27,0.083043
3190.24,0.083745
3192.2,0.084466
3194.17,0.085232
3196.14,0.086118
3198.11,0.086945
3200.08,0.087771
3202.06,0.088457
3204.04,0.089196
3206.02,0.090013
3208.0,0.090738
3209.99,0.091557
3211.98,0.092442
3213.97,0.093258
3215.96,0.094036
3217.96,0.094742
3219.96,0.095764
3221.96,0.096685
3223.96,0.097568
3225.97,0.098498
3227.98,0.099396
3229.99,0.100419
3232.0,0.101117
3234.02,0.102031
3236.04,0.103072
3238.06,0.104002
3240.08,0.104832
3242.11,0.10575
3244.14,0.106803
3246.17,0.107671
3248.2,0.10852
3250.24,0.109526
3252.28,0.110552
3254.32,0.111325
3256.37,0.112112
3258.41,0.113219
3260.46,0.114376
3262.51,0.115456
3264.57,0.116458
3266.63,0.117604
3268.69,0.118558
3270.75,0.119468
3272.81,0.120523
3274.88,0.121701
3276.95,0.122747
3279.02,0.123759
3281.1,0.124665
3283.18,0.125622
3285.26,0.126725
3287.34,0.12779
3289.43,0.128915
3291.51,0.129859
3293.61,0.130906
3295.7,0.132217
3297.8,0.133533
3299.9,0.134697
3302.0,0.135812
3304.1,0.136896
3306.21,0.138038
3308.32,0.139247
3310.43,0.140418
3312.55,0.141659
3314.66,0.142765
3316.79,0.143933
3318.91,0.145127
3321.03,0.14626
3323.16,0.147378
3325.29,0.148469
3327.43,0.149669
3329.57,0.15099
3331.71,0.152328
3333.85,0.153519
3335.99,0.154652
3338.14,0.155913
3340.29,0.156985
3342.45,0.158179
3344.6,0.159653
3346.76,0.161062
3348.92,0.162192
3351.09,0.163261
3353.26,0.164659
3355.43,0.166253
3357.6,0.167581
3359.78,0.168802
3361.96,0.170088
3364.14,0.171621
3366.32,0.172837
3368.51,0.174091
3370.7,0.175541
3372.89,0.176881
3375.09,0.178146
3377.29,0.179454
3379.49,0.180813
3381.69,0.182195
3383.9,0.183669
3386.11,0.185254
3388.32,0.186735
3390.54,0.187931
3392.76,0.189108
3394.98,0.190492
3397.21,0.191986
3399.43,0.193414
3401.66,0.194721
3403.9,0.19616
3406.13,0.197529
3408.37,0.199017
3410.61,0.200516
3412.86,0.201932
3415.11,0.20335
3417.36,0.204793
3419.61,0.206253
3421.87,0.207808
3424.13,0.209128
3426.39,0.210221
3428.66,0.211686
3430.93,0.213062
3433.2,0.214322
3435.48,0.21567
3437.76,0.217029
3440.04,0.218328
3442.32,0.219566
3444.61,0.220847
3446.9,0.222152
3449.19,0.2235
3451.49,0.224794
3453.79,0.226188
3456.09,0.227686
3458.4,0.229095
3460.7,0.230323
3463.02,0.231579
3465.33,0.232939
3467.65,0.234169
3469.97,0.235436
3472.29,0.236906
3474.62,0.238275
3476.95,0.23954
3479.29,0.24078
3481.62,0.242093
3483.96,0.243496
3486.3,0.244939
3488.65,0.246178
3491.0,0.247438
3493.35,0.248781
3495.71,0.250097
3498.07,0.251575
3500.43,0.253194
3502.79,0.254683
3505.16,0.256021
3507.53,0.257412
3509.91,0.25874
3512.29,0.259926
3514.67,0.261215
3517.05,0.262413
3519.44,0.263541
3521.83,0.264715
3524.23,0.265867
3526.62,0.266997
3529.02,0.268174
3531.43,0.269314
3533.83,0.270625
3536.24,0.271886
3538.66,0.273187
3541.08,0.274422
3543.5,0.275657
3545.92,0.277034
3548.35,0.278343
3550.78,0.279512
3553.21,0.28063
3555.65,0.281848
3558.09,0.28299
3560.53,0.284303
3562.98,0.285699
3565.43,0.286842
3567.88,0.287942
3570.34,0.289151
3572.8,0.290318
3575.27,0.291372
3577.73,0.292588
3580.2,0.293859
3582.68,0.294968
3585.16,0.296074
3587.64,0.297135
3590.12,0.298248
3592.61,0.299578
3595.1,0.300682
3597.6,0.301709
3600.09,0.302825
3602.6,0.30393
3605.1,0.305054
3607.61,0.306155
3610.12,0.307255
3612.64,0.30817
3615.16,0.30924
3617.68,0.310429
3620.21,0.311673
3622.74,0.312706
3625.27,0.313651
3627.81,0.3147
3630.35,0.315793
3632.89,0.316884
3635.44,0.317954
3637.99,0.319026
3640.54,0.320043
3643.1,0.320992
3645.66,0.321954
3648.23,0.323079
3650.8,0.324031
3653.37,0.324894
3655.95,0.326001
3658.53,0.327083
3661.11,0.328078
3663.7,0.32913
3666.29,0.330038
3668.89,0.330881
3671.48,0.331715
3674.09,0.332624
3676.69,0.333585
3679.3,0.334596
3681.91,0.335407
3684.53,0.336219
3687.15,0.337081
3689.78,0.338021
3692.4,0.33895
3695.04,0.339829
3697.67,0.3405
3700.31,0.34133
3702.95,0.342273
3705.6,0.343271
3708.25,0.344055
3710.91,0.344752
3713.56,0.345699
3716.23,0.346574
3718.89,0.347174
3721.56,0.347999
3724.23,0.348905
3726.91,0.349588
3729.59,0.350259
3732.28,0.351041
3734.97,0.35179
3737.66,0.352646
3740.36,0.353496
3743.06,0.354248
3745.76,0.35496
3748.47,0.35563
3751.18,0.356198
3753.9,0.356952
3756.62,0.357699
3759.34,0.358421
3762.07,0.359188
3764.8,0.359894
3767.54,0.360606
3770.28,0.361321
3773.02,0.361837
3775.77,0.362415
3778.52,0.363169
3781.28,0.363933
3784.04,0.36451
3786.8,0.365064
3789.57,0.365552
3792.34,0.366269
3795.12,0.366953
3797.9,0.367487
3800.69,0.367965
3803.47,0.368473
3806.27,0.36904
3809.06,0.369706
3811.86,0.370145
3814.67,0.370639
3817.48,0.371215
3820.29,0.37173
3823.11,0.372125
3825.93,0.372564
3828.76,0.373028
3831.59,0.373434
3834.42,0.373902
3837.26,0.374403
3840.1,0.374774
3842.95,0.375147
3845.8,0.375401
3848.65,0.375852
3851.51,0.376253
3854.38,0.376475
3857.24,0.376814
3860.12,0.377234
3862.99,0.377685
3865.87,0.378201
3868.76,0.378486
3871.65,0.378671
3874.54,0.378908
3877.44,0.379206
3880.34,0.379391
3883.25,0.379651
3886.16,0.380122
3889.07,0.380387
3891.99,0.380429
3894.92,0.380629
3897.85,0.38093
3900.78,0.381203
3903.72,0.381467
3906.66,0.38165
3909.6,0.381708
3912.55,0.381808
3915.51,0.382057
3918.47,0.382167
3921.43,0.382115
3924.4,0.382247
3927.38,0.382301
3930.35,0.382401
3933.33,0.382469
3936.32,0.38247
3939.31,0.382499
3942.31,0.382475
3945.31,0.382425
3948.31,0.382331
3951.32,0.382198
3954.34,0.382109
3957.35,0.381937
3960.38,0.381827
3963.41,0.381706
3966.44,0.381644
3969.48,0.381549
3972.52,0.381535
3975.56,0.3815
3978.61,0.381462
3981.67,0.381379
3984.73,0.381301
3987.8,0.381239
3990.87,0.381134
3993.94,0.381081
3997.02,0.381115
4000.1,0.381071
4003.19,0.381015
4006.29,0.381029
4009.39,0.380854
4012.49,0.380666
4015.6,0.38071
4018.71,0.380634
4021.83,0.380595
4024.95,0.380541
4028.08,0.380417
4031.21,0.380131
4034.35,0.379831
4037.49,0.379665
4040.64,0.379482
4043.79,0.379241
4046.94,0.378926
4050.11,0.378601
4053.27,0.378291
4056.44,0.377918
4059.62,0.377454
4062.8,0.377036
4065.99,0.376687
4069.18,0.376389
4072.38,0.376031
4075.58,0.375527
4078.78,0.375042
4082.0,0.374473
4085.21,0.374039
4088.43,0.373702
4091.66,0.373128
4094.89,0.372599
4098.13,0.372201
4101.37,0.37161
4104.62,0.371061
4107.87,0.370445
4111.13,0.369919
4114.39,0.369474
4117.66,0.36903
4120.93,0.368358
4124.21,0.367734
4127.5,0.367099
4130.79,0.366533
4134.08,0.365966
4137.38,0.365347
4140.68,0.364736
4143.99,0.364116
4147.31,0.363484
4150.63,0.362984
4153.95,0.36233
4157.29,0.36161
4160.62,0.360806
4163.96,0.359974
4167.31,0.359266
4170.66,0.358632
4174.02,0.357965
4177.39,0.35727
4180.75,0.35654
4184.13,0.355812
4187.51,0.354953
4190.89,0.354125
4194.28,0.353422
4197.68,0.352781
4201.08,0.351922
4204.49,0.351058
4207.9,0.35011
4211.32,0.349247
4214.74,0.348362
4218.17,0.34745
4221.61,0.346581
4225.05,0.345705
4228.5,0.344894
4231.95,0.344245
4235.4,0.343523
4238.87,0.342751
4242.34,0.341982
4245.81,0.341267
4249.29,0.340572
4252.78,0.339822
4256.27,0.338765
4259.77,0.337379
4263.27,0.335902
4266.78,0.33494
4270.29,0.33412
4273.81,0.333351
4277.34,0.332556
4280.87,0.331728
4284.41,0.330761
4287.95,0.329795
4291.5,0.328919
4295.06,0.328059
4298.62,0.327119
4302.19,0.326085
4305.76,0.325072
4309.34,0.324232
4312.92,0.323275
4316.52,0.322287
4320.11,0.321268
4323.72,0.320341
4327.32,0.319403
4330.94,0.318471
4334.56,0.317475
4338.19,0.316408
4341.82,0.315403
4345.46,0.314483
4349.11,0.313502
4352.76,0.312562
4356.42,0.31162
4360.08,0.310758
4363.75,0.30992
4367.43,0.309023
4371.11,0.308105
4374.8,0.307238
4378.49,0.306281
4382.19,0.305405
4385.9,0.304588
4389.61,0.303757
4393.33,0.302932
4397.06,0.30209
4400.79,0.301068
4404.53,0.300338
4408.28,0.299549
4412.03,0.298702
4415.79,0.297933
4419.55,0.297091
4423.32,0.296225
4427.1,0.295456
4430.88,0.294738
4434.68,0.294028
4438.47,0.293249
4442.28,0.29239
4446.08,0.291663
4449.9,0.291136
4453.72,0.290505
4457.55,0.289752
4461.39,0.28901
4465.23,0.288262
4469.08,0.287587
4472.94,0.286929
4476.8,0.286227
4480.67,0.285624
4484.55,0.285052
4488.43,0.284418
4492.32,0.2837
4496.21,0.283171
4500.12,0.282604
4504.03,0.281972
4507.94,0.281455
4511.87,0.280954
4515.8,0.280369
4519.73,0.280002
4523.68,0.279529
4527.63,0.278885
4531.59,0.278399
4535.55,0.278008
4539.52,0.277615
4543.5,0.277152
4547.49,0.27668
4551.48,0.276299
4555.48,0.275911
4559.49,0.275626
4563.5,0.275279
4567.52,0.274942
4571.55,0.274633
4575.58,0.274386
4579.63,0.274157
4583.67,0.273986
4587.73,0.273851
4591.79,0.273685
4595.86,0.273398
4599.94,0.273194
4604.03,0.273078
4608.12,0.27297
4612.22,0.272845
4616.33,0.272677
4620.44,0.272516
4624.56,0.272511
4628.69,0.272553
4632.83,0.272511
4636.97,0.272452
4641.12,0.272511
4645.28,0.272496
4649.45,0.272479
4653.62,0.27245
4657.8,0.27246
4661.99,0.272477
4666.19,0.272545
4670.39,0.272662
4674.6,0.272826
4678.82,0.272875
4683.05,0.273046
4687.28,0.273133
4691.52,0.273205
4695.77,0.273312
4700.03,0.273504
4704.3,0.273561
4708.57,0.273761
4712.85,0.273954
4717.14,0.274157
4721.43,0.274296
4725.74,0.2745
4730.05,0.274642
4734.37,0.274755
4738.7,0.274825
4743.03,0.27493
4747.38,0.275142
4751.73,0.275389
4756.09,0.275579
4760.45,0.275668
4764.83,0.275792
4769.21,0.275956
4773.6,0.276099
4778.0,0.276244
4782.41,0.276434
4786.83,0.276656
4791.25,0.276787
4795.68,0.276932
4800.13,0.276985
4804.57,0.277064
4809.03,0.27723
4813.5,0.277484
4817.97,0.277627
4822.45,0.277715
4826.94,0.277844
4831.44,0.277925
4835.95,0.277974
4840.46,0.278186
4844.99,0.278379
4849.52,0.278543
4854.06,0.278565
4858.61,0.278628
4863.17,0.278746
4867.73,0.278912
4872.31,0.279062
4876.89,0.279116
4881.48,0.279136
4886.08,0.279194
4890.69,0.2793
4895.31,0.279365
4899.94,0.279334
4904.57,0.279392
4909.22,0.27938
4913.87,0.279302
4918.53,0.279234
4923.21,0.27919
4927.88,0.279211
4932.57,0.279265
4937.27,0.279178
4941.98,0.279065
4946.69,0.278882
4951.42,0.278724
4956.15,0.278513
4960.9,0.278345
4965.65,0.278142
4970.41,0.277869
4975.18,0.277445
4979.96,0.276971
4984.75,0.276451
4989.54,0.275992
4994.35,0.275569
4999.17,0.275108
5003.99,0.274606
5008.83,0.274051
5013.67,0.273331
5018.52,0.272702
5023.39,0.27202
5028.26,0.271303
5033.14,0.270492
5038.03,0.269787
5042.93,0.269099
5047.84,0.268371
5052.76,0.267595
5057.69,0.266773
5062.63,0.265869
5067.58,0.26492
5072.54,0.264012
5077.51,0.263282
5082.49,0.262467
5087.47,0.261669
5092.47,0.26079
5097.48,0.259904
5102.5,0.25901
5107.52,0.258136
5112.56,0.257433
5117.61,0.256709
5122.66,0.255845
5127.73,0.254976
5132.81,0.254204
5137.89,0.253521
5142.99,0.25283
5148.1,0.25212
5153.22,0.251443
5158.34,0.250948
5163.48,0.250321
5168.63,0.249645
5173.79,0.249044
5178.96,0.248453
5184.13,0.247865
5189.32,0.247294
5194.52,0.246752
5199.73,0.246255
5204.96,0.245832
5210.19,0.245458
5215.43,0.24497
5220.68,0.244638
5225.94,0.24428
5231.22,0.243875
5236.5,0.243396
5241.79,0.24303
5247.1,0.24269
5252.42,0.242339
5257.74,0.242098
5263.08,0.241716
5268.43,0.241287
5273.79,0.241023
5279.16,0.240799
5284.54,0.240506
5289.93,0.240115
5295.34,0.239739
5300.75,0.239373
5306.18,0.238936
5311.61,0.238499
5317.06,0.238207
5322.52,0.237836
5327.99,0.237409
5333.47,0.236952
5338.96,0.236534
5344.47,0.235985
5349.98,0.235419
5355.51,0.234963
5361.05,0.23455
5366.6,0.233894
5372.16,0.233264
5377.73,0.232673
5383.32,0.232107
5388.91,0.231355
5394.52,0.230655
5400.14,0.229908
5405.77,0.22918
5411.41,0.228358
5417.07,0.227462
5422.74,0.226442
5428.41,0.225684
5434.1,0.22493
5439.81,0.223886
5445.52,0.222916
5451.25,0.222135
5456.98,0.221257
5462.73,0.220219
5468.5,0.219228
5474.27,0.218425
5480.06,0.217468
5485.86,0.216619
5491.67,0.215857
5497.49,0.215001
5503.33,0.214056
5509.18,0.213175
5515.04,0.21235
5520.91,0.211511
5526.8,0.210683
5532.69,0.20989
5538.61,0.209035
5544.53,0.208107
5550.47,0.20727
5556.41,0.206518
5562.38,0.20575
5568.35,0.204929
5574.34,0.20408
5580.34,0.203258
5586.35,0.202691
5592.38,0.202118
5598.42,0.201466
5604.47,0.200751
5610.54,0.199996
5616.61,0.19921
5622.71,0.19843
5628.81,0.197712
5634.93,0.196855
5641.06,0.19603
5647.21,0.195195
5653.36,0.194495
5659.54,0.193553
5665.72,0.192754
5671.92,0.191824
5678.13,0.190819
5684.36,0.189916
5690.6,0.188876
5696.85,0.187777
5703.12,0.186835
5709.4,0.185581
5715.69,0.184438
5722.0,0.183344
5728.33,0.181988
5734.66,0.180449
5741.01,0.178888
5747.38,0.177184
5753.76,0.175511
5760.15,0.173713
5766.56,0.171406
5772.98,0.169212
5779.41,0.167208
5785.86,0.16483
5792.33,0.162343
5798.81,0.159653
5805.3,0.156939
5811.81,0.154007
5818.33,0.150853
5824.87,0.147461
5831.42,0.144149
5837.99,0.140546
5844.57,0.136801
5851.17,0.132798
5857.78,0.128615
5864.41,0.124204
5871.05,0.11961
5877.7,0.114836
5884.38,0.109978
5891.06,0.105077
5897.76,0.100066
5904.48,0.094988
5911.21,0.090014
5917.96,0.085041
5924.73,0.080104
5931.5,0.07532
5938.3,0.070609
5945.11,0.066049
5951.93,0.061926
5958.78,0.057869
5965.63,0.054051
5972.51,0.050593
5979.39,0.047354
5986.3,0.044403
5993.22,0.041744
6000.16,0.039204
6007.11,0.037033
6014.08,0.035156
6021.06,0.033436
6028.06,0.032049
6035.08,0.030877
6042.12,0.029867
6049.17,0.029057
6056.23,0.028414
6063.32,0.028139
6070.42,0.027995
6077.53,0.027921
6084.67,0.028124
6091.82,0.028591
6098.98,0.029139
6106.17,0.029806
6113.37,0.030622
6120.58,0.031552
6127.82,0.032903
6135.07,0.034453
6142.34,0.036248
6149.63,0.038339
6156.93,0.040751
6164.25,0.043492
6171.59,0.046729
6178.95,0.050268
6186.32,0.054052
6193.71,0.058343
6201.12,0.06277
6208.54,0.066966
6215.99,0.071348
6223.45,0.075695
6230.93,0.079991
6238.43,0.083972
6245.95,0.087831
6253.48,0.091435
6261.03,0.094842
6268.6,0.098117
6276.19,0.101386
6283.8,0.104395
6291.43,0.107193
6299.07,0.109887
6306.73,0.112378
6314.42,0.114613
6322.12,0.116829
6329.84,0.118941
6337.57,0.120955
6345.33,0.122585
6353.11,0.12448
6360.9,0.126249
6368.72,0.127591
6376.55,0.129056
6384.4,0.130557
6392.27,0.131787
6400.17,0.132964
6408.08,0.133863
6416.01,0.134575
6423.96,0.135783
6431.93,0.136864
6439.92,0.137492
6447.93,0.13822
6455.96,0.138722
6464.01,0.139269
6472.08,0.139638
6480.17,0.139972
6488.28,0.140182
6496.41,0.140306
6504.56,0.140653
6512.73,0.140948
6520.92,0.140653
6529.14,0.140584
6537.37,0.140563
6545.63,0.14035
6553.9,0.140067
6562.2,0.139887
6570.51,0.139616
6578.85,0.139333
6587.21,0.139272
6595.59,0.138942
6603.99,0.138585
6612.42,0.138302
6620.86,0.137931
6629.33,0.137567
6637.82,0.137014
6646.33,0.136691
6654.86,0.136506
6663.41,0.135871
6671.99,0.135168
6680.59,0.134529
6689.21,0.133955
6697.85,0.133389
6706.51,0.132549
6715.2,0.131549
6723.91,0.130702
6732.64,0.129925
6741.4,0.129076
6750.18,0.128317
6758.98,0.127647
6767.8,0.127077
6776.65,0.1265
6785.52,0.125934
6794.41,0.125454
6803.33,0.125012
6812.27,0.124399
6821.23,0.123635
6830.22,0.122932
6839.23,0.122405
6848.26,0.121806
6857.32,0.121013
6866.4,0.120442
6875.51,0.120051
6884.64,0.119583
6893.8,0.11908
6902.98,0.118545
6912.18,0.117981
6921.41,0.117425
6930.66,0.116886
6939.94,0.116197
6949.24,0.115501
6958.57,0.114721
6967.92,0.113989
6977.3,0.113425
6986.7,0.11266
6996.13,0.111889
7005.59,0.111298
7015.07,0.110625
7024.57,0.109829
7034.1,0.109175
7043.66,0.108474
7053.25,0.107806
7062.85,0.10711
7072.49,0.106316
7082.15,0.105494
7091.84,0.104637
7101.55,0.103866
7111.3,0.103107
7121.06,0.102289
7130.86,0.101444
7140.68,0.100561
7150.53,0.099675
7160.41,0.098872
7170.31,0.097942
7180.24,0.09689
7190.2,0.095882
7200.19,0.094873
7210.2,0.093836
7220.24,0.092767
7230.31,0.091637
7240.41,0.0905
7250.54,0.089411
7260.69,0.088203
7270.88,0.086911
7281.09,0.085737
7291.33,0.084641
7301.6,0.083394
7311.9,0.082095
7322.22,0.080746
7332.58,0.079466
7342.97,0.078288
7353.38,0.076947
7363.83,0.075447
7374.3,0.074124
7384.81,0.072783
7395.34,0.071329
7405.91,0.069927
7416.5,0.068519
7427.13,0.067045
7437.78,0.065541
7448.47,0.064005
7459.19,0.062509
7469.94,0.061074
7480.71,0.059559
7491.52,0.057965
7502.37,0.056426
7513.24,0.054815
7524.14,0.053193
7535.08,0.051623
7546.05,0.049983
7557.05,0.048362
7568.08,0.046751
7579.15,0.045177
7590.24,0.043563
7601.37,0.041844
7612.53,0.040256
7623.73,0.038667
7634.96,0.037199
7646.22,0.035666
7657.51,0.03408
7668.84,0.032533
7680.2,0.031041
7691.59,0.029662
7703.02,0.028212
7714.49,0.026626
7725.98,0.025188
7737.52,0.023777
7749.08,0.022379
7760.68,0.020997
7772.32,0.019649
7783.99,0.018383
7795.69,0.017182
7807.43,0.01599
7819.21,0.01486
7831.02,0.013772
7842.87,0.01272
7854.75,0.011675
7866.67,0.010757
7878.62,0.009879
7890.62,0.009124
7902.64,0.008482
7914.71,0.007881
7926.81,0.00721
7938.95,0.006735
7951.13,0.006439
7963.34,0.00632
7975.59,0.006254
7987.88,0.006239
8000.21,0.006376
8012.57,0.006685
8024.98,0.007235
8037.42,0.007919
8049.9,0.008738
8062.42,0.009729
8074.98,0.011003
8087.57,0.012614
8100.21,0.014504
8112.89,0.016618
8125.6,0.018902
8138.36,0.021407
8151.16,0.024168
8163.99,0.027135
8176.87,0.030218
8189.79,0.033355
8202.75,0.036529
8215.75,0.039768
8228.79,0.042872
8241.87,0.045677
8254.99,0.048228
8268.16,0.05052
8281.37,0.052597
8294.62,0.054396
8307.91,0.055768
8321.24,0.056819
8334.62,0.057681
8348.04,0.058331
8361.51,0.058709
8375.02,0.058767
8388.57,0.058638
8402.16,0.058546
8415.8,0.058358
8429.49,0.058018
8443.22,0.057727
8456.99,0.057405
8470.81,0.056849
8484.67,0.056109
8498.58,0.055584
8512.54,0.055287
8526.54,0.054921
8540.58,0.054506
8554.68,0.053991
8568.82,0.053473
8583.0,0.052938
8597.24,0.052423
8611.52,0.052006
8625.85,0.051662
8640.23,0.051272
8654.65,0.051012
8669.12,0.050839
8683.64,0.050556
8698.21,0.050251
8712.83,0.050029
8727.5,0.049777
8742.22,0.049785
8756.99,0.049922
8771.8,0.049841
8786.67,0.049648
8801.59,0.0498
8816.56,0.049943
8831.58,0.049975
8846.65,0.05009
8861.77,0.050378
8876.94,0.050571
8892.17,0.050618
8907.45,0.050954
8922.78,0.051438
8938.16,0.051648
8953.6,0.051814
8969.09,0.052131
8984.64,0.0526
9000.23,0.053093
9015.89,0.053437
9031.59,0.053774
9047.36,0.054196
9063.17,0.054737
9079.05,0.055294
9094.97,0.055695
9110.96,0.056129
9127.0,0.05658
9143.1,0.057273
9159.25,0.058047
9175.46,0.058707
9191.73,0.059287
9208.06,0.059895
9224.44,0.060613
9240.88,0.061198
9257.38,0.061728
9273.94,0.062363
9290.56,0.062888
9307.24,0.063344
9323.98,0.063778
9340.78,0.064171
9357.64,0.064414
9374.57,0.064596
9391.55,0.064679
9408.59,0.06464
9425.7,0.064525
9442.87,0.064242
9460.1,0.063898
9477.4,0.063483
9494.75,0.063083
9512.17,0.06272
9529.66,0.062177
9547.21,0.061599
9564.83,0.061028
9582.5,0.060276
9600.25,0.059498
9618.06,0.058965
9635.94,0.05828
9653.88,0.057396
9671.89,0.056707
9689.97,0.056217
9708.12,0.055663
9726.33,0.055031
9744.62,0.054479
9762.97,0.054071
9781.39,0.053554
9799.88,0.052931
9818.44,0.05239
9837.07,0.051879
9855.77,0.05151
9874.54,0.051362
9893.39,0.051018
9912.3,0.050695
9931.29,0.050475
9950.36,0.05021
9969.49,0.049873
9988.7,0.049726
10007.98,0.049638
10027.34,0.049516
10046.77,0.049346
10066.28,0.049226
10085.87,0.049089
10105.53,0.048938
10125.26,0.048989
10145.08,0.049202
10164.97,0.049175
10184.94,0.049094
10204.99,0.049151
10225.12,0.049299
10245.33,0.049506
10265.61,0.049797
10285.98,0.050043
10306.43,0.050256
10326.96,0.050576
10347.57,0.050859
10368.27,0.051161
10389.05,0.051682
10409.91,0.052229
10430.86,0.05269
10451.88,0.053317
10473.0,0.054025
10494.2,0.054759
10515.49,0.05557
10536.86,0.056593
10558.32,0.057638
10579.87,0.058592
10601.5,0.059768
10623.23,0.060942
10645.04,0.062085
10666.94,0.063332
10688.94,0.064633
10711.02,0.065956
10733.2,0.067301
10755.47,0.068468
10777.83,0.069712
10800.28,0.071072
10822.83,0.072363
10845.47,0.073859
10868.21,0.0755
10891.04,0.077155
10913.97,0.078651
10936.99,0.08005
10960.12,0.081592
10983.34,0.083399
11006.66,0.08522
11030.07,0.08697
11053.59,0.088713
11077.21,0.090201
11100.93,0.09164
11124.75,0.093214
11148.68,0.09463
11172.71,0.095852
11196.84,0.097129
11221.07,0.098381
11245.41,0.099377
11269.86,0.100427
11294.41,0.101151
11319.07,0.101716
11343.84,0.102175
11368.72,0.102482
11393.7,0.102729
11418.8,0.103
11444.01,0.103277
11469.33,0.10347
11494.76,0.103524
11520.3,0.103409
11545.96,0.103334
11571.73,0.103248
11597.62,0.103085
11623.62,0.102777
11649.74,0.102509
11675.98,0.102111
11702.34,0.10155
11728.81,0.100905
11755.41,0.100182
11782.13,0.099551
11808.96,0.098989
11835.92,0.098289
11863.01,0.097334
11890.22,0.096333
11917.55,0.095393
11945.01,0.094473
11972.6,0.093448
12000.31,0.092374
12028.16,0.091173
12056.13,0.089667
12084.23,0.088149
12112.46,0.086513
12140.83,0.084739
12169.33,0.08291
12197.96,0.080899
12226.73,0.078812
12255.64,0.07644
12284.68,0.073845
12313.86,0.071236
12343.18,0.068621
12372.64,0.065997
12402.24,0.063371
12431.98,0.060781
12461.86,0.058177
12491.89,0.055668
12522.07,0.053243
12552.38,0.050969
12582.85,0.048743
12613.47,0.046444
12644.23,0.044393
12675.15,0.042735
12706.21,0.041381
12737.43,0.040075
12768.81,0.039042
12800.33,0.038379
12832.02,0.037786
12863.86,0.037373
12895.86,0.037178
12928.02,0.036968
12960.34,0.036731
12992.82,0.036611
13025.46,0.036582
13058.27,0.036507
13091.25,0.036348
13124.39,0.036155
13157.7,0.035969
13191.18,0.035669
13224.83,0.03532
13258.66,0.034927
13292.65,0.03468
13326.83,0.034614
13361.17,0.034409
13395.7,0.033926
13430.4,0.033482
13465.29,0.033302
13500.35,0.032887
13535.6,0.032452
13571.03,0.032183
13606.65,0.032193
13642.46,0.032233
13678.46,0.032067
13714.64,0.031776
13751.02,0.031603
13787.59,0.031312
13824.36,0.031205
13861.32,0.031241
13898.49,0.031281
13935.85,0.031283
13973.41,0.031146
14011.17,0.031087
14049.15,0.031124
14087.32,0.031076
14125.71,0.030968
14164.3,0.0308
14203.11,0.030606
14242.13,0.030628
14281.36,0.030543
14320.81,0.030209
14360.49,0.029914
14400.38,0.029804
14440.49,0.029476
14480.82,0.028905
14521.39,0.028625
14562.18,0.028668
14603.2,0.028529
14644.45,0.028144
14685.93,0.027943
14727.66,0.0278
14769.62,0.027594
14811.81,0.02725
14854.25,0.026936
14896.94,0.026613
14939.87,0.026494
14983.05,0.026721
15026.48,0.026992
15070.16,0.027482
15114.1,0.027814
15158.29,0.028302
15202.74,0.029342
15247.46,0.030275
15292.43,0.031076
15337.68,0.032078
15383.19,0.033009
15428.97,0.033729
15475.03,0.034839
15521.36,0.035625
15567.97,0.036225
15614.87,0.036658
15662.04,0.036945
15709.5,0.037163
15757.25,0.037536
15805.29,0.038073
15853.62,0.038279
15902.26,0.038293
15951.19,0.038564
16000.42,0.038642
16049.95,0.038859
16099.8,0.039052
16149.95,0.038923
16200.42,0.039074
16251.21,0.03915
16302.31,0.039084
16353.74,0.039213
16405.49,0.039076
16457.57,0.038899
16509.98,0.038935
16562.73,0.038977
16615.82,0.038728
16669.24,0.038334
16723.02,0.038044
16777.14,0.038044
16831.61,0.037766
16886.43,0.037353
16941.62,0.037227
16997.16,0.036951
17053.08,0.036704
17109.36,0.036695
17166.01,0.036758
17223.04,0.036511
17280.45,0.036091
17338.24,0.035959
17396.43,0.03593
17455.0,0.035815
17513.97,0.035593
17573.34,0.035195
17633.11,0.034876
17693.29,0.034949
17753.89,0.034835
17814.9,0.034117
17876.33,0.033577
17938.18,0.033548
18000.47,0.033186
18063.19,0.032645
18126.35,0.032089
18189.95,0.031888
18254.0,0.031973
18318.5,0.031981
18383.46,0.031822
18448.88,0.031503
18514.77,0.031073
18581.13,0.031463
18647.97,0.032427
18715.29,0.033489
18783.1,0.0351
18851.4,0.036623
18920.2,0.037847
18989.51,0.03923
19059.32,0.040466
19129.65,0.041329
19200.5,0.041303
19271.88,0.040941
19343.79,0.041129
19416.24,0.041508
19489.23,0.041759
19562.77,0.041676
19636.88,0.041295
19711.54,0.041415
19786.78,0.041678
19862.59,0.042023
19938.98,0.042579
20015.96,0.042326
20093.55,0.042501
20171.73,0.043394
20250.53,0.04442
20329.94,0.045381
20409.98,0.046395
20490.65,0.047486
20571.96,0.048753
20653.92,0.050724
20736.54,0.052407
20819.82,0.054159
20903.77,0.055214
20988.4,0.05588
21073.72,0.057025
21159.73,0.057901
21246.46,0.057754
21333.89,0.057418
21422.04,0.057869
21510.93,0.058309
21600.56,0.058604
21690.94,0.059317
21782.08,0.059107
21873.99,0.058304
21966.67,0.058469
22060.15,0.059461
22154.42,0.060063
22249.51,0.060098
22345.41,0.060086
22442.14,0.060312
22539.72,0.060362
22638.14,0.060251
22737.43,0.060735
22837.6,0.061941
22938.65,0.062732
23040.6,0.063298
23143.46,0.064013
23247.24,0.064774
23351.96,0.065704
23457.63,0.06703
23564.25,0.068814
23671.85,0.070509
23780.44,0.070884
23890.02,0.071656
24000.63,0.073232
24112.26,0.074179
24224.93,0.072995
24338.66,0.072959
24453.47,0.074379
24569.36,0.073708
24686.36,0.072439
24804.47,0.071495
24923.73,0.072493
25044.13,0.073511
25165.71,0.073555
25288.46,0.07601
25412.43,0.075727
25537.61,0.073213
25664.04,0.072353
25791.72,0.075622
25920.68,0.076566
