Database of Origin,University of Winnipeg Spectrophotometer Facility
Sample Description,RELAB plus Nicolet merged data for Olivines. See Master Olivines in PSF sample database for additional information.
Date Added,2017-07-03 06:07:37.630183

Data ID,RLA_OLV_01          
Sample ID,OLV008
Mineral Name,Olivine
Grain Size,<45
Viewing Geometry,"30/0,30"
Resolution,5/1.2-129
Material Class,Nesosilicate

Wavelength
8.0,0.45
30.0,0.3
300.0,0.203446
305.0,0.213743
310.0,0.223533
315.0,0.23648
320.0,0.250985
325.0,0.264789
330.0,0.277124
335.0,0.28851
340.0,0.300632
345.0,0.311739
350.0,0.321308
355.0,0.331695
360.0,0.339731
365.0,0.348219
370.0,0.356345
375.0,0.362612
380.0,0.37252
385.0,0.379071
390.0,0.384455
395.0,0.391755
400.0,0.396075
405.0,0.403742
410.0,0.41853
415.0,0.423841
420.0,0.431072
425.0,0.436304
430.0,0.441473
435.0,0.449566
440.0,0.451913
445.0,0.457165
450.0,0.4637
455.0,0.46625
460.0,0.467635
465.0,0.474418
470.0,0.479257
475.0,0.484983
480.0,0.487861
485.0,0.491459
490.0,0.494717
495.0,0.49777
500.0,0.502245
505.0,0.505234
510.0,0.509214
515.0,0.510606
520.0,0.515221
525.0,0.517662
530.0,0.520473
535.0,0.522814
540.0,0.528444
545.0,0.527493
550.0,0.531041
555.0,0.53597
560.0,0.538987
565.0,0.539482
570.0,0.543352
575.0,0.545592
580.0,0.544332
585.0,0.546534
590.0,0.545079
595.0,0.547998
600.0,0.547204
605.0,0.552335
610.0,0.549076
615.0,0.551723
620.0,0.552545
625.0,0.55345
630.0,0.552654
635.0,0.551316
640.0,0.554048
645.0,0.553233
650.0,0.554251
655.0,0.555745
660.0,0.553745
665.0,0.555808
670.0,0.558554
675.0,0.556471
680.0,0.557656
685.0,0.556824
690.0,0.55513
695.0,0.559695
700.0,0.556527
705.0,0.551223
710.0,0.552434
715.0,0.553382
720.0,0.550349
725.0,0.549698
730.0,0.549397
735.0,0.546195
740.0,0.546033
745.0,0.542817
750.0,0.543121
755.0,0.540558
760.0,0.540102
765.0,0.536417
770.0,0.532994
775.0,0.52893
780.0,0.529099
785.0,0.529336
790.0,0.526709
795.0,0.522163
800.0,0.516897
805.0,0.51601
810.0,0.512997
815.0,0.512877
820.0,0.511116
825.0,0.506449
830.0,0.504265
835.0,0.503198
840.0,0.501618
845.0,0.499945
850.0,0.498749
855.0,0.500909
860.0,0.498586
865.0,0.498543
870.0,0.496335
875.0,0.495297
880.0,0.493344
885.0,0.492822
890.0,0.489219
895.0,0.490208
900.0,0.489325
905.0,0.487866
910.0,0.485361
915.0,0.485001
920.0,0.483938
925.0,0.481871
930.0,0.481637
935.0,0.479765
940.0,0.478265
945.0,0.475894
950.0,0.475536
955.0,0.474286
960.0,0.47138
965.0,0.470888
970.0,0.468913
975.0,0.465352
980.0,0.464526
985.0,0.461807
990.0,0.460782
995.0,0.458665
1000.0,0.456176
1005.0,0.454538
1010.0,0.453391
1015.0,0.452098
1020.0,0.450523
1025.0,0.449466
1030.0,0.44804
1035.0,0.446779
1040.0,0.445905
1045.0,0.444952
1050.0,0.445769
1055.0,0.445422
1060.0,0.445542
1065.0,0.445362
1070.0,0.447053
1075.0,0.447797
1080.0,0.448819
1085.0,0.449776
1090.0,0.450754
1095.0,0.451733
1100.0,0.452019
1105.0,0.454541
1110.0,0.456884
1115.0,0.458377
1120.0,0.460364
1125.0,0.462012
1130.0,0.462808
1135.0,0.464781
1140.0,0.466953
1145.0,0.467762
1150.0,0.469438
1155.0,0.47127
1160.0,0.472539
1165.0,0.47259
1170.0,0.473339
1175.0,0.47538
1180.0,0.473987
1185.0,0.475432
1190.0,0.476879
1195.0,0.477369
1200.0,0.478111
1205.0,0.478541
1210.0,0.477602
1215.0,0.480531
1220.0,0.480607
1225.0,0.480839
1230.0,0.480945
1235.0,0.481266
1240.0,0.4826
1245.0,0.483063
1250.0,0.482001
1255.0,0.484185
1260.0,0.484853
1265.0,0.485402
1270.0,0.486727
1275.0,0.487555
1280.0,0.487431
1285.0,0.489123
1290.0,0.491301
1295.0,0.492517
1300.0,0.493267
1305.0,0.4939
1310.0,0.49473
1315.0,0.49681
1320.0,0.497473
1325.0,0.498086
1330.0,0.498996
1335.0,0.500773
1340.0,0.502004
1345.0,0.502424
1350.0,0.503965
1355.0,0.503646
1360.0,0.505072
1365.0,0.507698
1370.0,0.509663
1375.0,0.509596
1380.0,0.511801
1385.0,0.513858
1390.0,0.515237
1395.0,0.514941
1400.0,0.514802
1405.0,0.515746
1410.0,0.519794
1415.0,0.521057
1420.0,0.521346
1425.0,0.523368
1430.0,0.524693
1435.0,0.524849
1440.0,0.526628
1445.0,0.527685
1450.0,0.529255
1455.0,0.532148
1460.0,0.532292
1465.0,0.533541
1470.0,0.534333
1475.0,0.535482
1480.0,0.536042
1485.0,0.537425
1490.0,0.537716
1495.0,0.53937
1500.0,0.539612
1505.0,0.540475
1510.0,0.541266
1515.0,0.543628
1520.0,0.543842
1525.0,0.543762
1530.0,0.544557
1535.0,0.544684
1540.0,0.546576
1545.0,0.548017
1550.0,0.547941
1555.0,0.548933
1560.0,0.549155
1565.0,0.549885
1570.0,0.549735
1575.0,0.550937
1580.0,0.551847
1585.0,0.55365
1590.0,0.553042
1595.0,0.554573
1600.0,0.553512
1605.0,0.554689
1610.0,0.555114
1615.0,0.556172
1620.0,0.556261
1625.0,0.55651
1630.0,0.556392
1635.0,0.556089
1640.0,0.55637
1645.0,0.557257
1650.0,0.558072
1655.0,0.558805
1660.0,0.559771
1665.0,0.561462
1670.0,0.561274
1675.0,0.56256
1680.0,0.5623
1685.0,0.563256
1690.0,0.563549
1695.0,0.564454
1700.0,0.564681
1705.0,0.563327
1710.0,0.563771
1715.0,0.56386
1720.0,0.56472
1725.0,0.565024
1730.0,0.564401
1735.0,0.5651
1740.0,0.565244
1745.0,0.565611
1750.0,0.566236
1755.0,0.566461
1760.0,0.566587
1765.0,0.566949
1770.0,0.567112
1775.0,0.566676
1780.0,0.566365
1785.0,0.566583
1790.0,0.56734
1795.0,0.567353
1800.0,0.567202
1805.0,0.567147
1810.0,0.566263
1815.0,0.566903
1820.0,0.565958
1825.0,0.567714
1830.0,0.566652
1835.0,0.565154
1840.0,0.566028
1845.0,0.566604
1850.0,0.566886
1855.0,0.568498
1860.0,0.568566
1865.0,0.569468
1870.0,0.566676
1875.0,0.570861
1880.0,0.572562
1885.0,0.570657
1890.0,0.570023
1895.0,0.570339
1900.0,0.569044
1905.0,0.570694
1910.0,0.571274
1915.0,0.570005
1920.0,0.570386
1925.0,0.57247
1930.0,0.570767
1935.0,0.571383
1940.0,0.571215
1945.0,0.572954
1950.0,0.572323
1955.0,0.571734
1960.0,0.571173
1965.0,0.568571
1970.0,0.563358
1975.0,0.564433
1980.0,0.566985
1985.0,0.570498
1990.0,0.573199
1995.0,0.573476
2000.0,0.574283
2005.0,0.576026
2010.0,0.577171
2015.0,0.577655
2020.0,0.577298
2025.0,0.579746
2030.0,0.58012
2035.0,0.578808
2040.0,0.57955
2045.0,0.578926
2050.0,0.579243
2055.0,0.579016
2060.0,0.58086
2065.0,0.57849
2070.0,0.581161
2075.0,0.580358
2080.0,0.581574
2085.0,0.579672
2090.0,0.582166
2095.0,0.581639
2100.0,0.581171
2105.0,0.58228
2110.0,0.582376
2115.0,0.581173
2120.0,0.581137
2125.0,0.581901
2130.0,0.58132
2135.0,0.582037
2140.0,0.581826
2145.0,0.582303
2150.0,0.583479
2155.0,0.582207
2160.0,0.582811
2165.0,0.581781
2170.0,0.581003
2175.0,0.58065
2180.0,0.580958
2185.0,0.581543
2190.0,0.582233
2195.0,0.581671
2200.0,0.57856
2205.0,0.575718
2210.0,0.568685
2215.0,0.556518
2220.0,0.550701
2225.0,0.561734
2230.0,0.56764
2235.0,0.569167
2240.0,0.566918
2245.0,0.562355
2250.0,0.559409
2255.0,0.557871
2260.0,0.56512
2265.0,0.573348
2270.0,0.578248
2275.0,0.580783
2280.0,0.58404
2285.0,0.58426
2290.0,0.584986
2295.0,0.582737
2300.0,0.57995
2305.0,0.571372
2310.0,0.534291
2315.0,0.521902
2320.0,0.550444
2325.0,0.5685
2330.0,0.57374
2335.0,0.57664
2340.0,0.578356
2345.0,0.577688
2350.0,0.577654
2355.0,0.57649
2360.0,0.577572
2365.0,0.578405
2370.0,0.578103
2375.0,0.579069
2380.0,0.57875
2385.0,0.578624
2390.0,0.579062
2395.0,0.578599
2400.0,0.577635
2405.0,0.57809
2410.0,0.577191
2415.0,0.576564
2420.0,0.573009
2425.0,0.572636
2430.0,0.569233
2435.0,0.564321
2440.0,0.560557
2445.0,0.558608
2450.0,0.563767
2455.0,0.566268
2460.0,0.56778
2465.0,0.568304
2470.0,0.566398
2475.0,0.566403
2480.0,0.5659
2485.0,0.564617
2490.0,0.561487
2495.0,0.557678
2500.0,0.552949
2502.0,0.551264
2503.2,0.549543
2504.41,0.547741
2505.62,0.545893
2506.83,0.543714
2508.05,0.541811
2509.26,0.539825
2510.48,0.538169
2511.69,0.536528
2512.91,0.535272
2514.13,0.534439
2515.35,0.534089
2516.57,0.533992
2517.79,0.534814
2519.02,0.53564
2520.24,0.536664
2521.47,0.53764
2522.69,0.538337
2523.92,0.538721
2525.15,0.538776
2526.38,0.538344
2527.61,0.537805
2528.85,0.53657
2530.08,0.535348
2531.32,0.534579
2532.55,0.53367
2533.79,0.532582
2535.03,0.531786
2536.27,0.530824
2537.51,0.530143
2538.75,0.529399
2540.0,0.52853
2541.24,0.527529
2542.49,0.526427
2543.74,0.525327
2544.99,0.524625
2546.24,0.523603
2547.49,0.522618
2548.74,0.521208
2549.99,0.520076
2551.25,0.51916
2552.5,0.517998
2553.76,0.517187
2555.02,0.516958
2556.28,0.516196
2557.54,0.515287
2558.8,0.514465
2560.07,0.513918
2561.33,0.513366
2562.6,0.512797
2563.86,0.512583
2565.13,0.5125
2566.4,0.512332
2567.67,0.512604
2568.95,0.512448
2570.22,0.511943
2571.5,0.512174
2572.77,0.512332
2574.05,0.51163
2575.33,0.511619
2576.61,0.511172
2577.89,0.510087
2579.17,0.509764
2580.46,0.508913
2581.74,0.507549
2583.03,0.506626
2584.31,0.505202
2585.6,0.504424
2586.89,0.503494
2588.19,0.502274
2589.48,0.501669
2590.77,0.501388
2592.07,0.500434
2593.36,0.499546
2594.66,0.498273
2595.96,0.49755
2597.26,0.498889
2598.56,0.499078
2599.87,0.498326
2601.17,0.49762
2602.48,0.497247
2603.78,0.497109
2605.09,0.496448
2606.4,0.495884
2607.71,0.496287
2609.03,0.496904
2610.34,0.496772
2611.66,0.496987
2612.97,0.497371
2614.29,0.497516
2615.61,0.497859
2616.93,0.498238
2618.25,0.498779
2619.57,0.499815
2620.9,0.500052
2622.22,0.500997
2623.55,0.502373
2624.88,0.50255
2626.21,0.502491
2627.54,0.502969
2628.87,0.504012
2630.21,0.504428
2631.54,0.504378
2632.88,0.50527
2634.21,0.505761
2635.55,0.50588
2636.89,0.506249
2638.24,0.506635
2639.58,0.506624
2640.92,0.506872
2642.27,0.50719
2643.62,0.508121
2644.97,0.509086
2646.32,0.509895
2647.67,0.511242
2649.02,0.512926
2650.38,0.514065
2651.73,0.514992
2653.09,0.516424
2654.45,0.518322
2655.81,0.519854
2657.17,0.521155
2658.53,0.522671
2659.89,0.523476
2661.26,0.524689
2662.63,0.525605
2664.0,0.525994
2665.36,0.525911
2666.74,0.526091
2668.11,0.526527
2669.48,0.526875
2670.86,0.526376
2672.23,0.526571
2673.61,0.527858
2674.99,0.527621
2676.37,0.527055
2677.76,0.527069
2679.14,0.527726
2680.52,0.528161
2681.91,0.528447
2683.3,0.527936
2684.69,0.527259
2686.08,0.526894
2687.47,0.526323
2688.87,0.525389
2690.26,0.524344
2691.66,0.522347
2693.06,0.519337
2694.46,0.514714
2695.86,0.508802
2697.26,0.498901
2698.66,0.48032
2700.07,0.453979
2701.48,0.436956
2702.89,0.433176
2704.3,0.426247
2705.71,0.410501
2707.12,0.390449
2708.53,0.372434
2709.95,0.36043
2711.37,0.355924
2712.79,0.359182
2714.21,0.366647
2715.63,0.376289
2717.05,0.388199
2718.48,0.401821
2719.9,0.414266
2721.33,0.423557
2722.76,0.430509
2724.19,0.432633
2725.62,0.431604
2727.06,0.431356
2728.49,0.433095
2729.93,0.43659
2731.37,0.440551
2732.81,0.444028
2734.25,0.445731
2735.69,0.446273
2737.14,0.446681
2738.58,0.446412
2740.03,0.444872
2741.48,0.444058
2742.93,0.444267
2744.38,0.445208
2745.83,0.446796
2747.29,0.449318
2748.75,0.452019
2750.2,0.454636
2751.66,0.456952
2753.13,0.458803
2754.59,0.4601
2756.05,0.460556
2757.52,0.460853
2758.99,0.460964
2760.46,0.459847
2761.93,0.458174
2763.4,0.45664
2764.87,0.455386
2766.35,0.453936
2767.82,0.451976
2769.3,0.449472
2770.78,0.446722
2772.26,0.443121
2773.75,0.43948
2775.23,0.435486
2776.72,0.431477
2778.21,0.426742
2779.7,0.421213
2781.19,0.414601
2782.68,0.407167
2784.18,0.399086
2785.67,0.389665
2787.17,0.377867
2788.67,0.363255
2790.17,0.342861
2791.67,0.310817
2793.18,0.260119
2794.68,0.194459
2796.19,0.13455
2797.7,0.096339
2799.21,0.076697
2800.72,0.066404
2802.24,0.058341
2803.75,0.051765
2805.27,0.048543
2806.79,0.048509
2808.31,0.049942
2809.83,0.050497
2811.35,0.049149
2812.88,0.049192
2814.41,0.054342
2815.93,0.066588
2817.46,0.083439
2819.0,0.100502
2820.53,0.11734
2822.07,0.135995
2823.6,0.156473
2825.14,0.176287
2826.68,0.193858
2828.22,0.211075
2829.77,0.229377
2831.31,0.248034
2832.86,0.264965
2834.41,0.279579
2835.96,0.291877
2837.51,0.303223
2839.07,0.315517
2840.62,0.329485
2842.18,0.343742
2843.74,0.357561
2845.3,0.370124
2846.86,0.38151
2848.43,0.39145
2849.99,0.400618
2851.56,0.40808
2853.13,0.414242
2854.7,0.419378
2856.27,0.423693
2857.85,0.427303
2859.42,0.429943
2861.0,0.432004
2862.58,0.433629
2864.16,0.434908
2865.75,0.436094
2867.33,0.436906
2868.92,0.437663
2870.51,0.438309
2872.1,0.438991
2873.69,0.43934
2875.28,0.439623
2876.88,0.439798
2878.48,0.439978
2880.07,0.440145
2881.68,0.440076
2883.28,0.439713
2884.88,0.439862
2886.49,0.44007
2888.1,0.440155
2889.71,0.439885
2891.32,0.439667
2892.93,0.439525
2894.55,0.439301
2896.16,0.439053
2897.78,0.438818
2899.4,0.438723
2901.03,0.438367
2902.65,0.437937
2904.28,0.437416
2905.91,0.436982
2907.54,0.43668
2909.17,0.436086
2910.8,0.435343
2912.44,0.434658
2914.07,0.434167
2915.71,0.433327
2917.35,0.432331
2918.99,0.431114
2920.64,0.429839
2922.29,0.42855
2923.93,0.426878
2925.58,0.425166
2927.24,0.423422
2928.89,0.421627
2930.55,0.419951
2932.2,0.418083
2933.86,0.416371
2935.52,0.414983
2937.19,0.413345
2938.85,0.411693
2940.52,0.409954
2942.19,0.408336
2943.86,0.406875
2945.53,0.405728
2947.21,0.405071
2948.88,0.404734
2950.56,0.404916
2952.24,0.405407
2953.92,0.406228
2955.61,0.407252
2957.29,0.408441
2958.98,0.409551
2960.67,0.410763
2962.36,0.411737
2964.06,0.412498
2965.75,0.412903
2967.45,0.41286
2969.15,0.412259
2970.85,0.411778
2972.55,0.411122
2974.26,0.410246
2975.97,0.409152
2977.68,0.407928
2979.39,0.406944
2981.1,0.40594
2982.82,0.40499
2984.53,0.404102
2986.25,0.40328
2987.97,0.403156
2989.7,0.403211
2991.42,0.402984
2993.15,0.402967
2994.88,0.403404
2996.61,0.404007
2998.34,0.404843
3000.08,0.405793
3001.82,0.406541
3003.55,0.40739
3005.3,0.40851
3007.04,0.409557
3008.78,0.410798
3010.53,0.411872
3012.28,0.412818
3014.03,0.413877
3015.79,0.414799
3017.54,0.415561
3019.3,0.416341
3021.06,0.416949
3022.82,0.417483
3024.58,0.417835
3026.35,0.418541
3028.12,0.41953
3029.89,0.420561
3031.66,0.42159
3033.43,0.422614
3035.21,0.423702
3036.99,0.424825
3038.77,0.425837
3040.55,0.427067
3042.33,0.428155
3044.12,0.429264
3045.91,0.430254
3047.7,0.431347
3049.49,0.432216
3051.29,0.43301
3053.08,0.433753
3054.88,0.43468
3056.68,0.435504
3058.49,0.43622
3060.29,0.437044
3062.1,0.438077
3063.91,0.438861
3065.72,0.439879
3067.54,0.440978
3069.35,0.442074
3071.17,0.442951
3072.99,0.443857
3074.81,0.444738
3076.64,0.445857
3078.47,0.446968
3080.29,0.448071
3082.13,0.448945
3083.96,0.450006
3085.79,0.450977
3087.63,0.451895
3089.47,0.452813
3091.31,0.453404
3093.16,0.453837
3095.01,0.454555
3096.85,0.455319
3098.71,0.455903
3100.56,0.456501
3102.41,0.456964
3104.27,0.457321
3106.13,0.45776
3107.99,0.458236
3109.86,0.458381
3111.73,0.458732
3113.59,0.45907
3115.47,0.459327
3117.34,0.459643
3119.21,0.459852
3121.09,0.460264
3122.97,0.460611
3124.86,0.460936
3126.74,0.461186
3128.63,0.461612
3130.52,0.461978
3132.41,0.462386
3134.3,0.462657
3136.2,0.463101
3138.1,0.463524
3140.0,0.4638
3141.9,0.464111
3143.81,0.464447
3145.71,0.464795
3147.62,0.465255
3149.54,0.465616
3151.45,0.46598
3153.37,0.466412
3155.29,0.466886
3157.21,0.467377
3159.13,0.467975
3161.06,0.468642
3162.99,0.469249
3164.92,0.469988
3166.85,0.470674
3168.79,0.471371
3170.72,0.47205
3172.67,0.472593
3174.61,0.473228
3176.55,0.473964
3178.5,0.474533
3180.45,0.475018
3182.4,0.475449
3184.36,0.475822
3186.32,0.476118
3188.27,0.476595
3190.24,0.477016
3192.2,0.477388
3194.17,0.477833
3196.14,0.478222
3198.11,0.478767
3200.08,0.479278
3202.06,0.479542
3204.04,0.479743
3206.02,0.479986
3208.0,0.480166
3209.99,0.480592
3211.98,0.481126
3213.97,0.481496
3215.96,0.481577
3217.96,0.481516
3219.96,0.4817
3221.96,0.481979
3223.96,0.482113
3225.97,0.482306
3227.98,0.48254
3229.99,0.482778
3232.0,0.482936
3234.02,0.483157
3236.04,0.483251
3238.06,0.483461
3240.08,0.48365
3242.11,0.483909
3244.14,0.483949
3246.17,0.484015
3248.2,0.484094
3250.24,0.484317
3252.28,0.484591
3254.32,0.484968
3256.37,0.485166
3258.41,0.48535
3260.46,0.485456
3262.51,0.485644
3264.57,0.485987
3266.63,0.486194
3268.69,0.486349
3270.75,0.48656
3272.81,0.486768
3274.88,0.487065
3276.95,0.487113
3279.02,0.487172
3281.1,0.487495
3283.18,0.487614
3285.26,0.487509
3287.34,0.487485
3289.43,0.487492
3291.51,0.487746
3293.61,0.487975
3295.7,0.488116
3297.8,0.488123
3299.9,0.488496
3302.0,0.4887
3304.1,0.48896
3306.21,0.489007
3308.32,0.489228
3310.43,0.489542
3312.55,0.489856
3314.66,0.49015
3316.79,0.490293
3318.91,0.49026
3321.03,0.490419
3323.16,0.490604
3325.29,0.490983
3327.43,0.491066
3329.57,0.491018
3331.71,0.490795
3333.85,0.49061
3335.99,0.490194
3338.14,0.489637
3340.29,0.489018
3342.45,0.488298
3344.6,0.487547
3346.76,0.487124
3348.92,0.486648
3351.09,0.486195
3353.26,0.485682
3355.43,0.485108
3357.6,0.48471
3359.78,0.484271
3361.96,0.483742
3364.14,0.48295
3366.32,0.482085
3368.51,0.481026
3370.7,0.479977
3372.89,0.479273
3375.09,0.478788
3377.29,0.478369
3379.49,0.478102
3381.69,0.478242
3383.9,0.478712
3386.11,0.479223
3388.32,0.479567
3390.54,0.479862
3392.76,0.479933
3394.98,0.479554
3397.21,0.478857
3399.43,0.477966
3401.66,0.476914
3403.9,0.475658
3406.13,0.474378
3408.37,0.473042
3410.61,0.471799
3412.86,0.470669
3415.11,0.469852
3417.36,0.469523
3419.61,0.469799
3421.87,0.470663
3424.13,0.472024
3426.39,0.473695
3428.66,0.475453
3430.93,0.477064
3433.2,0.478603
3435.48,0.480099
3437.76,0.48144
3440.04,0.482552
3442.32,0.483358
3444.61,0.484172
3446.9,0.484793
3449.19,0.485516
3451.49,0.486084
3453.79,0.486542
3456.09,0.48708
3458.4,0.487455
3460.7,0.487776
3463.02,0.488001
3465.33,0.48798
3467.65,0.48764
3469.97,0.487256
3472.29,0.486915
3474.62,0.486526
3476.95,0.48622
3479.29,0.48608
3481.62,0.486086
3483.96,0.486409
3486.3,0.486685
3488.65,0.486869
3491.0,0.487067
3493.35,0.487119
3495.71,0.486961
3498.07,0.486683
3500.43,0.486731
3502.79,0.486926
3505.16,0.48761
3507.53,0.48894
3509.91,0.490714
3512.29,0.492562
3514.67,0.494483
3517.05,0.496319
3519.44,0.497799
3521.83,0.498989
3524.23,0.499994
3526.62,0.500901
3529.02,0.50161
3531.43,0.502153
3533.83,0.502742
3536.24,0.50317
3538.66,0.503494
3541.08,0.503729
3543.5,0.503987
3545.92,0.50418
3548.35,0.504239
3550.78,0.504249
3553.21,0.504302
3555.65,0.504331
3558.09,0.504155
3560.53,0.503982
3562.98,0.504019
3565.43,0.50417
3567.88,0.504398
3570.34,0.504843
3572.8,0.505558
3575.27,0.506202
3577.73,0.506932
3580.2,0.507537
3582.68,0.507947
3585.16,0.508319
3587.64,0.508793
3590.12,0.509318
3592.61,0.509999
3595.1,0.510904
3597.6,0.511865
3600.09,0.512675
3602.6,0.513442
3605.1,0.5141
3607.61,0.514824
3610.12,0.515474
3612.64,0.51594
3615.16,0.516283
3617.68,0.516652
3620.21,0.51704
3622.74,0.517351
3625.27,0.517576
3627.81,0.517763
3630.35,0.517943
3632.89,0.518255
3635.44,0.518511
3637.99,0.518681
3640.54,0.518815
3643.1,0.5191
3645.66,0.519335
3648.23,0.51959
3650.8,0.519811
3653.37,0.520007
3655.95,0.520174
3658.53,0.520496
3661.11,0.520603
3663.7,0.520754
3666.29,0.520821
3668.89,0.521037
3671.48,0.521316
3674.09,0.521521
3676.69,0.521627
3679.3,0.521732
3681.91,0.521785
3684.53,0.521942
3687.15,0.521974
3689.78,0.521955
3692.4,0.521941
3695.04,0.521912
3697.67,0.52187
3700.31,0.521939
3702.95,0.52211
3705.6,0.522193
3708.25,0.522082
3710.91,0.522149
3713.56,0.52233
3716.23,0.522489
3718.89,0.522641
3721.56,0.522871
3724.23,0.52292
3726.91,0.523088
3729.59,0.523269
3732.28,0.5235
3734.97,0.523695
3737.66,0.523969
3740.36,0.524162
3743.06,0.524355
3745.76,0.524629
3748.47,0.524894
3751.18,0.525032
3753.9,0.525283
3756.62,0.525575
3759.34,0.525833
3762.07,0.525899
3764.8,0.5261
3767.54,0.526272
3770.28,0.526417
3773.02,0.526548
3775.77,0.526703
3778.52,0.526677
3781.28,0.526832
3784.04,0.526848
3786.8,0.526848
3789.57,0.526746
3792.34,0.526358
3795.12,0.525646
3797.9,0.525105
3800.69,0.524395
3803.47,0.523599
3806.27,0.523118
3809.06,0.523023
3811.86,0.522705
3814.67,0.522602
3817.48,0.523136
3820.29,0.523693
3823.11,0.524003
3825.93,0.524224
3828.76,0.524254
3831.59,0.524298
3834.42,0.524388
3837.26,0.524606
3840.1,0.524788
3842.95,0.524965
3845.8,0.525158
3848.65,0.525455
3851.51,0.525789
3854.38,0.526049
3857.24,0.526328
3860.12,0.52661
3862.99,0.526763
3865.87,0.526921
3868.76,0.527057
3871.65,0.527264
3874.54,0.527379
3877.44,0.527522
3880.34,0.52778
3883.25,0.527968
3886.16,0.52801
3889.07,0.528159
3891.99,0.528336
3894.92,0.528472
3897.85,0.528513
3900.78,0.528605
3903.72,0.52864
3906.66,0.528716
3909.6,0.528672
3912.55,0.528711
3915.51,0.528661
3918.47,0.528599
3921.43,0.528415
3924.4,0.528224
3927.38,0.528005
3930.35,0.527849
3933.33,0.527602
3936.32,0.527337
3939.31,0.526912
3942.31,0.526332
3945.31,0.525432
3948.31,0.52445
3951.32,0.523578
3954.34,0.522798
3957.35,0.521976
3960.38,0.521283
3963.41,0.520616
3966.44,0.520085
3969.48,0.519701
3972.52,0.51947
3975.56,0.519411
3978.61,0.519615
3981.67,0.519823
3984.73,0.520283
3987.8,0.521026
3990.87,0.521994
3993.94,0.523067
3997.02,0.524217
4000.1,0.525347
4003.19,0.526507
4006.29,0.527561
4009.39,0.528544
4012.49,0.529418
4015.6,0.53035
4018.71,0.531219
4021.83,0.532075
4024.95,0.532985
4028.08,0.533921
4031.21,0.534773
4034.35,0.535746
4037.49,0.536662
4040.64,0.537437
4043.79,0.538113
4046.94,0.53874
4050.11,0.539269
4053.27,0.539789
4056.44,0.540148
4059.62,0.540495
4062.8,0.540755
4065.99,0.541013
4069.18,0.541209
4072.38,0.541402
4075.58,0.541588
4078.78,0.541708
4082.0,0.54185
4085.21,0.541981
4088.43,0.542035
4091.66,0.542161
4094.89,0.542235
4098.13,0.542317
4101.37,0.542331
4104.62,0.54232
4107.87,0.542363
4111.13,0.542516
4114.39,0.542495
4117.66,0.54249
4120.93,0.54249
4124.21,0.542509
4127.5,0.542607
4130.79,0.542796
4134.08,0.542967
4137.38,0.543127
4140.68,0.54324
4143.99,0.543355
4147.31,0.543447
4150.63,0.543563
4153.95,0.543593
4157.29,0.543693
4160.62,0.543832
4163.96,0.543901
4167.31,0.543956
4170.66,0.544082
4174.02,0.544128
4177.39,0.544205
4180.75,0.544276
4184.13,0.544343
4187.51,0.544478
4190.89,0.544524
4194.28,0.544483
4197.68,0.544522
4201.08,0.544485
4204.49,0.544303
4207.9,0.544034
4211.32,0.543853
4214.74,0.543482
4218.17,0.543005
4221.61,0.542633
4225.05,0.542387
4228.5,0.542194
4231.95,0.542072
4235.4,0.542011
4238.87,0.542041
4242.34,0.542134
4245.81,0.542318
4249.29,0.542612
4252.78,0.543026
4256.27,0.543638
4259.77,0.543919
4263.27,0.543491
4266.78,0.542884
4270.29,0.542654
4273.81,0.542578
4277.34,0.542493
4280.87,0.542497
4284.41,0.542442
4287.95,0.542439
4291.5,0.542453
4295.06,0.542543
4298.62,0.542706
4302.19,0.542831
4305.76,0.542837
4309.34,0.542989
4312.92,0.543185
4316.52,0.54339
4320.11,0.543395
4323.72,0.54351
4327.32,0.543712
4330.94,0.5438
4334.56,0.543792
4338.19,0.543848
4341.82,0.543894
4345.46,0.544009
4349.11,0.544013
4352.76,0.544041
4356.42,0.543981
4360.08,0.543953
4363.75,0.543919
4367.43,0.543979
4371.11,0.543938
4374.8,0.543852
4378.49,0.543717
4382.19,0.54371
4385.9,0.543608
4389.61,0.543519
4393.33,0.54336
4397.06,0.543298
4400.79,0.543302
4404.53,0.543247
4408.28,0.543073
4412.03,0.542944
4415.79,0.542863
4419.55,0.542815
4423.32,0.542718
4427.1,0.542575
4430.88,0.54244
4434.68,0.542377
4438.47,0.542258
4442.28,0.542156
4446.08,0.541979
4449.9,0.541919
4453.72,0.541876
4457.55,0.541839
4461.39,0.541701
4465.23,0.541652
4469.08,0.541568
4472.94,0.54153
4476.8,0.541439
4480.67,0.541429
4484.55,0.541386
4488.43,0.541239
4492.32,0.541096
4496.21,0.541029
4500.12,0.540891
4504.03,0.540831
4507.94,0.540702
4511.87,0.540537
4515.8,0.540394
4519.73,0.540362
4523.68,0.540228
4527.63,0.540173
4531.59,0.540047
4535.55,0.539987
4539.52,0.539848
4543.5,0.539733
4547.49,0.539586
4551.48,0.539469
4555.48,0.539317
4559.49,0.539237
4563.5,0.539112
4567.52,0.539018
4571.55,0.538882
4575.58,0.538813
4579.63,0.538693
4583.67,0.538502
4587.73,0.538268
4591.79,0.538173
4595.86,0.53807
4599.94,0.537902
4604.03,0.537692
4608.12,0.537442
4612.22,0.537156
4616.33,0.536959
4620.44,0.536756
4624.56,0.536507
4628.69,0.53622
4632.83,0.53601
4636.97,0.535769
4641.12,0.535548
4645.28,0.535345
4649.45,0.535228
4653.62,0.535032
4657.8,0.534862
4661.99,0.534673
4666.19,0.534531
4670.39,0.534399
4674.6,0.534344
4678.82,0.534204
4683.05,0.534154
4687.28,0.53408
4691.52,0.533986
4695.77,0.533935
4700.03,0.533875
4704.3,0.533732
4708.57,0.533608
4712.85,0.533451
4717.14,0.533309
4721.43,0.533086
4725.74,0.532918
4730.05,0.53269
4734.37,0.532488
4738.7,0.532159
4743.03,0.531806
4747.38,0.531494
4751.73,0.53118
4756.09,0.530775
4760.45,0.530363
4764.83,0.529919
4769.21,0.529429
4773.6,0.528898
4778.0,0.528378
4782.41,0.52768
4786.83,0.527073
4791.25,0.526284
4795.68,0.525448
4800.13,0.524639
4804.57,0.523766
4809.03,0.52275
4813.5,0.521696
4817.97,0.520549
4822.45,0.519296
4826.94,0.51788
4831.44,0.516458
4835.95,0.514827
4840.46,0.51302
4844.99,0.510973
4849.52,0.508605
4854.06,0.505809
4858.61,0.502535
4863.17,0.49859
4867.73,0.493899
4872.31,0.488399
4876.89,0.482228
4881.48,0.475571
4886.08,0.468762
4890.69,0.462091
4895.31,0.455752
4899.94,0.44978
4904.57,0.44426
4909.22,0.439103
4913.87,0.434561
4918.53,0.431052
4923.21,0.428848
4927.88,0.427816
4932.57,0.427931
4937.27,0.428824
4941.98,0.430203
4946.69,0.431935
4951.42,0.43382
4956.15,0.435663
4960.9,0.437546
4965.65,0.439363
4970.41,0.441128
4975.18,0.442781
4979.96,0.444347
4984.75,0.445779
4989.54,0.447106
4994.35,0.44833
4999.17,0.449444
5003.99,0.450371
5008.83,0.451196
5013.67,0.451849
5018.52,0.452364
5023.39,0.452765
5028.26,0.453085
5033.14,0.453183
5038.03,0.453165
5042.93,0.453032
5047.84,0.452725
5052.76,0.45233
5057.69,0.451817
5062.63,0.451097
5067.58,0.450206
5072.54,0.449127
5077.51,0.447992
5082.49,0.446708
5087.47,0.445311
5092.47,0.443683
5097.48,0.441906
5102.5,0.440047
5107.52,0.43821
5112.56,0.436356
5117.61,0.434478
5122.66,0.432587
5127.73,0.430654
5132.81,0.428723
5137.89,0.426708
5142.99,0.424614
5148.1,0.422428
5153.22,0.420212
5158.34,0.418193
5163.48,0.416311
5168.63,0.414503
5173.79,0.412738
5178.96,0.410757
5184.13,0.408455
5189.32,0.405876
5194.52,0.403221
5199.73,0.400765
5204.96,0.39865
5210.19,0.396955
5215.43,0.395655
5220.68,0.394716
5225.94,0.394032
5231.22,0.393514
5236.5,0.392983
5241.79,0.392283
5247.1,0.391264
5252.42,0.389858
5257.74,0.38801
5263.08,0.385926
5268.43,0.383698
5273.79,0.381491
5279.16,0.37943
5284.54,0.377605
5289.93,0.376026
5295.34,0.374795
5300.75,0.373804
5306.18,0.3731
5311.61,0.372612
5317.06,0.372244
5322.52,0.3719
5327.99,0.371551
5333.47,0.371139
5338.96,0.370626
5344.47,0.369991
5349.98,0.369277
5355.51,0.368514
5361.05,0.367423
5366.6,0.366134
5372.16,0.364742
5377.73,0.363246
5383.32,0.361707
5388.91,0.360213
5394.52,0.35866
5400.14,0.357132
5405.77,0.355605
5411.41,0.35412
5417.07,0.352691
5422.74,0.351242
5428.41,0.349907
5434.1,0.348619
5439.81,0.347353
5445.52,0.346039
5451.25,0.34464
5456.98,0.343252
5462.73,0.341908
5468.5,0.340599
5474.27,0.339366
5480.06,0.338342
5485.86,0.337456
5491.67,0.336726
5497.49,0.336078
5503.33,0.335286
5509.18,0.334306
5515.04,0.333015
5520.91,0.331354
5526.8,0.329312
5532.69,0.326943
5538.61,0.324345
5544.53,0.321406
5550.47,0.318284
5556.41,0.315149
5562.38,0.312303
5568.35,0.309825
5574.34,0.307703
5580.34,0.306078
5586.35,0.305084
5592.38,0.304652
5598.42,0.304641
5604.47,0.304903
5610.54,0.305717
5616.61,0.306974
5622.71,0.308734
5628.81,0.310801
5634.93,0.313194
5641.06,0.315455
5647.21,0.317802
5653.36,0.320046
5659.54,0.322188
5665.72,0.324377
5671.92,0.326507
5678.13,0.328579
5684.36,0.3307
5690.6,0.332541
5696.85,0.334182
5703.12,0.335521
5709.4,0.336589
5715.69,0.337559
5722.0,0.338531
5728.33,0.339479
5734.66,0.340362
5741.01,0.341186
5747.38,0.341885
5753.76,0.342504
5760.15,0.342978
5766.56,0.343294
5772.98,0.343549
5779.41,0.343513
5785.86,0.343312
5792.33,0.34285
5798.81,0.342274
5805.3,0.341423
5811.81,0.34051
5818.33,0.339686
5824.87,0.339016
5831.42,0.338423
5837.99,0.338102
5844.57,0.337911
5851.17,0.338011
5857.78,0.338319
5864.41,0.338834
5871.05,0.339768
5877.7,0.340848
5884.38,0.342321
5891.06,0.344233
5897.76,0.345945
5904.48,0.347769
5911.21,0.349192
5917.96,0.350354
5924.73,0.351281
5931.5,0.351985
5938.3,0.352364
5945.11,0.352664
5951.93,0.352576
5958.78,0.352418
5965.63,0.35216
5972.51,0.352203
5979.39,0.352392
5986.3,0.352928
5993.22,0.353998
6000.16,0.355901
6007.11,0.358363
6014.08,0.361405
6021.06,0.365163
6028.06,0.369176
6035.08,0.373017
6042.12,0.376779
6049.17,0.380162
6056.23,0.383574
6063.32,0.386314
6070.42,0.388317
6077.53,0.390001
6084.67,0.391549
6091.82,0.392505
6098.98,0.393252
6106.17,0.393807
6113.37,0.394136
6120.58,0.394375
6127.82,0.394481
6135.07,0.394479
6142.34,0.394433
6149.63,0.394285
6156.93,0.394099
6164.25,0.393795
6171.59,0.393461
6178.95,0.393075
6186.32,0.392689
6193.71,0.392322
6201.12,0.391941
6208.54,0.391632
6215.99,0.391405
6223.45,0.391308
6230.93,0.391204
6238.43,0.391248
6245.95,0.391464
6253.48,0.391842
6261.03,0.392341
6268.6,0.392933
6276.19,0.393798
6283.8,0.394819
6291.43,0.395968
6299.07,0.397183
6306.73,0.398386
6314.42,0.399552
6322.12,0.400503
6329.84,0.401341
6337.57,0.401985
6345.33,0.402381
6353.11,0.402546
6360.9,0.402431
6368.72,0.402095
6376.55,0.401451
6384.4,0.400576
6392.27,0.399486
6400.17,0.398161
6408.08,0.39666
6416.01,0.39501
6423.96,0.392764
6431.93,0.390353
6439.92,0.387877
6447.93,0.384731
6455.96,0.381273
6464.01,0.377225
6472.08,0.372922
6480.17,0.36803
6488.28,0.362703
6496.41,0.356964
6504.56,0.350363
6512.73,0.343639
6520.92,0.337437
6529.14,0.330698
6537.37,0.324294
6545.63,0.318521
6553.9,0.313357
6562.2,0.308716
6570.51,0.304808
6578.85,0.301327
6587.21,0.297958
6595.59,0.294911
6603.99,0.292116
6612.42,0.28952
6620.86,0.287376
6629.33,0.285479
6637.82,0.284087
6646.33,0.28276
6654.86,0.28166
6663.41,0.280893
6671.99,0.280528
6680.59,0.280392
6689.21,0.280627
6697.85,0.281047
6706.51,0.281689
6715.2,0.282431
6723.91,0.283264
6732.64,0.284074
6741.4,0.28492
6750.18,0.28573
6758.98,0.286602
6767.8,0.287468
6776.65,0.288436
6785.52,0.2892
6794.41,0.289902
6803.33,0.290312
6812.27,0.290662
6821.23,0.29094
6830.22,0.291202
6839.23,0.291327
6848.26,0.291476
6857.32,0.291557
6866.4,0.291524
6875.51,0.291244
6884.64,0.290954
6893.8,0.290682
6902.98,0.29033
6912.18,0.289976
6921.41,0.289619
6930.66,0.289223
6939.94,0.288812
6949.24,0.288351
6958.57,0.28793
6967.92,0.287578
6977.3,0.28712
6986.7,0.286683
6996.13,0.286243
7005.59,0.285756
7015.07,0.285296
7024.57,0.284932
7034.1,0.284624
7043.66,0.284299
7053.25,0.284124
7062.85,0.283945
7072.49,0.283942
7082.15,0.284021
7091.84,0.28426
7101.55,0.284539
7111.3,0.284948
7121.06,0.285307
7130.86,0.285625
7140.68,0.285907
7150.53,0.286273
7160.41,0.286722
7170.31,0.287299
7180.24,0.287972
7190.2,0.288662
7200.19,0.289309
7210.2,0.2899
7220.24,0.290333
7230.31,0.290595
7240.41,0.290765
7250.54,0.290915
7260.69,0.291069
7270.88,0.291205
7281.09,0.291241
7291.33,0.291255
7301.6,0.291214
7311.9,0.29117
7322.22,0.29114
7332.58,0.291165
7342.97,0.291151
7353.38,0.291096
7363.83,0.290937
7374.3,0.290677
7384.81,0.290259
7395.34,0.289729
7405.91,0.288952
7416.5,0.287992
7427.13,0.286856
7437.78,0.285475
7448.47,0.283915
7459.19,0.282332
7469.94,0.280684
7480.71,0.279016
7491.52,0.277318
7502.37,0.27564
7513.24,0.273871
7524.14,0.272149
7535.08,0.270327
7546.05,0.268468
7557.05,0.266632
7568.08,0.264924
7579.15,0.2633
7590.24,0.2617
7601.37,0.259735
7612.53,0.257551
7623.73,0.255108
7634.96,0.252404
7646.22,0.249744
7657.51,0.247673
7668.84,0.247042
7680.2,0.248345
7691.59,0.250685
7703.02,0.252878
7714.49,0.254321
7725.98,0.255078
7737.52,0.255183
7749.08,0.254625
7760.68,0.253239
7772.32,0.251226
7783.99,0.248632
7795.69,0.245491
7807.43,0.241697
7819.21,0.237482
7831.02,0.233054
7842.87,0.228406
7854.75,0.223318
7866.67,0.217798
7878.62,0.211901
7890.62,0.206178
7902.64,0.200959
7914.71,0.196797
7926.81,0.194343
7938.95,0.194343
7951.13,0.196767
7963.34,0.200934
7975.59,0.205651
7987.88,0.210219
8000.21,0.214121
8012.57,0.217391
8024.98,0.219894
8037.42,0.221622
8049.9,0.222554
8062.42,0.222863
8074.98,0.222598
8087.57,0.22192
8100.21,0.220845
8112.89,0.219432
8125.6,0.217648
8138.36,0.215523
8151.16,0.213146
8163.99,0.210596
8176.87,0.207763
8189.79,0.204728
8202.75,0.20152
8215.75,0.198218
8228.79,0.19488
8241.87,0.191676
8254.99,0.188589
8268.16,0.185758
8281.37,0.183151
8294.62,0.181007
8307.91,0.179154
8321.24,0.177477
8334.62,0.175868
8348.04,0.174246
8361.51,0.172377
8375.02,0.170247
8388.57,0.167702
8402.16,0.164837
8415.8,0.161542
8429.49,0.157876
8443.22,0.15378
8456.99,0.149372
8470.81,0.144645
8484.67,0.139873
8498.58,0.13511
8512.54,0.130662
8526.54,0.126506
8540.58,0.122776
8554.68,0.119322
8568.82,0.116469
8583.0,0.114179
8597.24,0.112624
8611.52,0.111523
8625.85,0.110897
8640.23,0.110518
8654.65,0.110361
8669.12,0.110099
8683.64,0.109738
8698.21,0.109114
8712.83,0.10832
8727.5,0.107274
8742.22,0.106086
8756.99,0.104622
8771.8,0.103037
8786.67,0.101198
8801.59,0.099291
8816.56,0.097208
8831.58,0.095119
8846.65,0.092988
8861.77,0.091094
8876.94,0.089397
8892.17,0.087931
8907.45,0.086432
8922.78,0.085089
8938.16,0.083906
8953.6,0.083016
8969.09,0.082226
8984.64,0.081665
9000.23,0.081209
9015.89,0.081002
9031.59,0.080905
9047.36,0.080963
9063.17,0.081036
9079.05,0.081412
9094.97,0.082146
9110.96,0.083565
9127.0,0.085574
9143.1,0.08838
9159.25,0.09196
9175.46,0.096214
9191.73,0.10104
9208.06,0.106567
9224.44,0.112555
9240.88,0.119264
9257.38,0.126467
9273.94,0.133887
9290.56,0.141281
9307.24,0.148819
9323.98,0.156465
9340.78,0.164158
9357.64,0.171471
9374.57,0.178385
9391.55,0.184518
9408.59,0.189415
9425.7,0.192625
9442.87,0.194231
9460.1,0.194399
9477.4,0.193598
9494.75,0.191959
9512.17,0.189753
9529.66,0.18719
9547.21,0.184292
9564.83,0.180871
9582.5,0.177336
9600.25,0.173586
9618.06,0.169782
9635.94,0.165969
9653.88,0.162262
9671.89,0.158424
9689.97,0.154512
9708.12,0.150665
9726.33,0.146972
9744.62,0.143388
9762.97,0.14013
9781.39,0.137155
9799.88,0.134631
9818.44,0.132419
9837.07,0.130618
9855.77,0.129026
9874.54,0.127622
9893.39,0.126365
9912.3,0.125449
9931.29,0.124819
9950.36,0.124586
9969.49,0.12461
9988.7,0.124978
10007.98,0.125749
10027.34,0.126846
10046.77,0.128162
10066.28,0.129778
10085.87,0.13149
10105.53,0.133298
10125.26,0.134675
10145.08,0.134854
10164.97,0.132967
10184.94,0.12937
10204.99,0.125843
10225.12,0.124396
10245.33,0.12541
10265.61,0.129539
10285.98,0.136987
10306.43,0.145929
10326.96,0.15347
10347.57,0.157869
10368.27,0.158663
10389.05,0.156056
10409.91,0.150396
10430.86,0.143338
10451.88,0.136686
10473.0,0.131388
10494.2,0.128307
10515.49,0.128698
10536.86,0.132155
10558.32,0.136548
10579.87,0.13909
10601.5,0.138577
10623.23,0.135337
10645.04,0.130852
10666.94,0.126786
10688.94,0.124486
10711.02,0.124667
10733.2,0.127452
10755.47,0.132005
10777.83,0.13709
10800.28,0.141456
10822.83,0.144776
10845.47,0.147029
10868.21,0.148428
10891.04,0.148953
10913.97,0.148879
10936.99,0.14841
10960.12,0.147798
10983.34,0.146914
11006.66,0.145849
11030.07,0.14444
11053.59,0.142793
11077.21,0.140915
11100.93,0.139054
11124.75,0.13713
11148.68,0.135248
11172.71,0.133365
11196.84,0.131814
11221.07,0.13051
11245.41,0.129347
11269.86,0.128236
11294.41,0.127258
11319.07,0.126122
11343.84,0.124665
11368.72,0.122458
11393.7,0.119188
11418.8,0.114635
11444.01,0.109209
11469.33,0.103251
11494.76,0.097595
11520.3,0.092531
11545.96,0.088237
11571.73,0.084392
11597.62,0.081051
11623.62,0.078521
11649.74,0.077001
11675.98,0.07596
11702.34,0.074937
11728.81,0.073439
11755.41,0.07207
11782.13,0.07137
11808.96,0.071952
11835.92,0.073636
11863.01,0.075448
11890.22,0.076708
11917.55,0.077871
11945.01,0.079078
11972.6,0.080657
12000.31,0.082599
12028.16,0.085011
12056.13,0.08776
12084.23,0.090979
12112.46,0.094449
12140.83,0.098026
12169.33,0.101412
12197.96,0.104652
12226.73,0.10769
12255.64,0.110483
12284.68,0.113033
12313.86,0.115424
12343.18,0.11769
12372.64,0.119994
12402.24,0.121993
12431.98,0.12388
12461.86,0.125551
12491.89,0.126878
12522.07,0.127666
12552.38,0.128185
12582.85,0.128114
12613.47,0.127707
12644.23,0.126612
12675.15,0.124863
12706.21,0.122362
12737.43,0.119333
12768.81,0.115518
12800.33,0.11092
12832.02,0.105343
12863.86,0.099019
12895.86,0.092033
12928.02,0.085326
12960.34,0.079621
12992.82,0.075693
13025.46,0.073201
13058.27,0.071637
13091.25,0.070463
13124.39,0.069603
13157.7,0.069037
13191.18,0.068984
13224.83,0.06909
13258.66,0.069273
13292.65,0.069232
13326.83,0.069264
13361.17,0.069368
13395.7,0.069577
13430.4,0.070081
13465.29,0.07117
13500.35,0.072748
13535.6,0.075056
13571.03,0.077788
13606.65,0.080799
13642.46,0.083793
13678.46,0.08643
13714.64,0.088492
13751.02,0.090193
13787.59,0.091385
13824.36,0.092386
13861.32,0.093043
13898.49,0.093417
13935.85,0.093379
13973.41,0.093262
14011.17,0.092972
14049.15,0.092556
14087.32,0.092307
14125.71,0.092266
14164.3,0.091819
14203.11,0.091173
14242.13,0.090331
14281.36,0.089367
14320.81,0.088205
14360.49,0.08696
14400.38,0.085549
14440.49,0.084095
14480.82,0.082558
14521.39,0.081039
14562.18,0.079589
14603.2,0.078253
14644.45,0.076876
14685.93,0.075684
14727.66,0.074412
14769.62,0.073121
14811.81,0.072014
14854.25,0.07117
14896.94,0.070298
14939.87,0.069745
14983.05,0.06935
15026.48,0.069218
15070.16,0.069368
15114.1,0.069957
15158.29,0.070877
15202.74,0.072067
15247.46,0.073551
15292.43,0.075632
15337.68,0.077866
15383.19,0.080224
15428.97,0.082452
15475.03,0.084451
15521.36,0.086067
15567.97,0.087448
15614.87,0.088292
15662.04,0.088609
15709.5,0.088356
15757.25,0.087763
15805.29,0.086539
15853.62,0.084849
15902.26,0.082811
15951.19,0.080581
16000.42,0.078467
16049.95,0.076699
16099.8,0.074759
16149.95,0.072865
16200.42,0.070898
16251.21,0.068783
16302.31,0.066701
16353.74,0.064787
16405.49,0.062718
16457.57,0.06095
16509.98,0.059298
16562.73,0.057893
16615.82,0.056595
16669.24,0.055642
16723.02,0.054931
16777.14,0.054687
16831.61,0.054726
16886.43,0.055225
16941.62,0.056146
16997.16,0.057534
17053.08,0.059156
17109.36,0.061508
17166.01,0.064379
17223.04,0.067836
17280.45,0.071289
17338.24,0.075063
17396.43,0.078851
17455.0,0.082332
17513.97,0.085533
17573.34,0.088573
17633.11,0.091042
17693.29,0.092993
17753.89,0.093918
17814.9,0.094314
17876.33,0.094199
17938.18,0.093598
18000.47,0.092611
18063.19,0.091308
18126.35,0.08982
18189.95,0.088375
18254.0,0.086778
18318.5,0.08566
18383.46,0.085121
18448.88,0.085439
18514.77,0.086557
18581.13,0.088257
18647.97,0.089673
18715.29,0.090894
18783.1,0.091836
18851.4,0.092563
18920.2,0.092524
18989.51,0.091576
19059.32,0.08965
19129.65,0.087418
19200.5,0.084803
19271.88,0.081994
19343.79,0.079039
19416.24,0.076435
19489.23,0.074324
19562.77,0.072948
19636.88,0.072339
19711.54,0.072925
19786.78,0.074571
19862.59,0.077394
19938.98,0.08045
20015.96,0.083727
20093.55,0.086932
20171.73,0.090119
20250.53,0.092178
20329.94,0.092393
20409.98,0.090826
20490.65,0.088166
20571.96,0.084912
20653.92,0.081188
20736.54,0.077376
20819.82,0.074596
20903.77,0.0727
20988.4,0.07227
21073.72,0.072231
21159.73,0.071945
21246.46,0.071054
21333.89,0.070546
21422.04,0.07064
21510.93,0.071273
21600.56,0.071977
21690.94,0.073199
21782.08,0.074614
21873.99,0.075933
21966.67,0.077067
22060.15,0.078906
22154.42,0.081372
22249.51,0.084304
22345.41,0.086145
22442.14,0.087448
22539.72,0.088299
22638.14,0.089104
22737.43,0.090628
22837.6,0.0936
22938.65,0.097427
23040.6,0.101516
23143.46,0.104501
23247.24,0.106565
23351.96,0.107706
23457.63,0.108824
23564.25,0.109924
23671.85,0.110757
23780.44,0.110996
23890.02,0.111813
24000.63,0.111892
24112.26,0.112301
24224.93,0.112359
24338.66,0.112184
24453.47,0.114833
24569.36,0.117831
24686.36,0.117909
24804.47,0.118245
24923.73,0.117338
25044.13,0.115939
25165.71,0.113489
25288.46,0.112715
25412.43,0.113035
25537.61,0.115994
25664.04,0.116151
25791.72,0.115728
25920.68,0.112886
