Database of Origin,University of Winnipeg Spectrophotometer Facility
Sample Description,Carbonates and Oxolates - RELAB+Nicolet spectra Newly merged spectra (merged by RELAB)
Other Information,dry seived
Date Added,2018-08-06 20:49:03.498766

Data ID,RLA_CARB_1_59       
Sample ID,CRB310
Mineral Name,Northupite
Locality,Searles Lake/ San Bernardino County/ California/ USA
Grain Size,<45 um
Viewing Geometry,30/0/30
Resolution,5/ 0.6-129 nm
Formula,Na3Mg(CO3)2Cl
Composition,2 small crystals

Wavelength
305.0,0.32562
310.0,0.332616
315.0,0.331507
320.0,0.333555
325.0,0.344535
330.0,0.349755
335.0,0.358426
340.0,0.367722
345.0,0.373209
350.0,0.378707
355.0,0.380705
360.0,0.384071
365.0,0.396776
370.0,0.400177
375.0,0.413029
380.0,0.419271
385.0,0.424058
390.0,0.440426
395.0,0.442106
400.0,0.452164
405.0,0.454237
410.0,0.461994
415.0,0.469594
420.0,0.469586
425.0,0.480952
430.0,0.484498
435.0,0.495329
440.0,0.498794
445.0,0.50672
450.0,0.510442
455.0,0.518261
460.0,0.523185
465.0,0.527066
470.0,0.531711
475.0,0.533658
480.0,0.540381
485.0,0.541289
490.0,0.547572
495.0,0.549987
500.0,0.555844
505.0,0.557922
510.0,0.564121
515.0,0.567894
520.0,0.574177
525.0,0.576093
530.0,0.578895
535.0,0.582872
540.0,0.584003
545.0,0.592061
550.0,0.591406
555.0,0.598292
560.0,0.598054
565.0,0.606203
570.0,0.605191
575.0,0.611418
580.0,0.610627
585.0,0.6164
590.0,0.617945
595.0,0.619329
600.0,0.621463
605.0,0.623434
610.0,0.624545
615.0,0.62288
620.0,0.624527
625.0,0.621948
630.0,0.625374
635.0,0.621339
640.0,0.624692
645.0,0.621978
650.0,0.623485
655.0,0.623753
660.0,0.624577
665.0,0.626109
670.0,0.627441
675.0,0.629493
680.0,0.630925
685.0,0.633696
690.0,0.63479
695.0,0.63739
700.0,0.637865
705.0,0.640225
710.0,0.640457
715.0,0.63984
720.0,0.63871
725.0,0.637857
730.0,0.636548
735.0,0.635081
740.0,0.635229
745.0,0.634696
750.0,0.634846
755.0,0.633329
760.0,0.633484
765.0,0.632727
770.0,0.632115
775.0,0.632849
780.0,0.632546
785.0,0.633403
790.0,0.63317
795.0,0.635003
800.0,0.633465
805.0,0.634024
810.0,0.634697
815.0,0.634412
820.0,0.635091
825.0,0.633761
830.0,0.633557
835.0,0.632724
840.0,0.632692
845.0,0.632583
850.0,0.632384
855.0,0.634406
860.0,0.635422
865.0,0.634514
870.0,0.633904
875.0,0.634548
880.0,0.635382
885.0,0.634806
890.0,0.635211
895.0,0.63468
900.0,0.633993
905.0,0.633157
910.0,0.6342
915.0,0.634267
920.0,0.634142
925.0,0.634209
930.0,0.634023
935.0,0.633645
940.0,0.634618
945.0,0.635296
950.0,0.634117
955.0,0.634816
960.0,0.634167
965.0,0.635009
970.0,0.634458
975.0,0.635918
980.0,0.634302
985.0,0.634314
990.0,0.63469
995.0,0.633869
1000.0,0.634037
1005.0,0.632979
1010.0,0.633206
1015.0,0.630917
1020.0,0.632799
1025.0,0.631193
1030.0,0.633183
1035.0,0.631557
1040.0,0.630887
1045.0,0.630797
1050.0,0.63144
1055.0,0.630601
1060.0,0.631227
1065.0,0.629881
1070.0,0.629575
1075.0,0.629401
1080.0,0.629391
1085.0,0.6295
1090.0,0.628927
1095.0,0.629369
1100.0,0.628558
1105.0,0.629385
1110.0,0.628374
1115.0,0.630552
1120.0,0.628867
1125.0,0.630952
1130.0,0.628384
1135.0,0.628749
1140.0,0.629569
1145.0,0.629994
1150.0,0.630452
1155.0,0.631033
1160.0,0.630218
1165.0,0.631613
1170.0,0.632025
1175.0,0.63268
1180.0,0.633151
1185.0,0.633772
1190.0,0.634417
1195.0,0.634913
1200.0,0.6352
1205.0,0.635749
1210.0,0.636241
1215.0,0.636588
1220.0,0.637071
1225.0,0.637372
1230.0,0.637537
1235.0,0.638145
1240.0,0.638434
1245.0,0.638621
1250.0,0.639023
1255.0,0.639228
1260.0,0.639484
1265.0,0.640178
1270.0,0.640292
1275.0,0.640761
1280.0,0.640813
1285.0,0.6411
1290.0,0.641244
1295.0,0.641386
1300.0,0.64187
1305.0,0.641877
1310.0,0.642027
1315.0,0.642046
1320.0,0.642515
1325.0,0.642685
1330.0,0.642646
1335.0,0.642824
1340.0,0.642793
1345.0,0.642974
1350.0,0.642652
1355.0,0.642725
1360.0,0.642973
1365.0,0.642917
1370.0,0.643158
1375.0,0.643191
1380.0,0.643199
1385.0,0.643242
1420.0,0.643885
1425.0,0.644135
1430.0,0.644216
1435.0,0.64427
1440.0,0.644523
1445.0,0.644717
1450.0,0.644726
1455.0,0.644916
1460.0,0.645083
1465.0,0.645159
1470.0,0.645184
1475.0,0.64534
1480.0,0.64534
1485.0,0.645229
1490.0,0.645482
1495.0,0.645554
1500.0,0.645812
1505.0,0.645981
1510.0,0.646014
1515.0,0.646288
1520.0,0.646389
1525.0,0.646525
1530.0,0.646662
1535.0,0.646708
1540.0,0.646976
1545.0,0.647184
1550.0,0.647047
1555.0,0.647351
1560.0,0.647283
1565.0,0.647586
1570.0,0.647733
1575.0,0.647698
1580.0,0.647822
1585.0,0.647976
1590.0,0.648106
1595.0,0.648197
1600.0,0.648192
1605.0,0.648404
1610.0,0.648562
1615.0,0.648688
1620.0,0.648837
1625.0,0.648934
1630.0,0.649182
1635.0,0.64926
1640.0,0.649271
1645.0,0.649499
1650.0,0.649455
1655.0,0.64958
1660.0,0.649589
1665.0,0.649744
1670.0,0.649885
1675.0,0.649982
1680.0,0.650237
1685.0,0.650314
1690.0,0.650334
1695.0,0.650716
1700.0,0.650696
1705.31,0.650947
1709.81,0.650848
1715.46,0.650924
1720.02,0.650932
1724.6,0.650896
1730.35,0.650805
1734.98,0.650939
1739.64,0.65121
1745.5,0.651251
1750.21,0.651407
1754.95,0.651517
1759.72,0.651651
1764.51,0.651822
1770.54,0.651886
1775.39,0.651878
1780.27,0.651977
1785.17,0.651982
1790.1,0.651922
1795.06,0.652046
1800.05,0.65202
1805.06,0.652142
1810.1,0.652116
1815.17,0.651964
1820.27,0.651884
1825.4,0.652038
1830.56,0.652111
1834.44,0.652255
1839.65,0.652147
1844.89,0.652296
1850.16,0.652023
1855.45,0.651833
1859.45,0.651944
1864.8,0.652031
1870.18,0.652246
1875.59,0.65261
1879.67,0.652894
1885.14,0.652641
1890.64,0.652453
1894.79,0.652093
1900.34,0.651507
1904.53,0.651131
1910.15,0.650412
1914.38,0.649952
1920.05,0.649937
1924.33,0.650015
1930.06,0.649979
1934.38,0.650015
1940.17,0.650128
1944.54,0.65008
1950.39,0.650179
1954.8,0.650304
1960.72,0.650309
1965.18,0.650318
1969.66,0.650427
1975.66,0.650496
1980.19,0.650749
1984.74,0.651162
1989.31,0.651453
1995.43,0.651835
2000.05,0.651866
2004.69,0.652043
2009.35,0.652345
2015.6,0.652175
2020.32,0.652251
2025.05,0.652362
2029.81,0.652263
2034.59,0.652246
2039.39,0.652175
2044.22,0.652159
2050.69,0.652017
2055.57,0.651788
2060.47,0.651711
2065.39,0.651587
2070.34,0.651507
2075.31,0.651481
2080.31,0.651377
2085.33,0.651284
2090.38,0.651232
2095.45,0.651156
2100.54,0.651144
2105.66,0.651066
2110.8,0.651028
2114.25,0.650964
2119.43,0.651043
2124.65,0.651048
2129.88,0.651109
2135.15,0.650992
2140.44,0.650931
2145.75,0.650942
2149.31,0.651075
2154.67,0.65105
2160.06,0.651046
2165.47,0.651041
2170.91,0.651228
2174.55,0.651317
2180.04,0.651253
2185.55,0.651268
2189.25,0.651027
2194.81,0.65058
2200.4,0.649838
2204.14,0.649427
2209.78,0.649215
2215.44,0.649476
2219.24,0.649281
2224.95,0.649256
2230.7,0.648913
2234.54,0.648562
2240.33,0.647503
2244.21,0.646389
2250.06,0.644313
2255.93,0.642312
2259.87,0.640601
2265.79,0.638282
2269.76,0.637722
2275.74,0.637623
2279.74,0.637826
2285.77,0.637643
2289.81,0.63715
2295.9,0.636975
2299.97,0.636286
2304.06,0.635253
2310.22,0.633623
2314.35,0.632827
2320.56,0.631794
2324.72,0.630415
2331.0,0.625677
2335.2,0.621335
2339.41,0.624743
2345.76,0.636162
2350.02,0.640669
2354.28,0.643087
2360.72,0.644915
2365.03,0.645315
2369.35,0.645267
2375.86,0.644254
2380.23,0.643773
2384.61,0.643766
2389.0,0.643527
2395.63,0.64389
2400.06,0.644521
2404.52,0.644941
2408.98,0.644275
2415.72,0.642185
2420.23,0.640239
2424.76,0.63804
2429.3,0.635073
2433.87,0.630781
2440.74,0.626264
2445.35,0.624448
2449.97,0.622608
2454.61,0.622692
2459.27,0.624619
2463.94,0.62577
2470.99,0.626513
2475.71,0.625857
2480.45,0.622853
2485.2,0.619641
2489.98,0.615158
2494.77,0.609281
2499.58,0.605036
2504.41,0.602564
2509.26,0.60029
2514.13,0.598705
2519.02,0.60028
2523.92,0.605136
2528.85,0.610406
2533.79,0.618506
2541.24,0.630027
2543.74,0.632057
2548.74,0.63538
2553.76,0.637438
2556.28,0.638458
2558.8,0.639296
2561.33,0.639327
2563.86,0.638972
2566.4,0.639882
2568.95,0.64093
2571.5,0.64134
2574.05,0.641452
2576.61,0.641742
2579.17,0.642244
2581.74,0.642532
2584.31,0.642198
2586.89,0.642338
2589.48,0.642844
2592.07,0.643189
2594.66,0.642373
2597.26,0.641755
2599.87,0.64356
2602.48,0.644054
2605.09,0.643209
2607.71,0.642814
2610.34,0.643488
2612.97,0.644098
2615.61,0.64394
2618.25,0.643065
2620.9,0.642654
2623.55,0.643209
2626.21,0.643335
2628.87,0.642588
2631.54,0.642059
2634.22,0.642166
2636.89,0.642677
2639.58,0.642781
2642.27,0.642214
2644.97,0.641209
2647.67,0.640251
2650.38,0.639107
2653.09,0.637375
2655.81,0.635456
2658.53,0.634408
2661.26,0.633653
2664.0,0.633161
2666.74,0.631834
2669.48,0.63089
2672.23,0.63049
2674.99,0.630197
2677.76,0.628885
2680.52,0.627771
2683.3,0.62809
2686.08,0.627457
2688.87,0.625705
2691.66,0.622834
2694.46,0.618372
2697.26,0.612979
2700.07,0.608239
2702.89,0.602466
2705.71,0.596298
2708.53,0.590434
2711.37,0.584491
2714.21,0.580019
2717.05,0.577447
2719.9,0.573573
2722.76,0.568815
2725.62,0.564606
2728.49,0.56096
2731.37,0.55725
2734.25,0.552377
2737.14,0.546788
2740.03,0.541418
2742.93,0.53532
2745.83,0.530517
2748.75,0.525294
2751.66,0.519258
2754.59,0.514619
2757.52,0.512182
2760.46,0.511357
2763.4,0.509864
2766.35,0.507951
2769.3,0.505957
2772.26,0.50386
2775.23,0.502049
2778.21,0.499844
2781.19,0.497461
2784.18,0.495006
2787.17,0.492431
2790.17,0.489814
2793.18,0.487753
2796.19,0.485738
2799.21,0.483796
2802.24,0.481436
2805.27,0.479023
2808.31,0.476871
2811.35,0.4748
2814.41,0.472761
2817.46,0.470576
2820.53,0.468232
2823.6,0.466234
2826.68,0.464357
2829.77,0.462486
2832.86,0.460721
2835.96,0.45898
2839.07,0.457405
2842.18,0.456153
2845.3,0.454685
2848.43,0.453219
2851.56,0.451606
2854.7,0.449805
2857.85,0.448372
2861.0,0.446922
2864.16,0.445255
2867.33,0.443722
2870.51,0.442152
2873.69,0.440589
2876.88,0.438911
2880.07,0.437412
2883.28,0.435809
2886.49,0.434219
2889.71,0.43261
2892.93,0.431301
2896.17,0.430144
2899.4,0.429096
2902.65,0.428096
2905.91,0.427379
2909.17,0.426695
2912.44,0.425924
2915.71,0.424986
2918.99,0.424169
2922.29,0.423254
2925.58,0.422297
2928.89,0.421512
2932.2,0.420786
2935.52,0.419656
2938.85,0.418594
2942.19,0.417879
2945.53,0.416872
2948.88,0.415854
2952.24,0.414876
2955.61,0.413782
2958.98,0.412835
2962.36,0.412005
2965.75,0.411225
2969.15,0.410708
2972.55,0.410309
2975.97,0.410004
2979.39,0.409708
2986.25,0.408924
2989.7,0.408567
2993.15,0.408083
2996.61,0.407852
3000.08,0.407817
3003.55,0.407665
3007.04,0.40752
3010.53,0.407382
3014.03,0.407166
3017.54,0.406784
3021.06,0.406274
3024.58,0.406158
3028.12,0.406351
3031.66,0.406464
3035.21,0.406445
3038.77,0.406626
3042.33,0.406897
3045.91,0.406951
3049.49,0.406903
3053.08,0.406837
3056.68,0.406538
3060.29,0.405708
3063.91,0.404206
3067.54,0.402097
3071.17,0.399041
3074.81,0.395161
3078.47,0.390649
3082.13,0.385892
3085.79,0.381319
3089.47,0.378065
3093.16,0.377526
3096.85,0.380288
3100.56,0.385211
3104.27,0.390747
3107.99,0.395767
3111.73,0.400532
3115.47,0.403494
3119.21,0.406048
3122.97,0.4089
3126.74,0.410693
3130.52,0.412424
3134.3,0.41443
3138.1,0.415876
3141.9,0.416821
3145.71,0.419369
3149.54,0.421739
3153.37,0.422304
3157.21,0.424152
3161.06,0.424689
3164.92,0.425575
3168.79,0.4262
3172.67,0.42624
3176.55,0.427068
3180.45,0.42674
3184.36,0.427031
3188.27,0.427039
3192.2,0.426897
3196.14,0.427391
3200.08,0.426525
3204.04,0.42612
3208.0,0.424669
3211.98,0.42279
3215.96,0.419037
3219.96,0.414312
3223.96,0.409874
3227.98,0.406418
3232.0,0.402006
3236.04,0.396539
3240.08,0.389021
3244.14,0.37925
3248.2,0.365541
3252.28,0.356683
3256.37,0.366895
3260.46,0.385057
3264.57,0.398656
3268.69,0.406969
3272.81,0.411212
3276.95,0.412058
3281.1,0.408992
3285.26,0.402517
3289.43,0.390015
3293.61,0.370496
3297.8,0.347811
3302.0,0.328068
3306.21,0.31283
3310.43,0.305883
3314.66,0.304999
3318.91,0.304326
3323.16,0.299849
3327.43,0.289818
3331.71,0.272928
3335.99,0.257182
3340.29,0.256671
3344.6,0.269667
3348.92,0.278362
3353.26,0.28194
3357.6,0.28772
3361.96,0.29716
3366.32,0.310248
3370.7,0.325155
3375.09,0.33677
3379.49,0.33997
3383.9,0.340626
3388.32,0.34602
3392.76,0.353109
3397.21,0.357507
3401.66,0.35918
3406.13,0.354933
3410.61,0.345042
3415.11,0.331038
3419.61,0.314544
3424.13,0.298859
3428.66,0.278002
3433.2,0.252508
3437.76,0.229154
3442.32,0.212371
3446.9,0.201531
3451.49,0.197172
3456.09,0.196794
3460.7,0.199323
3465.33,0.205469
3469.97,0.213225
3474.62,0.222597
3479.29,0.234891
3483.96,0.253077
3488.65,0.269492
3493.35,0.27724
3498.07,0.285874
3502.79,0.311653
3507.53,0.347081
3512.29,0.377823
3517.05,0.40186
3521.83,0.42007
3526.62,0.434647
3531.43,0.446988
3536.24,0.456929
3541.08,0.46486
3543.5,0.467542
3545.92,0.469471
3548.35,0.470876
3550.78,0.471767
3553.21,0.472631
3555.65,0.474178
3558.09,0.477223
3560.53,0.48082
3562.98,0.484926
3565.43,0.488999
3567.88,0.493118
3570.34,0.496379
3572.8,0.499229
3575.27,0.501896
3577.73,0.504517
3580.2,0.506672
3582.68,0.508831
3585.16,0.510637
3587.64,0.512361
3590.12,0.513928
3592.61,0.515337
3595.1,0.516642
3597.6,0.518045
3600.09,0.519303
3602.6,0.520594
3605.1,0.521725
3607.61,0.522514
3610.12,0.523014
3612.64,0.523624
3615.16,0.524169
3617.68,0.524656
3620.21,0.524904
3622.74,0.525514
3625.27,0.526108
3627.81,0.526732
3630.35,0.527147
3632.89,0.527623
3635.44,0.528023
3637.99,0.528395
3640.54,0.528519
3643.1,0.528867
3645.66,0.528861
3648.23,0.528873
3650.8,0.528897
3653.37,0.52896
3655.95,0.528861
3658.53,0.52904
3661.11,0.529097
3663.7,0.529105
3666.29,0.528651
3668.89,0.528304
3671.48,0.528224
3674.09,0.528056
3676.69,0.527777
3679.3,0.527617
3681.91,0.527009
3684.53,0.526311
3687.15,0.525423
3689.78,0.524299
3692.4,0.522697
3695.04,0.521147
3697.67,0.519291
3700.31,0.517197
3702.95,0.514963
3705.6,0.512698
3708.25,0.510051
3710.91,0.507296
3713.56,0.504228
3716.23,0.500805
3718.89,0.496899
3721.56,0.492611
3724.23,0.487323
3726.91,0.481387
3729.59,0.474058
3732.28,0.464752
3734.97,0.453054
3737.66,0.438445
3740.36,0.419871
3743.06,0.397206
3745.76,0.37147
3748.47,0.345209
3751.18,0.320182
3753.9,0.296753
3756.62,0.275188
3759.34,0.256734
3762.07,0.243076
3764.8,0.236054
3767.54,0.236892
3770.28,0.244847
3773.02,0.257023
3775.77,0.270256
3778.52,0.282379
3781.28,0.292728
3784.04,0.301108
3786.8,0.307103
3789.57,0.308134
3792.34,0.30321
3795.12,0.295525
3797.9,0.290015
3800.69,0.289332
3803.47,0.29389
3806.27,0.304629
3809.06,0.323264
3811.86,0.348557
3814.67,0.375812
3817.48,0.399632
3820.29,0.418224
3823.11,0.431929
3825.93,0.442116
3828.76,0.449145
3831.59,0.453304
3834.42,0.455154
3837.26,0.455301
3840.1,0.453398
3842.95,0.449576
3845.8,0.443407
3848.65,0.434354
3851.51,0.421902
3854.38,0.405648
3857.24,0.384365
3860.12,0.357415
3862.99,0.324773
3865.87,0.289649
3868.76,0.25878
3871.65,0.237707
3874.54,0.228133
3877.44,0.228253
3880.34,0.233301
3883.25,0.23729
3886.16,0.23604
3889.07,0.229745
3891.99,0.220113
3894.92,0.208541
3897.85,0.195442
3900.78,0.181485
3903.72,0.168644
3906.66,0.159322
3909.6,0.154604
3912.55,0.153833
3915.51,0.155364
3918.47,0.15818
3921.43,0.161421
3924.4,0.162868
3927.38,0.161449
3930.35,0.158513
3933.33,0.15571
3936.32,0.153266
3939.31,0.149989
3942.31,0.146024
3945.31,0.143025
3948.31,0.142168
3951.32,0.145231
3954.34,0.155305
3957.35,0.173237
3960.38,0.196224
3963.41,0.219212
3966.44,0.239492
3969.48,0.256285
3972.52,0.27013
3975.56,0.281969
3978.61,0.292882
3981.67,0.303562
3984.73,0.314491
3987.8,0.325671
3990.87,0.337229
3993.94,0.349507
3997.02,0.362388
4000.1,0.375058
4003.19,0.387051
4006.29,0.397893
4009.39,0.407646
4012.49,0.416053
4015.6,0.42341
4018.71,0.429985
4021.83,0.435977
4024.95,0.441513
4028.08,0.446896
4031.21,0.451932
4034.35,0.456952
4037.49,0.46141
4040.64,0.465966
4043.79,0.470585
4046.94,0.475229
4050.11,0.479724
4053.27,0.484325
4056.44,0.488726
4059.62,0.493144
4062.8,0.497269
4065.99,0.50076
4069.18,0.503421
4072.38,0.505633
4075.58,0.50705
4078.78,0.507904
4082.0,0.508136
4085.21,0.508557
4088.43,0.508919
4091.66,0.509226
4094.89,0.509705
4098.13,0.510639
4101.37,0.511283
4104.62,0.511633
4107.87,0.511448
4111.13,0.511633
4114.39,0.512261
4117.66,0.513521
4120.93,0.515203
4124.21,0.517264
4127.5,0.519159
4130.79,0.520796
4134.08,0.521627
4137.38,0.522203
4140.68,0.522985
4143.99,0.52477
4147.31,0.527039
4150.63,0.529477
4153.95,0.53114
4157.29,0.532006
4160.62,0.532022
4163.96,0.532476
4167.31,0.533277
4170.66,0.534622
4174.02,0.536017
4177.39,0.53729
4180.75,0.537839
4184.13,0.538459
4187.51,0.538939
4190.89,0.539254
4194.28,0.539542
4197.68,0.539837
4201.08,0.53963
4204.49,0.539496
4207.9,0.539093
4211.32,0.538544
4214.74,0.537776
4218.17,0.537178
4221.61,0.536432
4225.05,0.535621
4228.5,0.534139
4231.95,0.531906
4235.4,0.527743
4238.87,0.522455
4242.34,0.518035
4245.81,0.516231
4249.29,0.516514
4252.78,0.518622
4256.27,0.520607
4259.77,0.52079
4263.27,0.51824
4266.78,0.514699
4270.29,0.511216
4273.81,0.508683
4277.34,0.506875
4280.87,0.505985
4284.41,0.504999
4287.95,0.504157
4291.5,0.503143
4295.06,0.501854
4298.62,0.500758
4302.19,0.502563
4305.76,0.506249
4309.34,0.508695
4312.92,0.508292
4316.52,0.50618
4320.11,0.503433
4323.72,0.50128
4327.32,0.499565
4330.94,0.498286
4334.56,0.497777
4338.19,0.497981
4341.82,0.498839
4345.46,0.502527
4349.11,0.510553
4352.76,0.521312
4356.42,0.53004
4360.08,0.535594
4363.75,0.538676
4367.43,0.54062
4371.11,0.541393
4374.8,0.541915
4378.49,0.542244
4382.19,0.542358
4385.9,0.541698
4389.61,0.54035
4393.33,0.538323
4397.06,0.535765
4400.79,0.532024
4404.53,0.527279
4408.28,0.521578
4412.03,0.515752
4415.79,0.510226
4419.55,0.506032
4423.32,0.503683
4427.1,0.503523
4430.88,0.504918
4434.68,0.507715
4438.47,0.510822
4442.28,0.514152
4446.08,0.517277
4449.9,0.520019
4453.72,0.521833
4457.55,0.523162
4461.39,0.523601
4465.23,0.52337
4469.08,0.522503
4472.94,0.522038
4476.8,0.522066
4480.67,0.523306
4484.55,0.5256
4488.43,0.528712
4492.32,0.531581
4496.21,0.533846
4500.12,0.535068
4504.03,0.536247
4507.94,0.537015
4511.87,0.537741
4515.8,0.538142
4519.73,0.538776
4523.68,0.539138
4527.63,0.539347
4531.59,0.538959
4535.55,0.53863
4539.52,0.537912
4543.5,0.53706
4547.49,0.535491
4551.48,0.533533
4555.48,0.531195
4559.49,0.528536
4563.5,0.525153
4567.52,0.521678
4571.55,0.517673
4575.58,0.51346
4579.63,0.508772
4583.67,0.50394
4587.73,0.499266
4591.79,0.495811
4595.86,0.492981
4599.94,0.490619
4604.03,0.488074
4608.12,0.485427
4612.22,0.482046
4616.33,0.478724
4620.44,0.475705
4624.56,0.473308
4628.69,0.471394
4632.83,0.470207
4636.97,0.469213
4641.12,0.469071
4645.28,0.469368
4649.45,0.469516
4653.62,0.469473
4657.8,0.469693
4661.99,0.469746
4666.19,0.46976
4670.39,0.46902
4674.6,0.467987
4678.82,0.467465
4683.05,0.468711
4687.28,0.471744
4691.52,0.476809
4695.77,0.483085
4700.03,0.490156
4704.3,0.497306
4708.57,0.50419
4712.85,0.509803
4717.14,0.51457
4721.43,0.518476
4725.74,0.5219
4730.05,0.524541
4734.37,0.527078
4738.7,0.529202
4743.03,0.53149
4747.38,0.533417
4751.73,0.535287
4756.09,0.536804
4760.45,0.538461
4764.83,0.539892
4769.21,0.541181
4773.6,0.542051
4778.0,0.543145
4782.41,0.544003
4786.83,0.545052
4791.25,0.545851
4795.68,0.546886
4800.13,0.547577
4804.57,0.548429
4809.03,0.549027
4813.5,0.549777
4817.97,0.550045
4822.45,0.550619
4826.94,0.551102
4831.44,0.551674
4835.95,0.551828
4840.46,0.552204
4844.99,0.552414
4849.52,0.552879
4854.06,0.553083
4858.61,0.553453
4863.17,0.553493
4867.73,0.553591
4872.31,0.553701
4876.89,0.553756
4881.48,0.552812
4886.08,0.552686
4890.69,0.553359
4895.31,0.553888
4899.94,0.554056
4904.57,0.554246
4909.22,0.554113
4913.87,0.554217
4918.53,0.553959
4923.21,0.553977
4927.88,0.553861
4932.57,0.553782
4937.27,0.553538
4941.98,0.553609
4946.69,0.553465
4951.42,0.553371
4956.15,0.553046
4960.9,0.55303
4965.65,0.5528
4970.41,0.552654
4975.18,0.5522
4979.96,0.551816
4984.75,0.551054
4989.54,0.550692
4994.35,0.550434
4999.17,0.550537
5003.99,0.549858
5008.83,0.54913
5013.67,0.547909
5018.52,0.54626
5023.39,0.544082
5028.26,0.542741
5033.14,0.541978
5038.03,0.542431
5042.93,0.543739
5047.84,0.545331
5052.76,0.545995
5057.69,0.546276
5062.63,0.546113
5067.58,0.545993
5072.54,0.545593
5077.51,0.545398
5082.49,0.544798
5087.47,0.544328
5092.47,0.543458
5097.48,0.542736
5102.5,0.541687
5107.52,0.540659
5112.56,0.53941
5117.61,0.538353
5122.66,0.536519
5127.73,0.534797
5132.81,0.532833
5137.89,0.530825
5142.99,0.52818
5148.1,0.525512
5153.22,0.522412
5158.34,0.519364
5163.48,0.515882
5168.63,0.512357
5173.79,0.508166
5178.96,0.50418
5184.13,0.500028
5189.32,0.496198
5194.52,0.492327
5199.73,0.488923
5204.96,0.485744
5210.19,0.483538
5215.43,0.482099
5220.68,0.481407
5225.94,0.481285
5231.22,0.482119
5236.5,0.483215
5241.79,0.484695
5247.1,0.485866
5252.42,0.486972
5257.74,0.4875
5263.08,0.487954
5268.43,0.487689
5273.79,0.48723
5279.16,0.486262
5284.54,0.485398
5289.93,0.484282
5295.34,0.48331
5300.75,0.482062
5306.18,0.480716
5311.61,0.478923
5317.06,0.477294
5322.52,0.475001
5327.99,0.4726
5333.47,0.469577
5338.96,0.466054
5344.47,0.462006
5349.98,0.457545
5355.51,0.452194
5361.05,0.446744
5366.6,0.440937
5372.16,0.434791
5377.73,0.428076
5383.32,0.421001
5388.91,0.413251
5394.52,0.405094
5400.14,0.396373
5405.77,0.387122
5411.41,0.377042
5417.07,0.36607
5422.74,0.354518
5428.41,0.340657
5434.1,0.325651
5439.81,0.309051
5445.52,0.288818
5451.25,0.264545
5456.98,0.236453
5462.73,0.206014
5468.5,0.176237
5474.27,0.151432
5480.06,0.135204
5485.86,0.12279
5491.67,0.113802
5497.49,0.107022
5503.33,0.103948
5509.18,0.104395
5515.04,0.108537
5520.91,0.115197
5526.8,0.12574
5532.69,0.139699
5538.61,0.15673
5544.53,0.175146
5550.47,0.193047
5556.41,0.209421
5562.38,0.223758
5568.35,0.235365
5574.34,0.24429
5580.34,0.251554
5586.35,0.257236
5592.38,0.261347
5598.42,0.263114
5604.47,0.263405
5610.54,0.262256
5616.61,0.260868
5622.71,0.258757
5628.81,0.25699
5634.93,0.254925
5641.06,0.253095
5647.21,0.250617
5653.36,0.248122
5659.54,0.245315
5665.72,0.242552
5671.92,0.239917
5678.13,0.237754
5684.36,0.235548
5690.6,0.233917
5696.85,0.232067
5703.12,0.230416
5709.4,0.228538
5715.69,0.226635
5722.0,0.224752
5728.33,0.22352
5734.66,0.222014
5741.01,0.220664
5747.38,0.219198
5753.76,0.218049
5760.15,0.216842
5766.56,0.216181
5772.98,0.214908
5779.41,0.214315
5785.86,0.213402
5792.33,0.212493
5798.81,0.210875
5805.3,0.209004
5811.81,0.20619
5818.33,0.203405
5824.87,0.199774
5831.42,0.196334
5837.99,0.193
5844.57,0.189879
5851.17,0.186088
5857.78,0.182066
5864.41,0.177738
5871.05,0.173597
5877.7,0.169915
5884.38,0.166578
5891.06,0.163006
5897.76,0.161295
5904.48,0.159085
5911.21,0.157306
5917.96,0.155474
5924.73,0.153294
5931.5,0.150802
5938.3,0.148551
5945.11,0.145292
5951.93,0.142621
5958.78,0.139445
5965.63,0.136135
5972.51,0.13212
5979.39,0.127808
5986.3,0.123813
5993.22,0.119782
6000.16,0.115484
6007.11,0.111903
6014.08,0.108098
6021.06,0.104105
6028.06,0.100053
6035.08,0.096436
6042.12,0.092959
6049.17,0.090251
6056.23,0.086177
6063.32,0.082973
6070.42,0.08033
6077.53,0.077134
6084.67,0.073676
6091.82,0.070954
6098.98,0.067963
6106.17,0.065357
6113.37,0.062738
6120.58,0.059701
6127.82,0.05709
6135.07,0.055289
6142.34,0.053313
6149.63,0.051396
6156.93,0.049617
6164.25,0.04782
6171.59,0.045581
6178.95,0.043662
6186.32,0.04144
6193.71,0.03875
6201.12,0.036066
6208.54,0.0338
6215.99,0.031413
6223.45,0.02915
6230.93,0.026806
6238.43,0.024641
6245.95,0.022305
6253.48,0.020229
6261.03,0.018454
6268.6,0.016876
6276.19,0.015565
6283.8,0.014719
6291.43,0.014152
6299.07,0.013874
6306.73,0.013902
6314.42,0.014116
6322.12,0.01454
6329.84,0.015356
6337.57,0.016787
6345.33,0.018747
6353.11,0.021863
6360.9,0.02568
6368.72,0.030575
6376.55,0.037209
6384.4,0.045583
6392.27,0.054561
6400.17,0.065117
6408.08,0.075256
6416.01,0.08675
6423.96,0.102328
6431.93,0.116531
6439.92,0.129908
6447.93,0.145548
6455.96,0.162474
6464.01,0.183585
6472.08,0.205337
6480.17,0.228873
6488.28,0.251149
6496.41,0.272155
6504.56,0.292463
6512.73,0.309053
6520.92,0.321451
6529.14,0.334275
6537.37,0.34415
6545.63,0.351599
6553.9,0.35537
6562.2,0.354071
6570.51,0.346467
6578.85,0.332512
6587.21,0.313396
6595.59,0.294974
6603.99,0.273857
6612.42,0.255142
6620.86,0.239669
6629.33,0.228267
6637.82,0.219422
6646.33,0.212247
6654.86,0.207795
6663.41,0.205721
6671.99,0.204308
6680.59,0.202864
6689.21,0.200547
6697.85,0.197928
6706.51,0.194793
6715.2,0.190914
6723.91,0.18659
6732.64,0.182099
6741.4,0.17739
6750.18,0.173172
6758.98,0.169795
6767.8,0.167262
6776.65,0.165003
6785.52,0.163014
6794.41,0.161244
6803.33,0.159745
6812.27,0.158462
6821.23,0.15681
6830.22,0.154439
6839.23,0.150794
6848.26,0.144615
6857.32,0.132671
6866.4,0.113414
6875.51,0.091223
6884.64,0.084227
6893.8,0.094893
6902.98,0.112991
6912.18,0.122577
6921.41,0.118954
6930.66,0.108026
6939.94,0.097979
6949.24,0.091219
6958.57,0.087039
6967.92,0.084169
6977.3,0.082672
6986.7,0.081873
6996.13,0.081837
7005.59,0.082314
7015.07,0.082989
7024.57,0.083327
7034.1,0.083693
7043.66,0.083691
7053.25,0.083585
7062.85,0.083424
7072.49,0.08292
7082.15,0.08182
7091.84,0.080182
7101.55,0.078297
7111.3,0.077567
7121.06,0.078639
7130.86,0.081509
7140.68,0.085049
7150.53,0.089237
7160.41,0.093935
7170.31,0.098414
7180.24,0.103011
7190.2,0.107244
7200.19,0.110671
7210.2,0.113249
7220.24,0.115315
7230.31,0.117238
7240.41,0.119072
7250.54,0.121042
7260.69,0.123102
7270.88,0.124919
7281.09,0.126409
7291.33,0.127767
7301.6,0.129113
7311.9,0.130508
7322.22,0.132592
7332.58,0.135643
7342.97,0.139626
7353.38,0.1444
7363.83,0.149468
7374.3,0.154344
7384.81,0.159062
7395.34,0.163092
7405.91,0.166267
7416.5,0.168563
7427.13,0.170305
7437.78,0.171328
7448.47,0.171927
7459.19,0.172143
7469.94,0.172444
7480.71,0.172966
7491.52,0.173893
7502.37,0.175073
7513.24,0.176325
7524.14,0.177297
7535.08,0.178031
7546.05,0.178537
7557.05,0.17886
7568.08,0.179535
7579.15,0.180993
7590.24,0.183067
7601.37,0.18609
7612.53,0.189959
7623.73,0.194444
7634.96,0.199026
7646.22,0.203448
7657.51,0.207278
7668.84,0.210425
7680.2,0.212845
7691.59,0.214744
7703.02,0.21602
7714.49,0.21696
7725.98,0.217506
7737.52,0.217893
7749.08,0.218161
7760.68,0.218606
7772.32,0.219151
7783.99,0.220198
7795.69,0.221695
7807.43,0.223524
7819.21,0.225232
7831.02,0.226917
7842.87,0.228115
7854.75,0.229333
7866.67,0.230758
7878.62,0.232108
7890.62,0.232769
7902.64,0.23308
7914.71,0.233775
7926.81,0.235597
7938.95,0.23813
7951.13,0.241214
7963.34,0.243987
7975.59,0.246333
7987.88,0.247917
8000.21,0.249251
8012.57,0.250763
8024.98,0.253107
8037.42,0.255992
8049.9,0.259164
8062.42,0.261701
8074.98,0.263874
8087.57,0.26535
8100.21,0.266206
8112.89,0.266649
8125.6,0.267304
8138.36,0.26817
8151.16,0.269388
8163.99,0.270787
8176.87,0.273013
8189.79,0.275788
8202.75,0.278996
8215.75,0.281977
8228.79,0.284288
8241.87,0.285854
8254.99,0.286988
8268.16,0.287732
8281.37,0.288336
8294.62,0.288236
8307.91,0.286596
8321.24,0.281529
8334.62,0.272419
8348.04,0.263575
8361.51,0.257818
8375.02,0.249147
8388.57,0.235656
8402.16,0.223051
8415.8,0.219594
8429.49,0.226547
8443.22,0.237658
8456.99,0.246967
8470.81,0.253969
8484.67,0.258895
8498.58,0.260424
8512.54,0.256925
8526.54,0.247868
8540.58,0.233198
8554.68,0.217679
8568.82,0.21353
8583.0,0.224451
8597.24,0.239655
8611.52,0.251987
8625.85,0.260428
8640.23,0.26494
8654.65,0.263824
8669.12,0.256163
8683.64,0.249606
8698.21,0.254949
8712.83,0.266688
8727.5,0.27576
8742.22,0.280828
8756.99,0.283394
8771.8,0.283567
8786.67,0.282489
8801.59,0.281048
8816.56,0.280737
8831.58,0.284213
8846.65,0.290064
8861.77,0.29512
8876.94,0.299036
8892.17,0.301992
8907.45,0.30368
8922.78,0.303179
8938.16,0.300276
8953.6,0.29414
8969.09,0.283296
8984.64,0.267188
9000.23,0.251928
9015.89,0.250245
9031.59,0.256379
9047.36,0.25711
9063.17,0.255844
9079.05,0.255445
9094.97,0.254768
9110.96,0.253658
9127.0,0.253923
9143.1,0.255706
9159.25,0.259219
9175.46,0.262307
9191.73,0.264905
9208.06,0.267617
9224.44,0.270793
9240.88,0.273269
9257.38,0.275479
9273.94,0.276992
9290.56,0.277961
9307.24,0.278325
9323.98,0.27883
9340.78,0.279433
9357.64,0.280348
9374.57,0.280645
9391.55,0.279988
9408.59,0.278055
9425.7,0.274135
9442.87,0.266281
9460.1,0.255238
9477.4,0.248933
9494.75,0.253855
9512.17,0.262329
9529.66,0.267276
9547.21,0.268369
9564.83,0.26843
9582.5,0.268894
9600.25,0.270364
9618.06,0.271002
9635.94,0.270785
9653.88,0.270565
9671.89,0.270502
9689.97,0.269931
9708.12,0.269164
9726.33,0.268115
9744.62,0.267076
9762.97,0.266225
9781.39,0.265812
9799.88,0.265539
9818.44,0.266007
9837.07,0.266755
9855.77,0.267072
9874.54,0.267062
9893.39,0.267505
9912.3,0.26791
9931.29,0.268626
9950.36,0.269543
9969.49,0.270901
9988.7,0.272582
10007.98,0.274517
10027.34,0.276565
10046.77,0.278449
10066.28,0.280131
10085.87,0.282369
10105.53,0.284577
10125.26,0.286561
10145.08,0.288236
10164.97,0.289802
10184.94,0.291296
10204.99,0.293289
10225.12,0.295755
10245.33,0.298703
10265.61,0.301435
10285.98,0.303718
10306.43,0.305589
10326.96,0.307646
10347.57,0.309756
10368.27,0.31229
10389.05,0.31528
10409.91,0.319188
10430.86,0.323288
10451.88,0.326871
10473.0,0.329335
10494.2,0.330949
10515.49,0.331963
10536.86,0.332738
10558.32,0.332736
10579.87,0.33237
10601.5,0.331699
10623.23,0.331124
10645.04,0.33055
10666.94,0.33016
10688.94,0.329343
10711.02,0.328235
10733.2,0.326358
10755.47,0.324301
10777.83,0.322016
10800.28,0.319686
10822.83,0.317126
10845.47,0.313965
10868.21,0.310065
10891.04,0.305804
10913.97,0.301159
10936.99,0.296243
10960.12,0.290664
10983.34,0.284856
11006.66,0.27884
11030.07,0.272104
11053.59,0.264094
11077.21,0.254677
11100.93,0.243286
11124.75,0.229872
11148.68,0.212633
11172.71,0.188582
11196.84,0.153953
11221.07,0.110149
11245.41,0.073851
11269.86,0.046106
11294.41,0.036506
11319.07,0.083664
11343.84,0.13517
11368.72,0.126045
11393.7,0.095749
11418.8,0.090859
11444.01,0.113709
11469.33,0.144276
11494.76,0.178937
11520.3,0.209628
11545.96,0.233805
11571.73,0.251538
11597.62,0.266292
11623.62,0.272848
11649.74,0.256915
11675.98,0.196346
11702.34,0.169791
11728.81,0.228235
11755.41,0.279996
11782.13,0.304247
11808.96,0.311737
11835.92,0.309415
11863.01,0.29537
11890.22,0.271803
11917.55,0.256191
11945.01,0.268376
11972.6,0.291788
12000.31,0.309279
12028.16,0.318692
12056.13,0.324362
12084.23,0.328599
12112.46,0.332035
12140.83,0.333433
12169.33,0.333645
12197.96,0.332771
12226.73,0.332053
12255.64,0.331032
12284.68,0.330475
12313.86,0.330142
12343.18,0.33054
12372.64,0.3303
12402.24,0.330144
12431.98,0.329426
12461.86,0.329207
12491.89,0.328747
12522.07,0.328336
12552.38,0.327359
12582.85,0.326529
12613.47,0.32538
12644.23,0.324108
12675.15,0.321831
12706.21,0.319822
12737.43,0.317756
12768.81,0.315402
12800.33,0.312542
12832.02,0.309945
12863.86,0.306971
12895.86,0.303997
12928.02,0.301199
12960.34,0.298725
12992.82,0.295614
13025.46,0.292746
13058.27,0.290156
13091.25,0.288178
13124.39,0.285945
13157.7,0.284079
13191.18,0.281877
13224.83,0.280057
13258.66,0.278409
13292.65,0.276473
13326.83,0.274137
13361.17,0.271435
13395.7,0.267985
13430.4,0.264846
13465.29,0.261622
13500.35,0.258277
13535.6,0.254516
13571.03,0.250048
13606.65,0.243637
13642.46,0.234541
13678.46,0.223244
13714.64,0.211253
13751.02,0.203928
13787.59,0.20284
13824.36,0.201374
13861.32,0.194938
13898.49,0.181267
13935.85,0.159794
13973.41,0.129872
14011.17,0.09754
14049.15,0.082526
14087.32,0.100073
14125.71,0.137227
14164.3,0.171925
14203.11,0.194248
14242.13,0.206599
14281.36,0.213274
14320.81,0.217293
14360.49,0.219418
14400.38,0.220658
14440.49,0.221003
14480.82,0.220763
14521.39,0.219934
14562.18,0.219194
14603.2,0.21762
14644.45,0.21602
14685.93,0.214394
14727.66,0.212637
14769.62,0.210625
14811.81,0.208205
14854.25,0.205601
14896.94,0.204046
14939.87,0.20233
14983.05,0.199498
15026.48,0.196765
15070.16,0.195145
15114.1,0.192967
15158.29,0.190406
15202.74,0.187808
15247.46,0.185085
15292.43,0.181839
15337.68,0.17863
15383.19,0.176305
15428.97,0.174107
15475.03,0.17197
15521.36,0.170392
15567.97,0.168079
15614.87,0.16584
15662.04,0.163698
15709.5,0.161378
15757.25,0.158812
15805.29,0.15669
15853.62,0.155033
15902.26,0.153034
15951.19,0.150613
16000.42,0.148397
16049.95,0.145675
16099.8,0.143294
16149.95,0.140864
16200.42,0.138955
16251.21,0.137162
16302.31,0.135038
16353.74,0.132712
16405.49,0.130878
16457.57,0.128839
16509.98,0.126869
16562.73,0.123892
16615.82,0.120326
16669.24,0.116734
16723.02,0.113703
16777.14,0.110547
16831.61,0.107319
16886.43,0.104036
16941.62,0.100628
16997.16,0.097483
17053.08,0.094773
17109.36,0.091652
17166.01,0.088611
17223.04,0.08622
17280.45,0.084331
17338.24,0.082115
17396.43,0.080176
17455.0,0.078179
17513.97,0.076305
17573.34,0.07443
17633.11,0.072178
17693.29,0.070014
17753.89,0.0685
17814.9,0.06654
17876.33,0.064558
17938.18,0.062516
18000.47,0.060492
18063.19,0.058509
18126.35,0.055801
18189.95,0.052943
18254.0,0.051503
18318.5,0.05156
18383.46,0.051829
18448.88,0.051089
18514.77,0.050536
18581.13,0.048954
18647.97,0.047275
18715.29,0.046274
18783.1,0.045231
18851.4,0.044125
18920.2,0.042782
18989.51,0.041535
19059.32,0.040376
19129.65,0.038394
19200.5,0.037209
19271.88,0.03664
19343.79,0.035318
19416.24,0.033613
19489.23,0.032885
19562.77,0.031805
19636.88,0.029945
19711.54,0.028975
19786.78,0.028388
19862.59,0.026903
19938.98,0.025745
20015.96,0.024824
20093.55,0.022886
20171.73,0.021327
20250.53,0.019936
20329.94,0.019099
20409.98,0.018015
20490.65,0.01709
20571.96,0.015882
20653.92,0.014305
20736.54,0.013353
20819.82,0.013044
20903.77,0.012237
20988.4,0.011643
21073.72,0.012359
21159.73,0.011607
21246.46,0.010761
21333.89,0.011452
21422.04,0.011292
21510.93,0.01108
21600.56,0.01129
21690.94,0.011633
21782.08,0.012483
21873.99,0.012377
21966.67,0.013621
22060.15,0.016718
22154.42,0.019336
22249.51,0.022457
22345.41,0.025836
22442.14,0.030589
22539.72,0.036768
22638.14,0.043989
22737.43,0.050908
22837.6,0.058641
22938.65,0.068181
23040.6,0.077451
23143.46,0.087696
23247.24,0.09767
23351.96,0.107632
23457.63,0.116964
23564.25,0.12299
23671.85,0.128888
23780.44,0.134243
23890.02,0.136951
24000.63,0.138146
24112.26,0.139189
24224.93,0.141249
24338.66,0.144536
24453.47,0.141753
24569.36,0.13642
24686.36,0.13434
24804.47,0.134023
24923.73,0.130732
25044.13,0.12595
25165.71,0.12265
25288.46,0.117106
25412.43,0.110452
25537.61,0.101199
25664.04,0.090788
25791.72,0.077039
25920.68,0.064269
