Database of Origin,University of Winnipeg Spectrophotometer Facility
Sample Description,"Zeolites: RELAB + Nicolet spectra, Merged at 2.5 microns; note change in viewing geometry"
Date Added,2018-07-23 23:09:47.165983

Data ID,RLA_ZEO_1_5         
Sample ID,zeo109
Mineral Name,thomsonite
Grain Size,<45 um
Viewing Geometry,"30/0,30"
Resolution,5/.6-129 nm

Wavelength
305.0,0.570602
310.0,0.574827
315.0,0.578019
320.0,0.586209
325.0,0.588179
330.0,0.593355
335.0,0.594355
340.0,0.598586
345.0,0.598565
350.0,0.603034
355.0,0.605226
360.0,0.608134
365.0,0.610664
370.0,0.612897
375.0,0.614437
380.0,0.618111
385.0,0.618658
390.0,0.623966
395.0,0.624834
400.0,0.623785
405.0,0.626411
410.0,0.629428
415.0,0.631435
420.0,0.634503
425.0,0.63572
430.0,0.638887
435.0,0.637911
440.0,0.643641
445.0,0.645096
450.0,0.649157
455.0,0.651049
460.0,0.653819
465.0,0.655573
470.0,0.657097
475.0,0.6593
480.0,0.660259
485.0,0.662672
490.0,0.663774
495.0,0.667035
500.0,0.667509
505.0,0.670101
510.0,0.670631
515.0,0.673241
520.0,0.673872
525.0,0.67701
530.0,0.67856
535.0,0.681148
540.0,0.683139
545.0,0.687074
550.0,0.689253
555.0,0.693389
560.0,0.696385
565.0,0.700416
570.0,0.70443
575.0,0.707557
580.0,0.710551
585.0,0.712407
590.0,0.714503
595.0,0.715511
600.0,0.716776
605.0,0.716323
610.0,0.717461
615.0,0.717773
620.0,0.718345
625.0,0.717818
630.0,0.71912
635.0,0.716739
640.0,0.715878
645.0,0.715507
650.0,0.716294
655.0,0.717081
660.0,0.71676
665.0,0.716393
670.0,0.716228
675.0,0.715451
680.0,0.715353
685.0,0.715376
690.0,0.715222
695.0,0.715241
700.0,0.714681
705.0,0.714253
710.0,0.71368
715.0,0.713564
720.0,0.713347
725.0,0.71494
730.0,0.715363
735.0,0.715664
740.0,0.71465
745.0,0.713739
750.0,0.714424
755.0,0.714566
760.0,0.714989
765.0,0.714664
770.0,0.713624
775.0,0.711763
780.0,0.712153
785.0,0.712266
790.0,0.713402
795.0,0.710963
800.0,0.711145
805.0,0.711172
810.0,0.710387
815.0,0.709534
820.0,0.710889
825.0,0.710601
830.0,0.709249
835.0,0.709297
840.0,0.709286
845.0,0.709412
850.0,0.70935
855.0,0.70725
860.0,0.708576
865.0,0.708065
870.0,0.709058
875.0,0.707319
880.0,0.707135
885.0,0.70723
890.0,0.708232
895.0,0.707801
900.0,0.707124
905.0,0.70821
910.0,0.707131
915.0,0.707543
920.0,0.707539
925.0,0.707207
930.0,0.707355
935.0,0.707598
940.0,0.707595
945.0,0.707354
950.0,0.706843
955.0,0.706812
960.0,0.706476
965.0,0.706793
970.0,0.705987
975.0,0.705756
980.0,0.706016
985.0,0.706484
990.0,0.705696
995.0,0.706235
1000.0,0.705472
1005.0,0.705405
1010.0,0.705537
1015.0,0.706199
1020.0,0.705868
1025.0,0.706028
1030.0,0.705827
1035.0,0.706366
1040.0,0.706033
1045.0,0.706228
1050.0,0.705844
1055.0,0.705632
1060.0,0.705882
1065.0,0.706124
1070.0,0.706505
1075.0,0.706127
1080.0,0.706025
1085.0,0.706029
1090.0,0.706004
1095.0,0.705418
1100.0,0.705237
1105.0,0.705369
1110.0,0.70546
1115.0,0.70544
1120.0,0.705259
1125.0,0.704592
1130.0,0.703975
1135.0,0.704622
1140.0,0.704265
1145.0,0.703836
1150.0,0.703003
1155.0,0.702823
1160.0,0.702103
1165.0,0.701825
1170.0,0.70124
1175.0,0.701015
1180.0,0.700225
1185.0,0.701153
1190.0,0.700752
1195.0,0.70172
1200.0,0.700975
1205.0,0.70058
1210.0,0.700949
1215.0,0.69998
1220.0,0.700309
1225.0,0.700334
1230.0,0.700657
1235.0,0.701593
1240.0,0.701643
1245.0,0.701627
1250.0,0.701001
1255.0,0.701146
1260.0,0.700463
1265.0,0.7004
1270.0,0.699612
1275.0,0.699509
1280.0,0.6983
1285.0,0.698229
1290.0,0.698006
1295.0,0.697498
1300.0,0.696945
1305.0,0.696849
1310.0,0.696073
1315.0,0.695875
1320.0,0.695468
1325.0,0.694143
1330.0,0.693056
1335.0,0.692285
1340.0,0.691788
1345.0,0.690925
1350.0,0.689796
1355.0,0.690692
1360.0,0.689197
1365.0,0.684969
1370.0,0.685502
1375.0,0.683688
1380.0,0.68621
1385.0,0.679671
1390.0,0.680473
1395.0,0.680751
1400.0,0.676593
1405.0,0.672901
1410.0,0.666181
1415.0,0.661576
1420.0,0.656401
1425.0,0.651261
1430.0,0.645905
1435.0,0.639233
1440.0,0.635397
1445.0,0.633528
1450.0,0.63318
1455.0,0.634028
1460.0,0.634368
1465.0,0.637114
1470.0,0.641001
1475.0,0.642185
1480.0,0.64163
1485.0,0.640332
1490.0,0.642579
1495.0,0.647704
1500.0,0.651355
1505.0,0.653589
1510.0,0.654668
1515.0,0.657059
1520.0,0.659519
1525.0,0.660081
1530.0,0.659851
1535.0,0.660935
1540.0,0.659996
1545.0,0.65777
1550.0,0.659868
1555.0,0.660865
1560.0,0.661355
1565.0,0.660978
1570.0,0.661241
1575.0,0.661903
1580.0,0.661131
1585.0,0.661996
1590.0,0.661788
1595.0,0.660549
1600.0,0.659529
1605.0,0.660075
1610.0,0.661625
1615.0,0.662696
1620.0,0.662587
1625.0,0.662865
1630.0,0.662933
1635.0,0.662761
1640.0,0.663629
1645.0,0.664337
1650.0,0.663412
1655.0,0.664579
1660.0,0.664525
1665.0,0.664434
1670.0,0.664104
1675.0,0.665269
1680.0,0.665004
1685.0,0.665792
1690.0,0.666212
1695.0,0.667063
1700.0,0.667777
1705.0,0.667552
1710.0,0.667621
1715.0,0.667513
1720.0,0.667063
1725.0,0.666374
1730.0,0.665405
1735.0,0.664346
1740.0,0.663315
1745.0,0.66258
1750.0,0.661767
1755.0,0.661537
1760.0,0.661992
1765.0,0.662492
1770.0,0.663033
1775.0,0.663721
1780.0,0.664464
1785.0,0.665126
1790.0,0.665129
1795.0,0.66621
1800.0,0.666317
1805.0,0.666638
1810.0,0.666308
1815.0,0.667282
1820.0,0.667448
1825.0,0.666738
1830.0,0.667556
1835.0,0.667231
1840.0,0.66622
1845.0,0.664047
1850.0,0.664919
1855.0,0.662769
1860.0,0.661999
1865.0,0.65943
1870.0,0.660524
1875.0,0.645196
1880.0,0.635125
1885.0,0.628539
1890.0,0.616054
1895.0,0.597818
1900.0,0.577615
1905.0,0.547862
1910.0,0.520217
1915.0,0.498695
1920.0,0.478743
1925.0,0.456899
1930.0,0.431718
1935.0,0.399478
1940.0,0.371601
1945.0,0.370842
1950.0,0.385221
1955.0,0.402856
1960.0,0.427009
1965.0,0.450767
1970.0,0.462847
1975.0,0.465688
1980.0,0.466583
1985.0,0.472639
1990.0,0.482513
1995.0,0.490622
2000.0,0.498851
2005.0,0.506494
2010.0,0.513097
2015.0,0.518631
2020.0,0.524423
2025.0,0.532044
2030.0,0.538466
2035.0,0.543413
2040.0,0.54807
2045.0,0.551248
2050.0,0.552856
2055.0,0.554511
2060.0,0.557046
2065.0,0.561652
2070.0,0.566078
2075.0,0.571576
2080.0,0.577294
2085.0,0.582477
2090.0,0.587401
2095.0,0.591959
2100.0,0.594765
2105.0,0.597194
2110.0,0.600057
2115.0,0.601476
2120.0,0.603525
2125.0,0.604688
2130.0,0.606054
2135.0,0.606212
2140.0,0.606078
2145.0,0.605131
2150.0,0.604464
2155.0,0.603384
2160.0,0.601662
2165.0,0.598477
2170.0,0.595861
2175.0,0.594114
2180.0,0.59456
2185.0,0.596047
2190.0,0.598245
2195.0,0.600641
2200.0,0.602091
2205.0,0.604258
2210.0,0.60584
2215.0,0.607636
2220.0,0.608808
2225.0,0.610411
2230.0,0.611179
2235.0,0.612322
2240.0,0.613439
2245.0,0.614836
2250.0,0.616119
2255.0,0.617106
2260.0,0.618382
2265.0,0.61879
2270.0,0.619229
2275.0,0.619506
2280.0,0.619556
2285.0,0.618944
2290.0,0.618595
2295.0,0.618456
2300.0,0.617996
2305.0,0.616712
2310.0,0.614272
2315.0,0.610951
2320.0,0.607059
2325.0,0.603438
2330.0,0.601139
2335.0,0.598855
2340.0,0.59597
2345.0,0.59202
2350.0,0.586602
2355.0,0.580308
2360.0,0.573482
2365.0,0.566612
2370.0,0.558327
2375.0,0.548794
2380.0,0.539323
2385.0,0.52842
2390.0,0.516535
2395.0,0.503172
2400.0,0.48937
2405.0,0.474525
2410.0,0.459906
2415.0,0.447098
2420.0,0.436006
2425.0,0.427184
2430.0,0.423159
2435.0,0.420734
2440.0,0.419486
2445.0,0.418372
2450.0,0.41544
2455.0,0.4132
2460.0,0.411946
2465.0,0.410455
2470.0,0.40926
2475.0,0.408566
2480.0,0.407606
2485.0,0.411102
2490.0,0.41229
2495.0,0.414378
2500.0,0.414871
2505.0,0.415734
2510.0,0.414892
2515.0,0.414536
2520.0,0.412007
2525.0,0.409807
2530.0,0.408756
2535.0,0.40565
2540.0,0.4013
2545.0,0.403401
2550.0,0.399558
2555.0,0.397902
2560.0,0.397755
2565.0,0.397792
2570.0,0.393418
2575.0,0.395841
2580.0,0.391292
2581.74,0.390661
2583.03,0.390854
2584.31,0.390417
2585.6,0.39157
2586.89,0.390792
2588.19,0.389911
2589.48,0.390516
2590.77,0.390054
2592.07,0.38918
2593.36,0.386743
2594.66,0.385404
2595.96,0.388648
2597.26,0.392019
2598.56,0.38987
2599.87,0.387365
2601.17,0.38544
2602.48,0.384232
2603.78,0.384276
2605.09,0.383173
2606.4,0.382477
2607.71,0.383218
2609.03,0.382645
2610.34,0.382179
2611.66,0.38155
2612.97,0.379761
2614.29,0.379362
2615.61,0.3801
2616.93,0.378553
2618.25,0.378757
2619.57,0.378654
2620.9,0.375447
2622.22,0.376953
2623.55,0.376911
2624.88,0.374642
2626.21,0.373198
2627.54,0.372849
2628.87,0.372676
2630.21,0.368648
2631.54,0.368894
2632.88,0.370506
2634.21,0.367732
2635.55,0.367488
2636.89,0.367004
2638.24,0.366053
2639.58,0.365051
2640.92,0.363264
2642.27,0.362184
2643.62,0.361894
2644.97,0.361015
2646.32,0.359394
2647.67,0.359596
2649.02,0.358832
2650.38,0.357013
2651.73,0.35639
2653.09,0.354911
2654.45,0.35439
2655.81,0.353122
2657.17,0.351877
2658.53,0.350509
2659.89,0.347108
2661.26,0.346047
2662.63,0.344556
2664.0,0.342334
2665.36,0.341101
2666.74,0.342073
2668.11,0.341149
2669.48,0.338862
2670.86,0.335144
2672.23,0.336121
2673.61,0.333725
2674.99,0.329455
2676.37,0.327636
2677.76,0.326113
2679.14,0.323905
2680.52,0.322273
2681.91,0.32101
2683.3,0.31739
2684.69,0.315226
2686.08,0.313771
2687.47,0.311396
2688.87,0.308581
2690.26,0.305945
2691.66,0.302573
2693.06,0.299485
2694.46,0.296028
2695.86,0.29368
2697.26,0.291461
2698.66,0.287717
2700.07,0.285111
2701.48,0.281956
2702.89,0.277797
2704.3,0.274905
2705.71,0.271305
2707.12,0.267791
2708.53,0.262693
2709.95,0.258109
2711.37,0.25494
2712.79,0.251841
2714.21,0.246785
2715.63,0.242811
2717.05,0.239464
2718.48,0.235339
2719.9,0.230965
2721.33,0.226582
2722.76,0.221971
2724.19,0.216835
2725.62,0.212606
2727.06,0.208478
2728.49,0.203041
2729.93,0.197413
2731.37,0.19273
2732.81,0.188227
2734.25,0.184342
2735.69,0.179885
2737.14,0.174955
2738.58,0.170127
2740.03,0.16582
2741.48,0.162118
2742.93,0.156833
2744.38,0.151817
2745.83,0.148659
2747.29,0.144526
2748.75,0.139782
2750.2,0.135402
2751.66,0.131347
2753.13,0.126447
2754.59,0.122494
2756.05,0.119646
2757.52,0.116317
2758.99,0.112236
2760.46,0.108151
2761.93,0.104842
2763.4,0.101754
2764.87,0.098947
2766.35,0.096129
2767.82,0.093213
2769.3,0.090646
2770.78,0.08767
2772.26,0.084488
2773.75,0.082395
2775.23,0.080115
2776.72,0.077873
2778.21,0.075658
2779.7,0.073555
2781.19,0.072109
2782.68,0.071142
2784.18,0.069646
2785.67,0.06756
2787.17,0.065115
2788.67,0.062738
2790.17,0.060855
2791.67,0.059265
2793.18,0.057958
2794.68,0.056123
2796.19,0.054979
2797.7,0.053863
2799.21,0.052856
2800.72,0.051773
2802.24,0.050112
2803.75,0.049267
2805.27,0.048701
2806.79,0.047851
2808.31,0.046358
2809.83,0.04568
2811.35,0.044785
2812.88,0.044466
2814.41,0.04347
2815.93,0.041557
2817.46,0.0402
2819.0,0.039377
2820.53,0.039422
2822.07,0.039315
2823.6,0.038523
2825.14,0.037516
2826.68,0.036501
2828.22,0.036456
2829.77,0.036688
2831.31,0.036771
2832.86,0.038041
2834.41,0.039631
2835.96,0.041007
2837.51,0.042176
2839.07,0.043431
2840.62,0.044708
2842.18,0.045826
2843.74,0.046781
2845.3,0.04818
2846.86,0.049698
2848.43,0.050449
2849.99,0.051454
2851.56,0.051893
2853.13,0.052139
2854.7,0.052534
2856.27,0.052475
2857.85,0.052665
2859.42,0.053316
2861.0,0.054441
2862.58,0.054176
2864.16,0.053119
2865.75,0.053044
2867.33,0.0535
2868.92,0.052798
2870.51,0.052112
2872.1,0.052259
2873.69,0.052822
2875.28,0.052241
2876.88,0.051673
2878.48,0.051454
2880.07,0.051265
2881.68,0.051626
2883.28,0.05147
2884.88,0.05132
2886.49,0.051216
2888.1,0.050834
2889.71,0.050798
2891.32,0.050508
2892.93,0.050292
2894.55,0.050823
2896.16,0.051441
2897.78,0.050657
2899.4,0.049516
2901.03,0.049963
2902.65,0.050191
2904.28,0.04954
2905.91,0.049097
2907.54,0.048871
2909.17,0.048951
2910.8,0.048793
2912.44,0.049128
2914.07,0.048923
2915.71,0.048271
2917.35,0.047918
2918.99,0.048557
2920.64,0.048243
2922.29,0.047139
2923.93,0.046872
2925.58,0.046893
2927.24,0.046635
2928.89,0.045639
2930.55,0.045138
2932.2,0.045097
2933.86,0.044421
2935.52,0.043563
2937.19,0.042822
2938.85,0.042946
2940.52,0.043485
2942.19,0.043206
2943.86,0.0425
2945.53,0.042807
2947.21,0.042956
2948.88,0.042896
2950.56,0.042957
2952.24,0.042957
2953.92,0.043094
2955.61,0.043279
2957.29,0.043464
2958.98,0.043824
2960.67,0.043657
2962.36,0.04381
2964.06,0.044681
2965.75,0.045085
2967.45,0.045382
2969.15,0.045961
2970.85,0.046428
2972.55,0.047141
2974.26,0.047451
2975.97,0.047554
2977.68,0.047647
2979.39,0.047674
2981.1,0.047914
2982.82,0.048219
2984.53,0.048547
2986.25,0.048903
2987.97,0.050432
2989.7,0.051638
2991.42,0.051882
2993.15,0.052338
2994.88,0.052825
2996.61,0.052927
2998.34,0.053583
3000.08,0.054297
3001.82,0.055229
3003.55,0.056147
3005.3,0.056872
3007.04,0.056964
3008.78,0.056676
3010.53,0.056841
3012.28,0.057453
3014.03,0.058819
3015.79,0.05967
3017.54,0.059485
3019.3,0.059776
3021.06,0.059457
3022.82,0.059252
3024.58,0.059237
3026.35,0.05886
3028.12,0.058629
3029.89,0.058737
3031.66,0.058847
3033.43,0.05875
3035.21,0.058401
3036.99,0.05838
3038.77,0.058617
3040.55,0.058047
3042.33,0.05741
3044.12,0.056751
3045.91,0.05623
3047.7,0.055732
3049.49,0.055349
3051.29,0.054715
3053.08,0.054166
3054.88,0.053971
3056.68,0.054084
3058.49,0.054263
3060.29,0.054679
3062.1,0.054437
3063.91,0.054609
3065.72,0.055067
3067.54,0.055226
3069.35,0.055871
3071.17,0.056275
3072.99,0.055764
3074.81,0.055883
3076.64,0.056395
3078.47,0.056498
3080.29,0.056779
3082.13,0.056802
3083.96,0.057135
3085.79,0.057575
3087.63,0.057661
3089.47,0.05715
3091.31,0.057191
3093.16,0.057828
3095.01,0.058348
3096.85,0.058102
3098.71,0.057971
3100.56,0.058084
3102.41,0.057575
3104.27,0.057091
3106.13,0.057355
3107.99,0.057457
3109.86,0.05745
3111.73,0.057375
3113.59,0.057674
3115.47,0.057903
3117.34,0.057556
3119.21,0.057546
3121.09,0.058397
3122.97,0.059049
3124.86,0.058962
3126.74,0.058815
3128.63,0.059127
3130.52,0.059783
3132.41,0.060222
3134.3,0.060023
3136.2,0.060908
3138.1,0.062636
3140.0,0.063452
3141.9,0.064174
3143.81,0.065377
3145.71,0.065904
3147.62,0.066814
3149.54,0.068241
3151.45,0.069144
3153.37,0.070274
3155.29,0.071372
3157.21,0.072171
3159.13,0.073093
3161.06,0.074659
3162.99,0.076155
3164.92,0.076938
3166.85,0.077671
3168.79,0.078196
3170.72,0.078857
3172.67,0.079727
3174.61,0.080473
3176.55,0.08171
3178.5,0.082657
3180.45,0.083198
3182.4,0.084004
3184.36,0.085413
3186.32,0.086058
3188.27,0.087233
3190.24,0.087857
3192.2,0.08833
3194.17,0.088896
3196.14,0.089864
3198.11,0.090696
3200.08,0.091385
3202.06,0.091918
3204.04,0.092151
3206.02,0.092682
3208.0,0.093666
3209.99,0.09465
3211.98,0.094856
3213.97,0.094783
3215.96,0.09563
3217.96,0.096492
3219.96,0.097462
3221.96,0.098118
3223.96,0.098494
3225.97,0.099128
3227.98,0.099918
3229.99,0.10034
3232.0,0.100827
3234.02,0.101363
3236.04,0.101643
3238.06,0.102236
3240.08,0.10313
3242.11,0.103626
3244.14,0.104031
3246.17,0.104494
3248.2,0.105283
3250.24,0.105976
3252.28,0.106353
3254.32,0.106703
3256.37,0.10732
3258.41,0.107991
3260.46,0.108503
3262.51,0.109006
3264.57,0.109487
3266.63,0.109685
3268.69,0.109658
3270.75,0.109888
3272.81,0.11063
3274.88,0.111077
3276.95,0.111678
3279.02,0.112453
3281.1,0.1129
3283.18,0.113036
3285.26,0.113709
3287.34,0.113769
3289.43,0.113763
3291.51,0.114345
3293.61,0.115041
3295.7,0.115656
3297.8,0.116474
3299.9,0.117546
3302.0,0.118026
3304.1,0.118511
3306.21,0.119418
3308.32,0.120126
3310.43,0.120987
3312.55,0.121736
3314.66,0.122407
3316.79,0.123008
3318.91,0.123422
3321.03,0.124349
3323.16,0.125692
3325.29,0.126747
3327.43,0.127313
3329.57,0.128068
3331.71,0.129245
3333.85,0.130146
3335.99,0.130752
3338.14,0.131988
3340.29,0.13307
3342.45,0.133719
3344.6,0.134901
3346.76,0.136507
3348.92,0.137405
3351.09,0.138157
3353.26,0.139307
3355.43,0.140279
3357.6,0.141011
3359.78,0.141908
3361.96,0.142729
3364.14,0.143473
3366.32,0.144119
3368.51,0.145603
3370.7,0.14689
3372.89,0.147472
3375.09,0.148327
3377.29,0.149952
3379.49,0.150857
3381.69,0.151491
3383.9,0.152615
3386.11,0.153484
3388.32,0.154185
3390.54,0.155338
3392.76,0.15633
3394.98,0.157275
3397.21,0.158534
3399.43,0.15922
3401.66,0.159878
3403.9,0.160845
3406.13,0.161952
3408.37,0.16282
3410.61,0.163464
3412.86,0.164452
3415.11,0.165173
3417.36,0.16622
3419.61,0.167524
3421.87,0.168635
3424.13,0.169642
3426.39,0.170604
3428.66,0.171488
3430.93,0.172482
3433.2,0.173161
3435.48,0.173479
3437.76,0.174049
3440.04,0.175036
3442.32,0.176157
3444.61,0.177045
3446.9,0.17757
3449.19,0.178252
3451.49,0.178998
3453.79,0.18007
3456.09,0.181216
3458.4,0.1823
3460.7,0.183022
3463.02,0.183599
3465.33,0.18457
3467.65,0.18547
3469.97,0.186047
3472.29,0.186945
3474.62,0.1876
3476.95,0.188357
3479.29,0.189286
3481.62,0.19032
3483.96,0.191262
3486.3,0.191659
3488.65,0.192332
3491.0,0.193467
3493.35,0.194444
3495.71,0.195637
3498.07,0.196759
3500.43,0.197973
3502.79,0.198939
3505.16,0.199861
3507.53,0.200685
3509.91,0.201984
3512.29,0.203346
3514.67,0.204066
3517.05,0.204344
3519.44,0.205173
3521.83,0.20578
3524.23,0.206483
3526.62,0.207267
3529.02,0.208146
3531.43,0.209023
3533.83,0.210207
3536.24,0.211231
3538.66,0.212011
3541.08,0.212529
3543.5,0.213153
3545.92,0.214216
3548.35,0.215438
3550.78,0.216635
3553.21,0.217623
3555.65,0.218405
3558.09,0.21897
3560.53,0.219698
3562.98,0.220692
3565.43,0.221813
3567.88,0.222959
3570.34,0.223695
3572.8,0.224566
3575.27,0.225221
3577.73,0.226109
3580.2,0.227146
3582.68,0.227838
3585.16,0.228602
3587.64,0.229658
3590.12,0.230615
3592.61,0.231698
3595.1,0.232485
3597.6,0.233157
3600.09,0.233745
3602.6,0.234597
3605.1,0.235878
3607.61,0.236664
3610.12,0.237219
3612.64,0.238062
3615.16,0.238753
3617.68,0.23932
3620.21,0.240141
3622.74,0.241045
3625.27,0.242014
3627.81,0.242613
3630.35,0.243337
3632.89,0.244217
3635.44,0.245113
3637.99,0.245976
3640.54,0.246617
3643.1,0.247125
3645.66,0.248096
3648.23,0.249132
3650.8,0.250036
3653.37,0.25075
3655.95,0.251572
3658.53,0.252456
3661.11,0.252875
3663.7,0.253643
3666.29,0.254687
3668.89,0.255283
3671.48,0.256185
3674.09,0.256812
3676.69,0.257195
3679.3,0.258077
3681.91,0.259109
3684.53,0.259976
3687.15,0.260223
3689.78,0.26072
3692.4,0.261502
3695.04,0.262119
3697.67,0.262762
3700.31,0.263657
3702.95,0.264503
3705.6,0.264876
3708.25,0.26549
3710.91,0.266409
3713.56,0.267263
3716.23,0.268216
3718.89,0.268796
3721.56,0.269285
3724.23,0.269934
3726.91,0.270859
3729.59,0.271829
3732.28,0.272492
3734.97,0.273103
3737.66,0.273727
3740.36,0.274508
3743.06,0.275068
3745.76,0.27549
3748.47,0.276335
3751.18,0.277244
3753.9,0.277927
3756.62,0.278701
3759.34,0.279359
3762.07,0.279936
3764.8,0.280358
3767.54,0.281336
3770.28,0.28221
3773.02,0.282879
3775.77,0.283502
3778.52,0.284187
3781.28,0.285103
3784.04,0.285933
3786.8,0.286551
3789.57,0.28728
3792.34,0.287571
3795.12,0.288048
3797.9,0.28889
3800.69,0.28973
3803.47,0.290189
3806.27,0.290867
3809.06,0.291628
3811.86,0.29217
3814.67,0.293051
3817.48,0.293599
3820.29,0.294019
3823.11,0.294646
3825.93,0.295362
3828.76,0.296138
3831.59,0.29656
3834.42,0.297382
3837.26,0.298126
3840.1,0.298628
3842.95,0.29925
3845.8,0.299865
3848.65,0.300553
3851.51,0.301223
3854.38,0.301887
3857.24,0.302523
3860.12,0.303291
3862.99,0.303781
3865.87,0.304456
3868.76,0.305242
3871.65,0.305748
3874.54,0.306112
3877.44,0.307237
3880.34,0.308179
3883.25,0.308316
3886.16,0.308638
3889.07,0.309444
3891.99,0.310145
3894.92,0.310704
3897.85,0.31115
3900.78,0.311615
3903.72,0.31188
3906.66,0.312309
3909.6,0.31312
3912.55,0.313971
3915.51,0.314258
3918.47,0.31465
3921.43,0.315206
3924.4,0.315393
3927.38,0.315826
3930.35,0.31646
3933.33,0.316938
3936.32,0.317619
3939.31,0.318153
3942.31,0.318337
3945.31,0.318786
3948.31,0.319016
3951.32,0.319306
3954.34,0.319756
3957.35,0.320127
3960.38,0.320449
3963.41,0.320736
3966.44,0.320986
3969.48,0.321265
3972.52,0.321558
3975.56,0.321719
3978.61,0.322015
3981.67,0.322371
3984.73,0.322587
3987.8,0.322527
3990.87,0.322808
3993.94,0.32304
3997.02,0.322937
4000.1,0.322876
4003.19,0.323212
4006.29,0.323291
4009.39,0.323754
4012.49,0.324158
4015.6,0.324041
4018.71,0.323664
4021.83,0.323798
4024.95,0.324072
4028.08,0.324017
4031.21,0.324192
4034.35,0.324288
4037.49,0.324178
4040.64,0.324063
4043.79,0.324151
4046.94,0.32408
4050.11,0.324008
4053.27,0.324133
4056.44,0.324073
4059.62,0.323822
4062.8,0.323578
4065.99,0.323614
4069.18,0.323496
4072.38,0.323324
4075.58,0.323024
4078.78,0.322683
4082.0,0.322492
4085.21,0.322097
4088.43,0.321973
4091.66,0.321782
4094.89,0.320958
4098.13,0.320414
4101.37,0.320118
4104.62,0.31983
4107.87,0.319594
4111.13,0.319134
4114.39,0.318621
4117.66,0.318263
4120.93,0.317972
4124.21,0.317475
4127.5,0.316766
4130.79,0.316036
4134.08,0.315683
4137.38,0.315287
4140.68,0.315048
4143.99,0.3145
4147.31,0.314064
4150.63,0.313694
4153.95,0.313193
4157.29,0.312477
4160.62,0.311681
4163.96,0.311005
4167.31,0.310508
4170.66,0.309931
4174.02,0.309404
4177.39,0.309041
4180.75,0.308653
4184.13,0.308015
4187.51,0.307457
4190.89,0.30684
4194.28,0.306156
4197.68,0.305591
4201.08,0.305303
4204.49,0.305152
4207.9,0.304645
4211.32,0.30386
4214.74,0.303293
4218.17,0.302701
4221.61,0.301827
4225.05,0.300671
4228.5,0.299968
4231.95,0.299389
4235.4,0.298743
4238.87,0.297745
4242.34,0.296601
4245.81,0.295545
4249.29,0.294786
4252.78,0.293798
4256.27,0.292812
4259.77,0.292317
4263.27,0.292233
4266.78,0.291868
4270.29,0.290874
4273.81,0.28991
4277.34,0.28881
4280.87,0.287552
4284.41,0.286375
4287.95,0.285406
4291.5,0.284261
4295.06,0.282786
4298.62,0.281658
4302.19,0.280766
4305.76,0.27937
4309.34,0.27794
4312.92,0.276784
4316.52,0.275414
4320.11,0.274029
4323.72,0.272787
4327.32,0.271327
4330.94,0.269787
4334.56,0.268541
4338.19,0.26716
4341.82,0.265335
4345.46,0.263912
4349.11,0.262731
4352.76,0.261349
4356.42,0.259844
4360.08,0.258324
4363.75,0.257172
4367.43,0.256261
4371.11,0.254919
4374.8,0.253439
4378.49,0.252134
4382.19,0.251281
4385.9,0.25055
4389.61,0.249512
4393.33,0.248616
4397.06,0.247791
4400.79,0.246833
4404.53,0.246051
4408.28,0.245603
4412.03,0.244892
4415.79,0.244389
4419.55,0.244012
4423.32,0.243648
4427.1,0.243114
4430.88,0.242633
4434.68,0.242524
4438.47,0.242326
4442.28,0.242122
4446.08,0.24179
4449.9,0.241712
4453.72,0.2419
4457.55,0.241991
4461.39,0.241975
4465.23,0.24212
4469.08,0.242311
4472.94,0.242394
4476.8,0.242583
4480.67,0.242818
4484.55,0.242712
4488.43,0.242739
4492.32,0.242866
4496.21,0.242744
4500.12,0.242684
4504.03,0.242675
4507.94,0.242609
4511.87,0.242164
4515.8,0.241638
4519.73,0.241105
4523.68,0.240591
4527.63,0.240124
4531.59,0.239286
4535.55,0.238203
4539.52,0.237484
4543.5,0.236629
4547.49,0.235522
4551.48,0.234524
4555.48,0.233783
4559.49,0.233033
4563.5,0.23189
4567.52,0.230756
4571.55,0.229717
4575.58,0.22889
4579.63,0.2283
4583.67,0.227701
4587.73,0.226868
4591.79,0.226544
4595.86,0.226539
4599.94,0.22662
4604.03,0.226734
4608.12,0.227131
4612.22,0.227872
4616.33,0.228699
4620.44,0.229799
4624.56,0.231277
4628.69,0.232529
4632.83,0.233863
4636.97,0.235226
4641.12,0.236942
4645.28,0.238821
4649.45,0.240767
4653.62,0.242667
4657.8,0.244717
4661.99,0.246751
4666.19,0.248586
4670.39,0.250331
4674.6,0.252155
4678.82,0.254135
4683.05,0.256267
4687.28,0.258276
4691.52,0.260339
4695.77,0.262319
4700.03,0.264019
4704.3,0.265439
4708.57,0.266964
4712.85,0.26885
4717.14,0.270661
4721.43,0.272004
4725.74,0.273134
4730.05,0.274411
4734.37,0.275906
4738.7,0.277161
4743.03,0.278205
4747.38,0.27923
4751.73,0.280275
4756.09,0.281407
4760.45,0.282128
4764.83,0.28272
4769.21,0.283482
4773.6,0.284202
4778.0,0.284894
4782.41,0.285364
4786.83,0.28604
4791.25,0.286701
4795.68,0.287387
4800.13,0.287988
4804.57,0.288508
4809.03,0.288927
4813.5,0.289386
4817.97,0.289966
4822.45,0.290665
4826.94,0.291286
4831.44,0.29184
4835.95,0.292173
4840.46,0.292816
4844.99,0.293671
4849.52,0.294248
4854.06,0.294543
4858.61,0.295106
4863.17,0.295963
4867.73,0.296917
4872.31,0.297762
4876.89,0.298544
4881.48,0.29925
4886.08,0.299869
4890.69,0.300611
4895.31,0.301546
4899.94,0.302309
4904.57,0.303075
4909.22,0.303867
4913.87,0.304551
4918.53,0.305149
4923.21,0.305972
4927.88,0.306742
4932.57,0.30745
4937.27,0.308214
4941.98,0.308783
4946.69,0.309079
4951.42,0.309205
4956.15,0.309451
4960.9,0.309754
4965.65,0.309815
4970.41,0.309914
4975.18,0.309979
4979.96,0.310145
4984.75,0.310433
4989.54,0.310949
4994.35,0.311285
4999.17,0.311508
5003.99,0.311993
5008.83,0.312544
5013.67,0.313048
5018.52,0.313682
5023.39,0.314371
5028.26,0.314903
5033.14,0.315369
5038.03,0.315935
5042.93,0.316364
5047.84,0.316999
5052.76,0.317416
5057.69,0.317804
5062.63,0.318313
5067.58,0.318847
5072.54,0.319254
5077.51,0.319698
5082.49,0.320067
5087.47,0.320174
5092.47,0.320191
5097.48,0.320377
5102.5,0.320592
5107.52,0.320726
5112.56,0.320888
5117.61,0.321244
5122.66,0.321694
5127.73,0.321971
5132.81,0.322266
5137.89,0.3228
5142.99,0.322992
5148.1,0.323228
5153.22,0.32339
5158.34,0.32336
5163.48,0.323341
5168.63,0.323472
5173.79,0.323667
5178.96,0.324
5184.13,0.324305
5189.32,0.324779
5194.52,0.325258
5199.73,0.325526
5204.96,0.326136
5210.19,0.326747
5215.43,0.327096
5220.68,0.327113
5225.94,0.326826
5231.22,0.32697
5236.5,0.326915
5241.79,0.326643
5247.1,0.326065
5252.42,0.325616
5257.74,0.325187
5263.08,0.3246
5268.43,0.323802
5273.79,0.322952
5279.16,0.322135
5284.54,0.321391
5289.93,0.320592
5295.34,0.319777
5300.75,0.318657
5306.18,0.317811
5311.61,0.316917
5317.06,0.315716
5322.52,0.314468
5327.99,0.313381
5333.47,0.312477
5338.96,0.311659
5344.47,0.310797
5349.98,0.31024
5355.51,0.309873
5361.05,0.309568
5366.6,0.309319
5372.16,0.309156
5377.73,0.308969
5383.32,0.308825
5388.91,0.308433
5394.52,0.307815
5400.14,0.307054
5405.77,0.306538
5411.41,0.305823
5417.07,0.304978
5422.74,0.304425
5428.41,0.303801
5434.1,0.302646
5439.81,0.301418
5445.52,0.300406
5451.25,0.299463
5456.98,0.298218
5462.73,0.296906
5468.5,0.29586
5474.27,0.294807
5480.06,0.293443
5485.86,0.292291
5491.67,0.291074
5497.49,0.289969
5503.33,0.288842
5509.18,0.287643
5515.04,0.286563
5520.91,0.285593
5526.8,0.284398
5532.69,0.283474
5538.61,0.282526
5544.53,0.281473
5550.47,0.280537
5556.41,0.279827
5562.38,0.278942
5568.35,0.278106
5574.34,0.277242
5580.34,0.2764
5586.35,0.275368
5592.38,0.27431
5598.42,0.273424
5604.47,0.272589
5610.54,0.271572
5616.61,0.270475
5622.71,0.269355
5628.81,0.268281
5634.93,0.266998
5641.06,0.265884
5647.21,0.26479
5653.36,0.263338
5659.54,0.261746
5665.72,0.260163
5671.92,0.258818
5678.13,0.25746
5684.36,0.255813
5690.6,0.254087
5696.85,0.252304
5703.12,0.250633
5709.4,0.248823
5715.69,0.247036
5722.0,0.244997
5728.33,0.243015
5734.66,0.240878
5741.01,0.2386
5747.38,0.23642
5753.76,0.234425
5760.15,0.232284
5766.56,0.230669
5772.98,0.22877
5779.41,0.226233
5785.86,0.224118
5792.33,0.222176
5798.81,0.219904
5805.3,0.217695
5811.81,0.21515
5818.33,0.212558
5824.87,0.209925
5831.42,0.206847
5837.99,0.203294
5844.57,0.199862
5851.17,0.195946
5857.78,0.191763
5864.41,0.187021
5871.05,0.181784
5877.7,0.176045
5884.38,0.170219
5891.06,0.163084
5897.76,0.155927
5904.48,0.147626
5911.21,0.138633
5917.96,0.130043
5924.73,0.120915
5931.5,0.111931
5938.3,0.103813
5945.11,0.095758
5951.93,0.088828
5958.78,0.082983
5965.63,0.077928
5972.51,0.073212
5979.39,0.068207
5986.3,0.063418
5993.22,0.058653
6000.16,0.053459
6007.11,0.04881
6014.08,0.045367
6021.06,0.043758
6028.06,0.044583
6035.08,0.047106
6042.12,0.050268
6049.17,0.052761
6056.23,0.053887
6063.32,0.053826
6070.42,0.053411
6077.53,0.053306
6084.67,0.054523
6091.82,0.057509
6098.98,0.062103
6106.17,0.067515
6113.37,0.073131
6120.58,0.079001
6127.82,0.084752
6135.07,0.089723
6142.34,0.094414
6149.63,0.098752
6156.93,0.102519
6164.25,0.105527
6171.59,0.107868
6178.95,0.109598
6186.32,0.110834
6193.71,0.111511
6201.12,0.111751
6208.54,0.111684
6215.99,0.111386
6223.45,0.110674
6230.93,0.109807
6238.43,0.109045
6245.95,0.108644
6253.48,0.108513
6261.03,0.108895
6268.6,0.110042
6276.19,0.1119
6283.8,0.114561
6291.43,0.117971
6299.07,0.121745
6306.73,0.12599
6314.42,0.130444
6322.12,0.135046
6329.84,0.13942
6337.57,0.143512
6345.33,0.147351
6353.11,0.151277
6360.9,0.154951
6368.72,0.158283
6376.55,0.161119
6384.4,0.163772
6392.27,0.166157
6400.17,0.168289
6408.08,0.170215
6416.01,0.17207
6423.96,0.173511
6431.93,0.174739
6439.92,0.176075
6447.93,0.177338
6455.96,0.178442
6464.01,0.179269
6472.08,0.180053
6480.17,0.181047
6488.28,0.181878
6496.41,0.182542
6504.56,0.183376
6512.73,0.184147
6520.92,0.184823
6529.14,0.185508
6537.37,0.18615
6545.63,0.186869
6553.9,0.187606
6562.2,0.188186
6570.51,0.188728
6578.85,0.189561
6587.21,0.190092
6595.59,0.190435
6603.99,0.190745
6612.42,0.191022
6620.86,0.191263
6629.33,0.191309
6637.82,0.19152
6646.33,0.191798
6654.86,0.191927
6663.41,0.192057
6671.99,0.19218
6680.59,0.192058
6689.21,0.191979
6697.85,0.192115
6706.51,0.19206
6715.2,0.191949
6723.91,0.191909
6732.64,0.191845
6741.4,0.19164
6750.18,0.191337
6758.98,0.191222
6767.8,0.191146
6776.65,0.190925
6785.52,0.190556
6794.41,0.19021
6803.33,0.18976
6812.27,0.189384
6821.23,0.18924
6830.22,0.188866
6839.23,0.188359
6848.26,0.187997
6857.32,0.18781
6866.4,0.187457
6875.51,0.186912
6884.64,0.186276
6893.8,0.185571
6902.98,0.184822
6912.18,0.18427
6921.41,0.183729
6930.66,0.182913
6939.94,0.182055
6949.24,0.181414
6958.57,0.180539
6967.92,0.179601
6977.3,0.1786
6986.7,0.177613
6996.13,0.17671
7005.59,0.175859
7015.07,0.174931
7024.57,0.173939
7034.1,0.173226
7043.66,0.172647
7053.25,0.171851
7062.85,0.170857
7072.49,0.170141
7082.15,0.1695
7091.84,0.168667
7101.55,0.167746
7111.3,0.166853
7121.06,0.166238
7130.86,0.165546
7140.68,0.164729
7150.53,0.163903
7160.41,0.162902
7170.31,0.162102
7180.24,0.161339
7190.2,0.160333
7200.19,0.159376
7210.2,0.158534
7220.24,0.157615
7230.31,0.156681
7240.41,0.155769
7250.54,0.155012
7260.69,0.154155
7270.88,0.153141
7281.09,0.152148
7291.33,0.151189
7301.6,0.150297
7311.9,0.149239
7322.22,0.148113
7332.58,0.14702
7342.97,0.145896
7353.38,0.14473
7363.83,0.143482
7374.3,0.142285
7384.81,0.141023
7395.34,0.139662
7405.91,0.138222
7416.5,0.136826
7427.13,0.135464
7437.78,0.134114
7448.47,0.132691
7459.19,0.131102
7469.94,0.129619
7480.71,0.128061
7491.52,0.126344
7502.37,0.124698
7513.24,0.123021
7524.14,0.121254
7535.08,0.11941
7546.05,0.117577
7557.05,0.11591
7568.08,0.114201
7579.15,0.112315
7590.24,0.110551
7601.37,0.108826
7612.53,0.107038
7623.73,0.105221
7634.96,0.10335
7646.22,0.101611
7657.51,0.09982
7668.84,0.097871
7680.2,0.095987
7691.59,0.09415
7703.02,0.092277
7714.49,0.09037
7725.98,0.088406
7737.52,0.086366
7749.08,0.084398
7760.68,0.082508
7772.32,0.080637
7783.99,0.078806
7795.69,0.076837
7807.43,0.074944
7819.21,0.073001
7831.02,0.070953
7842.87,0.068837
7854.75,0.066688
7866.67,0.064644
7878.62,0.062758
7890.62,0.060753
7902.64,0.058634
7914.71,0.056741
7926.81,0.05465
7938.95,0.052554
7951.13,0.050549
7963.34,0.048378
7975.59,0.046368
7987.88,0.044415
8000.21,0.042363
8012.57,0.040528
8024.98,0.038502
8037.42,0.036367
8049.9,0.034471
8062.42,0.032711
8074.98,0.030716
8087.57,0.028803
8100.21,0.027053
8112.89,0.025465
8125.6,0.023655
8138.36,0.021915
8151.16,0.020515
8163.99,0.019109
8176.87,0.017392
8189.79,0.015902
8202.75,0.014751
8215.75,0.013675
8228.79,0.012454
8241.87,0.011507
8254.99,0.010918
8268.16,0.0102
8281.37,0.009268
8294.62,0.008587
8307.91,0.008091
8321.24,0.007595
8334.62,0.007347
8348.04,0.007352
8361.51,0.007253
8375.02,0.007362
8388.57,0.007715
8402.16,0.008273
8415.8,0.009018
8429.49,0.00995
8443.22,0.010965
8456.99,0.012317
8470.81,0.014072
8484.67,0.016074
8498.58,0.018469
8512.54,0.021331
8526.54,0.024452
8540.58,0.027986
8554.68,0.031934
8568.82,0.036257
8583.0,0.040871
8597.24,0.045782
8611.52,0.050991
8625.85,0.056552
8640.23,0.061905
8654.65,0.067223
8669.12,0.072897
8683.64,0.078198
8698.21,0.083315
8712.83,0.088078
8727.5,0.092336
8742.22,0.095621
8756.99,0.098068
8771.8,0.099557
8786.67,0.099738
8801.59,0.098783
8816.56,0.097081
8831.58,0.095216
8846.65,0.093317
8861.77,0.09153
8876.94,0.090278
8892.17,0.089308
8907.45,0.088369
8922.78,0.087299
8938.16,0.085937
8953.6,0.084131
8969.09,0.082108
8984.64,0.080211
9000.23,0.078028
9015.89,0.076011
9031.59,0.074491
9047.36,0.073097
9063.17,0.071762
9079.05,0.070229
9094.97,0.068151
9110.96,0.065681
9127.0,0.062621
9143.1,0.058973
9159.25,0.055277
9175.46,0.052119
9191.73,0.049821
9208.06,0.048437
9224.44,0.047964
9240.88,0.048394
9257.38,0.049574
9273.94,0.051118
9290.56,0.05322
9307.24,0.056054
9323.98,0.059233
9340.78,0.062426
9357.64,0.065144
9374.57,0.067733
9391.55,0.069619
9408.59,0.070648
9425.7,0.07116
9442.87,0.071352
9460.1,0.071406
9477.4,0.071277
9494.75,0.071054
9512.17,0.070401
9529.66,0.069013
9547.21,0.06758
9564.83,0.066304
9582.5,0.065436
9600.25,0.065056
9618.06,0.066063
9635.94,0.068591
9653.88,0.071829
9671.89,0.075456
9689.97,0.078604
9708.12,0.081039
9726.33,0.083092
9744.62,0.084749
9762.97,0.085611
9781.39,0.086017
9799.88,0.086058
9818.44,0.085136
9837.07,0.083681
9855.77,0.082506
9874.54,0.081755
9893.39,0.081181
9912.3,0.080401
9931.29,0.078826
9950.36,0.076621
9969.49,0.0745
9988.7,0.073022
10007.98,0.072257
10027.34,0.072072
10046.77,0.071976
10066.28,0.071978
10085.87,0.07237
10105.53,0.073066
10125.26,0.073812
10145.08,0.075038
10164.97,0.076289
10184.94,0.076717
10204.99,0.076211
10225.12,0.075175
10245.33,0.074091
10265.61,0.072805
10285.98,0.071279
10306.43,0.069862
10326.96,0.068601
10347.57,0.067783
10368.27,0.067136
10389.05,0.066259
10409.91,0.065249
10430.86,0.064203
10451.88,0.062745
10473.0,0.060824
10494.2,0.058917
10515.49,0.057493
10536.86,0.056689
10558.32,0.057158
10579.87,0.058822
10601.5,0.061247
10623.23,0.063781
10645.04,0.066003
10666.94,0.067776
10688.94,0.068869
10711.02,0.069507
10733.2,0.070213
10755.47,0.071114
10777.83,0.072212
10800.28,0.073364
10822.83,0.074554
10845.47,0.075802
10868.21,0.077249
10891.04,0.078906
10913.97,0.080493
10936.99,0.082396
10960.12,0.084268
10983.34,0.08605
11006.66,0.087896
11030.07,0.089986
11053.59,0.092227
11077.21,0.094339
11100.93,0.096414
11124.75,0.098549
11148.68,0.100672
11172.71,0.102832
11196.84,0.105276
11221.07,0.107787
11245.41,0.110035
11269.86,0.112522
11294.41,0.115018
11319.07,0.117325
11343.84,0.11975
11368.72,0.122
11393.7,0.124083
11418.8,0.126056
11444.01,0.128075
11469.33,0.130088
11494.76,0.131909
11520.3,0.133722
11545.96,0.135567
11571.73,0.137087
11597.62,0.138163
11623.62,0.139487
11649.74,0.140985
11675.98,0.142136
11702.34,0.14305
11728.81,0.144116
11755.41,0.145438
11782.13,0.146467
11808.96,0.147503
11835.92,0.148638
11863.01,0.149448
11890.22,0.150031
11917.55,0.150747
11945.01,0.151536
11972.6,0.152236
12000.31,0.152882
12028.16,0.153285
12056.13,0.15358
12084.23,0.153593
12112.46,0.153466
12140.83,0.153281
12169.33,0.152975
12197.96,0.152351
12226.73,0.151555
12255.64,0.150775
12284.68,0.149752
12313.86,0.148342
12343.18,0.14682
12372.64,0.145073
12402.24,0.143395
12431.98,0.141478
12461.86,0.139027
12491.89,0.136398
12522.07,0.133603
12552.38,0.130305
12582.85,0.126734
12613.47,0.123124
12644.23,0.11974
12675.15,0.116153
12706.21,0.112062
12737.43,0.108297
12768.81,0.104639
12800.33,0.101034
12832.02,0.097518
12863.86,0.093782
12895.86,0.090684
12928.02,0.087802
12960.34,0.085022
12992.82,0.082525
13025.46,0.080019
13058.27,0.077455
13091.25,0.074615
13124.39,0.072116
13157.7,0.069609
13191.18,0.066733
13224.83,0.06381
13258.66,0.060441
13292.65,0.057002
13326.83,0.053781
13361.17,0.050551
13395.7,0.047181
13430.4,0.043993
13465.29,0.041277
13500.35,0.038654
13535.6,0.036426
13571.03,0.034508
13606.65,0.032862
13642.46,0.03158
13678.46,0.030948
13714.64,0.031333
13751.02,0.031861
13787.59,0.032169
13824.36,0.032735
13861.32,0.033216
13898.49,0.033698
13935.85,0.034429
13973.41,0.034662
14011.17,0.035171
14049.15,0.035567
14087.32,0.035756
14125.71,0.036006
14164.3,0.036061
14203.11,0.036088
14242.13,0.035749
14281.36,0.035807
14320.81,0.036088
14360.49,0.036623
14400.38,0.037074
14440.49,0.037786
14480.82,0.039107
14521.39,0.040292
14562.18,0.04106
14603.2,0.041533
14644.45,0.041541
14685.93,0.041459
14727.66,0.041175
14769.62,0.040883
14811.81,0.040958
14854.25,0.041024
14896.94,0.041461
14939.87,0.04215
14983.05,0.043278
15026.48,0.044791
15070.16,0.044987
15114.1,0.044784
15158.29,0.04532
15202.74,0.04573
15247.46,0.045946
15292.43,0.046572
15337.68,0.047318
15383.19,0.048103
15428.97,0.04917
15475.03,0.050693
15521.36,0.052133
15567.97,0.053926
15614.87,0.055734
15662.04,0.056988
15709.5,0.057949
15757.25,0.058737
15805.29,0.059103
15853.62,0.059689
15902.26,0.059824
15951.19,0.059812
16000.42,0.060029
16049.95,0.059868
16099.8,0.059975
16149.95,0.059737
16200.42,0.059365
16251.21,0.059409
16302.31,0.059833
16353.74,0.06016
16405.49,0.060184
16457.57,0.060441
16509.98,0.060444
16562.73,0.059858
16615.82,0.059293
16669.24,0.059065
16723.02,0.058828
16777.14,0.058715
16831.61,0.058084
16886.43,0.058069
16941.62,0.058359
16997.16,0.058725
17053.08,0.05938
17109.36,0.060102
17166.01,0.060766
17223.04,0.060961
17280.45,0.060897
17338.24,0.060849
17396.43,0.060877
17455.0,0.060592
17513.97,0.059735
17573.34,0.060056
17633.11,0.0604
17693.29,0.059903
17753.89,0.059509
17814.9,0.059433
17876.33,0.059477
17938.18,0.059274
18000.47,0.059046
18063.19,0.059341
18126.35,0.05954
18189.95,0.05992
18254.0,0.060788
18318.5,0.061298
18383.46,0.062059
18448.88,0.062634
18514.77,0.063649
18581.13,0.065553
18647.97,0.066024
18715.29,0.066881
18783.1,0.067435
18851.4,0.067435
18920.2,0.067524
18989.51,0.067829
19059.32,0.067534
19129.65,0.067494
19200.5,0.068374
19271.88,0.069112
19343.79,0.069242
19416.24,0.069713
19489.23,0.069929
19562.77,0.069993
19636.88,0.070385
19711.54,0.070895
19786.78,0.071892
19862.59,0.072744
19938.98,0.073735
20015.96,0.074668
20093.55,0.075418
20171.73,0.075822
20250.53,0.076025
20329.94,0.076142
20409.98,0.075349
20490.65,0.074887
20571.96,0.074609
20653.92,0.073642
20736.54,0.072643
20819.82,0.071834
20903.77,0.070954
20988.4,0.070733
21073.72,0.069919
21159.73,0.068429
21246.46,0.06757
21333.89,0.066475
21422.04,0.065996
21510.93,0.066037
21600.56,0.066072
21690.94,0.066874
21782.08,0.065831
21873.99,0.066496
21966.67,0.070305
22060.15,0.07558
22154.42,0.082914
22249.51,0.089954
22345.41,0.097956
22442.14,0.10801
22539.72,0.115317
22638.14,0.121118
22737.43,0.125859
22837.6,0.12751
22938.65,0.126738
23040.6,0.125984
23143.46,0.1256
23247.24,0.125054
23351.96,0.123655
23457.63,0.123634
23564.25,0.122667
23671.85,0.120535
23780.44,0.117874
23890.02,0.114621
24000.63,0.111613
24112.26,0.109268
24224.93,0.106455
24338.66,0.103812
24453.47,0.10192
24569.36,0.102294
24686.36,0.102879
24804.47,0.102363
24923.73,0.102416
25044.13,0.104515
25165.71,0.108142
25288.46,0.108105
25412.43,0.106346
25537.61,0.104364
25664.04,0.100199
25791.72,0.099735
25920.68,0.103559
