Database of Origin,University of Winnipeg Spectrophotometer Facility
Sample Description,See Master Clays in HOSERLab database
Date Added,2016-12-11 20:58:41.977800

Data ID,RLA_CLAY_38         
Sample ID,SRP117
Mineral Name,Serpentinite
Grain Size,<45um
Viewing Geometry,"30/0,30"
Resolution,"5,0.6-129"
Material Class,Phyllosilicate

Wavelength
305.0,0.083096
310.0,0.089452
315.0,0.091064
320.0,0.096902
325.0,0.103846
330.0,0.108757
335.0,0.115154
340.0,0.119562
345.0,0.125442
350.0,0.134387
355.0,0.144853
360.0,0.153753
365.0,0.163102
370.0,0.171467
375.0,0.181215
380.0,0.192421
385.0,0.200844
390.0,0.207839
395.0,0.216024
400.0,0.222423
405.0,0.228426
410.0,0.233944
415.0,0.23791
420.0,0.24505
425.0,0.252945
430.0,0.25954
435.0,0.267636
440.0,0.276219
445.0,0.282867
450.0,0.291456
455.0,0.295425
460.0,0.299802
465.0,0.303678
470.0,0.307388
475.0,0.311747
480.0,0.315164
485.0,0.319946
490.0,0.324198
495.0,0.329982
500.0,0.336295
505.0,0.341519
510.0,0.347558
515.0,0.350848
520.0,0.356554
525.0,0.359575
530.0,0.363538
535.0,0.366471
540.0,0.368826
545.0,0.371995
550.0,0.373482
555.0,0.375973
560.0,0.377219
565.0,0.379175
570.0,0.380589
575.0,0.381757
580.0,0.382957
585.0,0.38345
590.0,0.385197
595.0,0.385167
600.0,0.387256
605.0,0.386349
610.0,0.388382
615.0,0.388736
620.0,0.388459
625.0,0.389262
630.0,0.388879
635.0,0.389822
640.0,0.388996
645.0,0.389804
650.0,0.388673
655.0,0.38903
660.0,0.387518
665.0,0.387895
670.0,0.387926
675.0,0.386768
680.0,0.387503
685.0,0.385407
690.0,0.386264
695.0,0.38578
700.0,0.384564
705.0,0.38509
710.0,0.383467
715.0,0.384461
720.0,0.382759
725.0,0.382719
730.0,0.383375
735.0,0.381537
740.0,0.383236
745.0,0.382092
750.0,0.382539
755.0,0.383666
760.0,0.383161
765.0,0.383506
770.0,0.383922
775.0,0.384515
780.0,0.385087
785.0,0.386036
790.0,0.386535
795.0,0.387036
800.0,0.387947
805.0,0.388184
810.0,0.388469
815.0,0.388939
820.0,0.389281
825.0,0.389109
830.0,0.38996
835.0,0.390481
840.0,0.389629
845.0,0.389236
850.0,0.389817
855.0,0.389483
860.0,0.389044
865.0,0.389803
870.0,0.389501
875.0,0.388378
880.0,0.386949
885.0,0.385266
890.0,0.386056
895.0,0.384736
900.0,0.384481
905.0,0.385785
910.0,0.385599
915.0,0.38668
920.0,0.386108
925.0,0.385303
930.0,0.385649
935.0,0.385782
940.0,0.384734
945.0,0.384304
950.0,0.385857
955.0,0.385907
960.0,0.386529
965.0,0.387941
970.0,0.389405
975.0,0.3897
980.0,0.390224
985.0,0.39054
990.0,0.391094
995.0,0.390802
1000.0,0.389794
1005.0,0.38995
1010.0,0.390114
1015.0,0.389491
1020.0,0.389853
1025.0,0.390623
1030.0,0.390187
1035.0,0.390325
1040.0,0.390669
1045.0,0.390527
1050.0,0.391354
1055.0,0.391797
1060.0,0.391471
1065.0,0.390798
1070.0,0.390539
1075.0,0.390705
1080.0,0.390367
1085.0,0.390136
1090.0,0.390573
1095.0,0.391257
1100.0,0.390133
1105.0,0.390877
1110.0,0.390952
1115.0,0.39128
1120.0,0.391391
1125.0,0.391673
1130.0,0.390951
1135.0,0.391987
1140.0,0.392049
1145.0,0.39185
1150.0,0.391891
1155.0,0.392098
1160.0,0.391729
1165.0,0.391694
1170.0,0.391939
1175.0,0.392613
1180.0,0.39309
1185.0,0.393578
1190.0,0.393318
1195.0,0.392886
1200.0,0.392681
1205.0,0.39309
1210.0,0.393432
1215.0,0.39436
1220.0,0.395166
1225.0,0.39582
1230.0,0.39539
1235.0,0.395267
1240.0,0.395583
1245.0,0.396157
1250.0,0.395672
1255.0,0.396632
1260.0,0.397274
1265.0,0.397889
1270.0,0.398502
1275.0,0.399494
1280.0,0.39924
1285.0,0.399139
1290.0,0.399477
1295.0,0.399707
1300.0,0.399469
1305.0,0.400268
1310.0,0.401368
1315.0,0.401135
1320.0,0.401115
1325.0,0.401514
1330.0,0.40142
1335.0,0.402028
1340.0,0.402444
1345.0,0.402032
1350.0,0.402465
1355.0,0.402087
1360.0,0.40152
1365.0,0.401277
1370.0,0.402785
1375.0,0.40051
1380.0,0.394567
1385.0,0.367746
1390.0,0.367511
1395.0,0.3734
1400.0,0.381074
1405.0,0.38771
1410.0,0.390422
1415.0,0.394963
1420.0,0.397935
1425.0,0.400675
1430.0,0.401892
1435.0,0.403151
1440.0,0.403181
1445.0,0.403801
1450.0,0.404852
1455.0,0.406196
1460.0,0.407506
1465.0,0.408431
1470.0,0.408978
1475.0,0.408987
1480.0,0.408913
1485.0,0.409175
1490.0,0.40965
1495.0,0.40978
1500.0,0.408918
1505.0,0.409728
1510.0,0.409443
1515.0,0.409948
1520.0,0.41144
1525.0,0.41357
1530.0,0.41348
1535.0,0.414071
1540.0,0.41401
1545.0,0.413195
1550.0,0.41327
1555.0,0.412996
1560.0,0.412962
1565.0,0.413137
1570.0,0.413358
1575.0,0.413348
1580.0,0.413884
1585.0,0.41461
1590.0,0.415454
1595.0,0.415813
1600.0,0.416188
1605.0,0.416528
1610.0,0.416913
1615.0,0.41657
1620.0,0.416749
1625.0,0.415776
1630.0,0.415023
1635.0,0.415233
1640.0,0.415094
1645.0,0.415329
1650.0,0.416867
1655.0,0.418681
1660.0,0.418781
1665.0,0.420131
1670.0,0.420861
1675.0,0.42098
1680.0,0.419746
1685.0,0.420179
1690.0,0.418889
1695.0,0.419057
1700.0,0.419306
1705.0,0.419053
1710.0,0.418921
1715.0,0.418648
1720.0,0.419448
1725.0,0.419196
1730.0,0.418897
1735.0,0.418656
1740.0,0.419657
1745.0,0.417723
1750.0,0.419354
1755.0,0.417792
1760.0,0.418179
1765.0,0.418853
1770.0,0.418864
1775.0,0.418213
1780.0,0.418736
1785.0,0.418849
1790.0,0.420723
1795.0,0.419235
1800.0,0.41882
1805.0,0.418258
1810.0,0.418549
1815.0,0.41939
1820.0,0.41864
1825.0,0.418029
1830.0,0.414955
1835.0,0.417898
1840.0,0.416458
1845.0,0.418207
1850.0,0.420454
1855.0,0.418052
1860.0,0.417705
1865.0,0.41473
1870.0,0.418836
1875.0,0.413772
1880.0,0.41544
1885.0,0.414163
1890.0,0.412209
1895.0,0.409571
1900.0,0.405663
1905.0,0.402204
1910.0,0.400239
1915.0,0.397298
1920.0,0.39795
1925.0,0.395013
1930.0,0.395815
1935.0,0.394053
1940.0,0.394164
1945.0,0.394597
1950.0,0.393669
1955.0,0.395907
1960.0,0.393369
1965.0,0.396378
1970.0,0.395325
1975.0,0.396145
1980.0,0.394575
1985.0,0.395948
1990.0,0.397739
1995.0,0.397913
2000.0,0.397664
2005.0,0.399134
2010.0,0.398967
2015.0,0.402206
2020.0,0.400841
2025.0,0.403001
2030.0,0.400039
2035.0,0.403759
2040.0,0.405765
2045.0,0.406468
2050.0,0.406351
2055.0,0.407808
2060.0,0.407512
2065.0,0.408759
2070.0,0.409618
2075.0,0.411258
2080.0,0.41079
2085.0,0.410489
2090.0,0.407358
2095.0,0.407178
2100.0,0.409953
2105.0,0.408453
2110.0,0.410113
2115.0,0.408823
2120.0,0.412503
2125.0,0.409496
2130.0,0.409534
2135.0,0.408906
2140.0,0.408702
2145.0,0.411226
2150.0,0.411295
2155.0,0.412187
2160.0,0.41511
2165.0,0.412045
2170.0,0.412407
2175.0,0.413368
2180.0,0.413439
2185.0,0.41451
2190.0,0.413072
2195.0,0.411716
2200.0,0.412282
2205.0,0.410792
2210.0,0.410891
2215.0,0.412078
2220.0,0.408191
2225.0,0.407829
2230.0,0.405338
2235.0,0.403203
2240.0,0.401305
2245.0,0.397604
2250.0,0.397907
2255.0,0.392889
2260.0,0.390944
2265.0,0.390346
2270.0,0.385662
2275.0,0.382249
2280.0,0.380802
2285.0,0.376695
2290.0,0.378448
2295.0,0.373878
2300.0,0.369537
2305.0,0.3704
2310.0,0.363987
2315.0,0.356336
2320.0,0.343981
2325.0,0.33707
2330.0,0.340152
2335.0,0.341366
2340.0,0.342458
2345.0,0.350371
2350.0,0.360438
2355.0,0.365478
2360.0,0.371102
2365.0,0.373835
2370.0,0.371803
2375.0,0.368289
2380.0,0.367072
2385.0,0.363014
2390.0,0.363721
2395.0,0.360713
2400.0,0.362774
2405.0,0.362612
2410.0,0.357401
2415.0,0.359622
2420.0,0.354336
2425.0,0.354499
2430.0,0.346564
2435.0,0.346085
2440.0,0.347009
2445.0,0.346207
2450.0,0.341507
2455.0,0.341233
2460.0,0.339914
2465.0,0.336308
2470.0,0.336309
2475.0,0.332062
2480.0,0.331311
2485.0,0.32751
2490.0,0.321206
2495.0,0.323919
2500.0,0.322947
2505.0,0.31878
2509.26,0.318972
2511.69,0.319314
2514.13,0.319889
2516.57,0.320777
2519.02,0.321588
2521.47,0.32239
2523.92,0.323248
2526.38,0.324235
2528.85,0.324985
2531.32,0.325751
2533.79,0.326552
2536.27,0.32743
2538.75,0.327887
2541.24,0.328262
2543.74,0.328496
2546.24,0.328473
2548.74,0.328448
2551.25,0.328232
2553.76,0.327879
2556.28,0.327683
2558.8,0.327719
2561.33,0.327889
2563.86,0.327947
2566.4,0.328619
2568.95,0.329516
2571.5,0.330265
2574.05,0.330846
2576.61,0.33156
2579.17,0.332199
2581.74,0.332908
2584.31,0.333521
2586.89,0.3344
2589.48,0.335413
2592.07,0.336041
2594.66,0.335949
2597.26,0.335754
2599.87,0.336229
2602.48,0.336632
2605.09,0.336253
2607.71,0.335693
2610.34,0.33546
2612.97,0.335397
2615.61,0.335207
2618.25,0.334713
2620.9,0.333978
2623.55,0.333632
2626.21,0.333143
2628.87,0.33241
2631.54,0.331267
2634.22,0.330115
2636.89,0.328894
2639.58,0.327458
2642.27,0.325497
2644.97,0.323399
2647.67,0.320469
2650.38,0.317216
2653.09,0.313954
2655.81,0.310809
2658.53,0.307665
2661.26,0.304266
2664.0,0.29994
2666.74,0.294421
2669.48,0.286494
2672.23,0.275135
2674.99,0.258221
2677.76,0.234341
2680.52,0.201226
2683.3,0.169661
2686.08,0.141845
2688.87,0.116981
2691.66,0.095898
2694.46,0.077276
2697.26,0.057036
2700.07,0.03817
2702.89,0.024739
2705.71,0.018716
2708.53,0.016515
2711.37,0.016203
2714.21,0.017187
2717.05,0.019052
2719.9,0.021212
2722.76,0.024148
2725.62,0.026499
2728.49,0.028311
2731.37,0.029682
2734.25,0.030265
2737.14,0.030547
2740.03,0.030687
2742.93,0.030957
2745.83,0.031822
2748.75,0.033839
2751.66,0.036288
2754.59,0.038732
2757.52,0.041234
2760.46,0.043317
2763.4,0.044862
2766.35,0.04605
2769.3,0.04709
2772.26,0.048536
2775.23,0.049731
2778.21,0.050547
2781.19,0.051148
2784.18,0.051969
2787.17,0.05278
2790.17,0.053234
2793.18,0.053676
2796.19,0.054264
2799.21,0.054535
2802.24,0.055113
2805.27,0.055667
2808.31,0.056159
2811.35,0.056946
2814.41,0.057677
2817.46,0.058218
2820.53,0.058585
2823.6,0.059038
2826.68,0.059645
2829.77,0.060202
2832.86,0.06075
2835.96,0.061064
2839.07,0.061416
2842.18,0.061674
2845.3,0.061728
2848.43,0.061923
2851.56,0.062217
2854.7,0.062483
2857.85,0.062951
2861.0,0.063527
2864.16,0.064051
2867.33,0.064487
2870.51,0.065043
2873.69,0.065683
2876.88,0.066167
2880.07,0.066624
2883.28,0.067344
2886.49,0.067791
2889.71,0.068028
2892.93,0.068601
2896.17,0.069219
2899.4,0.069457
2902.65,0.069901
2905.91,0.070433
2909.17,0.07105
2912.44,0.07146
2915.71,0.071985
2918.99,0.072437
2922.29,0.072904
2925.58,0.073159
2928.89,0.07351
2932.2,0.074205
2935.52,0.07467
2938.85,0.075068
2942.19,0.075346
2945.53,0.075525
2948.88,0.075825
2952.24,0.076371
2955.61,0.077125
2958.98,0.077917
2962.36,0.078436
2965.75,0.07865
2969.15,0.079266
2972.55,0.080066
2975.97,0.080559
2979.39,0.080796
2982.82,0.081504
2986.25,0.082024
2989.7,0.082358
2993.15,0.082865
2996.61,0.08337
3000.08,0.083544
3003.55,0.084113
3007.04,0.084707
3010.53,0.085353
3014.03,0.086207
3017.54,0.086898
3021.06,0.087103
3024.58,0.087488
3028.12,0.087991
3031.66,0.088547
3035.21,0.088831
3038.77,0.089266
3042.33,0.090027
3045.91,0.090899
3049.49,0.091333
3053.08,0.091436
3056.68,0.091703
3060.29,0.092294
3063.91,0.092884
3067.54,0.093399
3071.17,0.093527
3074.81,0.093782
3078.47,0.094218
3082.13,0.094557
3085.79,0.09499
3089.47,0.095649
3093.16,0.095698
3096.85,0.095955
3100.56,0.096623
3104.27,0.097299
3107.99,0.097641
3111.73,0.097884
3115.47,0.098049
3119.21,0.098691
3122.97,0.099377
3126.74,0.099633
3130.52,0.099843
3134.3,0.100259
3138.1,0.10059
3141.9,0.101182
3145.71,0.101629
3149.54,0.102098
3153.37,0.102751
3155.29,0.103486
3157.21,0.103897
3159.13,0.103904
3161.06,0.103881
3162.99,0.104023
3164.92,0.104641
3166.85,0.10527
3168.79,0.105119
3170.72,0.105221
3172.67,0.105332
3174.61,0.10541
3176.55,0.105625
3178.5,0.106036
3180.45,0.106412
3182.4,0.106672
3184.36,0.107183
3186.32,0.107153
3188.27,0.107268
3190.24,0.107713
3192.2,0.107862
3194.17,0.107926
3196.14,0.108337
3198.11,0.108676
3200.08,0.109127
3202.06,0.109647
3204.04,0.109224
3206.02,0.109079
3208.0,0.109727
3209.99,0.110228
3211.98,0.110229
3213.97,0.110086
3215.96,0.110602
3217.96,0.111162
3219.96,0.110962
3221.96,0.111065
3223.96,0.111288
3225.97,0.111349
3227.98,0.111854
3229.99,0.112406
3232.0,0.112683
3234.02,0.112891
3236.04,0.11325
3238.06,0.113417
3240.08,0.113151
3242.11,0.113347
3244.14,0.113835
3246.17,0.114067
3248.2,0.114328
3250.24,0.114377
3252.28,0.114611
3254.32,0.115125
3256.37,0.115073
3258.41,0.115002
3260.46,0.115282
3262.51,0.115734
3264.57,0.116005
3266.63,0.116269
3268.69,0.116564
3270.75,0.116943
3272.81,0.117348
3274.88,0.117855
3276.95,0.117604
3279.02,0.117643
3281.1,0.1181
3283.18,0.118403
3285.26,0.118583
3287.34,0.118496
3289.43,0.118861
3291.51,0.119301
3293.61,0.119419
3295.7,0.119085
3297.8,0.119128
3299.9,0.119735
3302.0,0.120078
3304.1,0.120259
3306.21,0.120807
3308.32,0.121254
3310.43,0.121447
3312.55,0.121316
3314.66,0.121197
3316.79,0.121299
3318.91,0.121902
3321.03,0.12272
3323.16,0.122837
3325.29,0.122739
3327.43,0.123507
3329.57,0.12386
3331.71,0.123668
3333.85,0.12381
3335.99,0.124327
3338.14,0.124535
3340.29,0.124785
3342.45,0.124868
3344.6,0.124964
3346.76,0.125168
3348.92,0.125556
3351.09,0.125742
3353.26,0.12559
3355.43,0.125715
3357.6,0.126071
3359.78,0.126181
3361.96,0.126475
3364.14,0.12656
3366.32,0.126761
3368.51,0.126896
3370.7,0.126717
3372.89,0.12688
3375.09,0.126919
3377.29,0.126937
3379.49,0.127206
3381.69,0.127873
3383.9,0.128237
3386.11,0.128497
3388.32,0.128749
3390.54,0.128972
3392.76,0.128975
3394.98,0.129072
3397.21,0.12894
3399.43,0.129255
3401.66,0.129869
3403.9,0.129818
3406.13,0.129799
3408.37,0.129912
3410.61,0.129804
3412.86,0.129942
3415.11,0.130112
3417.36,0.130563
3419.61,0.131411
3421.87,0.132078
3424.13,0.132684
3426.39,0.13315
3428.66,0.133552
3430.93,0.133576
3433.2,0.133634
3435.48,0.134364
3437.76,0.135601
3440.04,0.135867
3442.32,0.135917
3444.61,0.136501
3446.9,0.137354
3449.19,0.13755
3451.49,0.137383
3453.79,0.138126
3456.09,0.138672
3458.4,0.13889
3460.7,0.139411
3463.02,0.13962
3465.33,0.139632
3467.65,0.139932
3469.97,0.140391
3472.29,0.140823
3474.62,0.140621
3476.95,0.140503
3479.29,0.14087
3481.62,0.141381
3483.96,0.141616
3486.3,0.142186
3488.65,0.142736
3491.0,0.142703
3493.35,0.142756
3495.71,0.1429
3498.07,0.143238
3500.43,0.143807
3502.79,0.144085
3505.16,0.144406
3507.53,0.144672
3509.91,0.144826
3512.29,0.145531
3514.67,0.14638
3517.05,0.146995
3519.44,0.147354
3521.83,0.147656
3524.23,0.147998
3526.62,0.148659
3529.02,0.149546
3531.43,0.150078
3533.83,0.150492
3536.24,0.150967
3538.66,0.151637
3541.08,0.152181
3543.5,0.152826
3545.92,0.153228
3548.35,0.153493
3550.78,0.154278
3553.21,0.15483
3555.65,0.155143
3558.09,0.155606
3560.53,0.155765
3562.98,0.156078
3565.43,0.156617
3567.88,0.15725
3570.34,0.157673
3572.8,0.157884
3575.27,0.158015
3577.73,0.158117
3580.2,0.158418
3582.68,0.158796
3585.16,0.159032
3587.64,0.159342
3590.12,0.159264
3592.61,0.159487
3595.1,0.159933
3597.6,0.159853
3600.09,0.159746
3602.6,0.159703
3605.1,0.159865
3607.61,0.160375
3610.12,0.160547
3612.64,0.160937
3615.16,0.161888
3617.68,0.162435
3620.21,0.163008
3622.74,0.164174
3625.27,0.165069
3627.81,0.16565
3630.35,0.166169
3632.89,0.166534
3635.44,0.167155
3637.99,0.167914
3640.54,0.168622
3643.1,0.169264
3645.66,0.169627
3648.23,0.170061
3650.8,0.17052
3653.37,0.170823
3655.95,0.170912
3658.53,0.171194
3661.11,0.17173
3663.7,0.172299
3666.29,0.172734
3668.89,0.173327
3671.48,0.173874
3674.09,0.174228
3676.69,0.17461
3679.3,0.174858
3681.91,0.17493
3684.53,0.175261
3687.15,0.175646
3689.78,0.176002
3692.4,0.176231
3695.04,0.176898
3697.67,0.177237
3700.31,0.177673
3702.95,0.178027
3705.6,0.178158
3708.25,0.178482
3710.91,0.1785
3713.56,0.178201
3716.23,0.178551
3718.89,0.178717
3721.56,0.179084
3724.23,0.179929
3726.91,0.180454
3729.59,0.180779
3732.28,0.181245
3734.97,0.181698
3737.66,0.182426
3740.36,0.183088
3743.06,0.183883
3745.76,0.184793
3748.47,0.185154
3751.18,0.18532
3753.9,0.185924
3756.62,0.186317
3759.34,0.186708
3762.07,0.187303
3764.8,0.187708
3767.54,0.188033
3770.28,0.188617
3773.02,0.18921
3775.77,0.189551
3778.52,0.189902
3781.28,0.190179
3784.04,0.190584
3786.8,0.191096
3789.57,0.191212
3792.34,0.191389
3795.12,0.191638
3797.9,0.192297
3800.69,0.192786
3803.47,0.193028
3806.27,0.193564
3809.06,0.193897
3811.86,0.194124
3814.67,0.194741
3817.48,0.194662
3820.29,0.194686
3823.11,0.195066
3825.93,0.195344
3828.76,0.195815
3831.59,0.196304
3834.42,0.196642
3837.26,0.196975
3840.1,0.197056
3842.95,0.197408
3845.8,0.197961
3848.65,0.198247
3851.51,0.198406
3854.38,0.198879
3857.24,0.198817
3860.12,0.199015
3862.99,0.199699
3865.87,0.200252
3868.76,0.20056
3871.65,0.20072
3874.54,0.200584
3877.44,0.200896
3880.34,0.201557
3883.25,0.202051
3886.16,0.202224
3889.07,0.202415
3891.99,0.20293
3894.92,0.203407
3897.85,0.203662
3900.78,0.203777
3903.72,0.203835
3906.66,0.204247
3909.6,0.204746
3912.55,0.205162
3915.51,0.20557
3918.47,0.205849
3921.43,0.20594
3924.4,0.205946
3927.38,0.205964
3930.35,0.206468
3933.33,0.206881
3936.32,0.206852
3939.31,0.207422
3942.31,0.208084
3945.31,0.207903
3948.31,0.207764
3951.32,0.208103
3954.34,0.208603
3957.35,0.209052
3960.38,0.209595
3963.41,0.209878
3966.44,0.209909
3969.48,0.209967
3972.52,0.21005
3975.56,0.210187
3978.61,0.210389
3981.67,0.210475
3984.73,0.210663
3987.8,0.211094
3990.87,0.211378
3993.94,0.21136
3997.02,0.211568
4000.1,0.21199
4003.19,0.212457
4006.29,0.21235
4009.39,0.212241
4012.49,0.212364
4015.6,0.212788
4018.71,0.213206
4021.83,0.21326
4024.95,0.213342
4028.08,0.213476
4031.21,0.213353
4034.35,0.213473
4037.49,0.213737
4040.64,0.213962
4043.79,0.214004
4046.94,0.214268
4050.11,0.214291
4053.27,0.214244
4056.44,0.214241
4059.62,0.214532
4062.8,0.214869
4065.99,0.215071
4069.18,0.215179
4072.38,0.215263
4075.58,0.215343
4078.78,0.215383
4082.0,0.215443
4085.21,0.21551
4088.43,0.215353
4091.66,0.215553
4094.89,0.215538
4098.13,0.215477
4101.37,0.215882
4104.62,0.21621
4107.87,0.216202
4111.13,0.216266
4114.39,0.216501
4117.66,0.216531
4120.93,0.216533
4124.21,0.217015
4127.5,0.217046
4130.79,0.217127
4134.08,0.217378
4137.38,0.217554
4140.68,0.217383
4143.99,0.217271
4147.31,0.217409
4150.63,0.217493
4153.95,0.217622
4157.29,0.217829
4160.62,0.217975
4163.96,0.218264
4167.31,0.218211
4170.66,0.218188
4174.02,0.218335
4177.39,0.218638
4180.75,0.218905
4184.13,0.219134
4187.51,0.219403
4190.89,0.219463
4194.28,0.219369
4197.68,0.219303
4201.08,0.219256
4204.49,0.219338
4207.9,0.219311
4211.32,0.219578
4214.74,0.219832
4218.17,0.219685
4221.61,0.219519
4225.05,0.219466
4228.5,0.219628
4231.95,0.219625
4235.4,0.219455
4238.87,0.21964
4242.34,0.220117
4245.81,0.220737
4249.29,0.22075
4252.78,0.220778
4256.27,0.220908
4259.77,0.22081
4263.27,0.220462
4266.78,0.220351
4270.29,0.220653
4273.81,0.220871
4277.34,0.220604
4280.87,0.22071
4284.41,0.22075
4287.95,0.220589
4291.5,0.220529
4295.06,0.220754
4298.62,0.221054
4302.19,0.221353
4305.76,0.221342
4309.34,0.221361
4312.92,0.221624
4316.52,0.221632
4320.11,0.221699
4323.72,0.22192
4327.32,0.221879
4330.94,0.221881
4334.56,0.222126
4338.19,0.222212
4341.82,0.222014
4345.46,0.222087
4349.11,0.222254
4352.76,0.222638
4356.42,0.222837
4360.08,0.222893
4363.75,0.222862
4367.43,0.222957
4371.11,0.222818
4374.8,0.22295
4378.49,0.223207
4382.19,0.223305
4385.9,0.22314
4389.61,0.223097
4393.33,0.223158
4397.06,0.223468
4400.79,0.223726
4404.53,0.223822
4408.28,0.223907
4412.03,0.224251
4415.79,0.224172
4419.55,0.223804
4423.32,0.223697
4427.1,0.223855
4430.88,0.223875
4434.68,0.223795
4438.47,0.223762
4442.28,0.224152
4446.08,0.224314
4449.9,0.224528
4453.72,0.22494
4457.55,0.22503
4461.39,0.224858
4465.23,0.22485
4469.08,0.224922
4472.94,0.224857
4476.8,0.224807
4480.67,0.224979
4484.55,0.225356
4488.43,0.225518
4492.32,0.225215
4496.21,0.225091
4500.12,0.225288
4504.03,0.225754
4507.94,0.225621
4511.87,0.225566
4515.8,0.225452
4519.73,0.225079
4523.68,0.225182
4527.63,0.225437
4531.59,0.225273
4535.55,0.225216
4539.52,0.225138
4543.5,0.225133
4547.49,0.225178
4551.48,0.225225
4555.48,0.225186
4559.49,0.225177
4563.5,0.225321
4567.52,0.225519
4571.55,0.225401
4575.58,0.225156
4579.63,0.225262
4583.67,0.225277
4587.73,0.224937
4591.79,0.224951
4595.86,0.225179
4599.94,0.225285
4604.03,0.225138
4608.12,0.225334
4612.22,0.225392
4616.33,0.2252
4620.44,0.225011
4624.56,0.225086
4628.69,0.225091
4632.83,0.225178
4636.97,0.225146
4641.12,0.225044
4645.28,0.224934
4649.45,0.225028
4653.62,0.225087
4657.8,0.225346
4661.99,0.225293
4666.19,0.224915
4670.39,0.224519
4674.6,0.224522
4678.82,0.224915
4683.05,0.224943
4687.28,0.224634
4691.52,0.224713
4695.77,0.224581
4700.03,0.224471
4704.3,0.224463
4708.57,0.224208
4712.85,0.223745
4717.14,0.223785
4721.43,0.223592
4725.74,0.223167
4730.05,0.222689
4734.37,0.222187
4738.7,0.221654
4743.03,0.221439
4747.38,0.221176
4751.73,0.221076
4756.09,0.220787
4760.45,0.220513
4764.83,0.220094
4769.21,0.219553
4773.6,0.219191
4778.0,0.219138
4782.41,0.218722
4786.83,0.218517
4791.25,0.218509
4795.68,0.218475
4800.13,0.218233
4804.57,0.218241
4809.03,0.218083
4813.5,0.217875
4817.97,0.21786
4822.45,0.218198
4826.94,0.218483
4831.44,0.218301
4835.95,0.218184
4840.46,0.218097
4844.99,0.218062
4849.52,0.218203
4854.06,0.217976
4858.61,0.217598
4863.17,0.217419
4867.73,0.217403
4872.31,0.217102
4876.89,0.216773
4881.48,0.216322
4886.08,0.216002
4890.69,0.215428
4895.31,0.215089
4899.94,0.214783
4904.57,0.214313
4909.22,0.213833
4913.87,0.213805
4918.53,0.213745
4923.21,0.213416
4927.88,0.213008
4932.57,0.212881
4937.27,0.212821
4941.98,0.212975
4946.69,0.212956
4951.42,0.212949
4956.15,0.212879
4960.9,0.212912
4965.65,0.212854
4970.41,0.212637
4975.18,0.212359
4979.96,0.212133
4984.75,0.211733
4989.54,0.211545
4994.35,0.211282
4999.17,0.210988
5003.99,0.210546
5008.83,0.210017
5013.67,0.209678
5018.52,0.209436
5023.39,0.208976
5028.26,0.208828
5033.14,0.208797
5038.03,0.208749
5042.93,0.208769
5047.84,0.208782
5052.76,0.208583
5057.69,0.208566
5062.63,0.208542
5067.58,0.208632
5072.54,0.20858
5077.51,0.208793
5082.49,0.208594
5087.47,0.208409
5092.47,0.208541
5097.48,0.208753
5102.5,0.208726
5107.52,0.208957
5112.56,0.209081
5117.61,0.209071
5122.66,0.208958
5127.73,0.208994
5132.81,0.209152
5137.89,0.209252
5142.99,0.209189
5148.1,0.209075
5153.22,0.209057
5158.34,0.209139
5163.48,0.209067
5168.63,0.209034
5173.79,0.208763
5178.96,0.208865
5184.13,0.20894
5189.32,0.209038
5194.52,0.208852
5199.73,0.208585
5204.96,0.208314
5210.19,0.208264
5215.43,0.207812
5220.68,0.207536
5225.94,0.207115
5231.22,0.206563
5236.5,0.205899
5241.79,0.205556
5247.1,0.205084
5252.42,0.204826
5257.74,0.204065
5263.08,0.20334
5268.43,0.203005
5273.79,0.202529
5279.16,0.201773
5284.54,0.201153
5289.93,0.200348
5295.34,0.199734
5300.75,0.199308
5306.18,0.198917
5311.61,0.198201
5317.06,0.197539
5322.52,0.196715
5327.99,0.196297
5333.47,0.19584
5338.96,0.195337
5344.47,0.194525
5349.98,0.193868
5355.51,0.193557
5361.05,0.193337
5366.6,0.192805
5372.16,0.192317
5377.73,0.191622
5383.32,0.191301
5388.91,0.191001
5394.52,0.190445
5400.14,0.190116
5405.77,0.189981
5411.41,0.189525
5417.07,0.189479
5422.74,0.189052
5428.41,0.188868
5434.1,0.188594
5439.81,0.188256
5445.52,0.188032
5451.25,0.18796
5456.98,0.187488
5462.73,0.186923
5468.5,0.186414
5474.27,0.186143
5480.06,0.185596
5485.86,0.185088
5491.67,0.184809
5497.49,0.184498
5503.33,0.183985
5509.18,0.183369
5515.04,0.182748
5520.91,0.182194
5526.8,0.181628
5532.69,0.181128
5538.61,0.180497
5544.53,0.18003
5550.47,0.179402
5556.41,0.178858
5562.38,0.178005
5568.35,0.177476
5574.34,0.176877
5580.34,0.176211
5586.35,0.175608
5592.38,0.175219
5598.42,0.174361
5604.47,0.17325
5610.54,0.172518
5616.61,0.172155
5622.71,0.171549
5628.81,0.171048
5634.93,0.170238
5641.06,0.169426
5647.21,0.168599
5653.36,0.168161
5659.54,0.16761
5665.72,0.167166
5671.92,0.16646
5678.13,0.166028
5684.36,0.165711
5690.6,0.165205
5696.85,0.164247
5703.12,0.16387
5709.4,0.163338
5715.69,0.162836
5722.0,0.162308
5728.33,0.162038
5734.66,0.161758
5741.01,0.161373
5747.38,0.160669
5753.76,0.160252
5760.15,0.159549
5766.56,0.158337
5772.98,0.157424
5779.41,0.157284
5785.86,0.156519
5792.33,0.155632
5798.81,0.154455
5805.3,0.153384
5811.81,0.152054
5818.33,0.150777
5824.87,0.149068
5831.42,0.147982
5837.99,0.146575
5844.57,0.145076
5851.17,0.143351
5857.78,0.141748
5864.41,0.139879
5871.05,0.138442
5877.7,0.136681
5884.38,0.134713
5891.06,0.132922
5897.76,0.13159
5904.48,0.130219
5911.21,0.129112
5917.96,0.127447
5924.73,0.125789
5931.5,0.12394
5938.3,0.122221
5945.11,0.120454
5951.93,0.119317
5958.78,0.1177
5965.63,0.116028
5972.51,0.113901
5979.39,0.112126
5986.3,0.110612
5993.22,0.109224
6000.16,0.107554
6007.11,0.105981
6014.08,0.104141
6021.06,0.102525
6028.06,0.100992
6035.08,0.099299
6042.12,0.097353
6049.17,0.095487
6056.23,0.09319
6063.32,0.092014
6070.42,0.090391
6077.53,0.088313
6084.67,0.086506
6091.82,0.085594
6098.98,0.0845
6106.17,0.083356
6113.37,0.081766
6120.58,0.08057
6127.82,0.07988
6135.07,0.079118
6142.34,0.078073
6149.63,0.07736
6156.93,0.076541
6164.25,0.075758
6171.59,0.074948
6178.95,0.074181
6186.32,0.073112
6193.71,0.072437
6201.12,0.071613
6208.54,0.070713
6215.99,0.069647
6223.45,0.068913
6230.93,0.067948
6238.43,0.066932
6245.95,0.065641
6253.48,0.064624
6261.03,0.063796
6268.6,0.062993
6276.19,0.061971
6283.8,0.06099
6291.43,0.060301
6299.07,0.059742
6306.73,0.059207
6314.42,0.059003
6322.12,0.058776
6329.84,0.058908
6337.57,0.058803
6345.33,0.058828
6353.11,0.059105
6360.9,0.059491
6368.72,0.059532
6376.55,0.05979
6384.4,0.060504
6392.27,0.060905
6400.17,0.061562
6408.08,0.062216
6416.01,0.062322
6423.96,0.063127
6431.93,0.063947
6439.92,0.065053
6447.93,0.065937
6455.96,0.066218
6464.01,0.066475
6472.08,0.067036
6480.17,0.067415
6488.28,0.067685
6496.41,0.068011
6504.56,0.068887
6512.73,0.069492
6520.92,0.069482
6529.14,0.069427
6537.37,0.069698
6545.63,0.069847
6553.9,0.069721
6562.2,0.069561
6570.51,0.069662
6578.85,0.069701
6587.21,0.069732
6595.59,0.06984
6603.99,0.069981
6612.42,0.070078
6620.86,0.069747
6629.33,0.069467
6637.82,0.06933
6646.33,0.069398
6654.86,0.069582
6663.41,0.069264
6671.99,0.069054
6680.59,0.068874
6689.21,0.068636
6697.85,0.068629
6706.51,0.068631
6715.2,0.068186
6723.91,0.067936
6732.64,0.067977
6741.4,0.067885
6750.18,0.067477
6758.98,0.06721
6767.8,0.067169
6776.65,0.066781
6785.52,0.066172
6794.41,0.065833
6803.33,0.065601
6812.27,0.065296
6821.23,0.06483
6830.22,0.064488
6839.23,0.064019
6848.26,0.063337
6857.32,0.06265
6866.4,0.061974
6875.51,0.061299
6884.64,0.06072
6893.8,0.060023
6902.98,0.059489
6912.18,0.058662
6921.41,0.057817
6930.66,0.057148
6939.94,0.056529
6949.24,0.055833
6958.57,0.055483
6967.92,0.055013
6977.3,0.054462
6986.7,0.054144
6996.13,0.053894
7005.59,0.053254
7015.07,0.052784
7024.57,0.052454
7034.1,0.052132
7043.66,0.051774
7053.25,0.051567
7062.85,0.051427
7072.49,0.05118
7082.15,0.050946
7091.84,0.050887
7101.55,0.050681
7111.3,0.050696
7121.06,0.050835
7130.86,0.050777
7140.68,0.050698
7150.53,0.051006
7160.41,0.051388
7170.31,0.051618
7180.24,0.051718
7190.2,0.052021
7200.19,0.05241
7210.2,0.052939
7220.24,0.053312
7230.31,0.053663
7240.41,0.054185
7250.54,0.054524
7260.69,0.05477
7270.88,0.05518
7281.09,0.055707
7291.33,0.056372
7301.6,0.056905
7311.9,0.057156
7322.22,0.057265
7332.58,0.057516
7342.97,0.058089
7353.38,0.058872
7363.83,0.059504
7374.3,0.060053
7384.81,0.060344
7395.34,0.060643
7405.91,0.061011
7416.5,0.061547
7427.13,0.062136
7437.78,0.06293
7448.47,0.063769
7459.19,0.064416
7469.94,0.06544
7480.71,0.066713
7491.52,0.068005
7502.37,0.06944
7513.24,0.070615
7524.14,0.071502
7535.08,0.072713
7546.05,0.073862
7557.05,0.074724
7568.08,0.075464
7579.15,0.076218
7590.24,0.076918
7601.37,0.077533
7612.53,0.078181
7623.73,0.078705
7634.96,0.079296
7646.22,0.079612
7657.51,0.079922
7668.84,0.080142
7680.2,0.080356
7691.59,0.080685
7703.02,0.081024
7714.49,0.081455
7725.98,0.081644
7737.52,0.081499
7749.08,0.081616
7760.68,0.081741
7772.32,0.081453
7783.99,0.081214
7795.69,0.080999
7807.43,0.080691
7819.21,0.080357
7831.02,0.079961
7842.87,0.079555
7854.75,0.079007
7866.67,0.078213
7878.62,0.077706
7890.62,0.07735
7902.64,0.076726
7914.71,0.076121
7926.81,0.075371
7938.95,0.074719
7951.13,0.074176
7963.34,0.073232
7975.59,0.072342
7987.88,0.071773
8000.21,0.071191
8012.57,0.070465
8024.98,0.0697
8037.42,0.069213
8049.9,0.068453
8062.42,0.067468
8074.98,0.066199
8087.57,0.065096
8100.21,0.064347
8112.89,0.063686
8125.6,0.062725
8138.36,0.061633
8151.16,0.060422
8163.99,0.059467
8176.87,0.058606
8189.79,0.057558
8202.75,0.056576
8215.75,0.055576
8228.79,0.054599
8241.87,0.053496
8254.99,0.052287
8268.16,0.051472
8281.37,0.050405
8294.62,0.049297
8307.91,0.048257
8321.24,0.047608
8334.62,0.046921
8348.04,0.045961
8361.51,0.04507
8375.02,0.044065
8388.57,0.043141
8402.16,0.04241
8415.8,0.041728
8429.49,0.041127
8443.22,0.040127
8456.99,0.039163
8470.81,0.038126
8484.67,0.036689
8498.58,0.035287
8512.54,0.034067
8526.54,0.032994
8540.58,0.032084
8554.68,0.031367
8568.82,0.030241
8583.0,0.028747
8597.24,0.027515
8611.52,0.0264
8625.85,0.025675
8640.23,0.02495
8654.65,0.023991
8669.12,0.022891
8683.64,0.022177
8698.21,0.021155
8712.83,0.020276
8727.5,0.019478
8742.22,0.019085
8756.99,0.018583
8771.8,0.018157
8786.67,0.017861
8801.59,0.017542
8816.56,0.01785
8831.58,0.018462
8846.65,0.019122
8861.77,0.019953
8876.94,0.020825
8892.17,0.022317
8907.45,0.023975
8922.78,0.026069
8938.16,0.028874
8953.6,0.031714
8969.09,0.034828
8984.64,0.038412
9000.23,0.041561
9015.89,0.044537
9031.59,0.047107
9047.36,0.048432
9063.17,0.048634
9079.05,0.048604
9094.97,0.048323
9110.96,0.047686
9127.0,0.046764
9143.1,0.045579
9159.25,0.044407
9175.46,0.043116
9191.73,0.042039
9208.06,0.041396
9224.44,0.040951
9240.88,0.040062
9257.38,0.039193
9273.94,0.038701
9290.56,0.038124
9307.24,0.03786
9323.98,0.037852
9340.78,0.037766
9357.64,0.037539
9374.57,0.037606
9391.55,0.038114
9408.59,0.039204
9425.7,0.040161
9442.87,0.041035
9460.1,0.04158
9477.4,0.042237
9494.75,0.04307
9512.17,0.044063
9529.66,0.04483
9547.21,0.045077
9564.83,0.044982
9582.5,0.045308
9600.25,0.045325
9618.06,0.045482
9635.94,0.045552
9653.88,0.045655
9671.89,0.045833
9689.97,0.045667
9708.12,0.045364
9726.33,0.045336
9744.62,0.045798
9762.97,0.045701
9781.39,0.045556
9799.88,0.045526
9818.44,0.045371
9837.07,0.045252
9855.77,0.045005
9874.54,0.044906
9893.39,0.044971
9912.3,0.045017
9931.29,0.044789
9950.36,0.044701
9969.49,0.044757
9988.7,0.044501
10007.98,0.044206
10027.34,0.044198
10046.77,0.043894
10066.28,0.043568
10085.87,0.043047
10105.53,0.04284
10125.26,0.042677
10145.08,0.042614
10164.97,0.042559
10184.94,0.042492
10204.99,0.042071
10225.12,0.041937
10245.33,0.041995
10265.61,0.041623
10285.98,0.041289
10306.43,0.04127
10326.96,0.041217
10347.57,0.040621
10368.27,0.039974
10389.05,0.039935
10409.91,0.039792
10430.86,0.039859
10451.88,0.040442
10473.0,0.040465
10494.2,0.040533
10515.49,0.040592
10536.86,0.040353
10558.32,0.04038
10579.87,0.040459
10601.5,0.040518
10623.23,0.040813
10645.04,0.041234
10666.94,0.042002
10688.94,0.042819
10711.02,0.043331
10733.2,0.04441
10755.47,0.045602
10777.83,0.046397
10800.28,0.047367
10822.83,0.048568
10845.47,0.049822
10868.21,0.051046
10891.04,0.052098
10913.97,0.052841
10936.99,0.053919
10960.12,0.055524
10983.34,0.056636
11006.66,0.057281
11030.07,0.057478
11053.59,0.057473
11077.21,0.058004
11100.93,0.05869
11124.75,0.059561
11148.68,0.05995
11172.71,0.059888
11196.84,0.060166
11221.07,0.060933
11245.41,0.061112
11269.86,0.061094
11294.41,0.060808
11319.07,0.060232
11343.84,0.060805
11368.72,0.061213
11393.7,0.060853
11418.8,0.060113
11444.01,0.059411
11469.33,0.058818
11494.76,0.058551
11520.3,0.058402
11545.96,0.057574
11571.73,0.056755
11597.62,0.056153
11623.62,0.055348
11649.74,0.054679
11675.98,0.053846
11702.34,0.053235
11728.81,0.052309
11755.41,0.051177
11782.13,0.050226
11808.96,0.049808
11835.92,0.049695
11863.01,0.049696
11890.22,0.049898
11917.55,0.049789
11945.01,0.049388
11972.6,0.049502
12000.31,0.048921
12028.16,0.048083
12056.13,0.047429
12084.23,0.04747
12112.46,0.047237
12140.83,0.046458
12169.33,0.045393
12197.96,0.044235
12226.73,0.043586
12255.64,0.042809
12284.68,0.041719
12313.86,0.040756
12343.18,0.039654
12372.64,0.038944
12402.24,0.038162
12431.98,0.037366
12461.86,0.036258
12491.89,0.035188
12522.07,0.033937
12552.38,0.033042
12582.85,0.032581
12613.47,0.032433
12644.23,0.031775
12675.15,0.030913
12706.21,0.030187
12737.43,0.029245
12768.81,0.028063
12800.33,0.027641
12832.02,0.027328
12863.86,0.026627
12895.86,0.02597
12928.02,0.025634
12960.34,0.025018
12992.82,0.024201
13025.46,0.023516
13058.27,0.023051
13091.25,0.02249
13124.39,0.022149
13157.7,0.021289
13191.18,0.020619
13224.83,0.020062
13258.66,0.019843
13292.65,0.019475
13326.83,0.018933
13361.17,0.018247
13395.7,0.017821
13430.4,0.017505
13465.29,0.017154
13500.35,0.016478
13535.6,0.016589
13571.03,0.016677
13606.65,0.016286
13642.46,0.016048
13678.46,0.015665
13714.64,0.014832
13751.02,0.014734
13787.59,0.015133
13824.36,0.015199
13861.32,0.015137
13898.49,0.014844
13935.85,0.01466
13973.41,0.014247
14011.17,0.014061
14049.15,0.014386
14087.32,0.014564
14125.71,0.014153
14164.3,0.013855
14203.11,0.014631
14242.13,0.015247
14281.36,0.015804
14320.81,0.016743
14360.49,0.01723
14400.38,0.017549
14440.49,0.018862
14480.82,0.020446
14521.39,0.02121
14562.18,0.021651
14603.2,0.023235
14644.45,0.024882
14685.93,0.026156
14727.66,0.027713
14769.62,0.029341
14811.81,0.030883
14854.25,0.032847
14896.94,0.034315
14939.87,0.035289
14983.05,0.036224
15026.48,0.03832
15070.16,0.039945
15114.1,0.040387
15158.29,0.041458
15202.74,0.042748
15247.46,0.043343
15292.43,0.043846
15337.68,0.044264
15383.19,0.044817
15428.97,0.045203
15475.03,0.045744
15521.36,0.045576
15567.97,0.045235
15614.87,0.045447
15662.04,0.045561
15709.5,0.045476
15757.25,0.045363
15805.29,0.045154
15853.62,0.044716
15902.26,0.044294
15951.19,0.043286
16000.42,0.042701
16049.95,0.042719
16099.8,0.042619
16149.95,0.042007
16200.42,0.04136
16251.21,0.040963
16302.31,0.040946
16353.74,0.041044
16405.49,0.040385
16457.57,0.040056
16509.98,0.040242
16562.73,0.038828
16615.82,0.03724
16669.24,0.036976
16723.02,0.036916
16777.14,0.035952
16831.61,0.034895
16886.43,0.035124
16941.62,0.035041
16997.16,0.035101
17053.08,0.035668
17109.36,0.035805
17166.01,0.035809
17223.04,0.036564
17280.45,0.036922
17338.24,0.036892
17396.43,0.037938
17455.0,0.038801
17513.97,0.039548
17573.34,0.040058
17633.11,0.040981
17693.29,0.0421
17753.89,0.043144
17814.9,0.043202
17876.33,0.042131
17938.18,0.041897
18000.47,0.042752
18063.19,0.042902
18126.35,0.042205
18189.95,0.042022
18254.0,0.04215
18318.5,0.04245
18383.46,0.043412
18448.88,0.043598
18514.77,0.041679
18581.13,0.041449
18647.97,0.041701
18715.29,0.040459
18783.1,0.040046
18851.4,0.040027
18920.2,0.039536
18989.51,0.039312
19059.32,0.038776
19129.65,0.036957
19200.5,0.035261
19271.88,0.036392
19343.79,0.037138
19416.24,0.03652
19489.23,0.036329
19562.77,0.037474
19636.88,0.041067
19711.54,0.045168
19786.78,0.048577
19862.59,0.05103
19938.98,0.052182
20015.96,0.053864
20093.55,0.056004
20171.73,0.058239
20250.53,0.060145
20329.94,0.061727
20409.98,0.062152
20490.65,0.063504
20571.96,0.065745
20653.92,0.066438
20736.54,0.06676
20819.82,0.067835
20903.77,0.067564
20988.4,0.067803
21073.72,0.067648
21159.73,0.067994
21246.46,0.068896
21333.89,0.069607
21422.04,0.069463
21510.93,0.067719
21600.56,0.066998
21690.94,0.066241
21782.08,0.067211
21873.99,0.06773
21966.67,0.067072
22060.15,0.068255
22154.42,0.069094
22249.51,0.068274
22345.41,0.067334
22442.14,0.066292
22539.72,0.065849
22638.14,0.066444
22737.43,0.067884
22837.6,0.07004
22938.65,0.070676
23040.6,0.069511
23143.46,0.067912
23247.24,0.064725
23351.96,0.060197
23457.63,0.056236
23564.25,0.056014
23671.85,0.054428
23780.44,0.05164
23890.02,0.049296
24000.63,0.051321
24112.26,0.051653
24224.93,0.049807
24338.66,0.049745
24453.47,0.049715
24569.36,0.048303
24686.36,0.051582
24804.47,0.059576
24923.73,0.059238
25044.13,0.055962
25165.71,0.056507
25288.46,0.061763
25412.43,0.061774
25537.61,0.05844
25664.04,0.051533
25791.72,0.053892
25920.68,0.054586
