Database of Origin,University of Winnipeg Spectrophotometer Facility
Sample Description,Carbonates and Oxolates - RELAB+Nicolet spectra Newly merged spectra (merged by RELAB)
Other Information,dry seived
Date Added,2018-08-06 20:49:01.994015

Data ID,RLA_CARB_1_7        
Sample ID,CRB104
Mineral Name,Gaspeite
Locality,Lemieux/ Township/ Gaspe Nord County/ Gaspe Peninsula/ Quebec Canada
Grain Size,<45 um
Viewing Geometry,30/0/30
Resolution,5/ 0.6-129 nm
Formula,(Ni/Mg/Fe+2)CO3
Composition,Almost all gaspetite and a bit of laumontite. Green Crystalline masses/ minor rock

Wavelength
305.0,0.141597
310.0,0.142393
315.0,0.141987
320.0,0.144153
325.0,0.146128
330.0,0.148929
335.0,0.154219
340.0,0.161634
345.0,0.170015
350.0,0.179821
355.0,0.19098
360.0,0.20229
365.0,0.214553
370.0,0.223965
375.0,0.231999
380.0,0.234918
385.0,0.234697
390.0,0.231688
395.0,0.226693
400.0,0.224657
405.0,0.2243
410.0,0.222767
415.0,0.223046
420.0,0.224909
425.0,0.232725
430.0,0.245616
435.0,0.267799
440.0,0.296091
445.0,0.329527
450.0,0.358063
455.0,0.380178
460.0,0.393416
465.0,0.404436
470.0,0.413087
475.0,0.424388
480.0,0.437333
485.0,0.455442
490.0,0.474911
495.0,0.496047
500.0,0.513842
505.0,0.529696
510.0,0.540834
515.0,0.551963
520.0,0.560168
525.0,0.569921
530.0,0.577858
535.0,0.587225
540.0,0.594201
545.0,0.603042
550.0,0.609481
555.0,0.616998
560.0,0.62136
565.0,0.626882
570.0,0.629404
575.0,0.631575
580.0,0.63164
585.0,0.630546
590.0,0.626345
595.0,0.621162
600.0,0.612174
605.0,0.601268
610.0,0.59008
615.0,0.577519
620.0,0.55922
625.0,0.547503
630.0,0.533867
635.0,0.51824
640.0,0.502413
645.0,0.48582
650.0,0.465833
655.0,0.451152
660.0,0.439433
665.0,0.424454
670.0,0.405921
675.0,0.396296
680.0,0.397308
685.0,0.400204
690.0,0.396874
695.0,0.393782
700.0,0.392898
705.0,0.393409
710.0,0.391414
715.0,0.388536
720.0,0.38445
725.0,0.380925
730.0,0.376882
735.0,0.37322
740.0,0.370256
745.0,0.367555
750.0,0.366874
755.0,0.367779
760.0,0.371199
765.0,0.375901
770.0,0.383333
775.0,0.39237
780.0,0.403184
785.0,0.414139
790.0,0.42662
795.0,0.439411
800.0,0.453248
805.0,0.46817
810.0,0.484309
815.0,0.498361
820.0,0.514053
825.0,0.529386
830.0,0.54529
835.0,0.559261
840.0,0.575173
845.0,0.589814
850.0,0.603175
855.0,0.615262
860.0,0.627883
865.0,0.638237
870.0,0.647261
875.0,0.655331
880.0,0.662266
885.0,0.666829
890.0,0.669401
895.0,0.672524
900.0,0.672744
905.0,0.6724
910.0,0.670436
915.0,0.667997
920.0,0.664591
925.0,0.66018
930.0,0.656235
935.0,0.651389
940.0,0.644794
945.0,0.639509
950.0,0.632701
955.0,0.626605
960.0,0.619943
965.0,0.613973
970.0,0.607553
975.0,0.601267
980.0,0.594719
985.0,0.588098
990.0,0.581842
995.0,0.575202
1000.0,0.567622
1005.0,0.561806
1010.0,0.554887
1015.0,0.548647
1020.0,0.542286
1025.0,0.535698
1030.0,0.530076
1035.0,0.523775
1040.0,0.517088
1045.0,0.511352
1050.0,0.504893
1055.0,0.498596
1060.0,0.492877
1065.0,0.487087
1070.0,0.481283
1075.0,0.475493
1080.0,0.469638
1085.0,0.46431
1090.0,0.459174
1095.0,0.453645
1100.0,0.448644
1105.0,0.443745
1110.0,0.438774
1115.0,0.43471
1120.0,0.430763
1125.0,0.42648
1130.0,0.422842
1135.0,0.420101
1140.0,0.41638
1145.0,0.412879
1150.0,0.410271
1155.0,0.407859
1160.0,0.406188
1165.0,0.404336
1170.0,0.40264
1175.0,0.401779
1180.0,0.40123
1185.0,0.400502
1190.0,0.400035
1195.0,0.399502
1200.0,0.39957
1205.0,0.39922
1210.0,0.399974
1215.0,0.400582
1220.0,0.40126
1225.0,0.402649
1230.0,0.404355
1235.0,0.405475
1240.0,0.406761
1245.0,0.408678
1250.0,0.410011
1255.0,0.412284
1260.0,0.413912
1265.0,0.416103
1270.0,0.417766
1275.0,0.42011
1280.0,0.422318
1285.0,0.424334
1290.0,0.427366
1295.0,0.430383
1300.0,0.432948
1305.0,0.435739
1310.0,0.439161
1315.0,0.442442
1320.0,0.446057
1325.0,0.449224
1330.0,0.453159
1335.0,0.457421
1340.0,0.461938
1345.0,0.46528
1350.0,0.469841
1355.0,0.474685
1360.0,0.479399
1365.0,0.483479
1370.0,0.488863
1375.0,0.494154
1380.0,0.500798
1385.0,0.505158
1420.0,0.549615
1425.0,0.557074
1430.0,0.565865
1435.0,0.573562
1440.0,0.581047
1445.0,0.58885
1450.0,0.596593
1455.0,0.60464
1460.0,0.613003
1465.0,0.620806
1470.0,0.629197
1475.0,0.637183
1480.0,0.645289
1485.0,0.653823
1490.0,0.661708
1495.0,0.669432
1500.0,0.676989
1505.0,0.684562
1510.0,0.692271
1515.0,0.699991
1520.0,0.706234
1525.0,0.712997
1530.0,0.719627
1535.0,0.726523
1540.0,0.732518
1545.0,0.737706
1550.0,0.743982
1555.0,0.749136
1560.0,0.754042
1565.0,0.759761
1570.0,0.76425
1575.0,0.767711
1580.0,0.771676
1585.0,0.776351
1590.0,0.780562
1595.0,0.783414
1600.0,0.786531
1605.0,0.788653
1610.0,0.791854
1615.0,0.794478
1620.0,0.79712
1625.0,0.797878
1630.0,0.799981
1635.0,0.800925
1640.0,0.803198
1645.0,0.804748
1650.0,0.805777
1655.0,0.807555
1660.0,0.808026
1665.0,0.809406
1670.0,0.810752
1675.0,0.811282
1680.0,0.811808
1685.0,0.812826
1690.0,0.813488
1695.0,0.813202
1700.0,0.813536
1705.31,0.813728
1709.81,0.814732
1715.46,0.81501
1720.02,0.814689
1724.6,0.814541
1730.35,0.814482
1734.98,0.814405
1739.64,0.814382
1745.5,0.814427
1750.21,0.813933
1754.95,0.814202
1759.72,0.814679
1764.51,0.814912
1770.54,0.815342
1775.39,0.815327
1780.27,0.815353
1785.17,0.815537
1790.1,0.815224
1795.06,0.814927
1800.05,0.814479
1805.06,0.813754
1810.1,0.813203
1815.17,0.812496
1820.27,0.811492
1825.4,0.810426
1830.56,0.809481
1834.44,0.808566
1839.65,0.807421
1844.89,0.806494
1850.16,0.805525
1855.45,0.804204
1859.45,0.803537
1864.8,0.80241
1870.18,0.800722
1875.59,0.798831
1879.67,0.796633
1885.14,0.792524
1890.64,0.787616
1894.79,0.782633
1900.34,0.773657
1904.53,0.768333
1910.15,0.764531
1914.38,0.763322
1920.05,0.763202
1924.33,0.763366
1930.06,0.763817
1934.38,0.763988
1940.17,0.76417
1944.54,0.764147
1950.39,0.764419
1954.8,0.764347
1960.72,0.764139
1965.18,0.764037
1969.66,0.763924
1975.66,0.763476
1980.19,0.763384
1984.74,0.763284
1989.31,0.763461
1995.43,0.763745
2000.05,0.764291
2004.69,0.765528
2009.35,0.766719
2015.6,0.768674
2020.32,0.770047
2025.05,0.770744
2029.81,0.77153
2034.59,0.772217
2039.39,0.772609
2044.22,0.772509
2050.69,0.773003
2055.57,0.772973
2060.47,0.772898
2065.39,0.772724
2070.34,0.772665
2075.31,0.772163
2080.31,0.771146
2085.33,0.770032
2090.38,0.769217
2095.45,0.768469
2100.54,0.767974
2105.66,0.768021
2110.8,0.767767
2114.25,0.767477
2119.43,0.766993
2124.65,0.766545
2129.88,0.765784
2135.15,0.764823
2140.44,0.764042
2145.75,0.76364
2149.31,0.76311
2154.67,0.763271
2160.06,0.763691
2165.47,0.764562
2170.91,0.765223
2174.55,0.765351
2180.04,0.764662
2185.55,0.763422
2189.25,0.762295
2194.81,0.76022
2200.4,0.758088
2204.14,0.756162
2209.78,0.752329
2215.44,0.748231
2219.24,0.744823
2224.95,0.739892
2230.7,0.733841
2234.54,0.729186
2240.33,0.721232
2244.21,0.715503
2250.06,0.707283
2255.93,0.698747
2259.87,0.692665
2265.79,0.683125
2269.76,0.675729
2275.74,0.662453
2279.74,0.652526
2285.77,0.635718
2289.81,0.623983
2295.9,0.609749
2299.97,0.604183
2304.06,0.599205
2310.22,0.590385
2314.35,0.58865
2320.56,0.58866
2324.72,0.586042
2331.0,0.595559
2335.2,0.608166
2339.41,0.620414
2345.76,0.634092
2350.02,0.641219
2354.28,0.647054
2360.72,0.656167
2365.03,0.663161
2369.35,0.673861
2375.86,0.691225
2380.23,0.696208
2384.61,0.695076
2389.0,0.691166
2395.63,0.682643
2400.06,0.676689
2404.52,0.672227
2408.98,0.667682
2415.72,0.66294
2420.23,0.660906
2424.76,0.657209
2429.3,0.651202
2433.87,0.644854
2440.74,0.631791
2445.35,0.621746
2449.97,0.610854
2454.61,0.599656
2459.27,0.588622
2463.94,0.578818
2470.99,0.565917
2475.71,0.558736
2480.45,0.552173
2485.2,0.547059
2489.98,0.542848
2494.77,0.53837
2499.58,0.534816
2504.41,0.530992
2509.26,0.527559
2514.13,0.524905
2519.02,0.523457
2523.92,0.522638
2528.85,0.523621
2533.79,0.526511
2541.24,0.534763
2543.74,0.5387
2548.74,0.549352
2553.76,0.563265
2556.28,0.57146
2558.8,0.580184
2561.33,0.589237
2563.86,0.598503
2566.4,0.608614
2568.95,0.618249
2571.5,0.626965
2574.05,0.634345
2576.61,0.639979
2579.17,0.644201
2581.74,0.647098
2584.31,0.648691
2586.89,0.650193
2589.48,0.651732
2592.07,0.652649
2594.66,0.652598
2597.26,0.652578
2599.87,0.653695
2602.48,0.654327
2605.09,0.653971
2607.71,0.653561
2610.34,0.653359
2612.97,0.652903
2615.61,0.652321
2618.25,0.651279
2620.9,0.649875
2623.55,0.649124
2626.21,0.648248
2628.87,0.64677
2631.54,0.645197
2634.22,0.643834
2636.89,0.642205
2639.58,0.640647
2642.27,0.639023
2644.97,0.637158
2647.67,0.634999
2650.38,0.632642
2653.09,0.629755
2655.81,0.626465
2658.53,0.622835
2661.26,0.619074
2664.0,0.614768
2666.74,0.609598
2669.48,0.604116
2672.23,0.598096
2674.99,0.591181
2677.76,0.583419
2680.52,0.573899
2683.3,0.563883
2686.08,0.553108
2688.87,0.540609
2691.66,0.526442
2694.46,0.510451
2697.26,0.490505
2700.07,0.469313
2702.89,0.449851
2705.71,0.43083
2708.53,0.405942
2711.37,0.375369
2714.21,0.344256
2717.05,0.313722
2719.9,0.271145
2722.76,0.236727
2725.62,0.232484
2728.49,0.218451
2731.37,0.181558
2734.25,0.168616
2737.14,0.182552
2740.03,0.181632
2742.93,0.158392
2745.83,0.14328
2748.75,0.158727
2751.66,0.174208
2754.59,0.175072
2757.52,0.161745
2760.46,0.147945
2763.4,0.155848
2766.35,0.170998
2769.3,0.176614
2772.26,0.177546
2775.23,0.176839
2778.21,0.175681
2781.19,0.174267
2784.18,0.173125
2787.17,0.171449
2790.17,0.169835
2793.18,0.168344
2796.19,0.167445
2799.21,0.166989
2802.24,0.166825
2805.27,0.166523
2808.31,0.166413
2811.35,0.166369
2814.41,0.166221
2817.46,0.165877
2820.53,0.165785
2823.6,0.165314
2826.68,0.164747
2829.77,0.163882
2832.86,0.163164
2835.96,0.162337
2839.07,0.161453
2842.18,0.160508
2845.3,0.159429
2848.43,0.158333
2851.56,0.157531
2854.7,0.156478
2857.85,0.15554
2861.0,0.154628
2864.16,0.153622
2867.33,0.152489
2870.51,0.151444
2873.69,0.150596
2876.88,0.149761
2880.07,0.148641
2883.28,0.147696
2886.49,0.146769
2889.71,0.145652
2892.93,0.144765
2896.17,0.143756
2899.4,0.142393
2902.65,0.141655
2905.91,0.141069
2909.17,0.139982
2912.44,0.138661
2915.71,0.137887
2918.99,0.137162
2922.29,0.136211
2925.58,0.13544
2928.89,0.134741
2932.2,0.133908
2935.52,0.133219
2938.85,0.132474
2942.19,0.131826
2945.53,0.131198
2948.88,0.130801
2952.24,0.130004
2955.61,0.129315
2958.98,0.128629
2962.36,0.127996
2965.75,0.127273
2969.15,0.126766
2972.55,0.126633
2975.97,0.126197
2979.39,0.125718
2986.25,0.125198
2989.7,0.125075
2993.15,0.124665
2996.61,0.124647
3000.08,0.124576
3003.55,0.124302
3007.04,0.124381
3010.53,0.125139
3014.03,0.125811
3017.54,0.126269
3021.06,0.126548
3024.58,0.127099
3028.12,0.127847
3031.66,0.128441
3035.21,0.129087
3038.77,0.130163
3042.33,0.131003
3045.91,0.131528
3049.49,0.132005
3053.08,0.132745
3056.68,0.133592
3060.29,0.134009
3063.91,0.134443
3067.54,0.135037
3071.17,0.135508
3074.81,0.136097
3078.47,0.136518
3082.13,0.136992
3085.79,0.137376
3089.47,0.137923
3093.16,0.138488
3096.85,0.138938
3100.56,0.139465
3104.27,0.14008
3107.99,0.140687
3111.73,0.141245
3115.47,0.141718
3119.21,0.142206
3122.97,0.142711
3126.74,0.143147
3130.52,0.143488
3134.3,0.144113
3138.1,0.144509
3141.9,0.14496
3145.71,0.1454
3149.54,0.145677
3153.37,0.146231
3157.21,0.146703
3161.06,0.147131
3164.92,0.147564
3168.79,0.148047
3172.67,0.148489
3176.55,0.149035
3180.45,0.14956
3184.36,0.150168
3188.27,0.150809
3192.2,0.151437
3196.14,0.152007
3200.08,0.152503
3204.04,0.153075
3208.0,0.153519
3211.98,0.154069
3215.96,0.154665
3219.96,0.155026
3223.96,0.155445
3227.98,0.155948
3232.0,0.156303
3236.04,0.156705
3240.08,0.156826
3244.14,0.156995
3248.2,0.156948
3252.28,0.156662
3256.37,0.1559
3260.46,0.154312
3264.57,0.151525
3268.69,0.147803
3272.81,0.143546
3276.95,0.13924
3281.1,0.135015
3285.26,0.131007
3289.43,0.127287
3293.61,0.123868
3297.8,0.120651
3302.0,0.117885
3306.21,0.115195
3310.43,0.112988
3314.66,0.110987
3318.91,0.109447
3323.16,0.108552
3327.43,0.108278
3331.71,0.108139
3335.99,0.108354
3340.29,0.108511
3344.6,0.108765
3348.92,0.109165
3353.26,0.10937
3357.6,0.109498
3361.96,0.109619
3366.32,0.10959
3370.7,0.109553
3375.09,0.109368
3379.49,0.109315
3383.9,0.109355
3388.32,0.109256
3392.76,0.10932
3397.21,0.109052
3401.66,0.108546
3406.13,0.107884
3410.61,0.106851
3415.11,0.105721
3419.61,0.104793
3424.13,0.104017
3428.66,0.103253
3433.2,0.102626
3437.76,0.101963
3442.32,0.101486
3446.9,0.101118
3451.49,0.100878
3456.09,0.100722
3460.7,0.100603
3465.33,0.100631
3469.97,0.100661
3474.62,0.100846
3479.29,0.101084
3483.96,0.101497
3488.65,0.102352
3493.35,0.10345
3498.07,0.1051
3502.79,0.107451
3507.53,0.110699
3512.29,0.114526
3517.05,0.119084
3521.83,0.124071
3526.62,0.129536
3531.43,0.135206
3536.24,0.141423
3541.08,0.148396
3543.5,0.152498
3545.92,0.157071
3548.35,0.162133
3550.78,0.16753
3553.21,0.173139
3555.65,0.178703
3558.09,0.183823
3560.53,0.188305
3562.98,0.192085
3565.43,0.19527
3567.88,0.197955
3570.34,0.200177
3572.8,0.202052
3575.27,0.203669
3577.73,0.205178
3580.2,0.206586
3582.68,0.207794
3585.16,0.208821
3587.64,0.209656
3590.12,0.210407
3592.61,0.211236
3595.1,0.212221
3597.6,0.213375
3600.09,0.214601
3602.6,0.215649
3605.1,0.216551
3607.61,0.217334
3610.12,0.218032
3612.64,0.21876
3615.16,0.219515
3617.68,0.220246
3620.21,0.220938
3622.74,0.221605
3625.27,0.222161
3627.81,0.222694
3630.35,0.223179
3632.89,0.223638
3635.44,0.224053
3637.99,0.224405
3640.54,0.224749
3643.1,0.225088
3645.66,0.225417
3648.23,0.225676
3650.8,0.225947
3653.37,0.226244
3655.95,0.226522
3658.53,0.226781
3661.11,0.226936
3663.7,0.227066
3666.29,0.227167
3668.89,0.227297
3671.48,0.227401
3674.09,0.22749
3676.69,0.227532
3679.3,0.227451
3681.91,0.227397
3684.53,0.227317
3687.15,0.227213
3689.78,0.227066
3692.4,0.226874
3695.04,0.22667
3697.67,0.226434
3700.31,0.226173
3702.95,0.225824
3705.6,0.225439
3708.25,0.225007
3710.91,0.224503
3713.56,0.223916
3716.23,0.223069
3718.89,0.222099
3721.56,0.221058
3724.23,0.219691
3726.91,0.218081
3729.59,0.216139
3732.28,0.213921
3734.97,0.211316
3737.66,0.208354
3740.36,0.205037
3743.06,0.201436
3745.76,0.197573
3748.47,0.193499
3751.18,0.18928
3753.9,0.184868
3756.62,0.180471
3759.34,0.176035
3762.07,0.171672
3764.8,0.167423
3767.54,0.163186
3770.28,0.159126
3773.02,0.155242
3775.77,0.151469
3778.52,0.147852
3781.28,0.144432
3784.04,0.141269
3786.8,0.138273
3789.57,0.135434
3792.34,0.132769
3795.12,0.130272
3797.9,0.127952
3800.69,0.125792
3803.47,0.123835
3806.27,0.122004
3809.06,0.120285
3811.86,0.118796
3814.67,0.117496
3817.48,0.11627
3820.29,0.115189
3823.11,0.114194
3825.93,0.113315
3828.76,0.112529
3831.59,0.111795
3834.42,0.111106
3837.26,0.110497
3840.1,0.109878
3842.95,0.109305
3845.8,0.108765
3848.65,0.108245
3851.51,0.10769
3854.38,0.107106
3857.24,0.106585
3860.12,0.106067
3862.99,0.105486
3865.87,0.104891
3868.76,0.10427
3871.65,0.103594
3874.54,0.102906
3877.44,0.102184
3880.34,0.101362
3883.25,0.100419
3886.16,0.099382
3889.07,0.098241
3891.99,0.096991
3894.92,0.09566
3897.85,0.094275
3900.78,0.092912
3903.72,0.091508
3906.66,0.090012
3909.6,0.088452
3912.55,0.086872
3915.51,0.085299
3918.47,0.083725
3921.43,0.082119
3924.4,0.080514
3927.38,0.078972
3930.35,0.077427
3933.33,0.075911
3936.32,0.07444
3939.31,0.073022
3942.31,0.071649
3945.31,0.070342
3948.31,0.069127
3951.32,0.067996
3954.34,0.066943
3957.35,0.066035
3960.38,0.065236
3963.41,0.064557
3966.44,0.063999
3969.48,0.063565
3972.52,0.063352
3975.56,0.063336
3978.61,0.063383
3981.67,0.063542
3984.73,0.063985
3987.8,0.064655
3990.87,0.065479
3993.94,0.066632
3997.02,0.06819
4000.1,0.070177
4003.19,0.072689
4006.29,0.075891
4009.39,0.079914
4012.49,0.084783
4015.6,0.090503
4018.71,0.097153
4021.83,0.104555
4024.95,0.112513
4028.08,0.120768
4031.21,0.128875
4034.35,0.136714
4037.49,0.144121
4040.64,0.150934
4043.79,0.157182
4046.94,0.162958
4050.11,0.1683
4053.27,0.173287
4056.44,0.178006
4059.62,0.182467
4062.8,0.186629
4065.99,0.190437
4069.18,0.19394
4072.38,0.19724
4075.58,0.200198
4078.78,0.202944
4082.0,0.205446
4085.21,0.207718
4088.43,0.209797
4091.66,0.211683
4094.89,0.213469
4098.13,0.215117
4101.37,0.216613
4104.62,0.218036
4107.87,0.219412
4111.13,0.220655
4114.39,0.221763
4117.66,0.222878
4120.93,0.223893
4124.21,0.224831
4127.5,0.225692
4130.79,0.226508
4134.08,0.227278
4137.38,0.228001
4140.68,0.228656
4143.99,0.229268
4147.31,0.229839
4150.63,0.230404
4153.95,0.230896
4157.29,0.231361
4160.62,0.231875
4163.96,0.23234
4167.31,0.232722
4170.66,0.233115
4174.02,0.233467
4177.39,0.233841
4180.75,0.234207
4184.13,0.234565
4187.51,0.234916
4190.89,0.23522
4194.28,0.235492
4197.68,0.235707
4201.08,0.235928
4204.49,0.236117
4207.9,0.236273
4211.32,0.236419
4214.74,0.236504
4218.17,0.236555
4221.61,0.236548
4225.05,0.236532
4228.5,0.236547
4231.95,0.236522
4235.4,0.236364
4238.87,0.236207
4242.34,0.236073
4245.81,0.235926
4249.29,0.235701
4252.78,0.23539
4256.27,0.235026
4259.77,0.234557
4263.27,0.234085
4266.78,0.233705
4270.29,0.23336
4273.81,0.23314
4277.34,0.232965
4280.87,0.232862
4284.41,0.232706
4287.95,0.232462
4291.5,0.232198
4295.06,0.231933
4298.62,0.231557
4302.19,0.231176
4305.76,0.230789
4309.34,0.230353
4312.92,0.229819
4316.52,0.229263
4320.11,0.228736
4323.72,0.228178
4327.32,0.227611
4330.94,0.227038
4334.56,0.226461
4338.19,0.225958
4341.82,0.225474
4345.46,0.224998
4349.11,0.22459
4352.76,0.224211
4356.42,0.223839
4360.08,0.22346
4363.75,0.223074
4367.43,0.222719
4371.11,0.22238
4374.8,0.222042
4378.49,0.221681
4382.19,0.221323
4385.9,0.220959
4389.61,0.220671
4393.33,0.220355
4397.06,0.220057
4400.79,0.21967
4404.53,0.219264
4408.28,0.218835
4412.03,0.218373
4415.79,0.21792
4419.55,0.217533
4423.32,0.217131
4427.1,0.216726
4430.88,0.216381
4434.68,0.216092
4438.47,0.215827
4442.28,0.215611
4446.08,0.215372
4449.9,0.215156
4453.72,0.214936
4457.55,0.214697
4461.39,0.214419
4465.23,0.214167
4469.08,0.213896
4472.94,0.213602
4476.8,0.213293
4480.67,0.213002
4484.55,0.212664
4488.43,0.212252
4492.32,0.211846
4496.21,0.211418
4500.12,0.210913
4504.03,0.210361
4507.94,0.209738
4511.87,0.209079
4515.8,0.208421
4519.73,0.207711
4523.68,0.206889
4527.63,0.206035
4531.59,0.205125
4535.55,0.204082
4539.52,0.202927
4543.5,0.201734
4547.49,0.200524
4551.48,0.199245
4555.48,0.197933
4559.49,0.196615
4563.5,0.195288
4567.52,0.193986
4571.55,0.192698
4575.58,0.191497
4579.63,0.190318
4583.67,0.189153
4587.73,0.188036
4591.79,0.18703
4595.86,0.186094
4599.94,0.185226
4604.03,0.184439
4608.12,0.183728
4612.22,0.183094
4616.33,0.182638
4620.44,0.182335
4624.56,0.182285
4628.69,0.18245
4632.83,0.18294
4636.97,0.183688
4641.12,0.184807
4645.28,0.186299
4649.45,0.188163
4653.62,0.190309
4657.8,0.192749
4661.99,0.195447
4666.19,0.198319
4670.39,0.201213
4674.6,0.204011
4678.82,0.206609
4683.05,0.208893
4687.28,0.210841
4691.52,0.212557
4695.77,0.214065
4700.03,0.21533
4704.3,0.216412
4708.57,0.217362
4712.85,0.218153
4717.14,0.21888
4721.43,0.219529
4725.74,0.220114
4730.05,0.220625
4734.37,0.221044
4738.7,0.221427
4743.03,0.221795
4747.38,0.222088
4751.73,0.222341
4756.09,0.222529
4760.45,0.222684
4764.83,0.222779
4769.21,0.222851
4773.6,0.222868
4778.0,0.222892
4782.41,0.222881
4786.83,0.222833
4791.25,0.222756
4795.68,0.222683
4800.13,0.22255
4804.57,0.222398
4809.03,0.222267
4813.5,0.222147
4817.97,0.221952
4822.45,0.22179
4826.94,0.221657
4831.44,0.221549
4835.95,0.221401
4840.46,0.22122
4844.99,0.220974
4849.52,0.220756
4854.06,0.220552
4858.61,0.220375
4863.17,0.220164
4867.73,0.219928
4872.31,0.219664
4876.89,0.219388
4881.48,0.219119
4886.08,0.218905
4890.69,0.218647
4895.31,0.21833
4899.94,0.218021
4904.57,0.217707
4909.22,0.217382
4913.87,0.217061
4918.53,0.216791
4923.21,0.216552
4927.88,0.21627
4932.57,0.216006
4937.27,0.215685
4941.98,0.21542
4946.69,0.215115
4951.42,0.214855
4956.15,0.214608
4960.9,0.21436
4965.65,0.214095
4970.41,0.213769
4975.18,0.213427
4979.96,0.213113
4984.75,0.212766
4989.54,0.212395
4994.35,0.212002
4999.17,0.211577
5003.99,0.211109
5008.83,0.210602
5013.67,0.210059
5018.52,0.209475
5023.39,0.208765
5028.26,0.207969
5033.14,0.207034
5038.03,0.206004
5042.93,0.204787
5047.84,0.203366
5052.76,0.201753
5057.69,0.200007
5062.63,0.198076
5067.58,0.196133
5072.54,0.194273
5077.51,0.192462
5082.49,0.190749
5087.47,0.189232
5092.47,0.187881
5097.48,0.186773
5102.5,0.185869
5107.52,0.185211
5112.56,0.184785
5117.61,0.184591
5122.66,0.184482
5127.73,0.184436
5132.81,0.184381
5137.89,0.184281
5142.99,0.184092
5148.1,0.183762
5153.22,0.183247
5158.34,0.182623
5163.48,0.181807
5168.63,0.1808
5173.79,0.179681
5178.96,0.178529
5184.13,0.177329
5189.32,0.176102
5194.52,0.174791
5199.73,0.173469
5204.96,0.172142
5210.19,0.170862
5215.43,0.16956
5220.68,0.168232
5225.94,0.166945
5231.22,0.165693
5236.5,0.164391
5241.79,0.163087
5247.1,0.161742
5252.42,0.16037
5257.74,0.158977
5263.08,0.157615
5268.43,0.156204
5273.79,0.154736
5279.16,0.153164
5284.54,0.15156
5289.93,0.149901
5295.34,0.148161
5300.75,0.146273
5306.18,0.144245
5311.61,0.142074
5317.06,0.139746
5322.52,0.137199
5327.99,0.134489
5333.47,0.131599
5338.96,0.12848
5344.47,0.12513
5349.98,0.121535
5355.51,0.117647
5361.05,0.113487
5366.6,0.109108
5372.16,0.104505
5377.73,0.099731
5383.32,0.094793
5388.91,0.089687
5394.52,0.084527
5400.14,0.079385
5405.77,0.074332
5411.41,0.069459
5417.07,0.064827
5422.74,0.060548
5428.41,0.056601
5434.1,0.053129
5439.81,0.05016
5445.52,0.047656
5451.25,0.04562
5456.98,0.043998
5462.73,0.042747
5468.5,0.041807
5474.27,0.041143
5480.06,0.040846
5485.86,0.040817
5491.67,0.041143
5497.49,0.041843
5503.33,0.042931
5509.18,0.04438
5515.04,0.046184
5520.91,0.048269
5526.8,0.050592
5532.69,0.053118
5538.61,0.055721
5544.53,0.058292
5550.47,0.060789
5556.41,0.063185
5562.38,0.065418
5568.35,0.067478
5574.34,0.069317
5580.34,0.071027
5586.35,0.0726
5592.38,0.073999
5598.42,0.075224
5604.47,0.076372
5610.54,0.077427
5616.61,0.078336
5622.71,0.079073
5628.81,0.079715
5634.93,0.080295
5641.06,0.080802
5647.21,0.08113
5653.36,0.081339
5659.54,0.081511
5665.72,0.081596
5671.92,0.081588
5678.13,0.081564
5684.36,0.081468
5690.6,0.081297
5696.85,0.081065
5703.12,0.080754
5709.4,0.080376
5715.69,0.079964
5722.0,0.079507
5728.33,0.07904
5734.66,0.078483
5741.01,0.077911
5747.38,0.077288
5753.76,0.076616
5760.15,0.075859
5766.56,0.075107
5772.98,0.074221
5779.41,0.073295
5785.86,0.07241
5792.33,0.071471
5798.81,0.070548
5805.3,0.069632
5811.81,0.068696
5818.33,0.067785
5824.87,0.066849
5831.42,0.065851
5837.99,0.06491
5844.57,0.063999
5851.17,0.063081
5857.78,0.062167
5864.41,0.061296
5871.05,0.060406
5877.7,0.059571
5884.38,0.058829
5891.06,0.057979
5897.76,0.057295
5904.48,0.056584
5911.21,0.0558
5917.96,0.055132
5924.73,0.05447
5931.5,0.053865
5938.3,0.053298
5945.11,0.052594
5951.93,0.051952
5958.78,0.051429
5965.63,0.050927
5972.51,0.05048
5979.39,0.050022
5986.3,0.049643
5993.22,0.04935
6000.16,0.04907
6007.11,0.048859
6014.08,0.048727
6021.06,0.048583
6028.06,0.048498
6035.08,0.048477
6042.12,0.048468
6049.17,0.048527
6056.23,0.048553
6063.32,0.048579
6070.42,0.048752
6077.53,0.048946
6084.67,0.049151
6091.82,0.04939
6098.98,0.049677
6106.17,0.049921
6113.37,0.050205
6120.58,0.050485
6127.82,0.050718
6135.07,0.050912
6142.34,0.051038
6149.63,0.051101
6156.93,0.051125
6164.25,0.051147
6171.59,0.051294
6178.95,0.051741
6186.32,0.052534
6193.71,0.053708
6201.12,0.055363
6208.54,0.057425
6215.99,0.059805
6223.45,0.062469
6230.93,0.065347
6238.43,0.068489
6245.95,0.072037
6253.48,0.076093
6261.03,0.080686
6268.6,0.085679
6276.19,0.090848
6283.8,0.095846
6291.43,0.100413
6299.07,0.104316
6306.73,0.107251
6314.42,0.109176
6322.12,0.110111
6329.84,0.110052
6337.57,0.10911
6345.33,0.107445
6353.11,0.104986
6360.9,0.102063
6368.72,0.098986
6376.55,0.09575
6384.4,0.092489
6392.27,0.089483
6400.17,0.086648
6408.08,0.084026
6416.01,0.08153
6423.96,0.078999
6431.93,0.076621
6439.92,0.074391
6447.93,0.072166
6455.96,0.070056
6464.01,0.067988
6472.08,0.065998
6480.17,0.06406
6488.28,0.062202
6496.41,0.060386
6504.56,0.05861
6512.73,0.056913
6520.92,0.055358
6529.14,0.053827
6537.37,0.052413
6545.63,0.051066
6553.9,0.049787
6562.2,0.048575
6570.51,0.047473
6578.85,0.04642
6587.21,0.045439
6595.59,0.044513
6603.99,0.043617
6612.42,0.042766
6620.86,0.041948
6629.33,0.041188
6637.82,0.040515
6646.33,0.039782
6654.86,0.039077
6663.41,0.038439
6671.99,0.037837
6680.59,0.037286
6689.21,0.036766
6697.85,0.036261
6706.51,0.035837
6715.2,0.035429
6723.91,0.035032
6732.64,0.034703
6741.4,0.034387
6750.18,0.034063
6758.98,0.033787
6767.8,0.03354
6776.65,0.033319
6785.52,0.033086
6794.41,0.032893
6803.33,0.032715
6812.27,0.032548
6821.23,0.032405
6830.22,0.032256
6839.23,0.03211
6848.26,0.031995
6857.32,0.031902
6866.4,0.031847
6875.51,0.031752
6884.64,0.031728
6893.8,0.031734
6902.98,0.031737
6912.18,0.031743
6921.41,0.031782
6930.66,0.03186
6939.94,0.032001
6949.24,0.03214
6958.57,0.032302
6967.92,0.032549
6977.3,0.032855
6986.7,0.033174
6996.13,0.033518
7005.59,0.033913
7015.07,0.034317
7024.57,0.034728
7034.1,0.035171
7043.66,0.035589
7053.25,0.036012
7062.85,0.036459
7072.49,0.036882
7082.15,0.037284
7091.84,0.037632
7101.55,0.037879
7111.3,0.038014
7121.06,0.037944
7130.86,0.037603
7140.68,0.036948
7150.53,0.036083
7160.41,0.03519
7170.31,0.03444
7180.24,0.033847
7190.2,0.033464
7200.19,0.033328
7210.2,0.033517
7220.24,0.03391
7230.31,0.034453
7240.41,0.035047
7250.54,0.035621
7260.69,0.036225
7270.88,0.036843
7281.09,0.037445
7291.33,0.038015
7301.6,0.038615
7311.9,0.039227
7322.22,0.039834
7332.58,0.040476
7342.97,0.041151
7353.38,0.041845
7363.83,0.042572
7374.3,0.043379
7384.81,0.044218
7395.34,0.045053
7405.91,0.04592
7416.5,0.046871
7427.13,0.047886
7437.78,0.048901
7448.47,0.049934
7459.19,0.050974
7469.94,0.052039
7480.71,0.053116
7491.52,0.054225
7502.37,0.055346
7513.24,0.05649
7524.14,0.05764
7535.08,0.058782
7546.05,0.059916
7557.05,0.061028
7568.08,0.062082
7579.15,0.063109
7590.24,0.06413
7601.37,0.065108
7612.53,0.065994
7623.73,0.066853
7634.96,0.067721
7646.22,0.068551
7657.51,0.069318
7668.84,0.070086
7680.2,0.070819
7691.59,0.071562
7703.02,0.072273
7714.49,0.072962
7725.98,0.073615
7737.52,0.074229
7749.08,0.074785
7760.68,0.075297
7772.32,0.075727
7783.99,0.076036
7795.69,0.076193
7807.43,0.07629
7819.21,0.076288
7831.02,0.076189
7842.87,0.075998
7854.75,0.075751
7866.67,0.075456
7878.62,0.07512
7890.62,0.074774
7902.64,0.074387
7914.71,0.07392
7926.81,0.073391
7938.95,0.072813
7951.13,0.072195
7963.34,0.071575
7975.59,0.07095
7987.88,0.070293
8000.21,0.06964
8012.57,0.069028
8024.98,0.068425
8037.42,0.06786
8049.9,0.067333
8062.42,0.066835
8074.98,0.066337
8087.57,0.065761
8100.21,0.06507
8112.89,0.0643
8125.6,0.063476
8138.36,0.062618
8151.16,0.061712
8163.99,0.060825
8176.87,0.060113
8189.79,0.059576
8202.75,0.059278
8215.75,0.059227
8228.79,0.059422
8241.87,0.059852
8254.99,0.060494
8268.16,0.061275
8281.37,0.062304
8294.62,0.063652
8307.91,0.065383
8321.24,0.067499
8334.62,0.070071
8348.04,0.073093
8361.51,0.076442
8375.02,0.079869
8388.57,0.083145
8402.16,0.086051
8415.8,0.088388
8429.49,0.090116
8443.22,0.091315
8456.99,0.092097
8470.81,0.092597
8484.67,0.092904
8498.58,0.093167
8512.54,0.093412
8526.54,0.093591
8540.58,0.093724
8554.68,0.093814
8568.82,0.09385
8583.0,0.093853
8597.24,0.093796
8611.52,0.093692
8625.85,0.093493
8640.23,0.093147
8654.65,0.092614
8669.12,0.09189
8683.64,0.090992
8698.21,0.089942
8712.83,0.088743
8727.5,0.087489
8742.22,0.086222
8756.99,0.084886
8771.8,0.08351
8786.67,0.082134
8801.59,0.080739
8816.56,0.079308
8831.58,0.077845
8846.65,0.076462
8861.77,0.075127
8876.94,0.073784
8892.17,0.072445
8907.45,0.071148
8922.78,0.069892
8938.16,0.068667
8953.6,0.067468
8969.09,0.066355
8984.64,0.065267
9000.23,0.064199
9015.89,0.063057
9031.59,0.061901
9047.36,0.060735
9063.17,0.059521
9079.05,0.058301
9094.97,0.057227
9110.96,0.056296
9127.0,0.05546
9143.1,0.054722
9159.25,0.054122
9175.46,0.053586
9191.73,0.053103
9208.06,0.052595
9224.44,0.05201
9240.88,0.051426
9257.38,0.050912
9273.94,0.050408
9290.56,0.04989
9307.24,0.049353
9323.98,0.048823
9340.78,0.048299
9357.64,0.047732
9374.57,0.047104
9391.55,0.046412
9408.59,0.045635
9425.7,0.044842
9442.87,0.044024
9460.1,0.043147
9477.4,0.042234
9494.75,0.041297
9512.17,0.040381
9529.66,0.039465
9547.21,0.038521
9564.83,0.03755
9582.5,0.036622
9600.25,0.035702
9618.06,0.034816
9635.94,0.03396
9653.88,0.03322
9671.89,0.032569
9689.97,0.032008
9708.12,0.031528
9726.33,0.031143
9744.62,0.030881
9762.97,0.030694
9781.39,0.030585
9799.88,0.03052
9818.44,0.030529
9837.07,0.030589
9855.77,0.030701
9874.54,0.030891
9893.39,0.031143
9912.3,0.031446
9931.29,0.031792
9950.36,0.032167
9969.49,0.032619
9988.7,0.033088
10007.98,0.033526
10027.34,0.03403
10046.77,0.034521
10066.28,0.035012
10085.87,0.035519
10105.53,0.036019
10125.26,0.036558
10145.08,0.037151
10164.97,0.037761
10184.94,0.038366
10204.99,0.038988
10225.12,0.039703
10245.33,0.040432
10265.61,0.04113
10285.98,0.041866
10306.43,0.042645
10326.96,0.043452
10347.57,0.044279
10368.27,0.045208
10389.05,0.046148
10409.91,0.047123
10430.86,0.048125
10451.88,0.0492
10473.0,0.050334
10494.2,0.051446
10515.49,0.052551
10536.86,0.053696
10558.32,0.054852
10579.87,0.055996
10601.5,0.057151
10623.23,0.058376
10645.04,0.059632
10666.94,0.060967
10688.94,0.062348
10711.02,0.063777
10733.2,0.065219
10755.47,0.066653
10777.83,0.068067
10800.28,0.069452
10822.83,0.070777
10845.47,0.072032
10868.21,0.073179
10891.04,0.074291
10913.97,0.075371
10936.99,0.076468
10960.12,0.077577
10983.34,0.078817
11006.66,0.080167
11030.07,0.081621
11053.59,0.083153
11077.21,0.084786
11100.93,0.086209
11124.75,0.086858
11148.68,0.085988
11172.71,0.08294
11196.84,0.07749
11221.07,0.070339
11245.41,0.062641
11269.86,0.05545
11294.41,0.049342
11319.07,0.044528
11343.84,0.040849
11368.72,0.038239
11393.7,0.03642
11418.8,0.035281
11444.01,0.034753
11469.33,0.03475
11494.76,0.035183
11520.3,0.036069
11545.96,0.03745
11571.73,0.039549
11597.62,0.042721
11623.62,0.048135
11649.74,0.056376
11675.98,0.065075
11702.34,0.070414
11728.81,0.072828
11755.41,0.073598
11782.13,0.07339
11808.96,0.072835
11835.92,0.07245
11863.01,0.072745
11890.22,0.074412
11917.55,0.078652
11945.01,0.086956
11972.6,0.095282
12000.31,0.09889
12028.16,0.100017
12056.13,0.100472
12084.23,0.100729
12112.46,0.100935
12140.83,0.101077
12169.33,0.101053
12197.96,0.100977
12226.73,0.100752
12255.64,0.100482
12284.68,0.100169
12313.86,0.099746
12343.18,0.099223
12372.64,0.098695
12402.24,0.09806
12431.98,0.097367
12461.86,0.09665
12491.89,0.095919
12522.07,0.095123
12552.38,0.094315
12582.85,0.093482
12613.47,0.092557
12644.23,0.091505
12675.15,0.090371
12706.21,0.089131
12737.43,0.087732
12768.81,0.08608
12800.33,0.084145
12832.02,0.08189
12863.86,0.079285
12895.86,0.076158
12928.02,0.0724
12960.34,0.067897
12992.82,0.062591
13025.46,0.05651
13058.27,0.049757
13091.25,0.042451
13124.39,0.035042
13157.7,0.028144
13191.18,0.022602
13224.83,0.019253
13258.66,0.018365
13292.65,0.019099
13326.83,0.020701
13361.17,0.022798
13395.7,0.025448
13430.4,0.028759
13465.29,0.032526
13500.35,0.036456
13535.6,0.040226
13571.03,0.043666
13606.65,0.046697
13642.46,0.049183
13678.46,0.051189
13714.64,0.052724
13751.02,0.053915
13787.59,0.054729
13824.36,0.055205
13861.32,0.055366
13898.49,0.055186
13935.85,0.054743
13973.41,0.054257
14011.17,0.053831
14049.15,0.053544
14087.32,0.05338
14125.71,0.053293
14164.3,0.053352
14203.11,0.053528
14242.13,0.053647
14281.36,0.053755
14320.81,0.053871
14360.49,0.05395
14400.38,0.053927
14440.49,0.053717
14480.82,0.053226
14521.39,0.052524
14562.18,0.051648
14603.2,0.050652
14644.45,0.049481
14685.93,0.04821
14727.66,0.04696
14769.62,0.045833
14811.81,0.045034
14854.25,0.044545
14896.94,0.044452
14939.87,0.044667
14983.05,0.045169
15026.48,0.045898
15070.16,0.046733
15114.1,0.047736
15158.29,0.048802
15202.74,0.049973
15247.46,0.051167
15292.43,0.052331
15337.68,0.053458
15383.19,0.054629
15428.97,0.055759
15475.03,0.05684
15521.36,0.057873
15567.97,0.058892
15614.87,0.059815
15662.04,0.060617
15709.5,0.061268
15757.25,0.061815
15805.29,0.062226
15853.62,0.062455
15902.26,0.062571
15951.19,0.062646
16000.42,0.062534
16049.95,0.062371
16099.8,0.062098
16149.95,0.061686
16200.42,0.061276
16251.21,0.060805
16302.31,0.060266
16353.74,0.059869
16405.49,0.059414
16457.57,0.058851
16509.98,0.058272
16562.73,0.057819
16615.82,0.057394
16669.24,0.056883
16723.02,0.056392
16777.14,0.055893
16831.61,0.055352
16886.43,0.054903
16941.62,0.054442
16997.16,0.053927
17053.08,0.05341
17109.36,0.052897
17166.01,0.052369
17223.04,0.051788
17280.45,0.051149
17338.24,0.050515
17396.43,0.049807
17455.0,0.049055
17513.97,0.048322
17573.34,0.047582
17633.11,0.046771
17693.29,0.046004
17753.89,0.045179
17814.9,0.044273
17876.33,0.043347
17938.18,0.042427
18000.47,0.041488
18063.19,0.040589
18126.35,0.039635
18189.95,0.038609
18254.0,0.037613
18318.5,0.036746
18383.46,0.035962
18448.88,0.035141
18514.77,0.034246
18581.13,0.03321
18647.97,0.032416
18715.29,0.031798
18783.1,0.030989
18851.4,0.030183
18920.2,0.029473
18989.51,0.028832
19059.32,0.028083
19129.65,0.027283
19200.5,0.026406
19271.88,0.026081
19343.79,0.025749
19416.24,0.025213
19489.23,0.024692
19562.77,0.024191
19636.88,0.023693
19711.54,0.02332
19786.78,0.022769
19862.59,0.022362
19938.98,0.022053
20015.96,0.021841
20093.55,0.021592
20171.73,0.021282
20250.53,0.021063
20329.94,0.020867
20409.98,0.020617
20490.65,0.020373
20571.96,0.020253
20653.92,0.020202
20736.54,0.020193
20819.82,0.020282
20903.77,0.020256
20988.4,0.020273
21073.72,0.020356
21159.73,0.020545
21246.46,0.020564
21333.89,0.020719
21422.04,0.021127
21510.93,0.021501
21600.56,0.02181
21690.94,0.021946
21782.08,0.021994
21873.99,0.022259
21966.67,0.022414
22060.15,0.022939
22154.42,0.024074
22249.51,0.025005
22345.41,0.025756
22442.14,0.026546
22539.72,0.027359
22638.14,0.02806
22737.43,0.028858
22837.6,0.029479
22938.65,0.029772
23040.6,0.030289
23143.46,0.031208
23247.24,0.032082
23351.96,0.032846
23457.63,0.033563
23564.25,0.034527
23671.85,0.034788
23780.44,0.034936
23890.02,0.035437
24000.63,0.036212
24112.26,0.036525
24224.93,0.036679
24338.66,0.037345
24453.47,0.037498
24569.36,0.037591
24686.36,0.037618
24804.47,0.037699
24923.73,0.038068
25044.13,0.038281
25165.71,0.03852
25288.46,0.038913
25412.43,0.038821
25537.61,0.038347
25664.04,0.038271
25791.72,0.038397
25920.68,0.038366
