Database of Origin,University of Winnipeg Spectrophotometer Facility
Sample Description,See Master Clays in HOSERLab database
Date Added,2016-12-11 20:57:05.954775

Data ID,RLA_CLAY_06         
Sample ID,CRO101
Mineral Name,Cronstedtite
Grain Size,<45um
Viewing Geometry,"30/0,30"
Resolution,"5,0.6-129"
Material Class,Phyllosilicate

Wavelength
305.0,0.045075
310.0,0.043011
315.0,0.042732
320.0,0.042464
325.0,0.041773
330.0,0.041935
335.0,0.041757
340.0,0.042016
345.0,0.041835
350.0,0.041973
355.0,0.042223
360.0,0.042754
365.0,0.043317
370.0,0.043591
375.0,0.04435
380.0,0.044819
385.0,0.045436
390.0,0.045927
395.0,0.047033
400.0,0.047566
405.0,0.047525
410.0,0.048215
415.0,0.049155
420.0,0.049969
425.0,0.050865
430.0,0.051843
435.0,0.052837
440.0,0.053734
445.0,0.054756
450.0,0.055622
455.0,0.056274
460.0,0.056758
465.0,0.057603
470.0,0.058436
475.0,0.059465
480.0,0.060592
485.0,0.061475
490.0,0.062811
495.0,0.063959
500.0,0.065235
505.0,0.066839
510.0,0.067926
515.0,0.069417
520.0,0.070723
525.0,0.072004
530.0,0.073198
535.0,0.074343
540.0,0.075394
545.0,0.076442
550.0,0.077453
555.0,0.078526
560.0,0.07916
565.0,0.080249
570.0,0.080639
575.0,0.081378
580.0,0.081984
585.0,0.082458
590.0,0.082757
595.0,0.082993
600.0,0.083252
605.0,0.083672
610.0,0.08393
615.0,0.084316
620.0,0.084239
625.0,0.084372
630.0,0.084625
635.0,0.084609
640.0,0.084696
645.0,0.084666
650.0,0.084437
655.0,0.084684
660.0,0.084641
665.0,0.084587
670.0,0.084686
675.0,0.084463
680.0,0.084441
685.0,0.084491
690.0,0.084578
695.0,0.084621
700.0,0.084621
705.0,0.084712
710.0,0.084609
715.0,0.084869
720.0,0.084831
725.0,0.085325
730.0,0.086353
735.0,0.087338
740.0,0.086832
745.0,0.086963
750.0,0.087422
755.0,0.08797
760.0,0.08746
765.0,0.088007
770.0,0.08613
775.0,0.087874
780.0,0.087881
785.0,0.088181
790.0,0.088588
795.0,0.087948
800.0,0.088233
805.0,0.089328
810.0,0.090199
815.0,0.090278
820.0,0.090969
825.0,0.088801
830.0,0.088224
835.0,0.088717
840.0,0.088234
845.0,0.089062
850.0,0.089424
855.0,0.089137
860.0,0.089154
865.0,0.090166
870.0,0.089161
875.0,0.09111
880.0,0.090686
885.0,0.089439
890.0,0.090078
895.0,0.09069
900.0,0.090764
905.0,0.090106
910.0,0.090561
915.0,0.090317
920.0,0.090665
925.0,0.091753
930.0,0.092482
935.0,0.091862
940.0,0.092774
945.0,0.092405
950.0,0.092002
955.0,0.093248
960.0,0.092672
965.0,0.092705
970.0,0.09283
975.0,0.092864
980.0,0.093277
985.0,0.093189
990.0,0.092981
995.0,0.093673
1000.0,0.094104
1005.0,0.094462
1010.0,0.094427
1015.0,0.095462
1020.0,0.095226
1025.0,0.095048
1030.0,0.094994
1035.0,0.095405
1040.0,0.096302
1045.0,0.09593
1050.0,0.096097
1055.0,0.096801
1060.0,0.097133
1065.0,0.097012
1070.0,0.096992
1075.0,0.097798
1080.0,0.097448
1085.0,0.097904
1090.0,0.09847
1095.0,0.098416
1100.0,0.099125
1105.0,0.09849
1110.0,0.098234
1115.0,0.099176
1120.0,0.09947
1125.0,0.099838
1130.0,0.099861
1135.0,0.099937
1140.0,0.100368
1145.0,0.100366
1150.0,0.101649
1155.0,0.101691
1160.0,0.101584
1165.0,0.101859
1170.0,0.10182
1175.0,0.102554
1180.0,0.102678
1185.0,0.103051
1190.0,0.103286
1195.0,0.103297
1200.0,0.103338
1205.0,0.103551
1210.0,0.103937
1215.0,0.104234
1220.0,0.104664
1225.0,0.105074
1230.0,0.105262
1235.0,0.105276
1240.0,0.105388
1245.0,0.105798
1250.0,0.105941
1255.0,0.106555
1260.0,0.107104
1265.0,0.107413
1270.0,0.108415
1275.0,0.108701
1280.0,0.10951
1285.0,0.109738
1290.0,0.111175
1295.0,0.111303
1300.0,0.112155
1305.0,0.111815
1310.0,0.112158
1315.0,0.112841
1320.0,0.113275
1325.0,0.11409
1330.0,0.114749
1335.0,0.11536
1340.0,0.115652
1345.0,0.116609
1350.0,0.116745
1355.0,0.117184
1360.0,0.117895
1365.0,0.118987
1370.0,0.119362
1375.0,0.120483
1380.0,0.120239
1385.0,0.122677
1390.0,0.122021
1395.0,0.122645
1400.0,0.123056
1405.0,0.124989
1410.0,0.126384
1415.0,0.12598
1420.0,0.126539
1425.0,0.127582
1430.0,0.128152
1435.0,0.129433
1440.0,0.130539
1445.0,0.130385
1450.0,0.131987
1455.0,0.132682
1460.0,0.133246
1465.0,0.134137
1470.0,0.13431
1475.0,0.135857
1480.0,0.135971
1485.0,0.136299
1490.0,0.137431
1495.0,0.137382
1500.0,0.138131
1505.0,0.138751
1510.0,0.138748
1515.0,0.139508
1520.0,0.140571
1525.0,0.141528
1530.0,0.142319
1535.0,0.142969
1540.0,0.144435
1545.0,0.144619
1550.0,0.145326
1555.0,0.146537
1560.0,0.147152
1565.0,0.147668
1570.0,0.14795
1575.0,0.148736
1580.0,0.149293
1585.0,0.14984
1590.0,0.150874
1595.0,0.151016
1600.0,0.151509
1605.0,0.15231
1610.0,0.152712
1615.0,0.153079
1620.0,0.154459
1625.0,0.154795
1630.0,0.155411
1635.0,0.156405
1640.0,0.156491
1645.0,0.157463
1650.0,0.158033
1655.0,0.159202
1660.0,0.160042
1665.0,0.161074
1670.0,0.162302
1675.0,0.163122
1680.0,0.16351
1685.0,0.164211
1690.0,0.164628
1695.0,0.165662
1700.0,0.165732
1705.0,0.166881
1710.0,0.167439
1715.0,0.168243
1720.0,0.169032
1725.0,0.168604
1730.0,0.169715
1735.0,0.17036
1740.0,0.170728
1745.0,0.171016
1750.0,0.171904
1755.0,0.172183
1760.0,0.172708
1765.0,0.173929
1770.0,0.173836
1775.0,0.174449
1780.0,0.17475
1785.0,0.175917
1790.0,0.175449
1795.0,0.176522
1800.0,0.176093
1805.0,0.176887
1810.0,0.176513
1815.0,0.176861
1820.0,0.177246
1825.0,0.178047
1830.0,0.178608
1835.0,0.17924
1840.0,0.180514
1845.0,0.18144
1850.0,0.181699
1855.0,0.182005
1860.0,0.182747
1865.0,0.182978
1870.0,0.181977
1875.0,0.184563
1880.0,0.184927
1885.0,0.185007
1890.0,0.185379
1895.0,0.185941
1900.0,0.185208
1905.0,0.185304
1910.0,0.186008
1915.0,0.18614
1920.0,0.186351
1925.0,0.187232
1930.0,0.186808
1935.0,0.187401
1940.0,0.188223
1945.0,0.188896
1950.0,0.189287
1955.0,0.189328
1960.0,0.189093
1965.0,0.189718
1970.0,0.19004
1975.0,0.19105
1980.0,0.191371
1985.0,0.192508
1990.0,0.191527
1995.0,0.191998
2000.0,0.19295
2005.0,0.192626
2010.0,0.193194
2015.0,0.193144
2020.0,0.194029
2025.0,0.19469
2030.0,0.194103
2035.0,0.196006
2040.0,0.196071
2045.0,0.196314
2050.0,0.196548
2055.0,0.197447
2060.0,0.197716
2065.0,0.197768
2070.0,0.197944
2075.0,0.199194
2080.0,0.199592
2085.0,0.199156
2090.0,0.198583
2095.0,0.199173
2100.0,0.198847
2105.0,0.19941
2110.0,0.200062
2115.0,0.200518
2120.0,0.200998
2125.0,0.201023
2130.0,0.201782
2135.0,0.203089
2140.0,0.201795
2145.0,0.202641
2150.0,0.203264
2155.0,0.202447
2160.0,0.203101
2165.0,0.202672
2170.0,0.202931
2175.0,0.202679
2180.0,0.203453
2185.0,0.203376
2190.0,0.203605
2195.0,0.203349
2200.0,0.203931
2205.0,0.204032
2210.0,0.204083
2215.0,0.204456
2220.0,0.204149
2225.0,0.204388
2230.0,0.20374
2235.0,0.204399
2240.0,0.205101
2245.0,0.204648
2250.0,0.205612
2255.0,0.204676
2260.0,0.20505
2265.0,0.20452
2270.0,0.204491
2275.0,0.204656
2280.0,0.204128
2285.0,0.203197
2290.0,0.20335
2295.0,0.202601
2300.0,0.202651
2305.0,0.20207
2310.0,0.201189
2315.0,0.198287
2320.0,0.19794
2325.0,0.19626
2330.0,0.195736
2335.0,0.19701
2340.0,0.197486
2345.0,0.198593
2350.0,0.197902
2355.0,0.198264
2360.0,0.197286
2365.0,0.195811
2370.0,0.195171
2375.0,0.195262
2380.0,0.195335
2385.0,0.195843
2390.0,0.195459
2395.0,0.19632
2400.0,0.197077
2405.0,0.197148
2410.0,0.198099
2415.0,0.196764
2420.0,0.198859
2425.0,0.198527
2430.0,0.199878
2435.0,0.198859
2440.0,0.200196
2445.0,0.199315
2450.0,0.199974
2455.0,0.199397
2460.0,0.198711
2465.0,0.199765
2470.0,0.198682
2475.0,0.199865
2480.0,0.200355
2485.0,0.200146
2490.0,0.199154
2495.0,0.199277
2500.0,0.198537
2505.0,0.197948
2510.0,0.197786
2515.0,0.196798
2520.0,0.196618
2525.15,0.196265
2530.08,0.195299
2535.03,0.194796
2540.0,0.195823
2544.99,0.195187
2549.99,0.195892
2552.5,0.195642
2553.76,0.195787
2556.28,0.1955
2558.8,0.195615
2561.33,0.195182
2563.86,0.195322
2565.13,0.195437
2566.4,0.195552
2567.67,0.195467
2568.95,0.195223
2570.22,0.194817
2571.5,0.194749
2572.77,0.195127
2574.05,0.194504
2575.33,0.194802
2576.61,0.195266
2577.89,0.194625
2579.17,0.19509
2580.46,0.195719
2581.74,0.195003
2583.03,0.195042
2584.31,0.194855
2585.6,0.195008
2586.89,0.195462
2588.19,0.194387
2589.48,0.194559
2590.77,0.195488
2592.07,0.195595
2593.36,0.195092
2594.66,0.194032
2595.96,0.193008
2597.26,0.194659
2598.56,0.195613
2599.87,0.195374
2601.17,0.194534
2602.48,0.193911
2603.78,0.193764
2605.09,0.193144
2606.4,0.192801
2607.71,0.193545
2609.03,0.194538
2610.34,0.194628
2611.66,0.194383
2612.97,0.194285
2614.29,0.194066
2615.61,0.193976
2616.93,0.192928
2618.25,0.192814
2619.57,0.194257
2620.9,0.193657
2622.22,0.193466
2623.55,0.194597
2624.88,0.194217
2626.21,0.193325
2627.54,0.192941
2628.87,0.193861
2630.21,0.193769
2631.54,0.19254
2632.88,0.193304
2634.21,0.193646
2635.55,0.193425
2636.89,0.193687
2638.24,0.193163
2639.58,0.192817
2640.92,0.192839
2642.27,0.192566
2643.62,0.192475
2644.97,0.192808
2646.32,0.192361
2647.67,0.192232
2649.02,0.19258
2650.38,0.192455
2651.73,0.192126
2653.09,0.19192
2654.45,0.192236
2655.81,0.192317
2657.17,0.192134
2658.53,0.192458
2659.89,0.19199
2661.26,0.191674
2662.63,0.191824
2664.0,0.191635
2665.36,0.19043
2666.74,0.189577
2668.11,0.189799
2669.48,0.190066
2670.86,0.188702
2672.23,0.18864
2673.61,0.189928
2674.99,0.188942
2676.37,0.187927
2677.76,0.187242
2679.14,0.187505
2680.52,0.187548
2681.91,0.187682
2683.3,0.187107
2684.69,0.186615
2686.08,0.186767
2687.47,0.186278
2688.87,0.185706
2690.26,0.185352
2691.66,0.184858
2693.06,0.184375
2694.46,0.183179
2695.86,0.182922
2697.26,0.183287
2698.66,0.182852
2700.07,0.182233
2701.48,0.181391
2702.89,0.180978
2704.3,0.180918
2705.71,0.180223
2707.12,0.179736
2708.53,0.179169
2709.95,0.178059
2711.37,0.177108
2712.79,0.177318
2714.21,0.177915
2715.63,0.177213
2717.05,0.176344
2718.48,0.175637
2719.9,0.174676
2721.33,0.173276
2722.76,0.173222
2724.19,0.172633
2725.62,0.171061
2727.06,0.170831
2728.49,0.170495
2729.93,0.16954
2731.37,0.168359
2732.81,0.167556
2734.25,0.166746
2735.69,0.165072
2737.14,0.164343
2738.58,0.163516
2740.03,0.160891
2741.48,0.159301
2742.93,0.158982
2744.38,0.158053
2745.83,0.156563
2747.29,0.155075
2748.75,0.153592
2750.2,0.151609
2751.66,0.150121
2753.13,0.148873
2754.59,0.146857
2756.05,0.144477
2757.52,0.142946
2758.99,0.141761
2760.46,0.139862
2761.93,0.137767
2763.4,0.135485
2764.87,0.133651
2766.35,0.131955
2767.82,0.129712
2769.3,0.127668
2770.78,0.12547
2772.26,0.123255
2773.75,0.121669
2775.23,0.119949
2776.72,0.117815
2778.21,0.115717
2779.7,0.114141
2781.19,0.112728
2782.68,0.11152
2784.18,0.110276
2785.67,0.108896
2787.17,0.107428
2788.67,0.106022
2790.17,0.105129
2791.67,0.104497
2793.18,0.103688
2794.68,0.102864
2796.19,0.10217
2797.7,0.101455
2799.21,0.100976
2800.72,0.100793
2802.24,0.100297
2803.75,0.099737
2805.27,0.09943
2806.79,0.099135
2808.31,0.098789
2809.83,0.09853
2811.35,0.098494
2812.88,0.098393
2814.41,0.098253
2815.93,0.097907
2817.46,0.097317
2819.0,0.097041
2820.53,0.09688
2822.07,0.096638
2823.6,0.096342
2825.14,0.096038
2826.68,0.095804
2828.22,0.095348
2829.77,0.095167
2831.31,0.094929
2832.86,0.094514
2834.41,0.0939
2835.96,0.093587
2837.51,0.093547
2839.07,0.093413
2840.62,0.093278
2842.18,0.093009
2843.74,0.092755
2845.3,0.092869
2846.86,0.092759
2848.43,0.09254
2849.99,0.092268
2851.56,0.092032
2853.13,0.091659
2854.7,0.091535
2856.27,0.091702
2857.85,0.091685
2859.42,0.091804
2861.0,0.091594
2862.58,0.091272
2864.16,0.091282
2865.75,0.091219
2867.33,0.091186
2868.92,0.091012
2870.51,0.091198
2872.1,0.091177
2873.69,0.090902
2875.28,0.09093
2876.88,0.090743
2878.48,0.090672
2880.07,0.090615
2881.68,0.09055
2883.28,0.090665
2884.88,0.090696
2886.49,0.090592
2888.1,0.090493
2889.71,0.09058
2891.32,0.090648
2892.93,0.090351
2894.55,0.090146
2896.16,0.090209
2897.78,0.09017
2899.4,0.090372
2901.03,0.090465
2902.65,0.090336
2904.28,0.090389
2905.91,0.090454
2907.54,0.090259
2909.17,0.090321
2910.8,0.090514
2912.44,0.090314
2914.07,0.09022
2915.71,0.090114
2917.35,0.089967
2918.99,0.089966
2920.64,0.089968
2922.29,0.089772
2923.93,0.089427
2925.58,0.089336
2927.24,0.08917
2928.89,0.088956
2930.55,0.088852
2932.2,0.088649
2933.86,0.088476
2935.52,0.088177
2937.19,0.08777
2938.85,0.08773
2940.52,0.087784
2942.19,0.087676
2943.86,0.087334
2945.53,0.087268
2947.21,0.087252
2948.88,0.086986
2950.56,0.086721
2952.24,0.086412
2953.92,0.086137
2955.61,0.08597
2957.29,0.085807
2958.98,0.085592
2960.67,0.085462
2962.36,0.085496
2964.06,0.085261
2965.75,0.085072
2967.45,0.084993
2969.15,0.085212
2970.85,0.085329
2972.55,0.085092
2974.26,0.085032
2975.97,0.084987
2977.68,0.084757
2979.39,0.084603
2981.1,0.084442
2982.82,0.084521
2984.53,0.084559
2986.25,0.084407
2987.97,0.084182
2989.7,0.084192
2991.42,0.084245
2993.15,0.084168
2994.88,0.084139
2996.61,0.08433
2998.34,0.084295
3000.08,0.084219
3001.82,0.08418
3003.55,0.084099
3005.3,0.084017
3007.04,0.083803
3008.78,0.083716
3010.53,0.083869
3012.28,0.083909
3014.03,0.0838
3015.79,0.083703
3017.54,0.083672
3019.3,0.08368
3021.06,0.083903
3022.82,0.08379
3024.58,0.08368
3026.35,0.083895
3028.12,0.083821
3029.89,0.083748
3031.66,0.08403
3033.43,0.084134
3035.21,0.08399
3036.99,0.083982
3038.77,0.083968
3040.55,0.083951
3042.33,0.083727
3044.12,0.083506
3045.91,0.083605
3047.7,0.083768
3049.49,0.08401
3051.29,0.084002
3053.08,0.084131
3054.88,0.084198
3056.68,0.084254
3058.49,0.084321
3060.29,0.084347
3062.1,0.084019
3063.91,0.084051
3065.72,0.08438
3067.54,0.084364
3069.35,0.084349
3071.17,0.084491
3072.99,0.084594
3074.81,0.084446
3076.64,0.084336
3078.47,0.084533
3080.29,0.084756
3082.13,0.085076
3083.96,0.085379
3085.79,0.085688
3087.63,0.086052
3089.47,0.086192
3091.31,0.086153
3093.16,0.086258
3095.01,0.086428
3096.85,0.086709
3098.71,0.086942
3100.56,0.08705
3102.41,0.087154
3104.27,0.087464
3106.13,0.087602
3107.99,0.087862
3109.86,0.088228
3111.73,0.088466
3113.59,0.088587
3115.47,0.088567
3117.34,0.088839
3119.21,0.089285
3121.09,0.089475
3122.97,0.089635
3124.86,0.08981
3126.74,0.089968
3128.63,0.090191
3130.52,0.090447
3132.41,0.090535
3134.3,0.090792
3136.2,0.090923
3138.1,0.090951
3140.0,0.091228
3141.9,0.091616
3143.81,0.092032
3145.71,0.092363
3147.62,0.092549
3149.54,0.092835
3151.45,0.093177
3153.37,0.093468
3155.29,0.093759
3157.21,0.093903
3159.13,0.093982
3161.06,0.094181
3162.99,0.094517
3164.92,0.094909
3166.85,0.095303
3168.79,0.095632
3170.72,0.095769
3172.67,0.095996
3174.61,0.096235
3176.55,0.096634
3178.5,0.096901
3180.45,0.09726
3182.4,0.097475
3184.36,0.097813
3186.32,0.098019
3188.27,0.098285
3190.24,0.098616
3192.2,0.098855
3194.17,0.099217
3196.14,0.099563
3198.11,0.099727
3200.08,0.100006
3202.06,0.100307
3204.04,0.100495
3206.02,0.100917
3208.0,0.101374
3209.99,0.101523
3211.98,0.101789
3213.97,0.102199
3215.96,0.10263
3217.96,0.102894
3219.96,0.103157
3221.96,0.103446
3223.96,0.103804
3225.97,0.104277
3227.98,0.104713
3229.99,0.104744
3232.0,0.105082
3234.02,0.105503
3236.04,0.105842
3238.06,0.10616
3240.08,0.106477
3242.11,0.10687
3244.14,0.107198
3246.17,0.107302
3248.2,0.107553
3250.24,0.108111
3252.28,0.108457
3254.32,0.108673
3256.37,0.109091
3258.41,0.109387
3260.46,0.109741
3262.51,0.11015
3264.57,0.110443
3266.63,0.110587
3268.69,0.110772
3270.75,0.111092
3272.81,0.111508
3274.88,0.111902
3276.95,0.112244
3279.02,0.112466
3281.1,0.11285
3283.18,0.113299
3285.26,0.1137
3287.34,0.114006
3289.43,0.114386
3291.51,0.114731
3293.61,0.115018
3295.7,0.115327
3297.8,0.115499
3299.9,0.115795
3302.0,0.116225
3304.1,0.116525
3306.21,0.116829
3308.32,0.117251
3310.43,0.117502
3312.55,0.117743
3314.66,0.118142
3316.79,0.118593
3318.91,0.119019
3321.03,0.119317
3323.16,0.119479
3325.29,0.119603
3327.43,0.119872
3329.57,0.120223
3331.71,0.120677
3333.85,0.121036
3335.99,0.121442
3338.14,0.12193
3340.29,0.122223
3342.45,0.122294
3344.6,0.122597
3346.76,0.122914
3348.92,0.123044
3351.09,0.123312
3353.26,0.123622
3355.43,0.123964
3357.6,0.124332
3359.78,0.124594
3361.96,0.124962
3364.14,0.125266
3366.32,0.125565
3368.51,0.125795
3370.7,0.12598
3372.89,0.126296
3375.09,0.12673
3377.29,0.127204
3379.49,0.127526
3381.69,0.127839
3383.9,0.12811
3386.11,0.128255
3388.32,0.1286
3390.54,0.128808
3392.76,0.129146
3394.98,0.129544
3397.21,0.129818
3399.43,0.130014
3401.66,0.130303
3403.9,0.130657
3406.13,0.130869
3408.37,0.131129
3410.61,0.13147
3412.86,0.131761
3415.11,0.132017
3417.36,0.132341
3419.61,0.132649
3421.87,0.132896
3424.13,0.133323
3426.39,0.133843
3428.66,0.134272
3430.93,0.134613
3433.2,0.134975
3435.48,0.135286
3437.76,0.135437
3440.04,0.135656
3442.32,0.136007
3444.61,0.136471
3446.9,0.136913
3449.19,0.137156
3451.49,0.137402
3453.79,0.137694
3456.09,0.137947
3458.4,0.138308
3460.7,0.138655
3463.02,0.13902
3465.33,0.139191
3467.65,0.139427
3469.97,0.13985
3472.29,0.140153
3474.62,0.140391
3476.95,0.140727
3479.29,0.141014
3481.62,0.141373
3483.96,0.141698
3486.3,0.141766
3488.65,0.141885
3491.0,0.142193
3493.35,0.14252
3495.71,0.142878
3498.07,0.143155
3500.43,0.143397
3502.79,0.143648
3505.16,0.144143
3507.53,0.144603
3509.91,0.14486
3512.29,0.145211
3514.67,0.145423
3517.05,0.145728
3519.44,0.146125
3521.83,0.146395
3524.23,0.146625
3526.62,0.146919
3529.02,0.147202
3531.43,0.147444
3533.83,0.147832
3536.24,0.148164
3538.66,0.148402
3541.08,0.148755
3543.5,0.149072
3545.92,0.149391
3548.35,0.149622
3550.78,0.149961
3553.21,0.150353
3555.65,0.150637
3558.09,0.150993
3560.53,0.151213
3562.98,0.151524
3565.43,0.151808
3567.88,0.15203
3570.34,0.152378
3572.8,0.152649
3575.27,0.152923
3577.73,0.153188
3580.2,0.153648
3582.68,0.154004
3585.16,0.154171
3587.64,0.154328
3590.12,0.1546
3592.61,0.15496
3595.1,0.155263
3597.6,0.155423
3600.09,0.155653
3602.6,0.156065
3605.1,0.156386
3607.61,0.156548
3610.12,0.156777
3612.64,0.157089
3615.16,0.157359
3617.68,0.157663
3620.21,0.157913
3622.74,0.158176
3625.27,0.15855
3627.81,0.158762
3630.35,0.158951
3632.89,0.159296
3635.44,0.159544
3637.99,0.159776
3640.54,0.159976
3643.1,0.160246
3645.66,0.160628
3648.23,0.160989
3650.8,0.161249
3653.37,0.16143
3655.95,0.16172
3658.53,0.161988
3661.11,0.162208
3663.7,0.162595
3666.29,0.162824
3668.89,0.163048
3671.48,0.163276
3674.09,0.163492
3676.69,0.163783
3679.3,0.16408
3681.91,0.164358
3684.53,0.164546
3687.15,0.164754
3689.78,0.164893
3692.4,0.165129
3695.04,0.165491
3697.67,0.165972
3700.31,0.166107
3702.95,0.1662
3705.6,0.166498
3708.25,0.166768
3710.91,0.166913
3713.56,0.167201
3716.23,0.167454
3718.89,0.167584
3721.56,0.16782
3724.23,0.168147
3726.91,0.168343
3729.59,0.168563
3732.28,0.168871
3734.97,0.169122
3737.66,0.16927
3740.36,0.169516
3743.06,0.169884
3745.76,0.170135
3748.47,0.170365
3751.18,0.170565
3753.9,0.170732
3756.62,0.170911
3759.34,0.171081
3762.07,0.171351
3764.8,0.171669
3767.54,0.171902
3770.28,0.172122
3773.02,0.172368
3775.77,0.172724
3778.52,0.172902
3781.28,0.173103
3784.04,0.173274
3786.8,0.173373
3789.57,0.17367
3792.34,0.173945
3795.12,0.174199
3797.9,0.174433
3800.69,0.174632
3803.47,0.174808
3806.27,0.175067
3809.06,0.175289
3811.86,0.175506
3814.67,0.175681
3817.48,0.175984
3820.29,0.176223
3823.11,0.17635
3825.93,0.176507
3828.76,0.176797
3831.59,0.177076
3834.42,0.177275
3837.26,0.177471
3840.1,0.177692
3842.95,0.17793
3845.8,0.178083
3848.65,0.178179
3851.51,0.178399
3854.38,0.178648
3857.24,0.17894
3860.12,0.179138
3862.99,0.179318
3865.87,0.17952
3868.76,0.179759
3871.65,0.179952
3874.54,0.180119
3877.44,0.180323
3880.34,0.180584
3883.25,0.180817
3886.16,0.181073
3889.07,0.181298
3891.99,0.181517
3894.92,0.181609
3897.85,0.181755
3900.78,0.181978
3903.72,0.182213
3906.66,0.182298
3909.6,0.182461
3912.55,0.182705
3915.51,0.182821
3918.47,0.182975
3921.43,0.183206
3924.4,0.183484
3927.38,0.183798
3930.35,0.184042
3933.33,0.184087
3936.32,0.184166
3939.31,0.184319
3942.31,0.184547
3945.31,0.184749
3948.31,0.184874
3951.32,0.184996
3954.34,0.18517
3957.35,0.185342
3960.38,0.185415
3963.41,0.185517
3966.44,0.185794
3969.48,0.185983
3972.52,0.186183
3975.56,0.186381
3978.61,0.186487
3981.67,0.186656
3984.73,0.186827
3987.8,0.187015
3990.87,0.187061
3993.94,0.187197
3997.02,0.187445
4000.1,0.187707
4003.19,0.187817
4006.29,0.187938
4009.39,0.188073
4012.49,0.18818
4015.6,0.188383
4018.71,0.188675
4021.83,0.188847
4024.95,0.188892
4028.08,0.189028
4031.21,0.189222
4034.35,0.189376
4037.49,0.189507
4040.64,0.189708
4043.79,0.189836
4046.94,0.189943
4050.11,0.190205
4053.27,0.19039
4056.44,0.190409
4059.62,0.190549
4062.8,0.190682
4065.99,0.190746
4069.18,0.190855
4072.38,0.190968
4075.58,0.1911
4078.78,0.191211
4082.0,0.191294
4085.21,0.191559
4088.43,0.191608
4091.66,0.191678
4094.89,0.191827
4098.13,0.191925
4101.37,0.192058
4104.62,0.19214
4107.87,0.192238
4111.13,0.192364
4114.39,0.192386
4117.66,0.192518
4120.93,0.192743
4124.21,0.1928
4127.5,0.192773
4130.79,0.192934
4134.08,0.193031
4137.38,0.193117
4140.68,0.193261
4143.99,0.193374
4147.31,0.193402
4150.63,0.19342
4153.95,0.193667
4157.29,0.193777
4160.62,0.193718
4163.96,0.193722
4167.31,0.193732
4170.66,0.193772
4174.02,0.193966
4177.39,0.194125
4180.75,0.194211
4184.13,0.194228
4187.51,0.194326
4190.89,0.194378
4194.28,0.194385
4197.68,0.194358
4201.08,0.194403
4204.49,0.194508
4207.9,0.194529
4211.32,0.194492
4214.74,0.194412
4218.17,0.194273
4221.61,0.194152
4225.05,0.194111
4228.5,0.194207
4231.95,0.194191
4235.4,0.19425
4238.87,0.194334
4242.34,0.194314
4245.81,0.194474
4249.29,0.194705
4252.78,0.194916
4256.27,0.195225
4259.77,0.195395
4263.27,0.195254
4266.78,0.195004
4270.29,0.194982
4273.81,0.195056
4277.34,0.19517
4280.87,0.195339
4284.41,0.195494
4287.95,0.195531
4291.5,0.195471
4295.06,0.195459
4298.62,0.195581
4302.19,0.195771
4305.76,0.195953
4309.34,0.196078
4312.92,0.196078
4316.52,0.196093
4320.11,0.196255
4323.72,0.196407
4327.32,0.196492
4330.94,0.196518
4334.56,0.196532
4338.19,0.196533
4341.82,0.19656
4345.46,0.196722
4349.11,0.196852
4352.76,0.19681
4356.42,0.196852
4360.08,0.19706
4363.75,0.197059
4367.43,0.196985
4371.11,0.196979
4374.8,0.196938
4378.49,0.196962
4382.19,0.197082
4385.9,0.19722
4389.61,0.197352
4393.33,0.197259
4397.06,0.19721
4400.79,0.197296
4404.53,0.197393
4408.28,0.197383
4412.03,0.197335
4415.79,0.197305
4419.55,0.19731
4423.32,0.197371
4427.1,0.197408
4430.88,0.197362
4434.68,0.197409
4438.47,0.197518
4442.28,0.197577
4446.08,0.197511
4449.9,0.197497
4453.72,0.197468
4457.55,0.197404
4461.39,0.197314
4465.23,0.197326
4469.08,0.19738
4472.94,0.19737
4476.8,0.197396
4480.67,0.197401
4484.55,0.197338
4488.43,0.197277
4492.32,0.19726
4496.21,0.197324
4500.12,0.197344
4504.03,0.197292
4507.94,0.197256
4511.87,0.197166
4515.8,0.19708
4519.73,0.19701
4523.68,0.196936
4527.63,0.196978
4531.59,0.197064
4535.55,0.196984
4539.52,0.196869
4543.5,0.196904
4547.49,0.196837
4551.48,0.19672
4555.48,0.196748
4559.49,0.196717
4563.5,0.196582
4567.52,0.196627
4571.55,0.196571
4575.58,0.196452
4579.63,0.196502
4583.67,0.196556
4587.73,0.196416
4591.79,0.196266
4595.86,0.196273
4599.94,0.196246
4604.03,0.196159
4608.12,0.196092
4612.22,0.196029
4616.33,0.195904
4620.44,0.195858
4624.56,0.195862
4628.69,0.195702
4632.83,0.195618
4636.97,0.195597
4641.12,0.195426
4645.28,0.195278
4649.45,0.195186
4653.62,0.19512
4657.8,0.195025
4661.99,0.194939
4666.19,0.194914
4670.39,0.194797
4674.6,0.194705
4678.82,0.194613
4683.05,0.194478
4687.28,0.194309
4691.52,0.194166
4695.77,0.194097
4700.03,0.193949
4704.3,0.193825
4708.57,0.193711
4712.85,0.193587
4717.14,0.193466
4721.43,0.193309
4725.74,0.193156
4730.05,0.193011
4734.37,0.192834
4738.7,0.192574
4743.03,0.19239
4747.38,0.192294
4751.73,0.19212
4756.09,0.191932
4760.45,0.191685
4764.83,0.19152
4769.21,0.191328
4773.6,0.191104
4778.0,0.190957
4782.41,0.190839
4786.83,0.190589
4791.25,0.19035
4795.68,0.190165
4800.13,0.189955
4804.57,0.189691
4809.03,0.18943
4813.5,0.189177
4817.97,0.189059
4822.45,0.18895
4826.94,0.188737
4831.44,0.188535
4835.95,0.188346
4840.46,0.188142
4844.99,0.187902
4849.52,0.187686
4854.06,0.187477
4858.61,0.187268
4863.17,0.187138
4867.73,0.187063
4872.31,0.18695
4876.89,0.18676
4881.48,0.186602
4886.08,0.186407
4890.69,0.186175
4895.31,0.186027
4899.94,0.185922
4904.57,0.185712
4909.22,0.185453
4913.87,0.185264
4918.53,0.185047
4923.21,0.184781
4927.88,0.184611
4932.57,0.184414
4937.27,0.184256
4941.98,0.183973
4946.69,0.183752
4951.42,0.183644
4956.15,0.183532
4960.9,0.183345
4965.65,0.183118
4970.41,0.182869
4975.18,0.182652
4979.96,0.182516
4984.75,0.182345
4989.54,0.182118
4994.35,0.181861
4999.17,0.18168
5003.99,0.181497
5008.83,0.181216
5013.67,0.180991
5018.52,0.180709
5023.39,0.180466
5028.26,0.180374
5033.14,0.180245
5038.03,0.180058
5042.93,0.179935
5047.84,0.179744
5052.76,0.179515
5057.69,0.179293
5062.63,0.179166
5067.58,0.179027
5072.54,0.178749
5077.51,0.1785
5082.49,0.178333
5087.47,0.178178
5092.47,0.178019
5097.48,0.177714
5102.5,0.177466
5107.52,0.177311
5112.56,0.177172
5117.61,0.176996
5122.66,0.176832
5127.73,0.176539
5132.81,0.17635
5137.89,0.176156
5142.99,0.175829
5148.1,0.175459
5153.22,0.175292
5158.34,0.175441
5163.48,0.175285
5168.63,0.174959
5173.79,0.174778
5178.96,0.174649
5184.13,0.174491
5189.32,0.174333
5194.52,0.174177
5199.73,0.173899
5204.96,0.173655
5210.19,0.173632
5215.43,0.173329
5220.68,0.173271
5225.94,0.173276
5231.22,0.173143
5236.5,0.172919
5241.79,0.172681
5247.1,0.172635
5252.42,0.172596
5257.74,0.172533
5263.08,0.172328
5268.43,0.172152
5273.79,0.172061
5279.16,0.171945
5284.54,0.1719
5289.93,0.171671
5295.34,0.171416
5300.75,0.171489
5306.18,0.171439
5311.61,0.171265
5317.06,0.171246
5322.52,0.171188
5327.99,0.171003
5333.47,0.170877
5338.96,0.17082
5344.47,0.170656
5349.98,0.17036
5355.51,0.17023
5361.05,0.170403
5366.6,0.170465
5372.16,0.170318
5377.73,0.170153
5383.32,0.170056
5388.91,0.169955
5394.52,0.169895
5400.14,0.169786
5405.77,0.169701
5411.41,0.169603
5417.07,0.1694
5422.74,0.168915
5428.41,0.168865
5434.1,0.169269
5439.81,0.169166
5445.52,0.169081
5451.25,0.16898
5456.98,0.168798
5462.73,0.168457
5468.5,0.168127
5474.27,0.168281
5480.06,0.168166
5485.86,0.168082
5491.67,0.168152
5497.49,0.167951
5503.33,0.167805
5509.18,0.167659
5515.04,0.167673
5520.91,0.1675
5526.8,0.167403
5532.69,0.167408
5538.61,0.16738
5544.53,0.167222
5550.47,0.16706
5556.41,0.166886
5562.38,0.166954
5568.35,0.167024
5574.34,0.166929
5580.34,0.166557
5586.35,0.166671
5592.38,0.167026
5598.42,0.166961
5604.47,0.166726
5610.54,0.166799
5616.61,0.166703
5622.71,0.166639
5628.81,0.16672
5634.93,0.166597
5641.06,0.166084
5647.21,0.165773
5653.36,0.166347
5659.54,0.166421
5665.72,0.166598
5671.92,0.166504
5678.13,0.166032
5684.36,0.166183
5690.6,0.166393
5696.85,0.166285
5703.12,0.166622
5709.4,0.166376
5715.69,0.166074
5722.0,0.166396
5728.33,0.166709
5734.66,0.166916
5741.01,0.166932
5747.38,0.166757
5753.76,0.166619
5760.15,0.166818
5766.56,0.165858
5772.98,0.165597
5779.41,0.166351
5785.86,0.166142
5792.33,0.165937
5798.81,0.165686
5805.3,0.16533
5811.81,0.16511
5818.33,0.164479
5824.87,0.163572
5831.42,0.163739
5837.99,0.163922
5844.57,0.1638
5851.17,0.163467
5857.78,0.163094
5864.41,0.162579
5871.05,0.1624
5877.7,0.162008
5884.38,0.160665
5891.06,0.161184
5897.76,0.160952
5904.48,0.160689
5911.21,0.161039
5917.96,0.160439
5924.73,0.159967
5931.5,0.159429
5938.3,0.158158
5945.11,0.157866
5951.93,0.158372
5958.78,0.157913
5965.63,0.15735
5972.51,0.15642
5979.39,0.156532
5986.3,0.156347
5993.22,0.155871
6000.16,0.15628
6007.11,0.156614
6014.08,0.156193
6021.06,0.156136
6028.06,0.156456
6035.08,0.156428
6042.12,0.15605
6049.17,0.154723
6056.23,0.154522
6063.32,0.156254
6070.42,0.155709
6077.53,0.155033
6084.67,0.155558
6091.82,0.15575
6098.98,0.155453
6106.17,0.155184
6113.37,0.154434
6120.58,0.154249
6127.82,0.155079
6135.07,0.15518
6142.34,0.154924
6149.63,0.154868
6156.93,0.154861
6164.25,0.154667
6171.59,0.155204
6178.95,0.15553
6186.32,0.155161
6193.71,0.155498
6201.12,0.156392
6208.54,0.156513
6215.99,0.156744
6223.45,0.157021
6230.93,0.15742
6238.43,0.157686
6245.95,0.158075
6253.48,0.158347
6261.03,0.158532
6268.6,0.158614
6276.19,0.158879
6283.8,0.159136
6291.43,0.159343
6299.07,0.159518
6306.73,0.159874
6314.42,0.160092
6322.12,0.160297
6329.84,0.1605
6337.57,0.160636
6345.33,0.160243
6353.11,0.160703
6360.9,0.161561
6368.72,0.161288
6376.55,0.161085
6384.4,0.161714
6392.27,0.161917
6400.17,0.162117
6408.08,0.161865
6416.01,0.160688
6423.96,0.161404
6431.93,0.1628
6439.92,0.162936
6447.93,0.163433
6455.96,0.163393
6464.01,0.163589
6472.08,0.163458
6480.17,0.163123
6488.28,0.162918
6496.41,0.162477
6504.56,0.16332
6512.73,0.164451
6520.92,0.163912
6529.14,0.163732
6537.37,0.164276
6545.63,0.164087
6553.9,0.163596
6562.2,0.163508
6570.51,0.163325
6578.85,0.162823
6587.21,0.163389
6595.59,0.163239
6603.99,0.163272
6612.42,0.1634
6620.86,0.163113
6629.33,0.162717
6637.82,0.161662
6646.33,0.161757
6654.86,0.162957
6663.41,0.162885
6671.99,0.162297
6680.59,0.161827
6689.21,0.161729
6697.85,0.162052
6706.51,0.161763
6715.2,0.161244
6723.91,0.161274
6732.64,0.161413
6741.4,0.161511
6750.18,0.161354
6758.98,0.161147
6767.8,0.161054
6776.65,0.160683
6785.52,0.160394
6794.41,0.16001
6803.33,0.160383
6812.27,0.160706
6821.23,0.160433
6830.22,0.160029
6839.23,0.160098
6848.26,0.160171
6857.32,0.159522
6866.4,0.158758
6875.51,0.15941
6884.64,0.160026
6893.8,0.159769
6902.98,0.159544
6912.18,0.15938
6921.41,0.159547
6930.66,0.159566
6939.94,0.159527
6949.24,0.159461
6958.57,0.159008
6967.92,0.158707
6977.3,0.159318
6986.7,0.159271
6996.13,0.159155
7005.59,0.159304
7015.07,0.159493
7024.57,0.159456
7034.1,0.159651
7043.66,0.159604
7053.25,0.159505
7062.85,0.16022
7072.49,0.160672
7082.15,0.160918
7091.84,0.161095
7101.55,0.161365
7111.3,0.161539
7121.06,0.161532
7130.86,0.161723
7140.68,0.161977
7150.53,0.16179
7160.41,0.161797
7170.31,0.16172
7180.24,0.161608
7190.2,0.161816
7200.19,0.161669
7210.2,0.161228
7220.24,0.161002
7230.31,0.160916
7240.41,0.160652
7250.54,0.160417
7260.69,0.160171
7270.88,0.159923
7281.09,0.159488
7291.33,0.159301
7301.6,0.159248
7311.9,0.159111
7322.22,0.158903
7332.58,0.158593
7342.97,0.158277
7353.38,0.158315
7363.83,0.158327
7374.3,0.158278
7384.81,0.158191
7395.34,0.158124
7405.91,0.158036
7416.5,0.158089
7427.13,0.158146
7437.78,0.1581
7448.47,0.158063
7459.19,0.158059
7469.94,0.157965
7480.71,0.15799
7491.52,0.157968
7502.37,0.157918
7513.24,0.15789
7524.14,0.15769
7535.08,0.15746
7546.05,0.157314
7557.05,0.157161
7568.08,0.156891
7579.15,0.156505
7590.24,0.156193
7601.37,0.15599
7612.53,0.155574
7623.73,0.155243
7634.96,0.155065
7646.22,0.154692
7657.51,0.154224
7668.84,0.153859
7680.2,0.153597
7691.59,0.153178
7703.02,0.152825
7714.49,0.152581
7725.98,0.152277
7737.52,0.151931
7749.08,0.15154
7760.68,0.15113
7772.32,0.150794
7783.99,0.150418
7795.69,0.150041
7807.43,0.149627
7819.21,0.149221
7831.02,0.148765
7842.87,0.14831
7854.75,0.147747
7866.67,0.147139
7878.62,0.146559
7890.62,0.14596
7902.64,0.14532
7914.71,0.144698
7926.81,0.144104
7938.95,0.143387
7951.13,0.14269
7963.34,0.142034
7975.59,0.141244
7987.88,0.140534
8000.21,0.13976
8012.57,0.138894
8024.98,0.137975
8037.42,0.137055
8049.9,0.136153
8062.42,0.135204
8074.98,0.134205
8087.57,0.133232
8100.21,0.132192
8112.89,0.131021
8125.6,0.129836
8138.36,0.12858
8151.16,0.127076
8163.99,0.125673
8176.87,0.124292
8189.79,0.12279
8202.75,0.12135
8215.75,0.119947
8228.79,0.118484
8241.87,0.117105
8254.99,0.115611
8268.16,0.114178
8281.37,0.112846
8294.62,0.111498
8307.91,0.110103
8321.24,0.10874
8334.62,0.107423
8348.04,0.106249
8361.51,0.104991
8375.02,0.103761
8388.57,0.102727
8402.16,0.101925
8415.8,0.100989
8429.49,0.100162
8443.22,0.099392
8456.99,0.098548
8470.81,0.097757
8484.67,0.096999
8498.58,0.096183
8512.54,0.095354
8526.54,0.094515
8540.58,0.093701
8554.68,0.09278
8568.82,0.091916
8583.0,0.091023
8597.24,0.090097
8611.52,0.08918
8625.85,0.088295
8640.23,0.087395
8654.65,0.08655
8669.12,0.085703
8683.64,0.084924
8698.21,0.084145
8712.83,0.083477
8727.5,0.082833
8742.22,0.082266
8756.99,0.081556
8771.8,0.080767
8786.67,0.080087
8801.59,0.079575
8816.56,0.078989
8831.58,0.078489
8846.65,0.077955
8861.77,0.07749
8876.94,0.076943
8892.17,0.076436
8907.45,0.075976
8922.78,0.075471
8938.16,0.074886
8953.6,0.074495
8969.09,0.073988
8984.64,0.073529
9000.23,0.073023
9015.89,0.07259
9031.59,0.072138
9047.36,0.071623
9063.17,0.070916
9079.05,0.070372
9094.97,0.06982
9110.96,0.069407
9127.0,0.068882
9143.1,0.068333
9159.25,0.067782
9175.46,0.067308
9191.73,0.066755
9208.06,0.066114
9224.44,0.065473
9240.88,0.065028
9257.38,0.064475
9273.94,0.063782
9290.56,0.06313
9307.24,0.062465
9323.98,0.061935
9340.78,0.061472
9357.64,0.060728
9374.57,0.06005
9391.55,0.059356
9408.59,0.058842
9425.7,0.058298
9442.87,0.057718
9460.1,0.057444
9477.4,0.057371
9494.75,0.057122
9512.17,0.056962
9529.66,0.056981
9547.21,0.057056
9564.83,0.057014
9582.5,0.056971
9600.25,0.056908
9618.06,0.057012
9635.94,0.056973
9653.88,0.056851
9671.89,0.056834
9689.97,0.056946
9708.12,0.057069
9726.33,0.05723
9744.62,0.057075
9762.97,0.056929
9781.39,0.056862
9799.88,0.056709
9818.44,0.056492
9837.07,0.056544
9855.77,0.056751
9874.54,0.057108
9893.39,0.057491
9912.3,0.057962
9931.29,0.058425
9950.36,0.058785
9969.49,0.059161
9988.7,0.059716
10007.98,0.060286
10027.34,0.060849
10046.77,0.061441
10066.28,0.062178
10085.87,0.062879
10105.53,0.063667
10125.26,0.064493
10145.08,0.065216
10164.97,0.065827
10184.94,0.066554
10204.99,0.067193
10225.12,0.06785
10245.33,0.068571
10265.61,0.069373
10285.98,0.070009
10306.43,0.070543
10326.96,0.071028
10347.57,0.071493
10368.27,0.071883
10389.05,0.072355
10409.91,0.072831
10430.86,0.073213
10451.88,0.073676
10473.0,0.074115
10494.2,0.074448
10515.49,0.074824
10536.86,0.075159
10558.32,0.075297
10579.87,0.07525
10601.5,0.075335
10623.23,0.075442
10645.04,0.075442
10666.94,0.075246
10688.94,0.074913
10711.02,0.074523
10733.2,0.074309
10755.47,0.074142
10777.83,0.073827
10800.28,0.073543
10822.83,0.073304
10845.47,0.07297
10868.21,0.072582
10891.04,0.072137
10913.97,0.07171
10936.99,0.071255
10960.12,0.071114
10983.34,0.070936
11006.66,0.070672
11030.07,0.070421
11053.59,0.070338
11077.21,0.070331
11100.93,0.070144
11124.75,0.069839
11148.68,0.069615
11172.71,0.069514
11196.84,0.069531
11221.07,0.069272
11245.41,0.068956
11269.86,0.068753
11294.41,0.068557
11319.07,0.068389
11343.84,0.068416
11368.72,0.068337
11393.7,0.06821
11418.8,0.068021
11444.01,0.06765
11469.33,0.067308
11494.76,0.067169
11520.3,0.066937
11545.96,0.066578
11571.73,0.066221
11597.62,0.065955
11623.62,0.065626
11649.74,0.065336
11675.98,0.065225
11702.34,0.065154
11728.81,0.064842
11755.41,0.064489
11782.13,0.064244
11808.96,0.064108
11835.92,0.063857
11863.01,0.06358
11890.22,0.063379
11917.55,0.063447
11945.01,0.063389
11972.6,0.063214
12000.31,0.063041
12028.16,0.062814
12056.13,0.062607
12084.23,0.062461
12112.46,0.062362
12140.83,0.062375
12169.33,0.062347
12197.96,0.06233
12226.73,0.062199
12255.64,0.0621
12284.68,0.062064
12313.86,0.06217
12343.18,0.062097
12372.64,0.061991
12402.24,0.062106
12431.98,0.062156
12461.86,0.062189
12491.89,0.062389
12522.07,0.0625
12552.38,0.06273
12582.85,0.063022
12613.47,0.063255
12644.23,0.063559
12675.15,0.063999
12706.21,0.064304
12737.43,0.064661
12768.81,0.065082
12800.33,0.065647
12832.02,0.06625
12863.86,0.066905
12895.86,0.067405
12928.02,0.067853
12960.34,0.068471
12992.82,0.069113
13025.46,0.06972
13058.27,0.070428
13091.25,0.071227
13124.39,0.0719
13157.7,0.072299
13191.18,0.072836
13224.83,0.073469
13258.66,0.074043
13292.65,0.074569
13326.83,0.075022
13361.17,0.075463
13395.7,0.075763
13430.4,0.075944
13465.29,0.076077
13500.35,0.076289
13535.6,0.076666
13571.03,0.076918
13606.65,0.077138
13642.46,0.077301
13678.46,0.077428
13714.64,0.077823
13751.02,0.078081
13787.59,0.078194
13824.36,0.078288
13861.32,0.078545
13898.49,0.078939
13935.85,0.079185
13973.41,0.079417
14011.17,0.079697
14049.15,0.080023
14087.32,0.080095
14125.71,0.080023
14164.3,0.079991
14203.11,0.080094
14242.13,0.080173
14281.36,0.080208
14320.81,0.07982
14360.49,0.079429
14400.38,0.079156
14440.49,0.079132
14480.82,0.07917
14521.39,0.079316
14562.18,0.079367
14603.2,0.079416
14644.45,0.07957
14685.93,0.079843
14727.66,0.08045
14769.62,0.081075
14811.81,0.081319
14854.25,0.081451
14896.94,0.081832
14939.87,0.082492
14983.05,0.08286
15026.48,0.083082
15070.16,0.083646
15114.1,0.084103
15158.29,0.084562
15202.74,0.085189
15247.46,0.085628
15292.43,0.086155
15337.68,0.086546
15383.19,0.086825
15428.97,0.087236
15475.03,0.087494
15521.36,0.087617
15567.97,0.08814
15614.87,0.088603
15662.04,0.088562
15709.5,0.088454
15757.25,0.088576
15805.29,0.08878
15853.62,0.089188
15902.26,0.089671
15951.19,0.090004
16000.42,0.090199
16049.95,0.090494
16099.8,0.090768
16149.95,0.091296
16200.42,0.091665
16251.21,0.091917
16302.31,0.092082
16353.74,0.091988
16405.49,0.091384
16457.57,0.090473
16509.98,0.089295
16562.73,0.08783
16615.82,0.086577
16669.24,0.085471
16723.02,0.084129
16777.14,0.083015
16831.61,0.08221
16886.43,0.08177
16941.62,0.081592
16997.16,0.081392
17053.08,0.080993
17109.36,0.080521
17166.01,0.080257
17223.04,0.080466
17280.45,0.080654
17338.24,0.080601
17396.43,0.08066
17455.0,0.080667
17513.97,0.08086
17573.34,0.081154
17633.11,0.08145
17693.29,0.081716
17753.89,0.082143
17814.9,0.082556
17876.33,0.082825
17938.18,0.083184
18000.47,0.083184
18063.19,0.083256
18126.35,0.083531
18189.95,0.083715
18254.0,0.08389
18318.5,0.084151
18383.46,0.084206
18448.88,0.084379
18514.77,0.084329
18581.13,0.083974
18647.97,0.083562
18715.29,0.083596
18783.1,0.083472
18851.4,0.082839
18920.2,0.082203
18989.51,0.081721
19059.32,0.080894
19129.65,0.080381
19200.5,0.080063
19271.88,0.079403
19343.79,0.079037
19416.24,0.078861
19489.23,0.07876
19562.77,0.078594
19636.88,0.079218
19711.54,0.080126
19786.78,0.081284
19862.59,0.082286
19938.98,0.083408
20015.96,0.084694
20093.55,0.085985
20171.73,0.08763
20250.53,0.088626
20329.94,0.089926
20409.98,0.091272
20490.65,0.092545
20571.96,0.093677
20653.92,0.095034
20736.54,0.096041
20819.82,0.096373
20903.77,0.096643
20988.4,0.09739
21073.72,0.097963
21159.73,0.098153
21246.46,0.098262
21333.89,0.09876
21422.04,0.098586
21510.93,0.098778
21600.56,0.099433
21690.94,0.09972
21782.08,0.098964
21873.99,0.098939
21966.67,0.099547
22060.15,0.099344
22154.42,0.098317
22249.51,0.098545
22345.41,0.098765
22442.14,0.098196
22539.72,0.098179
22638.14,0.098119
22737.43,0.097556
22837.6,0.096608
22938.65,0.095516
23040.6,0.094298
23143.46,0.093212
23247.24,0.092878
23351.96,0.093016
23457.63,0.093632
23564.25,0.093577
23671.85,0.093302
23780.44,0.094009
23890.02,0.094223
24000.63,0.093033
24112.26,0.092796
24224.93,0.093542
24338.66,0.09382
24453.47,0.094068
24569.36,0.094562
24686.36,0.094993
24804.47,0.095388
24923.73,0.097057
25044.13,0.098334
25165.71,0.096266
25288.46,0.09821
25412.43,0.100515
25537.61,0.101085
25664.04,0.102001
25791.72,0.100364
25920.68,0.099587
