Database of Origin,University of Winnipeg Spectrophotometer Facility
Sample Description,Carbonates and Oxolates - RELAB+Nicolet spectra - Newly merged spectra (merged by RELAB)
Other Information,merged at 2.570 um.
Date Added,2018-08-06 20:57:54.405318

Data ID,RLA_CARB_11_1       
Sample ID,CRB115
Mineral Name,Huntite
Locality,Tea Tree Gully/ South Australia/ Australia
Grain Size,<45 um
Viewing Geometry,30/0 and 30
Resolution,1.2-129 nm
Formula,Mg3Ca(CO3)4
Composition,Pure Hunite

Wavelength
305.0,0.75204
310.0,0.75432
315.0,0.76272
320.0,0.76531
325.0,0.77546
330.0,0.7771
335.0,0.78572
340.0,0.79054
345.0,0.79436
350.0,0.80131
355.0,0.80718
360.0,0.81304
365.0,0.82631
370.0,0.82189
375.0,0.82608
380.0,0.83115
385.0,0.83566
390.0,0.83937
395.0,0.84314
400.0,0.84656
405.0,0.84954
410.0,0.85285
415.0,0.8557
420.0,0.85915
425.0,0.86225
430.0,0.86601
435.0,0.86969
440.0,0.87392
445.0,0.87563
450.0,0.88002
455.0,0.88248
460.0,0.88547
465.0,0.88818
470.0,0.89046
475.0,0.89166
480.0,0.89418
485.0,0.89659
490.0,0.89856
495.0,0.9007
500.0,0.90414
505.0,0.90573
510.0,0.90768
515.0,0.90948
520.0,0.91179
525.0,0.91346
530.0,0.91548
535.0,0.91669
540.0,0.91891
545.0,0.91938
550.0,0.92103
555.0,0.92158
560.0,0.92342
565.0,0.92422
570.0,0.92529
575.0,0.92505
580.0,0.92677
585.0,0.92709
590.0,0.92756
595.0,0.9279
600.0,0.92835
605.0,0.92856
610.0,0.92869
615.0,0.92878
620.0,0.92883
625.0,0.92903
630.0,0.92948
635.0,0.92912
640.0,0.92937
645.0,0.9289
650.0,0.92989
655.0,0.92977
660.0,0.92994
665.0,0.93047
670.0,0.92997
675.0,0.93087
680.0,0.93072
685.0,0.93132
690.0,0.93086
695.0,0.93164
700.0,0.93169
705.0,0.93182
710.0,0.93146
715.0,0.93196
720.0,0.93184
725.0,0.93187
730.0,0.93201
735.0,0.93184
740.0,0.9324
745.0,0.93229
750.0,0.93301
755.0,0.93242
760.0,0.93248
765.0,0.93319
770.0,0.93334
775.0,0.93382
780.0,0.93405
785.0,0.93394
790.0,0.93406
795.0,0.93441
800.0,0.93472
805.0,0.93514
810.0,0.93571
815.0,0.93558
820.0,0.93518
825.0,0.93615
830.0,0.93542
835.0,0.93596
840.0,0.93597
845.0,0.93634
850.0,0.93695
855.0,0.93724
860.0,0.93611
865.0,0.93645
870.0,0.9377
875.0,0.93608
880.0,0.93747
885.0,0.93785
890.0,0.93795
895.0,0.93785
900.0,0.93783
905.0,0.93873
910.0,0.93825
915.0,0.93845
920.0,0.94
925.0,0.93921
930.0,0.93938
935.0,0.93918
940.0,0.93963
945.0,0.93989
950.0,0.94002
955.0,0.94052
960.0,0.9398
965.0,0.9401
970.0,0.94051
975.0,0.94086
980.0,0.93994
985.0,0.94119
990.0,0.94164
995.0,0.94154
1000.0,0.94033
1005.0,0.94169
1010.0,0.94067
1015.0,0.9425
1020.0,0.9401
1025.0,0.94107
1030.0,0.94201
1035.0,0.94189
1040.0,0.94192
1045.0,0.9418
1050.0,0.94263
1055.0,0.94263
1060.0,0.94225
1065.0,0.94314
1070.0,0.94371
1075.0,0.94313
1080.0,0.9431
1085.0,0.9428
1090.0,0.94341
1095.0,0.94356
1100.0,0.94269
1105.0,0.94425
1110.0,0.9437
1115.0,0.944
1120.0,0.94405
1125.0,0.94466
1130.0,0.94388
1135.0,0.94448
1140.0,0.94471
1145.0,0.94464
1150.0,0.94497
1155.0,0.94443
1160.0,0.9449
1165.0,0.9447
1170.0,0.94495
1175.0,0.94528
1180.0,0.94439
1185.0,0.94502
1190.0,0.94546
1195.0,0.94513
1200.0,0.94616
1205.0,0.946
1210.0,0.94599
1215.0,0.94628
1220.0,0.94643
1225.0,0.94521
1230.0,0.94656
1235.0,0.94641
1240.0,0.94545
1245.0,0.94557
1250.0,0.94607
1255.0,0.94644
1260.0,0.94548
1265.0,0.94594
1270.0,0.94642
1275.0,0.94578
1280.0,0.94567
1285.0,0.94583
1290.0,0.94565
1295.0,0.94617
1300.0,0.9451
1305.0,0.94573
1310.0,0.94585
1315.0,0.94549
1320.0,0.94526
1325.0,0.94613
1330.0,0.94539
1335.0,0.94588
1340.0,0.94538
1345.0,0.94574
1350.0,0.94487
1355.0,0.94439
1360.0,0.94403
1365.0,0.94371
1370.0,0.94424
1375.0,0.94399
1380.0,0.94358
1385.0,0.94317
1390.0,0.94339
1395.0,0.94367
1400.0,0.94264
1405.0,0.9427
1410.0,0.94279
1415.0,0.94316
1420.0,0.94305
1425.0,0.94319
1430.0,0.94273
1435.0,0.94225
1440.0,0.9423
1445.0,0.94308
1450.0,0.94227
1455.0,0.94188
1460.0,0.9417
1465.0,0.94183
1470.0,0.94242
1475.0,0.94165
1480.0,0.94145
1485.0,0.94199
1490.0,0.94184
1495.0,0.94194
1500.0,0.94143
1505.0,0.94117
1510.0,0.94084
1515.0,0.94244
1520.0,0.94148
1525.0,0.94223
1530.0,0.94198
1535.0,0.94175
1540.0,0.94266
1545.0,0.94263
1550.0,0.94309
1555.0,0.94305
1560.0,0.94265
1565.0,0.94284
1570.0,0.94317
1575.0,0.94252
1580.0,0.94287
1585.0,0.94174
1590.0,0.94207
1595.0,0.94298
1600.0,0.94289
1605.0,0.94144
1610.0,0.94173
1615.0,0.94222
1620.0,0.9416
1625.0,0.94186
1630.0,0.94154
1635.0,0.9409
1640.0,0.94174
1645.0,0.94119
1650.0,0.9418
1655.0,0.94168
1660.0,0.94131
1665.0,0.94154
1670.0,0.93951
1675.0,0.93989
1680.0,0.93961
1685.0,0.93949
1690.0,0.9395
1695.0,0.93989
1700.0,0.94103
1705.0,0.93965
1710.0,0.93905
1715.0,0.93925
1720.0,0.93848
1725.0,0.93885
1730.0,0.93797
1735.0,0.9378
1740.0,0.93747
1745.0,0.93688
1750.0,0.9373
1755.0,0.93734
1760.0,0.93816
1765.0,0.93523
1770.0,0.93605
1775.0,0.93574
1780.0,0.93542
1785.0,0.93625
1790.0,0.93527
1795.0,0.93458
1800.0,0.93511
1805.0,0.93488
1810.0,0.93359
1815.0,0.93399
1820.0,0.93319
1825.0,0.93238
1830.0,0.93172
1835.0,0.93149
1840.0,0.9318
1845.0,0.93138
1850.0,0.93131
1855.0,0.93074
1860.0,0.93057
1865.0,0.92974
1870.0,0.9297
1875.0,0.92727
1880.0,0.92637
1885.0,0.92469
1890.0,0.92293
1895.0,0.92127
1900.0,0.9202
1905.0,0.91798
1910.0,0.91774
1915.0,0.91613
1920.0,0.9141
1925.0,0.91446
1930.0,0.91095
1935.0,0.91021
1940.0,0.91069
1945.0,0.90955
1950.0,0.90781
1955.0,0.90759
1960.0,0.90719
1965.0,0.90727
1970.0,0.90765
1975.0,0.90679
1980.0,0.90679
1985.0,0.90776
1990.0,0.90725
1995.0,0.90712
2000.0,0.90631
2005.0,0.90731
2010.0,0.90755
2015.0,0.90858
2020.0,0.90834
2025.0,0.9087
2030.0,0.9069
2035.0,0.9079
2040.0,0.90754
2045.0,0.90759
2050.0,0.90775
2055.0,0.90844
2060.0,0.90866
2065.0,0.90752
2070.0,0.90833
2075.0,0.90876
2080.0,0.90851
2085.0,0.90811
2090.0,0.90872
2095.0,0.90846
2100.0,0.90837
2105.0,0.90885
2110.0,0.90947
2115.0,0.90896
2120.0,0.90752
2125.0,0.90905
2130.0,0.90939
2135.0,0.90894
2140.0,0.9066
2145.0,0.90749
2150.0,0.9071
2155.0,0.90714
2160.0,0.90574
2165.0,0.90542
2170.0,0.90622
2175.0,0.90673
2180.0,0.90414
2185.0,0.90252
2190.0,0.90317
2195.0,0.90178
2200.0,0.8999
2205.0,0.90023
2210.0,0.89852
2215.0,0.89772
2220.0,0.89658
2225.0,0.89494
2230.0,0.89244
2235.0,0.89077
2240.0,0.88875
2245.0,0.8879
2250.0,0.88582
2255.0,0.88502
2260.0,0.88391
2265.0,0.88366
2270.0,0.88177
2275.0,0.88185
2280.0,0.88069
2285.0,0.88027
2290.0,0.87843
2295.0,0.87718
2300.0,0.87598
2305.0,0.87513
2310.0,0.87587
2315.0,0.87382
2320.0,0.87314
2325.0,0.87242
2330.0,0.87319
2335.0,0.87196
2340.0,0.87176
2345.0,0.86961
2350.0,0.87156
2355.0,0.8742
2360.0,0.87894
2365.0,0.8795
2370.0,0.87858
2375.0,0.87712
2380.0,0.8746
2385.0,0.87497
2390.0,0.8707
2395.0,0.87011
2400.0,0.86444
2405.0,0.86271
2410.0,0.86006
2415.0,0.85713
2420.0,0.85427
2425.0,0.85019
2430.0,0.84734
2435.0,0.84548
2440.0,0.84254
2445.0,0.83899
2450.0,0.83624
2455.0,0.83062
2460.0,0.82751
2465.0,0.82503
2470.0,0.82296
2475.0,0.82305
2480.0,0.82383
2485.0,0.82143
2490.0,0.81923
2495.0,0.81892
2500.0,0.81529
2505.0,0.81814
2510.0,0.81999
2515.0,0.82007
2520.0,0.82214
2525.0,0.82408
2530.0,0.82813
2535.0,0.83324
2540.0,0.83963
2545.0,0.84497
2550.0,0.85004
2555.0,0.8534
2560.0,0.8568
2565.0,0.8571
2570.0,0.8583
2572.1,0.85856
2573.4,0.85879
2574.7,0.85864
2576.0,0.85882
2577.3,0.85891
2578.5,0.85877
2579.8,0.85892
2581.1,0.85906
2582.4,0.85904
2583.7,0.85914
2585.0,0.85886
2586.3,0.85881
2587.5,0.85881
2588.8,0.85863
2590.1,0.85851
2591.4,0.85845
2592.7,0.85853
2594.0,0.85886
2595.3,0.85863
2596.6,0.85776
2597.9,0.85739
2599.2,0.85718
2600.5,0.85709
2601.8,0.85698
2603.1,0.85672
2604.4,0.85657
2605.8,0.85622
2607.1,0.85549
2608.4,0.85517
2609.7,0.85487
2611.0,0.85441
2612.3,0.85402
2613.6,0.85364
2614.9,0.85331
2616.3,0.85336
2617.6,0.85287
2618.9,0.85246
2620.2,0.85243
2621.6,0.85179
2622.9,0.85135
2624.2,0.85121
2625.5,0.85113
2626.9,0.85101
2628.2,0.85056
2629.5,0.85061
2630.9,0.85023
2632.2,0.84952
2633.5,0.8493
2634.9,0.849
2636.2,0.84857
2637.6,0.84823
2638.9,0.8479
2640.2,0.84757
2641.6,0.8472
2642.9,0.84679
2644.3,0.84642
2645.6,0.84604
2647.0,0.84541
2648.3,0.84498
2649.7,0.84453
2651.0,0.84422
2652.4,0.84383
2653.8,0.84316
2655.1,0.84257
2656.5,0.84195
2657.8,0.84135
2659.2,0.841
2660.6,0.84034
2661.9,0.83969
2663.3,0.83912
2664.7,0.83889
2666.0,0.83835
2667.4,0.83737
2668.8,0.83647
2670.1,0.83632
2671.5,0.83489
2672.9,0.83364
2674.3,0.83279
2675.7,0.83197
2677.0,0.8309
2678.4,0.82972
2679.8,0.82832
2681.2,0.82667
2682.6,0.82516
2684.0,0.82338
2685.4,0.82141
2686.8,0.81939
2688.1,0.81719
2689.5,0.81482
2690.9,0.81202
2692.3,0.80906
2693.7,0.80525
2695.1,0.79992
2696.5,0.79294
2697.9,0.78256
2699.3,0.76907
2700.8,0.75956
2702.1,0.7536
2703.6,0.74337
2705.0,0.72817
2706.4,0.71375
2707.8,0.70545
2709.2,0.70164
2710.6,0.70012
2712.1,0.7007
2713.5,0.70406
2714.9,0.71081
2716.3,0.72055
2717.7,0.73113
2719.2,0.73967
2720.6,0.74499
2722.0,0.74675
2723.4,0.74744
2724.9,0.74712
2726.3,0.74563
2727.7,0.74407
2729.2,0.74269
2730.6,0.74099
2732.1,0.73892
2733.5,0.73673
2734.9,0.7345
2736.4,0.7317
2737.8,0.72933
2739.3,0.72708
2740.7,0.72467
2742.2,0.72216
2743.6,0.72011
2745.1,0.71859
2746.5,0.71736
2748.0,0.71612
2749.4,0.71485
2750.9,0.71354
2752.4,0.7122
2753.8,0.71083
2755.3,0.70955
2756.7,0.70726
2758.2,0.70507
2759.7,0.70302
2761.1,0.70108
2762.6,0.69925
2764.1,0.69709
2765.6,0.69453
2767.0,0.69187
2768.5,0.68868
2770.0,0.68529
2771.5,0.68173
2773.0,0.67822
2774.4,0.67507
2775.9,0.67209
2777.4,0.66876
2778.9,0.66516
2780.4,0.66102
2781.9,0.65606
2783.4,0.65017
2784.9,0.64395
2786.4,0.63748
2787.9,0.63095
2789.4,0.62598
2790.9,0.62376
2792.4,0.62318
2793.9,0.62314
2795.4,0.62264
2796.9,0.62152
2798.4,0.61961
2799.9,0.61726
2801.4,0.61521
2802.9,0.61415
2804.4,0.61383
2806.0,0.61428
2807.5,0.615
2809.0,0.61559
2810.5,0.61573
2812.1,0.61526
2813.6,0.61431
2815.1,0.61311
2816.6,0.61153
2818.2,0.60988
2819.7,0.60799
2821.2,0.60607
2822.8,0.60429
2824.3,0.60261
2825.9,0.60084
2827.4,0.59887
2828.9,0.59691
2830.5,0.59515
2832.0,0.59324
2833.6,0.59121
2835.1,0.58903
2836.7,0.58671
2838.2,0.5843
2839.8,0.58207
2841.3,0.57977
2842.9,0.57756
2844.4,0.57529
2846.0,0.5731
2847.6,0.57123
2849.1,0.5697
2850.7,0.56818
2852.3,0.56697
2853.8,0.56579
2855.4,0.5646
2857.0,0.56361
2858.6,0.56261
2860.1,0.56141
2861.7,0.56012
2863.3,0.55873
2864.9,0.55738
2866.5,0.55603
2868.1,0.55488
2869.6,0.55388
2871.2,0.55307
2872.8,0.55211
2874.4,0.55126
2876.0,0.55059
2877.6,0.54984
2879.2,0.54888
2880.8,0.5478
2882.4,0.54648
2884.0,0.54525
2885.6,0.54424
2887.2,0.54323
2888.8,0.54191
2890.4,0.54052
2892.0,0.53914
2893.6,0.53775
2895.3,0.53625
2896.9,0.53484
2898.5,0.53343
2900.1,0.53202
2901.8,0.53048
2903.4,0.52902
2905.0,0.52752
2906.6,0.526
2908.3,0.52442
2909.9,0.52284
2911.5,0.52127
2913.2,0.51994
2914.8,0.51855
2916.4,0.51714
2918.1,0.51578
2919.7,0.5144
2921.4,0.51299
2923.0,0.51158
2924.7,0.51013
2926.3,0.50872
2928.0,0.50729
2929.6,0.5059
2931.3,0.50454
2932.9,0.50324
2934.6,0.50195
2936.3,0.50081
2937.9,0.49954
2939.6,0.49809
2941.3,0.49679
2942.9,0.49605
2944.6,0.4952
2946.3,0.49419
2947.9,0.49297
2949.6,0.49206
2951.3,0.49147
2953.0,0.49075
2954.7,0.48996
2956.3,0.48925
2958.0,0.48852
2959.7,0.48784
2961.4,0.48719
2963.1,0.48657
2964.8,0.48592
2966.5,0.48504
2968.2,0.48415
2969.9,0.48364
2971.6,0.48323
2973.3,0.48274
2975.0,0.48212
2976.7,0.48148
2978.4,0.48088
2980.1,0.48025
2981.9,0.47954
2983.6,0.47874
2985.3,0.47799
2987.0,0.47754
2988.7,0.47701
2990.4,0.47633
2992.2,0.47569
2993.9,0.47515
2995.6,0.47457
2997.4,0.47426
2999.1,0.47396
3000.8,0.47365
3002.6,0.47331
3004.3,0.47301
3006.1,0.47274
3007.8,0.47257
3009.5,0.47256
3011.3,0.47259
3013.0,0.47253
3014.8,0.47251
3016.5,0.47253
3018.3,0.47257
3020.1,0.47253
3021.8,0.47235
3023.6,0.47207
3025.3,0.47196
3027.1,0.47213
3028.9,0.47233
3030.6,0.47225
3032.4,0.4721
3034.2,0.47188
3036.0,0.47167
3037.7,0.47139
3039.5,0.47125
3041.3,0.47113
3043.1,0.47089
3044.9,0.47061
3046.7,0.47031
3048.5,0.46995
3050.3,0.46968
3052.1,0.46934
3053.8,0.46893
3055.6,0.46839
3057.4,0.46783
3059.3,0.46759
3061.1,0.46745
3062.9,0.46712
3064.7,0.46672
3066.5,0.46634
3068.3,0.46596
3070.1,0.4655
3071.9,0.46505
3073.8,0.46468
3075.6,0.46434
3077.4,0.4639
3079.2,0.46338
3081.1,0.46295
3082.9,0.46264
3084.7,0.46226
3086.6,0.46187
3088.4,0.46145
3090.2,0.46096
3092.1,0.46027
3093.9,0.45977
3095.8,0.45948
3097.6,0.45904
3099.5,0.4585
3101.3,0.45797
3103.2,0.45738
3105.1,0.45679
3106.9,0.45613
3108.8,0.45545
3110.6,0.45474
3112.5,0.45404
3114.4,0.45336
3116.2,0.45275
3118.1,0.45215
3120.0,0.4516
3121.9,0.45109
3123.8,0.45069
3125.6,0.45032
3127.5,0.44992
3129.4,0.44953
3131.3,0.44923
3133.2,0.44889
3135.1,0.44855
3137.0,0.44819
3138.9,0.44782
3140.8,0.44738
3142.7,0.44692
3144.6,0.44643
3146.5,0.44597
3148.4,0.44554
3150.3,0.4451
3152.2,0.44459
3154.1,0.44405
3156.1,0.44345
3158.0,0.44281
3159.9,0.44215
3161.8,0.44152
3163.8,0.44082
3165.7,0.44002
3167.6,0.43914
3169.6,0.43819
3171.5,0.43694
3173.5,0.43582
3175.4,0.43489
3177.3,0.4338
3179.3,0.43267
3181.2,0.43154
3183.2,0.43037
3185.1,0.42912
3187.1,0.42798
3189.1,0.42698
3191.0,0.42588
3193.0,0.42454
3195.0,0.42314
3196.9,0.42183
3198.9,0.42055
3200.9,0.41931
3202.9,0.41801
3204.8,0.41671
3206.8,0.41564
3208.8,0.4147
3210.8,0.41407
3212.8,0.41361
3214.8,0.41297
3216.8,0.41239
3218.8,0.41211
3220.8,0.41192
3222.8,0.4116
3224.8,0.41126
3226.8,0.411
3228.8,0.41078
3230.8,0.41044
3232.8,0.40999
3234.8,0.40941
3236.8,0.40881
3238.9,0.40818
3240.9,0.40741
3242.9,0.4066
3244.9,0.40588
3247.0,0.40508
3249.0,0.40434
3251.1,0.40374
3253.1,0.40312
3255.1,0.40237
3257.2,0.40163
3259.2,0.40071
3261.3,0.39983
3263.3,0.39896
3265.4,0.39797
3267.4,0.39691
3269.5,0.39583
3271.6,0.39462
3273.6,0.39337
3275.7,0.3921
3277.8,0.39079
3279.8,0.38949
3281.9,0.38817
3284.0,0.38672
3286.1,0.38518
3288.2,0.38363
3290.2,0.38221
3292.3,0.38065
3294.4,0.3789
3296.5,0.3771
3298.6,0.37534
3300.7,0.37346
3302.8,0.37153
3304.9,0.36944
3307.0,0.36737
3309.1,0.36544
3311.3,0.36368
3313.4,0.36205
3315.5,0.36058
3317.6,0.35925
3319.7,0.35825
3321.9,0.35757
3324.0,0.35715
3326.1,0.35678
3328.3,0.3565
3330.4,0.35623
3332.5,0.35591
3334.7,0.35537
3336.8,0.3547
3339.0,0.35395
3341.1,0.35296
3343.3,0.35178
3345.4,0.35038
3347.6,0.34834
3349.8,0.34574
3351.9,0.34258
3354.1,0.33893
3356.3,0.33503
3358.4,0.33121
3360.6,0.32764
3362.8,0.32463
3365.0,0.32226
3367.2,0.32046
3369.4,0.31918
3371.5,0.31854
3373.7,0.31839
3375.9,0.31847
3378.1,0.31833
3380.3,0.31779
3382.5,0.31682
3384.7,0.31571
3386.9,0.31472
3389.2,0.3141
3391.4,0.31361
3393.6,0.31317
3395.8,0.31281
3398.1,0.31249
3400.3,0.31213
3402.5,0.3117
3404.7,0.31122
3407.0,0.31083
3409.2,0.31056
3411.5,0.31051
3413.7,0.31088
3416.0,0.31213
3418.2,0.31415
3420.5,0.31662
3422.7,0.31921
3425.0,0.32159
3427.3,0.3235
3429.5,0.32488
3431.8,0.32565
3434.1,0.32607
3436.3,0.32621
3438.6,0.32621
3440.9,0.3263
3443.2,0.32674
3445.5,0.32763
3447.8,0.32906
3450.1,0.3309
3452.4,0.3331
3454.6,0.33562
3456.9,0.33848
3459.3,0.34155
3461.6,0.34481
3463.9,0.34813
3466.2,0.35147
3468.5,0.35473
3470.8,0.35796
3473.2,0.36107
3475.5,0.36409
3477.8,0.36689
3480.1,0.36946
3482.5,0.37196
3484.8,0.37432
3487.2,0.37638
3489.5,0.37839
3491.9,0.38039
3494.2,0.38244
3496.6,0.3846
3498.9,0.38711
3501.3,0.38997
3503.7,0.39313
3506.0,0.39649
3508.4,0.39995
3510.8,0.4033
3513.2,0.40668
3515.5,0.41011
3517.9,0.41365
3520.3,0.41728
3522.7,0.42105
3525.1,0.42508
3527.5,0.42924
3529.9,0.43325
3532.3,0.43716
3534.7,0.44089
3537.1,0.44448
3539.5,0.44786
3541.9,0.45102
3544.4,0.45398
3546.8,0.45679
3549.2,0.4594
3551.7,0.46188
3554.1,0.4642
3556.5,0.4663
3559.0,0.46819
3561.4,0.47006
3563.9,0.4718
3566.3,0.47357
3568.8,0.4754
3571.2,0.47725
3573.7,0.47901
3576.1,0.48081
3578.6,0.48255
3581.1,0.48418
3583.6,0.48566
3586.0,0.48718
3588.5,0.48878
3591.0,0.49041
3593.5,0.49186
3596.0,0.4932
3598.5,0.49446
3601.0,0.4957
3603.5,0.49682
3606.0,0.49797
3608.5,0.49901
3611.0,0.5
3613.5,0.5009
3616.1,0.50175
3618.6,0.50251
3621.1,0.50324
3623.6,0.50385
3626.2,0.50442
3628.7,0.50482
3631.3,0.50511
3633.8,0.50518
3636.3,0.50508
3638.9,0.50474
3641.4,0.50413
3644.0,0.5031
3646.6,0.50158
3649.1,0.49947
3651.7,0.49668
3654.3,0.49313
3656.9,0.48877
3659.4,0.48343
3662.0,0.47717
3664.6,0.46998
3667.2,0.4622
3669.8,0.4541
3672.4,0.44598
3675.0,0.43814
3677.6,0.43088
3680.2,0.42427
3682.8,0.41857
3685.4,0.41405
3688.1,0.41111
3690.7,0.4097
3693.3,0.4096
3695.9,0.4103
3698.6,0.41152
3701.2,0.41291
3703.9,0.41426
3706.5,0.41539
3709.2,0.41633
3711.8,0.41697
3714.5,0.41744
3717.1,0.41776
3719.8,0.41794
3722.5,0.41789
3725.2,0.4176
3727.8,0.41695
3730.5,0.41593
3733.2,0.41451
3735.9,0.41276
3738.6,0.41073
3741.3,0.40858
3744.0,0.40634
3746.7,0.40414
3749.4,0.40191
3752.1,0.39969
3754.8,0.39743
3757.6,0.39507
3760.3,0.39245
3763.0,0.38961
3765.7,0.38645
3768.5,0.38292
3771.2,0.37899
3774.0,0.37478
3776.7,0.37029
3779.5,0.36558
3782.2,0.36085
3785.0,0.35647
3787.7,0.3526
3790.5,0.34939
3793.3,0.34676
3796.1,0.34465
3798.8,0.34289
3801.6,0.34148
3804.4,0.34038
3807.2,0.33961
3810.0,0.33919
3812.8,0.33907
3815.6,0.33893
3818.4,0.33856
3821.2,0.33771
3824.1,0.33634
3826.9,0.33418
3829.7,0.3309
3832.5,0.32634
3835.4,0.32052
3838.2,0.31352
3841.1,0.30571
3843.9,0.29761
3846.8,0.2897
3849.6,0.28226
3852.5,0.27552
3855.3,0.26926
3858.2,0.26327
3861.1,0.25742
3863.9,0.25182
3866.8,0.24693
3869.7,0.24367
3872.6,0.2426
3875.5,0.24387
3878.4,0.24706
3881.3,0.25141
3884.2,0.25611
3887.1,0.26043
3890.0,0.26387
3893.0,0.26615
3895.9,0.26695
3898.8,0.26613
3901.7,0.26374
3904.7,0.26012
3907.6,0.25554
3910.6,0.25045
3913.5,0.24499
3916.5,0.23945
3919.4,0.2341
3922.4,0.22902
3925.4,0.22423
3928.4,0.21999
3931.3,0.21663
3934.3,0.2146
3937.3,0.21443
3940.3,0.21671
3943.3,0.22148
3946.3,0.22859
3949.3,0.23758
3952.3,0.24812
3955.3,0.25999
3958.3,0.27309
3961.4,0.28708
3964.4,0.30173
3967.4,0.31659
3970.5,0.33127
3973.5,0.3454
3976.6,0.35881
3979.6,0.37134
3982.6,0.38312
3985.7,0.39414
3988.8,0.40457
3991.9,0.41448
3994.9,0.42403
3998.0,0.43318
4001.1,0.44195
4004.2,0.45017
4007.3,0.45788
4010.4,0.46499
4013.5,0.47165
4016.6,0.47774
4019.7,0.48335
4022.8,0.48851
4025.9,0.49337
4029.1,0.49783
4032.2,0.50202
4035.3,0.50593
4038.5,0.50972
4041.6,0.51323
4044.8,0.51661
4047.9,0.51975
4051.1,0.52275
4054.3,0.52562
4057.4,0.52835
4060.6,0.53081
4063.8,0.53315
4067.0,0.53533
4070.2,0.53745
4073.4,0.53937
4076.6,0.54117
4079.8,0.54279
4083.0,0.54433
4086.2,0.54569
4089.4,0.54701
4092.7,0.54817
4095.9,0.54929
4099.1,0.5503
4102.4,0.55132
4105.6,0.55223
4108.9,0.55314
4112.1,0.55394
4115.4,0.55469
4118.7,0.55533
4122.0,0.55606
4125.2,0.55666
4128.5,0.55725
4131.8,0.55778
4135.1,0.55834
4138.4,0.55881
4141.7,0.55936
4145.0,0.55983
4148.3,0.56028
4151.6,0.5606
4155.0,0.56097
4158.3,0.56128
4161.6,0.56157
4165.0,0.56175
4168.3,0.56198
4171.7,0.56211
4175.0,0.56228
4178.4,0.56234
4181.8,0.56243
4185.2,0.56245
4188.5,0.5626
4191.9,0.5628
4195.3,0.5631
4198.7,0.56326
4202.1,0.56336
4205.5,0.5633
4208.9,0.56314
4212.4,0.56282
4215.8,0.5626
4219.2,0.5623
4222.6,0.56205
4226.1,0.56163
4229.5,0.56126
4233.0,0.5608
4236.5,0.56037
4239.9,0.55981
4243.4,0.55925
4246.9,0.55844
4250.3,0.55767
4253.8,0.55693
4257.3,0.55641
4260.8,0.55582
4264.3,0.55534
4267.8,0.55499
4271.3,0.55475
4274.9,0.55426
4278.4,0.55375
4281.9,0.55302
4285.5,0.55236
4289.0,0.55154
4292.6,0.55071
4296.1,0.54982
4299.7,0.54906
4303.3,0.54826
4306.8,0.54755
4310.4,0.54672
4314.0,0.54592
4317.6,0.54492
4321.2,0.54386
4324.8,0.54275
4328.4,0.54176
4332.0,0.54081
4335.6,0.54011
4339.3,0.53948
4342.9,0.53904
4346.5,0.53854
4350.2,0.53812
4353.8,0.53761
4357.5,0.53715
4361.1,0.53658
4364.8,0.536
4368.5,0.53528
4372.2,0.53467
4375.9,0.5341
4379.6,0.53374
4383.3,0.53342
4387.0,0.53321
4390.7,0.53302
4394.4,0.533
4398.1,0.53289
4401.9,0.5328
4405.6,0.53252
4409.4,0.53225
4413.1,0.53176
4416.9,0.53114
4420.6,0.53036
4424.4,0.5296
4428.2,0.52863
4432.0,0.52759
4435.8,0.52639
4439.6,0.5251
4443.4,0.52352
4447.2,0.52182
4451.0,0.51981
4454.8,0.51759
4458.6,0.51506
4462.5,0.51229
4466.3,0.50911
4470.2,0.50588
4474.0,0.50269
4477.9,0.50003
4481.8,0.49798
4485.6,0.49664
4489.5,0.49572
4493.4,0.49534
4497.3,0.49539
4501.2,0.49601
4505.1,0.49698
4509.0,0.4982
4513.0,0.49926
4516.9,0.50005
4520.9,0.50042
4524.8,0.50066
4528.7,0.50068
4532.7,0.50065
4536.7,0.50035
4540.6,0.49988
4544.6,0.49904
4548.6,0.49795
4552.6,0.49644
4556.6,0.49471
4560.6,0.49264
4564.6,0.49056
4568.6,0.48841
4572.7,0.48646
4576.7,0.4847
4580.8,0.48319
4584.8,0.48181
4588.9,0.48074
4592.9,0.4798
4597.0,0.47925
4601.1,0.47908
4605.2,0.47956
4609.3,0.48055
4613.4,0.48211
4617.5,0.4838
4621.6,0.48553
4625.7,0.48703
4629.8,0.48843
4634.0,0.4895
4638.1,0.49049
4642.3,0.49128
4646.4,0.4921
4650.6,0.49292
4654.8,0.49399
4659.0,0.4952
4663.1,0.49674
4667.3,0.49844
4671.5,0.5004
4675.8,0.50231
4680.0,0.5043
4684.2,0.5061
4688.4,0.50785
4692.7,0.50939
4696.9,0.51094
4701.2,0.51233
4705.5,0.51379
4709.7,0.51515
4714.0,0.51648
4718.3,0.51756
4722.6,0.51862
4726.9,0.51943
4731.2,0.52016
4735.5,0.52061
4739.9,0.52102
4744.2,0.52125
4748.5,0.52145
4752.9,0.52149
4757.3,0.52156
4761.6,0.5214
4766.0,0.52127
4770.4,0.52094
4774.8,0.52066
4779.2,0.52021
4783.6,0.51975
4788.0,0.51914
4792.4,0.5186
4796.9,0.51787
4801.3,0.51716
4805.8,0.51628
4810.2,0.51551
4814.7,0.51465
4819.1,0.51388
4823.6,0.513
4828.1,0.51222
4832.6,0.51133
4837.1,0.51053
4841.6,0.50958
4846.2,0.50869
4850.7,0.50765
4855.3,0.5067
4859.8,0.50566
4864.4,0.50467
4868.9,0.50352
4873.5,0.50247
4878.1,0.50124
4882.7,0.50013
4887.3,0.49891
4891.9,0.49779
4896.5,0.49653
4901.1,0.49535
4905.8,0.49402
4910.4,0.4928
4915.1,0.4914
4919.7,0.49
4924.4,0.48841
4929.1,0.48687
4933.8,0.48514
4938.5,0.48342
4943.2,0.48141
4947.9,0.47922
4952.6,0.47653
4957.4,0.4736
4962.1,0.47005
4966.9,0.46617
4971.6,0.46205
4976.4,0.45847
4981.2,0.45545
4986.0,0.45277
4990.8,0.44978
4995.6,0.44638
5000.4,0.44212
5005.2,0.43751
5010.0,0.43293
5014.9,0.42883
5019.8,0.42477
5024.6,0.421
5029.5,0.41762
5034.4,0.41487
5039.3,0.41259
5044.2,0.41109
5049.1,0.41024
5054.0,0.41019
5058.9,0.4105
5063.9,0.41078
5068.8,0.41038
5073.8,0.40958
5078.8,0.40819
5083.7,0.40641
5088.7,0.40405
5093.7,0.40152
5098.7,0.39876
5103.7,0.39602
5108.8,0.39306
5113.8,0.39017
5118.9,0.38712
5123.9,0.38418
5129.0,0.3811
5134.1,0.37806
5139.1,0.37496
5144.3,0.37203
5149.4,0.36898
5154.5,0.3661
5159.6,0.36319
5164.7,0.36042
5169.9,0.35758
5175.0,0.35481
5180.2,0.35183
5185.4,0.34883
5190.6,0.34555
5195.8,0.34226
5201.0,0.33873
5206.2,0.33517
5211.5,0.33144
5216.7,0.32755
5222.0,0.32343
5227.2,0.31932
5232.5,0.31493
5237.8,0.31042
5243.1,0.30561
5248.4,0.30072
5253.7,0.29562
5259.0,0.2905
5264.4,0.28516
5269.7,0.27973
5275.1,0.27406
5280.5,0.2683
5285.8,0.26234
5291.2,0.2562
5296.6,0.24961
5302.0,0.24286
5307.5,0.23568
5312.9,0.2281
5318.4,0.21996
5323.8,0.21127
5329.3,0.20187
5334.8,0.19178
5340.3,0.18106
5345.8,0.17015
5351.3,0.15908
5356.8,0.14853
5362.4,0.13909
5367.9,0.13081
5373.5,0.12378
5379.0,0.11797
5384.6,0.11316
5390.2,0.10927
5395.8,0.10606
5401.5,0.10335
5407.1,0.10079
5412.7,0.0981
5418.4,0.09511
5424.1,0.09151
5429.7,0.08752
5435.4,0.08326
5441.1,0.07857
5446.8,0.07378
5452.6,0.06932
5458.3,0.0656
5464.1,0.06291
5469.8,0.06139
5475.6,0.06114
5481.4,0.06208
5487.2,0.06415
5493.0,0.06712
5498.8,0.07079
5504.7,0.07494
5510.5,0.07928
5516.4,0.0837
5522.3,0.08797
5528.1,0.09189
5534.0,0.09527
5540.0,0.09814
5545.9,0.10036
5551.8,0.10217
5557.8,0.10335
5563.7,0.10409
5569.7,0.10436
5575.7,0.1044
5581.7,0.10403
5587.7,0.10348
5593.7,0.10268
5599.8,0.10175
5605.8,0.10052
5611.9,0.0992
5618.0,0.09751
5624.1,0.09553
5630.2,0.09315
5636.3,0.09056
5642.4,0.0875
5648.6,0.08436
5654.7,0.08138
5660.9,0.07858
5667.1,0.07608
5673.3,0.07386
5679.5,0.07157
5685.7,0.0695
5692.0,0.06757
5698.2,0.0659
5704.5,0.06427
5710.8,0.06245
5717.1,0.06038
5723.4,0.0582
5729.7,0.05578
5736.0,0.05329
5742.4,0.05085
5748.8,0.04852
5755.1,0.0463
5761.5,0.04431
5768.0,0.04236
5774.4,0.041
5780.8,0.04039
5787.3,0.04036
5793.7,0.04066
5800.2,0.04107
5806.7,0.04137
5813.2,0.04152
5819.8,0.04144
5826.3,0.04118
5832.8,0.04079
5839.4,0.04039
5846.0,0.04001
5852.6,0.03965
5859.2,0.03929
5865.8,0.03894
5872.5,0.03856
5879.1,0.03813
5885.8,0.03766
5892.5,0.03721
5899.2,0.03663
5905.9,0.03609
5912.6,0.03566
5919.4,0.03537
5926.2,0.03532
5932.9,0.0355
5939.7,0.03597
5946.5,0.03642
5953.4,0.03683
5960.2,0.03717
5967.1,0.03753
5974.0,0.03785
5980.8,0.03818
5987.8,0.03857
5994.7,0.03905
6001.6,0.03957
6008.6,0.04021
6015.5,0.04098
6022.5,0.04187
6029.5,0.04287
6036.5,0.04407
6043.6,0.04541
6050.6,0.04724
6057.7,0.04897
6064.8,0.05059
6071.9,0.05248
6079.0,0.05449
6086.1,0.05637
6093.3,0.0583
6100.5,0.06017
6107.6,0.06202
6114.8,0.06399
6122.1,0.06585
6129.3,0.06745
6136.5,0.06908
6143.8,0.07053
6151.1,0.07182
6158.4,0.07276
6165.7,0.0731
6173.1,0.07265
6180.4,0.07173
6187.8,0.07085
6195.2,0.07109
6202.6,0.07287
6210.0,0.07586
6217.5,0.07898
6225.0,0.08117
6232.4,0.08213
6239.9,0.08206
6247.5,0.08137
6255.0,0.08021
6262.5,0.07873
6270.1,0.07709
6277.7,0.07551
6285.3,0.07418
6292.9,0.07304
6300.6,0.07198
6308.3,0.07096
6315.9,0.06988
6323.6,0.06871
6331.4,0.06743
6339.1,0.06618
6346.9,0.06478
6354.6,0.06352
6362.4,0.06234
6370.3,0.06105
6378.1,0.05966
6385.9,0.0583
6393.8,0.05675
6401.7,0.05515
6409.6,0.05343
6417.6,0.05137
6425.5,0.04946
6433.5,0.04763
6441.5,0.04563
6449.5,0.0439
6457.5,0.04258
6465.6,0.04185
6473.6,0.04137
6481.7,0.04107
6489.8,0.04077
6498.0,0.04047
6506.1,0.04026
6514.3,0.04025
6522.5,0.04025
6530.7,0.04028
6538.9,0.04035
6547.2,0.04043
6555.5,0.04046
6563.8,0.04053
6572.1,0.04046
6580.4,0.04031
6588.8,0.04007
6597.2,0.03969
6605.6,0.03918
6614.0,0.03858
6622.5,0.03779
6630.9,0.03684
6639.4,0.03558
6647.9,0.03427
6656.5,0.0331
6665.0,0.0316
6673.6,0.02923
6682.2,0.02553
6690.8,0.02098
6699.5,0.01697
6708.1,0.01444
6716.8,0.01407
6725.5,0.01545
6734.3,0.01766
6743.0,0.02037
6751.8,0.02333
6760.6,0.02631
6769.4,0.02914
6778.3,0.03171
6787.1,0.0338
6796.0,0.03543
6805.0,0.03644
6813.9,0.03687
6822.9,0.03654
6831.9,0.03528
6840.9,0.0334
6849.9,0.03167
6859.0,0.0313
6868.0,0.03308
6877.2,0.03593
6886.3,0.03871
6895.5,0.04104
6904.6,0.04286
6913.8,0.04434
6923.1,0.04561
6932.3,0.04664
6941.6,0.04762
6950.9,0.04837
6960.2,0.04896
6969.6,0.04955
6979.0,0.05088
6988.4,0.05346
6997.8,0.05744
7007.3,0.06239
7016.8,0.06811
7026.3,0.07412
7035.8,0.07995
7045.4,0.08565
7054.9,0.09109
7064.5,0.09561
7074.2,0.09977
7083.9,0.10342
7093.5,0.10678
7103.3,0.10953
7113.0,0.11174
7122.8,0.11337
7132.6,0.11531
7142.4,0.11871
7152.2,0.12503
7162.1,0.13405
7172.0,0.14511
7182.0,0.15611
7191.9,0.16648
7201.9,0.17589
7211.9,0.1845
7222.0,0.19171
7232.0,0.19828
7242.1,0.20419
7252.3,0.20995
7262.4,0.21531
7272.6,0.2209
7282.8,0.22635
7293.1,0.23189
7303.4,0.23707
7313.6,0.24201
7324.0,0.24616
7334.3,0.2501
7344.7,0.25348
7355.1,0.25678
7365.6,0.25977
7376.1,0.26302
7386.6,0.26614
7397.1,0.26932
7407.7,0.27202
7418.3,0.27455
7428.9,0.27644
7439.6,0.27805
7450.3,0.27893
7461.0,0.27942
7471.7,0.27905
7482.5,0.27839
7493.3,0.27738
7504.2,0.27653
7515.0,0.27549
7525.9,0.27468
7536.9,0.27373
7547.9,0.27307
7558.9,0.27249
7569.9,0.27249
7581.0,0.2729
7592.0,0.27392
7603.2,0.27498
7614.4,0.27617
7625.5,0.277
7636.8,0.27777
7648.0,0.27812
7659.3,0.2784
7670.7,0.27839
7682.0,0.27853
7693.4,0.27854
7704.9,0.27856
7716.3,0.27816
7727.8,0.27761
7739.4,0.27663
7750.9,0.27554
7762.5,0.27414
7774.2,0.27277
7785.8,0.2712
7797.5,0.26994
7809.3,0.26897
7821.1,0.2686
7832.9,0.26838
7844.7,0.26848
7856.6,0.26842
7868.5,0.26832
7880.5,0.26792
7892.5,0.26753
7904.5,0.26699
7916.6,0.26675
7928.7,0.26658
7940.8,0.26676
7953.0,0.26698
7965.2,0.26739
7977.5,0.26758
7989.8,0.26766
8002.1,0.26732
8014.5,0.26682
8026.9,0.26606
8039.3,0.2654
8051.8,0.26463
8064.3,0.26413
8076.9,0.26377
8089.5,0.26368
8102.1,0.26346
8114.8,0.26327
8127.5,0.2627
8140.3,0.26206
8153.1,0.26138
8165.9,0.26092
8178.8,0.2605
8191.7,0.26039
8204.7,0.26035
8217.7,0.26067
8230.7,0.26109
8243.8,0.26159
8257.0,0.26166
8270.1,0.26155
8283.3,0.26115
8296.6,0.26083
8309.9,0.26028
8323.2,0.25964
8336.6,0.25854
8350.0,0.25708
8363.5,0.25502
8377.0,0.25274
8390.5,0.25035
8404.2,0.24813
8417.8,0.24585
8431.5,0.24368
8445.2,0.24148
8459.0,0.23953
8472.8,0.23738
8486.7,0.23492
8500.6,0.23208
8514.5,0.2294
8528.5,0.22697
8542.6,0.22519
8556.7,0.22383
8570.8,0.22281
8585.0,0.22167
8599.3,0.22054
8613.5,0.21942
8627.9,0.21881
8642.3,0.21901
8656.7,0.22044
8671.2,0.22235
8685.7,0.22406
8700.3,0.22486
8714.9,0.22519
8729.6,0.22543
8744.3,0.22563
8759.0,0.22529
8773.9,0.22454
8788.7,0.22309
8803.7,0.22072
8818.6,0.21682
8833.7,0.21119
8848.7,0.20331
8863.8,0.19269
8879.0,0.17821
8894.3,0.15967
8909.5,0.13905
8924.9,0.11923
8940.3,0.09925
8955.7,0.07828
8971.2,0.06045
8986.8,0.05342
9002.3,0.06061
9018.0,0.07686
9033.7,0.09538
9049.5,0.11365
9065.3,0.13003
9081.2,0.14313
9097.1,0.15304
9113.1,0.16045
9129.1,0.16599
9145.2,0.17061
9161.4,0.17482
9177.6,0.17893
9193.9,0.18248
9210.2,0.18555
9226.6,0.18818
9243.0,0.19042
9259.5,0.19203
9276.1,0.19318
9292.7,0.19376
9309.4,0.19397
9326.2,0.19386
9343.0,0.19379
9359.8,0.19364
9376.8,0.19366
9393.7,0.19385
9410.8,0.19409
9427.9,0.19383
9445.1,0.19306
9462.3,0.19162
9479.6,0.18962
9497.0,0.18696
9514.4,0.18394
9531.9,0.18062
9549.4,0.17746
9567.0,0.17449
9584.7,0.17221
9602.5,0.17071
9620.3,0.16969
9638.2,0.16863
9656.1,0.16761
9674.2,0.16651
9692.2,0.16553
9710.4,0.16469
9728.6,0.16435
9746.9,0.16449
9765.2,0.1651
9783.7,0.16578
9802.2,0.16645
9820.7,0.16676
9839.4,0.1668
9858.1,0.16645
9876.8,0.16571
9895.7,0.16438
9914.6,0.16279
9933.6,0.16091
9952.7,0.15897
9971.8,0.15708
9991.0,0.15529
10010.3,0.15342
10029.7,0.15148
10049.1,0.14938
10068.6,0.1471
10088.2,0.14445
10107.9,0.14166
10127.6,0.13867
10147.5,0.13562
10167.3,0.13243
10187.3,0.12936
10207.4,0.12637
10227.5,0.1237
10247.7,0.12123
10268.0,0.11905
10288.4,0.11716
10308.8,0.11556
10329.4,0.11418
10350.0,0.11303
10370.7,0.11193
10391.5,0.11112
10412.3,0.11039
10433.3,0.1099
10454.3,0.10956
10475.4,0.10935
10496.7,0.10916
10517.9,0.10919
10539.3,0.10906
10560.8,0.10885
10582.3,0.10861
10604.0,0.10832
10625.7,0.10786
10647.5,0.10751
10669.4,0.10704
10691.4,0.10669
10713.5,0.10647
10735.7,0.10637
10758.0,0.10584
10780.3,0.10501
10802.8,0.10389
10825.4,0.10258
10848.0,0.10097
10870.8,0.09926
10893.6,0.09746
10916.5,0.09582
10939.5,0.09416
10962.7,0.0924
10985.9,0.09014
11009.2,0.08734
11032.7,0.08358
11056.2,0.07887
11079.8,0.07213
11103.5,0.06183
11127.4,0.04812
11151.3,0.0358
11175.3,0.02933
11199.5,0.02786
11223.7,0.02745
11248.0,0.02737
11272.5,0.03037
11297.1,0.03756
11321.7,0.03517
11346.5,0.02407
11371.4,0.01427
11396.4,0.01288
11421.5,0.0155
11446.7,0.01763
11472.0,0.02078
11497.5,0.02405
11523.0,0.02791
11548.7,0.03525
11574.5,0.04807
11600.3,0.06786
11626.3,0.0844
11652.5,0.09331
11678.7,0.10283
11705.1,0.11001
11731.6,0.11307
11758.2,0.10479
11784.9,0.07831
11811.7,0.06134
11838.7,0.07918
11865.8,0.09958
11893.0,0.10695
11920.3,0.1066
11947.8,0.10324
11975.4,0.0991
12003.1,0.09603
12031.0,0.09413
12059.0,0.09308
12087.1,0.09193
12115.3,0.09058
12143.7,0.08907
12172.2,0.08829
12200.8,0.08809
12229.6,0.08819
12258.5,0.08804
12287.6,0.08772
12316.8,0.08696
12346.1,0.08587
12375.5,0.08467
12405.2,0.08347
12434.9,0.08214
12464.8,0.08087
12494.8,0.07949
12525.0,0.07809
12555.3,0.07655
12585.8,0.07496
12616.4,0.07329
12647.2,0.07169
12678.1,0.06999
12709.2,0.06817
12740.4,0.06622
12771.8,0.06429
12803.3,0.06213
12835.0,0.05989
12866.9,0.05749
12898.9,0.05511
12931.0,0.05259
12963.4,0.04998
12995.9,0.04713
13028.5,0.04414
13061.3,0.04107
13094.3,0.03795
13127.5,0.03473
13160.8,0.03159
13194.3,0.02834
13228.0,0.02515
13261.8,0.02187
13295.8,0.01882
13330.0,0.01625
13364.3,0.01423
13398.9,0.01291
13433.6,0.01264
13468.5,0.01318
13503.5,0.01445
13538.8,0.01641
13574.2,0.01895
13609.9,0.02145
13645.7,0.02393
13681.7,0.02618
13717.9,0.02815
13754.3,0.02997
13790.9,0.03214
13827.6,0.03433
13864.6,0.03618
13901.8,0.03726
13939.2,0.0376
13976.7,0.03723
14014.5,0.03645
14052.5,0.0354
14090.7,0.03405
14129.0,0.03194
14167.7,0.02947
14206.5,0.02743
14245.5,0.02654
14284.7,0.02677
14324.2,0.0276
14363.9,0.02829
14403.8,0.02884
14443.9,0.02905
14484.3,0.02905
14524.8,0.02905
14565.6,0.02883
14606.7,0.02825
14647.9,0.028
14689.4,0.0281
14731.2,0.02802
14773.1,0.02747
14815.3,0.0272
14857.8,0.02684
14900.5,0.02632
14943.4,0.02564
14986.6,0.02477
15030.0,0.02413
15073.7,0.02379
15117.7,0.02348
15161.9,0.0231
15206.3,0.02187
15251.1,0.02098
15296.1,0.02101
15341.3,0.02081
15386.8,0.02033
15432.6,0.01998
15478.7,0.01958
15525.0,0.01888
15571.7,0.01834
15618.6,0.01779
15665.8,0.01696
15713.2,0.01616
15761.0,0.0155
15809.0,0.01507
15857.4,0.0145
15906.0,0.01397
15955.0,0.01368
16004.2,0.01304
16053.8,0.01233
16103.6,0.01195
16153.8,0.01116
16204.3,0.01077
16255.1,0.01029
16306.2,0.00953
16357.6,0.00917
16409.4,0.00902
16461.5,0.00868
16513.9,0.00849
16566.7,0.00815
16619.8,0.0078
16673.2,0.00758
16727.0,0.00712
16781.1,0.00634
16835.6,0.00599
16890.4,0.0058
16945.7,0.0055
17001.2,0.00507
17057.2,0.00474
17113.4,0.00454
17170.1,0.00436
17227.2,0.0044
17284.6,0.00445
17342.4,0.00411
17400.6,0.00315
17459.2,0.00237
17518.2,0.00241
17577.5,0.00245
17637.3,0.00246
17697.5,0.00272
17758.1,0.00267
17819.2,0.00202
17880.6,0.00124
17942.5,0.00079
18004.8,0.00087
18067.5,0.00109
18130.7,0.00115
18194.3,0.00073
18258.4,0.00057
18322.9,0.00029
18387.9,0.00033
18453.3,0.00055
18519.2,0.00002
18585.6,-0.00037
18652.4,-0.00042
18719.8,-0.00056
18787.6,-0.00077
18855.9,-0.00095
18924.8,-0.00102
18994.1,-0.00107
19063.9,-0.00131
19134.3,-0.00077
19205.1,-0.00024
19276.5,-0.00037
19348.4,-0.00047
19420.9,-0.00052
19493.9,-0.00028
19567.5,-0.00054
19641.6,-0.00092
19716.3,-0.00093
19791.5,-0.00093
19867.4,-0.00063
19943.8,-0.00054
20020.8,-0.00074
20098.4,-0.00051
20176.6,0.00014
20255.4,0.0009
20334.8,0.00148
20414.9,0.00223
20495.6,0.00326
20576.9,0.00426
20658.9,0.00577
20741.5,0.00751
20824.8,0.00918
20908.8,0.01091
20993.4,0.01287
21078.8,0.0142
21164.8,0.01431
21251.6,0.0151
21339.0,0.01558
21427.2,0.01543
21516.1,0.01493
21605.8,0.0139
21696.2,0.01416
21787.3,0.01361
21879.3,0.01245
21972.0,0.01202
22065.5,0.01195
22159.8,0.01131
22254.9,0.01032
22350.8,0.00978
22447.5,0.01021
22545.1,0.01062
22643.6,0.01187
22742.9,0.01218
22843.1,0.0132
22944.2,0.01417
23046.2,0.01448
23149.0,0.01561
23252.8,0.01566
23357.6,0.01489
23463.3,0.0156
23569.9,0.01681
23677.5,0.01715
23786.1,0.01863
23895.8,0.02025
24006.4,0.01961
24118.0,0.01923
24230.7,0.01879
24344.5,0.01883
24459.4,0.01889
24575.3,0.01862
24692.3,0.01787
24810.4,0.01714
24929.7,0.01698
25050.2,0.02188
