Database of Origin,University of Winnipeg Spectrophotometer Facility
Sample Description,"RELAB plus Nicolet merged plagioclase data. Merged @2500nm, different viewing geometries. See Master Plagioclase in PSF sample database for more information"
Date Added,2016-11-22 03:59:30.145815

Data ID,RLA_PLG_23          
Sample ID,PLG129
Mineral Name,Plagioclase
Grain Size,<45
Viewing Geometry,"30/0,30"
Resolution,"5,0.6-129"
Material Class,Tectosilicate

Wavelength
300.0,0.248995
305.0,0.277394
310.0,0.304338
315.0,0.326503
320.0,0.347038
325.0,0.364588
330.0,0.378921
335.0,0.391823
340.0,0.403682
345.0,0.413504
350.0,0.423249
355.0,0.435481
360.0,0.443452
365.0,0.454639
370.0,0.46393
375.0,0.473494
380.0,0.480167
385.0,0.487819
390.0,0.497599
395.0,0.505161
400.0,0.511831
405.0,0.516406
410.0,0.520055
415.0,0.526127
420.0,0.52962
425.0,0.535216
430.0,0.539881
435.0,0.544429
440.0,0.548843
445.0,0.552862
450.0,0.555666
455.0,0.559603
460.0,0.562339
465.0,0.565853
470.0,0.56758
475.0,0.570419
480.0,0.572203
485.0,0.575628
490.0,0.577291
495.0,0.580373
500.0,0.581975
505.0,0.584955
510.0,0.586359
515.0,0.589064
520.0,0.590813
525.0,0.592128
530.0,0.594002
535.0,0.595029
540.0,0.596352
545.0,0.59755
550.0,0.598444
555.0,0.599804
560.0,0.599401
565.0,0.601028
570.0,0.600655
575.0,0.602541
580.0,0.602719
585.0,0.603967
590.0,0.604196
595.0,0.605705
600.0,0.605338
605.0,0.606412
610.0,0.606599
615.0,0.608119
620.0,0.609129
625.0,0.610776
630.0,0.611011
635.0,0.611634
640.0,0.612403
645.0,0.613194
650.0,0.614791
655.0,0.615014
660.0,0.615855
665.0,0.616636
670.0,0.616841
675.0,0.619189
680.0,0.619225
685.0,0.620786
690.0,0.620641
695.0,0.62211
700.0,0.623401
705.0,0.623445
710.0,0.624906
715.0,0.62561
720.0,0.627912
725.0,0.628184
730.0,0.630804
735.0,0.631274
740.0,0.63261
745.0,0.6324
750.0,0.633407
755.0,0.634644
760.0,0.635761
765.0,0.637043
770.0,0.63705
775.0,0.638488
780.0,0.640127
785.0,0.640714
790.0,0.642853
795.0,0.640731
800.0,0.642358
805.0,0.64277
810.0,0.643345
815.0,0.643749
820.0,0.644703
825.0,0.645045
830.0,0.645645
835.0,0.646088
840.0,0.645956
845.0,0.646436
850.0,0.647111
855.0,0.646716
860.0,0.647562
865.0,0.648172
870.0,0.647672
875.0,0.647531
880.0,0.648468
885.0,0.648617
890.0,0.648964
895.0,0.650222
900.0,0.651203
905.0,0.650703
910.0,0.651682
915.0,0.651496
920.0,0.651104
925.0,0.649251
930.0,0.649936
935.0,0.649545
940.0,0.648621
945.0,0.648451
950.0,0.648658
955.0,0.647857
960.0,0.648472
965.0,0.648649
970.0,0.648076
975.0,0.647957
980.0,0.648218
985.0,0.646881
990.0,0.646258
995.0,0.6452
1000.0,0.643829
1005.0,0.642213
1010.0,0.64053
1015.0,0.639364
1020.0,0.639077
1025.0,0.637539
1030.0,0.637431
1035.0,0.637755
1040.0,0.637509
1045.0,0.636794
1050.0,0.638033
1055.0,0.638309
1060.0,0.638871
1065.0,0.638549
1070.0,0.638368
1075.0,0.638258
1080.0,0.637878
1085.0,0.636055
1090.0,0.635581
1095.0,0.633243
1100.0,0.631411
1105.0,0.6304
1110.0,0.630411
1115.0,0.628913
1120.0,0.63031
1125.0,0.629298
1130.0,0.629618
1135.0,0.629042
1140.0,0.62962
1145.0,0.629302
1150.0,0.630453
1155.0,0.629417
1160.0,0.629581
1165.0,0.628905
1170.0,0.628611
1175.0,0.628839
1180.0,0.627179
1185.0,0.625974
1190.0,0.627316
1195.0,0.625242
1200.0,0.626333
1205.0,0.624081
1210.0,0.623614
1215.0,0.622216
1220.0,0.623078
1225.0,0.622488
1230.0,0.622039
1235.0,0.622349
1240.0,0.623483
1245.0,0.623476
1250.0,0.623484
1255.0,0.623299
1260.0,0.621682
1265.0,0.621121
1270.0,0.620046
1275.0,0.620112
1280.0,0.620241
1285.0,0.621146
1290.0,0.620997
1295.0,0.62073
1300.0,0.620245
1305.0,0.62011
1310.0,0.62123
1315.0,0.622033
1320.0,0.622049
1325.0,0.621786
1330.0,0.620754
1335.0,0.620624
1340.0,0.620292
1345.0,0.620056
1350.0,0.6196
1355.0,0.620173
1360.0,0.620183
1365.0,0.619339
1370.0,0.619774
1375.0,0.619362
1380.0,0.619103
1385.0,0.619942
1390.0,0.620751
1395.0,0.619042
1400.0,0.620341
1405.0,0.62121
1410.0,0.622562
1415.0,0.623913
1420.0,0.626357
1425.0,0.627043
1430.0,0.627555
1435.0,0.626449
1440.0,0.626437
1445.0,0.626934
1450.0,0.626476
1455.0,0.627597
1460.0,0.628662
1465.0,0.630455
1470.0,0.632007
1475.0,0.632938
1480.0,0.633285
1485.0,0.633648
1490.0,0.633611
1495.0,0.632788
1500.0,0.633104
1505.0,0.634703
1510.0,0.635135
1515.0,0.634963
1520.0,0.636996
1525.0,0.63783
1530.0,0.637709
1535.0,0.638057
1540.0,0.640152
1545.0,0.640228
1550.0,0.639891
1555.0,0.639642
1560.0,0.639532
1565.0,0.638196
1570.0,0.63855
1575.0,0.639676
1580.0,0.640218
1585.0,0.640606
1590.0,0.641634
1595.0,0.641398
1600.0,0.642916
1605.0,0.643676
1610.0,0.644915
1615.0,0.644852
1620.0,0.64511
1625.0,0.643601
1630.0,0.643579
1635.0,0.643487
1640.0,0.643678
1645.0,0.64382
1650.0,0.643264
1655.0,0.643949
1660.0,0.644464
1665.0,0.644506
1670.0,0.645284
1675.0,0.64577
1680.0,0.645398
1685.0,0.644864
1690.0,0.64451
1695.0,0.644097
1700.0,0.644958
1705.0,0.645925
1710.0,0.646775
1715.0,0.647176
1720.0,0.647387
1725.0,0.647517
1730.0,0.648042
1735.0,0.647394
1740.0,0.647938
1745.0,0.648209
1750.0,0.648384
1755.0,0.647838
1760.0,0.647596
1765.0,0.646229
1770.0,0.646941
1775.0,0.647561
1780.0,0.648913
1785.0,0.650155
1790.0,0.651139
1795.0,0.651602
1800.0,0.650979
1805.0,0.649594
1810.0,0.649212
1815.0,0.648423
1820.0,0.647537
1825.0,0.64658
1830.0,0.647783
1835.0,0.648584
1840.0,0.650684
1845.0,0.651476
1850.0,0.65257
1855.0,0.651452
1860.0,0.650519
1865.0,0.649753
1870.0,0.650275
1875.0,0.650092
1880.0,0.648667
1885.0,0.648905
1890.0,0.646792
1895.0,0.644331
1900.0,0.643938
1905.0,0.644495
1910.0,0.644973
1915.0,0.645276
1920.0,0.644785
1925.0,0.64401
1930.0,0.644934
1935.0,0.643531
1940.0,0.643274
1945.0,0.643783
1950.0,0.643466
1955.0,0.641974
1960.0,0.64273
1965.0,0.643068
1970.0,0.64338
1975.0,0.644496
1980.0,0.646468
1985.0,0.645663
1990.0,0.64709
1995.0,0.649672
2000.0,0.650369
2005.0,0.649802
2010.0,0.651404
2015.0,0.650825
2020.0,0.650493
2025.0,0.649475
2030.0,0.650532
2035.0,0.650439
2040.0,0.650483
2045.0,0.649232
2050.0,0.65109
2055.0,0.650807
2060.0,0.651578
2065.0,0.651758
2070.0,0.653048
2075.0,0.650855
2080.0,0.65071
2085.0,0.650125
2090.0,0.651457
2095.0,0.650879
2100.0,0.653073
2105.0,0.652967
2110.0,0.653016
2115.0,0.65274
2120.0,0.653089
2125.0,0.653271
2130.0,0.653264
2135.0,0.654146
2140.0,0.653715
2145.0,0.65419
2150.0,0.652993
2155.0,0.653466
2160.0,0.65122
2165.0,0.649688
2170.0,0.648802
2175.0,0.649713
2180.0,0.650127
2185.0,0.65033
2190.0,0.651897
2195.0,0.65222
2200.0,0.650926
2205.0,0.649201
2210.0,0.650358
2215.0,0.650229
2220.0,0.648609
2225.0,0.649205
2230.0,0.647911
2235.0,0.646797
2240.0,0.646429
2245.0,0.648488
2250.0,0.648143
2255.0,0.650177
2260.0,0.651462
2265.0,0.651668
2270.0,0.651354
2275.0,0.652253
2280.0,0.652645
2285.0,0.65256
2290.0,0.653583
2295.0,0.653036
2300.0,0.652039
2305.0,0.65179
2310.0,0.652371
2315.0,0.65203
2320.0,0.650568
2325.0,0.651344
2330.0,0.649191
2335.0,0.647234
2340.0,0.645618
2345.0,0.646479
2350.0,0.644688
2355.0,0.644994
2360.0,0.646682
2365.0,0.648004
2370.0,0.64802
2375.0,0.648193
2380.0,0.649806
2385.0,0.649695
2390.0,0.648586
2395.0,0.648724
2400.0,0.649256
2405.0,0.651336
2410.0,0.649691
2415.0,0.65056
2420.0,0.650303
2425.0,0.652909
2430.0,0.652705
2435.0,0.651666
2440.0,0.650303
2445.0,0.650923
2450.0,0.647612
2455.0,0.645149
2460.0,0.646252
2465.0,0.646454
2470.0,0.644817
2475.0,0.645131
2480.0,0.642983
2485.0,0.642953
2490.0,0.644587
2495.0,0.645547
2500.0,0.647557
2505.0,0.649999
2510.0,0.648623
2515.0,0.64513
2520.0,0.644985
2525.0,0.645262
2530.08,0.646299
2535.03,0.645625
2540.0,0.645828
2544.99,0.645181
2549.99,0.646427
2552.5,0.644671
2553.76,0.644136
2555.02,0.645857
2556.28,0.646021
2557.54,0.644931
2558.8,0.644839
2560.07,0.644602
2561.33,0.642435
2562.6,0.642823
2563.86,0.645778
2565.13,0.647786
2566.4,0.649307
2567.67,0.648436
2568.95,0.644432
2570.22,0.643211
2571.5,0.646321
2572.77,0.646726
2574.05,0.642571
2575.33,0.646199
2576.61,0.647695
2577.89,0.645086
2579.17,0.647814
2580.46,0.64754
2581.74,0.64374
2583.03,0.644634
2584.31,0.642805
2585.6,0.646262
2586.89,0.649943
2588.19,0.646259
2589.48,0.647408
2590.77,0.648392
2592.07,0.647198
2593.36,0.644088
2594.66,0.636996
2595.96,0.638431
2597.26,0.65503
2598.56,0.656361
2599.87,0.649487
2601.17,0.645508
2602.48,0.644464
2603.78,0.645481
2605.09,0.644437
2606.4,0.64329
2607.71,0.648602
2609.03,0.649797
2610.34,0.647271
2611.65,0.647256
2612.97,0.64639
2614.29,0.644866
2615.61,0.645477
2616.93,0.642144
2618.25,0.643718
2619.57,0.649261
2620.9,0.64399
2622.22,0.646822
2623.55,0.651524
2624.88,0.64735
2626.21,0.642303
2627.54,0.64033
2628.87,0.646179
2630.21,0.643758
2631.54,0.640641
2632.88,0.648652
2634.21,0.648045
2635.55,0.645369
2636.89,0.645912
2638.24,0.644232
2639.58,0.643539
2640.92,0.643589
2642.27,0.64314
2643.62,0.643041
2644.97,0.643167
2646.32,0.641086
2647.67,0.642329
2649.02,0.644353
2650.38,0.643378
2651.73,0.641073
2653.09,0.639493
2654.45,0.642207
2655.81,0.643225
2657.17,0.642262
2658.53,0.642578
2659.89,0.639388
2661.26,0.639255
2662.63,0.641011
2664.0,0.640198
2665.36,0.634638
2666.74,0.634649
2668.11,0.641371
2669.48,0.644758
2670.86,0.635458
2672.23,0.639915
2673.61,0.647749
2674.99,0.640485
2676.37,0.633606
2677.76,0.632684
2679.14,0.63738
2680.52,0.637659
2681.91,0.637541
2683.3,0.63195
2684.69,0.627327
2686.08,0.626255
2687.47,0.623895
2688.87,0.621828
2690.26,0.6195
2691.66,0.615029
2693.06,0.60873
2694.46,0.601477
2695.86,0.599413
2697.26,0.595574
2698.66,0.585387
2700.07,0.57139
2701.48,0.558129
2702.89,0.550393
2704.3,0.544531
2705.71,0.534806
2707.12,0.523447
2708.53,0.511904
2709.95,0.501151
2711.37,0.493573
2712.79,0.492287
2714.21,0.493022
2715.63,0.490323
2717.05,0.490149
2718.48,0.491839
2719.9,0.493123
2721.33,0.493287
2722.76,0.501416
2724.19,0.502067
2725.62,0.497829
2727.06,0.50037
2728.49,0.499698
2729.93,0.495714
2731.37,0.491891
2732.81,0.489315
2734.25,0.486024
2735.69,0.482891
2737.14,0.483576
2738.58,0.480561
2740.03,0.474437
2741.48,0.474563
2742.93,0.477797
2744.38,0.476738
2745.83,0.4725
2747.29,0.469235
2748.75,0.467457
2750.2,0.466319
2751.66,0.463939
2753.13,0.461409
2754.59,0.459025
2756.05,0.455392
2757.52,0.459559
2758.99,0.461931
2760.46,0.457097
2761.93,0.452777
2763.4,0.450628
2764.87,0.452286
2766.35,0.452778
2767.82,0.45014
2769.3,0.44826
2770.78,0.447139
2772.26,0.446485
2773.75,0.447456
2775.23,0.446074
2776.72,0.443364
2778.21,0.441938
2779.7,0.441837
2781.19,0.440827
2782.68,0.440059
2784.18,0.439502
2785.67,0.438439
2787.17,0.436163
2788.67,0.436342
2790.17,0.438383
2791.67,0.437378
2793.18,0.434813
2794.68,0.433876
2796.19,0.433581
2797.7,0.433061
2799.21,0.432902
2800.72,0.432003
2802.24,0.430185
2803.75,0.428991
2805.27,0.430694
2806.79,0.431755
2808.31,0.430079
2809.83,0.429191
2811.35,0.428985
2812.88,0.428377
2814.41,0.427795
2815.93,0.427333
2817.46,0.427676
2819.0,0.427273
2820.53,0.426427
2822.07,0.426795
2823.6,0.42726
2825.14,0.426786
2826.68,0.425978
2828.22,0.425612
2829.77,0.42578
2831.31,0.425586
2832.86,0.424975
2834.41,0.424721
2835.96,0.424796
2837.51,0.424759
2839.07,0.424593
2840.62,0.424938
2842.18,0.424516
2843.74,0.423971
2845.3,0.423197
2846.86,0.423104
2848.43,0.422617
2849.99,0.421806
2851.56,0.421377
2853.13,0.421108
2854.7,0.420317
2856.27,0.419863
2857.85,0.419865
2859.42,0.419374
2861.0,0.418506
2862.58,0.417978
2864.16,0.41739
2865.75,0.416836
2867.33,0.416677
2868.92,0.416614
2870.51,0.41649
2872.1,0.416169
2873.69,0.416187
2875.28,0.416593
2876.88,0.416891
2878.48,0.417212
2880.07,0.418046
2881.68,0.418789
2883.28,0.419453
2884.88,0.419774
2886.49,0.420085
2888.1,0.420737
2889.71,0.421192
2891.32,0.421581
2892.93,0.421834
2894.55,0.42213
2896.16,0.422093
2897.78,0.422231
2899.4,0.422486
2901.03,0.422519
2902.65,0.423174
2904.28,0.423578
2905.91,0.423475
2907.53,0.423556
2909.17,0.423125
2910.8,0.423061
2912.44,0.423172
2914.07,0.423468
2915.71,0.423746
2917.35,0.423489
2918.99,0.423145
2920.64,0.423078
2922.29,0.423085
2923.93,0.42316
2925.58,0.423394
2927.24,0.423864
2928.89,0.423859
2930.55,0.423677
2932.2,0.423486
2933.86,0.423545
2935.52,0.423658
2937.19,0.424029
2938.85,0.424416
2940.52,0.42499
2942.19,0.42498
2943.86,0.424653
2945.53,0.424779
2947.21,0.425318
2948.88,0.425761
2950.56,0.426191
2952.24,0.426202
2953.92,0.426289
2955.61,0.426851
2957.29,0.427529
2958.98,0.427944
2960.67,0.428381
2962.36,0.429064
2964.06,0.429594
2965.75,0.429944
2967.45,0.430265
2969.15,0.430586
2970.85,0.431271
2972.55,0.431715
2974.26,0.432016
2975.97,0.432761
2977.68,0.43365
2979.39,0.434015
2981.1,0.434225
2982.82,0.434997
2984.53,0.43597
2986.25,0.436165
2987.97,0.436641
2989.7,0.437761
2991.42,0.43851
2993.15,0.438815
2994.88,0.439372
2996.61,0.43956
2998.34,0.440285
3000.08,0.441396
3001.82,0.441819
3003.55,0.442195
3005.3,0.442814
3007.04,0.44305
3008.78,0.443515
3010.53,0.444127
3012.28,0.444542
3014.03,0.445327
3015.79,0.446105
3017.54,0.446311
3019.3,0.446471
3021.06,0.446689
3022.82,0.447181
3024.58,0.447464
3026.35,0.4477
3028.12,0.447735
3029.89,0.448379
3031.66,0.448891
3033.43,0.449149
3035.21,0.449557
3036.99,0.449771
3038.77,0.44969
3040.55,0.4498
3042.33,0.450489
3044.12,0.450855
3045.91,0.451206
3047.7,0.451703
3049.49,0.452089
3051.29,0.452283
3053.08,0.452588
3054.88,0.453
3056.68,0.453229
3058.49,0.45383
3060.29,0.454359
3062.1,0.454749
3063.91,0.455101
3065.72,0.455526
3067.54,0.455867
3069.35,0.456249
3071.17,0.456464
3072.99,0.457158
3074.81,0.457918
3076.64,0.458439
3078.46,0.458805
3080.29,0.459284
3082.13,0.459975
3083.96,0.460905
3085.79,0.461322
3087.63,0.461549
3089.47,0.46207
3091.31,0.462581
3093.16,0.463124
3095.01,0.463848
3096.85,0.464574
3098.71,0.465357
3100.56,0.466117
3102.41,0.466531
3104.27,0.466822
3106.13,0.467385
3107.99,0.46811
3109.86,0.469085
3111.73,0.469873
3113.59,0.47046
3115.47,0.470891
3117.34,0.471616
3119.21,0.472482
3121.09,0.472842
3122.97,0.473478
3124.86,0.474342
3126.74,0.47519
3128.63,0.476005
3130.52,0.476712
3132.41,0.477354
3134.3,0.477677
3136.2,0.478308
3138.1,0.479307
3140.0,0.480146
3141.9,0.480949
3143.81,0.481814
3145.71,0.482377
3147.62,0.483055
3149.54,0.483805
3151.45,0.484354
3153.37,0.484951
3155.29,0.485726
3157.21,0.486659
3159.13,0.487488
3161.06,0.488366
3162.99,0.489234
3164.92,0.490017
3166.85,0.490854
3168.79,0.491614
3170.72,0.492206
3172.67,0.492923
3174.61,0.493913
3176.55,0.494648
3178.5,0.495459
3180.45,0.496302
3182.4,0.497166
3184.36,0.498192
3186.32,0.498995
3188.27,0.499799
3190.24,0.500403
3192.2,0.500963
3194.17,0.50193
3196.14,0.502921
3198.11,0.503849
3200.08,0.504336
3202.06,0.5051
3204.04,0.506215
3206.02,0.506901
3208.0,0.507362
3209.99,0.508199
3211.98,0.509063
3213.97,0.509839
3215.96,0.510469
3217.96,0.511212
3219.96,0.511958
3221.96,0.512595
3223.96,0.513394
3225.97,0.51406
3227.98,0.514625
3229.99,0.515356
3232.0,0.516101
3234.02,0.516993
3236.04,0.517397
3238.06,0.518001
3240.08,0.51847
3242.11,0.518942
3244.14,0.519337
3246.17,0.519708
3248.2,0.520491
3250.24,0.521111
3252.28,0.521615
3254.32,0.522327
3256.37,0.522903
3258.41,0.523518
3260.46,0.523915
3262.51,0.524271
3264.57,0.524851
3266.63,0.52556
3268.69,0.526318
3270.75,0.527277
3272.81,0.528263
3274.88,0.529429
3276.95,0.530327
3279.02,0.531139
3281.1,0.532159
3283.18,0.532899
3285.26,0.533477
3287.34,0.533993
3289.43,0.534397
3291.51,0.53479
3293.61,0.535377
3295.7,0.535671
3297.8,0.535643
3299.89,0.535694
3302.0,0.535724
3304.1,0.535966
3306.21,0.536457
3308.32,0.53728
3310.43,0.53841
3312.55,0.539577
3314.66,0.540747
3316.78,0.541689
3318.91,0.542315
3321.03,0.54287
3323.16,0.543173
3325.29,0.543299
3327.43,0.543345
3329.57,0.54351
3331.71,0.543719
3333.85,0.543884
3335.99,0.543924
3338.14,0.543959
3340.29,0.543927
3342.45,0.543829
3344.6,0.543424
3346.76,0.542945
3348.92,0.542699
3351.09,0.542819
3353.26,0.54288
3355.43,0.54313
3357.6,0.543233
3359.78,0.543454
3361.96,0.543719
3364.14,0.544217
3366.32,0.544472
3368.51,0.54429
3370.7,0.544172
3372.89,0.543835
3375.09,0.543645
3377.29,0.543796
3379.49,0.544122
3381.69,0.544571
3383.9,0.545097
3386.11,0.545851
3388.32,0.546414
3390.54,0.546833
3392.76,0.547111
3394.98,0.547277
3397.21,0.547148
3399.43,0.546245
3401.66,0.545269
3403.9,0.544554
3406.13,0.543819
3408.37,0.543168
3410.61,0.542681
3412.86,0.542212
3415.11,0.541865
3417.36,0.542089
3419.61,0.542814
3421.87,0.544158
3424.13,0.546113
3426.39,0.548373
3428.66,0.550675
3430.93,0.553115
3433.2,0.555007
3435.48,0.556598
3437.76,0.558176
3440.04,0.559505
3442.32,0.560531
3444.61,0.561738
3446.9,0.562787
3449.19,0.563913
3451.49,0.564896
3453.79,0.56594
3456.09,0.566991
3458.4,0.567842
3460.7,0.568288
3463.02,0.568711
3465.33,0.569151
3467.65,0.569579
3469.97,0.569671
3472.29,0.569695
3474.62,0.569656
3476.95,0.569701
3479.29,0.5702
3481.62,0.570776
3483.96,0.571452
3486.3,0.572242
3488.65,0.572608
3491.0,0.572817
3493.35,0.572846
3495.71,0.572835
3498.07,0.572751
3500.43,0.572681
3502.79,0.572945
3505.16,0.57403
3507.53,0.575598
3509.91,0.577525
3512.29,0.579469
3514.67,0.581499
3517.05,0.583371
3519.44,0.585013
3521.83,0.586475
3524.22,0.58812
3526.62,0.589319
3529.02,0.590308
3531.43,0.591334
3533.83,0.592325
3536.24,0.592981
3538.66,0.593798
3541.08,0.594603
3543.5,0.595338
3545.92,0.595858
3548.35,0.596356
3550.78,0.597104
3553.21,0.597774
3555.65,0.598192
3558.09,0.598724
3560.53,0.599087
3562.98,0.599686
3565.43,0.600233
3567.88,0.600662
3570.34,0.601202
3572.8,0.601855
3575.27,0.602172
3577.73,0.602571
3580.2,0.603252
3582.68,0.60379
3585.16,0.60411
3587.64,0.604431
3590.12,0.604715
3592.61,0.605367
3595.1,0.605966
3597.6,0.606345
3600.09,0.606595
3602.6,0.606951
3605.1,0.607268
3607.61,0.607798
3610.12,0.608339
3612.64,0.608664
3615.16,0.608814
3617.68,0.609163
3620.21,0.609538
3622.74,0.609797
3625.27,0.6104
3627.81,0.610944
3630.35,0.611011
3632.89,0.611334
3635.44,0.61172
3637.99,0.61202
3640.54,0.612287
3643.1,0.61263
3645.66,0.612891
3648.23,0.613259
3650.8,0.613668
3653.37,0.613982
3655.95,0.614302
3658.53,0.61475
3661.11,0.614998
3663.7,0.615521
3666.29,0.616095
3668.89,0.616509
3671.48,0.617033
3674.09,0.617301
3676.69,0.617465
3679.3,0.617795
3681.91,0.618283
3684.53,0.618758
3687.15,0.619179
3689.78,0.619466
3692.4,0.619765
3695.04,0.620123
3697.67,0.620574
3700.31,0.62099
3702.95,0.621097
3705.6,0.621609
3708.25,0.622061
3710.91,0.622316
3713.56,0.622598
3716.23,0.623087
3718.89,0.62351
3721.56,0.623847
3724.23,0.624113
3726.91,0.624423
3729.59,0.624998
3732.28,0.625535
3734.97,0.625784
3737.66,0.626189
3740.36,0.626633
3743.06,0.626829
3745.76,0.627056
3748.47,0.627499
3751.18,0.627794
3753.9,0.628219
3756.62,0.628701
3759.34,0.629091
3762.07,0.629393
3764.8,0.629687
3767.54,0.630218
3770.28,0.630705
3773.02,0.631034
3775.77,0.631412
3778.52,0.631821
3781.28,0.632156
3784.04,0.632528
3786.8,0.63297
3789.57,0.633554
3792.34,0.633941
3795.12,0.634021
3797.9,0.634222
3800.69,0.634384
3803.47,0.634569
3806.27,0.634971
3809.06,0.635564
3811.86,0.635949
3814.67,0.636106
3817.48,0.636291
3820.29,0.636507
3823.11,0.636651
3825.93,0.636866
3828.76,0.637135
3831.59,0.637594
3834.42,0.63791
3837.26,0.638017
3840.1,0.638074
3842.95,0.638177
3845.8,0.638265
3848.65,0.63865
3851.51,0.639145
3854.38,0.639498
3857.24,0.639829
3860.12,0.640061
3862.99,0.640244
3865.87,0.640546
3868.76,0.640793
3871.65,0.641151
3874.54,0.641517
3877.44,0.641939
3880.34,0.642095
3883.25,0.64238
3886.16,0.642635
3889.07,0.642975
3891.99,0.643152
3894.92,0.643359
3897.85,0.6437
3900.78,0.644034
3903.72,0.644372
3906.66,0.644624
3909.6,0.644781
3912.55,0.64515
3915.51,0.645362
3918.47,0.645407
3921.43,0.645589
3924.4,0.645786
3927.37,0.645814
3930.35,0.645921
3933.33,0.646126
3936.32,0.646279
3939.31,0.646349
3942.31,0.646422
3945.31,0.646454
3948.31,0.646276
3951.32,0.645837
3954.34,0.645596
3957.35,0.64527
3960.38,0.645058
3963.41,0.644766
3966.44,0.64453
3969.48,0.644261
3972.52,0.644173
3975.56,0.644166
3978.61,0.644249
3981.67,0.644377
3984.73,0.644629
3987.8,0.645023
3990.87,0.645549
3993.94,0.646235
3997.02,0.647094
4000.1,0.647889
4003.19,0.648901
4006.29,0.649776
4009.39,0.650695
4012.49,0.651559
4015.6,0.652392
4018.71,0.653207
4021.83,0.653875
4024.95,0.654377
4028.08,0.654867
4031.21,0.655207
4034.35,0.65543
4037.49,0.655781
4040.64,0.656295
4043.79,0.656732
4046.94,0.657092
4050.11,0.657285
4053.27,0.657408
4056.44,0.65749
4059.62,0.657794
4062.8,0.658223
4065.99,0.658375
4069.18,0.658426
4072.38,0.658652
4075.58,0.658718
4078.78,0.658892
4082.0,0.658974
4085.21,0.659216
4088.43,0.659294
4091.66,0.659434
4094.89,0.659466
4098.13,0.659548
4101.37,0.659776
4104.62,0.659963
4107.87,0.659883
4111.13,0.659887
4114.39,0.660145
4117.66,0.660323
4120.93,0.660198
4124.21,0.660118
4127.5,0.660169
4130.78,0.660178
4134.08,0.660169
4137.38,0.660145
4140.68,0.66021
4143.99,0.660347
4147.31,0.660514
4150.63,0.660527
4153.95,0.660302
4157.29,0.660138
4160.62,0.660193
4163.96,0.660232
4167.31,0.660203
4170.66,0.660256
4174.02,0.660211
4177.39,0.660249
4180.75,0.660132
4184.13,0.660007
4187.51,0.659824
4190.89,0.659745
4194.28,0.65952
4197.68,0.659333
4201.08,0.659102
4204.49,0.6589
4207.9,0.658642
4211.32,0.658445
4214.74,0.658206
4218.17,0.658199
4221.61,0.658267
4225.05,0.658345
4228.5,0.658274
4231.95,0.658212
4235.4,0.658187
4238.87,0.658083
4242.34,0.657955
4245.81,0.658019
4249.29,0.657817
4252.78,0.65756
4256.27,0.657036
4259.77,0.655823
4263.27,0.654041
4266.78,0.653319
4270.29,0.653311
4273.81,0.653311
4277.34,0.653061
4280.87,0.652771
4284.41,0.652407
4287.95,0.651848
4291.5,0.651068
4295.06,0.650476
4298.62,0.650029
4302.19,0.649664
4305.76,0.648832
4309.34,0.648183
4312.92,0.647536
4316.52,0.646779
4320.11,0.645817
4323.72,0.645094
4327.32,0.64443
4330.94,0.643582
4334.56,0.642835
4338.19,0.642106
4341.82,0.641162
4345.46,0.640457
4349.11,0.639891
4352.76,0.639268
4356.42,0.638501
4360.08,0.637821
4363.75,0.63702
4367.43,0.636395
4371.11,0.635622
4374.8,0.634894
4378.49,0.634246
4382.19,0.633566
4385.9,0.633008
4389.61,0.632533
4393.33,0.631809
4397.06,0.63107
4400.79,0.630369
4404.53,0.629729
4408.28,0.629037
4412.03,0.628525
4415.79,0.627881
4419.55,0.627121
4423.32,0.626377
4427.1,0.625789
4430.88,0.625103
4434.67,0.624541
4438.47,0.623863
4442.27,0.623244
4446.08,0.622646
4449.9,0.62194
4453.72,0.62118
4457.55,0.620445
4461.39,0.619664
4465.23,0.618943
4469.08,0.618345
4472.94,0.617753
4476.8,0.616954
4480.67,0.616159
4484.55,0.615426
4488.43,0.614852
4492.32,0.614102
4496.21,0.613218
4500.12,0.612318
4504.03,0.611566
4507.94,0.610746
4511.87,0.609859
4515.8,0.609016
4519.73,0.608163
4523.68,0.60716
4527.63,0.606216
4531.59,0.60529
4535.55,0.604365
4539.52,0.603227
4543.5,0.602072
4547.49,0.601107
4551.48,0.600178
4555.48,0.599139
4559.49,0.59788
4563.5,0.596509
4567.52,0.595364
4571.55,0.594168
4575.58,0.592925
4579.62,0.591868
4583.67,0.590727
4587.73,0.589409
4591.79,0.58828
4595.86,0.587108
4599.94,0.585823
4604.03,0.584597
4608.12,0.583471
4612.22,0.5822
4616.33,0.581027
4620.44,0.579843
4624.56,0.578571
4628.69,0.577291
4632.83,0.576019
4636.97,0.574763
4641.12,0.573588
4645.28,0.572437
4649.45,0.57132
4653.62,0.570177
4657.8,0.568931
4661.99,0.567675
4666.19,0.566555
4670.39,0.56539
4674.6,0.564301
4678.82,0.56322
4683.05,0.56214
4687.28,0.561142
4691.52,0.560075
4695.77,0.558945
4700.03,0.557941
4704.3,0.556916
4708.57,0.555769
4712.85,0.554804
4717.14,0.553875
4721.43,0.552891
4725.74,0.552015
4730.05,0.550979
4734.37,0.550062
4738.7,0.549224
4743.03,0.548348
4747.38,0.547289
4751.73,0.546403
4756.09,0.545608
4760.45,0.54475
4764.83,0.543682
4769.21,0.542672
4773.6,0.541953
4778.0,0.541316
4782.41,0.540558
4786.83,0.539709
4791.25,0.538811
4795.68,0.537992
4800.13,0.537188
4804.57,0.536376
4809.03,0.535574
4813.5,0.534828
4817.97,0.534215
4822.45,0.533453
4826.94,0.532538
4831.44,0.53175
4835.95,0.530985
4840.46,0.530191
4844.99,0.529403
4849.52,0.528832
4854.06,0.528164
4858.61,0.527498
4863.17,0.526815
4867.73,0.526094
4872.31,0.525335
4876.89,0.524548
4881.48,0.523722
4886.08,0.522964
4890.69,0.522298
4895.31,0.52152
4899.94,0.520659
4904.57,0.519833
4909.22,0.519017
4913.87,0.518247
4918.53,0.517493
4923.21,0.516812
4927.88,0.515851
4932.57,0.51492
4937.27,0.514126
4941.98,0.513266
4946.69,0.512265
4951.42,0.511293
4956.15,0.510306
4960.89,0.5093
4965.65,0.508418
4970.41,0.507317
4975.18,0.506241
4979.96,0.505233
4984.75,0.504058
4989.54,0.502758
4994.35,0.501438
4999.17,0.500097
5003.99,0.498837
5008.83,0.497541
5013.67,0.496124
5018.52,0.494701
5023.39,0.493333
5028.26,0.491994
5033.14,0.490208
5038.03,0.488593
5042.93,0.486952
5047.84,0.485153
5052.76,0.483224
5057.69,0.481485
5062.63,0.479807
5067.58,0.47796
5072.54,0.476111
5077.51,0.474225
5082.49,0.472193
5087.47,0.470433
5092.47,0.468801
5097.48,0.466729
5102.5,0.464715
5107.52,0.46273
5112.56,0.460872
5117.61,0.459049
5122.66,0.45722
5127.73,0.455252
5132.81,0.453225
5137.89,0.451314
5142.99,0.449512
5148.1,0.447523
5153.22,0.445937
5158.34,0.444449
5163.48,0.442424
5168.63,0.44071
5173.79,0.438773
5178.96,0.436967
5184.13,0.435273
5189.32,0.433691
5194.52,0.432007
5199.73,0.430209
5204.95,0.42882
5210.19,0.427612
5215.43,0.425523
5220.68,0.424886
5225.94,0.423593
5231.22,0.421734
5236.5,0.420091
5241.79,0.41879
5247.1,0.417736
5252.42,0.416492
5257.74,0.415222
5263.08,0.414127
5268.43,0.413068
5273.79,0.411905
5279.16,0.410817
5284.54,0.409897
5289.93,0.408566
5295.34,0.407443
5300.75,0.407062
5306.18,0.405842
5311.61,0.404571
5317.06,0.403642
5322.52,0.402679
5327.99,0.401652
5333.47,0.400476
5338.96,0.399344
5344.47,0.398295
5349.98,0.39679
5355.51,0.396245
5361.05,0.396085
5366.6,0.394562
5372.16,0.393014
5377.73,0.391675
5383.32,0.390543
5388.91,0.389317
5394.52,0.388144
5400.14,0.38681
5405.77,0.385514
5411.41,0.384149
5417.07,0.382845
5422.74,0.380979
5428.41,0.380939
5434.1,0.380743
5439.81,0.378324
5445.52,0.376694
5451.25,0.375537
5456.98,0.374493
5462.73,0.372889
5468.5,0.372101
5474.27,0.372105
5480.06,0.370351
5485.86,0.369481
5491.67,0.368795
5497.49,0.367306
5503.33,0.366284
5509.18,0.365442
5515.04,0.36467
5520.91,0.363409
5526.8,0.36268
5532.69,0.362042
5538.61,0.361117
5544.53,0.359821
5550.47,0.358519
5556.41,0.357333
5562.38,0.356626
5568.35,0.355394
5574.34,0.353986
5580.34,0.35239
5586.35,0.352991
5592.38,0.353147
5598.42,0.351698
5604.47,0.35078
5610.54,0.350612
5616.61,0.34962
5622.71,0.348954
5628.81,0.348302
5634.93,0.346966
5641.06,0.345217
5647.21,0.345079
5653.36,0.345749
5659.54,0.343776
5665.72,0.343023
5671.92,0.341387
5678.13,0.339721
5684.36,0.339642
5690.6,0.338198
5696.85,0.33637
5703.12,0.335576
5709.4,0.333062
5715.69,0.331831
5722.0,0.331519
5728.33,0.330022
5734.66,0.328184
5741.01,0.326339
5747.38,0.324607
5753.76,0.323366
5760.15,0.322333
5766.56,0.318757
5772.98,0.318971
5779.41,0.31961
5785.86,0.316946
5792.33,0.315309
5798.81,0.313931
5805.3,0.312808
5811.81,0.312166
5818.33,0.310595
5824.87,0.30994
5831.42,0.311954
5837.99,0.311908
5844.57,0.310756
5851.17,0.309471
5857.78,0.308421
5864.41,0.307335
5871.05,0.307079
5877.7,0.305388
5884.38,0.303028
5891.06,0.305337
5897.76,0.302556
5904.48,0.301593
5911.21,0.300657
5917.96,0.297232
5924.73,0.295437
5931.5,0.29332
5938.3,0.290552
5945.11,0.291565
5951.93,0.29094
5958.78,0.287977
5965.63,0.286259
5972.51,0.284955
5979.39,0.285945
5986.3,0.28452
5993.22,0.283816
6000.16,0.284689
6007.11,0.28373
6014.08,0.281875
6021.06,0.282049
6028.06,0.28218
6035.08,0.281147
6042.12,0.279777
6049.17,0.277848
6056.23,0.280573
6063.32,0.282581
6070.42,0.278897
6077.53,0.278128
6084.67,0.279164
6091.82,0.278217
6098.98,0.276814
6106.17,0.276352
6113.37,0.275195
6120.58,0.27656
6127.82,0.277712
6135.07,0.275997
6142.34,0.274877
6149.63,0.274882
6156.93,0.274308
6164.25,0.27376
6171.59,0.274229
6178.94,0.273255
6186.32,0.271678
6193.71,0.272602
6201.12,0.272796
6208.54,0.271209
6215.99,0.270462
6223.45,0.269993
6230.93,0.26963
6238.43,0.268815
6245.95,0.26818
6253.48,0.267711
6261.03,0.267489
6268.6,0.267412
6276.19,0.26772
6283.8,0.268043
6291.43,0.268214
6299.07,0.268376
6306.73,0.268475
6314.42,0.268422
6322.12,0.268456
6329.83,0.268517
6337.57,0.268633
6345.33,0.268314
6353.11,0.270638
6360.9,0.272003
6368.72,0.2709
6376.55,0.271443
6384.4,0.272891
6392.27,0.272628
6400.17,0.273003
6408.08,0.272596
6416.01,0.271829
6423.96,0.276026
6431.93,0.27706
6439.92,0.275532
6447.93,0.275555
6455.96,0.274969
6464.01,0.275318
6472.08,0.274681
6480.17,0.274606
6488.28,0.274529
6496.41,0.274528
6504.56,0.276369
6512.73,0.275952
6520.92,0.273367
6529.14,0.273372
6537.37,0.273349
6545.63,0.271967
6553.9,0.271117
6562.2,0.270982
6570.51,0.27009
6578.85,0.269492
6587.21,0.269848
6595.59,0.26819
6603.99,0.267553
6612.42,0.26634
6620.86,0.265017
6629.33,0.263828
6637.82,0.262327
6646.33,0.263388
6654.86,0.263452
6663.41,0.260976
6671.99,0.259448
6680.59,0.25837
6689.21,0.25752
6697.85,0.25691
6706.51,0.255225
6715.2,0.254405
6723.91,0.254734
6732.64,0.254434
6741.4,0.253895
6750.18,0.253019
6758.98,0.252542
6767.8,0.252012
6776.65,0.251146
6785.52,0.250426
6794.41,0.24952
6803.33,0.249552
6812.27,0.248189
6821.23,0.246242
6830.22,0.245017
6839.23,0.244628
6848.26,0.243245
6857.32,0.241396
6866.4,0.240369
6875.51,0.240689
6884.64,0.239216
6893.8,0.237265
6902.98,0.236241
6912.18,0.23538
6921.41,0.234941
6930.66,0.234023
6939.94,0.233376
6949.24,0.232579
6958.57,0.231454
6967.92,0.230964
6977.3,0.230953
6986.7,0.229309
6996.13,0.228178
7005.59,0.227408
7015.07,0.226486
7024.57,0.225098
7034.1,0.224346
7043.66,0.223076
7053.24,0.222353
7062.85,0.222011
7072.49,0.220655
7082.15,0.219387
7091.84,0.218273
7101.55,0.217028
7111.3,0.215773
7121.06,0.214389
7130.86,0.213073
7140.68,0.211478
7150.53,0.209987
7160.41,0.208858
7170.31,0.207487
7180.24,0.206321
7190.2,0.205057
7200.19,0.203493
7210.2,0.202177
7220.24,0.201015
7230.31,0.199633
7240.41,0.197957
7250.54,0.196369
7260.69,0.194693
7270.88,0.193156
7281.09,0.191594
7291.33,0.190264
7301.6,0.188588
7311.9,0.186951
7322.22,0.185164
7332.58,0.183371
7342.97,0.181373
7353.38,0.179466
7363.83,0.177391
7374.3,0.175326
7384.81,0.173088
7395.34,0.170988
7405.91,0.168616
7416.5,0.166414
7427.13,0.164148
7437.78,0.161849
7448.47,0.159352
7459.19,0.156865
7469.94,0.154215
7480.71,0.151609
7491.52,0.148855
7502.37,0.146061
7513.24,0.143095
7524.14,0.140088
7535.08,0.136838
7546.05,0.133793
7557.05,0.130478
7568.08,0.127203
7579.14,0.123891
7590.24,0.120615
7601.37,0.11717
7612.53,0.113591
7623.73,0.110017
7634.96,0.106675
7646.22,0.103135
7657.51,0.099578
7668.84,0.095913
7680.2,0.092376
7691.59,0.088778
7703.02,0.085148
7714.49,0.081453
7725.98,0.078074
7737.51,0.074618
7749.08,0.071123
7760.68,0.067611
7772.32,0.064395
7783.99,0.06109
7795.69,0.058032
7807.43,0.05491
7819.21,0.052074
7831.02,0.049259
7842.87,0.046589
7854.75,0.04404
7866.67,0.041778
7878.62,0.039381
7890.62,0.037217
7902.64,0.03532
7914.71,0.033587
7926.81,0.031889
7938.95,0.030709
7951.13,0.029715
7963.34,0.029011
7975.59,0.02849
7987.88,0.028363
8000.21,0.028571
8012.57,0.029368
8024.98,0.030448
8037.42,0.032056
8049.9,0.034141
8062.42,0.03703
8074.98,0.040428
8087.57,0.044391
8100.21,0.048704
8112.89,0.053857
8125.6,0.059543
8138.36,0.065612
8151.16,0.07211
8163.99,0.079107
8176.87,0.08624
8189.79,0.093731
8202.75,0.100987
8215.74,0.108106
8228.79,0.114682
8241.87,0.120609
8254.99,0.125803
8268.16,0.130194
8281.37,0.133351
8294.62,0.135195
8307.91,0.135738
8321.24,0.135407
8334.62,0.134065
8348.04,0.131993
8361.51,0.129396
8375.02,0.126637
8388.57,0.123649
8402.16,0.120763
8415.8,0.117926
8429.49,0.115304
8443.22,0.112719
8456.99,0.110467
8470.81,0.108419
8484.67,0.106554
8498.58,0.104842
8512.54,0.103568
8526.54,0.102166
8540.58,0.10094
8554.68,0.099774
8568.82,0.098747
8583.0,0.097672
8597.24,0.096725
8611.52,0.095781
8625.85,0.094932
8640.22,0.094085
8654.65,0.093346
8669.12,0.092469
8683.64,0.091584
8698.21,0.090852
8712.83,0.090164
8727.5,0.089189
8742.22,0.088211
8756.98,0.087269
8771.8,0.08653
8786.67,0.085592
8801.59,0.08467
8816.56,0.083616
8831.58,0.082693
8846.65,0.081652
8861.77,0.080807
8876.94,0.079916
8892.17,0.078877
8907.45,0.077805
8922.78,0.07693
8938.16,0.076111
8953.6,0.07533
8969.09,0.074492
8984.64,0.07373
9000.23,0.072731
9015.89,0.071915
9031.59,0.071139
9047.36,0.070269
9063.17,0.069466
9079.04,0.068751
9094.97,0.067868
9110.96,0.067074
9127.0,0.066202
9143.09,0.065622
9159.25,0.065016
9175.46,0.064447
9191.73,0.06374
9208.05,0.063111
9224.44,0.062619
9240.88,0.0626
9257.38,0.06253
9273.94,0.062352
9290.56,0.062455
9307.24,0.062914
9323.98,0.063111
9340.78,0.063611
9357.64,0.064007
9374.57,0.064466
9391.55,0.0651
9408.59,0.065853
9425.7,0.066484
9442.87,0.06719
9460.1,0.067735
9477.39,0.068286
9494.75,0.068838
9512.17,0.069365
9529.66,0.069864
9547.21,0.070744
9564.82,0.071375
9582.5,0.072026
9600.25,0.072596
9618.06,0.073295
9635.94,0.073872
9653.88,0.074508
9671.89,0.074961
9689.97,0.075392
9708.12,0.075602
9726.33,0.075742
9744.61,0.075956
9762.97,0.076332
9781.39,0.076525
9799.88,0.076748
9818.44,0.076948
9837.07,0.077163
9855.77,0.077349
9874.54,0.07757
9893.39,0.077682
9912.3,0.078058
9931.29,0.078199
9950.35,0.078192
9969.49,0.078057
9988.7,0.077982
10007.98,0.077767
10027.34,0.077554
10046.77,0.077177
10066.28,0.076785
10085.87,0.076465
10105.53,0.076182
10125.26,0.075645
10145.08,0.075263
10164.97,0.074871
10184.94,0.074474
10204.99,0.074116
10225.12,0.073769
10245.33,0.073511
10265.61,0.07348
10285.98,0.073608
10306.43,0.073836
10326.96,0.073817
10347.57,0.07396
10368.27,0.074107
10389.05,0.074599
10409.91,0.074776
10430.85,0.074964
10451.88,0.075379
10473.0,0.075712
10494.2,0.075744
10515.49,0.075799
10536.86,0.076015
10558.32,0.076104
10579.87,0.075917
10601.5,0.076166
10623.23,0.076393
10645.04,0.076438
10666.94,0.076315
10688.94,0.07636
10711.02,0.07644
10733.2,0.076549
10755.47,0.076658
10777.83,0.076972
10800.28,0.076999
10822.83,0.076994
10845.47,0.077129
10868.21,0.077281
10891.04,0.077287
10913.97,0.077321
10936.99,0.077399
10960.12,0.077669
10983.34,0.077651
11006.66,0.077829
11030.07,0.078203
11053.59,0.078483
11077.21,0.078962
11100.93,0.079597
11124.75,0.080282
11148.68,0.081134
11172.7,0.082135
11196.84,0.083503
11221.07,0.085062
11245.41,0.08686
11269.86,0.088798
11294.41,0.090823
11319.07,0.092986
11343.84,0.095167
11368.72,0.097038
11393.7,0.098822
11418.8,0.100682
11444.01,0.102379
11469.33,0.103858
11494.76,0.105252
11520.3,0.106426
11545.96,0.107606
11571.73,0.108618
11597.62,0.109621
11623.62,0.110465
11649.74,0.111479
11675.98,0.112462
11702.34,0.113552
11728.81,0.114907
11755.41,0.116306
11782.13,0.117381
11808.96,0.118603
11835.92,0.120084
11863.01,0.12169
11890.22,0.123149
11917.55,0.124517
11945.01,0.125817
11972.6,0.127163
12000.31,0.128723
12028.16,0.130141
12056.13,0.131273
12084.23,0.132309
12112.46,0.132931
12140.83,0.133077
12169.33,0.132791
12197.96,0.131926
12226.73,0.130246
12255.64,0.127788
12284.68,0.124711
12313.86,0.121131
12343.18,0.116834
12372.64,0.112317
12402.24,0.107318
12431.98,0.102045
12461.86,0.097078
12491.89,0.092752
12522.06,0.088627
12552.38,0.084526
12582.85,0.080521
12613.47,0.076785
12644.23,0.073467
12675.15,0.070643
12706.21,0.067968
12737.43,0.065646
12768.8,0.063355
12800.33,0.061328
12832.02,0.059847
12863.86,0.05899
12895.86,0.058237
12928.02,0.057242
12960.34,0.056186
12992.82,0.055589
13025.46,0.055003
13058.27,0.054297
13091.25,0.053658
13124.39,0.052916
13157.7,0.052346
13191.18,0.05217
13224.83,0.051929
13258.66,0.051724
13292.65,0.051632
13326.83,0.051718
13361.17,0.05203
13395.7,0.052527
13430.4,0.053007
13465.29,0.0535
13500.35,0.053828
13535.6,0.054109
13571.03,0.054378
13606.65,0.054495
13642.46,0.054375
13678.46,0.054212
13714.64,0.054032
13751.02,0.053976
13787.59,0.054019
13824.36,0.054224
13861.32,0.054345
13898.48,0.054363
13935.85,0.054215
13973.41,0.054125
14011.17,0.053899
14049.15,0.053602
14087.32,0.053191
14125.71,0.053158
14164.3,0.053013
14203.11,0.052348
14242.13,0.05169
14281.36,0.051216
14320.81,0.050695
14360.48,0.05035
14400.38,0.049992
14440.49,0.049429
14480.82,0.048707
14521.39,0.047805
14562.18,0.0469
14603.2,0.046424
14644.45,0.045977
14685.93,0.045821
14727.66,0.045524
14769.62,0.045217
14811.81,0.04507
14854.25,0.045072
14896.94,0.044833
14939.87,0.044936
14983.05,0.044963
15026.48,0.044849
15070.16,0.044932
15114.1,0.045523
15158.29,0.046373
15202.74,0.048042
15247.46,0.049955
15292.43,0.052365
15337.68,0.05494
15383.19,0.057558
15428.97,0.059921
15475.03,0.06197
15521.36,0.06356
15567.97,0.064672
15614.86,0.064964
15662.04,0.065001
15709.5,0.064937
15757.25,0.065014
15805.29,0.064507
15853.62,0.064401
15902.25,0.064375
15951.18,0.06418
16000.42,0.063987
16049.95,0.063689
16099.8,0.063222
16149.95,0.062866
16200.42,0.062695
16251.21,0.063491
16302.31,0.064593
16353.74,0.066038
16405.49,0.067691
16457.57,0.069367
16509.98,0.070998
16562.73,0.071986
16615.82,0.072468
16669.24,0.072781
16723.02,0.072944
16777.13,0.072843
16831.61,0.072211
16886.43,0.07191
16941.62,0.071833
16997.16,0.071476
17053.07,0.071152
17109.36,0.071357
17166.01,0.071238
17223.04,0.071303
17280.45,0.071129
17338.24,0.071046
17396.43,0.070557
17455.0,0.070203
17513.97,0.070141
17573.34,0.069754
17633.11,0.069629
17693.29,0.069242
17753.89,0.068045
17814.9,0.06761
17876.33,0.06784
17938.18,0.067618
18000.47,0.067078
18063.19,0.067669
18126.35,0.068565
18189.95,0.069919
18254.0,0.070936
18318.5,0.072317
18383.46,0.07406
18448.88,0.075463
18514.77,0.075944
18581.13,0.076127
18647.97,0.076024
18715.29,0.074652
18783.1,0.074086
18851.4,0.074549
18920.2,0.074282
18989.51,0.073583
19059.32,0.073016
19129.65,0.072614
19200.5,0.071865
19271.88,0.072089
19343.79,0.072663
19416.23,0.07269
19489.23,0.072349
19562.77,0.072722
19636.88,0.072807
19711.54,0.072962
19786.77,0.072588
19862.59,0.07178
19938.98,0.071961
20015.96,0.072263
20093.54,0.071632
20171.73,0.0704
20250.53,0.068754
20329.94,0.067245
20409.98,0.065526
20490.65,0.064072
20571.96,0.062837
20653.92,0.061882
20736.54,0.06083
20819.82,0.060209
20903.77,0.06053
20988.4,0.060928
21073.72,0.059845
21159.73,0.060209
21246.46,0.060594
21333.89,0.060712
21422.04,0.060906
21510.93,0.060564
21600.56,0.060128
21690.94,0.060038
21782.08,0.059227
21873.99,0.058128
21966.67,0.057644
22060.15,0.057531
22154.42,0.056901
22249.51,0.058076
22345.41,0.058939
22442.14,0.059293
22539.72,0.060388
22638.14,0.061549
22737.43,0.061488
22837.6,0.061712
22938.65,0.063379
23040.6,0.065747
23143.46,0.066977
23247.24,0.068042
23351.96,0.068791
23457.62,0.070029
23564.25,0.071581
23671.85,0.072243
23780.44,0.071518
23890.02,0.07145
24000.63,0.073227
24112.26,0.073593
24224.93,0.073091
24338.66,0.073602
24453.47,0.073842
24569.36,0.075735
24686.36,0.075843
24804.47,0.076775
24923.72,0.07802
25044.13,0.078949
25165.7,0.077745
25288.46,0.076946
25412.43,0.078699
25537.61,0.080817
25664.03,0.080781
25791.71,0.080612
25920.67,0.080866
