Database of Origin,University of Winnipeg Spectrophotometer Facility
Sample Description,"RELAB plus Nicolet Melilite data. Merged @2500nm, different viewing geometries. See Master Melilites in PSF sample database for additional info."
Date Added,2016-11-08 17:15:35.762398

Data ID,RLA_MEL_03          
Sample ID,MEL104
Mineral Name,Melilite
Grain Size,<45
Viewing Geometry,"30/0,30"
Resolution,5 nm
Material Class,Sorosilicate

Wavelength
300.0,0.083784
305.0,0.086682
310.0,0.087511
315.0,0.09129
320.0,0.095761
325.0,0.101248
330.0,0.10797
335.0,0.115739
340.0,0.123241
345.0,0.132461
350.0,0.141302
355.0,0.151754
360.0,0.1615
365.0,0.173324
370.0,0.185501
375.0,0.197738
380.0,0.211105
385.0,0.222945
390.0,0.233758
395.0,0.245864
400.0,0.25411
405.0,0.265431
410.0,0.277607
415.0,0.287751
420.0,0.297225
425.0,0.307414
430.0,0.317347
435.0,0.325648
440.0,0.332339
445.0,0.336609
450.0,0.341901
455.0,0.345296
460.0,0.351998
465.0,0.356029
470.0,0.359824
475.0,0.367719
480.0,0.374477
485.0,0.383027
490.0,0.389087
495.0,0.396154
500.0,0.401113
505.0,0.405714
510.0,0.411506
515.0,0.415848
520.0,0.423108
525.0,0.426647
530.0,0.431177
535.0,0.436117
540.0,0.440031
545.0,0.444755
550.0,0.446002
555.0,0.451575
560.0,0.457085
565.0,0.458162
570.0,0.462599
575.0,0.466687
580.0,0.470201
585.0,0.474228
590.0,0.474862
595.0,0.477256
600.0,0.480823
605.0,0.483761
610.0,0.484973
615.0,0.485418
620.0,0.487981
625.0,0.489369
630.0,0.489944
635.0,0.49241
640.0,0.49375
645.0,0.494703
650.0,0.496967
655.0,0.498478
660.0,0.499858
665.0,0.501082
670.0,0.503846
675.0,0.504358
680.0,0.506167
685.0,0.504163
690.0,0.503463
695.0,0.507321
700.0,0.508114
705.0,0.507757
710.0,0.506385
715.0,0.507751
720.0,0.506531
725.0,0.507939
730.0,0.507582
735.0,0.508839
740.0,0.510204
745.0,0.507761
750.0,0.507646
755.0,0.508977
760.0,0.507043
765.0,0.508364
770.0,0.507047
775.0,0.50501
780.0,0.508001
785.0,0.50792
790.0,0.507147
795.0,0.508746
800.0,0.509025
805.0,0.508844
810.0,0.507376
815.0,0.507763
820.0,0.507797
825.0,0.507943
830.0,0.507326
835.0,0.507053
840.0,0.506962
845.0,0.506298
850.0,0.505377
855.0,0.504672
860.0,0.504308
865.0,0.503758
870.0,0.502861
875.0,0.502317
880.0,0.501271
885.0,0.500384
890.0,0.500142
895.0,0.4982
900.0,0.4982
905.0,0.496676
910.0,0.49581
915.0,0.495885
920.0,0.494583
925.0,0.492114
930.0,0.492775
935.0,0.492762
940.0,0.491669
945.0,0.49026
950.0,0.490583
955.0,0.490744
960.0,0.489552
965.0,0.488003
970.0,0.486993
975.0,0.487363
980.0,0.487607
985.0,0.485573
990.0,0.485392
995.0,0.484191
1000.0,0.48292
1005.0,0.484407
1010.0,0.483771
1015.0,0.482461
1020.0,0.482468
1025.0,0.482069
1030.0,0.482108
1035.0,0.481042
1040.0,0.480324
1045.0,0.479393
1050.0,0.47773
1055.0,0.478782
1060.0,0.477785
1065.0,0.477422
1070.0,0.476997
1075.0,0.475943
1080.0,0.475586
1085.0,0.475249
1090.0,0.47442
1095.0,0.474205
1100.0,0.472848
1105.0,0.472712
1110.0,0.472456
1115.0,0.471106
1120.0,0.47106
1125.0,0.470466
1130.0,0.469832
1135.0,0.468872
1140.0,0.467877
1145.0,0.467694
1150.0,0.466409
1155.0,0.465699
1160.0,0.464089
1165.0,0.464325
1170.0,0.462086
1175.0,0.462569
1180.0,0.461374
1185.0,0.460774
1190.0,0.458348
1195.0,0.457498
1200.0,0.456405
1205.0,0.456333
1210.0,0.454659
1215.0,0.452898
1220.0,0.450928
1225.0,0.450388
1230.0,0.449326
1235.0,0.44754
1240.0,0.446128
1245.0,0.445296
1250.0,0.44315
1255.0,0.442434
1260.0,0.440916
1265.0,0.439312
1270.0,0.438417
1275.0,0.436873
1280.0,0.435666
1285.0,0.433147
1290.0,0.432511
1295.0,0.430464
1300.0,0.428426
1305.0,0.427759
1310.0,0.425497
1315.0,0.424415
1320.0,0.4224
1325.0,0.42135
1330.0,0.419892
1335.0,0.417494
1340.0,0.416488
1345.0,0.413686
1350.0,0.41238
1355.0,0.410028
1360.0,0.408092
1365.0,0.407072
1370.0,0.405562
1375.0,0.403562
1380.0,0.400776
1385.0,0.401762
1390.0,0.399863
1395.0,0.397039
1400.0,0.393985
1405.0,0.393728
1410.0,0.393526
1415.0,0.391751
1420.0,0.389852
1425.0,0.388843
1430.0,0.387359
1435.0,0.386325
1440.0,0.384733
1445.0,0.383665
1450.0,0.381748
1455.0,0.380094
1460.0,0.379186
1465.0,0.377802
1470.0,0.377317
1475.0,0.376403
1480.0,0.374718
1485.0,0.373673
1490.0,0.373583
1495.0,0.372246
1500.0,0.371336
1505.0,0.370508
1510.0,0.369907
1515.0,0.370032
1520.0,0.369305
1525.0,0.368214
1530.0,0.367736
1535.0,0.366406
1540.0,0.366707
1545.0,0.366243
1550.0,0.366072
1555.0,0.365037
1560.0,0.365098
1565.0,0.364376
1570.0,0.363663
1575.0,0.362321
1580.0,0.362466
1585.0,0.361953
1590.0,0.362224
1595.0,0.362333
1600.0,0.362348
1605.0,0.362528
1610.0,0.362235
1615.0,0.362759
1620.0,0.362059
1625.0,0.362318
1630.0,0.362187
1635.0,0.362361
1640.0,0.362058
1645.0,0.362608
1650.0,0.362891
1655.0,0.363028
1660.0,0.362972
1665.0,0.363071
1670.0,0.363375
1675.0,0.363225
1680.0,0.364588
1685.0,0.364498
1690.0,0.364213
1695.0,0.364908
1700.0,0.366675
1705.0,0.365716
1710.0,0.366549
1715.0,0.36687
1720.0,0.367072
1725.0,0.366631
1730.0,0.367652
1735.0,0.367837
1740.0,0.36818
1745.0,0.368557
1750.0,0.369825
1755.0,0.36871
1760.0,0.368642
1765.0,0.369024
1770.0,0.36943
1775.0,0.369339
1780.0,0.369007
1785.0,0.369596
1790.0,0.36961
1795.0,0.37024
1800.0,0.370384
1805.0,0.370633
1810.0,0.370052
1815.0,0.371942
1820.0,0.371314
1825.0,0.371797
1830.0,0.372145
1835.0,0.37084
1840.0,0.373002
1845.0,0.37059
1850.0,0.371346
1855.0,0.37155
1860.0,0.372943
1865.0,0.371411
1870.0,0.369548
1875.0,0.373503
1880.0,0.371584
1885.0,0.370478
1890.0,0.371256
1895.0,0.370283
1900.0,0.369493
1905.0,0.3705
1910.0,0.369153
1915.0,0.369249
1920.0,0.368402
1925.0,0.369114
1930.0,0.369204
1935.0,0.368649
1940.0,0.369815
1945.0,0.368623
1950.0,0.369707
1955.0,0.370034
1960.0,0.368845
1965.0,0.368782
1970.0,0.368787
1975.0,0.368883
1980.0,0.371075
1985.0,0.371788
1990.0,0.372488
1995.0,0.371887
2000.0,0.37282
2005.0,0.373823
2010.0,0.37428
2015.0,0.374861
2020.0,0.375573
2025.0,0.375506
2030.0,0.375961
2035.0,0.377284
2040.0,0.37699
2045.0,0.378102
2050.0,0.379128
2055.0,0.378803
2060.0,0.379634
2065.0,0.380856
2070.0,0.382067
2075.0,0.383428
2080.0,0.383352
2085.0,0.38324
2090.0,0.384244
2095.0,0.38432
2100.0,0.386302
2105.0,0.387473
2110.0,0.388521
2115.0,0.388464
2120.0,0.387919
2125.0,0.389153
2130.0,0.391254
2135.0,0.391302
2140.0,0.392882
2145.0,0.393777
2150.0,0.39367
2155.0,0.395212
2160.0,0.396005
2165.0,0.396441
2170.0,0.39615
2175.0,0.397262
2180.0,0.400317
2185.0,0.400781
2190.0,0.401313
2195.0,0.401249
2200.0,0.402542
2205.0,0.403628
2210.0,0.404955
2215.0,0.405872
2220.0,0.407234
2225.0,0.408778
2230.0,0.40963
2235.0,0.408931
2240.0,0.409681
2245.0,0.411257
2250.0,0.411385
2255.0,0.411364
2260.0,0.412476
2265.0,0.413773
2270.0,0.413226
2275.0,0.415576
2280.0,0.416067
2285.0,0.416082
2290.0,0.417221
2295.0,0.417838
2300.0,0.418534
2305.0,0.41938
2310.0,0.419736
2315.0,0.420796
2320.0,0.419776
2325.0,0.420048
2330.0,0.4212
2335.0,0.421772
2340.0,0.420809
2345.0,0.420902
2350.0,0.421469
2355.0,0.42116
2360.0,0.421551
2365.0,0.422718
2370.0,0.42245
2375.0,0.422034
2380.0,0.422935
2385.0,0.423738
2390.0,0.423453
2395.0,0.423763
2400.0,0.423514
2405.0,0.423954
2410.0,0.424268
2415.0,0.424943
2420.0,0.425896
2425.0,0.425226
2430.0,0.42462
2435.0,0.42397
2440.0,0.424672
2445.0,0.42382
2450.0,0.424408
2455.0,0.424877
2460.0,0.424076
2465.0,0.42323
2470.0,0.423681
2475.0,0.424334
2480.0,0.424076
2485.0,0.424148
2490.0,0.424726
2495.0,0.425609
2500.0,0.424419
2502.0,0.424347
2503.2,0.424604
2504.41,0.424744
2505.62,0.424602
2506.83,0.424255
2508.05,0.423985
2509.26,0.424186
2510.48,0.42432
2511.69,0.424082
2512.91,0.423694
2514.13,0.423561
2515.35,0.423811
2516.57,0.42373
2517.79,0.423564
2519.02,0.42367
2520.24,0.423842
2521.47,0.424115
2522.69,0.424038
2523.92,0.423808
2525.15,0.423825
2526.38,0.423574
2527.61,0.423361
2528.85,0.423482
2530.08,0.423438
2531.32,0.423241
2532.55,0.423329
2533.79,0.423314
2535.03,0.423452
2536.27,0.423526
2537.51,0.423481
2538.75,0.423337
2540.0,0.42325
2541.24,0.422911
2542.49,0.422478
2543.74,0.422387
2544.99,0.423161
2546.24,0.423394
2547.49,0.423003
2548.74,0.422923
2549.99,0.423333
2551.25,0.42299
2552.5,0.422582
2553.76,0.423161
2555.02,0.42365
2556.28,0.423129
2557.54,0.422659
2558.8,0.42253
2560.07,0.422397
2561.33,0.422033
2562.6,0.422308
2563.86,0.422641
2565.13,0.422967
2566.4,0.423199
2567.67,0.42304
2568.95,0.422076
2570.22,0.421715
2571.5,0.422938
2572.77,0.422911
2574.05,0.422046
2575.33,0.423072
2576.61,0.422956
2577.89,0.422693
2579.17,0.423315
2580.46,0.422887
2581.74,0.422035
2583.03,0.422276
2584.31,0.422037
2585.6,0.423142
2586.89,0.423249
2588.19,0.422266
2589.48,0.42247
2590.77,0.423091
2592.07,0.423218
2593.36,0.42215
2594.66,0.42023
2595.96,0.421714
2597.26,0.425052
2598.56,0.424985
2599.87,0.423371
2601.17,0.422461
2602.48,0.422219
2603.78,0.422498
2605.09,0.422024
2606.4,0.422093
2607.71,0.423262
2609.03,0.423485
2610.34,0.423133
2611.66,0.423181
2612.97,0.422647
2614.29,0.422369
2615.61,0.42241
2616.93,0.421479
2618.25,0.422307
2619.57,0.423093
2620.9,0.421636
2622.22,0.422799
2623.55,0.423538
2624.88,0.422425
2626.21,0.421322
2627.54,0.421326
2628.87,0.422534
2630.21,0.421754
2631.54,0.421553
2632.88,0.422927
2634.21,0.422158
2635.55,0.421884
2636.89,0.421952
2638.24,0.421601
2639.58,0.421318
2640.92,0.420935
2642.27,0.420612
2643.62,0.42077
2644.97,0.420519
2646.32,0.420284
2647.67,0.420699
2649.02,0.421086
2650.38,0.420725
2651.73,0.420007
2653.09,0.419464
2654.45,0.419887
2655.81,0.419706
2657.17,0.419575
2658.53,0.419599
2659.89,0.418893
2661.26,0.418863
2662.63,0.419082
2664.0,0.41844
2665.36,0.416742
2666.74,0.416628
2668.11,0.418077
2669.48,0.417898
2670.86,0.414975
2672.23,0.416083
2673.61,0.417188
2674.99,0.415061
2676.37,0.412852
2677.76,0.41202
2679.14,0.411971
2680.52,0.411363
2681.91,0.410899
2683.3,0.409259
2684.69,0.408317
2686.08,0.407755
2687.47,0.406776
2688.87,0.405558
2690.26,0.404773
2691.66,0.403443
2693.06,0.400972
2694.46,0.398802
2695.86,0.398346
2697.26,0.397365
2698.66,0.39547
2700.07,0.392987
2701.48,0.390605
2702.89,0.388934
2704.3,0.387496
2705.71,0.385324
2707.12,0.383244
2708.53,0.381155
2709.95,0.379356
2711.37,0.377865
2712.79,0.377454
2714.21,0.376848
2715.63,0.374946
2717.05,0.373178
2718.48,0.371801
2719.9,0.369689
2721.33,0.367559
2722.76,0.367724
2724.19,0.366081
2725.62,0.363846
2727.06,0.363542
2728.49,0.362126
2729.93,0.359858
2731.37,0.35783
2732.81,0.356127
2734.25,0.35379
2735.69,0.352015
2737.14,0.351318
2738.58,0.349253
2740.03,0.346198
2741.48,0.345177
2742.93,0.344988
2744.38,0.343612
2745.83,0.34108
2747.29,0.338898
2748.75,0.337406
2750.2,0.335918
2751.66,0.334052
2753.13,0.332692
2754.59,0.33083
2756.05,0.32864
2757.52,0.328741
2758.99,0.328318
2760.46,0.326362
2761.93,0.324527
2763.4,0.323131
2764.87,0.32282
2766.35,0.322536
2767.82,0.321448
2769.3,0.320303
2770.78,0.319373
2772.26,0.318531
2773.75,0.318029
2775.23,0.316894
2776.72,0.315563
2778.21,0.314193
2779.7,0.313383
2781.19,0.312887
2782.68,0.312034
2784.18,0.311182
2785.67,0.310402
2787.17,0.309039
2788.67,0.308553
2790.17,0.308309
2791.67,0.307469
2793.18,0.306443
2794.68,0.305603
2796.19,0.304648
2797.7,0.304006
2799.21,0.303464
2800.72,0.302736
2802.24,0.301546
2803.75,0.300719
2805.27,0.300803
2806.79,0.300664
2808.31,0.299925
2809.83,0.299393
2811.35,0.29902
2812.88,0.298301
2814.41,0.297323
2815.93,0.296903
2817.46,0.296838
2819.0,0.296236
2820.53,0.295355
2822.07,0.294848
2823.6,0.294766
2825.14,0.294488
2826.68,0.294009
2828.22,0.293649
2829.77,0.293444
2831.31,0.293292
2832.86,0.292837
2834.41,0.292394
2835.96,0.291907
2837.51,0.291465
2839.07,0.291194
2840.62,0.291026
2842.18,0.290895
2843.74,0.290603
2845.3,0.290156
2846.86,0.289777
2848.43,0.289513
2849.99,0.28928
2851.56,0.289066
2853.13,0.288813
2854.7,0.288475
2856.27,0.288224
2857.85,0.287948
2859.42,0.287806
2861.0,0.287607
2862.58,0.287359
2864.16,0.287032
2865.75,0.286551
2867.33,0.286322
2868.92,0.286283
2870.51,0.286029
2872.1,0.285787
2873.69,0.285388
2875.28,0.285323
2876.88,0.285252
2878.48,0.284944
2880.07,0.284809
2881.68,0.284755
2883.28,0.284623
2884.88,0.284354
2886.49,0.284297
2888.1,0.284288
2889.71,0.283973
2891.32,0.283966
2892.93,0.28381
2894.55,0.283479
2896.16,0.283377
2897.78,0.283434
2899.4,0.283406
2901.03,0.283328
2902.65,0.283447
2904.28,0.283377
2905.91,0.283131
2907.54,0.28291
2909.17,0.282864
2910.8,0.282749
2912.44,0.282703
2914.07,0.282806
2915.71,0.282542
2917.35,0.282487
2918.99,0.282669
2920.64,0.282743
2922.29,0.282636
2923.93,0.282591
2925.58,0.28242
2927.24,0.282493
2928.89,0.282542
2930.55,0.282393
2932.2,0.282429
2933.86,0.282468
2935.52,0.282514
2937.19,0.282847
2938.85,0.282606
2940.52,0.282369
2942.19,0.282441
2943.86,0.282625
2945.53,0.28265
2947.21,0.28267
2948.88,0.28267
2950.56,0.282741
2952.24,0.282688
2953.92,0.282713
2955.61,0.28272
2957.29,0.28286
2958.98,0.283096
2960.67,0.28329
2962.36,0.28335
2964.06,0.283512
2965.75,0.283497
2967.45,0.283259
2969.15,0.283237
2970.85,0.283576
2972.55,0.283757
2974.26,0.283929
2975.97,0.284082
2977.68,0.284258
2979.39,0.284375
2981.1,0.284629
2982.82,0.28484
2984.53,0.28474
2986.25,0.284864
2987.97,0.285285
2989.7,0.28546
2991.42,0.285688
2993.15,0.285733
2994.88,0.285839
2996.61,0.286091
2998.34,0.28644
3000.08,0.286638
3001.82,0.286979
3003.55,0.287184
3005.3,0.287387
3007.04,0.287433
3008.78,0.287743
3010.53,0.288146
3012.28,0.288546
3014.03,0.288847
3015.79,0.288863
3017.54,0.289097
3019.3,0.289457
3021.06,0.289538
3022.82,0.289837
3024.58,0.290002
3026.35,0.290148
3028.12,0.290662
3029.89,0.291014
3031.66,0.29116
3033.43,0.291381
3035.21,0.291388
3036.99,0.291453
3038.77,0.291751
3040.55,0.292044
3042.33,0.292287
3044.12,0.292499
3045.91,0.292787
3047.7,0.293062
3049.49,0.293233
3051.29,0.293506
3053.08,0.293984
3054.88,0.294242
3056.68,0.29432
3058.49,0.294475
3060.29,0.294738
3062.1,0.295028
3063.91,0.295416
3065.72,0.295744
3067.54,0.295894
3069.35,0.296064
3071.17,0.296298
3072.99,0.296443
3074.81,0.296664
3076.64,0.297082
3078.47,0.297406
3080.29,0.29776
3082.13,0.297957
3083.96,0.298279
3085.79,0.298677
3087.63,0.299068
3089.47,0.299297
3091.31,0.299426
3093.16,0.299569
3095.01,0.30014
3096.85,0.300738
3098.71,0.301085
3100.56,0.301247
3102.41,0.301722
3104.27,0.301965
3106.13,0.302122
3107.99,0.302508
3109.86,0.303023
3111.73,0.303357
3113.59,0.30368
3115.47,0.304104
3117.34,0.304656
3119.21,0.304926
3121.09,0.305112
3122.97,0.30561
3124.86,0.30605
3126.74,0.306409
3128.63,0.306754
3130.52,0.307067
3132.41,0.307503
3134.3,0.308008
3136.2,0.30845
3138.1,0.308743
3140.0,0.309183
3141.9,0.309683
3143.81,0.310098
3145.71,0.310323
3147.62,0.310648
3149.54,0.310966
3151.45,0.311343
3153.37,0.311874
3155.29,0.312332
3157.21,0.312606
3159.13,0.312957
3161.06,0.313296
3162.99,0.313705
3164.92,0.314098
3166.85,0.314606
3168.79,0.315076
3170.72,0.315315
3172.67,0.315631
3174.61,0.316183
3176.55,0.316788
3178.5,0.317018
3180.45,0.317265
3182.4,0.317797
3184.36,0.318042
3186.32,0.318328
3188.27,0.319019
3190.24,0.319516
3192.2,0.319877
3194.17,0.320199
3196.14,0.320434
3198.11,0.320677
3200.08,0.321005
3202.06,0.321506
3204.04,0.321702
3206.02,0.321908
3208.0,0.322368
3209.99,0.322766
3211.98,0.323148
3213.97,0.323688
3215.96,0.323901
3217.96,0.324055
3219.96,0.32435
3221.96,0.324848
3223.96,0.325317
3225.97,0.325541
3227.98,0.325722
3229.99,0.326114
3232.0,0.326393
3234.02,0.326772
3236.04,0.32699
3238.06,0.32718
3240.08,0.327448
3242.11,0.327761
3244.14,0.328042
3246.17,0.328223
3248.2,0.32839
3250.24,0.328745
3252.28,0.329233
3254.32,0.329632
3256.37,0.329761
3258.41,0.32994
3260.46,0.329977
3262.51,0.330168
3264.57,0.330618
3266.63,0.331006
3268.69,0.331317
3270.75,0.331546
3272.81,0.331741
3274.88,0.331929
3276.95,0.332151
3279.02,0.332338
3281.1,0.332667
3283.18,0.332947
3285.26,0.332875
3287.34,0.333013
3289.43,0.33334
3291.51,0.333759
3293.61,0.333896
3295.7,0.334027
3297.8,0.3342
3299.9,0.334381
3302.0,0.334594
3304.1,0.334799
3306.21,0.334807
3308.32,0.334815
3310.43,0.335024
3312.55,0.335191
3314.66,0.335347
3316.79,0.335403
3318.91,0.335223
3321.03,0.335309
3323.16,0.33562
3325.29,0.335901
3327.43,0.335882
3329.57,0.33568
3331.71,0.335729
3333.85,0.335676
3335.99,0.335311
3338.14,0.335151
3340.29,0.335054
3342.45,0.334609
3344.6,0.334249
3346.76,0.334141
3348.92,0.333772
3351.09,0.333427
3353.26,0.332912
3355.43,0.332053
3357.6,0.331268
3359.78,0.330655
3361.96,0.329934
3364.14,0.329
3366.32,0.327908
3368.51,0.326868
3370.7,0.326014
3372.89,0.325223
3375.09,0.324702
3377.29,0.324403
3379.49,0.324191
3381.69,0.324119
3383.9,0.324079
3386.11,0.324053
3388.32,0.323858
3390.54,0.323731
3392.76,0.323538
3394.98,0.323152
3397.21,0.322623
3399.43,0.32214
3401.66,0.321784
3403.9,0.321313
3406.13,0.320717
3408.37,0.320175
3410.61,0.319768
3412.86,0.3192
3415.11,0.318709
3417.36,0.318704
3419.61,0.31888
3421.87,0.319291
3424.13,0.319725
3426.39,0.320349
3428.66,0.321014
3430.93,0.321526
3433.2,0.32186
3435.48,0.322211
3437.76,0.322518
3440.04,0.322883
3442.32,0.323274
3444.61,0.323589
3446.9,0.323907
3449.19,0.324298
3451.49,0.324651
3453.79,0.325059
3456.09,0.325534
3458.4,0.325951
3460.7,0.326227
3463.02,0.326496
3465.33,0.326744
3467.65,0.326895
3469.97,0.327045
3472.29,0.327248
3474.62,0.327219
3476.95,0.327234
3479.29,0.327321
3481.62,0.327294
3483.96,0.327512
3486.3,0.327871
3488.65,0.328235
3491.0,0.328336
3493.35,0.328451
3495.71,0.328694
3498.07,0.32894
3500.43,0.329293
3502.79,0.329639
3505.16,0.330193
3507.53,0.330956
3509.91,0.331946
3512.29,0.332907
3514.67,0.333848
3517.05,0.334857
3519.44,0.335935
3521.83,0.336848
3524.23,0.337569
3526.62,0.338607
3529.02,0.339528
3531.43,0.340239
3533.83,0.341073
3536.24,0.341883
3538.66,0.342579
3541.08,0.343189
3543.5,0.343794
3545.92,0.344281
3548.35,0.344691
3550.78,0.345181
3553.21,0.345714
3555.65,0.346234
3558.09,0.346604
3560.53,0.346891
3562.98,0.347231
3565.43,0.347731
3567.88,0.348171
3570.34,0.348393
3572.8,0.348622
3575.27,0.348873
3577.73,0.349248
3580.2,0.349577
3582.68,0.349779
3585.16,0.349875
3587.64,0.349977
3590.12,0.350229
3592.61,0.350604
3595.1,0.350858
3597.6,0.351044
3600.09,0.351143
3602.6,0.351215
3605.1,0.351253
3607.61,0.351522
3610.12,0.351819
3612.64,0.35191
3615.16,0.351914
3617.68,0.351978
3620.21,0.352099
3622.74,0.352293
3625.27,0.352313
3627.81,0.352354
3630.35,0.352583
3632.89,0.352662
3635.44,0.352636
3637.99,0.352779
3640.54,0.352861
3643.1,0.352926
3645.66,0.352979
3648.23,0.353073
3650.8,0.353203
3653.37,0.353178
3655.95,0.353056
3658.53,0.353072
3661.11,0.353176
3663.7,0.353242
3666.29,0.353313
3668.89,0.353415
3671.48,0.353519
3674.09,0.353698
3676.69,0.353772
3679.3,0.35389
3681.91,0.353958
3684.53,0.354009
3687.15,0.354108
3689.78,0.354359
3692.4,0.354619
3695.04,0.354826
3697.67,0.354938
3700.31,0.355112
3702.95,0.355206
3705.6,0.355207
3708.25,0.355173
3710.91,0.355215
3713.56,0.355278
3716.23,0.355457
3718.89,0.35558
3721.56,0.355781
3724.23,0.355911
3726.91,0.355969
3729.59,0.356095
3732.28,0.35618
3734.97,0.356094
3737.66,0.356049
3740.36,0.356086
3743.06,0.356184
3745.76,0.356286
3748.47,0.356424
3751.18,0.35647
3753.9,0.356503
3756.62,0.356645
3759.34,0.356797
3762.07,0.356773
3764.8,0.356904
3767.54,0.356994
3770.28,0.356902
3773.02,0.356832
3775.77,0.356993
3778.52,0.357052
3781.28,0.35712
3784.04,0.357184
3786.8,0.357376
3789.57,0.35746
3792.34,0.357477
3795.12,0.357542
3797.9,0.357507
3800.69,0.357534
3803.47,0.357585
3806.27,0.357524
3809.06,0.357596
3811.86,0.357599
3814.67,0.357692
3817.48,0.35773
3820.29,0.357711
3823.11,0.357744
3825.93,0.357797
3828.76,0.357821
3831.59,0.357977
3834.42,0.358027
3837.26,0.357996
3840.1,0.358007
3842.95,0.358043
3845.8,0.358079
3848.65,0.358213
3851.51,0.358268
3854.38,0.358323
3857.24,0.358332
3860.12,0.358313
3862.99,0.358314
3865.87,0.35836
3868.76,0.358432
3871.65,0.358539
3874.54,0.358513
3877.44,0.358428
3880.34,0.358423
3883.25,0.358543
3886.16,0.358657
3889.07,0.358705
3891.99,0.358684
3894.92,0.358697
3897.85,0.358733
3900.78,0.358698
3903.72,0.358607
3906.66,0.358621
3909.6,0.358583
3912.55,0.35856
3915.51,0.358543
3918.47,0.358521
3921.43,0.358535
3924.4,0.358473
3927.38,0.358386
3930.35,0.358472
3933.33,0.358436
3936.32,0.358517
3939.31,0.358485
3942.31,0.358409
3945.31,0.358451
3948.31,0.35844
3951.32,0.358349
3954.34,0.358243
3957.35,0.358196
3960.38,0.358231
3963.41,0.35816
3966.44,0.35815
3969.48,0.358132
3972.52,0.358097
3975.56,0.357965
3978.61,0.357859
3981.67,0.357846
3984.73,0.357942
3987.8,0.357989
3990.87,0.357894
3993.94,0.357765
3997.02,0.357853
4000.1,0.357919
4003.19,0.357917
4006.29,0.357889
4009.39,0.357925
4012.49,0.357968
4015.6,0.357956
4018.71,0.357879
4021.83,0.357894
4024.95,0.35795
4028.08,0.357991
4031.21,0.357948
4034.35,0.357857
4037.49,0.357789
4040.64,0.357756
4043.79,0.357669
4046.94,0.357721
4050.11,0.357733
4053.27,0.357741
4056.44,0.35765
4059.62,0.357547
4062.8,0.357544
4065.99,0.357587
4069.18,0.357597
4072.38,0.357565
4075.58,0.357501
4078.78,0.357535
4082.0,0.357441
4085.21,0.357343
4088.43,0.357342
4091.66,0.35746
4094.89,0.357392
4098.13,0.357377
4101.37,0.357397
4104.62,0.357379
4107.87,0.357286
4111.13,0.357274
4114.39,0.357267
4117.66,0.357262
4120.93,0.357229
4124.21,0.357237
4127.5,0.357227
4130.79,0.357198
4134.08,0.357123
4137.38,0.357251
4140.68,0.357248
4143.99,0.357141
4147.31,0.357109
4150.63,0.357137
4153.95,0.357088
4157.29,0.357086
4160.62,0.357195
4163.96,0.357205
4167.31,0.357105
4170.66,0.357134
4174.02,0.35706
4177.39,0.357118
4180.75,0.357084
4184.13,0.357015
4187.51,0.356966
4190.89,0.356933
4194.28,0.356906
4197.68,0.356915
4201.08,0.356841
4204.49,0.356646
4207.9,0.356388
4211.32,0.356191
4214.74,0.355972
4218.17,0.355672
4221.61,0.355456
4225.05,0.355366
4228.5,0.355202
4231.95,0.35517
4235.4,0.355098
4238.87,0.355113
4242.34,0.355227
4245.81,0.355445
4249.29,0.355571
4252.78,0.355816
4256.27,0.356152
4259.77,0.356202
4263.27,0.355602
4266.78,0.355148
4270.29,0.355116
4273.81,0.355168
4277.34,0.355161
4280.87,0.355078
4284.41,0.355187
4287.95,0.355353
4291.5,0.355372
4295.06,0.355392
4298.62,0.35542
4302.19,0.35541
4305.76,0.355386
4309.34,0.355466
4312.92,0.355577
4316.52,0.355704
4320.11,0.355756
4323.72,0.355761
4327.32,0.355802
4330.94,0.355916
4334.56,0.356077
4338.19,0.356148
4341.82,0.356172
4345.46,0.356166
4349.11,0.356076
4352.76,0.356092
4356.42,0.356126
4360.08,0.356172
4363.75,0.356141
4367.43,0.356184
4371.11,0.356179
4374.8,0.356261
4378.49,0.356187
4382.19,0.356133
4385.9,0.356205
4389.61,0.356295
4393.33,0.356265
4397.06,0.356146
4400.79,0.356069
4404.53,0.356066
4408.28,0.356057
4412.03,0.356046
4415.79,0.356009
4419.55,0.356011
4423.32,0.355946
4427.1,0.355945
4430.88,0.355923
4434.68,0.355928
4438.47,0.355904
4442.28,0.355925
4446.08,0.355901
4449.9,0.355806
4453.72,0.355635
4457.55,0.355649
4461.39,0.355669
4465.23,0.355692
4469.08,0.355609
4472.94,0.355605
4476.8,0.35557
4480.67,0.355494
4484.55,0.355407
4488.43,0.355429
4492.32,0.355284
4496.21,0.355246
4500.12,0.355227
4504.03,0.355171
4507.94,0.355171
4511.87,0.355196
4515.8,0.355108
4519.73,0.354915
4523.68,0.354728
4527.63,0.354677
4531.59,0.354618
4535.55,0.354488
4539.52,0.354352
4543.5,0.354223
4547.49,0.354003
4551.48,0.353793
4555.48,0.353595
4559.49,0.353482
4563.5,0.353374
4567.52,0.353164
4571.55,0.352939
4575.58,0.352786
4579.63,0.352606
4583.67,0.352511
4587.73,0.352345
4591.79,0.352155
4595.86,0.351856
4599.94,0.351617
4604.03,0.351384
4608.12,0.35108
4612.22,0.350663
4616.33,0.35031
4620.44,0.350014
4624.56,0.349665
4628.69,0.349237
4632.83,0.34891
4636.97,0.348531
4641.12,0.348145
4645.28,0.347868
4649.45,0.347538
4653.62,0.347244
4657.8,0.346858
4661.99,0.34641
4666.19,0.346094
4670.39,0.345739
4674.6,0.345462
4678.82,0.345105
4683.05,0.344626
4687.28,0.344013
4691.52,0.343574
4695.77,0.34312
4700.03,0.342586
4704.3,0.342054
4708.57,0.341548
4712.85,0.340945
4717.14,0.340395
4721.43,0.339814
4725.74,0.339294
4730.05,0.338769
4734.37,0.338264
4738.7,0.337669
4743.03,0.337092
4747.38,0.336417
4751.73,0.335804
4756.09,0.335178
4760.45,0.334474
4764.83,0.333686
4769.21,0.332953
4773.6,0.332171
4778.0,0.331384
4782.41,0.330566
4786.83,0.329768
4791.25,0.328968
4795.68,0.328261
4800.13,0.327506
4804.57,0.326741
4809.03,0.326001
4813.5,0.325427
4817.97,0.324863
4822.45,0.32438
4826.94,0.323942
4831.44,0.323519
4835.95,0.323123
4840.46,0.322739
4844.99,0.322279
4849.52,0.321888
4854.06,0.32139
4858.61,0.320907
4863.17,0.320364
4867.73,0.319786
4872.31,0.319162
4876.89,0.318534
4881.48,0.317856
4886.08,0.317368
4890.69,0.316957
4895.31,0.316551
4899.94,0.31607
4904.57,0.315608
4909.22,0.315099
4913.87,0.314564
4918.53,0.313916
4923.21,0.313324
4927.88,0.312659
4932.57,0.311987
4937.27,0.311305
4941.98,0.31058
4946.69,0.309752
4951.42,0.308918
4956.15,0.308007
4960.9,0.307068
4965.65,0.306124
4970.41,0.30513
4975.18,0.304069
4979.96,0.303089
4984.75,0.302156
4989.54,0.301437
4994.35,0.300784
4999.17,0.300165
5003.99,0.299508
5008.83,0.298787
5013.67,0.297979
5018.52,0.297228
5023.39,0.296668
5028.26,0.296353
5033.14,0.296128
5038.03,0.296085
5042.93,0.296031
5047.84,0.295892
5052.76,0.2956
5057.69,0.295215
5062.63,0.294667
5067.58,0.294102
5072.54,0.29362
5077.51,0.293069
5082.49,0.292469
5087.47,0.291963
5092.47,0.291527
5097.48,0.29109
5102.5,0.290605
5107.52,0.290245
5112.56,0.289907
5117.61,0.28957
5122.66,0.289184
5127.73,0.28889
5132.81,0.288697
5137.89,0.288519
5142.99,0.288334
5148.1,0.288125
5153.22,0.288016
5158.34,0.288081
5163.48,0.288044
5168.63,0.288031
5173.79,0.28805
5178.96,0.2882
5184.13,0.288302
5189.32,0.288415
5194.52,0.288527
5199.73,0.288723
5204.96,0.288905
5210.19,0.289147
5215.43,0.289316
5220.68,0.289713
5225.94,0.289972
5231.22,0.290102
5236.5,0.290195
5241.79,0.290367
5247.1,0.29053
5252.42,0.290635
5257.74,0.290561
5263.08,0.290491
5268.43,0.290479
5273.79,0.29045
5279.16,0.290326
5284.54,0.290182
5289.93,0.289818
5295.34,0.289455
5300.75,0.289167
5306.18,0.288857
5311.61,0.288459
5317.06,0.28805
5322.52,0.287514
5327.99,0.28702
5333.47,0.286501
5338.96,0.286006
5344.47,0.285524
5349.98,0.284994
5355.51,0.284598
5361.05,0.284319
5366.6,0.283968
5372.16,0.283634
5377.73,0.283374
5383.32,0.283213
5388.91,0.283021
5394.52,0.282903
5400.14,0.282814
5405.77,0.282836
5411.41,0.282966
5417.07,0.283133
5422.74,0.283166
5428.41,0.283698
5434.1,0.284174
5439.81,0.28436
5445.52,0.284665
5451.25,0.285126
5456.98,0.285497
5462.73,0.285786
5468.5,0.286206
5474.27,0.286761
5480.06,0.286986
5485.86,0.287403
5491.67,0.287825
5497.49,0.288112
5503.33,0.288279
5509.18,0.288551
5515.04,0.288806
5520.91,0.289034
5526.8,0.289291
5532.69,0.289657
5538.61,0.289937
5544.53,0.290167
5550.47,0.29022
5556.41,0.290364
5562.38,0.290515
5568.35,0.290617
5574.34,0.290526
5580.34,0.2904
5586.35,0.290429
5592.38,0.290523
5598.42,0.290219
5604.47,0.289916
5610.54,0.289724
5616.61,0.289528
5622.71,0.289272
5628.81,0.289077
5634.93,0.288816
5641.06,0.288426
5647.21,0.2883
5653.36,0.288323
5659.54,0.28794
5665.72,0.287739
5671.92,0.287337
5678.13,0.286915
5684.36,0.28671
5690.6,0.286483
5696.85,0.286039
5703.12,0.285772
5709.4,0.28527
5715.69,0.285005
5722.0,0.284769
5728.33,0.284336
5734.66,0.283703
5741.01,0.283197
5747.38,0.282357
5753.76,0.281719
5760.15,0.280956
5766.56,0.279739
5772.98,0.278908
5779.41,0.278173
5785.86,0.276702
5792.33,0.275265
5798.81,0.273844
5805.3,0.272324
5811.81,0.270668
5818.33,0.268937
5824.87,0.267139
5831.42,0.265593
5837.99,0.263854
5844.57,0.261863
5851.17,0.259766
5857.78,0.257839
5864.41,0.255805
5871.05,0.254023
5877.7,0.251964
5884.38,0.250021
5891.06,0.248291
5897.76,0.246568
5904.48,0.24476
5911.21,0.242979
5917.96,0.240914
5924.73,0.238941
5931.5,0.237104
5938.3,0.235279
5945.11,0.233712
5951.93,0.232043
5958.78,0.230002
5965.63,0.227956
5972.51,0.226076
5979.39,0.224383
5986.3,0.222585
5993.22,0.220857
6000.16,0.219199
6007.11,0.217557
6014.08,0.21581
6021.06,0.214423
6028.06,0.213183
6035.08,0.211837
6042.12,0.210429
6049.17,0.209192
6056.23,0.20865
6063.32,0.20823
6070.42,0.20717
6077.53,0.206335
6084.67,0.206039
6091.82,0.205649
6098.98,0.205253
6106.17,0.205151
6113.37,0.204988
6120.58,0.205371
6127.82,0.206065
6135.07,0.206449
6142.34,0.206899
6149.63,0.207716
6156.93,0.208521
6164.25,0.209345
6171.59,0.210353
6178.95,0.211087
6186.32,0.211596
6193.71,0.212557
6201.12,0.213272
6208.54,0.213488
6215.99,0.213751
6223.45,0.214045
6230.93,0.214161
6238.43,0.21419
6245.95,0.214249
6253.48,0.214388
6261.03,0.21458
6268.6,0.214787
6276.19,0.21507
6283.8,0.215417
6291.43,0.215803
6299.07,0.216256
6306.73,0.216714
6314.42,0.217272
6322.12,0.217801
6329.84,0.21828
6337.57,0.218751
6345.33,0.219179
6353.11,0.219886
6360.9,0.22046
6368.72,0.220575
6376.55,0.220799
6384.4,0.220985
6392.27,0.220873
6400.17,0.220738
6408.08,0.220349
6416.01,0.219872
6423.96,0.219796
6431.93,0.219224
6439.92,0.218345
6447.93,0.217435
6455.96,0.216503
6464.01,0.215405
6472.08,0.214245
6480.17,0.212991
6488.28,0.211777
6496.41,0.210541
6504.56,0.209404
6512.73,0.208004
6520.92,0.20652
6529.14,0.205209
6537.37,0.204053
6545.63,0.202808
6553.9,0.201703
6562.2,0.20082
6570.51,0.199905
6578.85,0.199146
6587.21,0.198643
6595.59,0.19812
6603.99,0.19771
6612.42,0.197357
6620.86,0.197197
6629.33,0.196988
6637.82,0.196904
6646.33,0.197126
6654.86,0.197246
6663.41,0.196966
6671.99,0.196755
6680.59,0.196658
6689.21,0.196622
6697.85,0.196464
6706.51,0.196212
6715.2,0.195974
6723.91,0.195809
6732.64,0.195522
6741.4,0.195182
6750.18,0.194735
6758.98,0.194297
6767.8,0.193802
6776.65,0.193348
6785.52,0.192797
6794.41,0.192219
6803.33,0.191492
6812.27,0.190765
6821.23,0.189989
6830.22,0.189366
6839.23,0.1888
6848.26,0.188293
6857.32,0.187775
6866.4,0.187341
6875.51,0.18685
6884.64,0.186233
6893.8,0.185632
6902.98,0.184926
6912.18,0.184269
6921.41,0.183638
6930.66,0.182911
6939.94,0.182129
6949.24,0.181272
6958.57,0.180415
6967.92,0.179612
6977.3,0.17876
6986.7,0.177929
6996.13,0.177134
7005.59,0.176428
7015.07,0.175835
7024.57,0.175349
7034.1,0.175012
7043.66,0.174708
7053.25,0.174593
7062.85,0.17447
7072.49,0.174375
7082.15,0.174158
7091.84,0.173985
7101.55,0.173911
7111.3,0.173823
7121.06,0.173717
7130.86,0.17364
7140.68,0.173468
7150.53,0.173362
7160.41,0.17328
7170.31,0.17313
7180.24,0.172949
7190.2,0.17279
7200.19,0.172532
7210.2,0.172197
7220.24,0.171787
7230.31,0.171341
7240.41,0.170936
7250.54,0.170624
7260.69,0.170311
7270.88,0.170065
7281.09,0.169954
7291.33,0.169947
7301.6,0.169947
7311.9,0.170015
7322.22,0.170071
7332.58,0.170117
7342.97,0.170198
7353.38,0.1703
7363.83,0.170322
7374.3,0.170251
7384.81,0.170097
7395.34,0.16992
7405.91,0.169622
7416.5,0.16935
7427.13,0.168993
7437.78,0.168609
7448.47,0.168058
7459.19,0.167398
7469.94,0.166604
7480.71,0.165748
7491.52,0.16486
7502.37,0.163993
7513.24,0.163112
7524.14,0.16216
7535.08,0.161151
7546.05,0.160097
7557.05,0.15894
7568.08,0.157743
7579.15,0.156553
7590.24,0.155425
7601.37,0.154262
7612.53,0.153214
7623.73,0.152282
7634.96,0.151391
7646.22,0.150531
7657.51,0.149695
7668.84,0.148815
7680.2,0.147964
7691.59,0.146958
7703.02,0.145992
7714.49,0.144998
7725.98,0.143936
7737.52,0.142752
7749.08,0.141456
7760.68,0.140147
7772.32,0.138833
7783.99,0.137357
7795.69,0.135901
7807.43,0.134418
7819.21,0.133037
7831.02,0.131709
7842.87,0.130333
7854.75,0.128829
7866.67,0.12733
7878.62,0.125762
7890.62,0.124194
7902.64,0.122575
7914.71,0.120868
7926.81,0.119107
7938.95,0.117329
7951.13,0.115425
7963.34,0.113525
7975.59,0.111581
7987.88,0.109597
8000.21,0.107555
8012.57,0.105573
8024.98,0.103469
8037.42,0.10135
8049.9,0.099204
8062.42,0.097034
8074.98,0.094742
8087.57,0.092422
8100.21,0.090079
8112.89,0.087746
8125.6,0.085299
8138.36,0.082886
8151.16,0.080425
8163.99,0.078022
8176.87,0.075643
8189.79,0.073324
8202.75,0.071007
8215.75,0.068788
8228.79,0.066487
8241.87,0.064302
8254.99,0.062121
8268.16,0.060042
8281.37,0.057951
8294.62,0.056042
8307.91,0.054231
8321.24,0.05254
8334.62,0.050862
8348.04,0.049341
8361.51,0.047947
8375.02,0.046711
8388.57,0.045371
8402.16,0.044134
8415.8,0.042969
8429.49,0.041833
8443.22,0.040631
8456.99,0.039598
8470.81,0.038537
8484.67,0.037633
8498.58,0.036699
8512.54,0.035875
8526.54,0.035
8540.58,0.034217
8554.68,0.0335
8568.82,0.032816
8583.0,0.032074
8597.24,0.031546
8611.52,0.031036
8625.85,0.030571
8640.23,0.030051
8654.65,0.029578
8669.12,0.029132
8683.64,0.028952
8698.21,0.028797
8712.83,0.028628
8727.5,0.028464
8742.22,0.028444
8756.99,0.028315
8771.8,0.028313
8786.67,0.028386
8801.59,0.028597
8816.56,0.028756
8831.58,0.029028
8846.65,0.029347
8861.77,0.029708
8876.94,0.030038
8892.17,0.030605
8907.45,0.031199
8922.78,0.0319
8938.16,0.03261
8953.6,0.033343
8969.09,0.034108
8984.64,0.035066
9000.23,0.036056
9015.89,0.037185
9031.59,0.038178
9047.36,0.039245
9063.17,0.040234
9079.05,0.041157
9094.97,0.041695
9110.96,0.04209
9127.0,0.042063
9143.1,0.041694
9159.25,0.041049
9175.46,0.040323
9191.73,0.039531
9208.06,0.038699
9224.44,0.037905
9240.88,0.037473
9257.38,0.037056
9273.94,0.036757
9290.56,0.036441
9307.24,0.03624
9323.98,0.036085
9340.78,0.035974
9357.64,0.035752
9374.57,0.035637
9391.55,0.035572
9408.59,0.035698
9425.7,0.035807
9442.87,0.036007
9460.1,0.036162
9477.4,0.036431
9494.75,0.036617
9512.17,0.036851
9529.66,0.037118
9547.21,0.037446
9564.83,0.037747
9582.5,0.038071
9600.25,0.038319
9618.06,0.038609
9635.94,0.038758
9653.88,0.038926
9671.89,0.039004
9689.97,0.039143
9708.12,0.039147
9726.33,0.039186
9744.62,0.039203
9762.97,0.039234
9781.39,0.039165
9799.88,0.039117
9818.44,0.038894
9837.07,0.038679
9855.77,0.038483
9874.54,0.038371
9893.39,0.038213
9912.3,0.038077
9931.29,0.037923
9950.36,0.038034
9969.49,0.038098
9988.7,0.038267
10007.98,0.038498
10027.34,0.038756
10046.77,0.039029
10066.28,0.039485
10085.87,0.039739
10105.53,0.040034
10125.26,0.040258
10145.08,0.040432
10164.97,0.040557
10184.94,0.040684
10204.99,0.040687
10225.12,0.040673
10245.33,0.040448
10265.61,0.040035
10285.98,0.039454
10306.43,0.038734
10326.96,0.038018
10347.57,0.037424
10368.27,0.0368
10389.05,0.036391
10409.91,0.036167
10430.86,0.036243
10451.88,0.036332
10473.0,0.036544
10494.2,0.036852
10515.49,0.037249
10536.86,0.037859
10558.32,0.038588
10579.87,0.039148
10601.5,0.039694
10623.23,0.040158
10645.04,0.040592
10666.94,0.040886
10688.94,0.0412
10711.02,0.041359
10733.2,0.041523
10755.47,0.041636
10777.83,0.041809
10800.28,0.041968
10822.83,0.042047
10845.47,0.042016
10868.21,0.042096
10891.04,0.042084
10913.97,0.042059
10936.99,0.042001
10960.12,0.042027
10983.34,0.042003
11006.66,0.042079
11030.07,0.042163
11053.59,0.042293
11077.21,0.042361
11100.93,0.042523
11124.75,0.042648
11148.68,0.042802
11172.71,0.042922
11196.84,0.043074
11221.07,0.04315
11245.41,0.043315
11269.86,0.043371
11294.41,0.043485
11319.07,0.043497
11343.84,0.043484
11368.72,0.043356
11393.7,0.043139
11418.8,0.04259
11444.01,0.041956
11469.33,0.041272
11494.76,0.040678
11520.3,0.040237
11545.96,0.040067
11571.73,0.040127
11597.62,0.040564
11623.62,0.041112
11649.74,0.041827
11675.98,0.042504
11702.34,0.043212
11728.81,0.043871
11755.41,0.044521
11782.13,0.045086
11808.96,0.04568
11835.92,0.046306
11863.01,0.046977
11890.22,0.047521
11917.55,0.048144
11945.01,0.048754
11972.6,0.0495
12000.31,0.050153
12028.16,0.050865
12056.13,0.051504
12084.23,0.052171
12112.46,0.052854
12140.83,0.053602
12169.33,0.054294
12197.96,0.054991
12226.73,0.055812
12255.64,0.056745
12284.68,0.057631
12313.86,0.058533
12343.18,0.059343
12372.64,0.06009
12402.24,0.060475
12431.98,0.060888
12461.86,0.061338
12491.89,0.061827
12522.07,0.062257
12552.38,0.062716
12582.85,0.063347
12613.47,0.064107
12644.23,0.064836
12675.15,0.065689
12706.21,0.066623
12737.43,0.067627
12768.81,0.068564
12800.33,0.069437
12832.02,0.070244
12863.86,0.070986
12895.86,0.071574
12928.02,0.071968
12960.34,0.072038
12992.82,0.071796
13025.46,0.071394
13058.27,0.070907
13091.25,0.070137
13124.39,0.06931
13157.7,0.068317
13191.18,0.067292
13224.83,0.066194
13258.66,0.065021
13292.65,0.063723
13326.83,0.062459
13361.17,0.061039
13395.7,0.059473
13430.4,0.057671
13465.29,0.055702
13500.35,0.053474
13535.6,0.051469
13571.03,0.049593
13606.65,0.047623
13642.46,0.045557
13678.46,0.043655
13714.64,0.041944
13751.02,0.040369
13787.59,0.038911
13824.36,0.037626
13861.32,0.036406
13898.49,0.035609
13935.85,0.034794
13973.41,0.034213
14011.17,0.033771
14049.15,0.033499
14087.32,0.033287
14125.71,0.033113
14164.3,0.032951
14203.11,0.032847
14242.13,0.032886
14281.36,0.032972
14320.81,0.032893
14360.49,0.03292
14400.38,0.032977
14440.49,0.033003
14480.82,0.032828
14521.39,0.032751
14562.18,0.032753
14603.2,0.032644
14644.45,0.032633
14685.93,0.032934
14727.66,0.033241
14769.62,0.033416
14811.81,0.033493
14854.25,0.033796
14896.94,0.034072
14939.87,0.034373
14983.05,0.034675
15026.48,0.034964
15070.16,0.035316
15114.1,0.035812
15158.29,0.036196
15202.74,0.036506
15247.46,0.036674
15292.43,0.036786
15337.68,0.036693
15383.19,0.036537
15428.97,0.03611
15475.03,0.035527
15521.36,0.03474
15567.97,0.034067
15614.87,0.033522
15662.04,0.033072
15709.5,0.032536
15757.25,0.032141
15805.29,0.031799
15853.62,0.031357
15902.26,0.030956
15951.19,0.030941
16000.42,0.03089
16049.95,0.030831
16099.8,0.030907
16149.95,0.031052
16200.42,0.031097
16251.21,0.031239
16302.31,0.031266
16353.74,0.031271
16405.49,0.03113
16457.57,0.031101
16509.98,0.031163
16562.73,0.031095
16615.82,0.031141
16669.24,0.031365
16723.02,0.031347
16777.14,0.031363
16831.61,0.031235
16886.43,0.031048
16941.62,0.030818
16997.16,0.030814
17053.08,0.030886
17109.36,0.031001
17166.01,0.030947
17223.04,0.030922
17280.45,0.030967
17338.24,0.031374
17396.43,0.031655
17455.0,0.031792
17513.97,0.031717
17573.34,0.031958
17633.11,0.032285
17693.29,0.032572
17753.89,0.03235
17814.9,0.032247
17876.33,0.032175
17938.18,0.032324
18000.47,0.032371
18063.19,0.032262
18126.35,0.031992
18189.95,0.031856
18254.0,0.031856
18318.5,0.032102
18383.46,0.032062
18448.88,0.031971
18514.77,0.031944
18581.13,0.032233
18647.97,0.032558
18715.29,0.033005
18783.1,0.033514
18851.4,0.033941
18920.2,0.03467
18989.51,0.035628
19059.32,0.036357
19129.65,0.037023
19200.5,0.037338
19271.88,0.037764
19343.79,0.038364
19416.24,0.038881
19489.23,0.0394
19562.77,0.040062
19636.88,0.040556
19711.54,0.040932
19786.78,0.041373
19862.59,0.042194
19938.98,0.042665
20015.96,0.043037
20093.55,0.043215
20171.73,0.043309
20250.53,0.043363
20329.94,0.043785
20409.98,0.044104
20490.65,0.044259
20571.96,0.044186
20653.92,0.044574
20736.54,0.045
20819.82,0.045599
20903.77,0.045975
20988.4,0.046145
21073.72,0.046087
21159.73,0.046508
21246.46,0.046493
21333.89,0.046631
21422.04,0.046494
21510.93,0.046324
21600.56,0.046154
21690.94,0.046058
21782.08,0.045457
21873.99,0.044752
21966.67,0.044377
22060.15,0.044152
22154.42,0.043754
22249.51,0.043866
22345.41,0.043343
22442.14,0.042652
22539.72,0.04222
22638.14,0.042191
22737.43,0.041418
22837.6,0.040378
22938.65,0.039231
23040.6,0.038551
23143.46,0.037482
23247.24,0.036867
23351.96,0.037177
23457.63,0.036839
23564.25,0.036456
23671.85,0.036817
23780.44,0.037085
23890.02,0.037824
24000.63,0.038025
24112.26,0.038721
24224.93,0.038814
24338.66,0.039435
24453.47,0.039951
24569.36,0.039329
24686.36,0.0402
24804.47,0.042152
24923.73,0.042572
25044.13,0.042545
25165.71,0.041879
25288.46,0.041852
25412.43,0.042019
25537.61,0.043141
25664.04,0.043158
25791.72,0.042683
25920.68,0.041982
