Database of Origin,University of Winnipeg Spectrophotometer Facility
Sample Description,Carbonaceous chondrites - RELAB archive 6. CV chondrites
Other Information,heated to 700C
Date Added,2018-07-23 23:45:03.163281

Data ID,RLA_MET_37_19       
Sample ID,Allende
Mineral Name,Allende
Grain Size,<63 um
Viewing Geometry,30/0
Material Class,CV3.2-3.3/ OxA

Wavelength
305.0,0.037733
310.0,0.038639
315.0,0.040364
320.0,0.042372
325.0,0.044365
330.0,0.0457
335.0,0.048148
340.0,0.050131
345.0,0.051982
350.0,0.054109
355.0,0.055746
360.0,0.057566
365.0,0.058673
370.0,0.06023
375.0,0.06128
380.0,0.062247
385.0,0.063043
390.0,0.063817
395.0,0.064775
400.0,0.065761
405.0,0.066722
410.0,0.066365
415.0,0.067235
420.0,0.067748
425.0,0.068012
430.0,0.068548
435.0,0.068922
440.0,0.06921
445.0,0.06961
450.0,0.06991
455.0,0.070393
460.0,0.070567
465.0,0.070921
470.0,0.071664
475.0,0.071918
480.0,0.072306
485.0,0.072528
490.0,0.072724
495.0,0.072912
500.0,0.073221
505.0,0.073635
510.0,0.073917
515.0,0.074236
520.0,0.074607
525.0,0.074789
530.0,0.075151
535.0,0.07536
540.0,0.075611
545.0,0.07593
550.0,0.075955
555.0,0.07614
560.0,0.076183
565.0,0.076314
570.0,0.076566
575.0,0.076508
580.0,0.076769
585.0,0.076882
590.0,0.077005
595.0,0.07719
600.0,0.077162
605.0,0.077375
610.0,0.077556
615.0,0.077875
620.0,0.077997
625.0,0.078217
630.0,0.078347
635.0,0.078488
640.0,0.078646
645.0,0.07872
650.0,0.078809
655.0,0.078892
660.0,0.079035
665.0,0.078895
670.0,0.078779
675.0,0.078876
680.0,0.07906
685.0,0.078872
690.0,0.078908
695.0,0.079071
700.0,0.079152
705.0,0.079012
710.0,0.079154
715.0,0.079166
720.0,0.07909
725.0,0.079113
730.0,0.079119
735.0,0.079308
740.0,0.079325
745.0,0.079335
750.0,0.079248
755.0,0.079169
760.0,0.079434
765.0,0.079332
770.0,0.079109
775.0,0.079325
780.0,0.079087
785.0,0.079296
790.0,0.079528
795.0,0.078988
800.0,0.0791
805.0,0.079188
810.0,0.079075
815.0,0.079083
820.0,0.079397
825.0,0.079244
830.0,0.079287
835.0,0.079006
840.0,0.079071
845.0,0.079123
850.0,0.078947
855.0,0.078657
860.0,0.079202
865.0,0.078704
870.0,0.079023
875.0,0.07922
880.0,0.079416
885.0,0.078598
890.0,0.078767
895.0,0.078743
900.0,0.078781
905.0,0.078566
910.0,0.078769
915.0,0.079192
920.0,0.079071
925.0,0.079629
930.0,0.079135
935.0,0.079493
940.0,0.079391
945.0,0.079485
950.0,0.079349
955.0,0.079301
960.0,0.079645
965.0,0.0794
970.0,0.079586
975.0,0.079455
980.0,0.07891
985.0,0.079399
990.0,0.079166
995.0,0.079019
1000.0,0.079059
1005.0,0.079048
1010.0,0.078878
1015.0,0.078983
1020.0,0.078792
1025.0,0.078751
1030.0,0.078716
1035.0,0.078873
1040.0,0.078916
1045.0,0.079089
1050.0,0.079036
1055.0,0.07899
1060.0,0.079191
1065.0,0.079119
1070.0,0.079079
1075.0,0.079061
1080.0,0.079096
1085.0,0.07938
1090.0,0.079623
1095.0,0.079462
1100.0,0.079624
1105.0,0.079911
1110.0,0.079963
1115.0,0.080247
1120.0,0.080322
1125.0,0.080489
1130.0,0.080459
1135.0,0.080503
1140.0,0.080784
1145.0,0.080891
1150.0,0.081188
1155.0,0.081125
1160.0,0.081231
1165.0,0.081297
1170.0,0.081226
1175.0,0.081525
1180.0,0.081586
1185.0,0.081726
1190.0,0.081734
1195.0,0.081915
1200.0,0.081994
1205.0,0.082216
1210.0,0.082108
1215.0,0.082003
1220.0,0.082339
1225.0,0.082425
1230.0,0.082612
1235.0,0.08272
1240.0,0.082985
1245.0,0.082925
1250.0,0.082877
1255.0,0.082991
1260.0,0.083124
1265.0,0.083293
1270.0,0.083116
1275.0,0.083447
1280.0,0.083328
1285.0,0.083251
1290.0,0.083504
1295.0,0.083424
1300.0,0.083625
1305.0,0.083679
1310.0,0.083764
1315.0,0.083968
1320.0,0.084082
1325.0,0.084113
1330.0,0.084091
1335.0,0.084381
1340.0,0.084488
1345.0,0.084833
1350.0,0.08487
1355.0,0.084843
1360.0,0.08462
1365.0,0.084553
1370.0,0.084482
1375.0,0.084655
1380.0,0.085279
1385.0,0.084959
1390.0,0.085242
1395.0,0.085251
1400.0,0.085354
1405.0,0.085281
1410.0,0.085707
1415.0,0.085504
1420.0,0.086024
1425.0,0.085893
1430.0,0.086153
1435.0,0.086358
1440.0,0.086241
1445.0,0.086349
1450.0,0.086583
1455.0,0.086211
1460.0,0.086475
1465.0,0.086593
1470.0,0.086848
1475.0,0.087016
1480.0,0.086984
1485.0,0.086917
1490.0,0.086984
1495.0,0.087215
1500.0,0.087552
1505.0,0.087256
1510.0,0.087759
1515.0,0.087544
1520.0,0.088007
1525.0,0.087993
1530.0,0.088185
1535.0,0.087925
1540.0,0.088307
1545.0,0.088109
1550.0,0.088069
1555.0,0.088509
1560.0,0.088002
1565.0,0.088485
1570.0,0.088585
1575.0,0.088428
1580.0,0.088768
1585.0,0.089102
1590.0,0.088804
1595.0,0.088673
1600.0,0.088851
1605.0,0.088661
1610.0,0.089013
1615.0,0.089261
1620.0,0.089085
1625.0,0.089211
1630.0,0.089107
1635.0,0.089212
1640.0,0.089299
1645.0,0.089376
1650.0,0.089304
1655.0,0.089082
1660.0,0.08959
1665.0,0.088854
1670.0,0.08936
1675.0,0.089306
1680.0,0.089147
1685.0,0.089181
1690.0,0.0892
1695.0,0.089259
1700.0,0.089244
1705.0,0.089315
1710.0,0.089342
1715.0,0.089487
1720.0,0.089279
1725.0,0.0892
1730.0,0.089271
1735.0,0.089239
1740.0,0.089045
1745.0,0.088962
1750.0,0.089353
1755.0,0.089138
1760.0,0.089131
1765.0,0.089129
1770.0,0.089269
1775.0,0.088962
1780.0,0.088908
1785.0,0.089214
1790.0,0.089151
1795.0,0.089016
1800.0,0.089031
1805.0,0.088916
1810.0,0.088928
1815.0,0.089306
1820.0,0.089114
1825.0,0.089128
1830.0,0.089003
1835.0,0.088772
1840.0,0.089212
1845.0,0.089059
1850.0,0.089049
1855.0,0.088885
1860.0,0.089328
1865.0,0.0896
1870.0,0.088192
1875.0,0.088726
1880.0,0.089237
1885.0,0.089367
1890.0,0.089348
1895.0,0.08956
1900.0,0.088937
1905.0,0.089174
1910.0,0.089161
1915.0,0.089239
1920.0,0.089032
1925.0,0.089267
1930.0,0.089404
1935.0,0.089325
1940.0,0.089321
1945.0,0.089581
1950.0,0.089437
1955.0,0.089565
1960.0,0.089727
1965.0,0.089772
1970.0,0.089725
1975.0,0.089959
1980.0,0.090044
1985.0,0.089746
1990.0,0.089848
1995.0,0.089935
2000.0,0.089953
2005.0,0.089926
2010.0,0.089958
2015.0,0.090083
2020.0,0.090022
2025.0,0.089869
2030.0,0.089989
2035.0,0.090002
2040.0,0.089978
2045.0,0.090153
2050.0,0.090093
2055.0,0.09021
2060.0,0.0903
2065.0,0.09032
2070.0,0.090335
2075.0,0.090274
2080.0,0.090179
2085.0,0.090285
2090.0,0.089897
2095.0,0.090006
2100.0,0.090149
2105.0,0.090223
2110.0,0.090252
2115.0,0.090333
2120.0,0.09038
2125.0,0.090468
2130.0,0.090383
2135.0,0.090533
2140.0,0.090543
2145.0,0.090411
2150.0,0.090368
2155.0,0.090094
2160.0,0.090132
2165.0,0.090039
2170.0,0.0903
2175.0,0.090268
2180.0,0.090253
2185.0,0.090472
2190.0,0.090161
2195.0,0.090457
2200.0,0.090403
2205.0,0.090571
2210.0,0.09077
2215.0,0.090806
2220.0,0.09097
2225.0,0.090969
2230.0,0.090931
2235.0,0.091061
2240.0,0.09113
2245.0,0.091052
2250.0,0.091269
2255.0,0.091422
2260.0,0.091563
2265.0,0.091391
2270.0,0.091812
2275.0,0.091785
2280.0,0.091916
2285.0,0.091867
2290.0,0.092098
2295.0,0.092109
2300.0,0.092207
2305.0,0.092365
2310.0,0.092165
2315.0,0.092271
2320.0,0.092292
2325.0,0.092133
2330.0,0.092076
2335.0,0.092195
2340.0,0.092126
2345.0,0.092512
2350.0,0.092224
2355.0,0.092546
2360.0,0.092379
2365.0,0.092297
2370.0,0.092301
2375.0,0.09216
2380.0,0.092297
2385.0,0.092332
2390.0,0.092414
2395.0,0.092364
2400.0,0.092497
2405.0,0.092496
2410.0,0.092719
2415.0,0.092743
2420.0,0.092457
2425.0,0.092605
2430.0,0.092752
2435.0,0.09296
2440.0,0.093058
2445.0,0.09298
2450.0,0.092988
2455.0,0.093112
2460.0,0.093435
2465.0,0.093368
2470.0,0.093099
2475.0,0.093466
2480.0,0.093217
2485.0,0.093208
2490.0,0.093263
2495.0,0.093564
2500.0,0.093565
2505.0,0.093749
2510.0,0.093295
2515.0,0.092915
2520.0,0.093249
2525.0,0.093284
2530.0,0.092889
2535.0,0.092988
2540.0,0.093675
2545.0,0.092653
2550.0,0.092179
2555.0,0.094992
2560.0,0.092191
2565.0,0.093836
2570.0,0.091823
2575.0,0.092811
2580.0,0.093355
2585.0,0.091609
2590.0,0.093126
2595.0,0.091475
2600.0,0.094183
