Database of Origin,University of Winnipeg Spectrophotometer Facility
Sample Description,Carbonates and Oxolates - RELAB+Nicolet spectra Newly merged spectra (merged by RELAB)
Other Information,dry seived
Date Added,2018-08-06 20:49:03.274133

Data ID,RLA_CARB_1_51       
Sample ID,CRB215
Mineral Name,Hydromagn.
Locality,Atlin/ British Columbia/ Canada
Grain Size,<45 um
Viewing Geometry,30/0/30
Resolution,5/ 0.6-129 nm
Formula,Mg5(CO3)4(OH)2*4(H2O)
Composition,All hydromagnesite with a bit of magnesite

Wavelength
305.0,0.664682
310.0,0.662277
315.0,0.670645
320.0,0.675915
325.0,0.685673
330.0,0.69527
335.0,0.707192
340.0,0.716572
345.0,0.726027
350.0,0.734977
355.0,0.742274
360.0,0.750286
365.0,0.756746
370.0,0.76404
375.0,0.771338
380.0,0.7774
385.0,0.784114
390.0,0.789586
395.0,0.796603
400.0,0.79941
405.0,0.804233
410.0,0.80497
415.0,0.81106
420.0,0.814613
425.0,0.819736
430.0,0.822893
435.0,0.826853
440.0,0.829724
445.0,0.83443
450.0,0.835547
455.0,0.839954
460.0,0.842306
465.0,0.84586
470.0,0.848331
475.0,0.850949
480.0,0.852568
485.0,0.856873
490.0,0.858208
495.0,0.861888
500.0,0.863273
505.0,0.866733
510.0,0.868199
515.0,0.871133
520.0,0.872739
525.0,0.87571
530.0,0.876669
535.0,0.879516
540.0,0.88063
545.0,0.882522
550.0,0.883554
555.0,0.885564
560.0,0.885303
565.0,0.887824
570.0,0.887758
575.0,0.889335
580.0,0.889206
585.0,0.890461
590.0,0.890741
595.0,0.891317
600.0,0.891557
605.0,0.892402
610.0,0.892682
615.0,0.892854
620.0,0.89301
625.0,0.893716
630.0,0.893403
635.0,0.894087
640.0,0.893925
645.0,0.894188
650.0,0.894147
655.0,0.895283
660.0,0.894966
665.0,0.895511
670.0,0.89474
675.0,0.895078
680.0,0.895438
685.0,0.895312
690.0,0.895775
695.0,0.896009
700.0,0.897013
705.0,0.896145
710.0,0.896542
715.0,0.896253
720.0,0.895761
725.0,0.897037
730.0,0.896363
735.0,0.896348
740.0,0.897922
745.0,0.897004
750.0,0.896981
755.0,0.896316
760.0,0.89707
765.0,0.896865
770.0,0.896985
775.0,0.896524
780.0,0.896939
785.0,0.897863
790.0,0.89804
795.0,0.897407
800.0,0.900937
805.0,0.895717
810.0,0.897396
815.0,0.898935
820.0,0.897637
825.0,0.897097
830.0,0.897596
835.0,0.897877
840.0,0.898145
845.0,0.898017
850.0,0.896779
855.0,0.898945
860.0,0.897476
865.0,0.898172
870.0,0.896366
875.0,0.898007
880.0,0.898873
885.0,0.898978
890.0,0.899554
895.0,0.898115
900.0,0.898379
905.0,0.898203
910.0,0.898143
915.0,0.897577
920.0,0.896537
925.0,0.898641
930.0,0.897771
935.0,0.899469
940.0,0.89837
945.0,0.897952
950.0,0.896599
955.0,0.898374
960.0,0.89364
965.0,0.896761
970.0,0.899108
975.0,0.89821
980.0,0.897812
985.0,0.898627
990.0,0.898206
995.0,0.896636
1000.0,0.897031
1005.0,0.897162
1010.0,0.897922
1015.0,0.897197
1020.0,0.897598
1025.0,0.898178
1030.0,0.898787
1035.0,0.897672
1040.0,0.898061
1045.0,0.898955
1050.0,0.897522
1055.0,0.898549
1060.0,0.898496
1065.0,0.899126
1070.0,0.898026
1075.0,0.899551
1080.0,0.898588
1085.0,0.898688
1090.0,0.899141
1095.0,0.899227
1100.0,0.899034
1105.0,0.899016
1110.0,0.899491
1115.0,0.900133
1120.0,0.899434
1125.0,0.899385
1130.0,0.899504
1135.0,0.8995
1140.0,0.899166
1145.0,0.898617
1150.0,0.898821
1155.0,0.898515
1160.0,0.899162
1165.0,0.898489
1170.0,0.898748
1175.0,0.897596
1180.0,0.897545
1185.0,0.897368
1190.0,0.897577
1195.0,0.896168
1200.0,0.896823
1205.0,0.897152
1210.0,0.89748
1215.0,0.89785
1220.0,0.897619
1225.0,0.897611
1230.0,0.897107
1235.0,0.897527
1240.0,0.897266
1245.0,0.897842
1250.0,0.897659
1255.0,0.897258
1260.0,0.897795
1265.0,0.897083
1270.0,0.896643
1275.0,0.896224
1280.0,0.896221
1285.0,0.895322
1290.0,0.895165
1295.0,0.895161
1300.0,0.895777
1305.0,0.896051
1310.0,0.895114
1315.0,0.895576
1320.0,0.894305
1325.0,0.894024
1330.0,0.893067
1335.0,0.892676
1340.0,0.891254
1345.0,0.891328
1350.0,0.891032
1355.0,0.890834
1360.0,0.890897
1365.0,0.890637
1370.0,0.890575
1375.0,0.890203
1380.0,0.889631
1385.0,0.888947
1420.0,0.879225
1425.0,0.875963
1430.0,0.870075
1435.0,0.857455
1440.0,0.856777
1445.0,0.860433
1450.0,0.860673
1455.0,0.857103
1460.0,0.850643
1465.0,0.851827
1470.0,0.857361
1475.0,0.860763
1480.0,0.86245
1485.0,0.862581
1490.0,0.862528
1495.0,0.86219
1500.0,0.862258
1505.0,0.862389
1510.0,0.862829
1515.0,0.863085
1520.0,0.863388
1525.0,0.863837
1530.0,0.864246
1535.0,0.864461
1540.0,0.864728
1545.0,0.864775
1550.0,0.864949
1555.0,0.86518
1560.0,0.865313
1565.0,0.865989
1570.0,0.866585
1575.0,0.867128
1580.0,0.86789
1585.0,0.868641
1590.0,0.868873
1595.0,0.868824
1600.0,0.869061
1605.0,0.869176
1610.0,0.868924
1615.0,0.868658
1620.0,0.868357
1625.0,0.86807
1630.0,0.867699
1635.0,0.867142
1640.0,0.866659
1645.0,0.865979
1650.0,0.865236
1655.0,0.864365
1660.0,0.86353
1665.0,0.862469
1670.0,0.861101
1675.0,0.859788
1680.0,0.858735
1685.0,0.856951
1690.0,0.855405
1695.0,0.853791
1700.0,0.852403
1705.31,0.850707
1709.81,0.850111
1715.46,0.849388
1720.02,0.848628
1724.6,0.847901
1730.35,0.84667
1734.98,0.845728
1739.64,0.844712
1745.5,0.843484
1750.21,0.842634
1754.95,0.841915
1759.72,0.841468
1764.51,0.840811
1770.54,0.840186
1775.39,0.839426
1780.27,0.839003
1785.17,0.838353
1790.1,0.838296
1795.06,0.837657
1800.05,0.836963
1805.06,0.836432
1810.1,0.835716
1815.17,0.83487
1820.27,0.834136
1825.4,0.833186
1830.56,0.831976
1834.44,0.831654
1839.65,0.830548
1844.89,0.829578
1850.16,0.828341
1855.45,0.827081
1859.45,0.825955
1864.8,0.824409
1870.18,0.822299
1875.59,0.820229
1879.67,0.818185
1885.14,0.814894
1890.64,0.811525
1894.79,0.808514
1900.34,0.804062
1904.53,0.800383
1910.15,0.795253
1914.38,0.790813
1920.05,0.784218
1924.33,0.779148
1930.06,0.772209
1934.38,0.766993
1940.17,0.761225
1944.54,0.757781
1950.39,0.75323
1954.8,0.751047
1960.72,0.75008
1965.18,0.749605
1969.66,0.749755
1975.66,0.750134
1980.19,0.75048
1984.74,0.75111
1989.31,0.75159
1995.43,0.752806
2000.05,0.754273
2004.69,0.755792
2009.35,0.756706
2015.6,0.757858
2020.32,0.758778
2025.05,0.760177
2029.81,0.761465
2034.59,0.763253
2039.39,0.76499
2044.22,0.766517
2050.69,0.76826
2055.57,0.769469
2060.47,0.770247
2065.39,0.770923
2070.34,0.771273
2075.31,0.77165
2080.31,0.771543
2085.33,0.771683
2090.38,0.77141
2095.45,0.770978
2100.54,0.770636
2105.66,0.771187
2110.8,0.771638
2114.25,0.771801
2119.43,0.772223
2124.65,0.772385
2129.88,0.772598
2135.15,0.77266
2140.44,0.772567
2145.75,0.772682
2149.31,0.772692
2154.67,0.772
2160.06,0.771562
2165.47,0.771148
2170.91,0.771207
2174.55,0.771037
2180.04,0.770947
2185.55,0.770546
2189.25,0.770343
2194.81,0.769448
2200.4,0.768414
2204.14,0.765659
2209.78,0.762465
2215.44,0.766282
2219.24,0.76569
2224.95,0.764396
2230.7,0.762804
2234.54,0.761203
2240.33,0.75827
2244.21,0.755
2250.06,0.747973
2255.93,0.740225
2259.87,0.737086
2265.79,0.734794
2269.76,0.732086
2275.74,0.726684
2279.74,0.724366
2285.77,0.72294
2289.81,0.722082
2295.9,0.719606
2299.97,0.718201
2304.06,0.716311
2310.22,0.709997
2314.35,0.704221
2320.56,0.696433
2324.72,0.693703
2331.0,0.691495
2335.2,0.688534
2339.41,0.684323
2345.76,0.679684
2350.02,0.677435
2354.28,0.67481
2360.72,0.672555
2365.03,0.671793
2369.35,0.672514
2375.86,0.673141
2380.23,0.672256
2384.61,0.671097
2389.0,0.669997
2395.63,0.668221
2400.06,0.666126
2404.52,0.663687
2408.98,0.660386
2415.72,0.654225
2420.23,0.650031
2424.76,0.64647
2429.3,0.644299
2433.87,0.64368
2440.74,0.644211
2445.35,0.645222
2449.97,0.646328
2454.61,0.647385
2459.27,0.647668
2463.94,0.646373
2470.99,0.642261
2475.71,0.63831
2480.45,0.633487
2485.2,0.62924
2489.98,0.626319
2494.77,0.624163
2499.58,0.622887
2504.41,0.621465
2509.26,0.618979
2514.13,0.615575
2519.02,0.611111
2523.92,0.607873
2528.85,0.606472
2533.79,0.606976
2541.24,0.611916
2543.74,0.6132
2548.74,0.615004
2553.76,0.616155
2556.28,0.616651
2558.8,0.617337
2561.33,0.617582
2563.86,0.617519
2566.4,0.61775
2568.95,0.617859
2571.5,0.617984
2574.05,0.618273
2576.61,0.618369
2579.17,0.618545
2581.74,0.618434
2584.31,0.617648
2586.89,0.617318
2589.48,0.617521
2592.07,0.617834
2594.66,0.617765
2597.26,0.617257
2599.87,0.617429
2602.48,0.617283
2605.09,0.616528
2607.71,0.615776
2610.34,0.615205
2612.97,0.614097
2615.61,0.612669
2618.25,0.611023
2620.9,0.609138
2623.55,0.607414
2626.21,0.605692
2628.87,0.603652
2631.54,0.602032
2634.22,0.600795
2636.89,0.599818
2639.58,0.598683
2642.27,0.597199
2644.97,0.595513
2647.67,0.593365
2650.38,0.591067
2653.09,0.58888
2655.81,0.586658
2658.53,0.584519
2661.26,0.582195
2664.0,0.579731
2666.74,0.576545
2669.48,0.573516
2672.23,0.57023
2674.99,0.566745
2677.76,0.562894
2680.52,0.558532
2683.3,0.554477
2686.08,0.55014
2688.87,0.544895
2691.66,0.539179
2694.46,0.53266
2697.26,0.525348
2700.07,0.518045
2702.89,0.510343
2705.71,0.502273
2708.53,0.494254
2711.37,0.485353
2714.21,0.475652
2717.05,0.465141
2719.9,0.455952
2722.76,0.448071
2725.62,0.440041
2728.49,0.429025
2731.37,0.413746
2734.25,0.386426
2737.14,0.326454
2740.03,0.211944
2742.93,0.125471
2745.83,0.150061
2748.75,0.21452
2751.66,0.278455
2754.59,0.321017
2757.52,0.340145
2760.46,0.342582
2763.4,0.336842
2766.35,0.327464
2769.3,0.317705
2772.26,0.307656
2775.23,0.297647
2778.21,0.287737
2781.19,0.278387
2784.18,0.268911
2787.17,0.260046
2790.17,0.251489
2793.18,0.24343
2796.19,0.235703
2799.21,0.228101
2802.24,0.220476
2805.27,0.212943
2808.31,0.204653
2811.35,0.195701
2814.41,0.185848
2817.46,0.174945
2820.53,0.162806
2823.6,0.149595
2826.68,0.135146
2829.77,0.119915
2832.86,0.104029
2835.96,0.088455
2839.07,0.074506
2842.18,0.064035
2845.3,0.058079
2848.43,0.056887
2851.56,0.059343
2854.7,0.064098
2857.85,0.069579
2861.0,0.074443
2864.16,0.077568
2867.33,0.078901
2870.51,0.078351
2873.69,0.076223
2876.88,0.073181
2880.07,0.069644
2883.28,0.065641
2886.49,0.061934
2889.71,0.058921
2892.93,0.056603
2896.17,0.054913
2899.4,0.054141
2902.65,0.054352
2905.91,0.055652
2909.17,0.057725
2912.44,0.060547
2915.71,0.063666
2918.99,0.066792
2922.29,0.06973
2925.58,0.072434
2928.89,0.074891
2932.2,0.077095
2935.52,0.078967
2938.85,0.080741
2942.19,0.082471
2945.53,0.084384
2948.88,0.086692
2952.24,0.089119
2955.61,0.091728
2958.98,0.094772
2962.36,0.097563
2965.75,0.100485
2969.15,0.103586
2972.55,0.106668
2975.97,0.109564
2979.39,0.112409
2986.25,0.117494
2989.7,0.119479
2993.15,0.121664
2996.61,0.123696
3000.08,0.125422
3003.55,0.126978
3007.04,0.128361
3010.53,0.129598
3014.03,0.130567
3017.54,0.131437
3021.06,0.132467
3024.58,0.133233
3028.12,0.133563
3031.66,0.133962
3035.21,0.134583
3038.77,0.13499
3042.33,0.135123
3045.91,0.135385
3049.49,0.135693
3053.08,0.135881
3056.68,0.136084
3060.29,0.135996
3063.91,0.135697
3067.54,0.135256
3071.17,0.134921
3074.81,0.134746
3078.47,0.134351
3082.13,0.133952
3085.79,0.133745
3089.47,0.133462
3093.16,0.132998
3096.85,0.132809
3100.56,0.13258
3104.27,0.131825
3107.99,0.131678
3111.73,0.131916
3115.47,0.132013
3119.21,0.131107
3122.97,0.130918
3126.74,0.130535
3130.52,0.131068
3134.3,0.130797
3138.1,0.129986
3141.9,0.130305
3145.71,0.13052
3149.54,0.13064
3153.37,0.130841
3157.21,0.131177
3161.06,0.129911
3164.92,0.130647
3168.79,0.131065
3172.67,0.130458
3176.55,0.130386
3180.45,0.130429
3184.36,0.130486
3188.27,0.130338
3192.2,0.130257
3196.14,0.130354
3200.08,0.13014
3204.04,0.129851
3208.0,0.130471
3211.98,0.129793
3215.96,0.129844
3219.96,0.129815
3223.96,0.130336
3227.98,0.129938
3232.0,0.129728
3236.04,0.129485
3240.08,0.129259
3244.14,0.129003
3248.2,0.128923
3252.28,0.128905
3256.37,0.12855
3260.46,0.127604
3264.57,0.127416
3268.69,0.12664
3272.81,0.12697
3276.95,0.126811
3281.1,0.12653
3285.26,0.126542
3289.43,0.12586
3293.61,0.125527
3297.8,0.125692
3302.0,0.125835
3306.21,0.12564
3310.43,0.125697
3314.66,0.125437
3318.91,0.125548
3323.16,0.12506
3327.43,0.125073
3331.71,0.124851
3335.99,0.124528
3340.29,0.124444
3344.6,0.124564
3348.92,0.123962
3353.26,0.124163
3357.6,0.125034
3361.96,0.125617
3366.32,0.125767
3370.7,0.126059
3375.09,0.126276
3379.49,0.127006
3383.9,0.127487
3388.32,0.127687
3392.76,0.127687
3397.21,0.128345
3401.66,0.128933
3406.13,0.129093
3410.61,0.129648
3415.11,0.130371
3419.61,0.131044
3424.13,0.131877
3428.66,0.132918
3433.2,0.133955
3437.76,0.135012
3442.32,0.136344
3446.9,0.137948
3451.49,0.139069
3456.09,0.140892
3460.7,0.141694
3465.33,0.144009
3469.97,0.145431
3474.62,0.147672
3479.29,0.149949
3483.96,0.151193
3488.65,0.152734
3493.35,0.154979
3498.07,0.157093
3502.79,0.159361
3507.53,0.16136
3512.29,0.163437
3517.05,0.16519
3521.83,0.167279
3526.62,0.169283
3531.43,0.171285
3536.24,0.172805
3541.08,0.174822
3543.5,0.17551
3545.92,0.176193
3548.35,0.177324
3550.78,0.178242
3553.21,0.178981
3555.65,0.179728
3558.09,0.180728
3560.53,0.181871
3562.98,0.182356
3565.43,0.182708
3567.88,0.18355
3570.34,0.184136
3572.8,0.184872
3575.27,0.185863
3577.73,0.186928
3580.2,0.187571
3582.68,0.188341
3585.16,0.189153
3587.64,0.189846
3590.12,0.190641
3592.61,0.191493
3595.1,0.192181
3597.6,0.192658
3600.09,0.193098
3602.6,0.194171
3605.1,0.195124
3607.61,0.19567
3610.12,0.196356
3612.64,0.196964
3615.16,0.19741
3617.68,0.198137
3620.21,0.198735
3622.74,0.199603
3625.27,0.200605
3627.81,0.201464
3630.35,0.202155
3632.89,0.202622
3635.44,0.203336
3637.99,0.204067
3640.54,0.204677
3643.1,0.205377
3645.66,0.206236
3648.23,0.20705
3650.8,0.207451
3653.37,0.207959
3655.95,0.20854
3658.53,0.209159
3661.11,0.20947
3663.7,0.209936
3666.29,0.210771
3668.89,0.211349
3671.48,0.211748
3674.09,0.212576
3676.69,0.213279
3679.3,0.213654
3681.91,0.214194
3684.53,0.214842
3687.15,0.215281
3689.78,0.215717
3692.4,0.21631
3695.04,0.216761
3697.67,0.217034
3700.31,0.217675
3702.95,0.218291
3705.6,0.218557
3708.25,0.218643
3710.91,0.218974
3713.56,0.219674
3716.23,0.220054
3718.89,0.220095
3721.56,0.220062
3724.23,0.220087
3726.91,0.22037
3729.59,0.220534
3732.28,0.220636
3734.97,0.220637
3737.66,0.220648
3740.36,0.220398
3743.06,0.220139
3745.76,0.219856
3748.47,0.219518
3751.18,0.219149
3753.9,0.218908
3756.62,0.218537
3759.34,0.218291
3762.07,0.217913
3764.8,0.217388
3767.54,0.216648
3770.28,0.21585
3773.02,0.215319
3775.77,0.214961
3778.52,0.214628
3781.28,0.214299
3784.04,0.213902
3786.8,0.213273
3789.57,0.2129
3792.34,0.212905
3795.12,0.212612
3797.9,0.212337
3800.69,0.212313
3803.47,0.211854
3806.27,0.211558
3809.06,0.21202
3811.86,0.212276
3814.67,0.21278
3817.48,0.213821
3820.29,0.215418
3823.11,0.216948
3825.93,0.218468
3828.76,0.220032
3831.59,0.221737
3834.42,0.222785
3837.26,0.223177
3840.1,0.223557
3842.95,0.223727
3845.8,0.223534
3848.65,0.223045
3851.51,0.222082
3854.38,0.220947
3857.24,0.219819
3860.12,0.218772
3862.99,0.217797
3865.87,0.217094
3868.76,0.216592
3871.65,0.216444
3874.54,0.216414
3877.44,0.21631
3880.34,0.216308
3883.25,0.21652
3886.16,0.216792
3889.07,0.216936
3891.99,0.216755
3894.92,0.216824
3897.85,0.217367
3900.78,0.218213
3903.72,0.218973
3906.66,0.219783
3909.6,0.220965
3912.55,0.221767
3915.51,0.222112
3918.47,0.222468
3921.43,0.222425
3924.4,0.222247
3927.38,0.221789
3930.35,0.221783
3933.33,0.22166
3936.32,0.221101
3939.31,0.2207
3942.31,0.220684
3945.31,0.220975
3948.31,0.222049
3951.32,0.223838
3954.34,0.226547
3957.35,0.230139
3960.38,0.234173
3963.41,0.23843
3966.44,0.242846
3969.48,0.247422
3972.52,0.25179
3975.56,0.255791
3978.61,0.259477
3981.67,0.262912
3984.73,0.265975
3987.8,0.268548
3990.87,0.271352
3993.94,0.274171
3997.02,0.276567
4000.1,0.27862
4003.19,0.280586
4006.29,0.282423
4009.39,0.28407
4012.49,0.285667
4015.6,0.287094
4018.71,0.288557
4021.83,0.289924
4024.95,0.291155
4028.08,0.292291
4031.21,0.293356
4034.35,0.294382
4037.49,0.295133
4040.64,0.296029
4043.79,0.297127
4046.94,0.298201
4050.11,0.298949
4053.27,0.299678
4056.44,0.30028
4059.62,0.300708
4062.8,0.301288
4065.99,0.301895
4069.18,0.302423
4072.38,0.302964
4075.58,0.303204
4078.78,0.303575
4082.0,0.304006
4085.21,0.304308
4088.43,0.304655
4091.66,0.305271
4094.89,0.305408
4098.13,0.305262
4101.37,0.30537
4104.62,0.305641
4107.87,0.305792
4111.13,0.305828
4114.39,0.305977
4117.66,0.30612
4120.93,0.306105
4124.21,0.306352
4127.5,0.306357
4130.79,0.306476
4134.08,0.30672
4137.38,0.306998
4140.68,0.307174
4143.99,0.307049
4147.31,0.306863
4150.63,0.30707
4153.95,0.307305
4157.29,0.307474
4160.62,0.307422
4163.96,0.307497
4167.31,0.307736
4170.66,0.308218
4174.02,0.308566
4177.39,0.308511
4180.75,0.308344
4184.13,0.308652
4187.51,0.308859
4190.89,0.308796
4194.28,0.308721
4197.68,0.308988
4201.08,0.30917
4204.49,0.309256
4207.9,0.309245
4211.32,0.309296
4214.74,0.309305
4218.17,0.30923
4221.61,0.308921
4225.05,0.309028
4228.5,0.309005
4231.95,0.30879
4235.4,0.308783
4238.87,0.308984
4242.34,0.308768
4245.81,0.308503
4249.29,0.308335
4252.78,0.308538
4256.27,0.308614
4259.77,0.308532
4263.27,0.308502
4266.78,0.308335
4270.29,0.308012
4273.81,0.308005
4277.34,0.308183
4280.87,0.308087
4284.41,0.307751
4287.95,0.307785
4291.5,0.307797
4295.06,0.30773
4298.62,0.30739
4302.19,0.307046
4305.76,0.30694
4309.34,0.306971
4312.92,0.307013
4316.52,0.307108
4320.11,0.307046
4323.72,0.306835
4327.32,0.306743
4330.94,0.306726
4334.56,0.306563
4338.19,0.306546
4341.82,0.306617
4345.46,0.306509
4349.11,0.306249
4352.76,0.306282
4356.42,0.306268
4360.08,0.306115
4363.75,0.305945
4367.43,0.30599
4371.11,0.30618
4374.8,0.306265
4378.49,0.306142
4382.19,0.306118
4385.9,0.305981
4389.61,0.305806
4393.33,0.305941
4397.06,0.306031
4400.79,0.305914
4404.53,0.305831
4408.28,0.305785
4412.03,0.305902
4415.79,0.305899
4419.55,0.306286
4423.32,0.306417
4427.1,0.306285
4430.88,0.30633
4434.68,0.306135
4438.47,0.305888
4442.28,0.306117
4446.08,0.306148
4449.9,0.306222
4453.72,0.306555
4457.55,0.306414
4461.39,0.305998
4465.23,0.305863
4469.08,0.305819
4472.94,0.30569
4476.8,0.305306
4480.67,0.304942
4484.55,0.304612
4488.43,0.304427
4492.32,0.304118
4496.21,0.303837
4500.12,0.303716
4504.03,0.303775
4507.94,0.303973
4511.87,0.304457
4515.8,0.304657
4519.73,0.304938
4523.68,0.305067
4527.63,0.304959
4531.59,0.304841
4535.55,0.304838
4539.52,0.304718
4543.5,0.304495
4547.49,0.304325
4551.48,0.304118
4555.48,0.303783
4559.49,0.303604
4563.5,0.303192
4567.52,0.302847
4571.55,0.302585
4575.58,0.302282
4579.63,0.302075
4583.67,0.301702
4587.73,0.301408
4591.79,0.301154
4595.86,0.300744
4599.94,0.300373
4604.03,0.299661
4608.12,0.299326
4612.22,0.299257
4616.33,0.29909
4620.44,0.298638
4624.56,0.298111
4628.69,0.297695
4632.83,0.297303
4636.97,0.296839
4641.12,0.296641
4645.28,0.29646
4649.45,0.296139
4653.62,0.295798
4657.8,0.295441
4661.99,0.2951
4666.19,0.294645
4670.39,0.293997
4674.6,0.293814
4678.82,0.293616
4683.05,0.293383
4687.28,0.293161
4691.52,0.292883
4695.77,0.292644
4700.03,0.292533
4704.3,0.292111
4708.57,0.291689
4712.85,0.291412
4717.14,0.29116
4721.43,0.290793
4725.74,0.290501
4730.05,0.29005
4734.37,0.289704
4738.7,0.289335
4743.03,0.288878
4747.38,0.288486
4751.73,0.287958
4756.09,0.287276
4760.45,0.286732
4764.83,0.286169
4769.21,0.285687
4773.6,0.285359
4778.0,0.285253
4782.41,0.284724
4786.83,0.284078
4791.25,0.283363
4795.68,0.282578
4800.13,0.281998
4804.57,0.281525
4809.03,0.280933
4813.5,0.280385
4817.97,0.279805
4822.45,0.279411
4826.94,0.278944
4831.44,0.278205
4835.95,0.277373
4840.46,0.276888
4844.99,0.276442
4849.52,0.27602
4854.06,0.275566
4858.61,0.275005
4863.17,0.274363
4867.73,0.273893
4872.31,0.273262
4876.89,0.272809
4881.48,0.27239
4886.08,0.272061
4890.69,0.271382
4895.31,0.270682
4899.94,0.270052
4904.57,0.269558
4909.22,0.269091
4913.87,0.268427
4918.53,0.26772
4923.21,0.26703
4927.88,0.266445
4932.57,0.265967
4937.27,0.265185
4941.98,0.264452
4946.69,0.263753
4951.42,0.263062
4956.15,0.262335
4960.9,0.261972
4965.65,0.261213
4970.41,0.260144
4975.18,0.259267
4979.96,0.258378
4984.75,0.257167
4989.54,0.256204
4994.35,0.255208
4999.17,0.254106
5003.99,0.252987
5008.83,0.251911
5013.67,0.250851
5018.52,0.250177
5023.39,0.24934
5028.26,0.248682
5033.14,0.248148
5038.03,0.247892
5042.93,0.24774
5047.84,0.247347
5052.76,0.246769
5057.69,0.246103
5062.63,0.245453
5067.58,0.244753
5072.54,0.243955
5077.51,0.243392
5082.49,0.242734
5087.47,0.242146
5092.47,0.241519
5097.48,0.240803
5102.5,0.239957
5107.52,0.239256
5112.56,0.23861
5117.61,0.238057
5122.66,0.237221
5127.73,0.236453
5132.81,0.235553
5137.89,0.234705
5142.99,0.233924
5148.1,0.233155
5153.22,0.232097
5158.34,0.231451
5163.48,0.230768
5168.63,0.23002
5173.79,0.229119
5178.96,0.228155
5184.13,0.227326
5189.32,0.226633
5194.52,0.2256
5199.73,0.224617
5204.96,0.22376
5210.19,0.222929
5215.43,0.221903
5220.68,0.220795
5225.94,0.219653
5231.22,0.218458
5236.5,0.217189
5241.79,0.216049
5247.1,0.214855
5252.42,0.213797
5257.74,0.212289
5263.08,0.210838
5268.43,0.209574
5273.79,0.208423
5279.16,0.206822
5284.54,0.204994
5289.93,0.203156
5295.34,0.201305
5300.75,0.199046
5306.18,0.196673
5311.61,0.193607
5317.06,0.190299
5322.52,0.186912
5327.99,0.183083
5333.47,0.178466
5338.96,0.173383
5344.47,0.168138
5349.98,0.163209
5355.51,0.158638
5361.05,0.154882
5366.6,0.152108
5372.16,0.150652
5377.73,0.150117
5383.32,0.149889
5388.91,0.149622
5394.52,0.149176
5400.14,0.148477
5405.77,0.147339
5411.41,0.145578
5417.07,0.143754
5422.74,0.141601
5428.41,0.139009
5434.1,0.136532
5439.81,0.134213
5445.52,0.131978
5451.25,0.130141
5456.98,0.128719
5462.73,0.12787
5468.5,0.127148
5474.27,0.126967
5480.06,0.127152
5485.86,0.127633
5491.67,0.128077
5497.49,0.128633
5503.33,0.129346
5509.18,0.130191
5515.04,0.131077
5520.91,0.131918
5526.8,0.132465
5532.69,0.13286
5538.61,0.13307
5544.53,0.132926
5550.47,0.132504
5556.41,0.131951
5562.38,0.131183
5568.35,0.130366
5574.34,0.129443
5580.34,0.128246
5586.35,0.126873
5592.38,0.12571
5598.42,0.124297
5604.47,0.122484
5610.54,0.120584
5616.61,0.119058
5622.71,0.117189
5628.81,0.115386
5634.93,0.11354
5641.06,0.111647
5647.21,0.109277
5653.36,0.107129
5659.54,0.10514
5665.72,0.103137
5671.92,0.100984
5678.13,0.098816
5684.36,0.096501
5690.6,0.09441
5696.85,0.092124
5703.12,0.089678
5709.4,0.087285
5715.69,0.084715
5722.0,0.08218
5728.33,0.079894
5734.66,0.077641
5741.01,0.075539
5747.38,0.073219
5753.76,0.070691
5760.15,0.068038
5766.56,0.065713
5772.98,0.06311
5779.41,0.060632
5785.86,0.058331
5792.33,0.056087
5798.81,0.053788
5805.3,0.051454
5811.81,0.049186
5818.33,0.047051
5824.87,0.044597
5831.42,0.042276
5837.99,0.040273
5844.57,0.038392
5851.17,0.036458
5857.78,0.034657
5864.41,0.03296
5871.05,0.031213
5877.7,0.029711
5884.38,0.028315
5891.06,0.026684
5897.76,0.025256
5904.48,0.023955
5911.21,0.022796
5917.96,0.021911
5924.73,0.021131
5931.5,0.020275
5938.3,0.019418
5945.11,0.018649
5951.93,0.018167
5958.78,0.017868
5965.63,0.017609
5972.51,0.016926
5979.39,0.016196
5986.3,0.015723
5993.22,0.015362
6000.16,0.015071
6007.11,0.014933
6014.08,0.01494
6021.06,0.014831
6028.06,0.014403
6035.08,0.014165
6042.12,0.014026
6049.17,0.013919
6056.23,0.013761
6063.32,0.013821
6070.42,0.013769
6077.53,0.0137
6084.67,0.01359
6091.82,0.013386
6098.98,0.013501
6106.17,0.013581
6113.37,0.013396
6120.58,0.013336
6127.82,0.013402
6135.07,0.013369
6142.34,0.013216
6149.63,0.013036
6156.93,0.013084
6164.25,0.013431
6171.59,0.013518
6178.95,0.013437
6186.32,0.013658
6193.71,0.013704
6201.12,0.013725
6208.54,0.014017
6215.99,0.014485
6223.45,0.014565
6230.93,0.014602
6238.43,0.01482
6245.95,0.01523
6253.48,0.015741
6261.03,0.016226
6268.6,0.016671
6276.19,0.017076
6283.8,0.017554
6291.43,0.018401
6299.07,0.019114
6306.73,0.019547
6314.42,0.020229
6322.12,0.021103
6329.84,0.021815
6337.57,0.02262
6345.33,0.023719
6353.11,0.024784
6360.9,0.025722
6368.72,0.026762
6376.55,0.027812
6384.4,0.028919
6392.27,0.030001
6400.17,0.031097
6408.08,0.032103
6416.01,0.033137
6423.96,0.034435
6431.93,0.035348
6439.92,0.036309
6447.93,0.037499
6455.96,0.038496
6464.01,0.039208
6472.08,0.039746
6480.17,0.040289
6488.28,0.040967
6496.41,0.041573
6504.56,0.041844
6512.73,0.04215
6520.92,0.042176
6529.14,0.04205
6537.37,0.041911
6545.63,0.0417
6553.9,0.041332
6562.2,0.040938
6570.51,0.040285
6578.85,0.03983
6587.21,0.039522
6595.59,0.039167
6603.99,0.039019
6612.42,0.038966
6620.86,0.038756
6629.33,0.038566
6637.82,0.038367
6646.33,0.037963
6654.86,0.038015
6663.41,0.038215
6671.99,0.038298
6680.59,0.038493
6689.21,0.039049
6697.85,0.039833
6706.51,0.040666
6715.2,0.042099
6723.91,0.043953
6732.64,0.045764
6741.4,0.047605
6750.18,0.049031
6758.98,0.049738
6767.8,0.049791
6776.65,0.048926
6785.52,0.047864
6794.41,0.04712
6803.33,0.046644
6812.27,0.046491
6821.23,0.046488
6830.22,0.046351
6839.23,0.046198
6848.26,0.046063
6857.32,0.045776
6866.4,0.045401
6875.51,0.044873
6884.64,0.044544
6893.8,0.044271
6902.98,0.044005
6912.18,0.043948
6921.41,0.043891
6930.66,0.043389
6939.94,0.043232
6949.24,0.043284
6958.57,0.043244
6967.92,0.043244
6977.3,0.043362
6986.7,0.043762
6996.13,0.044363
7005.59,0.045361
7015.07,0.046326
7024.57,0.04724
7034.1,0.048319
7043.66,0.049268
7053.25,0.050019
7062.85,0.050992
7072.49,0.05228
7082.15,0.054265
7091.84,0.05716
7101.55,0.06076
7111.3,0.064567
7121.06,0.068141
7130.86,0.071311
7140.68,0.074862
7150.53,0.079607
7160.41,0.0852
7170.31,0.090598
7180.24,0.096298
7190.2,0.101961
7200.19,0.107075
7210.2,0.111652
7220.24,0.115955
7230.31,0.120021
7240.41,0.1239
7250.54,0.127374
7260.69,0.13083
7270.88,0.134181
7281.09,0.137439
7291.33,0.140715
7301.6,0.143884
7311.9,0.14673
7322.22,0.149418
7332.58,0.152124
7342.97,0.154888
7353.38,0.157144
7363.83,0.159298
7374.3,0.161424
7384.81,0.163398
7395.34,0.165277
7405.91,0.167575
7416.5,0.169811
7427.13,0.171839
7437.78,0.173876
7448.47,0.176099
7459.19,0.177764
7469.94,0.179127
7480.71,0.180521
7491.52,0.182048
7502.37,0.18294
7513.24,0.183996
7524.14,0.185184
7535.08,0.18626
7546.05,0.187222
7557.05,0.188409
7568.08,0.189678
7579.15,0.190796
7590.24,0.191655
7601.37,0.192305
7612.53,0.192953
7623.73,0.193891
7634.96,0.194552
7646.22,0.194898
7657.51,0.195176
7668.84,0.195682
7680.2,0.195874
7691.59,0.196029
7703.02,0.196096
7714.49,0.196012
7725.98,0.195698
7737.52,0.195474
7749.08,0.195042
7760.68,0.194678
7772.32,0.194192
7783.99,0.193636
7795.69,0.193248
7807.43,0.192861
7819.21,0.192196
7831.02,0.191752
7842.87,0.19135
7854.75,0.190944
7866.67,0.19039
7878.62,0.189946
7890.62,0.1893
7902.64,0.188625
7914.71,0.188266
7926.81,0.18793
7938.95,0.187353
7951.13,0.18656
7963.34,0.18542
7975.59,0.184699
7987.88,0.183727
8000.21,0.18279
8012.57,0.181713
8024.98,0.18066
8037.42,0.179893
8049.9,0.17928
8062.42,0.178733
8074.98,0.178338
8087.57,0.178075
8100.21,0.177685
8112.89,0.177203
8125.6,0.177003
8138.36,0.176581
8151.16,0.176027
8163.99,0.175286
8176.87,0.174308
8189.79,0.173539
8202.75,0.172948
8215.75,0.172381
8228.79,0.171871
8241.87,0.171319
8254.99,0.170897
8268.16,0.169978
8281.37,0.169625
8294.62,0.169696
8307.91,0.169628
8321.24,0.169474
8334.62,0.169097
8348.04,0.168831
8361.51,0.168931
8375.02,0.168616
8388.57,0.168334
8402.16,0.168069
8415.8,0.167842
8429.49,0.167314
8443.22,0.166872
8456.99,0.166327
8470.81,0.165728
8484.67,0.16545
8498.58,0.165274
8512.54,0.164856
8526.54,0.164191
8540.58,0.163656
8554.68,0.163569
8568.82,0.163045
8583.0,0.162486
8597.24,0.161953
8611.52,0.161376
8625.85,0.160642
8640.23,0.159874
8654.65,0.158982
8669.12,0.158333
8683.64,0.157853
8698.21,0.156887
8712.83,0.155969
8727.5,0.154945
8742.22,0.154132
8756.99,0.153369
8771.8,0.151717
8786.67,0.150331
8801.59,0.149012
8816.56,0.146836
8831.58,0.144257
8846.65,0.141694
8861.77,0.137719
8876.94,0.132284
8892.17,0.125471
8907.45,0.116611
8922.78,0.107039
8938.16,0.100355
8953.6,0.098355
8969.09,0.100354
8984.64,0.10324
9000.23,0.103481
9015.89,0.101974
9031.59,0.104933
9047.36,0.113844
9063.17,0.123984
9079.05,0.130823
9094.97,0.134377
9110.96,0.13603
9127.0,0.137212
9143.1,0.138002
9159.25,0.138756
9175.46,0.139982
9191.73,0.141229
9208.06,0.141977
9224.44,0.143246
9240.88,0.144565
9257.38,0.145125
9273.94,0.144769
9290.56,0.143785
9307.24,0.14178
9323.98,0.139928
9340.78,0.137798
9357.64,0.13541
9374.57,0.132855
9391.55,0.130106
9408.59,0.127676
9425.7,0.125826
9442.87,0.123881
9460.1,0.122322
9477.4,0.12079
9494.75,0.119519
9512.17,0.11831
9529.66,0.117278
9547.21,0.115932
9564.83,0.114307
9582.5,0.112652
9600.25,0.110965
9618.06,0.109211
9635.94,0.107797
9653.88,0.105937
9671.89,0.103427
9689.97,0.10128
9708.12,0.099077
9726.33,0.096782
9744.62,0.094529
9762.97,0.092292
9781.39,0.090055
9799.88,0.08812
9818.44,0.086294
9837.07,0.084281
9855.77,0.082944
9874.54,0.081927
9893.39,0.08094
9912.3,0.080496
9931.29,0.080005
9950.36,0.079674
9969.49,0.079638
9988.7,0.079882
10007.98,0.079949
10027.34,0.079903
10046.77,0.079945
10066.28,0.080045
10085.87,0.080215
10105.53,0.08028
10125.26,0.080134
10145.08,0.079891
10164.97,0.079464
10184.94,0.078611
10204.99,0.078294
10225.12,0.078536
10245.33,0.078321
10265.61,0.077839
10285.98,0.077211
10306.43,0.076598
10326.96,0.076164
10347.57,0.075718
10368.27,0.075338
10389.05,0.074817
10409.91,0.074168
10430.86,0.073192
10451.88,0.072501
10473.0,0.072451
10494.2,0.071908
10515.49,0.071121
10536.86,0.070542
10558.32,0.069993
10579.87,0.069112
10601.5,0.068181
10623.23,0.067631
10645.04,0.067044
10666.94,0.066577
10688.94,0.065715
10711.02,0.064961
10733.2,0.06463
10755.47,0.064075
10777.83,0.063456
10800.28,0.062827
10822.83,0.062495
10845.47,0.06172
10868.21,0.060644
10891.04,0.0598
10913.97,0.059034
10936.99,0.058121
10960.12,0.057164
10983.34,0.056095
11006.66,0.055302
11030.07,0.054388
11053.59,0.052496
11077.21,0.050075
11100.93,0.047319
11124.75,0.043808
11148.68,0.038591
11172.71,0.032351
11196.84,0.027659
11221.07,0.024757
11245.41,0.023013
11269.86,0.02374
11294.41,0.026091
11319.07,0.028392
11343.84,0.031629
11368.72,0.035181
11393.7,0.038227
11418.8,0.040696
11444.01,0.042406
11469.33,0.043526
11494.76,0.043338
11520.3,0.041904
11545.96,0.039652
11571.73,0.035749
11597.62,0.03078
11623.62,0.026483
11649.74,0.023254
11675.98,0.021183
11702.34,0.020804
11728.81,0.022486
11755.41,0.025987
11782.13,0.030794
11808.96,0.034717
11835.92,0.036527
11863.01,0.037383
11890.22,0.037985
11917.55,0.037889
11945.01,0.037122
11972.6,0.036261
12000.31,0.035013
12028.16,0.034241
12056.13,0.03335
12084.23,0.031901
12112.46,0.030891
12140.83,0.029959
12169.33,0.029128
12197.96,0.028168
12226.73,0.027363
12255.64,0.026433
12284.68,0.025535
12313.86,0.02475
12343.18,0.024572
12372.64,0.024232
12402.24,0.023904
12431.98,0.023946
12461.86,0.023937
12491.89,0.023991
12522.07,0.024888
12552.38,0.02596
12582.85,0.027102
12613.47,0.028323
12644.23,0.0292
12675.15,0.030579
12706.21,0.031355
12737.43,0.031853
12768.81,0.032984
12800.33,0.03423
12832.02,0.035599
12863.86,0.036675
12895.86,0.037623
12928.02,0.038484
12960.34,0.03896
12992.82,0.038648
13025.46,0.038093
13058.27,0.037769
13091.25,0.036958
13124.39,0.035645
13157.7,0.03432
13191.18,0.032805
13224.83,0.031042
13258.66,0.02879
13292.65,0.026773
13326.83,0.024613
13361.17,0.022914
13395.7,0.02254
13430.4,0.023125
13465.29,0.023967
13500.35,0.024925
13535.6,0.02569
13571.03,0.026168
13606.65,0.025968
13642.46,0.026123
13678.46,0.02601
13714.64,0.025475
13751.02,0.02494
13787.59,0.024792
13824.36,0.024349
13861.32,0.024144
13898.49,0.023311
13935.85,0.022596
13973.41,0.02253
14011.17,0.022492
14049.15,0.022512
14087.32,0.022241
14125.71,0.022456
14164.3,0.022709
14203.11,0.022597
14242.13,0.022435
14281.36,0.022848
14320.81,0.023245
14360.49,0.023141
14400.38,0.022761
14440.49,0.022796
14480.82,0.023114
14521.39,0.022644
14562.18,0.022063
14603.2,0.022024
14644.45,0.02133
14685.93,0.02104
14727.66,0.020519
14769.62,0.019781
14811.81,0.019592
14854.25,0.018808
14896.94,0.018233
14939.87,0.017635
14983.05,0.017399
15026.48,0.01689
15070.16,0.017097
15114.1,0.01701
15158.29,0.01604
15202.74,0.015553
15247.46,0.015242
15292.43,0.015591
15337.68,0.015914
15383.19,0.015503
15428.97,0.015452
15475.03,0.015637
15521.36,0.0155
15567.97,0.01517
15614.87,0.01497
15662.04,0.014982
15709.5,0.01566
15757.25,0.015122
15805.29,0.013524
15853.62,0.014548
15902.26,0.015519
15951.19,0.01534
16000.42,0.01537
16049.95,0.015571
16099.8,0.016496
16149.95,0.016761
16200.42,0.016549
16251.21,0.017704
16302.31,0.018791
16353.74,0.018374
16405.49,0.018985
16457.57,0.019813
16509.98,0.019954
16562.73,0.020203
16615.82,0.020592
16669.24,0.021261
16723.02,0.020915
16777.14,0.020775
16831.61,0.021477
16886.43,0.02046
16941.62,0.01976
16997.16,0.020495
17053.08,0.020337
17109.36,0.020151
17166.01,0.020118
17223.04,0.021016
17280.45,0.022168
17338.24,0.022399
17396.43,0.022247
17455.0,0.022453
17513.97,0.022821
17573.34,0.022698
17633.11,0.02193
17693.29,0.02235
17753.89,0.023089
17814.9,0.023183
17876.33,0.022312
17938.18,0.02241
18000.47,0.022675
18063.19,0.02253
18126.35,0.02174
18189.95,0.020956
18254.0,0.0199
18318.5,0.020834
18383.46,0.021148
18448.88,0.020968
18514.77,0.021134
18581.13,0.020463
18647.97,0.020071
18715.29,0.019078
18783.1,0.018272
18851.4,0.016041
18920.2,0.014759
18989.51,0.014646
19059.32,0.013901
19129.65,0.013042
19200.5,0.011699
19271.88,0.012041
19343.79,0.012522
19416.24,0.012567
19489.23,0.012098
19562.77,0.010578
19636.88,0.00985
19711.54,0.008914
19786.78,0.008863
19862.59,0.010505
19938.98,0.010742
20015.96,0.010057
20093.55,0.009876
20171.73,0.011308
20250.53,0.010424
20329.94,0.009665
20409.98,0.010394
20490.65,0.010479
20571.96,0.012097
20653.92,0.0133
20736.54,0.013503
20819.82,0.01402
20903.77,0.014727
20988.4,0.014539
21073.72,0.013895
21159.73,0.013842
21246.46,0.015193
21333.89,0.015532
21422.04,0.01547
21510.93,0.016987
21600.56,0.019152
21690.94,0.021289
21782.08,0.021426
21873.99,0.020876
21966.67,0.022893
22060.15,0.026752
22154.42,0.030819
22249.51,0.031753
22345.41,0.030696
22442.14,0.031842
22539.72,0.032016
22638.14,0.033729
22737.43,0.037449
22837.6,0.038391
22938.65,0.037794
23040.6,0.037596
23143.46,0.036794
23247.24,0.034682
23351.96,0.034836
23457.63,0.033841
23564.25,0.030885
23671.85,0.028383
23780.44,0.025942
23890.02,0.022124
24000.63,0.022853
24112.26,0.025124
24224.93,0.023365
24338.66,0.023443
24453.47,0.023781
24569.36,0.022504
24686.36,0.022471
24804.47,0.02517
24923.73,0.028655
25044.13,0.031097
25165.71,0.029714
25288.46,0.030412
25412.43,0.028982
25537.61,0.025655
25664.04,0.020628
25791.72,0.022911
25920.68,0.022868
