Database of Origin,University of Winnipeg Spectrophotometer Facility
Sample Description,"Zeolites: RELAB + Nicolet spectra, Merged at 2.5 microns; note change in viewing geometry"
Date Added,2018-07-23 23:09:47.313235

Data ID,RLA_ZEO_1_9         
Sample ID,zeo113
Mineral Name,mesolite
Grain Size,<45 um
Viewing Geometry,"30/0,30"
Resolution,5/.6-129 nm

Wavelength
305.0,0.700944
310.0,0.706305
315.0,0.717105
320.0,0.724022
325.0,0.734774
330.0,0.742565
335.0,0.751015
340.0,0.759773
345.0,0.764931
350.0,0.774066
355.0,0.77888
360.0,0.784431
365.0,0.788381
370.0,0.793177
375.0,0.799403
380.0,0.800721
385.0,0.804438
390.0,0.807284
395.0,0.810105
400.0,0.811206
405.0,0.813953
410.0,0.815495
415.0,0.816518
420.0,0.818936
425.0,0.821683
430.0,0.823394
435.0,0.826564
440.0,0.827253
445.0,0.830331
450.0,0.833228
455.0,0.835543
460.0,0.837654
465.0,0.840533
470.0,0.842833
475.0,0.84534
480.0,0.847327
485.0,0.849972
490.0,0.850345
495.0,0.852379
500.0,0.854051
505.0,0.854973
510.0,0.855131
515.0,0.857163
520.0,0.855995
525.0,0.857631
530.0,0.857079
535.0,0.858836
540.0,0.8585
545.0,0.859627
550.0,0.858283
555.0,0.85885
560.0,0.858281
565.0,0.859032
570.0,0.857608
575.0,0.857443
580.0,0.856302
585.0,0.856118
590.0,0.854941
595.0,0.854731
600.0,0.853516
605.0,0.852976
610.0,0.85176
615.0,0.851455
620.0,0.850286
625.0,0.849851
630.0,0.848575
635.0,0.848356
640.0,0.847693
645.0,0.846616
650.0,0.846599
655.0,0.845452
660.0,0.845119
665.0,0.844772
670.0,0.844808
675.0,0.844077
680.0,0.843874
685.0,0.84406
690.0,0.844141
695.0,0.843707
700.0,0.843537
705.0,0.843697
710.0,0.843426
715.0,0.843652
720.0,0.843828
725.0,0.843714
730.0,0.845067
735.0,0.844609
740.0,0.844733
745.0,0.844021
750.0,0.844434
755.0,0.843683
760.0,0.845112
765.0,0.845979
770.0,0.844346
775.0,0.846589
780.0,0.846124
785.0,0.845575
790.0,0.845779
795.0,0.84534
800.0,0.845554
805.0,0.846819
810.0,0.848261
815.0,0.847124
820.0,0.847534
825.0,0.848419
830.0,0.847242
835.0,0.849321
840.0,0.847647
845.0,0.847467
850.0,0.848423
855.0,0.849999
860.0,0.849839
865.0,0.849292
870.0,0.849874
875.0,0.848922
880.0,0.850054
885.0,0.85085
890.0,0.850756
895.0,0.850535
900.0,0.850754
905.0,0.85008
910.0,0.850112
915.0,0.851653
920.0,0.850791
925.0,0.851671
930.0,0.851298
935.0,0.851966
940.0,0.851459
945.0,0.851396
950.0,0.850806
955.0,0.852245
960.0,0.85163
965.0,0.851901
970.0,0.852372
975.0,0.852126
980.0,0.851865
985.0,0.852165
990.0,0.852293
995.0,0.851864
1000.0,0.851633
1005.0,0.852109
1010.0,0.85221
1015.0,0.852472
1020.0,0.852321
1025.0,0.853016
1030.0,0.853653
1035.0,0.853132
1040.0,0.853012
1045.0,0.85367
1050.0,0.853433
1055.0,0.853279
1060.0,0.853753
1065.0,0.85363
1070.0,0.853554
1075.0,0.853503
1080.0,0.853517
1085.0,0.8528
1090.0,0.853577
1095.0,0.852936
1100.0,0.853523
1105.0,0.853573
1110.0,0.853076
1115.0,0.853134
1120.0,0.852844
1125.0,0.853045
1130.0,0.852674
1135.0,0.852734
1140.0,0.852478
1145.0,0.852034
1150.0,0.851795
1155.0,0.850673
1160.0,0.850314
1165.0,0.849741
1170.0,0.849227
1175.0,0.84848
1180.0,0.84881
1185.0,0.84908
1190.0,0.848907
1195.0,0.84934
1200.0,0.84939
1205.0,0.853377
1210.0,0.84873
1215.0,0.849093
1220.0,0.847962
1225.0,0.848327
1230.0,0.846504
1235.0,0.846873
1240.0,0.847598
1245.0,0.846673
1250.0,0.846441
1255.0,0.848449
1260.0,0.848464
1265.0,0.847992
1270.0,0.845886
1275.0,0.84606
1280.0,0.846973
1285.0,0.843483
1290.0,0.84584
1295.0,0.845333
1300.0,0.84604
1305.0,0.844445
1310.0,0.843094
1315.0,0.845283
1320.0,0.842809
1325.0,0.843
1330.0,0.84098
1335.0,0.840272
1340.0,0.838957
1345.0,0.837467
1350.0,0.836207
1355.0,0.835317
1360.0,0.835986
1365.0,0.832648
1370.0,0.832242
1375.0,0.832512
1380.0,0.832305
1385.0,0.830014
1390.0,0.827237
1395.0,0.825848
1400.0,0.823514
1405.0,0.818943
1410.0,0.810527
1415.0,0.804867
1420.0,0.79957
1425.0,0.796046
1430.0,0.789054
1435.0,0.782714
1440.0,0.78118
1445.0,0.779509
1450.0,0.779979
1455.0,0.780275
1460.0,0.780246
1465.0,0.781401
1470.0,0.788562
1475.0,0.789687
1480.0,0.791385
1485.0,0.788538
1490.0,0.788818
1495.0,0.794113
1500.0,0.796031
1505.0,0.800881
1510.0,0.803471
1515.0,0.804089
1520.0,0.807833
1525.0,0.807153
1530.0,0.809198
1535.0,0.807795
1540.0,0.808344
1545.0,0.809843
1550.0,0.806893
1555.0,0.808524
1560.0,0.810694
1565.0,0.810934
1570.0,0.807982
1575.0,0.809893
1580.0,0.808963
1585.0,0.808879
1590.0,0.807536
1595.0,0.808291
1600.0,0.807668
1605.0,0.806469
1610.0,0.809679
1615.0,0.810105
1620.0,0.810739
1625.0,0.810086
1630.0,0.810916
1635.0,0.807055
1640.0,0.811544
1645.0,0.809441
1650.0,0.810907
1655.0,0.808019
1660.0,0.810462
1665.0,0.813999
1670.0,0.814901
1675.0,0.815253
1680.0,0.815605
1685.0,0.815322
1690.0,0.815889
1695.0,0.816085
1700.0,0.81655
1705.0,0.816176
1710.0,0.81639
1715.0,0.815843
1720.0,0.814982
1725.0,0.813984
1730.0,0.812767
1735.0,0.810996
1740.0,0.80938
1745.0,0.808942
1750.0,0.807925
1755.0,0.808149
1760.0,0.808639
1765.0,0.808956
1770.0,0.809388
1775.0,0.810115
1780.0,0.810799
1785.0,0.810549
1790.0,0.811073
1795.0,0.811695
1800.0,0.811783
1805.0,0.811739
1810.0,0.812143
1815.0,0.812058
1820.0,0.812958
1825.0,0.81235
1830.0,0.812461
1835.0,0.812474
1840.0,0.811905
1845.0,0.811205
1850.0,0.810329
1855.0,0.808524
1860.0,0.806144
1865.0,0.804349
1870.0,0.80007
1875.0,0.790914
1880.0,0.781198
1885.0,0.770781
1890.0,0.756339
1895.0,0.736146
1900.0,0.7128
1905.0,0.683864
1910.0,0.657167
1915.0,0.636255
1920.0,0.617111
1925.0,0.595414
1930.0,0.56733
1935.0,0.531374
1940.0,0.505824
1945.0,0.511904
1950.0,0.531654
1955.0,0.55651
1960.0,0.588101
1965.0,0.61461
1970.0,0.626526
1975.0,0.6285
1980.0,0.629553
1985.0,0.637121
1990.0,0.645541
1995.0,0.652681
2000.0,0.659575
2005.0,0.665202
2010.0,0.669857
2015.0,0.674622
2020.0,0.679666
2025.0,0.686294
2030.0,0.691542
2035.0,0.696719
2040.0,0.700637
2045.0,0.703772
2050.0,0.704732
2055.0,0.70592
2060.0,0.708523
2065.0,0.712236
2070.0,0.716368
2075.0,0.721687
2080.0,0.727762
2085.0,0.733321
2090.0,0.738001
2095.0,0.742055
2100.0,0.745101
2105.0,0.747939
2110.0,0.750288
2115.0,0.751641
2120.0,0.752989
2125.0,0.753055
2130.0,0.753219
2135.0,0.752807
2140.0,0.751242
2145.0,0.750371
2150.0,0.748826
2155.0,0.745939
2160.0,0.742868
2165.0,0.739233
2170.0,0.736506
2175.0,0.734767
2180.0,0.734849
2185.0,0.736208
2190.0,0.737567
2195.0,0.739371
2200.0,0.741572
2205.0,0.743722
2210.0,0.746123
2215.0,0.748321
2220.0,0.749624
2225.0,0.750437
2230.0,0.75163
2235.0,0.751814
2240.0,0.753662
2245.0,0.755064
2250.0,0.755722
2255.0,0.755859
2260.0,0.756823
2265.0,0.757784
2270.0,0.757473
2275.0,0.757856
2280.0,0.758108
2285.0,0.757343
2290.0,0.75641
2295.0,0.756836
2300.0,0.756055
2305.0,0.755132
2310.0,0.752551
2315.0,0.748168
2320.0,0.744858
2325.0,0.741153
2330.0,0.739045
2335.0,0.73659
2340.0,0.733203
2345.0,0.728896
2350.0,0.723296
2355.0,0.717036
2360.0,0.709969
2365.0,0.701322
2370.0,0.692727
2375.0,0.683581
2380.0,0.672706
2385.0,0.661005
2390.0,0.649067
2395.0,0.636336
2400.0,0.621288
2405.0,0.605158
2410.0,0.589801
2415.0,0.576784
2420.0,0.565929
2425.0,0.558503
2430.0,0.555182
2435.0,0.554252
2440.0,0.553207
2445.0,0.552607
2450.0,0.550256
2455.0,0.548503
2460.0,0.547393
2465.0,0.547112
2470.0,0.546272
2475.0,0.546487
2480.0,0.547016
2485.0,0.548981
2490.0,0.551327
2495.0,0.552624
2500.0,0.554012
2505.0,0.553862
2510.0,0.553115
2515.0,0.551743
2520.0,0.549157
2525.0,0.545785
2530.0,0.543925
2535.0,0.540996
2540.0,0.538151
2545.0,0.536157
2550.0,0.534039
2555.0,0.533282
2560.0,0.531932
2565.0,0.531164
2570.0,0.529732
2575.0,0.530116
2580.0,0.529372
2581.74,0.529197
2583.03,0.529235
2584.31,0.528408
2585.6,0.528644
2586.89,0.528705
2588.19,0.527786
2589.48,0.527931
2590.77,0.528192
2592.07,0.527829
2593.36,0.527395
2594.66,0.526203
2595.96,0.526363
2597.26,0.528334
2598.56,0.527992
2599.87,0.52651
2601.17,0.525949
2602.48,0.525254
2603.78,0.524635
2605.09,0.524094
2606.4,0.522889
2607.71,0.523526
2609.03,0.523848
2610.34,0.522709
2611.66,0.522465
2612.97,0.521978
2614.29,0.520922
2615.61,0.520387
2616.93,0.519339
2618.25,0.518522
2619.57,0.518309
2620.9,0.516703
2622.22,0.516274
2623.55,0.516992
2624.88,0.515979
2626.21,0.51435
2627.54,0.51331
2628.87,0.513158
2630.21,0.511968
2631.54,0.510308
2632.88,0.510986
2634.21,0.510432
2635.55,0.509585
2636.89,0.509659
2638.24,0.509088
2639.58,0.507804
2640.92,0.506702
2642.27,0.50618
2643.62,0.505175
2644.97,0.50417
2646.32,0.503838
2647.67,0.503297
2649.02,0.502371
2650.38,0.501107
2651.73,0.499255
2653.09,0.497522
2654.45,0.496984
2655.81,0.495812
2657.17,0.494741
2658.53,0.493381
2659.89,0.490973
2661.26,0.489158
2662.63,0.487577
2664.0,0.486035
2665.36,0.483766
2666.74,0.482175
2668.11,0.481285
2669.48,0.480018
2670.86,0.476704
2672.23,0.474233
2673.61,0.473406
2674.99,0.470985
2676.37,0.467516
2677.76,0.464875
2679.14,0.4639
2680.52,0.46218
2681.91,0.459498
2683.3,0.456354
2684.69,0.453839
2686.08,0.451452
2687.47,0.449082
2688.87,0.446382
2690.26,0.444113
2691.66,0.441527
2693.06,0.437868
2694.46,0.433522
2695.86,0.429723
2697.26,0.42711
2698.66,0.424496
2700.07,0.420786
2701.48,0.41696
2702.89,0.413075
2704.3,0.409175
2705.71,0.404288
2707.12,0.399322
2708.53,0.394267
2709.95,0.388822
2711.37,0.383691
2712.79,0.379293
2714.21,0.374107
2715.63,0.367885
2717.05,0.36195
2718.48,0.356484
2719.9,0.351224
2721.33,0.344746
2722.76,0.338509
2724.19,0.332305
2725.62,0.32519
2727.06,0.318724
2728.49,0.312644
2729.93,0.306125
2731.37,0.299262
2732.81,0.291791
2734.25,0.284392
2735.69,0.277614
2737.14,0.271164
2738.58,0.26481
2740.03,0.257477
2741.48,0.25053
2742.93,0.244376
2744.38,0.238378
2745.83,0.23158
2747.29,0.224815
2748.75,0.218387
2750.2,0.211437
2751.66,0.204655
2753.13,0.19839
2754.59,0.192538
2756.05,0.186512
2757.52,0.179917
2758.99,0.173867
2760.46,0.167658
2761.93,0.161307
2763.4,0.154793
2764.87,0.149018
2766.35,0.143423
2767.82,0.13833
2769.3,0.133608
2770.78,0.129551
2772.26,0.125435
2773.75,0.120994
2775.23,0.117145
2776.72,0.113752
2778.21,0.110344
2779.7,0.107089
2781.19,0.104173
2782.68,0.101519
2784.18,0.098581
2785.67,0.095822
2787.17,0.092948
2788.67,0.089953
2790.17,0.087624
2791.67,0.085551
2793.18,0.083051
2794.68,0.080415
2796.19,0.07803
2797.7,0.075604
2799.21,0.073277
2800.72,0.071661
2802.24,0.069765
2803.75,0.067446
2805.27,0.065287
2806.79,0.063721
2808.31,0.061902
2809.83,0.05992
2811.35,0.05826
2812.88,0.056761
2814.41,0.055129
2815.93,0.053759
2817.46,0.052386
2819.0,0.050475
2820.53,0.048925
2822.07,0.048146
2823.6,0.047306
2825.14,0.046337
2826.68,0.04589
2828.22,0.046207
2829.77,0.046819
2831.31,0.047783
2832.86,0.049509
2834.41,0.051901
2835.96,0.054401
2837.51,0.057009
2839.07,0.059384
2840.62,0.061808
2842.18,0.064145
2843.74,0.066576
2845.3,0.068847
2846.86,0.07127
2848.43,0.073779
2849.99,0.075987
2851.56,0.077619
2853.13,0.07923
2854.7,0.08075
2856.27,0.081767
2857.85,0.08244
2859.42,0.082678
2861.0,0.0828
2862.58,0.083462
2864.16,0.083632
2865.75,0.08378
2867.33,0.083825
2868.92,0.083539
2870.51,0.083348
2872.1,0.082871
2873.69,0.082503
2875.28,0.082194
2876.88,0.081298
2878.48,0.080679
2880.07,0.080585
2881.68,0.080801
2883.28,0.080565
2884.88,0.080227
2886.49,0.080555
2888.1,0.080801
2889.71,0.080582
2891.32,0.080405
2892.93,0.080047
2894.55,0.07992
2896.16,0.079763
2897.78,0.079633
2899.4,0.079456
2901.03,0.079111
2902.65,0.078892
2904.28,0.078646
2905.91,0.077819
2907.54,0.077284
2909.17,0.077403
2910.8,0.077152
2912.44,0.076637
2914.07,0.075548
2915.71,0.074432
2917.35,0.07398
2918.99,0.07328
2920.64,0.072493
2922.29,0.072069
2923.93,0.071341
2925.58,0.070755
2927.24,0.069608
2928.89,0.068387
2930.55,0.067603
2932.2,0.067048
2933.86,0.066421
2935.52,0.065667
2937.19,0.065233
2938.85,0.064591
2940.52,0.064036
2942.19,0.063617
2943.86,0.06332
2945.53,0.063465
2947.21,0.063909
2948.88,0.063975
2950.56,0.064
2952.24,0.063998
2953.92,0.064208
2955.61,0.06486
2957.29,0.065342
2958.98,0.066
2960.67,0.066718
2962.36,0.067129
2964.06,0.067717
2965.75,0.068372
2967.45,0.068913
2969.15,0.069222
2970.85,0.069669
2972.55,0.070237
2974.26,0.070963
2975.97,0.071854
2977.68,0.072696
2979.39,0.073544
2981.1,0.074132
2982.82,0.074703
2984.53,0.075797
2986.25,0.077066
2987.97,0.078362
2989.7,0.079476
2991.42,0.080552
2993.15,0.08196
2994.88,0.083447
2996.61,0.085
2998.34,0.08648
3000.08,0.087888
3001.82,0.089456
3003.55,0.091082
3005.3,0.092174
3007.04,0.09276
3008.78,0.093927
3010.53,0.094906
3012.28,0.095792
3014.03,0.096698
3015.79,0.097312
3017.54,0.09822
3019.3,0.0992
3021.06,0.099669
3022.82,0.099885
3024.58,0.100268
3026.35,0.100923
3028.12,0.101499
3029.89,0.101638
3031.66,0.101179
3033.43,0.100923
3035.21,0.100715
3036.99,0.100365
3038.77,0.099844
3040.55,0.098725
3042.33,0.097751
3044.12,0.096982
3045.91,0.09563
3047.7,0.094498
3049.49,0.093653
3051.29,0.092765
3053.08,0.092174
3054.88,0.091577
3056.68,0.090912
3058.49,0.090428
3060.29,0.090499
3062.1,0.090872
3063.91,0.091212
3065.72,0.091544
3067.54,0.091466
3069.35,0.091613
3071.17,0.092095
3072.99,0.092544
3074.81,0.092694
3076.64,0.09294
3078.47,0.093638
3080.29,0.094196
3082.13,0.094432
3083.96,0.094815
3085.79,0.095188
3087.63,0.095488
3089.47,0.095815
3091.31,0.095729
3093.16,0.09585
3095.01,0.096168
3096.85,0.096061
3098.71,0.095328
3100.56,0.095038
3102.41,0.095173
3104.27,0.095427
3106.13,0.095285
3107.99,0.094884
3109.86,0.094602
3111.73,0.094295
3113.59,0.093874
3115.47,0.093597
3117.34,0.093919
3119.21,0.094219
3121.09,0.094257
3122.97,0.094729
3124.86,0.095429
3126.74,0.096152
3128.63,0.096873
3130.52,0.097819
3132.41,0.09903
3134.3,0.100309
3136.2,0.101796
3138.1,0.103308
3140.0,0.104833
3141.9,0.107081
3143.81,0.10938
3145.71,0.111151
3147.62,0.113364
3149.54,0.115554
3151.45,0.117624
3153.37,0.120027
3155.29,0.122375
3157.21,0.124643
3159.13,0.127092
3161.06,0.129406
3162.99,0.131286
3164.92,0.133527
3166.85,0.135727
3168.79,0.137764
3170.72,0.139855
3172.67,0.142111
3174.61,0.144045
3176.55,0.145897
3178.5,0.147945
3180.45,0.149982
3182.4,0.151708
3184.36,0.153547
3186.32,0.155501
3188.27,0.157415
3190.24,0.159112
3192.2,0.160835
3194.17,0.162632
3196.14,0.164289
3198.11,0.16557
3200.08,0.167212
3202.06,0.169115
3204.04,0.170566
3206.02,0.171888
3208.0,0.173601
3209.99,0.175126
3211.98,0.176237
3213.97,0.177656
3215.96,0.179158
3217.96,0.180815
3219.96,0.182444
3221.96,0.183665
3223.96,0.184687
3225.97,0.185969
3227.98,0.187237
3229.99,0.188486
3232.0,0.190067
3234.02,0.191541
3236.04,0.192543
3238.06,0.193733
3240.08,0.19518
3242.11,0.196286
3244.14,0.197486
3246.17,0.198681
3248.2,0.19978
3250.24,0.201023
3252.28,0.202221
3254.32,0.203548
3256.37,0.204756
3258.41,0.205708
3260.46,0.206649
3262.51,0.207857
3264.57,0.208978
3266.63,0.20977
3268.69,0.210767
3270.75,0.211935
3272.81,0.213043
3274.88,0.213757
3276.95,0.214513
3279.02,0.215429
3281.1,0.216748
3283.18,0.217943
3285.26,0.218913
3287.34,0.21995
3289.43,0.221232
3291.51,0.222407
3293.61,0.223764
3295.7,0.224878
3297.8,0.226018
3299.9,0.227499
3302.0,0.228997
3304.1,0.230478
3306.21,0.232179
3308.32,0.233658
3310.43,0.235191
3312.55,0.236898
3314.66,0.238746
3316.79,0.240791
3318.91,0.242699
3321.03,0.244683
3323.16,0.246784
3325.29,0.248951
3327.43,0.251123
3329.57,0.253247
3331.71,0.255302
3333.85,0.257099
3335.99,0.259099
3338.14,0.261451
3340.29,0.263768
3342.45,0.2658
3344.6,0.267944
3346.76,0.270362
3348.92,0.272644
3351.09,0.274765
3353.26,0.276663
3355.43,0.279101
3357.6,0.281517
3359.78,0.283288
3361.96,0.28528
3364.14,0.287371
3366.32,0.289464
3368.51,0.291708
3370.7,0.293692
3372.89,0.29557
3375.09,0.297772
3377.29,0.30001
3379.49,0.302185
3381.69,0.304372
3383.9,0.306379
3386.11,0.308117
3388.32,0.309965
3390.54,0.311898
3392.76,0.313748
3394.98,0.315504
3397.21,0.317394
3399.43,0.31947
3401.66,0.321533
3403.9,0.323505
3406.13,0.325456
3408.37,0.327494
3410.61,0.329562
3412.86,0.331706
3415.11,0.334167
3417.36,0.336207
3419.61,0.337905
3421.87,0.339803
3424.13,0.341706
3426.39,0.34352
3428.66,0.345352
3430.93,0.347139
3433.2,0.348626
3435.48,0.350422
3437.76,0.352549
3440.04,0.354325
3442.32,0.355845
3444.61,0.35719
3446.9,0.358816
3449.19,0.360879
3451.49,0.362599
3453.79,0.364089
3456.09,0.365817
3458.4,0.367532
3460.7,0.369243
3463.02,0.370816
3465.33,0.37245
3467.65,0.374277
3469.97,0.376139
3472.29,0.377576
3474.62,0.37891
3476.95,0.380631
3479.29,0.382529
3481.62,0.384325
3483.96,0.385891
3486.3,0.387274
3488.65,0.388916
3491.0,0.390641
3493.35,0.392422
3495.71,0.394211
3498.07,0.396033
3500.43,0.39788
3502.79,0.399712
3505.16,0.401572
3507.53,0.403503
3509.91,0.405478
3512.29,0.407231
3514.67,0.408624
3517.05,0.409938
3519.44,0.411451
3521.83,0.413214
3524.23,0.414909
3526.62,0.416518
3529.02,0.418114
3531.43,0.419728
3533.83,0.421459
3536.24,0.422989
3538.66,0.424407
3541.08,0.426239
3543.5,0.428089
3545.92,0.429629
3548.35,0.431345
3550.78,0.4329
3553.21,0.434453
3555.65,0.436191
3558.09,0.437929
3560.53,0.439612
3562.98,0.441096
3565.43,0.442512
3567.88,0.443951
3570.34,0.445164
3572.8,0.446882
3575.27,0.448643
3577.73,0.450008
3580.2,0.451444
3582.68,0.452976
3585.16,0.454486
3587.64,0.455636
3590.12,0.456993
3592.61,0.45866
3595.1,0.460257
3597.6,0.461586
3600.09,0.46302
3602.6,0.4644
3605.1,0.465699
3607.61,0.466902
3610.12,0.467988
3612.64,0.469404
3615.16,0.471018
3617.68,0.472317
3620.21,0.473492
3622.74,0.474893
3625.27,0.476232
3627.81,0.477631
3630.35,0.479001
3632.89,0.480138
3635.44,0.481203
3637.99,0.482444
3640.54,0.483845
3643.1,0.484933
3645.66,0.486139
3648.23,0.487372
3650.8,0.488298
3653.37,0.489392
3655.95,0.490716
3658.53,0.491665
3661.11,0.492698
3663.7,0.49399
3666.29,0.495106
3668.89,0.496126
3671.48,0.497377
3674.09,0.498489
3676.69,0.499653
3679.3,0.500529
3681.91,0.501422
3684.53,0.502782
3687.15,0.503883
3689.78,0.504584
3692.4,0.505368
3695.04,0.506314
3697.67,0.507324
3700.31,0.508532
3702.95,0.509752
3705.6,0.510841
3708.25,0.511848
3710.91,0.512744
3713.56,0.513579
3716.23,0.514675
3718.89,0.515827
3721.56,0.516619
3724.23,0.517545
3726.91,0.518831
3729.59,0.52009
3732.28,0.521181
3734.97,0.521948
3737.66,0.522777
3740.36,0.52396
3743.06,0.525221
3745.76,0.526259
3748.47,0.527017
3751.18,0.5279
3753.9,0.528969
3756.62,0.530098
3759.34,0.531027
3762.07,0.531991
3764.8,0.533295
3767.54,0.534338
3770.28,0.534955
3773.02,0.535952
3775.77,0.537122
3778.52,0.538053
3781.28,0.539101
3784.04,0.539979
3786.8,0.540943
3789.57,0.541925
3792.34,0.542849
3795.12,0.543671
3797.9,0.54448
3800.69,0.545379
3803.47,0.546246
3806.27,0.547074
3809.06,0.547919
3811.86,0.548662
3814.67,0.549398
3817.48,0.550301
3820.29,0.551116
3823.11,0.551836
3825.93,0.552752
3828.76,0.553623
3831.59,0.554333
3834.42,0.554947
3837.26,0.555559
3840.1,0.556564
3842.95,0.557782
3845.8,0.558619
3848.65,0.559286
3851.51,0.560228
3854.38,0.561121
3857.24,0.561834
3860.12,0.562588
3862.99,0.563288
3865.87,0.56391
3868.76,0.564625
3871.65,0.565392
3874.54,0.566102
3877.44,0.566807
3880.34,0.567378
3883.25,0.567883
3886.16,0.568528
3889.07,0.569114
3891.99,0.569698
3894.92,0.570144
3897.85,0.570426
3900.78,0.570898
3903.72,0.571377
3906.66,0.571695
3909.6,0.57191
3912.55,0.572461
3915.51,0.573039
3918.47,0.573476
3921.43,0.573806
3924.4,0.574059
3927.38,0.574169
3930.35,0.574273
3933.33,0.574567
3936.32,0.574767
3939.31,0.574872
3942.31,0.575029
3945.31,0.57514
3948.31,0.575356
3951.32,0.575742
3954.34,0.575953
3957.35,0.575701
3960.38,0.575671
3963.41,0.575696
3966.44,0.575813
3969.48,0.576046
3972.52,0.576082
3975.56,0.575831
3978.61,0.575881
3981.67,0.576016
3984.73,0.576239
3987.8,0.576232
3990.87,0.576186
3993.94,0.576148
3997.02,0.57609
4000.1,0.576001
4003.19,0.575757
4006.29,0.575638
4009.39,0.575529
4012.49,0.575455
4015.6,0.5753
4018.71,0.575067
4021.83,0.574724
4024.95,0.574224
4028.08,0.574019
4031.21,0.573882
4034.35,0.573555
4037.49,0.573268
4040.64,0.572854
4043.79,0.5724
4046.94,0.572096
4050.11,0.571517
4053.27,0.570834
4056.44,0.570192
4059.62,0.569698
4062.8,0.569322
4065.99,0.568703
4069.18,0.567975
4072.38,0.567046
4075.58,0.566138
4078.78,0.565308
4082.0,0.564544
4085.21,0.563661
4088.43,0.562712
4091.66,0.561824
4094.89,0.560801
4098.13,0.559593
4101.37,0.558502
4104.62,0.557472
4107.87,0.556292
4111.13,0.555163
4114.39,0.554031
4117.66,0.55295
4120.93,0.551829
4124.21,0.550745
4127.5,0.54956
4130.79,0.548144
4134.08,0.546921
4137.38,0.545904
4140.68,0.544775
4143.99,0.543463
4147.31,0.542257
4150.63,0.54122
4153.95,0.540128
4157.29,0.538951
4160.62,0.53771
4163.96,0.536579
4167.31,0.535452
4170.66,0.534056
4174.02,0.532846
4177.39,0.531742
4180.75,0.530593
4184.13,0.529357
4187.51,0.527944
4190.89,0.526759
4194.28,0.525797
4197.68,0.524472
4201.08,0.522884
4204.49,0.521318
4207.9,0.519532
4211.32,0.517928
4214.74,0.516302
4218.17,0.514749
4221.61,0.513028
4225.05,0.511283
4228.5,0.509953
4231.95,0.508722
4235.4,0.507362
4238.87,0.50606
4242.34,0.504891
4245.81,0.503761
4249.29,0.502599
4252.78,0.501501
4256.27,0.500285
4259.77,0.498232
4263.27,0.495626
4266.78,0.493492
4270.29,0.491835
4273.81,0.490483
4277.34,0.48913
4280.87,0.487385
4284.41,0.485388
4287.95,0.483632
4291.5,0.481972
4295.06,0.480092
4298.62,0.478166
4302.19,0.476093
4305.76,0.473994
4309.34,0.472099
4312.92,0.469894
4316.52,0.467575
4320.11,0.465382
4323.72,0.462979
4327.32,0.46063
4330.94,0.458128
4334.56,0.455466
4338.19,0.453045
4341.82,0.450459
4345.46,0.447602
4349.11,0.444907
4352.76,0.442299
4356.42,0.439591
4360.08,0.437003
4363.75,0.434483
4367.43,0.431992
4371.11,0.429497
4374.8,0.427054
4378.49,0.42457
4382.19,0.422121
4385.9,0.420104
4389.61,0.418152
4393.33,0.416
4397.06,0.414062
4400.79,0.412225
4404.53,0.410421
4408.28,0.408718
4412.03,0.407117
4415.79,0.4055
4419.55,0.403942
4423.32,0.402499
4427.1,0.401336
4430.88,0.400261
4434.68,0.39905
4438.47,0.397853
4442.28,0.396728
4446.08,0.395708
4449.9,0.394871
4453.72,0.394082
4457.55,0.393196
4461.39,0.392377
4465.23,0.391697
4469.08,0.390999
4472.94,0.390238
4476.8,0.389674
4480.67,0.389149
4484.55,0.388319
4488.43,0.387553
4492.32,0.386954
4496.21,0.386266
4500.12,0.385272
4504.03,0.384082
4507.94,0.382859
4511.87,0.381704
4515.8,0.380385
4519.73,0.378842
4523.68,0.377213
4527.63,0.375639
4531.59,0.373845
4535.55,0.371892
4539.52,0.369912
4543.5,0.367669
4547.49,0.365363
4551.48,0.363353
4555.48,0.361204
4559.49,0.358882
4563.5,0.356766
4567.52,0.354586
4571.55,0.352571
4575.58,0.350833
4579.63,0.348986
4583.67,0.347364
4587.73,0.346025
4591.79,0.344863
4595.86,0.344025
4599.94,0.343703
4604.03,0.343533
4608.12,0.343642
4612.22,0.34418
4616.33,0.344832
4620.44,0.345845
4624.56,0.347035
4628.69,0.348466
4632.83,0.350303
4636.97,0.352277
4641.12,0.354137
4645.28,0.35603
4649.45,0.358248
4653.62,0.360686
4657.8,0.363092
4661.99,0.365548
4666.19,0.36804
4670.39,0.370554
4674.6,0.373107
4678.82,0.375789
4683.05,0.378418
4687.28,0.380953
4691.52,0.383554
4695.77,0.386211
4700.03,0.388895
4704.3,0.391476
4708.57,0.393843
4712.85,0.395985
4717.14,0.398167
4721.43,0.400327
4725.74,0.402351
4730.05,0.404128
4734.37,0.405975
4738.7,0.407771
4743.03,0.409319
4747.38,0.410659
4751.73,0.412045
4756.09,0.413323
4760.45,0.414453
4764.83,0.415704
4769.21,0.416731
4773.6,0.417411
4778.0,0.418195
4782.41,0.41902
4786.83,0.419845
4791.25,0.420634
4795.68,0.421223
4800.13,0.421677
4804.57,0.42225
4809.03,0.422874
4813.5,0.423298
4817.97,0.423707
4822.45,0.42427
4826.94,0.424945
4831.44,0.425765
4835.95,0.42631
4840.46,0.426828
4844.99,0.427543
4849.52,0.428175
4854.06,0.428683
4858.61,0.429396
4863.17,0.430378
4867.73,0.431175
4872.31,0.431989
4876.89,0.432829
4881.48,0.433466
4886.08,0.434085
4890.69,0.434884
4895.31,0.435674
4899.94,0.436478
4904.57,0.437325
4909.22,0.437967
4913.87,0.438696
4918.53,0.439467
4923.21,0.440025
4927.88,0.440495
4932.57,0.441116
4937.27,0.441583
4941.98,0.441873
4946.69,0.442116
4951.42,0.442347
4956.15,0.442542
4960.9,0.442362
4965.65,0.441966
4970.41,0.441685
4975.18,0.44168
4979.96,0.441725
4984.75,0.441685
4989.54,0.441728
4994.35,0.441705
4999.17,0.441687
5003.99,0.441789
5008.83,0.442142
5013.67,0.442451
5018.52,0.442601
5023.39,0.443042
5028.26,0.443456
5033.14,0.443796
5038.03,0.444004
5042.93,0.444055
5047.84,0.444311
5052.76,0.444501
5057.69,0.444456
5062.63,0.444542
5067.58,0.444567
5072.54,0.44458
5077.51,0.444433
5082.49,0.444237
5087.47,0.444012
5092.47,0.443758
5097.48,0.443644
5102.5,0.443288
5107.52,0.442898
5112.56,0.442842
5117.61,0.442824
5122.66,0.44271
5127.73,0.442563
5132.81,0.442471
5137.89,0.44241
5142.99,0.442098
5148.1,0.441621
5153.22,0.441271
5158.34,0.440873
5163.48,0.440335
5168.63,0.440172
5173.79,0.439919
5178.96,0.43949
5184.13,0.439218
5189.32,0.439274
5194.52,0.439216
5199.73,0.438985
5204.96,0.438909
5210.19,0.438871
5215.43,0.438528
5220.68,0.438358
5225.94,0.437904
5231.22,0.437313
5236.5,0.436524
5241.79,0.435577
5247.1,0.434552
5252.42,0.433344
5257.74,0.432086
5263.08,0.43069
5268.43,0.429208
5273.79,0.427802
5279.16,0.42631
5284.54,0.424915
5289.93,0.423382
5295.34,0.421672
5300.75,0.420101
5306.18,0.418368
5311.61,0.416498
5317.06,0.414732
5322.52,0.412821
5327.99,0.411108
5333.47,0.409401
5338.96,0.40768
5344.47,0.406117
5349.98,0.40477
5355.51,0.403915
5361.05,0.403313
5366.6,0.402488
5372.16,0.40175
5377.73,0.400966
5383.32,0.399923
5388.91,0.398847
5394.52,0.39788
5400.14,0.396741
5405.77,0.39545
5411.41,0.394072
5417.07,0.392486
5422.74,0.390527
5428.41,0.389245
5434.1,0.388119
5439.81,0.386206
5445.52,0.384206
5451.25,0.382255
5456.98,0.380245
5462.73,0.378164
5468.5,0.376063
5474.27,0.374165
5480.06,0.372125
5485.86,0.370308
5491.67,0.368451
5497.49,0.366456
5503.33,0.364548
5509.18,0.362833
5515.04,0.361214
5520.91,0.359537
5526.8,0.357837
5532.69,0.356324
5538.61,0.354718
5544.53,0.353135
5550.47,0.351534
5556.41,0.350168
5562.38,0.348986
5568.35,0.347585
5574.34,0.346172
5580.34,0.344713
5586.35,0.343543
5592.38,0.34234
5598.42,0.340734
5604.47,0.339194
5610.54,0.337786
5616.61,0.336243
5622.71,0.334545
5628.81,0.333033
5634.93,0.331366
5641.06,0.329409
5647.21,0.327608
5653.36,0.326113
5659.54,0.323875
5665.72,0.322035
5671.92,0.320051
5678.13,0.317699
5684.36,0.315717
5690.6,0.313601
5696.85,0.311086
5703.12,0.308871
5709.4,0.306158
5715.69,0.303621
5722.0,0.301218
5728.33,0.298645
5734.66,0.295917
5741.01,0.293207
5747.38,0.290424
5753.76,0.287846
5760.15,0.28542
5766.56,0.282565
5772.98,0.280119
5779.41,0.27817
5785.86,0.27579
5792.33,0.273473
5798.81,0.271009
5805.3,0.268579
5811.81,0.265985
5818.33,0.263191
5824.87,0.260083
5831.42,0.257315
5837.99,0.254282
5844.57,0.250875
5851.17,0.247134
5857.78,0.243275
5864.41,0.239172
5871.05,0.234795
5877.7,0.22993
5884.38,0.22446
5891.06,0.218852
5897.76,0.212777
5904.48,0.206177
5911.21,0.199105
5917.96,0.191153
5924.73,0.182607
5931.5,0.17335
5938.3,0.163296
5945.11,0.152068
5951.93,0.140721
5958.78,0.128868
5965.63,0.116531
5972.51,0.104072
5979.39,0.091674
5986.3,0.080367
5993.22,0.070367
6000.16,0.061407
6007.11,0.054688
6014.08,0.050475
6021.06,0.048935
6028.06,0.050201
6035.08,0.0537
6042.12,0.057923
6049.17,0.06129
6056.23,0.06318
6063.32,0.063493
6070.42,0.062818
6077.53,0.062729
6084.67,0.064881
6091.82,0.069476
6098.98,0.076127
6106.17,0.084191
6113.37,0.092455
6120.58,0.100956
6127.82,0.109228
6135.07,0.116282
6142.34,0.122796
6149.63,0.128698
6156.93,0.133867
6164.25,0.138371
6171.59,0.142281
6178.95,0.145184
6186.32,0.147221
6193.71,0.148483
6201.12,0.149021
6208.54,0.148861
6215.99,0.148214
6223.45,0.146973
6230.93,0.145509
6238.43,0.143979
6245.95,0.14252
6253.48,0.141434
6261.03,0.141332
6268.6,0.141966
6276.19,0.143334
6283.8,0.145669
6291.43,0.148988
6299.07,0.152971
6306.73,0.157541
6314.42,0.162383
6322.12,0.167331
6329.84,0.172056
6337.57,0.176519
6345.33,0.180368
6353.11,0.184388
6360.9,0.18811
6368.72,0.19096
6376.55,0.19369
6384.4,0.196332
6392.27,0.198537
6400.17,0.200623
6408.08,0.202229
6416.01,0.203289
6423.96,0.204911
6431.93,0.206365
6439.92,0.207154
6447.93,0.208062
6455.96,0.208633
6464.01,0.20927
6472.08,0.209605
6480.17,0.209973
6488.28,0.210247
6496.41,0.210354
6504.56,0.211008
6512.73,0.211681
6520.92,0.211569
6529.14,0.211922
6537.37,0.212333
6545.63,0.212292
6553.9,0.212186
6562.2,0.212275
6570.51,0.212168
6578.85,0.211874
6587.21,0.212039
6595.59,0.211874
6603.99,0.2116
6612.42,0.211397
6620.86,0.210932
6629.33,0.210333
6637.82,0.209671
6646.33,0.209321
6654.86,0.209098
6663.41,0.208362
6671.99,0.20758
6680.59,0.2069
6689.21,0.206208
6697.85,0.205662
6706.51,0.204794
6715.2,0.203909
6723.91,0.203335
6732.64,0.202665
6741.4,0.201853
6750.18,0.20094
6758.98,0.20012
6767.8,0.199298
6776.65,0.19826
6785.52,0.197281
6794.41,0.196276
6803.33,0.195413
6812.27,0.194441
6821.23,0.193353
6830.22,0.192432
6839.23,0.191594
6848.26,0.190465
6857.32,0.189229
6866.4,0.187988
6875.51,0.187199
6884.64,0.186375
6893.8,0.185136
6902.98,0.183941
6912.18,0.182738
6921.41,0.181543
6930.66,0.180498
6939.94,0.17929
6949.24,0.177953
6958.57,0.176522
6967.92,0.175118
6977.3,0.173979
6986.7,0.172627
6996.13,0.171345
7005.59,0.169972
7015.07,0.168503
7024.57,0.167128
7034.1,0.165966
7043.66,0.164712
7053.25,0.163469
7062.85,0.162286
7072.49,0.161051
7082.15,0.159876
7091.84,0.15862
7101.55,0.157341
7111.3,0.156032
7121.06,0.154704
7130.86,0.153585
7140.68,0.152502
7150.53,0.151281
7160.41,0.149944
7170.31,0.148536
7180.24,0.147331
7190.2,0.146031
7200.19,0.144674
7210.2,0.143291
7220.24,0.14186
7230.31,0.140492
7240.41,0.139294
7250.54,0.138117
7260.69,0.13665
7270.88,0.135283
7281.09,0.134065
7291.33,0.132773
7301.6,0.131322
7311.9,0.129858
7322.22,0.128416
7332.58,0.12713
7342.97,0.125833
7353.38,0.12443
7363.83,0.122882
7374.3,0.121423
7384.81,0.119931
7395.34,0.118449
7405.91,0.116937
7416.5,0.115366
7427.13,0.113729
7437.78,0.11205
7448.47,0.110395
7459.19,0.108682
7469.94,0.106929
7480.71,0.105221
7491.52,0.103483
7502.37,0.101849
7513.24,0.100101
7524.14,0.098264
7535.08,0.096416
7546.05,0.094627
7557.05,0.092859
7568.08,0.09111
7579.15,0.089238
7590.24,0.087383
7601.37,0.085556
7612.53,0.083721
7623.73,0.082064
7634.96,0.080496
7646.22,0.078766
7657.51,0.077071
7668.84,0.075183
7680.2,0.073457
7691.59,0.071884
7703.02,0.070257
7714.49,0.068575
7725.98,0.066814
7737.52,0.06502
7749.08,0.063434
7760.68,0.061945
7772.32,0.060267
7783.99,0.058517
7795.69,0.056895
7807.43,0.055357
7819.21,0.053805
7831.02,0.052201
7842.87,0.050516
7854.75,0.048801
7866.67,0.047301
7878.62,0.045743
7890.62,0.044109
7902.64,0.042361
7914.71,0.040752
7926.81,0.039326
7938.95,0.037884
7951.13,0.036309
7963.34,0.034842
7975.59,0.033276
7987.88,0.031751
8000.21,0.030214
8012.57,0.028965
8024.98,0.027585
8037.42,0.026116
8049.9,0.024728
8062.42,0.023505
8074.98,0.02218
8087.57,0.02084
8100.21,0.019703
8112.89,0.018559
8125.6,0.017285
8138.36,0.016176
8151.16,0.015227
8163.99,0.014306
8176.87,0.013357
8189.79,0.012459
8202.75,0.011614
8215.75,0.010924
8228.79,0.01013
8241.87,0.009439
8254.99,0.008891
8268.16,0.008386
8281.37,0.007968
8294.62,0.007775
8307.91,0.007587
8321.24,0.00731
8334.62,0.007146
8348.04,0.007265
8361.51,0.007341
8375.02,0.00745
8388.57,0.007782
8402.16,0.008188
8415.8,0.008731
8429.49,0.009358
8443.22,0.010183
8456.99,0.011172
8470.81,0.012309
8484.67,0.01356
8498.58,0.014984
8512.54,0.016618
8526.54,0.018452
8540.58,0.020604
8554.68,0.02284
8568.82,0.025436
8583.0,0.02842
8597.24,0.031323
8611.52,0.03434
8625.85,0.037618
8640.23,0.040967
8654.65,0.044512
8669.12,0.04807
8683.64,0.051303
8698.21,0.054479
8712.83,0.05753
8727.5,0.060163
8742.22,0.062381
8756.99,0.063992
8771.8,0.064789
8786.67,0.06487
8801.59,0.064345
8816.56,0.063102
8831.58,0.061628
8846.65,0.060313
8861.77,0.059199
8876.94,0.058108
8892.17,0.057202
8907.45,0.056261
8922.78,0.055314
8938.16,0.054439
8953.6,0.053477
8969.09,0.052366
8984.64,0.051193
9000.23,0.050001
9015.89,0.048859
9031.59,0.047826
9047.36,0.047225
9063.17,0.046636
9079.05,0.045779
9094.97,0.044538
9110.96,0.042817
9127.0,0.040884
9143.1,0.038557
9159.25,0.035753
9175.46,0.033576
9191.73,0.031916
9208.06,0.030612
9224.44,0.02961
9240.88,0.029199
9257.38,0.029455
9273.94,0.030181
9290.56,0.031282
9307.24,0.033218
9323.98,0.035421
9340.78,0.037694
9357.64,0.039869
9374.57,0.041838
9391.55,0.043249
9408.59,0.043891
9425.7,0.044215
9442.87,0.044588
9460.1,0.044868
9477.4,0.04535
9494.75,0.045781
9512.17,0.04585
9529.66,0.045492
9547.21,0.044969
9564.83,0.044489
9582.5,0.04399
9600.25,0.043492
9618.06,0.043637
9635.94,0.044713
9653.88,0.046423
9671.89,0.048199
9689.97,0.049973
9708.12,0.05182
9726.33,0.053396
9744.62,0.054624
9762.97,0.055769
9781.39,0.056758
9799.88,0.057014
9818.44,0.05656
9837.07,0.055989
9855.77,0.05586
9874.54,0.055857
9893.39,0.055997
9912.3,0.056048
9931.29,0.055446
9950.36,0.05403
9969.49,0.052305
9988.7,0.050709
10007.98,0.049432
10027.34,0.049059
10046.77,0.049125
10066.28,0.049262
10085.87,0.049668
10105.53,0.050374
10125.26,0.051465
10145.08,0.052944
10164.97,0.054251
10184.94,0.055104
10204.99,0.055477
10225.12,0.055332
10245.33,0.054868
10265.61,0.054251
10285.98,0.053229
10306.43,0.052378
10326.96,0.051678
10347.57,0.051503
10368.27,0.051736
10389.05,0.051937
10409.91,0.052077
10430.86,0.052181
10451.88,0.051635
10473.0,0.050219
10494.2,0.048121
10515.49,0.045796
10536.86,0.043992
10558.32,0.043553
10579.87,0.044614
10601.5,0.046537
10623.23,0.048755
10645.04,0.050924
10666.94,0.053089
10688.94,0.055363
10711.02,0.057491
10733.2,0.060201
10755.47,0.063295
10777.83,0.066568
10800.28,0.07008
10822.83,0.074239
10845.47,0.078819
10868.21,0.08347
10891.04,0.088111
10913.97,0.092793
10936.99,0.097786
10960.12,0.102717
10983.34,0.107414
11006.66,0.112088
11030.07,0.116493
11053.59,0.120494
11077.21,0.12424
11100.93,0.127843
11124.75,0.131218
11148.68,0.134062
11172.71,0.136318
11196.84,0.138447
11221.07,0.140271
11245.41,0.141776
11269.86,0.143088
11294.41,0.14392
11319.07,0.144484
11343.84,0.144854
11368.72,0.145047
11393.7,0.144915
11418.8,0.144745
11444.01,0.144243
11469.33,0.143677
11494.76,0.143443
11520.3,0.143491
11545.96,0.143689
11571.73,0.143684
11597.62,0.143765
11623.62,0.143656
11649.74,0.143453
11675.98,0.143299
11702.34,0.143174
11728.81,0.142753
11755.41,0.142078
11782.13,0.141398
11808.96,0.14066
11835.92,0.139807
11863.01,0.139033
11890.22,0.138434
11917.55,0.137658
11945.01,0.136737
11972.6,0.135699
12000.31,0.134783
12028.16,0.133638
12056.13,0.132217
12084.23,0.131068
12112.46,0.130023
12140.83,0.128594
12169.33,0.12678
12197.96,0.124651
12226.73,0.122748
12255.64,0.120705
12284.68,0.118228
12313.86,0.115805
12343.18,0.113417
12372.64,0.110697
12402.24,0.107802
12431.98,0.104798
12461.86,0.101544
12491.89,0.098083
12522.07,0.094643
12552.38,0.091321
12582.85,0.088096
12613.47,0.084734
12644.23,0.081473
12675.15,0.078367
12706.21,0.075094
12737.43,0.072092
12768.81,0.068867
12800.33,0.065906
12832.02,0.063485
12863.86,0.060793
12895.86,0.058425
12928.02,0.056461
12960.34,0.054401
12992.82,0.05232
13025.46,0.050486
13058.27,0.048664
13091.25,0.046773
13124.39,0.044918
13157.7,0.043304
13191.18,0.041741
13224.83,0.040001
13258.66,0.038019
13292.65,0.035596
13326.83,0.0332
13361.17,0.030873
13395.7,0.028529
13430.4,0.026103
13465.29,0.023944
13500.35,0.022028
13535.6,0.020482
13571.03,0.01893
13606.65,0.01764
13642.46,0.016884
13678.46,0.016707
13714.64,0.017113
13751.02,0.017811
13787.59,0.018303
13824.36,0.018965
13861.32,0.019645
13898.49,0.019744
13935.85,0.01996
13973.41,0.020373
14011.17,0.020883
14049.15,0.021363
14087.32,0.021195
14125.71,0.0213
14164.3,0.021348
14203.11,0.020934
14242.13,0.020696
14281.36,0.020528
14320.81,0.020358
14360.49,0.020762
14400.38,0.021581
14440.49,0.02252
14480.82,0.023383
14521.39,0.023794
14562.18,0.023883
14603.2,0.02389
14644.45,0.023923
14685.93,0.023408
14727.66,0.02304
14769.62,0.022675
14811.81,0.022299
14854.25,0.022446
14896.94,0.022888
14939.87,0.023395
14983.05,0.024235
15026.48,0.0254
15070.16,0.025798
15114.1,0.02604
15158.29,0.026501
15202.74,0.026747
15247.46,0.02657
15292.43,0.026468
15337.68,0.026839
15383.19,0.026999
15428.97,0.027255
15475.03,0.027478
15521.36,0.028171
15567.97,0.02912
15614.87,0.029947
15662.04,0.030642
15709.5,0.030985
15757.25,0.031193
15805.29,0.031272
15853.62,0.031262
15902.26,0.031409
15951.19,0.031427
16000.42,0.031026
16049.95,0.031211
16099.8,0.031312
16149.95,0.031135
16200.42,0.031406
16251.21,0.031711
16302.31,0.031592
16353.74,0.031777
16405.49,0.031904
16457.57,0.031619
16509.98,0.031652
16562.73,0.031142
16615.82,0.030889
16669.24,0.031343
16723.02,0.030701
16777.14,0.029709
16831.61,0.029825
16886.43,0.029894
16941.62,0.029957
16997.16,0.029856
17053.08,0.029521
17109.36,0.02929
17166.01,0.02964
17223.04,0.029643
17280.45,0.029163
17338.24,0.02892
17396.43,0.0288
17455.0,0.028798
17513.97,0.028732
17573.34,0.028483
17633.11,0.027897
17693.29,0.027425
17753.89,0.027646
17814.9,0.028064
17876.33,0.028006
17938.18,0.028062
18000.47,0.027762
18063.19,0.027623
18126.35,0.027806
18189.95,0.027864
18254.0,0.027892
18318.5,0.028135
18383.46,0.028881
18448.88,0.029417
18514.77,0.029435
18581.13,0.030211
18647.97,0.030678
18715.29,0.031168
18783.1,0.031718
18851.4,0.031175
18920.2,0.03081
18989.51,0.030584
19059.32,0.030927
19129.65,0.031414
19200.5,0.031678
19271.88,0.031952
19343.79,0.032228
19416.24,0.032244
19489.23,0.031657
19562.77,0.03183
19636.88,0.03252
19711.54,0.033573
19786.78,0.034662
19862.59,0.03522
19938.98,0.035327
20015.96,0.035844
20093.55,0.036395
20171.73,0.036783
20250.53,0.036664
20329.94,0.036674
20409.98,0.036458
20490.65,0.036438
20571.96,0.035799
20653.92,0.034903
20736.54,0.034522
20819.82,0.033469
20903.77,0.032114
20988.4,0.031614
21073.72,0.030412
21159.73,0.02978
21246.46,0.029204
21333.89,0.029285
21422.04,0.028922
21510.93,0.028344
21600.56,0.027412
21690.94,0.027453
21782.08,0.027849
21873.99,0.028199
21966.67,0.029039
22060.15,0.030927
22154.42,0.033731
22249.51,0.038268
22345.41,0.044253
22442.14,0.050541
22539.72,0.056824
22638.14,0.063703
22737.43,0.069326
22837.6,0.074216
22938.65,0.078299
23040.6,0.082019
23143.46,0.08448
23247.24,0.085508
23351.96,0.083744
23457.63,0.082158
23564.25,0.079946
23671.85,0.07621
23780.44,0.072732
23890.02,0.069245
24000.63,0.064515
24112.26,0.060262
24224.93,0.058456
24338.66,0.056809
24453.47,0.053518
24569.36,0.050483
24686.36,0.051447
24804.47,0.051376
24923.73,0.04979
25044.13,0.048854
25165.71,0.049366
25288.46,0.047613
25412.43,0.046327
25537.61,0.049125
25664.04,0.049034
25791.72,0.050374
25920.68,0.050678
