Database of Origin,University of Winnipeg Spectrophotometer Facility
Sample Description,See Master Clays in HOSERLab database
Date Added,2016-12-11 20:57:06.320196

Data ID,RLA_CLAY_21         
Sample ID,MON101
Mineral Name,Montomorillonite
Grain Size,<45um
Viewing Geometry,"30/0,30"
Resolution,"5,0.6-129"
Material Class,Phyllosilicate

Wavelength
305.0,0.085842
310.0,0.097109
315.0,0.112771
320.0,0.12603
325.0,0.138968
330.0,0.151699
335.0,0.165165
340.0,0.179045
345.0,0.192396
350.0,0.205452
355.0,0.217125
360.0,0.224454
365.0,0.229502
370.0,0.237189
375.0,0.24847
380.0,0.260275
385.0,0.270575
390.0,0.281163
395.0,0.288501
400.0,0.297818
405.0,0.303281
410.0,0.309271
415.0,0.313933
420.0,0.318287
425.0,0.321153
430.0,0.324208
435.0,0.32665
440.0,0.326483
445.0,0.328336
450.0,0.334138
455.0,0.339702
460.0,0.341869
465.0,0.345556
470.0,0.348262
475.0,0.35055
480.0,0.353027
485.0,0.353443
490.0,0.355729
495.0,0.355966
500.0,0.357361
505.0,0.359973
510.0,0.361596
515.0,0.361922
520.0,0.364483
525.0,0.366829
530.0,0.369375
535.0,0.370297
540.0,0.373368
545.0,0.376485
550.0,0.376744
555.0,0.381714
560.0,0.382354
565.0,0.385544
570.0,0.389164
575.0,0.3923
580.0,0.395397
585.0,0.397161
590.0,0.398722
595.0,0.402047
600.0,0.404756
605.0,0.40598
610.0,0.405964
615.0,0.409094
620.0,0.412364
625.0,0.412213
630.0,0.415382
635.0,0.416646
640.0,0.41623
645.0,0.418369
650.0,0.420411
655.0,0.424916
660.0,0.42669
665.0,0.429184
670.0,0.42985
675.0,0.432705
680.0,0.434969
685.0,0.434784
690.0,0.439454
695.0,0.441435
700.0,0.443496
705.0,0.445292
710.0,0.449241
715.0,0.451343
720.0,0.452919
725.0,0.455412
730.0,0.45701
735.0,0.461388
740.0,0.463278
745.0,0.465629
750.0,0.466153
755.0,0.468135
760.0,0.470453
765.0,0.472196
770.0,0.473593
775.0,0.474374
780.0,0.477597
785.0,0.477517
790.0,0.479592
795.0,0.480467
800.0,0.482351
805.0,0.481605
810.0,0.484548
815.0,0.48354
820.0,0.486113
825.0,0.485226
830.0,0.487581
835.0,0.488418
840.0,0.487757
845.0,0.487941
850.0,0.489152
855.0,0.491298
860.0,0.490451
865.0,0.490461
870.0,0.490639
875.0,0.491584
880.0,0.492779
885.0,0.494777
890.0,0.495784
895.0,0.493758
900.0,0.497281
905.0,0.49749
910.0,0.496732
915.0,0.500103
920.0,0.49736
925.0,0.50118
930.0,0.503118
935.0,0.501843
940.0,0.503067
945.0,0.504812
950.0,0.505721
955.0,0.506375
960.0,0.504863
965.0,0.506807
970.0,0.505794
975.0,0.507384
980.0,0.505848
985.0,0.508343
990.0,0.508111
995.0,0.506635
1000.0,0.508711
1005.0,0.508444
1010.0,0.506619
1015.0,0.509247
1020.0,0.506812
1025.0,0.507996
1030.0,0.506928
1035.0,0.508537
1040.0,0.506839
1045.0,0.505116
1050.0,0.505752
1055.0,0.5066
1060.0,0.502586
1065.0,0.503951
1070.0,0.504712
1075.0,0.500938
1080.0,0.503176
1085.0,0.501348
1090.0,0.502281
1095.0,0.50219
1100.0,0.500514
1105.0,0.49956
1110.0,0.499267
1115.0,0.49835
1120.0,0.498695
1125.0,0.498013
1130.0,0.498256
1135.0,0.496408
1140.0,0.494487
1145.0,0.497435
1150.0,0.493825
1155.0,0.495225
1160.0,0.492033
1165.0,0.493507
1170.0,0.49237
1175.0,0.492321
1180.0,0.491637
1185.0,0.48818
1190.0,0.491537
1195.0,0.490153
1200.0,0.490414
1205.0,0.490569
1210.0,0.490616
1215.0,0.49398
1220.0,0.490999
1225.0,0.491664
1230.0,0.490778
1235.0,0.490556
1240.0,0.489567
1245.0,0.490357
1250.0,0.490217
1255.0,0.489414
1260.0,0.487109
1265.0,0.486842
1270.0,0.486436
1275.0,0.486347
1280.0,0.4855
1285.0,0.485116
1290.0,0.484199
1295.0,0.485657
1300.0,0.484287
1305.0,0.484693
1310.0,0.483474
1315.0,0.482356
1320.0,0.483009
1325.0,0.481357
1330.0,0.481623
1335.0,0.482011
1340.0,0.481678
1345.0,0.48102
1350.0,0.478481
1355.0,0.477987
1360.0,0.478902
1365.0,0.476362
1370.0,0.477866
1375.0,0.476079
1380.0,0.474862
1385.0,0.473041
1390.0,0.468727
1395.0,0.466217
1400.0,0.460297
1405.0,0.454802
1410.0,0.448604
1415.0,0.446367
1420.0,0.446852
1425.0,0.450328
1430.0,0.454862
1435.0,0.456907
1440.0,0.461291
1445.0,0.461864
1450.0,0.4647
1455.0,0.465518
1460.0,0.465464
1465.0,0.46552
1470.0,0.464697
1475.0,0.467401
1480.0,0.46748
1485.0,0.468304
1490.0,0.469162
1495.0,0.471297
1500.0,0.469571
1505.0,0.471501
1510.0,0.47195
1515.0,0.469771
1520.0,0.472146
1525.0,0.47172
1530.0,0.472072
1535.0,0.472084
1540.0,0.470667
1545.0,0.472901
1550.0,0.471552
1555.0,0.471582
1560.0,0.471376
1565.0,0.472541
1570.0,0.472231
1575.0,0.474168
1580.0,0.472543
1585.0,0.473641
1590.0,0.471968
1595.0,0.472306
1600.0,0.471047
1605.0,0.4745
1610.0,0.474563
1615.0,0.474691
1620.0,0.473723
1625.0,0.473667
1630.0,0.472371
1635.0,0.473856
1640.0,0.474828
1645.0,0.473301
1650.0,0.474029
1655.0,0.472173
1660.0,0.471365
1665.0,0.471138
1670.0,0.471504
1675.0,0.47208
1680.0,0.472009
1685.0,0.472275
1690.0,0.470698
1695.0,0.472605
1700.0,0.472957
1705.0,0.472551
1710.0,0.473339
1715.0,0.472925
1720.0,0.47156
1725.0,0.472612
1730.0,0.471842
1735.0,0.472293
1740.0,0.471348
1745.0,0.471004
1750.0,0.471069
1755.0,0.471113
1760.0,0.47094
1765.0,0.470106
1770.0,0.470542
1775.0,0.470605
1780.0,0.471129
1785.0,0.470711
1790.0,0.471476
1795.0,0.471362
1800.0,0.470788
1805.0,0.470525
1810.0,0.469632
1815.0,0.470528
1820.0,0.470602
1825.0,0.47086
1830.0,0.470565
1835.0,0.471597
1840.0,0.469622
1845.0,0.46955
1850.0,0.468971
1855.0,0.469399
1860.0,0.468024
1865.0,0.468426
1870.0,0.467629
1875.0,0.46179
1880.0,0.458126
1885.0,0.452626
1890.0,0.44199
1895.0,0.426534
1900.0,0.408717
1905.0,0.389523
1910.0,0.3803
1915.0,0.382801
1920.0,0.389557
1925.0,0.398748
1930.0,0.405183
1935.0,0.411279
1940.0,0.414869
1945.0,0.419341
1950.0,0.421167
1955.0,0.423645
1960.0,0.425444
1965.0,0.428086
1970.0,0.429681
1975.0,0.431919
1980.0,0.434922
1985.0,0.436871
1990.0,0.440407
1995.0,0.442325
2000.0,0.44407
2005.0,0.44701
2010.0,0.449318
2015.0,0.451025
2020.0,0.453609
2025.0,0.454196
2030.0,0.456464
2035.0,0.457099
2040.0,0.457328
2045.0,0.459152
2050.0,0.460535
2055.0,0.461939
2060.0,0.462312
2065.0,0.462428
2070.0,0.463427
2075.0,0.464123
2080.0,0.463608
2085.0,0.464371
2090.0,0.465579
2095.0,0.464758
2100.0,0.46528
2105.0,0.466286
2110.0,0.464889
2115.0,0.465893
2120.0,0.467193
2125.0,0.467496
2130.0,0.467291
2135.0,0.467842
2140.0,0.467279
2145.0,0.468392
2150.0,0.466495
2155.0,0.466164
2160.0,0.465878
2165.0,0.46389
2170.0,0.461582
2175.0,0.459831
2180.0,0.45786
2185.0,0.455113
2190.0,0.453085
2195.0,0.451396
2200.0,0.447268
2205.0,0.444714
2210.0,0.442224
2215.0,0.441821
2220.0,0.443605
2225.0,0.44516
2230.0,0.445037
2235.0,0.446507
2240.0,0.448318
2245.0,0.449457
2250.0,0.451323
2255.0,0.453933
2260.0,0.455636
2265.0,0.456494
2270.0,0.458053
2275.0,0.460707
2280.0,0.460354
2285.0,0.460373
2290.0,0.461555
2295.0,0.458864
2300.0,0.45923
2305.0,0.459686
2310.0,0.459337
2315.0,0.457263
2320.0,0.454542
2325.0,0.45314
2330.0,0.449894
2335.0,0.447951
2340.0,0.444831
2345.0,0.442682
2350.0,0.441273
2355.0,0.43938
2360.0,0.437132
2365.0,0.435567
2370.0,0.433942
2375.0,0.432633
2380.0,0.431209
2385.0,0.430943
2390.0,0.428433
2395.0,0.428174
2400.0,0.426477
2405.0,0.425456
2410.0,0.424944
2415.0,0.42101
2420.0,0.418653
2425.0,0.416196
2430.0,0.412279
2435.0,0.409746
2440.0,0.407107
2445.0,0.40565
2450.0,0.40242
2455.0,0.401434
2460.0,0.399835
2465.0,0.398432
2470.0,0.39594
2475.0,0.392984
2480.0,0.391535
2485.0,0.390009
2490.0,0.388821
2495.0,0.386177
2500.0,0.384817
2505.0,0.383763
2510.0,0.38265
2515.0,0.381718
2520.0,0.380959
2525.15,0.379927
2530.08,0.3808
2535.03,0.380488
2540.0,0.379353
2544.99,0.380326
2549.99,0.380338
2552.5,0.379651
2553.76,0.379479
2556.28,0.380289
2558.8,0.379498
2561.33,0.378834
2563.86,0.378228
2565.13,0.378471
2566.4,0.378971
2567.67,0.379222
2568.95,0.378471
2570.22,0.377492
2571.5,0.377438
2572.77,0.377451
2574.05,0.376432
2575.33,0.376298
2576.61,0.376898
2577.89,0.376684
2579.17,0.376418
2580.46,0.37599
2581.74,0.375016
2583.03,0.374626
2584.31,0.374384
2585.6,0.373723
2586.89,0.374398
2588.19,0.374304
2589.48,0.373984
2590.77,0.374378
2592.07,0.374294
2593.36,0.373222
2594.66,0.371449
2595.96,0.37001
2597.26,0.371369
2598.56,0.372761
2599.87,0.37246
2601.17,0.371828
2602.48,0.370825
2603.78,0.370296
2605.09,0.369868
2606.4,0.369395
2607.71,0.369626
2609.03,0.370523
2610.34,0.370384
2611.66,0.370083
2612.97,0.369646
2614.29,0.369196
2615.61,0.368754
2616.93,0.367918
2618.25,0.367528
2619.57,0.368413
2620.9,0.367494
2622.22,0.367299
2623.55,0.368236
2624.88,0.368213
2626.21,0.367322
2627.54,0.366111
2628.87,0.36614
2630.21,0.366048
2631.54,0.364357
2632.88,0.365054
2634.21,0.365823
2635.55,0.36541
2636.89,0.364999
2638.24,0.364812
2639.58,0.364542
2640.92,0.363928
2642.27,0.363114
2643.62,0.362364
2644.97,0.361831
2646.32,0.361083
2647.67,0.360505
2649.02,0.360578
2650.38,0.359917
2651.73,0.358912
2653.09,0.357543
2654.45,0.357244
2655.81,0.357037
2657.17,0.356036
2658.53,0.354977
2659.89,0.353389
2661.26,0.352383
2662.63,0.351342
2664.0,0.350007
2665.36,0.348164
2666.74,0.345796
2668.11,0.344551
2669.48,0.343446
2670.86,0.340275
2672.23,0.336852
2673.61,0.335193
2674.99,0.332089
2676.37,0.32847
2677.76,0.324913
2679.14,0.321946
2680.52,0.318538
2681.91,0.315103
2683.3,0.310485
2684.69,0.305154
2686.08,0.2993
2687.47,0.292335
2688.87,0.284744
2690.26,0.276979
2691.66,0.267689
2693.06,0.257739
2694.46,0.246647
2695.86,0.234774
2697.26,0.222905
2698.66,0.211786
2700.07,0.200846
2701.48,0.190167
2702.89,0.179502
2704.3,0.169279
2705.71,0.159615
2707.12,0.151296
2708.53,0.144895
2709.95,0.140702
2711.37,0.137551
2712.79,0.135467
2714.21,0.134052
2715.63,0.131523
2717.05,0.12791
2718.48,0.123248
2719.9,0.118015
2721.33,0.112385
2722.76,0.106147
2724.19,0.101351
2725.62,0.09642
2727.06,0.091025
2728.49,0.086952
2729.93,0.083827
2731.37,0.080351
2732.81,0.077068
2734.25,0.074704
2735.69,0.072319
2737.14,0.069867
2738.58,0.068254
2740.03,0.06667
2741.48,0.065427
2742.93,0.064411
2744.38,0.063155
2745.83,0.06193
2747.29,0.060886
2748.75,0.060055
2750.2,0.059142
2751.66,0.058678
2753.13,0.058246
2754.59,0.057699
2756.05,0.056744
2757.52,0.055847
2758.99,0.05542
2760.46,0.05491
2761.93,0.054861
2763.4,0.055475
2764.87,0.056693
2766.35,0.05818
2767.82,0.059475
2769.3,0.060299
2770.78,0.06105
2772.26,0.061621
2773.75,0.062608
2775.23,0.063559
2776.72,0.064426
2778.21,0.065493
2779.7,0.066674
2781.19,0.06802
2782.68,0.069506
2784.18,0.070988
2785.67,0.072291
2787.17,0.073552
2788.67,0.075383
2790.17,0.077378
2791.67,0.078895
2793.18,0.080496
2794.68,0.082368
2796.19,0.084687
2797.7,0.087134
2799.21,0.089088
2800.72,0.091113
2802.24,0.093433
2803.75,0.095458
2805.27,0.097727
2806.79,0.100278
2808.31,0.103004
2809.83,0.105735
2811.35,0.108197
2812.88,0.110747
2814.41,0.113655
2815.93,0.116419
2817.46,0.119053
2819.0,0.12163
2820.53,0.12447
2822.07,0.127326
2823.6,0.130191
2825.14,0.132954
2826.68,0.135832
2828.22,0.138383
2829.77,0.140767
2831.31,0.143282
2832.86,0.145196
2834.41,0.147122
2835.96,0.149749
2837.51,0.151997
2839.07,0.154386
2840.62,0.156676
2842.18,0.158461
2843.74,0.159762
2845.3,0.161437
2846.86,0.163043
2848.43,0.164198
2849.99,0.165518
2851.56,0.166984
2853.13,0.168503
2854.7,0.169821
2856.27,0.171251
2857.85,0.172373
2859.42,0.173208
2861.0,0.17441
2862.58,0.175519
2864.16,0.176442
2865.75,0.177477
2867.33,0.178521
2868.92,0.179187
2870.51,0.179824
2872.1,0.180429
2873.69,0.181539
2875.28,0.182483
2876.88,0.183264
2878.48,0.183987
2880.07,0.184668
2881.68,0.18575
2883.28,0.186781
2884.88,0.187726
2886.49,0.188311
2888.1,0.188786
2889.71,0.189272
2891.32,0.189735
2892.93,0.190406
2894.55,0.190983
2896.16,0.19138
2897.78,0.191781
2899.4,0.192576
2901.03,0.192927
2902.65,0.193399
2904.28,0.194202
2905.91,0.194793
2907.54,0.195275
2909.17,0.195822
2910.8,0.196268
2912.44,0.196918
2914.07,0.19744
2915.71,0.19781
2917.35,0.198547
2918.99,0.199201
2920.64,0.199922
2922.29,0.200235
2923.93,0.200557
2925.58,0.200918
2927.24,0.201311
2928.89,0.201886
2930.55,0.202568
2932.2,0.203114
2933.86,0.203329
2935.52,0.203646
2937.19,0.204409
2938.85,0.204749
2940.52,0.20504
2942.19,0.205452
2943.86,0.205973
2945.53,0.206282
2947.21,0.206546
2948.88,0.20701
2950.56,0.207869
2952.24,0.208469
2953.92,0.208799
2955.61,0.209103
2957.29,0.209612
2958.98,0.210426
2960.67,0.210999
2962.36,0.211467
2964.06,0.211826
2965.75,0.212219
2967.45,0.21276
2969.15,0.213303
2970.85,0.213754
2972.55,0.214318
2974.26,0.215076
2975.97,0.215911
2977.68,0.21663
2979.39,0.217172
2981.1,0.217373
2982.82,0.217614
2984.53,0.218031
2986.25,0.21841
2987.97,0.218802
2989.7,0.219471
2991.42,0.220027
2993.15,0.220769
2994.88,0.221503
2996.61,0.221799
2998.34,0.22208
3000.08,0.222627
3001.82,0.22299
3003.55,0.223543
3005.3,0.224191
3007.04,0.225139
3008.78,0.225751
3010.53,0.226008
3012.28,0.226191
3014.03,0.226565
3015.79,0.22706
3017.54,0.22766
3019.3,0.228448
3021.06,0.229158
3022.82,0.22957
3024.58,0.229836
3026.35,0.230564
3028.12,0.231203
3029.89,0.231372
3031.66,0.232058
3033.43,0.232593
3035.21,0.233102
3036.99,0.233696
3038.77,0.234072
3040.55,0.234522
3042.33,0.234991
3044.12,0.235386
3045.91,0.236084
3047.7,0.236834
3049.49,0.237365
3051.29,0.237997
3053.08,0.238418
3054.88,0.238628
3056.68,0.239106
3058.49,0.239773
3060.29,0.240378
3062.1,0.240726
3063.91,0.241093
3065.72,0.241542
3067.54,0.241796
3069.35,0.242078
3071.17,0.242341
3072.99,0.242835
3074.81,0.243504
3076.64,0.244081
3078.47,0.244566
3080.29,0.244739
3082.13,0.245132
3083.96,0.245786
3085.79,0.246276
3087.63,0.246617
3089.47,0.246932
3091.31,0.24756
3093.16,0.24836
3095.01,0.249018
3096.85,0.249827
3098.71,0.250503
3100.56,0.250835
3102.41,0.251401
3104.27,0.252147
3106.13,0.252712
3107.99,0.253217
3109.86,0.254071
3111.73,0.254802
3113.59,0.255314
3115.47,0.256083
3117.34,0.257213
3119.21,0.258176
3121.09,0.258592
3122.97,0.259168
3124.86,0.259976
3126.74,0.260647
3128.63,0.261342
3130.52,0.262182
3132.41,0.262993
3134.3,0.263766
3136.2,0.264532
3138.1,0.265331
3140.0,0.266219
3141.9,0.267128
3143.81,0.268155
3145.71,0.268733
3147.62,0.269507
3149.54,0.270656
3151.45,0.271422
3153.37,0.272375
3155.29,0.273471
3157.21,0.274199
3159.13,0.27506
3161.06,0.276
3162.99,0.276838
3164.92,0.277694
3166.85,0.278492
3168.79,0.279242
3170.72,0.280072
3172.67,0.280958
3174.61,0.281817
3176.55,0.282755
3178.5,0.283443
3180.45,0.284342
3182.4,0.285309
3184.36,0.286055
3186.32,0.286928
3188.27,0.287785
3190.24,0.288596
3192.2,0.289527
3194.17,0.290587
3196.14,0.291458
3198.11,0.292198
3200.08,0.293053
3202.06,0.293988
3204.04,0.294968
3206.02,0.295936
3208.0,0.296797
3209.99,0.297528
3211.98,0.298325
3213.97,0.29921
3215.96,0.300033
3217.96,0.300958
3219.96,0.301742
3221.96,0.302576
3223.96,0.303323
3225.97,0.303977
3227.98,0.304737
3229.99,0.305898
3232.0,0.306816
3234.02,0.307549
3236.04,0.308221
3238.06,0.308834
3240.08,0.309658
3242.11,0.310599
3244.14,0.311582
3246.17,0.312158
3248.2,0.312785
3250.24,0.313708
3252.28,0.314208
3254.32,0.314682
3256.37,0.315306
3258.41,0.316221
3260.46,0.317098
3262.51,0.317812
3264.57,0.318446
3266.63,0.319352
3268.69,0.320215
3270.75,0.320776
3272.81,0.321318
3274.88,0.322071
3276.95,0.322775
3279.02,0.323468
3281.1,0.324134
3283.18,0.324869
3285.26,0.325523
3287.34,0.326223
3289.43,0.326789
3291.51,0.327294
3293.61,0.328064
3295.7,0.329138
3297.8,0.329952
3299.9,0.330423
3302.0,0.331085
3304.1,0.332026
3306.21,0.332495
3308.32,0.333114
3310.43,0.333861
3312.55,0.334294
3314.66,0.33487
3316.79,0.335516
3318.91,0.336388
3321.03,0.336964
3323.16,0.337495
3325.29,0.338211
3327.43,0.338993
3329.57,0.339335
3331.71,0.340049
3333.85,0.340937
3335.99,0.341525
3338.14,0.342021
3340.29,0.342542
3342.45,0.342999
3344.6,0.343545
3346.76,0.344172
3348.92,0.344656
3351.09,0.345073
3353.26,0.34544
3355.43,0.345927
3357.6,0.346597
3359.78,0.347022
3361.96,0.3472
3364.14,0.347563
3366.32,0.348036
3368.51,0.348506
3370.7,0.349021
3372.89,0.349353
3375.09,0.349548
3377.29,0.35012
3379.49,0.350821
3381.69,0.351487
3383.9,0.352119
3386.11,0.352603
3388.32,0.353319
3390.54,0.354115
3392.76,0.354765
3394.98,0.355114
3397.21,0.355448
3399.43,0.355855
3401.66,0.356105
3403.9,0.356427
3406.13,0.356755
3408.37,0.356967
3410.61,0.357172
3412.86,0.357601
3415.11,0.358188
3417.36,0.358857
3419.61,0.359798
3421.87,0.360617
3424.13,0.361634
3426.39,0.362809
3428.66,0.364025
3430.93,0.364962
3433.2,0.36574
3435.48,0.366571
3437.76,0.367505
3440.04,0.368227
3442.32,0.368991
3444.61,0.36967
3446.9,0.370329
3449.19,0.371217
3451.49,0.371969
3453.79,0.372585
3456.09,0.373101
3458.4,0.373746
3460.7,0.374417
3463.02,0.375276
3465.33,0.375868
3467.65,0.376271
3469.97,0.376694
3472.29,0.376909
3474.62,0.377233
3476.95,0.37776
3479.29,0.377971
3481.62,0.378107
3483.96,0.37845
3486.3,0.378947
3488.65,0.379263
3491.0,0.379393
3493.35,0.379772
3495.71,0.38028
3498.07,0.380308
3500.43,0.38045
3502.79,0.381107
3505.16,0.381901
3507.53,0.382377
3509.91,0.382931
3512.29,0.383812
3514.67,0.384595
3517.05,0.385166
3519.44,0.385692
3521.83,0.386233
3524.23,0.386572
3526.62,0.387075
3529.02,0.387817
3531.43,0.388479
3533.83,0.389174
3536.24,0.389911
3538.66,0.390522
3541.08,0.391091
3543.5,0.391562
3545.92,0.392125
3548.35,0.392748
3550.78,0.393204
3553.21,0.393704
3555.65,0.394314
3558.09,0.394858
3560.53,0.395276
3562.98,0.395859
3565.43,0.396519
3567.88,0.397091
3570.34,0.397557
3572.8,0.398094
3575.27,0.398479
3577.73,0.398872
3580.2,0.399458
3582.68,0.400097
3585.16,0.40043
3587.64,0.400852
3590.12,0.401341
3592.61,0.40169
3595.1,0.402026
3597.6,0.402544
3600.09,0.402957
3602.6,0.40337
3605.1,0.403595
3607.61,0.403869
3610.12,0.404309
3612.64,0.404519
3615.16,0.404644
3617.68,0.404842
3620.21,0.405178
3622.74,0.405605
3625.27,0.405883
3627.81,0.406025
3630.35,0.406312
3632.89,0.406481
3635.44,0.406768
3637.99,0.407017
3640.54,0.407292
3643.1,0.407453
3645.66,0.407596
3648.23,0.407734
3650.8,0.407766
3653.37,0.408016
3655.95,0.40841
3658.53,0.408711
3661.11,0.408831
3663.7,0.408954
3666.29,0.409193
3668.89,0.409515
3671.48,0.409665
3674.09,0.409925
3676.69,0.410287
3679.3,0.410516
3681.91,0.410617
3684.53,0.410699
3687.15,0.411224
3689.78,0.411631
3692.4,0.411705
3695.04,0.411977
3697.67,0.412331
3700.31,0.412687
3702.95,0.413149
3705.6,0.413844
3708.25,0.414457
3710.91,0.414802
3713.56,0.414981
3716.23,0.415405
3718.89,0.415831
3721.56,0.416087
3724.23,0.416476
3726.91,0.417099
3729.59,0.417606
3732.28,0.418068
3734.97,0.418651
3737.66,0.419078
3740.36,0.419228
3743.06,0.419613
3745.76,0.420228
3748.47,0.420622
3751.18,0.420945
3753.9,0.42138
3756.62,0.42185
3759.34,0.422276
3762.07,0.422747
3764.8,0.423155
3767.54,0.423459
3770.28,0.423908
3773.02,0.424325
3775.77,0.424685
3778.52,0.424962
3781.28,0.425372
3784.04,0.425803
3786.8,0.426106
3789.57,0.426441
3792.34,0.426963
3795.12,0.427435
3797.9,0.427659
3800.69,0.427761
3803.47,0.428035
3806.27,0.428427
3809.06,0.42879
3811.86,0.429109
3814.67,0.429463
3817.48,0.429761
3820.29,0.430115
3823.11,0.430434
3825.93,0.430495
3828.76,0.430547
3831.59,0.430935
3834.42,0.431392
3837.26,0.431675
3840.1,0.431774
3842.95,0.431951
3845.8,0.432229
3848.65,0.432541
3851.51,0.432881
3854.38,0.433013
3857.24,0.433191
3860.12,0.433323
3862.99,0.433543
3865.87,0.433805
3868.76,0.433933
3871.65,0.434271
3874.54,0.434595
3877.44,0.434887
3880.34,0.435015
3883.25,0.435088
3886.16,0.435282
3889.07,0.43556
3891.99,0.4358
3894.92,0.43598
3897.85,0.436084
3900.78,0.436391
3903.72,0.436737
3906.66,0.437041
3909.6,0.437109
3912.55,0.437146
3915.51,0.43735
3918.47,0.437638
3921.43,0.437779
3924.4,0.4378
3927.38,0.437989
3930.35,0.438255
3933.33,0.438377
3936.32,0.438545
3939.31,0.438764
3942.31,0.439018
3945.31,0.43902
3948.31,0.438948
3951.32,0.439004
3954.34,0.439314
3957.35,0.439575
3960.38,0.439646
3963.41,0.439562
3966.44,0.439693
3969.48,0.439928
3972.52,0.440118
3975.56,0.440233
3978.61,0.440428
3981.67,0.440539
3984.73,0.440767
3987.8,0.44106
3990.87,0.441252
3993.94,0.44111
3997.02,0.441239
4000.1,0.441529
4003.19,0.441774
4006.29,0.442
4009.39,0.442153
4012.49,0.442142
4015.6,0.442314
4018.71,0.442402
4021.83,0.442605
4024.95,0.442747
4028.08,0.442862
4031.21,0.442928
4034.35,0.443116
4037.49,0.443313
4040.64,0.44357
4043.79,0.44379
4046.94,0.443847
4050.11,0.444001
4053.27,0.444248
4056.44,0.444343
4059.62,0.444347
4062.8,0.444449
4065.99,0.44455
4069.18,0.444528
4072.38,0.444472
4075.58,0.444569
4078.78,0.444765
4082.0,0.444826
4085.21,0.444809
4088.43,0.444927
4091.66,0.444908
4094.89,0.444792
4098.13,0.444774
4101.37,0.444823
4104.62,0.444799
4107.87,0.444943
4111.13,0.444954
4114.39,0.444921
4117.66,0.444956
4120.93,0.44498
4124.21,0.444952
4127.5,0.444995
4130.79,0.445087
4134.08,0.445151
4137.38,0.445227
4140.68,0.445123
4143.99,0.44501
4147.31,0.44494
4150.63,0.445022
4153.95,0.445096
4157.29,0.445157
4160.62,0.445157
4163.96,0.445073
4167.31,0.445056
4170.66,0.445209
4174.02,0.445195
4177.39,0.44522
4180.75,0.445241
4184.13,0.445322
4187.51,0.445252
4190.89,0.445174
4194.28,0.445231
4197.68,0.445299
4201.08,0.445296
4204.49,0.445386
4207.9,0.445454
4211.32,0.445637
4214.74,0.445819
4218.17,0.445908
4221.61,0.445989
4225.05,0.446248
4228.5,0.446426
4231.95,0.446427
4235.4,0.446563
4238.87,0.446723
4242.34,0.446707
4245.81,0.44677
4249.29,0.44666
4252.78,0.44635
4256.27,0.445994
4259.77,0.445572
4263.27,0.444984
4266.78,0.444638
4270.29,0.444737
4273.81,0.445163
4277.34,0.445379
4280.87,0.445325
4284.41,0.445302
4287.95,0.445381
4291.5,0.44547
4295.06,0.445527
4298.62,0.445525
4302.19,0.445536
4305.76,0.445486
4309.34,0.445481
4312.92,0.445473
4316.52,0.445419
4320.11,0.445331
4323.72,0.445223
4327.32,0.445061
4330.94,0.444965
4334.56,0.444954
4338.19,0.444946
4341.82,0.444637
4345.46,0.444436
4349.11,0.444275
4352.76,0.444093
4356.42,0.443799
4360.08,0.443651
4363.75,0.443391
4367.43,0.443214
4371.11,0.443052
4374.8,0.442885
4378.49,0.442476
4382.19,0.442189
4385.9,0.441909
4389.61,0.441474
4393.33,0.441148
4397.06,0.440827
4400.79,0.440424
4404.53,0.440146
4408.28,0.439839
4412.03,0.439315
4415.79,0.438757
4419.55,0.438457
4423.32,0.438115
4427.1,0.43764
4430.88,0.437335
4434.68,0.436956
4438.47,0.436553
4442.28,0.436259
4446.08,0.435912
4449.9,0.435481
4453.72,0.435058
4457.55,0.434782
4461.39,0.434428
4465.23,0.433993
4469.08,0.43357
4472.94,0.433337
4476.8,0.433029
4480.67,0.432948
4484.55,0.432737
4488.43,0.43261
4492.32,0.432535
4496.21,0.432427
4500.12,0.432364
4504.03,0.432361
4507.94,0.43238
4511.87,0.432593
4515.8,0.432868
4519.73,0.433096
4523.68,0.43315
4527.63,0.433195
4531.59,0.433288
4535.55,0.433348
4539.52,0.433239
4543.5,0.433176
4547.49,0.43302
4551.48,0.432898
4555.48,0.432856
4559.49,0.43282
4563.5,0.432633
4567.52,0.432286
4571.55,0.43219
4575.58,0.432044
4579.63,0.43167
4583.67,0.431352
4587.73,0.431094
4591.79,0.43079
4595.86,0.430346
4599.94,0.429994
4604.03,0.429639
4608.12,0.429316
4612.22,0.428916
4616.33,0.428532
4620.44,0.428006
4624.56,0.427536
4628.69,0.427079
4632.83,0.426672
4636.97,0.426088
4641.12,0.425548
4645.28,0.425033
4649.45,0.424458
4653.62,0.423833
4657.8,0.423199
4661.99,0.422582
4666.19,0.422003
4670.39,0.421358
4674.6,0.420745
4678.82,0.420053
4683.05,0.419421
4687.28,0.418901
4691.52,0.418495
4695.77,0.418316
4700.03,0.418152
4704.3,0.417994
4708.57,0.417819
4712.85,0.417566
4717.14,0.417448
4721.43,0.417196
4725.74,0.416923
4730.05,0.416659
4734.37,0.416354
4738.7,0.415943
4743.03,0.415662
4747.38,0.415283
4751.73,0.414821
4756.09,0.414339
4760.45,0.413858
4764.83,0.413311
4769.21,0.412791
4773.6,0.412148
4778.0,0.411627
4782.41,0.411071
4786.83,0.410552
4791.25,0.410022
4795.68,0.409568
4800.13,0.408879
4804.57,0.408265
4809.03,0.407741
4813.5,0.407071
4817.97,0.406316
4822.45,0.405706
4826.94,0.405004
4831.44,0.404284
4835.95,0.403522
4840.46,0.402626
4844.99,0.401778
4849.52,0.400994
4854.06,0.400112
4858.61,0.399102
4863.17,0.398093
4867.73,0.397001
4872.31,0.395714
4876.89,0.394309
4881.48,0.392729
4886.08,0.391019
4890.69,0.388983
4895.31,0.386698
4899.94,0.38426
4904.57,0.381598
4909.22,0.378739
4913.87,0.375856
4918.53,0.372958
4923.21,0.370102
4927.88,0.367343
4932.57,0.364833
4937.27,0.362608
4941.98,0.360682
4946.69,0.358935
4951.42,0.357101
4956.15,0.35509
4960.9,0.352857
4965.65,0.350411
4970.41,0.347608
4975.18,0.344502
4979.96,0.341269
4984.75,0.338096
4989.54,0.33515
4994.35,0.332505
4999.17,0.330275
5003.99,0.328194
5008.83,0.326261
5013.67,0.324598
5018.52,0.323268
5023.39,0.322122
5028.26,0.321238
5033.14,0.320427
5038.03,0.319585
5042.93,0.318675
5047.84,0.317767
5052.76,0.316889
5057.69,0.316081
5062.63,0.315175
5067.58,0.314392
5072.54,0.313713
5077.51,0.313134
5082.49,0.312708
5087.47,0.312609
5092.47,0.312697
5097.48,0.312611
5102.5,0.312404
5107.52,0.312167
5112.56,0.311854
5117.61,0.311385
5122.66,0.310743
5127.73,0.310098
5132.81,0.309313
5137.89,0.308483
5142.99,0.307603
5148.1,0.306818
5153.22,0.306088
5158.34,0.305562
5163.48,0.304934
5168.63,0.304183
5173.79,0.303442
5178.96,0.302871
5184.13,0.302178
5189.32,0.301416
5194.52,0.300489
5199.73,0.299307
5204.96,0.298064
5210.19,0.296851
5215.43,0.295
5220.68,0.293044
5225.94,0.29081
5231.22,0.288121
5236.5,0.285061
5241.79,0.281621
5247.1,0.277973
5252.42,0.274264
5257.74,0.270564
5263.08,0.267037
5268.43,0.263457
5273.79,0.259936
5279.16,0.256622
5284.54,0.25349
5289.93,0.25057
5295.34,0.247644
5300.75,0.245084
5306.18,0.242864
5311.61,0.240807
5317.06,0.238774
5322.52,0.236901
5327.99,0.235142
5333.47,0.233654
5338.96,0.23233
5344.47,0.231099
5349.98,0.229858
5355.51,0.229056
5361.05,0.229032
5366.6,0.229218
5372.16,0.229924
5377.73,0.231159
5383.32,0.232924
5388.91,0.235015
5394.52,0.237439
5400.14,0.240059
5405.77,0.242841
5411.41,0.24544
5417.07,0.247635
5422.74,0.249278
5428.41,0.251036
5434.1,0.252811
5439.81,0.25375
5445.52,0.254432
5451.25,0.254856
5456.98,0.25501
5462.73,0.254677
5468.5,0.254181
5474.27,0.253956
5480.06,0.253282
5485.86,0.252606
5491.67,0.252116
5497.49,0.251414
5503.33,0.250653
5509.18,0.249872
5515.04,0.249062
5520.91,0.248095
5526.8,0.247216
5532.69,0.246578
5538.61,0.24591
5544.53,0.24504
5550.47,0.244258
5556.41,0.243591
5562.38,0.243247
5568.35,0.242981
5574.34,0.242573
5580.34,0.242132
5586.35,0.242348
5592.38,0.242871
5598.42,0.243171
5604.47,0.243454
5610.54,0.244209
5616.61,0.244894
5622.71,0.245688
5628.81,0.246733
5634.93,0.24778
5641.06,0.248666
5647.21,0.249824
5653.36,0.25176
5659.54,0.253293
5665.72,0.254999
5671.92,0.256232
5678.13,0.25714
5684.36,0.258366
5690.6,0.25926
5696.85,0.25973
5703.12,0.260585
5709.4,0.26063
5715.69,0.260543
5722.0,0.260732
5728.33,0.260902
5734.66,0.260894
5741.01,0.260625
5747.38,0.260037
5753.76,0.25939
5760.15,0.258918
5766.56,0.257385
5772.98,0.256301
5779.41,0.256047
5785.86,0.255195
5792.33,0.254451
5798.81,0.25353
5805.3,0.25244
5811.81,0.2513
5818.33,0.249842
5824.87,0.247991
5831.42,0.24703
5837.99,0.246223
5844.57,0.245286
5851.17,0.243987
5857.78,0.242479
5864.41,0.240721
5871.05,0.239077
5877.7,0.237342
5884.38,0.234933
5891.06,0.233391
5897.76,0.231541
5904.48,0.229691
5911.21,0.228136
5917.96,0.226066
5924.73,0.223925
5931.5,0.221706
5938.3,0.21925
5945.11,0.217445
5951.93,0.216616
5958.78,0.21525
5965.63,0.213771
5972.51,0.211976
5979.39,0.210687
5986.3,0.209101
5993.22,0.207361
6000.16,0.205743
6007.11,0.20403
6014.08,0.201574
6021.06,0.198967
6028.06,0.196392
6035.08,0.193567
6042.12,0.190318
6049.17,0.18655
6056.23,0.182731
6063.32,0.180021
6070.42,0.176834
6077.53,0.173214
6084.67,0.169878
6091.82,0.166805
6098.98,0.163525
6106.17,0.16014
6113.37,0.156829
6120.58,0.153899
6127.82,0.151826
6135.07,0.150193
6142.34,0.148643
6149.63,0.147561
6156.93,0.147055
6164.25,0.14706
6171.59,0.14811
6178.95,0.149453
6186.32,0.151117
6193.71,0.154062
6201.12,0.157408
6208.54,0.160278
6215.99,0.163768
6223.45,0.167402
6230.93,0.17108
6238.43,0.174738
6245.95,0.178596
6253.48,0.182289
6261.03,0.186021
6268.6,0.189544
6276.19,0.193156
6283.8,0.196809
6291.43,0.200468
6299.07,0.203936
6306.73,0.207448
6314.42,0.21069
6322.12,0.214022
6329.84,0.217173
6337.57,0.22025
6345.33,0.222524
6353.11,0.225706
6360.9,0.228927
6368.72,0.230978
6376.55,0.233041
6384.4,0.235812
6392.27,0.237831
6400.17,0.239765
6408.08,0.240935
6416.01,0.240958
6423.96,0.242363
6431.93,0.244472
6439.92,0.245314
6447.93,0.245915
6455.96,0.245785
6464.01,0.24584
6472.08,0.24533
6480.17,0.244315
6488.28,0.242986
6496.41,0.241336
6504.56,0.24014
6512.73,0.239095
6520.92,0.236916
6529.14,0.234374
6537.37,0.232217
6545.63,0.23006
6553.9,0.227908
6562.2,0.226392
6570.51,0.225203
6578.85,0.224282
6587.21,0.22443
6595.59,0.224271
6603.99,0.224332
6612.42,0.224345
6620.86,0.224002
6629.33,0.223231
6637.82,0.222085
6646.33,0.221572
6654.86,0.221827
6663.41,0.221181
6671.99,0.219937
6680.59,0.218318
6689.21,0.21676
6697.85,0.215659
6706.51,0.21434
6715.2,0.212713
6723.91,0.211678
6732.64,0.211232
6741.4,0.210869
6750.18,0.210351
6758.98,0.209771
6767.8,0.209192
6776.65,0.208358
6785.52,0.207381
6794.41,0.206285
6803.33,0.205457
6812.27,0.204773
6821.23,0.203762
6830.22,0.202452
6839.23,0.201311
6848.26,0.20032
6857.32,0.198705
6866.4,0.19658
6875.51,0.195106
6884.64,0.194321
6893.8,0.192981
6902.98,0.191328
6912.18,0.189474
6921.41,0.187729
6930.66,0.185992
6939.94,0.184137
6949.24,0.182041
6958.57,0.179919
6967.92,0.177688
6977.3,0.175909
6986.7,0.174267
6996.13,0.172608
7005.59,0.17105
7015.07,0.169799
7024.57,0.168602
7034.1,0.167492
7043.66,0.166382
7053.25,0.165331
7062.85,0.164624
7072.49,0.164165
7082.15,0.163722
7091.84,0.163383
7101.55,0.163046
7111.3,0.162685
7121.06,0.162197
7130.86,0.161774
7140.68,0.161133
7150.53,0.160241
7160.41,0.159317
7170.31,0.158362
7180.24,0.157418
7190.2,0.156654
7200.19,0.155693
7210.2,0.15459
7220.24,0.153358
7230.31,0.152032
7240.41,0.150473
7250.54,0.148889
7260.69,0.147147
7270.88,0.145267
7281.09,0.143181
7291.33,0.141216
7301.6,0.139385
7311.9,0.137521
7322.22,0.135615
7332.58,0.133905
7342.97,0.132036
7353.38,0.13025
7363.83,0.12863
7374.3,0.127075
7384.81,0.125336
7395.34,0.123558
7405.91,0.121816
7416.5,0.120074
7427.13,0.118197
7437.78,0.116302
7448.47,0.114418
7459.19,0.112521
7469.94,0.110533
7480.71,0.108699
7491.52,0.106787
7502.37,0.104849
7513.24,0.102953
7524.14,0.101218
7535.08,0.099231
7546.05,0.097134
7557.05,0.095013
7568.08,0.092863
7579.15,0.090577
7590.24,0.088371
7601.37,0.086168
7612.53,0.084154
7623.73,0.082216
7634.96,0.080442
7646.22,0.078823
7657.51,0.077276
7668.84,0.075616
7680.2,0.073982
7691.59,0.072175
7703.02,0.070425
7714.49,0.068596
7725.98,0.066788
7737.52,0.064979
7749.08,0.063351
7760.68,0.061692
7772.32,0.059982
7783.99,0.058177
7795.69,0.056549
7807.43,0.05504
7819.21,0.053775
7831.02,0.052509
7842.87,0.051472
7854.75,0.050596
7866.67,0.049994
7878.62,0.049535
7890.62,0.049186
7902.64,0.048916
7914.71,0.048926
7926.81,0.048941
7938.95,0.049213
7951.13,0.049499
7963.34,0.049802
7975.59,0.050004
7987.88,0.050364
8000.21,0.050716
8012.57,0.051057
8024.98,0.051262
8037.42,0.051532
8049.9,0.051863
8062.42,0.052483
8074.98,0.05327
8087.57,0.054185
8100.21,0.055152
8112.89,0.056308
8125.6,0.057558
8138.36,0.059149
8151.16,0.06082
8163.99,0.062578
8176.87,0.064186
8189.79,0.065712
8202.75,0.066912
8215.75,0.067996
8228.79,0.068803
8241.87,0.069353
8254.99,0.069617
8268.16,0.069804
8281.37,0.069824
8294.62,0.069668
8307.91,0.069404
8321.24,0.069158
8334.62,0.068721
8348.04,0.068372
8361.51,0.068016
8375.02,0.067438
8388.57,0.066719
8402.16,0.06607
8415.8,0.065268
8429.49,0.064255
8443.22,0.063112
8456.99,0.062111
8470.81,0.06108
8484.67,0.059998
8498.58,0.058815
8512.54,0.057554
8526.54,0.056186
8540.58,0.054966
8554.68,0.053673
8568.82,0.052415
8583.0,0.051287
8597.24,0.050395
8611.52,0.049757
8625.85,0.049729
8640.23,0.05038
8654.65,0.051426
8669.12,0.052445
8683.64,0.053068
8698.21,0.053207
8712.83,0.05305
8727.5,0.05262
8742.22,0.052177
8756.99,0.051844
8771.8,0.051539
8786.67,0.051118
8801.59,0.050786
8816.56,0.050329
8831.58,0.050005
8846.65,0.049727
8861.77,0.049475
8876.94,0.049272
8892.17,0.049021
8907.45,0.048666
8922.78,0.048349
8938.16,0.048221
8953.6,0.048232
8969.09,0.047978
8984.64,0.047727
9000.23,0.047517
9015.89,0.047313
9031.59,0.047207
9047.36,0.047278
9063.17,0.047333
9079.05,0.047392
9094.97,0.04735
9110.96,0.04749
9127.0,0.047539
9143.1,0.04766
9159.25,0.047741
9175.46,0.047857
9191.73,0.047912
9208.06,0.048129
9224.44,0.048292
9240.88,0.048596
9257.38,0.049083
9273.94,0.0496
9290.56,0.050099
9307.24,0.050773
9323.98,0.051494
9340.78,0.05209
9357.64,0.052608
9374.57,0.053076
9391.55,0.053312
9408.59,0.053537
9425.7,0.053493
9442.87,0.053376
9460.1,0.053028
9477.4,0.052587
9494.75,0.052158
9512.17,0.051929
9529.66,0.05132
9547.21,0.050649
9564.83,0.050126
9582.5,0.049781
9600.25,0.04916
9618.06,0.048503
9635.94,0.047898
9653.88,0.047278
9671.89,0.04668
9689.97,0.04625
9708.12,0.045762
9726.33,0.045229
9744.62,0.044608
9762.97,0.044109
9781.39,0.04359
9799.88,0.042987
9818.44,0.042559
9837.07,0.042387
9855.77,0.042109
9874.54,0.041769
9893.39,0.041419
9912.3,0.041195
9931.29,0.040856
9950.36,0.040616
9969.49,0.040519
9988.7,0.04034
10007.98,0.040076
10027.34,0.039899
10046.77,0.039679
10066.28,0.039465
10085.87,0.039338
10105.53,0.039244
10125.26,0.039112
10145.08,0.039145
10164.97,0.039189
10184.94,0.039276
10204.99,0.039301
10225.12,0.039338
10245.33,0.039424
10265.61,0.039748
10285.98,0.03997
10306.43,0.040228
10326.96,0.040446
10347.57,0.040768
10368.27,0.04106
10389.05,0.041455
10409.91,0.041809
10430.86,0.042082
10451.88,0.042291
10473.0,0.042587
10494.2,0.042689
10515.49,0.042694
10536.86,0.042808
10558.32,0.042912
10579.87,0.042853
10601.5,0.042716
10623.23,0.042542
10645.04,0.042385
10666.94,0.042017
10688.94,0.041688
10711.02,0.041429
10733.2,0.041346
10755.47,0.041243
10777.83,0.041223
10800.28,0.041213
10822.83,0.041148
10845.47,0.041176
10868.21,0.041513
10891.04,0.041712
10913.97,0.041921
10936.99,0.042216
10960.12,0.042653
10983.34,0.043162
11006.66,0.043867
11030.07,0.044633
11053.59,0.045628
11077.21,0.046626
11100.93,0.04767
11124.75,0.048668
11148.68,0.049675
11172.71,0.05027
11196.84,0.05066
11221.07,0.05106
11245.41,0.05143
11269.86,0.051478
11294.41,0.051598
11319.07,0.051574
11343.84,0.051564
11368.72,0.051634
11393.7,0.05179
11418.8,0.052046
11444.01,0.052522
11469.33,0.053015
11494.76,0.053651
11520.3,0.054673
11545.96,0.055633
11571.73,0.056732
11597.62,0.058001
11623.62,0.05908
11649.74,0.060345
11675.98,0.061564
11702.34,0.06267
11728.81,0.063539
11755.41,0.064149
11782.13,0.064717
11808.96,0.064916
11835.92,0.064569
11863.01,0.064032
11890.22,0.063317
11917.55,0.062565
11945.01,0.061814
11972.6,0.061088
12000.31,0.060235
12028.16,0.059556
12056.13,0.05876
12084.23,0.057859
12112.46,0.056928
12140.83,0.055973
12169.33,0.055041
12197.96,0.054102
12226.73,0.052769
12255.64,0.051359
12284.68,0.049822
12313.86,0.048015
12343.18,0.045886
12372.64,0.043348
12402.24,0.04026
12431.98,0.037378
12461.86,0.034846
12491.89,0.033366
12522.07,0.03338
12552.38,0.034591
12582.85,0.036509
12613.47,0.038741
12644.23,0.040567
12675.15,0.042008
12706.21,0.042854
12737.43,0.04304
12768.81,0.042587
12800.33,0.041742
12832.02,0.041262
12863.86,0.04197
12895.86,0.044059
12928.02,0.047246
12960.34,0.050547
12992.82,0.053302
13025.46,0.055664
13058.27,0.057604
13091.25,0.059037
13124.39,0.060207
13157.7,0.061108
13191.18,0.061749
13224.83,0.062158
13258.66,0.062743
13292.65,0.063291
13326.83,0.063507
13361.17,0.063593
13395.7,0.063801
13430.4,0.063968
13465.29,0.063967
13500.35,0.063842
13535.6,0.064016
13571.03,0.063985
13606.65,0.063797
13642.46,0.063529
13678.46,0.063088
13714.64,0.062359
13751.02,0.061549
13787.59,0.060616
13824.36,0.059639
13861.32,0.058464
13898.49,0.057463
13935.85,0.056646
13973.41,0.055736
14011.17,0.054568
14049.15,0.053389
14087.32,0.052066
14125.71,0.05038
14164.3,0.048578
14203.11,0.046628
14242.13,0.044338
14281.36,0.042041
14320.81,0.03951
14360.49,0.037313
14400.38,0.035843
14440.49,0.035632
14480.82,0.036582
14521.39,0.038212
14562.18,0.039578
14603.2,0.040498
14644.45,0.040607
14685.93,0.040538
14727.66,0.040753
14769.62,0.040836
14811.81,0.040593
14854.25,0.040237
14896.94,0.039719
14939.87,0.039311
14983.05,0.039022
15026.48,0.038609
15070.16,0.037836
15114.1,0.037321
15158.29,0.036686
15202.74,0.035884
15247.46,0.034909
15292.43,0.034036
15337.68,0.033203
15383.19,0.032208
15428.97,0.031353
15475.03,0.030666
15521.36,0.029857
15567.97,0.029278
15614.87,0.028782
15662.04,0.028323
15709.5,0.027463
15757.25,0.026678
15805.29,0.026171
15853.62,0.025664
15902.26,0.025183
15951.19,0.024711
16000.42,0.024167
16049.95,0.023751
16099.8,0.023413
16149.95,0.023252
16200.42,0.023125
16251.21,0.023217
16302.31,0.023583
16353.74,0.024039
16405.49,0.024005
16457.57,0.024202
16509.98,0.024645
16562.73,0.025435
16615.82,0.026116
16669.24,0.026909
16723.02,0.028055
16777.14,0.029185
16831.61,0.029825
16886.43,0.030613
16941.62,0.03172
16997.16,0.032957
17053.08,0.034028
17109.36,0.035219
17166.01,0.036465
17223.04,0.037976
17280.45,0.039099
17338.24,0.039913
17396.43,0.040833
17455.0,0.042121
17513.97,0.043072
17573.34,0.044037
17633.11,0.044922
17693.29,0.045762
17753.89,0.046707
17814.9,0.047676
17876.33,0.048594
17938.18,0.049433
18000.47,0.050042
18063.19,0.050843
18126.35,0.051864
18189.95,0.052797
18254.0,0.053186
18318.5,0.053531
18383.46,0.054013
18448.88,0.054747
18514.77,0.055407
18581.13,0.055275
18647.97,0.055096
18715.29,0.055224
18783.1,0.054887
18851.4,0.054226
18920.2,0.053608
18989.51,0.053187
19059.32,0.052158
19129.65,0.051598
19200.5,0.05094
19271.88,0.050352
19343.79,0.049228
19416.24,0.048451
19489.23,0.047804
19562.77,0.046964
19636.88,0.04592
19711.54,0.045236
19786.78,0.044631
19862.59,0.044305
19938.98,0.044314
20015.96,0.044851
20093.55,0.045295
20171.73,0.045707
20250.53,0.045794
20329.94,0.046703
20409.98,0.047983
20490.65,0.049251
20571.96,0.050276
20653.92,0.051841
20736.54,0.053852
20819.82,0.055677
20903.77,0.056684
20988.4,0.057337
21073.72,0.057859
21159.73,0.05831
21246.46,0.058128
21333.89,0.057432
21422.04,0.056837
21510.93,0.056984
21600.56,0.056444
21690.94,0.055688
21782.08,0.055412
21873.99,0.055866
21966.67,0.05603
22060.15,0.055892
22154.42,0.055483
22249.51,0.054994
22345.41,0.054058
22442.14,0.053699
22539.72,0.052906
22638.14,0.052831
22737.43,0.052879
22837.6,0.051868
22938.65,0.051042
23040.6,0.050903
23143.46,0.05134
23247.24,0.05094
23351.96,0.049697
23457.63,0.049328
23564.25,0.050741
23671.85,0.052731
23780.44,0.052169
23890.02,0.051925
24000.63,0.053585
24112.26,0.055118
24224.93,0.054733
24338.66,0.05443
24453.47,0.053756
24569.36,0.054785
24686.36,0.054789
24804.47,0.053039
24923.73,0.051291
25044.13,0.051549
25165.71,0.053393
25288.46,0.05587
25412.43,0.058506
25537.61,0.060789
25664.04,0.06325
25791.72,0.065426
25920.68,0.068116
