Database of Origin,University of Winnipeg Spectrophotometer Facility
Sample Description,See Other Silictes in HOSERLab datbase
Date Added,2016-12-11 19:52:50.096366

Data ID,RLA_OTS_02          
Sample ID,JAD001
Mineral Name,Jadeite
Grain Size,<45um
Viewing Geometry,"30/0,30"
Resolution,"5, 0.6-129"

Wavelength
305.0,0.44861
310.0,0.46768
315.0,0.484901
320.0,0.499953
325.0,0.511135
330.0,0.521674
335.0,0.530118
340.0,0.537586
345.0,0.54351
350.0,0.550688
355.0,0.557308
360.0,0.565651
365.0,0.571317
370.0,0.578845
375.0,0.584176
380.0,0.589145
385.0,0.595497
390.0,0.602346
395.0,0.610067
400.0,0.6178
405.0,0.6198
410.0,0.623489
415.0,0.624318
420.0,0.628836
425.0,0.631419
430.0,0.635723
435.0,0.637107
440.0,0.640364
445.0,0.641883
450.0,0.645579
455.0,0.646241
460.0,0.648293
465.0,0.649197
470.0,0.651795
475.0,0.652904
480.0,0.655442
485.0,0.656403
490.0,0.658685
495.0,0.659984
500.0,0.661965
505.0,0.662331
510.0,0.66502
515.0,0.665633
520.0,0.667769
525.0,0.667163
530.0,0.669367
535.0,0.670283
540.0,0.671324
545.0,0.672682
550.0,0.672608
555.0,0.673256
560.0,0.672876
565.0,0.67299
570.0,0.671757
575.0,0.671803
580.0,0.671769
585.0,0.671399
590.0,0.670412
595.0,0.669967
600.0,0.669209
605.0,0.666676
610.0,0.667359
615.0,0.669358
620.0,0.66902
625.0,0.670362
630.0,0.670802
635.0,0.671635
640.0,0.672259
645.0,0.672394
650.0,0.673003
655.0,0.672363
660.0,0.672592
665.0,0.671987
670.0,0.673371
675.0,0.672533
680.0,0.672736
685.0,0.672695
690.0,0.672591
695.0,0.67246
700.0,0.673798
705.0,0.673472
710.0,0.67312
715.0,0.674344
720.0,0.674664
725.0,0.674651
730.0,0.675648
735.0,0.676477
740.0,0.676605
745.0,0.677314
750.0,0.678117
755.0,0.678461
760.0,0.677442
765.0,0.677597
770.0,0.677693
775.0,0.677195
780.0,0.676585
785.0,0.676829
790.0,0.675969
795.0,0.675845
800.0,0.674498
805.0,0.674685
810.0,0.674094
815.0,0.672087
820.0,0.670834
825.0,0.67023
830.0,0.667704
835.0,0.669379
840.0,0.666713
845.0,0.664149
850.0,0.66318
855.0,0.66304
860.0,0.662141
865.0,0.661469
870.0,0.65995
875.0,0.65903
880.0,0.659714
885.0,0.658606
890.0,0.65844
895.0,0.659014
900.0,0.658116
905.0,0.657272
910.0,0.658635
915.0,0.65662
920.0,0.657844
925.0,0.657112
930.0,0.658069
935.0,0.658144
940.0,0.655701
945.0,0.657332
950.0,0.657238
955.0,0.65581
960.0,0.658343
965.0,0.658304
970.0,0.659171
975.0,0.659102
980.0,0.659173
985.0,0.659893
990.0,0.659513
995.0,0.660062
1000.0,0.658916
1005.0,0.658685
1010.0,0.660033
1015.0,0.660186
1020.0,0.661111
1025.0,0.660526
1030.0,0.661516
1035.0,0.661219
1040.0,0.661746
1045.0,0.662791
1050.0,0.661337
1055.0,0.661748
1060.0,0.664425
1065.0,0.663568
1070.0,0.664243
1075.0,0.665316
1080.0,0.665411
1085.0,0.665546
1090.0,0.666959
1095.0,0.666452
1100.0,0.666467
1105.0,0.66709
1110.0,0.667881
1115.0,0.669085
1120.0,0.669411
1125.0,0.669776
1130.0,0.67025
1135.0,0.670647
1140.0,0.671454
1145.0,0.671393
1150.0,0.670421
1155.0,0.671901
1160.0,0.673089
1165.0,0.674496
1170.0,0.676482
1175.0,0.675411
1180.0,0.67618
1185.0,0.677865
1190.0,0.678037
1195.0,0.679774
1200.0,0.681063
1205.0,0.682764
1210.0,0.683623
1215.0,0.684418
1220.0,0.684069
1225.0,0.685038
1230.0,0.687541
1235.0,0.687696
1240.0,0.689205
1245.0,0.689768
1250.0,0.690872
1255.0,0.690014
1260.0,0.692492
1265.0,0.690775
1270.0,0.692295
1275.0,0.691363
1280.0,0.691752
1285.0,0.691111
1290.0,0.690552
1295.0,0.69133
1300.0,0.691837
1305.0,0.690981
1310.0,0.691926
1315.0,0.693285
1320.0,0.692335
1325.0,0.692758
1330.0,0.692603
1335.0,0.693157
1340.0,0.693986
1345.0,0.694243
1350.0,0.694889
1355.0,0.694485
1360.0,0.694003
1365.0,0.693612
1370.0,0.693898
1375.0,0.69193
1380.0,0.691172
1385.0,0.686722
1390.0,0.688191
1395.0,0.66109
1400.0,0.670481
1405.0,0.681442
1410.0,0.688275
1415.0,0.69261
1420.0,0.692333
1425.0,0.692434
1430.0,0.692773
1435.0,0.691856
1440.0,0.6923
1445.0,0.694676
1450.0,0.694988
1455.0,0.692832
1460.0,0.693983
1465.0,0.694217
1470.0,0.695952
1475.0,0.692233
1480.0,0.693684
1485.0,0.693187
1490.0,0.693179
1495.0,0.693825
1500.0,0.693495
1505.0,0.694127
1510.0,0.69277
1515.0,0.694096
1520.0,0.692813
1525.0,0.694444
1530.0,0.692403
1535.0,0.694124
1540.0,0.692734
1545.0,0.692991
1550.0,0.692535
1555.0,0.691717
1560.0,0.692112
1565.0,0.691708
1570.0,0.692571
1575.0,0.69158
1580.0,0.692815
1585.0,0.69246
1590.0,0.692466
1595.0,0.692144
1600.0,0.693085
1605.0,0.692129
1610.0,0.692077
1615.0,0.691358
1620.0,0.692286
1625.0,0.69085
1630.0,0.691373
1635.0,0.690676
1640.0,0.691128
1645.0,0.690169
1650.0,0.692718
1655.0,0.689988
1660.0,0.690072
1665.0,0.689972
1670.0,0.690137
1675.0,0.69021
1680.0,0.690218
1685.0,0.689665
1690.0,0.688851
1695.0,0.688832
1700.0,0.689177
1705.0,0.689633
1710.0,0.688221
1715.0,0.688981
1720.0,0.687702
1725.0,0.688724
1730.0,0.687835
1735.0,0.687297
1740.0,0.686926
1745.0,0.687401
1750.0,0.686227
1755.0,0.686769
1760.0,0.685371
1765.0,0.685383
1770.0,0.684962
1775.0,0.684968
1780.0,0.684104
1785.0,0.684349
1790.0,0.683631
1795.0,0.683791
1800.0,0.684713
1805.0,0.684219
1810.0,0.684593
1815.0,0.683829
1820.0,0.684294
1825.0,0.684273
1830.0,0.684398
1835.0,0.682829
1840.0,0.68273
1845.0,0.681426
1850.0,0.680105
1855.0,0.678815
1860.0,0.681256
1865.0,0.679516
1870.0,0.67706
1875.0,0.676457
1880.0,0.675652
1885.0,0.672224
1890.0,0.673535
1895.0,0.67434
1900.0,0.671877
1905.0,0.670269
1910.0,0.668869
1915.0,0.666979
1920.0,0.665849
1925.0,0.662203
1930.0,0.66439
1935.0,0.664221
1940.0,0.665487
1945.0,0.664884
1950.0,0.664721
1955.0,0.667256
1960.0,0.666654
1965.0,0.666065
1970.0,0.667242
1975.0,0.666472
1980.0,0.667923
1985.0,0.666702
1990.0,0.667229
1995.0,0.666413
2000.0,0.667576
2005.0,0.66682
2010.0,0.666788
2015.0,0.666649
2020.0,0.665598
2025.0,0.667012
2030.0,0.665868
2035.0,0.667301
2040.0,0.667501
2045.0,0.66622
2050.0,0.664922
2055.0,0.665737
2060.0,0.664712
2065.0,0.664469
2070.0,0.663586
2075.0,0.663895
2080.0,0.6634
2085.0,0.664168
2090.0,0.663021
2095.0,0.66312
2100.0,0.660158
2105.0,0.661985
2110.0,0.659985
2115.0,0.658473
2120.0,0.658357
2125.0,0.658194
2130.0,0.658972
2135.0,0.65767
2140.0,0.658601
2145.0,0.657483
2150.0,0.658357
2155.0,0.658048
2160.0,0.659014
2165.0,0.658861
2170.0,0.658733
2175.0,0.658025
2180.0,0.658472
2185.0,0.658116
2190.0,0.657709
2195.0,0.658196
2200.0,0.657603
2205.0,0.658387
2210.0,0.657629
2215.0,0.656743
2220.0,0.656425
2225.0,0.656066
2230.0,0.655331
2235.0,0.655099
2240.0,0.653278
2245.0,0.653698
2250.0,0.652559
2255.0,0.652849
2260.0,0.652066
2265.0,0.649528
2270.0,0.646018
2275.0,0.64138
2280.0,0.635831
2285.0,0.630392
2290.0,0.626758
2295.0,0.613576
2300.0,0.601377
2305.0,0.601908
2310.0,0.601684
2315.0,0.593503
2320.0,0.589911
2325.0,0.596984
2330.0,0.616335
2335.0,0.630889
2340.0,0.639394
2345.0,0.642387
2350.0,0.640286
2355.0,0.639206
2360.0,0.636502
2365.0,0.637021
2370.0,0.632877
2375.0,0.628956
2380.0,0.618255
2385.0,0.607501
2390.0,0.603278
2395.0,0.607829
2400.0,0.618917
2405.0,0.627857
2410.0,0.630545
2415.0,0.631811
2420.0,0.629907
2425.0,0.629092
2430.0,0.630777
2435.0,0.632109
2440.0,0.62874
2445.0,0.626649
2450.0,0.627456
2455.0,0.62632
2460.0,0.623901
2465.0,0.623353
2470.0,0.624351
2475.0,0.623334
2480.0,0.622076
2485.0,0.624157
2490.0,0.622388
2495.0,0.624212
2500.0,0.623435
2505.0,0.623913
2510.0,0.623121
2515.0,0.623784
2520.0,0.624046
2525.0,0.625472
2530.0,0.624731
2535.0,0.627443
2540.0,0.627134
2545.0,0.623655
2550.0,0.625027
2552.5,0.625236
2553.76,0.626413
2555.02,0.628044
2556.28,0.626005
2557.54,0.624248
2558.8,0.624069
2560.07,0.624923
2561.33,0.625255
2562.6,0.625355
2563.86,0.624419
2565.13,0.624013
2566.4,0.624587
2567.67,0.624795
2568.95,0.6241
2570.22,0.624624
2571.5,0.625437
2572.77,0.623849
2574.05,0.623062
2575.33,0.624898
2576.61,0.625446
2577.89,0.62654
2579.17,0.62737
2580.46,0.625733
2581.74,0.624383
2583.03,0.624351
2584.31,0.624641
2585.6,0.627889
2586.89,0.626477
2588.19,0.625166
2589.48,0.626703
2590.77,0.627616
2592.07,0.626686
2593.36,0.62507
2594.66,0.623471
2595.96,0.626766
2597.26,0.630074
2598.56,0.629165
2599.87,0.627253
2601.17,0.625908
2602.48,0.626522
2603.78,0.626831
2605.09,0.625108
2606.4,0.624792
2607.71,0.62655
2609.03,0.626657
2610.34,0.626925
2611.65,0.627657
2612.97,0.626119
2614.29,0.625789
2615.61,0.625862
2616.93,0.625212
2618.25,0.627248
2619.57,0.627296
2620.9,0.625362
2622.22,0.627719
2623.55,0.626781
2624.88,0.625299
2626.21,0.624663
2627.54,0.626074
2628.87,0.626644
2630.21,0.624295
2631.54,0.625681
2632.88,0.627873
2634.21,0.626129
2635.55,0.626816
2636.89,0.626733
2638.24,0.626412
2639.58,0.626185
2640.92,0.626338
2642.27,0.626831
2643.62,0.627678
2644.97,0.626466
2646.32,0.626211
2647.67,0.626848
2649.02,0.626621
2650.38,0.625631
2651.73,0.625528
2653.09,0.625363
2654.45,0.62578
2655.81,0.625152
2657.17,0.625348
2658.53,0.624601
2659.89,0.623854
2661.26,0.623499
2662.63,0.624387
2664.0,0.623601
2665.36,0.621812
2666.74,0.621897
2668.11,0.622762
2669.48,0.620035
2670.86,0.614573
2672.23,0.614904
2673.61,0.61344
2674.99,0.609044
2676.37,0.605867
2677.76,0.604217
2679.14,0.602217
2680.52,0.599737
2681.91,0.596877
2683.3,0.591898
2684.69,0.587221
2686.08,0.582361
2687.47,0.578556
2688.87,0.57536
2690.26,0.572277
2691.66,0.568167
2693.06,0.565354
2694.46,0.562319
2695.86,0.56026
2697.26,0.556988
2698.66,0.553032
2700.07,0.548818
2701.48,0.545787
2702.89,0.544073
2704.3,0.542669
2705.71,0.539515
2707.12,0.536297
2708.53,0.531054
2709.95,0.525926
2711.37,0.519956
2712.79,0.51506
2714.21,0.50674
2715.63,0.493497
2717.05,0.471636
2718.48,0.431893
2719.9,0.350271
2721.33,0.217391
2722.76,0.131144
2724.19,0.170732
2725.62,0.270632
2727.06,0.355339
2728.49,0.395842
2729.93,0.379782
2731.37,0.294423
2732.81,0.227278
2734.25,0.238926
2735.69,0.298268
2737.14,0.37484
2738.58,0.41592
2740.03,0.431083
2741.48,0.433663
2742.93,0.419103
2744.38,0.395324
2745.83,0.385786
2747.29,0.406248
2748.75,0.435402
2750.2,0.445516
2751.66,0.447145
2753.13,0.445839
2754.59,0.444211
2756.05,0.444542
2757.52,0.445883
2758.99,0.44276
2760.46,0.440822
2761.93,0.441044
2763.4,0.442839
2764.87,0.444566
2766.35,0.445314
2767.82,0.444754
2769.3,0.444848
2770.78,0.444229
2772.26,0.443863
2773.75,0.442718
2775.23,0.441695
2776.72,0.441866
2778.21,0.444599
2779.7,0.445685
2781.19,0.445585
2782.68,0.446045
2784.18,0.447056
2785.67,0.446689
2787.17,0.445875
2788.67,0.446067
2790.17,0.446662
2791.67,0.446576
2793.18,0.446025
2794.68,0.445761
2796.19,0.446745
2797.7,0.447218
2799.21,0.447227
2800.72,0.447025
2802.24,0.446655
2803.75,0.445267
2805.27,0.445539
2806.79,0.446058
2808.31,0.446306
2809.83,0.446728
2811.35,0.446974
2812.88,0.446626
2814.41,0.446831
2815.93,0.447132
2817.46,0.44709
2819.0,0.447582
2820.53,0.448021
2822.07,0.44827
2823.6,0.448428
2825.14,0.448088
2826.68,0.448083
2828.22,0.447899
2829.77,0.447983
2831.31,0.448186
2832.86,0.448629
2834.41,0.448604
2835.96,0.448441
2837.51,0.448445
2839.07,0.448647
2840.62,0.44841
2842.18,0.448475
2843.74,0.448777
2845.3,0.448622
2846.86,0.448609
2848.43,0.447891
2849.99,0.446754
2851.56,0.447122
2853.13,0.446954
2854.7,0.446867
2856.27,0.447283
2857.85,0.447207
2859.42,0.44604
2861.0,0.446271
2862.58,0.446672
2864.16,0.446903
2865.75,0.44676
2867.33,0.445797
2868.92,0.444888
2870.51,0.444842
2872.1,0.444619
2873.69,0.444504
2875.28,0.444224
2876.88,0.444081
2878.48,0.444152
2880.07,0.444064
2881.68,0.44348
2883.28,0.443597
2884.88,0.443564
2886.49,0.443374
2888.1,0.443309
2889.71,0.442969
2891.32,0.442179
2892.93,0.441706
2894.55,0.442147
2896.16,0.442438
2897.78,0.44226
2899.4,0.442173
2901.03,0.441517
2902.65,0.441294
2904.28,0.440816
2905.91,0.44094
2907.53,0.43984
2909.17,0.438221
2910.8,0.437441
2912.44,0.435634
2914.07,0.433465
2915.71,0.43186
2917.35,0.431402
2918.99,0.432268
2920.64,0.433417
2922.29,0.434707
2923.93,0.435935
2925.58,0.437155
2927.24,0.438222
2928.89,0.439043
2930.55,0.439628
2932.2,0.441033
2933.86,0.441815
2935.52,0.441626
2937.19,0.441757
2938.85,0.442212
2940.52,0.442488
2942.19,0.443121
2943.86,0.443574
2945.53,0.443144
2947.21,0.442805
2948.88,0.443449
2950.56,0.443972
2952.24,0.444298
2953.92,0.444243
2955.61,0.444372
2957.29,0.444457
2958.98,0.4447
2960.67,0.44473
2962.36,0.444542
2964.06,0.444703
2965.75,0.444967
2967.45,0.445382
2969.15,0.445594
2970.85,0.445776
2972.55,0.44579
2974.26,0.445517
2975.97,0.446398
2977.68,0.447229
2979.39,0.44761
2981.1,0.448285
2982.82,0.448799
2984.53,0.448902
2986.25,0.448794
2987.97,0.448943
2989.7,0.449581
2991.42,0.449922
2993.15,0.450326
2994.88,0.45146
2996.61,0.452253
2998.34,0.452514
3000.08,0.453363
3001.82,0.454274
3003.55,0.454398
3005.3,0.454302
3007.04,0.454822
3008.78,0.455579
3010.53,0.456221
3012.28,0.456809
3014.03,0.456908
3015.79,0.457113
3017.54,0.458082
3019.3,0.458658
3021.06,0.45896
3022.82,0.45948
3024.58,0.459916
3026.35,0.459999
3028.12,0.460971
3029.89,0.462031
3031.66,0.461953
3033.43,0.462087
3035.21,0.463052
3036.99,0.464
3038.77,0.464235
3040.55,0.464145
3042.33,0.464529
3044.12,0.465078
3045.91,0.465583
3047.7,0.466255
3049.49,0.466025
3051.29,0.466005
3053.08,0.466863
3054.88,0.467657
3056.68,0.468525
3058.49,0.469167
3060.29,0.469462
3062.1,0.469546
3063.91,0.469977
3065.72,0.470397
3067.54,0.470728
3069.35,0.471061
3071.17,0.471376
3072.99,0.47182
3074.81,0.472893
3076.64,0.473213
3078.46,0.472923
3080.29,0.473344
3082.13,0.474207
3083.96,0.474419
3085.79,0.47444
3087.63,0.475183
3089.47,0.476305
3091.31,0.477212
3093.16,0.477842
3095.01,0.478238
3096.85,0.47857
3098.71,0.4789
3100.56,0.479061
3102.41,0.479096
3104.27,0.479833
3106.13,0.480516
3107.99,0.481003
3109.86,0.481601
3111.73,0.482214
3113.59,0.482988
3115.47,0.483538
3117.34,0.484256
3119.21,0.485203
3121.09,0.486214
3122.97,0.486409
3124.86,0.486203
3126.74,0.486916
3128.63,0.487838
3130.52,0.488504
3132.41,0.489369
3134.3,0.489889
3136.2,0.490325
3138.1,0.491085
3140.0,0.491495
3141.9,0.491752
3143.81,0.492652
3145.71,0.493444
3147.62,0.493834
3149.54,0.494504
3151.45,0.495033
3153.37,0.495217
3155.29,0.495817
3157.21,0.49667
3159.13,0.49705
3161.06,0.497238
3162.99,0.497475
3164.92,0.497475
3166.85,0.497895
3168.79,0.498965
3170.72,0.499828
3172.67,0.500464
3174.61,0.501407
3176.55,0.502038
3178.5,0.502607
3180.45,0.503239
3182.4,0.503615
3184.36,0.504009
3186.32,0.505474
3188.27,0.506983
3190.24,0.507591
3192.2,0.50849
3194.17,0.509661
3196.14,0.510715
3198.11,0.511694
3200.08,0.512064
3202.06,0.51273
3204.04,0.513745
3206.02,0.515327
3208.0,0.516492
3209.99,0.516332
3211.98,0.516617
3213.97,0.517531
3215.96,0.518314
3217.96,0.518727
3219.96,0.519408
3221.96,0.520185
3223.96,0.520805
3225.97,0.521583
3227.98,0.522378
3229.99,0.522805
3232.0,0.52324
3234.02,0.524301
3236.04,0.525126
3238.06,0.525476
3240.08,0.526195
3242.11,0.526944
3244.14,0.527467
3246.17,0.527966
3248.2,0.528726
3250.24,0.529294
3252.28,0.530178
3254.32,0.530943
3256.37,0.531041
3258.41,0.531469
3260.46,0.532271
3262.51,0.53284
3264.57,0.533316
3266.63,0.533871
3268.69,0.534534
3270.75,0.535153
3272.81,0.535643
3274.88,0.535886
3276.95,0.535822
3279.02,0.535691
3281.1,0.535627
3283.18,0.535553
3285.26,0.5357
3287.34,0.535941
3289.43,0.536143
3291.51,0.536385
3293.61,0.536767
3295.7,0.536453
3297.8,0.536041
3299.89,0.536598
3302.0,0.536999
3304.1,0.536547
3306.21,0.535639
3308.32,0.535906
3310.43,0.536554
3312.55,0.537168
3314.66,0.537714
3316.78,0.538132
3318.91,0.538518
3321.03,0.538959
3323.16,0.539418
3325.29,0.540106
3327.43,0.540984
3329.57,0.541508
3331.71,0.541298
3333.85,0.540781
3335.99,0.540531
3338.14,0.540252
3340.29,0.539713
3342.45,0.539297
3344.6,0.539881
3346.76,0.540637
3348.92,0.540835
3351.09,0.54133
3353.26,0.542254
3355.43,0.54273
3357.6,0.543304
3359.78,0.544493
3361.96,0.545224
3364.14,0.545826
3366.32,0.546519
3368.51,0.54666
3370.7,0.546709
3372.89,0.546758
3375.09,0.547153
3377.29,0.54805
3379.49,0.549013
3381.69,0.549722
3383.9,0.550526
3386.11,0.551292
3388.32,0.552153
3390.54,0.552619
3392.76,0.553092
3394.98,0.553505
3397.21,0.553654
3399.43,0.553991
3401.66,0.5543
3403.9,0.554604
3406.13,0.555444
3408.37,0.556264
3410.61,0.556347
3412.86,0.556902
3415.11,0.557974
3417.36,0.558699
3419.61,0.559092
3421.87,0.560003
3424.13,0.56144
3426.39,0.562592
3428.66,0.563529
3430.93,0.564156
3433.2,0.564586
3435.48,0.564991
3437.76,0.56593
3440.04,0.566995
3442.32,0.56763
3444.61,0.568319
3446.9,0.568986
3449.19,0.569477
3451.49,0.570136
3453.79,0.570929
3456.09,0.571545
3458.4,0.571566
3460.7,0.571942
3463.02,0.572664
3465.33,0.573034
3467.65,0.573013
3469.97,0.573312
3472.29,0.573499
3474.62,0.573501
3476.95,0.573818
3479.29,0.574278
3481.62,0.574574
3483.96,0.57484
3486.3,0.575417
3488.65,0.575802
3491.0,0.576481
3493.35,0.577451
3495.71,0.577708
3498.07,0.577814
3500.43,0.578248
3502.79,0.578941
3505.16,0.580067
3507.53,0.580472
3509.91,0.58081
3512.29,0.5815
3514.67,0.582082
3517.05,0.582267
3519.44,0.582637
3521.83,0.583498
3524.22,0.58399
3526.62,0.584359
3529.02,0.585289
3531.43,0.585905
3533.83,0.585894
3536.24,0.586202
3538.66,0.587064
3541.08,0.588197
3543.5,0.58873
3545.92,0.588813
3548.35,0.589449
3550.78,0.589898
3553.21,0.590063
3555.65,0.590988
3558.09,0.591759
3560.53,0.591709
3562.98,0.592057
3565.43,0.592522
3567.88,0.593217
3570.34,0.594146
3572.8,0.594638
3575.27,0.595019
3577.73,0.595205
3580.2,0.595437
3582.68,0.595649
3585.16,0.595984
3587.64,0.596347
3590.12,0.596126
3592.61,0.596466
3595.1,0.597142
3597.6,0.597705
3600.09,0.59798
3602.6,0.598
3605.1,0.598152
3607.61,0.598538
3610.12,0.598671
3612.64,0.598918
3615.16,0.599519
3617.68,0.599762
3620.21,0.600108
3622.74,0.600434
3625.27,0.600501
3627.81,0.600562
3630.35,0.600822
3632.89,0.601216
3635.44,0.601451
3637.99,0.601745
3640.54,0.601793
3643.1,0.602166
3645.66,0.602805
3648.23,0.603044
3650.8,0.603134
3653.37,0.603156
3655.95,0.603131
3658.53,0.603518
3661.11,0.603988
3663.7,0.604504
3666.29,0.604651
3668.89,0.604456
3671.48,0.604771
3674.09,0.605463
3676.69,0.605856
3679.3,0.605965
3681.91,0.605783
3684.53,0.606052
3687.15,0.606379
3689.78,0.606521
3692.4,0.60656
3695.04,0.606981
3697.67,0.607557
3700.31,0.607815
3702.95,0.608264
3705.6,0.60851
3708.25,0.608875
3710.91,0.609502
3713.56,0.609702
3716.23,0.610056
3718.89,0.610731
3721.56,0.611048
3724.23,0.610959
3726.91,0.610846
3729.59,0.611311
3732.28,0.611902
3734.97,0.611987
3737.66,0.612071
3740.36,0.612267
3743.06,0.612295
3745.76,0.612582
3748.47,0.613037
3751.18,0.613135
3753.9,0.613647
3756.62,0.614058
3759.34,0.6139
3762.07,0.61404
3764.8,0.614494
3767.54,0.614489
3770.28,0.614811
3773.02,0.615105
3775.77,0.615291
3778.52,0.615326
3781.28,0.615567
3784.04,0.615952
3786.8,0.616163
3789.57,0.616227
3792.34,0.61653
3795.12,0.616872
3797.9,0.616885
3800.69,0.61755
3803.47,0.617935
3806.27,0.618085
3809.06,0.618066
3811.86,0.618193
3814.67,0.618451
3817.48,0.618435
3820.29,0.618407
3823.11,0.618606
3825.93,0.619116
3828.76,0.619666
3831.59,0.619754
3834.42,0.619757
3837.26,0.620046
3840.1,0.620269
3842.95,0.620301
3845.8,0.620385
3848.65,0.62087
3851.51,0.620923
3854.38,0.621169
3857.24,0.621744
3860.12,0.621569
3862.99,0.621583
3865.87,0.622225
3868.76,0.622634
3871.65,0.622538
3874.54,0.622768
3877.44,0.623208
3880.34,0.623164
3883.25,0.623229
3886.16,0.623674
3889.07,0.623805
3891.99,0.62372
3894.92,0.623861
3897.85,0.624037
3900.78,0.624092
3903.72,0.62412
3906.66,0.623993
3909.6,0.62398
3912.55,0.624257
3915.51,0.624585
3918.47,0.624677
3921.43,0.624639
3924.4,0.624972
3927.37,0.624981
3930.35,0.625237
3933.33,0.625654
3936.32,0.625774
3939.31,0.625601
3942.31,0.625933
3945.31,0.62648
3948.31,0.62667
3951.32,0.62651
3954.34,0.626519
3957.35,0.626624
3960.38,0.626613
3963.41,0.626513
3966.44,0.626517
3969.48,0.626602
3972.52,0.626835
3975.56,0.627081
3978.61,0.627344
3981.67,0.627884
3984.73,0.628528
3987.8,0.628739
3990.87,0.628677
3993.94,0.628518
3997.02,0.628709
4000.1,0.629321
4003.19,0.630032
4006.29,0.630387
4009.39,0.630451
4012.49,0.630763
4015.6,0.631338
4018.71,0.631991
4021.83,0.632899
4024.95,0.63356
4028.08,0.634042
4031.21,0.634487
4034.35,0.634976
4037.49,0.635162
4040.64,0.635715
4043.79,0.636297
4046.94,0.636586
4050.11,0.637109
4053.27,0.637729
4056.44,0.637744
4059.62,0.637669
4062.8,0.637911
4065.99,0.638264
4069.18,0.638746
4072.38,0.639046
4075.58,0.639055
4078.78,0.639332
4082.0,0.639429
4085.21,0.639809
4088.43,0.640216
4091.66,0.640472
4094.89,0.640185
4098.13,0.640317
4101.37,0.640784
4104.62,0.640859
4107.87,0.64072
4111.13,0.640728
4114.39,0.64099
4117.66,0.64141
4120.93,0.641693
4124.21,0.641609
4127.5,0.641259
4130.78,0.641225
4134.08,0.641576
4137.38,0.641842
4140.68,0.64184
4143.99,0.641877
4147.31,0.64209
4150.63,0.64235
4153.95,0.642749
4157.29,0.643086
4160.62,0.642887
4163.96,0.643177
4167.31,0.643367
4170.66,0.64334
4174.02,0.643327
4177.39,0.643594
4180.75,0.643813
4184.13,0.644099
4187.51,0.644006
4190.89,0.644133
4194.28,0.644244
4197.68,0.644291
4201.08,0.644179
4204.49,0.644091
4207.9,0.644375
4211.32,0.6447
4214.74,0.644593
4218.17,0.644593
4221.61,0.644544
4225.05,0.644987
4228.5,0.645906
4231.95,0.646349
4235.4,0.646334
4238.87,0.646702
4242.34,0.646861
4245.81,0.646961
4249.29,0.647116
4252.78,0.647264
4256.27,0.646924
4259.77,0.646398
4263.27,0.645691
4266.78,0.64588
4270.29,0.646584
4273.81,0.646718
4277.34,0.646796
4280.87,0.646816
4284.41,0.646917
4287.95,0.647488
4291.5,0.647719
4295.06,0.647578
4298.62,0.647298
4302.19,0.647342
4305.76,0.647373
4309.34,0.647227
4312.92,0.647149
4316.52,0.647152
4320.11,0.647059
4323.72,0.64708
4327.32,0.647222
4330.94,0.647357
4334.56,0.647436
4338.19,0.647427
4341.82,0.64707
4345.46,0.646915
4349.11,0.646911
4352.76,0.647028
4356.42,0.646972
4360.08,0.646934
4363.75,0.646805
4367.43,0.646944
4371.11,0.64701
4374.8,0.647083
4378.49,0.646955
4382.19,0.646979
4385.9,0.646848
4389.61,0.646607
4393.33,0.646679
4397.06,0.646847
4400.79,0.646857
4404.53,0.64675
4408.28,0.646652
4412.03,0.646836
4415.79,0.646834
4419.55,0.646843
4423.32,0.646737
4427.1,0.646489
4430.88,0.646383
4434.67,0.646235
4438.47,0.646045
4442.27,0.645881
4446.08,0.645894
4449.9,0.645963
4453.72,0.64556
4457.55,0.645414
4461.39,0.645171
4465.23,0.645179
4469.08,0.645068
4472.94,0.644522
4476.8,0.643999
4480.67,0.643969
4484.55,0.643556
4488.43,0.643288
4492.32,0.643142
4496.21,0.642952
4500.12,0.642404
4504.03,0.64185
4507.94,0.641428
4511.87,0.641051
4515.8,0.640529
4519.73,0.64
4523.68,0.63926
4527.63,0.638731
4531.59,0.638192
4535.55,0.637426
4539.52,0.636684
4543.5,0.636191
4547.49,0.635556
4551.48,0.634801
4555.48,0.633907
4559.49,0.632969
4563.5,0.631997
4567.52,0.631043
4571.55,0.630292
4575.58,0.629105
4579.62,0.62787
4583.67,0.627319
4587.73,0.626433
4591.79,0.62558
4595.86,0.624857
4599.94,0.62437
4604.03,0.623683
4608.12,0.62317
4612.22,0.622591
4616.33,0.621528
4620.44,0.620303
4624.56,0.619297
4628.69,0.618147
4632.83,0.616774
4636.97,0.61535
4641.12,0.614085
4645.28,0.61281
4649.45,0.611634
4653.62,0.610393
4657.8,0.609273
4661.99,0.607951
4666.19,0.606904
4670.39,0.605717
4674.6,0.604205
4678.82,0.602807
4683.05,0.601498
4687.28,0.599724
4691.52,0.597967
4695.77,0.596398
4700.03,0.594943
4704.3,0.593672
4708.57,0.592946
4712.85,0.592364
4717.14,0.591902
4721.43,0.590836
4725.74,0.590051
4730.05,0.589474
4734.37,0.58862
4738.7,0.587083
4743.03,0.585563
4747.38,0.583735
4751.73,0.581907
4756.09,0.579917
4760.45,0.577902
4764.83,0.575309
4769.21,0.572718
4773.6,0.570243
4778.0,0.567459
4782.41,0.564671
4786.83,0.56184
4791.25,0.559239
4795.68,0.556968
4800.13,0.554637
4804.57,0.552885
4809.03,0.551498
4813.5,0.550679
4817.97,0.550376
4822.45,0.550429
4826.94,0.550603
4831.44,0.550853
4835.95,0.55054
4840.46,0.550671
4844.99,0.550612
4849.52,0.550522
4854.06,0.550767
4858.61,0.550759
4863.17,0.550219
4867.73,0.549608
4872.31,0.548932
4876.89,0.548692
4881.48,0.548585
4886.08,0.548529
4890.69,0.548474
4895.31,0.548228
4899.94,0.547608
4904.57,0.546888
4909.22,0.546034
4913.87,0.545021
4918.53,0.543692
4923.21,0.542361
4927.88,0.540928
4932.57,0.539248
4937.27,0.537502
4941.98,0.535856
4946.69,0.53414
4951.42,0.532208
4956.15,0.530217
4960.89,0.528545
4965.65,0.526826
4970.41,0.525365
4975.18,0.523673
4979.96,0.522062
4984.75,0.520492
4989.54,0.518879
4994.35,0.517059
4999.17,0.515552
5003.99,0.513715
5008.83,0.511786
5013.67,0.509946
5018.52,0.507893
5023.39,0.505461
5028.26,0.503223
5033.14,0.501064
5038.03,0.499175
5042.93,0.497298
5047.84,0.495342
5052.76,0.493313
5057.69,0.491617
5062.63,0.490274
5067.58,0.488904
5072.54,0.487314
5077.51,0.486155
5082.49,0.484989
5087.47,0.483928
5092.47,0.483177
5097.48,0.481992
5102.5,0.480189
5107.52,0.478514
5112.56,0.476669
5117.61,0.474633
5122.66,0.472444
5127.73,0.470511
5132.81,0.469321
5137.89,0.468833
5142.99,0.46902
5148.1,0.470217
5153.22,0.472323
5158.34,0.475136
5163.48,0.478396
5168.63,0.482026
5173.79,0.485772
5178.96,0.489575
5184.13,0.493088
5189.32,0.496534
5194.52,0.499474
5199.73,0.502007
5204.95,0.503852
5210.19,0.504778
5215.43,0.50452
5220.68,0.504104
5225.94,0.502843
5231.22,0.499914
5236.5,0.49583
5241.79,0.491069
5247.1,0.48544
5252.42,0.479947
5257.74,0.475434
5263.08,0.472561
5268.43,0.471107
5273.79,0.470712
5279.16,0.470722
5284.54,0.470812
5289.93,0.470739
5295.34,0.470064
5300.75,0.468552
5306.18,0.466596
5311.61,0.463849
5317.06,0.460831
5322.52,0.457553
5327.99,0.454192
5333.47,0.451774
5338.96,0.450746
5344.47,0.450614
5349.98,0.451465
5355.51,0.452902
5361.05,0.454967
5366.6,0.45669
5372.16,0.458125
5377.73,0.459176
5383.32,0.460055
5388.91,0.460748
5394.52,0.461086
5400.14,0.460957
5405.77,0.460873
5411.41,0.460687
5417.07,0.460396
5422.74,0.459487
5428.41,0.458351
5434.1,0.456538
5439.81,0.45403
5445.52,0.451121
5451.25,0.447915
5456.98,0.444982
5462.73,0.44275
5468.5,0.441065
5474.27,0.440682
5480.06,0.441418
5485.86,0.443064
5491.67,0.445024
5497.49,0.446936
5503.33,0.448581
5509.18,0.449999
5515.04,0.45048
5520.91,0.450227
5526.8,0.449617
5532.69,0.448465
5538.61,0.4468
5544.53,0.44525
5550.47,0.443405
5556.41,0.44131
5562.38,0.439275
5568.35,0.437351
5574.34,0.435156
5580.34,0.433184
5586.35,0.431575
5592.38,0.42982
5598.42,0.427945
5604.47,0.426446
5610.54,0.425146
5616.61,0.423784
5622.71,0.422241
5628.81,0.420701
5634.93,0.419331
5641.06,0.417871
5647.21,0.416838
5653.36,0.416519
5659.54,0.416007
5665.72,0.415754
5671.92,0.415153
5678.13,0.414513
5684.36,0.414386
5690.6,0.414361
5696.85,0.414984
5703.12,0.416163
5709.4,0.416516
5715.69,0.417374
5722.0,0.417934
5728.33,0.417916
5734.66,0.417256
5741.01,0.416275
5747.38,0.414695
5753.76,0.41307
5760.15,0.410801
5766.56,0.407909
5772.98,0.405499
5779.41,0.403568
5785.86,0.401279
5792.33,0.399338
5798.81,0.397343
5805.3,0.395218
5811.81,0.393119
5818.33,0.391124
5824.87,0.388982
5831.42,0.387082
5837.99,0.384564
5844.57,0.381989
5851.17,0.378962
5857.78,0.375659
5864.41,0.371952
5871.05,0.368202
5877.7,0.363806
5884.38,0.359171
5891.06,0.35479
5897.76,0.35035
5904.48,0.346446
5911.21,0.343216
5917.96,0.340241
5924.73,0.338368
5931.5,0.337075
5938.3,0.336192
5945.11,0.336752
5951.93,0.337646
5958.78,0.338671
5965.63,0.339907
5972.51,0.341303
5979.39,0.343465
5986.3,0.345025
5993.22,0.34645
6000.16,0.347955
6007.11,0.348678
6014.08,0.348496
6021.06,0.347818
6028.06,0.346286
6035.08,0.343973
6042.12,0.340845
6049.17,0.336839
6056.23,0.332748
6063.32,0.329194
6070.42,0.325141
6077.53,0.321202
6084.67,0.317955
6091.82,0.315304
6098.98,0.312274
6106.17,0.309483
6113.37,0.307147
6120.58,0.305236
6127.82,0.303355
6135.07,0.301804
6142.34,0.300606
6149.63,0.299847
6156.93,0.29929
6164.25,0.298653
6171.59,0.298217
6178.94,0.297682
6186.32,0.296991
6193.71,0.296516
6201.12,0.296128
6208.54,0.295669
6215.99,0.295348
6223.45,0.29526
6230.93,0.295629
6238.43,0.296486
6245.95,0.297801
6253.48,0.299474
6261.03,0.301383
6268.6,0.303244
6276.19,0.305463
6283.8,0.307945
6291.43,0.310485
6299.07,0.313448
6306.73,0.31675
6314.42,0.320128
6322.12,0.32337
6329.83,0.326409
6337.57,0.329277
6345.33,0.332026
6353.11,0.335591
6360.9,0.33829
6368.72,0.340173
6376.55,0.341933
6384.4,0.34323
6392.27,0.344245
6400.17,0.344859
6408.08,0.344878
6416.01,0.344478
6423.96,0.34433
6431.93,0.343364
6439.92,0.34182
6447.93,0.34007
6455.96,0.33804
6464.01,0.335908
6472.08,0.333634
6480.17,0.331193
6488.28,0.328775
6496.41,0.326777
6504.56,0.325145
6512.73,0.323288
6520.92,0.321136
6529.14,0.31876
6537.37,0.316284
6545.63,0.313362
6553.9,0.310409
6562.2,0.307494
6570.51,0.304479
6578.85,0.301286
6587.21,0.298177
6595.59,0.294818
6603.99,0.291517
6612.42,0.288173
6620.86,0.28511
6629.33,0.282297
6637.82,0.279931
6646.33,0.277843
6654.86,0.276355
6663.41,0.275007
6671.99,0.273718
6680.59,0.272656
6689.21,0.271867
6697.85,0.271286
6706.51,0.270666
6715.2,0.269902
6723.91,0.269535
6732.64,0.269535
6741.4,0.269643
6750.18,0.269706
6758.98,0.269753
6767.8,0.269807
6776.65,0.269793
6785.52,0.269456
6794.41,0.268846
6803.33,0.268497
6812.27,0.26779
6821.23,0.266379
6830.22,0.264983
6839.23,0.264576
6848.26,0.264867
6857.32,0.264839
6866.4,0.264401
6875.51,0.263912
6884.64,0.263073
6893.8,0.262042
6902.98,0.261195
6912.18,0.260513
6921.41,0.260007
6930.66,0.259139
6939.94,0.257891
6949.24,0.256532
6958.57,0.254926
6967.92,0.253021
6977.3,0.2513
6986.7,0.249195
6996.13,0.247038
7005.59,0.244797
7015.07,0.242838
7024.57,0.241201
7034.1,0.240117
7043.66,0.239472
7053.24,0.239648
7062.85,0.240302
7072.49,0.241542
7082.15,0.242719
7091.84,0.243569
7101.55,0.244151
7111.3,0.244431
7121.06,0.244335
7130.86,0.244134
7140.68,0.24361
7150.53,0.243088
7160.41,0.242741
7170.31,0.242369
7180.24,0.241808
7190.2,0.241098
7200.19,0.240315
7210.2,0.239586
7220.24,0.238615
7230.31,0.237461
7240.41,0.235942
7250.54,0.234447
7260.69,0.232956
7270.88,0.231447
7281.09,0.229532
7291.33,0.227413
7301.6,0.225268
7311.9,0.222899
7322.22,0.22059
7332.58,0.218428
7342.97,0.21609
7353.38,0.21386
7363.83,0.211569
7374.3,0.209545
7384.81,0.207775
7395.34,0.206262
7405.91,0.204505
7416.5,0.202653
7427.13,0.201232
7437.78,0.200144
7448.47,0.19861
7459.19,0.197272
7469.94,0.196013
7480.71,0.194796
7491.52,0.193415
7502.37,0.192333
7513.24,0.191748
7524.14,0.191297
7535.08,0.190383
7546.05,0.189725
7557.05,0.189002
7568.08,0.188071
7579.14,0.186782
7590.24,0.185107
7601.37,0.183286
7612.53,0.18117
7623.73,0.178581
7634.96,0.175857
7646.22,0.172957
7657.51,0.170094
7668.84,0.167158
7680.2,0.164292
7691.59,0.16113
7703.02,0.157633
7714.49,0.154222
7725.98,0.151222
7737.51,0.148051
7749.08,0.145184
7760.68,0.14262
7772.32,0.140329
7783.99,0.137841
7795.69,0.135266
7807.43,0.132852
7819.21,0.130493
7831.02,0.127847
7842.87,0.12551
7854.75,0.122948
7866.67,0.120126
7878.62,0.117178
7890.62,0.114312
7902.64,0.11116
7914.71,0.107981
7926.81,0.104614
7938.95,0.101008
7951.13,0.097344
7963.34,0.09393
7975.59,0.090232
7987.88,0.086751
8000.21,0.083399
8012.57,0.080141
8024.98,0.076864
8037.42,0.073719
8049.9,0.070309
8062.42,0.067156
8074.98,0.063973
8087.57,0.061045
8100.21,0.058284
8112.89,0.055913
8125.6,0.053527
8138.36,0.051326
8151.16,0.049328
8163.99,0.047457
8176.87,0.04532
8189.79,0.043442
8202.75,0.0418
8215.74,0.04064
8228.79,0.039402
8241.87,0.038055
8254.99,0.036469
8268.16,0.035388
8281.37,0.034297
8294.62,0.03327
8307.91,0.032114
8321.24,0.031396
8334.62,0.031015
8348.04,0.030841
8361.51,0.030593
8375.02,0.030729
8388.57,0.031187
8402.16,0.032136
8415.8,0.032976
8429.49,0.034395
8443.22,0.036
8456.99,0.038218
8470.81,0.040491
8484.67,0.042867
8498.58,0.045866
8512.54,0.049493
8526.54,0.053435
8540.58,0.0574
8554.68,0.061596
8568.82,0.066118
8583.0,0.070698
8597.24,0.075242
8611.52,0.079089
8625.85,0.08255
8640.22,0.084635
8654.65,0.085487
8669.12,0.084517
8683.64,0.081984
8698.21,0.078673
8712.83,0.075577
8727.5,0.072157
8742.22,0.069062
8756.98,0.06584
8771.8,0.062387
8786.67,0.058858
8801.59,0.055666
8816.56,0.052114
8831.58,0.048497
8846.65,0.044686
8861.77,0.040784
8876.94,0.037187
8892.17,0.03455
8907.45,0.032775
8922.78,0.031993
8938.16,0.031261
8953.6,0.030203
8969.09,0.028827
8984.64,0.027752
9000.23,0.026987
9015.89,0.026747
9031.59,0.026553
9047.36,0.026567
9063.17,0.026974
9079.04,0.028321
9094.97,0.02971
9110.96,0.031556
9127.0,0.033454
9143.09,0.034777
9159.25,0.035368
9175.46,0.035784
9191.73,0.035409
9208.05,0.034707
9224.44,0.033797
9240.88,0.033048
9257.38,0.032038
9273.94,0.031364
9290.56,0.030766
9307.24,0.030692
9323.98,0.030323
9340.78,0.030012
9357.64,0.030188
9374.57,0.030199
9391.55,0.030532
9408.59,0.031624
9425.7,0.032257
9442.87,0.032835
9460.1,0.033812
9477.39,0.03505
9494.75,0.036124
9512.17,0.03747
9529.66,0.038932
9547.21,0.040141
9564.82,0.040638
9582.5,0.041203
9600.25,0.041571
9618.06,0.042239
9635.94,0.042121
9653.88,0.041216
9671.89,0.040291
9689.97,0.040101
9708.12,0.039527
9726.33,0.038922
9744.61,0.038296
9762.97,0.038198
9781.39,0.038776
9799.88,0.040274
9818.44,0.041981
9837.07,0.04355
9855.77,0.044822
9874.54,0.046081
9893.39,0.046942
9912.3,0.047719
9931.29,0.048566
9950.35,0.049038
9969.49,0.049427
9988.7,0.050257
10007.98,0.051006
10027.34,0.052059
10046.77,0.053545
10066.28,0.055545
10085.87,0.057784
10105.53,0.060037
10125.26,0.061878
10145.08,0.063748
10164.97,0.064894
10184.94,0.065459
10204.99,0.065961
10225.12,0.066608
10245.33,0.066769
10265.61,0.066655
10285.98,0.066455
10306.43,0.066336
10326.96,0.066017
10347.57,0.065331
10368.27,0.064433
10389.05,0.06365
10409.91,0.062828
10430.85,0.061973
10451.88,0.060893
10473.0,0.059918
10494.2,0.058756
10515.49,0.057719
10536.86,0.05641
10558.32,0.054604
10579.87,0.052989
10601.5,0.052079
10623.23,0.051904
10645.04,0.052061
10666.94,0.05238
10688.94,0.052777
10711.02,0.051299
10733.2,0.048393
10755.47,0.044658
10777.83,0.041132
10800.28,0.038586
10822.83,0.038912
10845.47,0.041403
10868.21,0.044308
10891.04,0.047117
10913.97,0.050581
10936.99,0.054792
10960.12,0.059495
10983.34,0.064977
11006.66,0.070277
11030.07,0.075325
11053.59,0.080652
11077.21,0.085343
11100.93,0.089926
11124.75,0.093977
11148.68,0.097908
11172.7,0.102096
11196.84,0.106012
11221.07,0.109107
11245.41,0.112168
11269.86,0.115182
11294.41,0.118677
11319.07,0.121794
11343.84,0.124403
11368.72,0.127356
11393.7,0.130362
11418.8,0.132816
11444.01,0.134739
11469.33,0.13613
11494.76,0.137472
11520.3,0.138843
11545.96,0.139635
11571.73,0.140121
11597.62,0.140649
11623.62,0.141144
11649.74,0.141478
11675.98,0.141349
11702.34,0.140991
11728.81,0.141159
11755.41,0.142634
11782.13,0.143593
11808.96,0.143854
11835.92,0.144718
11863.01,0.146683
11890.22,0.149542
11917.55,0.152771
11945.01,0.155494
11972.6,0.158103
12000.31,0.159686
12028.16,0.160426
12056.13,0.16072
12084.23,0.160648
12112.46,0.160267
12140.83,0.159538
12169.33,0.158857
12197.96,0.158591
12226.73,0.157536
12255.64,0.156065
12284.68,0.154913
12313.86,0.153881
12343.18,0.152897
12372.64,0.151481
12402.24,0.148884
12431.98,0.146201
12461.86,0.143473
12491.89,0.140641
12522.06,0.137721
12552.38,0.134311
12582.85,0.130446
12613.47,0.126815
12644.23,0.122519
12675.15,0.117724
12706.21,0.113032
12737.43,0.10742
12768.8,0.100793
12800.33,0.093875
12832.02,0.086486
12863.86,0.079155
12895.86,0.071813
12928.02,0.064432
12960.34,0.05769
12992.82,0.0528
13025.46,0.048578
13058.27,0.044804
13091.25,0.040962
13124.39,0.038006
13157.7,0.0355
13191.18,0.033242
13224.83,0.031857
13258.66,0.032112
13292.65,0.03415
13326.83,0.037893
13361.17,0.042991
13395.7,0.048671
13430.4,0.053977
13465.29,0.058923
13500.35,0.061923
13535.6,0.062788
13571.03,0.062814
13606.65,0.065066
13642.46,0.068761
13678.46,0.072078
13714.64,0.073275
13751.02,0.071201
13787.59,0.066462
13824.36,0.061003
13861.32,0.057926
13898.48,0.059436
13935.85,0.063332
13973.41,0.065873
14011.17,0.066045
14049.15,0.06525
14087.32,0.063129
14125.71,0.059013
14164.3,0.054298
14203.11,0.049204
14242.13,0.04354
14281.36,0.038156
14320.81,0.033237
14360.48,0.02923
14400.38,0.026439
14440.49,0.024803
14480.82,0.023658
14521.39,0.023065
14562.18,0.022839
14603.2,0.023386
14644.45,0.024207
14685.93,0.026344
14727.66,0.029802
14769.62,0.033842
14811.81,0.037352
14854.25,0.039928
14896.94,0.04057
14939.87,0.039285
14983.05,0.036811
15026.48,0.033551
15070.16,0.030689
15114.1,0.028924
15158.29,0.028701
15202.74,0.029791
15247.46,0.031901
15292.43,0.03444
15337.68,0.036336
15383.19,0.037381
15428.97,0.036626
15475.03,0.035023
15521.36,0.031899
15567.97,0.028812
15614.86,0.027332
15662.04,0.028596
15709.5,0.032602
15757.25,0.037771
15805.29,0.041948
15853.62,0.045306
15902.25,0.047219
15951.18,0.048092
16000.42,0.048543
16049.95,0.048512
16099.8,0.047717
16149.95,0.046501
16200.42,0.044556
16251.21,0.042564
16302.31,0.04032
16353.74,0.038224
16405.49,0.035731
16457.57,0.033877
16509.98,0.031859
16562.73,0.030051
16615.82,0.028946
16669.24,0.028359
16723.02,0.028027
16777.13,0.027504
16831.61,0.027401
16886.43,0.027543
16941.62,0.027812
16997.16,0.028153
17053.07,0.028707
17109.36,0.029836
17166.01,0.031281
17223.04,0.032093
17280.45,0.034288
17338.24,0.037923
17396.43,0.041475
17455.0,0.044873
17513.97,0.048618
17573.34,0.052439
17633.11,0.056473
17693.29,0.060685
17753.89,0.064292
17814.9,0.067925
17876.33,0.070846
17938.18,0.07205
18000.47,0.072811
18063.19,0.071909
18126.35,0.070417
18189.95,0.069087
18254.0,0.066923
18318.5,0.065054
18383.46,0.063375
18448.88,0.062144
18514.77,0.061504
18581.13,0.060175
18647.97,0.059276
18715.29,0.058426
18783.1,0.057704
18851.4,0.057518
18920.2,0.055486
18989.51,0.053462
19059.32,0.052216
19129.65,0.050001
19200.5,0.050802
19271.88,0.053774
19343.79,0.055245
19416.23,0.054487
19489.23,0.053708
19562.77,0.05488
19636.88,0.052938
19711.54,0.052099
19786.77,0.051523
19862.59,0.049704
19938.98,0.047877
20015.96,0.047842
20093.54,0.048641
20171.73,0.050149
20250.53,0.052064
20329.94,0.055867
20409.98,0.059319
20490.65,0.061846
20571.96,0.063912
20653.92,0.06756
20736.54,0.069586
20819.82,0.069521
20903.77,0.068995
20988.4,0.06859
21073.72,0.068337
21159.73,0.068753
21246.46,0.068324
21333.89,0.067124
21422.04,0.06694
21510.93,0.067408
21600.56,0.066027
21690.94,0.065016
21782.08,0.064436
21873.99,0.063556
21966.67,0.064123
22060.15,0.064462
22154.42,0.062727
22249.51,0.062928
22345.41,0.061363
22442.14,0.059732
22539.72,0.058768
22638.14,0.058643
22737.43,0.059029
22837.6,0.059318
22938.65,0.060275
23040.6,0.064265
23143.46,0.067585
23247.24,0.067847
23351.96,0.067428
23457.62,0.066239
23564.25,0.064296
23671.85,0.061708
23780.44,0.05489
23890.02,0.050172
24000.63,0.049644
24112.26,0.057476
24224.93,0.062383
24338.66,0.060774
24453.47,0.053552
24569.36,0.05293
24686.36,0.052154
24804.47,0.048432
24923.72,0.042562
25044.13,0.040201
25165.7,0.039668
25288.46,0.044344
25412.43,0.043957
25537.61,0.032319
25664.03,0.028406
25791.71,0.037291
25920.67,0.045678
