Database of Origin,University of Winnipeg Spectrophotometer Facility
Sample Description,RELAB plus Nicolet data. See HOSERLab website for further details
Date Added,2016-11-01 21:25:23.378380

Data ID,RLA_PER_03          
Sample ID,PER103
Mineral Name,perovskite
Grain Size,<45
Viewing Geometry,30/0;30
Resolution,5nm

Wavelength
300.0,0.072284
305.0,0.064511
310.0,0.05889
315.0,0.056896
320.0,0.055228
325.0,0.053355
330.0,0.058216
335.0,0.081696
340.0,0.140096
345.0,0.232079
350.0,0.319578
355.0,0.373476
360.0,0.402283
365.0,0.420042
370.0,0.43189
375.0,0.43954
380.0,0.447317
385.0,0.453465
390.0,0.458089
395.0,0.460456
400.0,0.464748
405.0,0.467411
410.0,0.469806
415.0,0.470419
420.0,0.473026
425.0,0.475926
430.0,0.478669
435.0,0.481976
440.0,0.48593
445.0,0.491179
450.0,0.495878
455.0,0.502013
460.0,0.508838
465.0,0.516229
470.0,0.523125
475.0,0.531104
480.0,0.537988
485.0,0.545038
490.0,0.552312
495.0,0.558478
500.0,0.56366
505.0,0.569351
510.0,0.573574
515.0,0.578565
520.0,0.587704
525.0,0.592548
530.0,0.59787
535.0,0.603742
540.0,0.609023
545.0,0.615809
550.0,0.622276
555.0,0.628371
560.0,0.635046
565.0,0.642878
570.0,0.649234
575.0,0.654811
580.0,0.66164
585.0,0.668556
590.0,0.675344
595.0,0.681847
600.0,0.688626
605.0,0.695042
610.0,0.701104
615.0,0.708078
620.0,0.714183
625.0,0.720882
630.0,0.726815
635.0,0.732888
640.0,0.739137
645.0,0.744567
650.0,0.750256
655.0,0.755278
660.0,0.759438
665.0,0.765188
670.0,0.768678
675.0,0.773439
680.0,0.777457
685.0,0.780328
690.0,0.783154
695.0,0.786981
700.0,0.79047
705.0,0.793494
710.0,0.791155
715.0,0.791485
720.0,0.793598
725.0,0.796368
730.0,0.799281
735.0,0.801521
740.0,0.801206
745.0,0.803523
750.0,0.805098
755.0,0.807432
760.0,0.807262
765.0,0.808288
770.0,0.80988
775.0,0.810711
780.0,0.812403
785.0,0.813513
790.0,0.81392
795.0,0.814841
800.0,0.81554
805.0,0.816758
810.0,0.817715
815.0,0.817956
820.0,0.819125
825.0,0.820302
830.0,0.820153
835.0,0.821073
840.0,0.821985
845.0,0.822562
850.0,0.82344
855.0,0.82304
860.0,0.824384
865.0,0.824255
870.0,0.824457
875.0,0.825927
880.0,0.8261
885.0,0.824854
890.0,0.826551
895.0,0.825891
900.0,0.826616
905.0,0.825778
910.0,0.82678
915.0,0.826917
920.0,0.82783
925.0,0.829248
930.0,0.827909
935.0,0.828496
940.0,0.82937
945.0,0.828365
950.0,0.82897
955.0,0.828086
960.0,0.82903
965.0,0.829067
970.0,0.829515
975.0,0.829347
980.0,0.82901
985.0,0.828429
990.0,0.828863
995.0,0.82919
1000.0,0.827989
1005.0,0.828143
1010.0,0.827852
1015.0,0.828495
1020.0,0.828695
1025.0,0.82841
1030.0,0.828741
1035.0,0.829081
1040.0,0.828296
1045.0,0.828223
1050.0,0.828968
1055.0,0.828483
1060.0,0.828548
1065.0,0.828543
1070.0,0.829424
1075.0,0.828868
1080.0,0.828601
1085.0,0.829769
1090.0,0.830135
1095.0,0.829261
1100.0,0.829369
1105.0,0.829659
1110.0,0.829972
1115.0,0.828568
1120.0,0.828701
1125.0,0.828672
1130.0,0.829162
1135.0,0.829405
1140.0,0.829484
1145.0,0.829214
1150.0,0.828581
1155.0,0.828968
1160.0,0.829246
1165.0,0.829292
1170.0,0.82907
1175.0,0.829965
1180.0,0.829429
1185.0,0.829575
1190.0,0.829472
1195.0,0.829023
1200.0,0.826868
1205.0,0.82745
1210.0,0.826486
1215.0,0.82702
1220.0,0.826667
1225.0,0.827327
1230.0,0.827153
1235.0,0.82762
1240.0,0.827801
1245.0,0.827634
1250.0,0.827404
1255.0,0.827721
1260.0,0.827811
1265.0,0.82865
1270.0,0.827855
1275.0,0.82767
1280.0,0.826771
1285.0,0.826711
1290.0,0.826191
1295.0,0.827399
1300.0,0.8273
1305.0,0.826695
1310.0,0.826662
1315.0,0.827027
1320.0,0.826676
1325.0,0.826869
1330.0,0.826702
1335.0,0.826915
1340.0,0.826272
1345.0,0.825657
1350.0,0.824129
1355.0,0.822139
1360.0,0.820232
1365.0,0.822022
1370.0,0.822139
1375.0,0.823277
1380.0,0.8214
1385.0,0.824
1390.0,0.824834
1395.0,0.825043
1400.0,0.824344
1405.0,0.824944
1410.0,0.826532
1415.0,0.825606
1420.0,0.825341
1425.0,0.82512
1430.0,0.825215
1435.0,0.825273
1440.0,0.825909
1445.0,0.825219
1450.0,0.825823
1455.0,0.824907
1460.0,0.82545
1465.0,0.824428
1470.0,0.825025
1475.0,0.824398
1480.0,0.82311
1485.0,0.825093
1490.0,0.825222
1495.0,0.825053
1500.0,0.825329
1505.0,0.825285
1510.0,0.824646
1515.0,0.824823
1520.0,0.824809
1525.0,0.825117
1530.0,0.824894
1535.0,0.82595
1540.0,0.825537
1545.0,0.825342
1550.0,0.825702
1555.0,0.825304
1560.0,0.8248
1565.0,0.825016
1570.0,0.825395
1575.0,0.825363
1580.0,0.825926
1585.0,0.827455
1590.0,0.82743
1595.0,0.828371
1600.0,0.828009
1605.0,0.828346
1610.0,0.828038
1615.0,0.829264
1620.0,0.82862
1625.0,0.827931
1630.0,0.828374
1635.0,0.827672
1640.0,0.828508
1645.0,0.828256
1650.0,0.828381
1655.0,0.828507
1660.0,0.827283
1665.0,0.827177
1670.0,0.826901
1675.0,0.827345
1680.0,0.827664
1685.0,0.826799
1690.0,0.827447
1695.0,0.827243
1700.0,0.827057
1705.0,0.82786
1710.0,0.826769
1715.0,0.827547
1720.0,0.827491
1725.0,0.827046
1730.0,0.827615
1735.0,0.826566
1740.0,0.825899
1745.0,0.826209
1750.0,0.826172
1755.0,0.825525
1760.0,0.826416
1765.0,0.826244
1770.0,0.825693
1775.0,0.824778
1780.0,0.826133
1785.0,0.825704
1790.0,0.825652
1795.0,0.826
1800.0,0.825745
1805.0,0.825882
1810.0,0.825944
1815.0,0.825163
1820.0,0.825087
1825.0,0.824668
1830.0,0.825882
1835.0,0.824828
1840.0,0.82287
1845.0,0.822672
1850.0,0.822513
1855.0,0.822892
1860.0,0.822347
1865.0,0.824101
1870.0,0.82461
1875.0,0.819943
1880.0,0.821234
1885.0,0.822154
1890.0,0.822583
1895.0,0.821979
1900.0,0.821859
1905.0,0.819925
1910.0,0.820094
1915.0,0.819952
1920.0,0.820447
1925.0,0.81921
1930.0,0.819682
1935.0,0.820514
1940.0,0.819949
1945.0,0.819791
1950.0,0.820486
1955.0,0.820944
1960.0,0.82133
1965.0,0.821462
1970.0,0.821733
1975.0,0.821309
1980.0,0.821649
1985.0,0.822129
1990.0,0.822804
1995.0,0.822463
2000.0,0.823485
2005.0,0.823568
2010.0,0.823439
2015.0,0.823443
2020.0,0.824063
2025.0,0.823948
2030.0,0.82353
2035.0,0.823502
2040.0,0.823967
2045.0,0.824022
2050.0,0.824541
2055.0,0.824388
2060.0,0.824408
2065.0,0.823953
2070.0,0.824155
2075.0,0.823989
2080.0,0.824378
2085.0,0.823943
2090.0,0.824233
2095.0,0.824042
2100.0,0.82402
2105.0,0.823784
2110.0,0.823755
2115.0,0.824594
2120.0,0.824898
2125.0,0.825379
2130.0,0.825697
2135.0,0.825424
2140.0,0.824897
2145.0,0.824178
2150.0,0.824268
2155.0,0.823003
2160.0,0.82276
2165.0,0.822262
2170.0,0.821501
2175.0,0.820807
2180.0,0.821561
2185.0,0.821314
2190.0,0.820645
2195.0,0.82001
2200.0,0.82039
2205.0,0.820977
2210.0,0.820619
2215.0,0.820852
2220.0,0.820952
2225.0,0.820935
2230.0,0.820644
2235.0,0.820694
2240.0,0.820664
2245.0,0.820767
2250.0,0.820859
2255.0,0.821625
2260.0,0.821574
2265.0,0.820928
2270.0,0.821074
2275.0,0.82164
2280.0,0.822391
2285.0,0.821835
2290.0,0.822354
2295.0,0.821809
2300.0,0.822273
2305.0,0.822964
2310.0,0.823173
2315.0,0.823305
2320.0,0.822781
2325.0,0.822882
2330.0,0.822424
2335.0,0.822441
2340.0,0.821982
2345.0,0.822343
2350.0,0.82179
2355.0,0.821525
2360.0,0.821429
2365.0,0.820662
2370.0,0.820097
2375.0,0.820117
2380.0,0.820747
2385.0,0.820211
2390.0,0.819851
2395.0,0.820076
2400.0,0.820615
2405.0,0.819529
2410.0,0.820236
2415.0,0.819945
2420.0,0.819849
2425.0,0.82041
2430.0,0.820107
2435.0,0.820083
2440.0,0.819024
2445.0,0.819861
2450.0,0.820363
2455.0,0.819925
2460.0,0.819689
2465.0,0.819072
2470.0,0.818588
2475.0,0.81998
2480.0,0.819766
2485.0,0.819369
2490.0,0.820502
2495.0,0.820056
2500.0,0.819664
2502.0,0.81994
2503.2,0.82024
2504.41,0.820344
2505.62,0.819424
2506.83,0.81882
2508.05,0.819418
2509.26,0.819232
2510.48,0.819425
2511.69,0.819509
2512.91,0.819086
2514.13,0.819518
2515.35,0.819559
2516.57,0.818992
2517.79,0.819434
2519.02,0.819765
2520.24,0.819401
2521.47,0.819229
2522.69,0.818571
2523.92,0.818592
2525.15,0.8195
2526.38,0.819885
2527.61,0.819443
2528.85,0.819415
2530.08,0.819526
2531.32,0.819516
2532.55,0.819324
2533.79,0.819025
2535.03,0.819015
2536.27,0.818766
2537.51,0.819163
2538.75,0.819491
2540.0,0.819584
2541.24,0.819185
2542.49,0.818745
2543.74,0.818756
2544.99,0.819105
2546.24,0.818773
2547.49,0.818888
2548.74,0.818578
2549.99,0.818809
2551.25,0.819333
2552.5,0.819511
2553.76,0.81937
2555.02,0.820041
2556.28,0.820234
2557.54,0.819838
2558.8,0.819491
2560.07,0.819413
2561.33,0.819098
2562.6,0.819307
2563.86,0.819159
2565.13,0.819319
2566.4,0.819655
2567.67,0.819826
2568.95,0.819638
2570.22,0.819777
2571.5,0.820554
2572.77,0.820445
2574.05,0.820107
2575.33,0.820374
2576.61,0.81977
2577.89,0.819719
2579.17,0.820833
2580.46,0.820588
2581.74,0.820527
2583.03,0.820419
2584.31,0.819568
2585.6,0.820572
2586.89,0.820464
2588.19,0.820635
2589.48,0.821224
2590.77,0.822066
2592.07,0.82172
2593.36,0.821344
2594.66,0.820099
2595.96,0.819739
2597.26,0.820777
2598.56,0.821805
2599.87,0.821891
2601.17,0.821731
2602.48,0.821172
2603.78,0.821136
2605.09,0.821104
2606.4,0.82191
2607.71,0.822444
2609.03,0.822284
2610.34,0.822291
2611.66,0.82254
2612.97,0.822103
2614.29,0.822282
2615.61,0.822273
2616.93,0.821235
2618.25,0.821271
2619.57,0.821713
2620.9,0.821534
2622.22,0.822527
2623.55,0.823223
2624.88,0.822938
2626.21,0.821715
2627.54,0.821953
2628.87,0.822093
2630.21,0.821487
2631.54,0.82172
2632.88,0.822437
2634.21,0.822277
2635.55,0.822604
2636.89,0.822472
2638.24,0.822694
2639.58,0.822646
2640.92,0.822585
2642.27,0.822237
2643.62,0.822046
2644.97,0.821177
2646.32,0.821344
2647.67,0.821593
2649.02,0.821889
2650.38,0.822033
2651.73,0.821635
2653.09,0.82136
2654.45,0.821586
2655.81,0.821524
2657.17,0.821807
2658.53,0.821903
2659.89,0.821395
2661.26,0.820859
2662.63,0.821029
2664.0,0.820297
2665.36,0.81982
2666.74,0.819199
2668.11,0.82018
2669.48,0.819065
2670.86,0.817821
2672.23,0.818588
2673.61,0.819257
2674.99,0.8181
2676.37,0.816337
2677.76,0.815622
2679.14,0.815469
2680.52,0.815467
2681.91,0.814881
2683.3,0.813665
2684.69,0.813369
2686.08,0.813496
2687.47,0.813049
2688.87,0.812583
2690.26,0.812421
2691.66,0.812073
2693.06,0.810825
2694.46,0.809684
2695.86,0.80991
2697.26,0.809882
2698.66,0.809331
2700.07,0.808214
2701.48,0.80737
2702.89,0.807095
2704.3,0.806208
2705.71,0.805491
2707.12,0.805255
2708.53,0.804115
2709.95,0.803017
2711.37,0.802875
2712.79,0.803979
2714.21,0.803937
2715.63,0.80368
2717.05,0.803283
2718.48,0.803607
2719.9,0.802313
2721.33,0.80169
2722.76,0.801959
2724.19,0.801596
2725.62,0.800766
2727.06,0.801119
2728.49,0.801204
2729.93,0.800173
2731.37,0.79944
2732.81,0.799097
2734.25,0.797805
2735.69,0.796943
2737.14,0.796881
2738.58,0.795797
2740.03,0.793974
2741.48,0.793466
2742.93,0.793062
2744.38,0.792787
2745.83,0.791841
2747.29,0.790631
2748.75,0.789506
2750.2,0.788545
2751.66,0.786994
2753.13,0.785859
2754.59,0.784396
2756.05,0.782851
2757.52,0.782562
2758.99,0.782014
2760.46,0.780234
2761.93,0.778839
2763.4,0.777706
2764.87,0.776537
2766.35,0.775074
2767.82,0.773346
2769.3,0.772203
2770.78,0.771594
2772.26,0.77041
2773.75,0.769524
2775.23,0.76868
2776.72,0.767139
2778.21,0.765843
2779.7,0.764872
2781.19,0.763511
2782.68,0.762206
2784.18,0.761034
2785.67,0.759529
2787.17,0.757779
2788.67,0.7567
2790.17,0.756094
2791.67,0.755132
2793.18,0.753184
2794.68,0.75083
2796.19,0.74869
2797.7,0.747301
2799.21,0.745783
2800.72,0.743404
2802.24,0.741169
2803.75,0.738884
2805.27,0.737294
2806.79,0.736767
2808.31,0.736125
2809.83,0.734977
2811.35,0.733346
2812.88,0.732022
2814.41,0.731631
2815.93,0.732083
2817.46,0.731885
2819.0,0.731631
2820.53,0.731487
2822.07,0.731151
2823.6,0.730136
2825.14,0.729153
2826.68,0.728334
2828.22,0.728054
2829.77,0.727426
2831.31,0.726662
2832.86,0.725583
2834.41,0.724924
2835.96,0.724374
2837.51,0.723991
2839.07,0.723579
2840.62,0.722996
2842.18,0.722205
2843.74,0.721413
2845.3,0.720835
2846.86,0.720938
2848.43,0.720354
2849.99,0.719546
2851.56,0.718967
2853.13,0.718389
2854.7,0.718137
2856.27,0.717993
2857.85,0.717324
2859.42,0.716601
2861.0,0.716279
2862.58,0.716126
2864.16,0.71579
2865.75,0.715115
2867.33,0.714222
2868.92,0.713822
2870.51,0.713386
2872.1,0.713147
2873.69,0.713125
2875.28,0.712933
2876.88,0.71242
2878.48,0.711682
2880.07,0.710668
2881.68,0.710482
2883.28,0.711127
2884.88,0.710997
2886.49,0.710106
2888.1,0.708911
2889.71,0.708377
2891.32,0.708307
2892.93,0.707903
2894.55,0.707451
2896.16,0.706959
2897.78,0.706717
2899.4,0.706482
2901.03,0.706179
2902.65,0.705502
2904.28,0.705094
2905.91,0.70488
2907.54,0.704629
2909.17,0.704259
2910.8,0.703994
2912.44,0.703669
2914.07,0.70318
2915.71,0.70271
2917.35,0.702508
2918.99,0.701986
2920.64,0.701478
2922.29,0.700793
2923.93,0.700452
2925.58,0.700408
2927.24,0.700093
2928.89,0.699594
2930.55,0.699446
2932.2,0.699218
2933.86,0.699116
2935.52,0.698853
2937.19,0.69838
2938.85,0.698324
2940.52,0.698968
2942.19,0.698997
2943.86,0.697722
2945.53,0.697209
2947.21,0.697358
2948.88,0.697663
2950.56,0.697023
2952.24,0.696154
2953.92,0.696008
2955.61,0.695876
2957.29,0.695678
2958.98,0.695291
2960.67,0.695032
2962.36,0.694877
2964.06,0.694825
2965.75,0.694766
2967.45,0.694742
2969.15,0.695105
2970.85,0.695255
2972.55,0.694792
2974.26,0.694298
2975.97,0.694362
2977.68,0.694451
2979.39,0.694234
2981.1,0.694067
2982.82,0.694061
2984.53,0.694653
2986.25,0.695006
2987.97,0.694743
2989.7,0.694877
2991.42,0.694999
2993.15,0.695156
2994.88,0.695685
2996.61,0.695946
2998.34,0.695758
3000.08,0.695876
3001.82,0.695951
3003.55,0.696074
3005.3,0.696327
3007.04,0.696838
3008.78,0.697287
3010.53,0.697364
3012.28,0.697602
3014.03,0.697706
3015.79,0.697849
3017.54,0.697752
3019.3,0.697999
3021.06,0.698468
3022.82,0.698931
3024.58,0.699298
3026.35,0.699883
3028.12,0.699987
3029.89,0.699766
3031.66,0.699838
3033.43,0.700066
3035.21,0.700015
3036.99,0.70032
3038.77,0.700923
3040.55,0.700923
3042.33,0.700859
3044.12,0.701127
3045.91,0.701165
3047.7,0.701177
3049.49,0.701315
3051.29,0.701548
3053.08,0.701534
3054.88,0.701511
3056.68,0.701861
3058.49,0.702634
3060.29,0.702548
3062.1,0.70256
3063.91,0.702981
3065.72,0.70343
3067.54,0.703281
3069.35,0.703726
3071.17,0.704307
3072.99,0.704673
3074.81,0.704591
3076.64,0.705123
3078.47,0.705536
3080.29,0.705894
3082.13,0.70599
3083.96,0.705927
3085.79,0.706231
3087.63,0.707018
3089.47,0.707401
3091.31,0.70755
3093.16,0.708182
3095.01,0.708448
3096.85,0.707954
3098.71,0.707935
3100.56,0.708573
3102.41,0.708942
3104.27,0.709059
3106.13,0.709548
3107.99,0.709941
3109.86,0.710191
3111.73,0.710548
3113.59,0.710812
3115.47,0.710844
3117.34,0.711174
3119.21,0.71136
3121.09,0.711494
3122.97,0.711727
3124.86,0.712307
3126.74,0.712643
3128.63,0.712924
3130.52,0.713353
3132.41,0.713624
3134.3,0.713988
3136.2,0.71429
3138.1,0.714675
3140.0,0.714903
3141.9,0.715258
3143.81,0.715668
3145.71,0.715907
3147.62,0.71626
3149.54,0.716789
3151.45,0.71709
3153.37,0.717479
3155.29,0.718019
3157.21,0.718349
3159.13,0.718631
3161.06,0.719016
3162.99,0.719543
3164.92,0.719851
3166.85,0.720026
3168.79,0.720435
3170.72,0.720875
3172.67,0.721216
3174.61,0.7217
3176.55,0.721912
3178.5,0.722168
3180.45,0.722511
3182.4,0.723035
3184.36,0.723243
3186.32,0.72363
3188.27,0.724209
3190.24,0.724677
3192.2,0.725063
3194.17,0.725362
3196.14,0.725637
3198.11,0.725914
3200.08,0.726211
3202.06,0.726681
3204.04,0.727184
3206.02,0.727711
3208.0,0.728108
3209.99,0.728717
3211.98,0.729221
3213.97,0.729268
3215.96,0.729183
3217.96,0.729581
3219.96,0.730015
3221.96,0.730295
3223.96,0.730624
3225.97,0.731074
3227.98,0.731495
3229.99,0.732108
3232.0,0.732529
3234.02,0.732762
3236.04,0.732958
3238.06,0.733127
3240.08,0.733618
3242.11,0.734157
3244.14,0.734409
3246.17,0.734655
3248.2,0.734977
3250.24,0.735347
3252.28,0.735575
3254.32,0.735892
3256.37,0.736034
3258.41,0.736504
3260.46,0.736871
3262.51,0.737134
3264.57,0.737501
3266.63,0.737779
3268.69,0.738
3270.75,0.738446
3272.81,0.738705
3274.88,0.738926
3276.95,0.739431
3279.02,0.73973
3281.1,0.739831
3283.18,0.740146
3285.26,0.740694
3287.34,0.740988
3289.43,0.741083
3291.51,0.741303
3293.61,0.741572
3295.7,0.741885
3297.8,0.742392
3299.9,0.742552
3302.0,0.742606
3304.1,0.743027
3306.21,0.743265
3308.32,0.743538
3310.43,0.743615
3312.55,0.74393
3314.66,0.744234
3316.79,0.744255
3318.91,0.743985
3321.03,0.744079
3323.16,0.744551
3325.29,0.744944
3327.43,0.744848
3329.57,0.74474
3331.71,0.744822
3333.85,0.744815
3335.99,0.744546
3338.14,0.744452
3340.29,0.744123
3342.45,0.74359
3344.6,0.743234
3346.76,0.742802
3348.92,0.741945
3351.09,0.74133
3353.26,0.740955
3355.43,0.740534
3357.6,0.740287
3359.78,0.740382
3361.96,0.740137
3364.14,0.739749
3366.32,0.739283
3368.51,0.739001
3370.7,0.73863
3372.89,0.738352
3375.09,0.738242
3377.29,0.738234
3379.49,0.738434
3381.69,0.739178
3383.9,0.739928
3386.11,0.740563
3388.32,0.740704
3390.54,0.740946
3392.76,0.740763
3394.98,0.740353
3397.21,0.739872
3399.43,0.739324
3401.66,0.738634
3403.9,0.737797
3406.13,0.737084
3408.37,0.736588
3410.61,0.736226
3412.86,0.735909
3415.11,0.735502
3417.36,0.73598
3419.61,0.737019
3421.87,0.73816
3424.13,0.739451
3426.39,0.741033
3428.66,0.742515
3430.93,0.744043
3433.2,0.745003
3435.48,0.746131
3437.76,0.747256
3440.04,0.748331
3442.32,0.748911
3444.61,0.749478
3446.9,0.750052
3449.19,0.750819
3451.49,0.751467
3453.79,0.751646
3456.09,0.751863
3458.4,0.752267
3460.7,0.752328
3463.02,0.752493
3465.33,0.752323
3467.65,0.751891
3469.97,0.751143
3472.29,0.750264
3474.62,0.749478
3476.95,0.74906
3479.29,0.748956
3481.62,0.748956
3483.96,0.748986
3486.3,0.749086
3488.65,0.748975
3491.0,0.748947
3493.35,0.748676
3495.71,0.748523
3498.07,0.7483
3500.43,0.748159
3502.79,0.748699
3505.16,0.750038
3507.53,0.751835
3509.91,0.753433
3512.29,0.754906
3514.67,0.756199
3517.05,0.757436
3519.44,0.758692
3521.83,0.759654
3524.23,0.7605
3526.62,0.761697
3529.02,0.76288
3531.43,0.76359
3533.83,0.764409
3536.24,0.765195
3538.66,0.766024
3541.08,0.766648
3543.5,0.767229
3545.92,0.767915
3548.35,0.768844
3550.78,0.769642
3553.21,0.770321
3555.65,0.770808
3558.09,0.771424
3560.53,0.772169
3562.98,0.772812
3565.43,0.773468
3567.88,0.774183
3570.34,0.774676
3572.8,0.77514
3575.27,0.775525
3577.73,0.776099
3580.2,0.776609
3582.68,0.777313
3585.16,0.777877
3587.64,0.778362
3590.12,0.778625
3592.61,0.778942
3595.1,0.779218
3597.6,0.779535
3600.09,0.779881
3602.6,0.78024
3605.1,0.780379
3607.61,0.780551
3610.12,0.780946
3612.64,0.78147
3615.16,0.781503
3617.68,0.781698
3620.21,0.781927
3622.74,0.782087
3625.27,0.782075
3627.81,0.782357
3630.35,0.782627
3632.89,0.782774
3635.44,0.782856
3637.99,0.783281
3640.54,0.783524
3643.1,0.783745
3645.66,0.783677
3648.23,0.783782
3650.8,0.784027
3653.37,0.784306
3655.95,0.784485
3658.53,0.784671
3661.11,0.784768
3663.7,0.785034
3666.29,0.785322
3668.89,0.785614
3671.48,0.785729
3674.09,0.786131
3676.69,0.786228
3679.3,0.786451
3681.91,0.786538
3684.53,0.786786
3687.15,0.787232
3689.78,0.787637
3692.4,0.787856
3695.04,0.788159
3697.67,0.788232
3700.31,0.788302
3702.95,0.788683
3705.6,0.789074
3708.25,0.789137
3710.91,0.789198
3713.56,0.789434
3716.23,0.789584
3718.89,0.789845
3721.56,0.790221
3724.23,0.790456
3726.91,0.790591
3729.59,0.790706
3732.28,0.790845
3734.97,0.790976
3737.66,0.791112
3740.36,0.79119
3743.06,0.791324
3745.76,0.791472
3748.47,0.791764
3751.18,0.792006
3753.9,0.791966
3756.62,0.791912
3759.34,0.79211
3762.07,0.792211
3764.8,0.792286
3767.54,0.792143
3770.28,0.792161
3773.02,0.792229
3775.77,0.79237
3778.52,0.792375
3781.28,0.792486
3784.04,0.792411
3786.8,0.792455
3789.57,0.792418
3792.34,0.792309
3795.12,0.792154
3797.9,0.791935
3800.69,0.791745
3803.47,0.791665
3806.27,0.791562
3809.06,0.791434
3811.86,0.791101
3814.67,0.790849
3817.48,0.790623
3820.29,0.790517
3823.11,0.790282
3825.93,0.790099
3828.76,0.789755
3831.59,0.789469
3834.42,0.789327
3837.26,0.789053
3840.1,0.788733
3842.95,0.788573
3845.8,0.788401
3848.65,0.788244
3851.51,0.787989
3854.38,0.788046
3857.24,0.787947
3860.12,0.787771
3862.99,0.787693
3865.87,0.787914
3868.76,0.787978
3871.65,0.78798
3874.54,0.788011
3877.44,0.788107
3880.34,0.787945
3883.25,0.787754
3886.16,0.78763
3889.07,0.787629
3891.99,0.787554
3894.92,0.787408
3897.85,0.787263
3900.78,0.787157
3903.72,0.787122
3906.66,0.786893
3909.6,0.786439
3912.55,0.786169
3915.51,0.78588
3918.47,0.785718
3921.43,0.785409
3924.4,0.784925
3927.38,0.784438
3930.35,0.784262
3933.33,0.784045
3936.32,0.783719
3939.31,0.783128
3942.31,0.782186
3945.31,0.780725
3948.31,0.778914
3951.32,0.777002
3954.34,0.775149
3957.35,0.773272
3960.38,0.771647
3963.41,0.770192
3966.44,0.768933
3969.48,0.767763
3972.52,0.767012
3975.56,0.766544
3978.61,0.766347
3981.67,0.766415
3984.73,0.76676
3987.8,0.767231
3990.87,0.768045
3993.94,0.76899
3997.02,0.770279
4000.1,0.771793
4003.19,0.773748
4006.29,0.775801
4009.39,0.777717
4012.49,0.779493
4015.6,0.781497
4018.71,0.783281
4021.83,0.784874
4024.95,0.78595
4028.08,0.787004
4031.21,0.787942
4034.35,0.788966
4037.49,0.789918
4040.64,0.790978
4043.79,0.791653
4046.94,0.792434
4050.11,0.793165
4053.27,0.793568
4056.44,0.793862
4059.62,0.794233
4062.8,0.794534
4065.99,0.794845
4069.18,0.795049
4072.38,0.79527
4075.58,0.79535
4078.78,0.795548
4082.0,0.795593
4085.21,0.795673
4088.43,0.795705
4091.66,0.795827
4094.89,0.795712
4098.13,0.795806
4101.37,0.795788
4104.62,0.7958
4107.87,0.795908
4111.13,0.795947
4114.39,0.795825
4117.66,0.795922
4120.93,0.795981
4124.21,0.796112
4127.5,0.79598
4130.79,0.796037
4134.08,0.795884
4137.38,0.795865
4140.68,0.795851
4143.99,0.795821
4147.31,0.795846
4150.63,0.795903
4153.95,0.795837
4157.29,0.795856
4160.62,0.795733
4163.96,0.795684
4167.31,0.79555
4170.66,0.795583
4174.02,0.795353
4177.39,0.795287
4180.75,0.795178
4184.13,0.795327
4187.51,0.795275
4190.89,0.795139
4194.28,0.794929
4197.68,0.79484
4201.08,0.794703
4204.49,0.79469
4207.9,0.794449
4211.32,0.794353
4214.74,0.794162
4218.17,0.793932
4221.61,0.79369
4225.05,0.793596
4228.5,0.793339
4231.95,0.793172
4235.4,0.793125
4238.87,0.793139
4242.34,0.793001
4245.81,0.792909
4249.29,0.792747
4252.78,0.792674
4256.27,0.792495
4259.77,0.792446
4263.27,0.792159
4266.78,0.791896
4270.29,0.791761
4273.81,0.791915
4277.34,0.791909
4280.87,0.79178
4284.41,0.791571
4287.95,0.791508
4291.5,0.791427
4295.06,0.791402
4298.62,0.791246
4302.19,0.791129
4305.76,0.791077
4309.34,0.791122
4312.92,0.790964
4316.52,0.790844
4320.11,0.790687
4323.72,0.790583
4327.32,0.790459
4330.94,0.790475
4334.56,0.790266
4338.19,0.79015
4341.82,0.789922
4345.46,0.789873
4349.11,0.789857
4352.76,0.789918
4356.42,0.789725
4360.08,0.789617
4363.75,0.789469
4367.43,0.789447
4371.11,0.789316
4374.8,0.789144
4378.49,0.788899
4382.19,0.788786
4385.9,0.788664
4389.61,0.788606
4393.33,0.788458
4397.06,0.788368
4400.79,0.788185
4404.53,0.788069
4408.28,0.787747
4412.03,0.787554
4415.79,0.787439
4419.55,0.787359
4423.32,0.787006
4427.1,0.786828
4430.88,0.786682
4434.68,0.78659
4438.47,0.786334
4442.28,0.786184
4446.08,0.786054
4449.9,0.786057
4453.72,0.785816
4457.55,0.785642
4461.39,0.785424
4465.23,0.785261
4469.08,0.784989
4472.94,0.784845
4476.8,0.784556
4480.67,0.784507
4484.55,0.784279
4488.43,0.784192
4492.32,0.784006
4496.21,0.78394
4500.12,0.783714
4504.03,0.783627
4507.94,0.783604
4511.87,0.783597
4515.8,0.78343
4519.73,0.783279
4523.68,0.783001
4527.63,0.782898
4531.59,0.782743
4535.55,0.782701
4539.52,0.782487
4543.5,0.782399
4547.49,0.782272
4551.48,0.782155
4555.48,0.78176
4559.49,0.781557
4563.5,0.78132
4567.52,0.781224
4571.55,0.781045
4575.58,0.780762
4579.63,0.780342
4583.67,0.780229
4587.73,0.780128
4591.79,0.780099
4595.86,0.779876
4599.94,0.779747
4604.03,0.779638
4608.12,0.779596
4612.22,0.77925
4616.33,0.779044
4620.44,0.778783
4624.56,0.778536
4628.69,0.778188
4632.83,0.778002
4636.97,0.777623
4641.12,0.777143
4645.28,0.776621
4649.45,0.776429
4653.62,0.776141
4657.8,0.775946
4661.99,0.775758
4666.19,0.775646
4670.39,0.775561
4674.6,0.775328
4678.82,0.774897
4683.05,0.774759
4687.28,0.774669
4691.52,0.774761
4695.77,0.77466
4700.03,0.774695
4704.3,0.774636
4708.57,0.774752
4712.85,0.774763
4717.14,0.774804
4721.43,0.774843
4725.74,0.774942
4730.05,0.774951
4734.37,0.775017
4738.7,0.774926
4743.03,0.774951
4747.38,0.774888
4751.73,0.774883
4756.09,0.774784
4760.45,0.774808
4764.83,0.774608
4769.21,0.774509
4773.6,0.77446
4778.0,0.774526
4782.41,0.774418
4786.83,0.774467
4791.25,0.774262
4795.68,0.774201
4800.13,0.774218
4804.57,0.774246
4809.03,0.77406
4813.5,0.774119
4817.97,0.773919
4822.45,0.77376
4826.94,0.773649
4831.44,0.773698
4835.95,0.773592
4840.46,0.773439
4844.99,0.773195
4849.52,0.773016
4854.06,0.772932
4858.61,0.772951
4863.17,0.77268
4867.73,0.77248
4872.31,0.77224
4876.89,0.772129
4881.48,0.771908
4886.08,0.771739
4890.69,0.771427
4895.31,0.771224
4899.94,0.770912
4904.57,0.770709
4909.22,0.770281
4913.87,0.769869
4918.53,0.769491
4923.21,0.76922
4927.88,0.768753
4932.57,0.76843
4937.27,0.76816
4941.98,0.768035
4946.69,0.767696
4951.42,0.767302
4956.15,0.766829
4960.9,0.766443
4965.65,0.766069
4970.41,0.765862
4975.18,0.765484
4979.96,0.765074
4984.75,0.764654
4989.54,0.764378
4994.35,0.763965
4999.17,0.763621
5003.99,0.763186
5008.83,0.762968
5013.67,0.762713
5018.52,0.762525
5023.39,0.762154
5028.26,0.761989
5033.14,0.761723
5038.03,0.761644
5042.93,0.761469
5047.84,0.761307
5052.76,0.760905
5057.69,0.760689
5062.63,0.760501
5067.58,0.760371
5072.54,0.760099
5077.51,0.760037
5082.49,0.759804
5087.47,0.759772
5092.47,0.759698
5097.48,0.759574
5102.5,0.759292
5107.52,0.759109
5112.56,0.758856
5117.61,0.758689
5122.66,0.758398
5127.73,0.758281
5132.81,0.758092
5137.89,0.758
5142.99,0.757746
5148.1,0.75753
5153.22,0.757189
5158.34,0.757128
5163.48,0.756942
5168.63,0.756909
5173.79,0.756505
5178.96,0.756218
5184.13,0.755858
5189.32,0.755618
5194.52,0.755242
5199.73,0.754866
5204.96,0.754351
5210.19,0.754097
5215.43,0.753551
5220.68,0.753039
5225.94,0.752423
5231.22,0.751947
5236.5,0.751296
5241.79,0.750565
5247.1,0.749626
5252.42,0.74881
5257.74,0.747992
5263.08,0.747232
5268.43,0.746268
5273.79,0.745449
5279.16,0.744568
5284.54,0.743909
5289.93,0.742981
5295.34,0.74215
5300.75,0.74136
5306.18,0.74093
5311.61,0.740231
5317.06,0.739505
5322.52,0.738613
5327.99,0.737997
5333.47,0.737348
5338.96,0.736953
5344.47,0.736294
5349.98,0.735735
5355.51,0.735182
5361.05,0.734984
5366.6,0.734792
5372.16,0.734926
5377.73,0.734864
5383.32,0.734933
5388.91,0.734855
5394.52,0.735138
5400.14,0.735236
5405.77,0.735345
5411.41,0.735295
5417.07,0.735377
5422.74,0.735029
5428.41,0.734898
5434.1,0.734959
5439.81,0.734914
5445.52,0.734566
5451.25,0.734362
5456.98,0.733795
5462.73,0.733176
5468.5,0.732341
5474.27,0.731835
5480.06,0.731005
5485.86,0.73014
5491.67,0.729225
5497.49,0.728506
5503.33,0.727391
5509.18,0.726224
5515.04,0.724814
5520.91,0.723256
5526.8,0.721074
5532.69,0.718619
5538.61,0.715145
5544.53,0.710482
5550.47,0.703383
5556.41,0.694251
5562.38,0.685312
5568.35,0.67999
5574.34,0.677495
5580.34,0.675981
5586.35,0.677083
5592.38,0.681457
5598.42,0.685959
5604.47,0.689858
5610.54,0.693199
5616.61,0.69609
5622.71,0.698481
5628.81,0.701397
5634.93,0.704359
5641.06,0.706719
5647.21,0.708018
5653.36,0.709022
5659.54,0.709389
5665.72,0.709629
5671.92,0.709539
5678.13,0.708979
5684.36,0.708471
5690.6,0.708251
5696.85,0.707653
5703.12,0.707322
5709.4,0.706619
5715.69,0.705838
5722.0,0.705487
5728.33,0.705328
5734.66,0.704834
5741.01,0.704323
5747.38,0.703253
5753.76,0.702564
5760.15,0.701779
5766.56,0.700634
5772.98,0.699147
5779.41,0.698799
5785.86,0.697946
5792.33,0.697071
5798.81,0.696005
5805.3,0.69498
5811.81,0.69356
5818.33,0.691928
5824.87,0.689816
5831.42,0.688324
5837.99,0.687127
5844.57,0.685839
5851.17,0.684134
5857.78,0.682312
5864.41,0.680002
5871.05,0.677862
5877.7,0.675258
5884.38,0.672552
5891.06,0.669807
5897.76,0.66795
5904.48,0.664817
5911.21,0.662694
5917.96,0.660034
5924.73,0.657205
5931.5,0.654138
5938.3,0.651112
5945.11,0.648146
5951.93,0.646403
5958.78,0.643984
5965.63,0.64163
5972.51,0.638847
5979.39,0.636427
5986.3,0.634275
5993.22,0.63202
6000.16,0.629768
6007.11,0.6279
6014.08,0.625495
6021.06,0.623392
6028.06,0.621358
6035.08,0.619578
6042.12,0.617163
6049.17,0.614709
6056.23,0.611918
6063.32,0.610756
6070.42,0.608962
6077.53,0.606542
6084.67,0.604593
6091.82,0.602914
6098.98,0.600767
6106.17,0.598452
6113.37,0.595599
6120.58,0.592721
6127.82,0.59013
6135.07,0.587604
6142.34,0.584338
6149.63,0.581174
6156.93,0.577692
6164.25,0.574394
6171.59,0.570864
6178.95,0.567763
6186.32,0.56412
6193.71,0.560555
6201.12,0.557387
6208.54,0.554483
6215.99,0.551291
6223.45,0.548639
6230.93,0.545969
6238.43,0.543832
6245.95,0.54167
6253.48,0.540043
6261.03,0.538345
6268.6,0.537195
6276.19,0.53618
6283.8,0.53562
6291.43,0.535114
6299.07,0.535126
6306.73,0.535067
6314.42,0.535218
6322.12,0.534902
6329.84,0.534716
6337.57,0.533821
6345.33,0.532682
6353.11,0.530737
6360.9,0.528891
6368.72,0.526149
6376.55,0.523125
6384.4,0.519962
6392.27,0.516957
6400.17,0.512867
6408.08,0.508584
6416.01,0.502733
6423.96,0.495324
6431.93,0.488242
6439.92,0.480056
6447.93,0.469655
6455.96,0.458975
6464.01,0.446648
6472.08,0.434911
6480.17,0.422256
6488.28,0.410599
6496.41,0.398565
6504.56,0.386778
6512.73,0.376624
6520.92,0.368337
6529.14,0.35904
6537.37,0.351371
6545.63,0.344328
6553.9,0.338084
6562.2,0.331852
6570.51,0.327111
6578.85,0.322199
6587.21,0.318246
6595.59,0.314967
6603.99,0.312345
6612.42,0.309984
6620.86,0.308331
6629.33,0.306638
6637.82,0.305614
6646.33,0.303916
6654.86,0.303187
6663.41,0.302338
6671.99,0.301616
6680.59,0.300511
6689.21,0.299773
6697.85,0.298816
6706.51,0.298331
6715.2,0.297485
6723.91,0.297092
6732.64,0.296598
6741.4,0.296535
6750.18,0.296433
6758.98,0.296655
6767.8,0.296697
6776.65,0.297236
6785.52,0.297569
6794.41,0.298157
6803.33,0.298661
6812.27,0.299674
6821.23,0.300469
6830.22,0.301355
6839.23,0.301852
6848.26,0.302696
6857.32,0.303282
6866.4,0.304112
6875.51,0.305116
6884.64,0.306903
6893.8,0.308587
6902.98,0.310659
6912.18,0.312867
6921.41,0.315372
6930.66,0.317792
6939.94,0.320378
6949.24,0.322735
6958.57,0.32492
6967.92,0.326852
6977.3,0.329244
6986.7,0.331554
6996.13,0.334107
7005.59,0.337057
7015.07,0.340335
7024.57,0.343482
7034.1,0.346885
7043.66,0.350269
7053.25,0.354229
7062.85,0.358527
7072.49,0.362993
7082.15,0.367605
7091.84,0.372229
7101.55,0.376636
7111.3,0.380758
7121.06,0.38421
7130.86,0.386906
7140.68,0.38893
7150.53,0.390824
7160.41,0.392886
7170.31,0.39524
7180.24,0.397632
7190.2,0.399837
7200.19,0.401514
7210.2,0.402958
7220.24,0.404021
7230.31,0.404856
7240.41,0.405171
7250.54,0.40491
7260.69,0.404198
7270.88,0.403233
7281.09,0.40202
7291.33,0.400722
7301.6,0.39929
7311.9,0.397845
7322.22,0.396188
7332.58,0.394395
7342.97,0.392234
7353.38,0.389789
7363.83,0.387197
7374.3,0.384488
7384.81,0.381621
7395.34,0.378705
7405.91,0.375585
7416.5,0.372582
7427.13,0.369733
7437.78,0.36733
7448.47,0.365025
7459.19,0.36302
7469.94,0.361164
7480.71,0.359706
7491.52,0.3585
7502.37,0.357674
7513.24,0.357164
7524.14,0.356978
7535.08,0.356917
7546.05,0.357168
7557.05,0.357637
7568.08,0.358493
7579.15,0.359471
7590.24,0.360646
7601.37,0.361895
7612.53,0.363372
7623.73,0.364727
7634.96,0.366314
7646.22,0.367906
7657.51,0.369409
7668.84,0.370813
7680.2,0.372064
7691.59,0.37311
7703.02,0.374122
7714.49,0.374976
7725.98,0.375785
7737.52,0.37626
7749.08,0.376556
7760.68,0.376504
7772.32,0.3763
7783.99,0.375796
7795.69,0.375246
7807.43,0.374519
7819.21,0.37384
7831.02,0.372908
7842.87,0.372005
7854.75,0.370912
7866.67,0.369663
7878.62,0.368329
7890.62,0.36698
7902.64,0.365494
7914.71,0.363939
7926.81,0.362083
7938.95,0.360245
7951.13,0.358199
7963.34,0.356173
7975.59,0.354006
7987.88,0.351804
8000.21,0.349521
8012.57,0.347479
8024.98,0.345374
8037.42,0.343281
8049.9,0.341073
8062.42,0.338999
8074.98,0.336949
8087.57,0.334919
8100.21,0.332725
8112.89,0.330695
8125.6,0.328713
8138.36,0.326745
8151.16,0.3244
8163.99,0.322114
8176.87,0.319595
8189.79,0.316881
8202.75,0.313768
8215.75,0.310619
8228.79,0.307139
8241.87,0.303535
8254.99,0.299663
8268.16,0.295869
8281.37,0.291911
8294.62,0.288097
8307.91,0.28419
8321.24,0.280409
8334.62,0.27646
8348.04,0.272738
8361.51,0.268964
8375.02,0.265293
8388.57,0.261502
8402.16,0.258045
8415.8,0.254329
8429.49,0.25069
8443.22,0.247034
8456.99,0.243631
8470.81,0.240038
8484.67,0.236855
8498.58,0.233645
8512.54,0.230435
8526.54,0.227016
8540.58,0.223943
8554.68,0.220751
8568.82,0.217694
8583.0,0.214395
8597.24,0.211483
8611.52,0.208965
8625.85,0.206902
8640.23,0.204752
8654.65,0.202702
8669.12,0.200228
8683.64,0.197533
8698.21,0.194561
8712.83,0.191682
8727.5,0.188749
8742.22,0.186
8756.99,0.182849
8771.8,0.179956
8786.67,0.17697
8801.59,0.174378
8816.56,0.171549
8831.58,0.168835
8846.65,0.165969
8861.77,0.163327
8876.94,0.160491
8892.17,0.15806
8907.45,0.155447
8922.78,0.153121
8938.16,0.150692
8953.6,0.14851
8969.09,0.146235
8984.64,0.144511
9000.23,0.142553
9015.89,0.140853
9031.59,0.139035
9047.36,0.13768
9063.17,0.136297
9079.05,0.135166
9094.97,0.133854
9110.96,0.132883
9127.0,0.131986
9143.1,0.131276
9159.25,0.130435
9175.46,0.129894
9191.73,0.129007
9208.06,0.128588
9224.44,0.127786
9240.88,0.126867
9257.38,0.125809
9273.94,0.125493
9290.56,0.124609
9307.24,0.123709
9323.98,0.122206
9340.78,0.120759
9357.64,0.11876
9374.57,0.116646
9391.55,0.114219
9408.59,0.112209
9425.7,0.109942
9442.87,0.107997
9460.1,0.105859
9477.4,0.104189
9494.75,0.102259
9512.17,0.100585
9529.66,0.098733
9547.21,0.097019
9564.83,0.095147
9582.5,0.093506
9600.25,0.091697
9618.06,0.090341
9635.94,0.088593
9653.88,0.087199
9671.89,0.085781
9689.97,0.084473
9708.12,0.082825
9726.33,0.08159
9744.62,0.080056
9762.97,0.078754
9781.39,0.077114
9799.88,0.075962
9818.44,0.074558
9837.07,0.073237
9855.77,0.071628
9874.54,0.070294
9893.39,0.068596
9912.3,0.067172
9931.29,0.065546
9950.36,0.06414
9969.49,0.062612
9988.7,0.061328
10007.98,0.059467
10027.34,0.058096
10046.77,0.056586
10066.28,0.055272
10085.87,0.05367
10105.53,0.052184
10125.26,0.05031
10145.08,0.048936
10164.97,0.047424
10184.94,0.046105
10204.99,0.044437
10225.12,0.042909
10245.33,0.041187
10265.61,0.039887
10285.98,0.038396
10306.43,0.037235
10326.96,0.035925
10347.57,0.03488
10368.27,0.03345
10389.05,0.032228
10409.91,0.030655
10430.86,0.029577
10451.88,0.028375
10473.0,0.027421
10494.2,0.02632
10515.49,0.025462
10536.86,0.024458
10558.32,0.023815
10579.87,0.022727
10601.5,0.022017
10623.23,0.021087
10645.04,0.020358
10666.94,0.019408
10688.94,0.018738
10711.02,0.017763
10733.2,0.017139
10755.47,0.01638
10777.83,0.015731
10800.28,0.014865
10822.83,0.014473
10845.47,0.013964
10868.21,0.013482
10891.04,0.012685
10913.97,0.012175
10936.99,0.011511
10960.12,0.011178
10983.34,0.010545
11006.66,0.010211
11030.07,0.009576
11053.59,0.009498
11077.21,0.009124
11100.93,0.008802
11124.75,0.008268
11148.68,0.008231
11172.71,0.007904
11196.84,0.00778
11221.07,0.007382
11245.41,0.007267
11269.86,0.006888
11294.41,0.00681
11319.07,0.00665
11343.84,0.006879
11368.72,0.006966
11393.7,0.007271
11418.8,0.006958
11444.01,0.007111
11469.33,0.007252
11494.76,0.007593
11520.3,0.007819
11545.96,0.008381
11571.73,0.008398
11597.62,0.008669
11623.62,0.0088
11649.74,0.009057
11675.98,0.009301
11702.34,0.010079
11728.81,0.010502
11755.41,0.011424
11782.13,0.012006
11808.96,0.012713
11835.92,0.013597
11863.01,0.014903
11890.22,0.015914
11917.55,0.017285
11945.01,0.018553
11972.6,0.020203
12000.31,0.021697
12028.16,0.023757
12056.13,0.025333
12084.23,0.02743
12112.46,0.029479
12140.83,0.031765
12169.33,0.033966
12197.96,0.036734
12226.73,0.039262
12255.64,0.042178
12284.68,0.045073
12313.86,0.048252
12343.18,0.051185
12372.64,0.054333
12402.24,0.057469
12431.98,0.060928
12461.86,0.06367
12491.89,0.066421
12522.07,0.068834
12552.38,0.07155
12582.85,0.073864
12613.47,0.075454
12644.23,0.076272
12675.15,0.077065
12706.21,0.077371
12737.43,0.077369
12768.81,0.07671
12800.33,0.07611
12832.02,0.074697
12863.86,0.073662
12895.86,0.072613
12928.02,0.071665
12960.34,0.070285
12992.82,0.068912
13025.46,0.06758
13058.27,0.066805
13091.25,0.065659
13124.39,0.064688
13157.7,0.063587
13191.18,0.062477
13224.83,0.061205
13258.66,0.060643
13292.65,0.059963
13326.83,0.059406
13361.17,0.058539
13395.7,0.058026
13430.4,0.057088
13465.29,0.056789
13500.35,0.05633
13535.6,0.056161
13571.03,0.055711
13606.65,0.055385
13642.46,0.054684
13678.46,0.05442
13714.64,0.053852
13751.02,0.053578
13787.59,0.052915
13824.36,0.052567
13861.32,0.052156
13898.49,0.051954
13935.85,0.051295
13973.41,0.050856
14011.17,0.050354
14049.15,0.049879
14087.32,0.049031
14125.71,0.048826
14164.3,0.048158
14203.11,0.047667
14242.13,0.046964
14281.36,0.046784
14320.81,0.046486
14360.49,0.046209
14400.38,0.045743
14440.49,0.045621
14480.82,0.044992
14521.39,0.044967
14562.18,0.044882
14603.2,0.04471
14644.45,0.044073
14685.93,0.044042
14727.66,0.043955
14769.62,0.0442
14811.81,0.043944
14854.25,0.044099
14896.94,0.043918
14939.87,0.044007
14983.05,0.043934
15026.48,0.044085
15070.16,0.043765
15114.1,0.043744
15158.29,0.043824
15202.74,0.044238
15247.46,0.044005
15292.43,0.043869
15337.68,0.043702
15383.19,0.044064
15428.97,0.044003
15475.03,0.044056
15521.36,0.044
15567.97,0.044125
15614.87,0.043944
15662.04,0.04417
15709.5,0.044236
15757.25,0.044649
15805.29,0.044767
15853.62,0.044751
15902.26,0.044743
15951.19,0.045465
16000.42,0.045501
16049.95,0.045296
16099.8,0.045256
16149.95,0.046015
16200.42,0.046002
16251.21,0.046079
16302.31,0.046062
16353.74,0.046204
16405.49,0.045935
16457.57,0.046338
16509.98,0.046117
16562.73,0.046601
16615.82,0.046695
16669.24,0.04675
16723.02,0.046975
16777.14,0.047559
16831.61,0.047165
16886.43,0.047236
16941.62,0.04769
16997.16,0.048189
17053.08,0.048064
17109.36,0.048468
17166.01,0.048221
17223.04,0.048388
17280.45,0.048402
17338.24,0.048805
17396.43,0.048715
17455.0,0.048969
17513.97,0.048798
17573.34,0.048873
17633.11,0.048816
17693.29,0.04883
17753.89,0.048556
17814.9,0.048817
17876.33,0.049585
17938.18,0.050018
18000.47,0.048732
18063.19,0.048588
18126.35,0.048127
18189.95,0.047735
18254.0,0.047212
18318.5,0.046726
18383.46,0.045973
18448.88,0.045722
18514.77,0.045548
18581.13,0.045435
18647.97,0.044374
18715.29,0.043768
18783.1,0.042878
18851.4,0.04231
18920.2,0.041098
18989.51,0.039803
19059.32,0.037973
19129.65,0.036435
19200.5,0.034492
19271.88,0.032101
19343.79,0.029648
19416.24,0.027983
19489.23,0.025539
19562.77,0.023164
19636.88,0.019994
19711.54,0.01781
19786.78,0.01662
19862.59,0.016271
19938.98,0.015677
20015.96,0.016201
20093.55,0.01684
20171.73,0.017462
20250.53,0.017584
20329.94,0.018583
20409.98,0.019122
20490.65,0.021107
20571.96,0.02299
20653.92,0.024731
20736.54,0.026195
20819.82,0.028542
20903.77,0.031096
20988.4,0.033982
21073.72,0.035699
21159.73,0.038304
21246.46,0.039527
21333.89,0.04162
21422.04,0.043125
21510.93,0.044417
21600.56,0.045077
21690.94,0.046382
21782.08,0.045291
21873.99,0.044884
21966.67,0.044614
22060.15,0.045089
22154.42,0.045014
22249.51,0.045745
22345.41,0.045802
22442.14,0.046712
22539.72,0.044652
22638.14,0.045002
22737.43,0.043842
22837.6,0.041808
22938.65,0.040433
23040.6,0.039577
23143.46,0.037402
23247.24,0.036052
23351.96,0.034951
23457.63,0.037378
23564.25,0.038685
23671.85,0.039763
23780.44,0.040177
23890.02,0.04213
24000.63,0.042869
24112.26,0.042505
24224.93,0.042923
24338.66,0.045567
24453.47,0.047192
24569.36,0.048583
24686.36,0.046611
24804.47,0.049044
24923.73,0.052786
25044.13,0.057725
25165.71,0.058743
25288.46,0.065373
25412.43,0.060777
25537.61,0.057635
25664.04,0.057744
25791.72,0.059677
25920.68,0.059406
