Database of Origin,University of Winnipeg Spectrophotometer Facility
Sample Description,"RELAB plus Nicolet merged plagioclase data. Merged @2500nm, different viewing geometries. See Master Plagioclase in PSF sample database for more information"
Date Added,2016-11-22 03:59:29.810510

Data ID,RLA_PLG_07          
Sample ID,PLG107
Mineral Name,Andesine
Grain Size,<45
Viewing Geometry,"30/0,30"
Resolution,"5,0.6-129"
Composition,An49
Material Class,Tectosilicate

Wavelength
300.0,0.185043
305.0,0.201144
310.0,0.215419
315.0,0.228626
320.0,0.239787
325.0,0.249103
330.0,0.257236
335.0,0.26424
340.0,0.270191
345.0,0.275885
350.0,0.28128
355.0,0.28672
360.0,0.291875
365.0,0.296595
370.0,0.301427
375.0,0.305467
380.0,0.309437
385.0,0.313806
390.0,0.319025
395.0,0.323784
400.0,0.327759
405.0,0.331717
410.0,0.334732
415.0,0.33774
420.0,0.340973
425.0,0.344075
430.0,0.347663
435.0,0.351023
440.0,0.354066
445.0,0.35709
450.0,0.359805
455.0,0.362254
460.0,0.365042
465.0,0.367242
470.0,0.369692
475.0,0.371539
480.0,0.373929
485.0,0.37583
490.0,0.37856
495.0,0.381053
500.0,0.383734
505.0,0.386758
510.0,0.390225
515.0,0.393491
520.0,0.396677
525.0,0.400203
530.0,0.403991
535.0,0.407745
540.0,0.412327
545.0,0.417538
550.0,0.423558
555.0,0.429608
560.0,0.436853
565.0,0.443719
570.0,0.451709
575.0,0.45985
580.0,0.467638
585.0,0.475222
590.0,0.481982
595.0,0.48892
600.0,0.494436
605.0,0.499515
610.0,0.503741
615.0,0.507662
620.0,0.511394
625.0,0.514279
630.0,0.51738
635.0,0.52047
640.0,0.523184
645.0,0.526105
650.0,0.528965
655.0,0.531645
660.0,0.533883
665.0,0.5369
670.0,0.539518
675.0,0.542266
680.0,0.54476
685.0,0.547298
690.0,0.549668
695.0,0.551667
700.0,0.553904
705.0,0.557169
710.0,0.559062
715.0,0.561662
720.0,0.564235
725.0,0.565451
730.0,0.567848
735.0,0.569667
740.0,0.571799
745.0,0.572354
750.0,0.573531
755.0,0.574683
760.0,0.575657
765.0,0.576187
770.0,0.57669
775.0,0.57729
780.0,0.577675
785.0,0.578811
790.0,0.578989
795.0,0.579479
800.0,0.5797
805.0,0.579964
810.0,0.580298
815.0,0.580612
820.0,0.581009
825.0,0.581995
830.0,0.582423
835.0,0.581765
840.0,0.582304
845.0,0.582471
850.0,0.582609
855.0,0.58268
860.0,0.583462
865.0,0.582808
870.0,0.5833
875.0,0.583341
880.0,0.582645
885.0,0.582972
890.0,0.583147
895.0,0.580721
900.0,0.579229
905.0,0.578545
910.0,0.576545
915.0,0.574827
920.0,0.577785
925.0,0.579921
930.0,0.580514
935.0,0.582081
940.0,0.583558
945.0,0.581415
950.0,0.580951
955.0,0.582186
960.0,0.583511
965.0,0.584691
970.0,0.586291
975.0,0.586253
980.0,0.586216
985.0,0.585393
990.0,0.584153
995.0,0.584838
1000.0,0.583398
1005.0,0.582903
1010.0,0.583445
1015.0,0.586365
1020.0,0.586438
1025.0,0.588821
1030.0,0.587972
1035.0,0.588706
1040.0,0.588001
1045.0,0.586727
1050.0,0.585699
1055.0,0.585887
1060.0,0.585163
1065.0,0.584784
1070.0,0.586711
1075.0,0.587499
1080.0,0.588661
1085.0,0.588413
1090.0,0.589015
1095.0,0.587271
1100.0,0.586806
1105.0,0.586848
1110.0,0.588204
1115.0,0.588095
1120.0,0.589906
1125.0,0.590281
1130.0,0.590281
1135.0,0.591113
1140.0,0.590837
1145.0,0.590304
1150.0,0.591277
1155.0,0.591011
1160.0,0.58991
1165.0,0.59076
1170.0,0.591563
1175.0,0.591014
1180.0,0.591548
1185.0,0.591296
1190.0,0.590157
1195.0,0.589222
1200.0,0.588116
1205.0,0.587209
1210.0,0.586888
1215.0,0.587091
1220.0,0.587097
1225.0,0.587642
1230.0,0.588
1235.0,0.587242
1240.0,0.58772
1245.0,0.588362
1250.0,0.588459
1255.0,0.587894
1260.0,0.588537
1265.0,0.588475
1270.0,0.5879
1275.0,0.587679
1280.0,0.588514
1285.0,0.588571
1290.0,0.588646
1295.0,0.588441
1300.0,0.588142
1305.0,0.587607
1310.0,0.587411
1315.0,0.587819
1320.0,0.588389
1325.0,0.589045
1330.0,0.588773
1335.0,0.589323
1340.0,0.5897
1345.0,0.589351
1350.0,0.58927
1355.0,0.589558
1360.0,0.590368
1365.0,0.590264
1370.0,0.59097
1375.0,0.591043
1380.0,0.591683
1385.0,0.591361
1390.0,0.591714
1395.0,0.591768
1400.0,0.591373
1405.0,0.591419
1410.0,0.591466
1415.0,0.591442
1420.0,0.590401
1425.0,0.590104
1430.0,0.589985
1435.0,0.59053
1440.0,0.590946
1445.0,0.591711
1450.0,0.591951
1455.0,0.592433
1460.0,0.592513
1465.0,0.593062
1470.0,0.593472
1475.0,0.594422
1480.0,0.594899
1485.0,0.595709
1490.0,0.595509
1495.0,0.595791
1500.0,0.596157
1505.0,0.597066
1510.0,0.596934
1515.0,0.597948
1520.0,0.598191
1525.0,0.598128
1530.0,0.597937
1535.0,0.598428
1540.0,0.598664
1545.0,0.599614
1550.0,0.60049
1555.0,0.6006
1560.0,0.600837
1565.0,0.601481
1570.0,0.601717
1575.0,0.601192
1580.0,0.601077
1585.0,0.601537
1590.0,0.601292
1595.0,0.601209
1600.0,0.602168
1605.0,0.602591
1610.0,0.602833
1615.0,0.603225
1620.0,0.603916
1625.0,0.603936
1630.0,0.604653
1635.0,0.604936
1640.0,0.605172
1645.0,0.604543
1650.0,0.604244
1655.0,0.603618
1660.0,0.603534
1665.0,0.604676
1670.0,0.605335
1675.0,0.604948
1680.0,0.604688
1685.0,0.604643
1690.0,0.604684
1695.0,0.605457
1700.0,0.606108
1705.0,0.606197
1710.0,0.606364
1715.0,0.606163
1720.0,0.606304
1725.0,0.606529
1730.0,0.606928
1735.0,0.606866
1740.0,0.607139
1745.0,0.60675
1750.0,0.606774
1755.0,0.606927
1760.0,0.607175
1765.0,0.607603
1770.0,0.607557
1775.0,0.607797
1780.0,0.607943
1785.0,0.607477
1790.0,0.607322
1795.0,0.607219
1800.0,0.60751
1805.0,0.607081
1810.0,0.607127
1815.0,0.607062
1820.0,0.607303
1825.0,0.606931
1830.0,0.60753
1835.0,0.608235
1840.0,0.60888
1845.0,0.609478
1850.0,0.610141
1855.0,0.609516
1860.0,0.608252
1865.0,0.608374
1870.0,0.608308
1875.0,0.607548
1880.0,0.607181
1885.0,0.607085
1890.0,0.6047
1895.0,0.602499
1900.0,0.600935
1905.0,0.600025
1910.0,0.599518
1915.0,0.599411
1920.0,0.600323
1925.0,0.601578
1930.0,0.602146
1935.0,0.602359
1940.0,0.605029
1945.0,0.604855
1950.0,0.604635
1955.0,0.605386
1960.0,0.606688
1965.0,0.605646
1970.0,0.606746
1975.0,0.607856
1980.0,0.608067
1985.0,0.608198
1990.0,0.608723
1995.0,0.608679
2000.0,0.608845
2005.0,0.608628
2010.0,0.608837
2015.0,0.608774
2020.0,0.609013
2025.0,0.609038
2030.0,0.609429
2035.0,0.609657
2040.0,0.609122
2045.0,0.60883
2050.0,0.608778
2055.0,0.60911
2060.0,0.608346
2065.0,0.609022
2070.0,0.609186
2075.0,0.609348
2080.0,0.609553
2085.0,0.610142
2090.0,0.610499
2095.0,0.610784
2100.0,0.610779
2105.0,0.610258
2110.0,0.610606
2115.0,0.610869
2120.0,0.61064
2125.0,0.610473
2130.0,0.611615
2135.0,0.610594
2140.0,0.610323
2145.0,0.610741
2150.0,0.611105
2155.0,0.610187
2160.0,0.611666
2165.0,0.610776
2170.0,0.611043
2175.0,0.611391
2180.0,0.611863
2185.0,0.611735
2190.0,0.613167
2195.0,0.613248
2200.0,0.612676
2205.0,0.612235
2210.0,0.612073
2215.0,0.612127
2220.0,0.61201
2225.0,0.612389
2230.0,0.612473
2235.0,0.612539
2240.0,0.610973
2245.0,0.610592
2250.0,0.609803
2255.0,0.610137
2260.0,0.60965
2265.0,0.610558
2270.0,0.611399
2275.0,0.612067
2280.0,0.612216
2285.0,0.61196
2290.0,0.612842
2295.0,0.613154
2300.0,0.613024
2305.0,0.612746
2310.0,0.613135
2315.0,0.612443
2320.0,0.611827
2325.0,0.611349
2330.0,0.612354
2335.0,0.613151
2340.0,0.612992
2345.0,0.612157
2350.0,0.613359
2355.0,0.612507
2360.0,0.611974
2365.0,0.611701
2370.0,0.613318
2375.0,0.612548
2380.0,0.612432
2385.0,0.612518
2390.0,0.613199
2395.0,0.611651
2400.0,0.612505
2405.0,0.612364
2410.0,0.611333
2415.0,0.611056
2420.0,0.612038
2425.0,0.611363
2430.0,0.611628
2435.0,0.612582
2440.0,0.612473
2445.0,0.61086
2450.0,0.61005
2455.0,0.608715
2460.0,0.607805
2465.0,0.606722
2470.0,0.607085
2475.0,0.607087
2480.0,0.607678
2485.0,0.607291
2490.0,0.607754
2495.0,0.608194
2500.0,0.607463
2505.0,0.607721
2510.0,0.608446
2515.0,0.607737
2520.0,0.607105
2525.0,0.606561
2530.08,0.606667
2535.03,0.606807
2540.0,0.608205
2544.99,0.606056
2549.99,0.606561
2552.5,0.605709
2553.76,0.605234
2555.02,0.607573
2556.28,0.607645
2557.54,0.606824
2558.8,0.606395
2560.07,0.604916
2561.33,0.602107
2562.6,0.602336
2563.86,0.604357
2565.13,0.60577
2566.4,0.607456
2567.67,0.607421
2568.95,0.604485
2570.22,0.602488
2571.5,0.605694
2572.77,0.606352
2574.05,0.601016
2575.33,0.604492
2576.61,0.605646
2577.89,0.603268
2579.17,0.606101
2580.46,0.605997
2581.74,0.602593
2583.03,0.603321
2584.31,0.600116
2585.6,0.604224
2586.89,0.6069
2588.19,0.603593
2589.48,0.604591
2590.77,0.605827
2592.07,0.605127
2593.36,0.60213
2594.66,0.594592
2595.96,0.595415
2597.26,0.610306
2598.56,0.612346
2599.87,0.607269
2601.17,0.603303
2602.48,0.601494
2603.78,0.601418
2605.09,0.600138
2606.4,0.600067
2607.71,0.604693
2609.03,0.605828
2610.34,0.603953
2611.65,0.604562
2612.97,0.604666
2614.29,0.603137
2615.61,0.602835
2616.93,0.599122
2618.25,0.600752
2619.57,0.606025
2620.9,0.601021
2622.22,0.603993
2623.55,0.607866
2624.88,0.604861
2626.21,0.60082
2627.54,0.598618
2628.87,0.603919
2630.21,0.60078
2631.54,0.598729
2632.88,0.606217
2634.21,0.604955
2635.55,0.603635
2636.89,0.604812
2638.24,0.603678
2639.58,0.603227
2640.92,0.60228
2642.27,0.601069
2643.62,0.601473
2644.97,0.60163
2646.32,0.600287
2647.67,0.602155
2649.02,0.603441
2650.38,0.602071
2651.73,0.600111
2653.09,0.597965
2654.45,0.600208
2655.81,0.601045
2657.17,0.600803
2658.53,0.601144
2659.89,0.597652
2661.26,0.597041
2662.63,0.598465
2664.0,0.597696
2665.36,0.591458
2666.74,0.590494
2668.11,0.594837
2669.48,0.596228
2670.86,0.586629
2672.23,0.589081
2673.61,0.593667
2674.99,0.585794
2676.37,0.577684
2677.76,0.575185
2679.14,0.577777
2680.52,0.577027
2681.91,0.577656
2683.3,0.573123
2684.69,0.569983
2686.08,0.569422
2687.47,0.567809
2688.87,0.566447
2690.26,0.564533
2691.66,0.561614
2693.06,0.55772
2694.46,0.552558
2695.86,0.553388
2697.26,0.554225
2698.66,0.552225
2700.07,0.547823
2701.48,0.542871
2702.89,0.54059
2704.3,0.540395
2705.71,0.536976
2707.12,0.53365
2708.53,0.529482
2709.95,0.525125
2711.37,0.52198
2712.79,0.524355
2714.21,0.525444
2715.63,0.520806
2717.05,0.516856
2718.48,0.51351
2719.9,0.509671
2721.33,0.505006
2722.76,0.508669
2724.19,0.506309
2725.62,0.500899
2727.06,0.503724
2728.49,0.502666
2729.93,0.498625
2731.37,0.495907
2732.81,0.493938
2734.25,0.490753
2735.69,0.487711
2737.14,0.488727
2738.58,0.486604
2740.03,0.480733
2741.48,0.480688
2742.93,0.484511
2744.38,0.485446
2745.83,0.482325
2747.29,0.479722
2748.75,0.478432
2750.2,0.477269
2751.66,0.475518
2753.13,0.474288
2754.59,0.472188
2756.05,0.468434
2757.52,0.473178
2758.99,0.47587
2760.46,0.471716
2761.93,0.467763
2763.4,0.465212
2764.87,0.467255
2766.35,0.468449
2767.82,0.465862
2769.3,0.464748
2770.78,0.464757
2772.26,0.46402
2773.75,0.46529
2775.23,0.464991
2776.72,0.463652
2778.21,0.462345
2779.7,0.461689
2781.19,0.460498
2782.68,0.459591
2784.18,0.459335
2785.67,0.458418
2787.17,0.455719
2788.67,0.456517
2790.17,0.45869
2791.67,0.457878
2793.18,0.45594
2794.68,0.45513
2796.19,0.454352
2797.7,0.453569
2799.21,0.453359
2800.72,0.452671
2802.24,0.450522
2803.75,0.449025
2805.27,0.45053
2806.79,0.451263
2808.31,0.449764
2809.83,0.448949
2811.35,0.448462
2812.88,0.447894
2814.41,0.446793
2815.93,0.446176
2817.46,0.445999
2819.0,0.444664
2820.53,0.443715
2822.07,0.444015
2823.6,0.444096
2825.14,0.44331
2826.68,0.442578
2828.22,0.441903
2829.77,0.441026
2831.31,0.440297
2832.86,0.439607
2834.41,0.438893
2835.96,0.438194
2837.51,0.43793
2839.07,0.4374
2840.62,0.437208
2842.18,0.436525
2843.74,0.435496
2845.3,0.43494
2846.86,0.434965
2848.43,0.434505
2849.99,0.433943
2851.56,0.433406
2853.13,0.432351
2854.7,0.431243
2856.27,0.43132
2857.85,0.430919
2859.42,0.429958
2861.0,0.429598
2862.58,0.42978
2864.16,0.429236
2865.75,0.428167
2867.33,0.427494
2868.92,0.427406
2870.51,0.427332
2872.1,0.426783
2873.69,0.426255
2875.28,0.426288
2876.88,0.425658
2878.48,0.425115
2880.07,0.424986
2881.68,0.424412
2883.28,0.423644
2884.88,0.423095
2886.49,0.422886
2888.1,0.422723
2889.71,0.422233
2891.32,0.422147
2892.93,0.421842
2894.55,0.421688
2896.16,0.421445
2897.78,0.421478
2899.4,0.421173
2901.03,0.420491
2902.65,0.420326
2904.28,0.420469
2905.91,0.420003
2907.53,0.419926
2909.17,0.419605
2910.8,0.419325
2912.44,0.41889
2914.07,0.418303
2915.71,0.418133
2917.35,0.418671
2918.99,0.418603
2920.64,0.418531
2922.29,0.418411
2923.93,0.418264
2925.58,0.418026
2927.24,0.418002
2928.89,0.418105
2930.55,0.418085
2932.2,0.417679
2933.86,0.417323
2935.52,0.417424
2937.19,0.417709
2938.85,0.41769
2940.52,0.417665
2942.19,0.417414
2943.86,0.417446
2945.53,0.417616
2947.21,0.417891
2948.88,0.41772
2950.56,0.417858
2952.24,0.418182
2953.92,0.418653
2955.61,0.41831
2957.29,0.418315
2958.98,0.418387
2960.67,0.418726
2962.36,0.418995
2964.06,0.419367
2965.75,0.419458
2967.45,0.419449
2969.15,0.419575
2970.85,0.41958
2972.55,0.419645
2974.26,0.420213
2975.97,0.420403
2977.68,0.420951
2979.39,0.421393
2981.1,0.421264
2982.82,0.421252
2984.53,0.422059
2986.25,0.42229
2987.97,0.422374
2989.7,0.422526
2991.42,0.42314
2993.15,0.423494
2994.88,0.423789
2996.61,0.424156
2998.34,0.424413
3000.08,0.424687
3001.82,0.425057
3003.55,0.425507
3005.3,0.426331
3007.04,0.426566
3008.78,0.426916
3010.53,0.427441
3012.28,0.427952
3014.03,0.428204
3015.79,0.428634
3017.54,0.428752
3019.3,0.428936
3021.06,0.429633
3022.82,0.430086
3024.58,0.430332
3026.35,0.431006
3028.12,0.431681
3029.89,0.432121
3031.66,0.432219
3033.43,0.432546
3035.21,0.43328
3036.99,0.434305
3038.77,0.434654
3040.55,0.434831
3042.33,0.43509
3044.12,0.435766
3045.91,0.436157
3047.7,0.436511
3049.49,0.437039
3051.29,0.437565
3053.08,0.437726
3054.88,0.438057
3056.68,0.438854
3058.49,0.439254
3060.29,0.439357
3062.1,0.439987
3063.91,0.440941
3065.72,0.441377
3067.54,0.441511
3069.35,0.442298
3071.17,0.442822
3072.99,0.443322
3074.81,0.443933
3076.64,0.444564
3078.46,0.444933
3080.29,0.445505
3082.13,0.44597
3083.96,0.446655
3085.79,0.44714
3087.63,0.447432
3089.47,0.44786
3091.31,0.448627
3093.16,0.449561
3095.01,0.450352
3096.85,0.450638
3098.71,0.4513
3100.56,0.451923
3102.41,0.452375
3104.27,0.453026
3106.13,0.453669
3107.99,0.45432
3109.86,0.45521
3111.73,0.455739
3113.59,0.456352
3115.47,0.457209
3117.34,0.458141
3119.21,0.458793
3121.09,0.459623
3122.97,0.460241
3124.86,0.460976
3126.74,0.4616
3128.63,0.462084
3130.52,0.462788
3132.41,0.4638
3134.3,0.4645
3136.2,0.465172
3138.1,0.466088
3140.0,0.46708
3141.9,0.467826
3143.81,0.468642
3145.71,0.469158
3147.62,0.469844
3149.54,0.470625
3151.45,0.471278
3153.37,0.471805
3155.29,0.472796
3157.21,0.473548
3159.13,0.474089
3161.06,0.474985
3162.99,0.475935
3164.92,0.476791
3166.85,0.477846
3168.79,0.478625
3170.72,0.479209
3172.67,0.479637
3174.61,0.480398
3176.55,0.481369
3178.5,0.482428
3180.45,0.483455
3182.4,0.484466
3184.36,0.485192
3186.32,0.485691
3188.27,0.486494
3190.24,0.487479
3192.2,0.488245
3194.17,0.489122
3196.14,0.49005
3198.11,0.490683
3200.08,0.491267
3202.06,0.491916
3204.04,0.492522
3206.02,0.493489
3208.0,0.494365
3209.99,0.495068
3211.98,0.495788
3213.97,0.49678
3215.96,0.497455
3217.96,0.498226
3219.96,0.498932
3221.96,0.499568
3223.96,0.500362
3225.97,0.501414
3227.98,0.502031
3229.99,0.502673
3232.0,0.503315
3234.02,0.504377
3236.04,0.50527
3238.06,0.505964
3240.08,0.506172
3242.11,0.506627
3244.14,0.507684
3246.17,0.508611
3248.2,0.509157
3250.24,0.509942
3252.28,0.510606
3254.32,0.511304
3256.37,0.512038
3258.41,0.512881
3260.46,0.513481
3262.51,0.514114
3264.57,0.51471
3266.63,0.515598
3268.69,0.516482
3270.75,0.51751
3272.81,0.518207
3274.88,0.518863
3276.95,0.519383
3279.02,0.519924
3281.1,0.520652
3283.18,0.521359
3285.26,0.521953
3287.34,0.522719
3289.43,0.523484
3291.51,0.524539
3293.61,0.524924
3295.7,0.525258
3297.8,0.525825
3299.89,0.526717
3302.0,0.527512
3304.1,0.528072
3306.21,0.528397
3308.32,0.529071
3310.43,0.529647
3312.55,0.530208
3314.66,0.530647
3316.78,0.531251
3318.91,0.531821
3321.03,0.53238
3323.16,0.532549
3325.29,0.532739
3327.43,0.532801
3329.57,0.533136
3331.71,0.533232
3333.85,0.533324
3335.99,0.533073
3338.14,0.532901
3340.29,0.532676
3342.45,0.532442
3344.6,0.532099
3346.76,0.53181
3348.92,0.530991
3351.09,0.530095
3353.26,0.529554
3355.43,0.528922
3357.6,0.52782
3359.78,0.526955
3361.96,0.525849
3364.14,0.524556
3366.32,0.522908
3368.51,0.520634
3370.7,0.518025
3372.89,0.515666
3375.09,0.513101
3377.29,0.510821
3379.49,0.50879
3381.69,0.507657
3383.9,0.507451
3386.11,0.507749
3388.32,0.508395
3390.54,0.508834
3392.76,0.508341
3394.98,0.506949
3397.21,0.504116
3399.43,0.499797
3401.66,0.494258
3403.9,0.487822
3406.13,0.480149
3408.37,0.472125
3410.61,0.463897
3412.86,0.456242
3415.11,0.448989
3417.36,0.442953
3419.61,0.439302
3421.87,0.438859
3424.13,0.441817
3426.39,0.44838
3428.66,0.457064
3430.93,0.466652
3433.2,0.476449
3435.48,0.485477
3437.76,0.49322
3440.04,0.499662
3442.32,0.505119
3444.61,0.509466
3446.9,0.512956
3449.19,0.516385
3451.49,0.519612
3453.79,0.522946
3456.09,0.526172
3458.4,0.529414
3460.7,0.532568
3463.02,0.535634
3465.33,0.538025
3467.65,0.539959
3469.97,0.54131
3472.29,0.542328
3474.62,0.542703
3476.95,0.542338
3479.29,0.541201
3481.62,0.540182
3483.96,0.539355
3486.3,0.53875
3488.65,0.537662
3491.0,0.53519
3493.35,0.530918
3495.71,0.525052
3498.07,0.517618
3500.43,0.509543
3502.79,0.502303
3505.16,0.498028
3507.53,0.498775
3509.91,0.505226
3512.29,0.515824
3514.67,0.528434
3517.05,0.540427
3519.44,0.550355
3521.83,0.558316
3524.22,0.564396
3526.62,0.568845
3529.02,0.572104
3531.43,0.574691
3533.83,0.576908
3536.24,0.578601
3538.66,0.58024
3541.08,0.581751
3543.5,0.583135
3545.92,0.584324
3548.35,0.585354
3550.78,0.586164
3553.21,0.58718
3555.65,0.587948
3558.09,0.588916
3560.53,0.589704
3562.98,0.590629
3565.43,0.591393
3567.88,0.592155
3570.34,0.592871
3572.8,0.593727
3575.27,0.594223
3577.73,0.594905
3580.2,0.59553
3582.68,0.596111
3585.16,0.596489
3587.64,0.597075
3590.12,0.597675
3592.61,0.598285
3595.1,0.598799
3597.6,0.599494
3600.09,0.600102
3602.6,0.600493
3605.1,0.600759
3607.61,0.601303
3610.12,0.60188
3612.64,0.602549
3615.16,0.602853
3617.68,0.60306
3620.21,0.603536
3622.74,0.60399
3625.27,0.604332
3627.81,0.604751
3630.35,0.605074
3632.89,0.605432
3635.44,0.605695
3637.99,0.60615
3640.54,0.606691
3643.1,0.607108
3645.66,0.607239
3648.23,0.607636
3650.8,0.608185
3653.37,0.608594
3655.95,0.608668
3658.53,0.608948
3661.11,0.609273
3663.7,0.609658
3666.29,0.609988
3668.89,0.610424
3671.48,0.610682
3674.09,0.611059
3676.69,0.611504
3679.3,0.611919
3681.91,0.612181
3684.53,0.612697
3687.15,0.6131
3689.78,0.613295
3692.4,0.61352
3695.04,0.61394
3697.67,0.614468
3700.31,0.614929
3702.95,0.615144
3705.6,0.615393
3708.25,0.615639
3710.91,0.615941
3713.56,0.616124
3716.23,0.616559
3718.89,0.616848
3721.56,0.617092
3724.23,0.61736
3726.91,0.617636
3729.59,0.617841
3732.28,0.617987
3734.97,0.618177
3737.66,0.618626
3740.36,0.619067
3743.06,0.619405
3745.76,0.619429
3748.47,0.61978
3751.18,0.620148
3753.9,0.620494
3756.62,0.620791
3759.34,0.621154
3762.07,0.621549
3764.8,0.62193
3767.54,0.622267
3770.28,0.622765
3773.02,0.62297
3775.77,0.623263
3778.52,0.62345
3781.28,0.623921
3784.04,0.624145
3786.8,0.624422
3789.57,0.624802
3792.34,0.625239
3795.12,0.625302
3797.9,0.625423
3800.69,0.625893
3803.47,0.626239
3806.27,0.626332
3809.06,0.626592
3811.86,0.626799
3814.67,0.627179
3817.48,0.627435
3820.29,0.627746
3823.11,0.62803
3825.93,0.628386
3828.76,0.628614
3831.59,0.628852
3834.42,0.629105
3837.26,0.629461
3840.1,0.629564
3842.95,0.62984
3845.8,0.630174
3848.65,0.630511
3851.51,0.630676
3854.38,0.631116
3857.24,0.631299
3860.12,0.631477
3862.99,0.63171
3865.87,0.632073
3868.76,0.632277
3871.65,0.632416
3874.54,0.632557
3877.44,0.632801
3880.34,0.632952
3883.25,0.633202
3886.16,0.633463
3889.07,0.633742
3891.99,0.6339
3894.92,0.63404
3897.85,0.634121
3900.78,0.634326
3903.72,0.634686
3906.66,0.635004
3909.6,0.635023
3912.55,0.635192
3915.51,0.635468
3918.47,0.635514
3921.43,0.635584
3924.4,0.635833
3927.37,0.635975
3930.35,0.636124
3933.33,0.636383
3936.32,0.636762
3939.31,0.636919
3942.31,0.63704
3945.31,0.63706
3948.31,0.637128
3951.32,0.637327
3954.34,0.637514
3957.35,0.637568
3960.38,0.637804
3963.41,0.637913
3966.44,0.638133
3969.48,0.638369
3972.52,0.638772
3975.56,0.638822
3978.61,0.638963
3981.67,0.639216
3984.73,0.63966
3987.8,0.639838
3990.87,0.640048
3993.94,0.64017
3997.02,0.640463
4000.1,0.640634
4003.19,0.64081
4006.29,0.64088
4009.39,0.641098
4012.49,0.641187
4015.6,0.641336
4018.71,0.641603
4021.83,0.64189
4024.95,0.641926
4028.08,0.642166
4031.21,0.642291
4034.35,0.642358
4037.49,0.642493
4040.64,0.642861
4043.79,0.643017
4046.94,0.643039
4050.11,0.64318
4053.27,0.643371
4056.44,0.64319
4059.62,0.643216
4062.8,0.643285
4065.99,0.643525
4069.18,0.643605
4072.38,0.64374
4075.58,0.643736
4078.78,0.64384
4082.0,0.643872
4085.21,0.644094
4088.43,0.644156
4091.66,0.644236
4094.89,0.644093
4098.13,0.644188
4101.37,0.644252
4104.62,0.644389
4107.87,0.644505
4111.13,0.644728
4114.39,0.644875
4117.66,0.644933
4120.93,0.644917
4124.21,0.645075
4127.5,0.645097
4130.78,0.645289
4134.08,0.645385
4137.38,0.645554
4140.68,0.645553
4143.99,0.645662
4147.31,0.645675
4150.63,0.645649
4153.95,0.645562
4157.29,0.645687
4160.62,0.645754
4163.96,0.645792
4167.31,0.645629
4170.66,0.645598
4174.02,0.645622
4177.39,0.645738
4180.75,0.645649
4184.13,0.645698
4187.51,0.645611
4190.89,0.645533
4194.28,0.645353
4197.68,0.645352
4201.08,0.645224
4204.49,0.645073
4207.9,0.644948
4211.32,0.644888
4214.74,0.644821
4218.17,0.645077
4221.61,0.645271
4225.05,0.645442
4228.5,0.645529
4231.95,0.645835
4235.4,0.64599
4238.87,0.646145
4242.34,0.646222
4245.81,0.646329
4249.29,0.646039
4252.78,0.64599
4256.27,0.645474
4259.77,0.643882
4263.27,0.642155
4266.78,0.641896
4270.29,0.642352
4273.81,0.642506
4277.34,0.642538
4280.87,0.642632
4284.41,0.64228
4287.95,0.641981
4291.5,0.64176
4295.06,0.641603
4298.62,0.640925
4302.19,0.640419
4305.76,0.639997
4309.34,0.639661
4312.92,0.639215
4316.52,0.638798
4320.11,0.638168
4323.72,0.637544
4327.32,0.636894
4330.94,0.636526
4334.56,0.636084
4338.19,0.635588
4341.82,0.634962
4345.46,0.634442
4349.11,0.633927
4352.76,0.633491
4356.42,0.632871
4360.08,0.632372
4363.75,0.631839
4367.43,0.631471
4371.11,0.631025
4374.8,0.630473
4378.49,0.629807
4382.19,0.629408
4385.9,0.628804
4389.61,0.628328
4393.33,0.627771
4397.06,0.627126
4400.79,0.626331
4404.53,0.625883
4408.28,0.625391
4412.03,0.624938
4415.79,0.624301
4419.55,0.62365
4423.32,0.622973
4427.1,0.622333
4430.88,0.62169
4434.67,0.621128
4438.47,0.620433
4442.27,0.619823
4446.08,0.619003
4449.9,0.61829
4453.72,0.617554
4457.55,0.617032
4461.39,0.616285
4465.23,0.615633
4469.08,0.614929
4472.94,0.61421
4476.8,0.613281
4480.67,0.612603
4484.55,0.611955
4488.43,0.611333
4492.32,0.610423
4496.21,0.609465
4500.12,0.608479
4504.03,0.607771
4507.94,0.607113
4511.87,0.606342
4515.8,0.605436
4519.73,0.604552
4523.68,0.603446
4527.63,0.602626
4531.59,0.6019
4535.55,0.600972
4539.52,0.599796
4543.5,0.598837
4547.49,0.597715
4551.48,0.596618
4555.48,0.595765
4559.49,0.594898
4563.5,0.593915
4567.52,0.593007
4571.55,0.59178
4575.58,0.59066
4579.62,0.589593
4583.67,0.588801
4587.73,0.587927
4591.79,0.586793
4595.86,0.585516
4599.94,0.584505
4604.03,0.583328
4608.12,0.58221
4612.22,0.581079
4616.33,0.580149
4620.44,0.579191
4624.56,0.578151
4628.69,0.576858
4632.83,0.575805
4636.97,0.574776
4641.12,0.573713
4645.28,0.572636
4649.45,0.571657
4653.62,0.570569
4657.8,0.569488
4661.99,0.568411
4666.19,0.56743
4670.39,0.566428
4674.6,0.565392
4678.82,0.56435
4683.05,0.563573
4687.28,0.562537
4691.52,0.561569
4695.77,0.560803
4700.03,0.559925
4704.3,0.558962
4708.57,0.558211
4712.85,0.557308
4717.14,0.556519
4721.43,0.555724
4725.74,0.554944
4730.05,0.554038
4734.37,0.553195
4738.7,0.552322
4743.03,0.551524
4747.38,0.550707
4751.73,0.550153
4756.09,0.549427
4760.45,0.548595
4764.83,0.547701
4769.21,0.54695
4773.6,0.546285
4778.0,0.545765
4782.41,0.545087
4786.83,0.544391
4791.25,0.543806
4795.68,0.543285
4800.13,0.542549
4804.57,0.541931
4809.03,0.541258
4813.5,0.540533
4817.97,0.539683
4822.45,0.538982
4826.94,0.538266
4831.44,0.537655
4835.95,0.537061
4840.46,0.536385
4844.99,0.535686
4849.52,0.535174
4854.06,0.534487
4858.61,0.533787
4863.17,0.533124
4867.73,0.532523
4872.31,0.531801
4876.89,0.531169
4881.48,0.530514
4886.08,0.529797
4890.69,0.529128
4895.31,0.528406
4899.94,0.527495
4904.57,0.526809
4909.22,0.52624
4913.87,0.525502
4918.53,0.52462
4923.21,0.52388
4927.88,0.523077
4932.57,0.522319
4937.27,0.521646
4941.98,0.520802
4946.69,0.519961
4951.42,0.519217
4956.15,0.518267
4960.89,0.517504
4965.65,0.516899
4970.41,0.515872
4975.18,0.514622
4979.96,0.513615
4984.75,0.512469
4989.54,0.511505
4994.35,0.510651
4999.17,0.509685
5003.99,0.50857
5008.83,0.507451
5013.67,0.506257
5018.52,0.504849
5023.39,0.503474
5028.26,0.502505
5033.14,0.501137
5038.03,0.499935
5042.93,0.498746
5047.84,0.497518
5052.76,0.496131
5057.69,0.494901
5062.63,0.493468
5067.58,0.491877
5072.54,0.490377
5077.51,0.488951
5082.49,0.487231
5087.47,0.485785
5092.47,0.484683
5097.48,0.483397
5102.5,0.481666
5107.52,0.480019
5112.56,0.478653
5117.61,0.477179
5122.66,0.475647
5127.73,0.474026
5132.81,0.472367
5137.89,0.470808
5142.99,0.469295
5148.1,0.467361
5153.22,0.465894
5158.34,0.46489
5163.48,0.463153
5168.63,0.461661
5173.79,0.460125
5178.96,0.458628
5184.13,0.457045
5189.32,0.455388
5194.52,0.45365
5199.73,0.451876
5204.95,0.450415
5210.19,0.449138
5215.43,0.447035
5220.68,0.446061
5225.94,0.444765
5231.22,0.442919
5236.5,0.441048
5241.79,0.439383
5247.1,0.437954
5252.42,0.436422
5257.74,0.434938
5263.08,0.433521
5268.43,0.43194
5273.79,0.430171
5279.16,0.428502
5284.54,0.427297
5289.93,0.425639
5295.34,0.423821
5300.75,0.422745
5306.18,0.421272
5311.61,0.419725
5317.06,0.418417
5322.52,0.417019
5327.99,0.415567
5333.47,0.414136
5338.96,0.41277
5344.47,0.411249
5349.98,0.40929
5355.51,0.408357
5361.05,0.40807
5366.6,0.40667
5372.16,0.405293
5377.73,0.40397
5383.32,0.402929
5388.91,0.401799
5394.52,0.400603
5400.14,0.399447
5405.77,0.398562
5411.41,0.397286
5417.07,0.395998
5422.74,0.394124
5428.41,0.3941
5434.1,0.394366
5439.81,0.392672
5445.52,0.391382
5451.25,0.390367
5456.98,0.389403
5462.73,0.38794
5468.5,0.386824
5474.27,0.386727
5480.06,0.385047
5485.86,0.38397
5491.67,0.383458
5497.49,0.381979
5503.33,0.380763
5509.18,0.379699
5515.04,0.378743
5520.91,0.377357
5526.8,0.376308
5532.69,0.375422
5538.61,0.374347
5544.53,0.372926
5550.47,0.371484
5556.41,0.37013
5562.38,0.369472
5568.35,0.368421
5574.34,0.366768
5580.34,0.364675
5586.35,0.364448
5592.38,0.364143
5598.42,0.362452
5604.47,0.36069
5610.54,0.35992
5616.61,0.358872
5622.71,0.357974
5628.81,0.357134
5634.93,0.355712
5641.06,0.353782
5647.21,0.352932
5653.36,0.353603
5659.54,0.352288
5665.72,0.351729
5671.92,0.35031
5678.13,0.348624
5684.36,0.348719
5690.6,0.347956
5696.85,0.346531
5703.12,0.346221
5709.4,0.344339
5715.69,0.343262
5722.0,0.343494
5728.33,0.342909
5734.66,0.341912
5741.01,0.340844
5747.38,0.339758
5753.76,0.33884
5760.15,0.338547
5766.56,0.33541
5772.98,0.335232
5779.41,0.336225
5785.86,0.334092
5792.33,0.332744
5798.81,0.33145
5805.3,0.330093
5811.81,0.329032
5818.33,0.326957
5824.87,0.324852
5831.42,0.325456
5837.99,0.325098
5844.57,0.324003
5851.17,0.32271
5857.78,0.321395
5864.41,0.319964
5871.05,0.319446
5877.7,0.317934
5884.38,0.315107
5891.06,0.317188
5897.76,0.315599
5904.48,0.31534
5911.21,0.315728
5917.96,0.313591
5924.73,0.312572
5931.5,0.311429
5938.3,0.309105
5945.11,0.310394
5951.93,0.311508
5958.78,0.309821
5965.63,0.308557
5972.51,0.307015
5979.39,0.307814
5986.3,0.306653
5993.22,0.305356
6000.16,0.305948
6007.11,0.305541
6014.08,0.303605
6021.06,0.30311
6028.06,0.303133
6035.08,0.302153
6042.12,0.300635
6049.17,0.297698
6056.23,0.298671
6063.32,0.30148
6070.42,0.298533
6077.53,0.297089
6084.67,0.298278
6091.82,0.29797
6098.98,0.29669
6106.17,0.295889
6113.37,0.294197
6120.58,0.294545
6127.82,0.29621
6135.07,0.295474
6142.34,0.294618
6149.63,0.294819
6156.93,0.29493
6164.25,0.294788
6171.59,0.295753
6178.94,0.295636
6186.32,0.294565
6193.71,0.296135
6201.12,0.297643
6208.54,0.29703
6215.99,0.296989
6223.45,0.297069
6230.93,0.297368
6238.43,0.297285
6245.95,0.297279
6253.48,0.297347
6261.03,0.297476
6268.6,0.29752
6276.19,0.297788
6283.8,0.297774
6291.43,0.297917
6299.07,0.298075
6306.73,0.298248
6314.42,0.298349
6322.12,0.298655
6329.83,0.298877
6337.57,0.298933
6345.33,0.298049
6353.11,0.299497
6360.9,0.301006
6368.72,0.299974
6376.55,0.29994
6384.4,0.301322
6392.27,0.301202
6400.17,0.301299
6408.08,0.300408
6416.01,0.298408
6423.96,0.301362
6431.93,0.303261
6439.92,0.302271
6447.93,0.302638
6455.96,0.302157
6464.01,0.302327
6472.08,0.301659
6480.17,0.301178
6488.28,0.300645
6496.41,0.299957
6504.56,0.301816
6512.73,0.302687
6520.92,0.300638
6529.14,0.300271
6537.37,0.300714
6545.63,0.299897
6553.9,0.299062
6562.2,0.298857
6570.51,0.29801
6578.85,0.297106
6587.21,0.298107
6595.59,0.297159
6603.99,0.296972
6612.42,0.296489
6620.86,0.295678
6629.33,0.294823
6637.82,0.292949
6646.33,0.29351
6654.86,0.294833
6663.41,0.293547
6671.99,0.292312
6680.59,0.291535
6689.21,0.291439
6697.85,0.291673
6706.51,0.290437
6715.2,0.289095
6723.91,0.28895
6732.64,0.288472
6741.4,0.287772
6750.18,0.286597
6758.98,0.285511
6767.8,0.284374
6776.65,0.282848
6785.52,0.281441
6794.41,0.279626
6803.33,0.278183
6812.27,0.276215
6821.23,0.27367
6830.22,0.27186
6839.23,0.271393
6848.26,0.27045
6857.32,0.268554
6866.4,0.266845
6875.51,0.267253
6884.64,0.267024
6893.8,0.265577
6902.98,0.26443
6912.18,0.263096
6921.41,0.262309
6930.66,0.26114
6939.94,0.259971
6949.24,0.258808
6958.57,0.257129
6967.92,0.255708
6977.3,0.255218
6986.7,0.253585
6996.13,0.251993
7005.59,0.250598
7015.07,0.249302
7024.57,0.247497
7034.1,0.246095
7043.66,0.244345
7053.24,0.242869
7062.85,0.242027
7072.49,0.240601
7082.15,0.238967
7091.84,0.237515
7101.55,0.236065
7111.3,0.234404
7121.06,0.232731
7130.86,0.231327
7140.68,0.229706
7150.53,0.227929
7160.41,0.22635
7170.31,0.224764
7180.24,0.22303
7190.2,0.221454
7200.19,0.219415
7210.2,0.217164
7220.24,0.215186
7230.31,0.213244
7240.41,0.210764
7250.54,0.208358
7260.69,0.205955
7270.88,0.20388
7281.09,0.201769
7291.33,0.199846
7301.6,0.19788
7311.9,0.195992
7322.22,0.193989
7332.58,0.191967
7342.97,0.18979
7353.38,0.187773
7363.83,0.185588
7374.3,0.183369
7384.81,0.181062
7395.34,0.178811
7405.91,0.176496
7416.5,0.174211
7427.13,0.171674
7437.78,0.169177
7448.47,0.166591
7459.19,0.163956
7469.94,0.161257
7480.71,0.15874
7491.52,0.155958
7502.37,0.1532
7513.24,0.150245
7524.14,0.14732
7535.08,0.144296
7546.05,0.141205
7557.05,0.138052
7568.08,0.134885
7579.14,0.131435
7590.24,0.128106
7601.37,0.124654
7612.53,0.121291
7623.73,0.117764
7634.96,0.114322
7646.22,0.110926
7657.51,0.107492
7668.84,0.104064
7680.2,0.100799
7691.59,0.097352
7703.02,0.094015
7714.49,0.090494
7725.98,0.087017
7737.51,0.08348
7749.08,0.080379
7760.68,0.07734
7772.32,0.074245
7783.99,0.071062
7795.69,0.06814
7807.43,0.065206
7819.21,0.062553
7831.02,0.059893
7842.87,0.057343
7854.75,0.05493
7866.67,0.052881
7878.62,0.050773
7890.62,0.049172
7902.64,0.047697
7914.71,0.046367
7926.81,0.045157
7938.95,0.044274
7951.13,0.043491
7963.34,0.043052
7975.59,0.042799
7987.88,0.042985
8000.21,0.043326
8012.57,0.044098
8024.98,0.045079
8037.42,0.046584
8049.9,0.048335
8062.42,0.050567
8074.98,0.052993
8087.57,0.056025
8100.21,0.059291
8112.89,0.062987
8125.6,0.06698
8138.36,0.071454
8151.16,0.076247
8163.99,0.081343
8176.87,0.086412
8189.79,0.091636
8202.75,0.096868
8215.74,0.102087
8228.79,0.106944
8241.87,0.111525
8254.99,0.11545
8268.16,0.118741
8281.37,0.121227
8294.62,0.123059
8307.91,0.123922
8321.24,0.12405
8334.62,0.123466
8348.04,0.12247
8361.51,0.121065
8375.02,0.11934
8388.57,0.117491
8402.16,0.115719
8415.8,0.113858
8429.49,0.112258
8443.22,0.110614
8456.99,0.109202
8470.81,0.10784
8484.67,0.106643
8498.58,0.105586
8512.54,0.104764
8526.54,0.103767
8540.58,0.102984
8554.68,0.10219
8568.82,0.101381
8583.0,0.100718
8597.24,0.100105
8611.52,0.099421
8625.85,0.098711
8640.22,0.097962
8654.65,0.097325
8669.12,0.096659
8683.64,0.096015
8698.21,0.0953
8712.83,0.09453
8727.5,0.093562
8742.22,0.092765
8756.98,0.091975
8771.8,0.091245
8786.67,0.090385
8801.59,0.08969
8816.56,0.089027
8831.58,0.088287
8846.65,0.087503
8861.77,0.086914
8876.94,0.085856
8892.17,0.084956
8907.45,0.084181
8922.78,0.083614
8938.16,0.082913
8953.6,0.082214
8969.09,0.081478
8984.64,0.080969
9000.23,0.080371
9015.89,0.080025
9031.59,0.079151
9047.36,0.078265
9063.17,0.07771
9079.04,0.077225
9094.97,0.076461
9110.96,0.075558
9127.0,0.074767
9143.09,0.074207
9159.25,0.073633
9175.46,0.072967
9191.73,0.07218
9208.05,0.071564
9224.44,0.071044
9240.88,0.070373
9257.38,0.069814
9273.94,0.069581
9290.56,0.069154
9307.24,0.06883
9323.98,0.068468
9340.78,0.06851
9357.64,0.068483
9374.57,0.068317
9391.55,0.068237
9408.59,0.068263
9425.7,0.068375
9442.87,0.068837
9460.1,0.069048
9477.39,0.069166
9494.75,0.069385
9512.17,0.06987
9529.66,0.070394
9547.21,0.071002
9564.82,0.071524
9582.5,0.072007
9600.25,0.072345
9618.06,0.072742
9635.94,0.073127
9653.88,0.073681
9671.89,0.074384
9689.97,0.075253
9708.12,0.07607
9726.33,0.076842
9744.61,0.077525
9762.97,0.078377
9781.39,0.079127
9799.88,0.079917
9818.44,0.080566
9837.07,0.081331
9855.77,0.081738
9874.54,0.08236
9893.39,0.083094
9912.3,0.083586
9931.29,0.083816
9950.35,0.08394
9969.49,0.083897
9988.7,0.083921
10007.98,0.083682
10027.34,0.083399
10046.77,0.083242
10066.28,0.083115
10085.87,0.082905
10105.53,0.082812
10125.26,0.082513
10145.08,0.082242
10164.97,0.081731
10184.94,0.081175
10204.99,0.080791
10225.12,0.080485
10245.33,0.079916
10265.61,0.079492
10285.98,0.079152
10306.43,0.079037
10326.96,0.078952
10347.57,0.078783
10368.27,0.078388
10389.05,0.078309
10409.91,0.078292
10430.85,0.078315
10451.88,0.078355
10473.0,0.078462
10494.2,0.078525
10515.49,0.078603
10536.86,0.078392
10558.32,0.078465
10579.87,0.078683
10601.5,0.078852
10623.23,0.078712
10645.04,0.078647
10666.94,0.078832
10688.94,0.078744
10711.02,0.078461
10733.2,0.07873
10755.47,0.078784
10777.83,0.078764
10800.28,0.078881
10822.83,0.079043
10845.47,0.079215
10868.21,0.079328
10891.04,0.079397
10913.97,0.079566
10936.99,0.079642
10960.12,0.079954
10983.34,0.08007
11006.66,0.080214
11030.07,0.080429
11053.59,0.080754
11077.21,0.081399
11100.93,0.082212
11124.75,0.082615
11148.68,0.082948
11172.7,0.083699
11196.84,0.084546
11221.07,0.085206
11245.41,0.086036
11269.86,0.086775
11294.41,0.087348
11319.07,0.088137
11343.84,0.089077
11368.72,0.089536
11393.7,0.089611
11418.8,0.08996
11444.01,0.090404
11469.33,0.090327
11494.76,0.090383
11520.3,0.090237
11545.96,0.090169
11571.73,0.090378
11597.62,0.09039
11623.62,0.090373
11649.74,0.090762
11675.98,0.091028
11702.34,0.09141
11728.81,0.092
11755.41,0.092833
11782.13,0.093639
11808.96,0.094536
11835.92,0.095813
11863.01,0.097309
11890.22,0.098954
11917.55,0.100875
11945.01,0.102803
11972.6,0.104929
12000.31,0.106961
12028.16,0.109364
12056.13,0.111592
12084.23,0.113788
12112.46,0.115848
12140.83,0.117429
12169.33,0.118418
12197.96,0.118719
12226.73,0.118095
12255.64,0.116849
12284.68,0.114733
12313.86,0.11149
12343.18,0.107693
12372.64,0.103583
12402.24,0.099005
12431.98,0.094298
12461.86,0.089798
12491.89,0.085898
12522.06,0.082586
12552.38,0.079706
12582.85,0.077035
12613.47,0.074546
12644.23,0.072221
12675.15,0.070572
12706.21,0.069256
12737.43,0.068053
12768.8,0.067083
12800.33,0.066114
12832.02,0.064782
12863.86,0.063787
12895.86,0.063225
12928.02,0.062697
12960.34,0.062041
12992.82,0.06175
13025.46,0.061562
13058.27,0.061226
13091.25,0.060796
13124.39,0.060712
13157.7,0.060818
13191.18,0.060776
13224.83,0.060441
13258.66,0.060424
13292.65,0.060318
13326.83,0.060451
13361.17,0.060546
13395.7,0.060697
13430.4,0.060681
13465.29,0.060796
13500.35,0.060936
13535.6,0.061073
13571.03,0.061052
13606.65,0.060867
13642.46,0.060747
13678.46,0.06088
13714.64,0.060823
13751.02,0.060951
13787.59,0.061086
13824.36,0.0609
13861.32,0.060622
13898.48,0.060694
13935.85,0.060492
13973.41,0.060169
14011.17,0.059985
14049.15,0.05998
14087.32,0.059583
14125.71,0.059279
14164.3,0.059371
14203.11,0.059294
14242.13,0.058944
14281.36,0.05886
14320.81,0.05873
14360.48,0.058867
14400.38,0.058789
14440.49,0.058227
14480.82,0.058014
14521.39,0.058095
14562.18,0.057853
14603.2,0.057702
14644.45,0.057851
14685.93,0.057946
14727.66,0.057938
14769.62,0.058133
14811.81,0.058343
14854.25,0.058528
14896.94,0.058722
14939.87,0.059149
14983.05,0.0595
15026.48,0.060631
15070.16,0.061162
15114.1,0.0614
15158.29,0.061654
15202.74,0.062447
15247.46,0.063214
15292.43,0.064156
15337.68,0.065463
15383.19,0.066884
15428.97,0.068573
15475.03,0.07024
15521.36,0.07148
15567.97,0.072511
15614.86,0.073322
15662.04,0.074313
15709.5,0.074527
15757.25,0.074212
15805.29,0.073596
15853.62,0.0731
15902.25,0.073047
15951.18,0.073362
16000.42,0.074207
16049.95,0.075546
16099.8,0.077053
16149.95,0.079192
16200.42,0.080825
16251.21,0.082226
16302.31,0.083615
16353.74,0.084884
16405.49,0.085819
16457.57,0.08621
16509.98,0.086303
16562.73,0.085976
16615.82,0.085222
16669.24,0.084338
16723.02,0.083392
16777.13,0.082524
16831.61,0.081911
16886.43,0.081529
16941.62,0.080566
16997.16,0.07978
17053.07,0.079218
17109.36,0.078986
17166.01,0.079194
17223.04,0.079549
17280.45,0.079824
17338.24,0.080061
17396.43,0.079619
17455.0,0.079405
17513.97,0.079339
17573.34,0.078825
17633.11,0.078175
17693.29,0.077638
17753.89,0.076737
17814.9,0.075938
17876.33,0.075772
17938.18,0.075447
18000.47,0.075318
18063.19,0.076011
18126.35,0.076771
18189.95,0.077237
18254.0,0.078712
18318.5,0.080772
18383.46,0.082215
18448.88,0.083022
18514.77,0.083852
18581.13,0.084444
18647.97,0.084605
18715.29,0.084868
18783.1,0.083856
18851.4,0.08328
18920.2,0.083526
18989.51,0.083751
19059.32,0.083435
19129.65,0.083983
19200.5,0.087366
19271.88,0.086541
19343.79,0.08298
19416.23,0.081806
19489.23,0.081034
19562.77,0.081086
19636.88,0.080407
19711.54,0.079275
19786.77,0.078631
19862.59,0.07889
19938.98,0.078563
20015.96,0.077692
20093.54,0.076563
20171.73,0.075869
20250.53,0.074384
20329.94,0.073239
20409.98,0.071583
20490.65,0.070022
20571.96,0.067709
20653.92,0.066495
20736.54,0.065609
20819.82,0.065295
20903.77,0.065763
20988.4,0.067053
21073.72,0.067835
21159.73,0.068879
21246.46,0.069107
21333.89,0.069184
21422.04,0.069987
21510.93,0.071456
21600.56,0.07282
21690.94,0.073427
21782.08,0.072696
21873.99,0.072592
21966.67,0.072875
22060.15,0.073237
22154.42,0.074244
22249.51,0.076066
22345.41,0.077432
22442.14,0.078715
22539.72,0.079333
22638.14,0.079033
22737.43,0.079311
22837.6,0.080206
22938.65,0.080305
23040.6,0.08024
23143.46,0.081078
23247.24,0.080722
23351.96,0.079869
23457.62,0.079001
23564.25,0.077844
23671.85,0.076933
23780.44,0.075704
23890.02,0.077366
24000.63,0.078232
24112.26,0.077514
24224.93,0.077268
24338.66,0.077182
24453.47,0.076268
24569.36,0.0759
24686.36,0.075697
24804.47,0.077011
24923.72,0.0784
25044.13,0.080129
25165.7,0.081143
25288.46,0.081291
25412.43,0.083816
25537.61,0.087797
25664.03,0.087856
25791.71,0.087858
25920.67,0.090306
