Database of Origin,University of Winnipeg Spectrophotometer Facility
Sample Description,"RELAB plus Nicolet merged plagioclase data. Merged @2500nm, different viewing geometries. See Master Plagioclase in PSF sample database for more information"
Date Added,2016-11-22 03:59:29.829779

Data ID,RLA_PLG_08          
Sample ID,PLG108
Mineral Name,Bytownite
Grain Size,<45
Viewing Geometry,"30/0,30"
Resolution,"5,0.6-129"
Composition,An85
Material Class,Tectosilicate

Wavelength
300.0,0.301938
305.0,0.343632
310.0,0.377436
315.0,0.410632
320.0,0.437931
325.0,0.461082
330.0,0.478173
335.0,0.49435
340.0,0.505999
345.0,0.518225
350.0,0.528167
355.0,0.538549
360.0,0.548445
365.0,0.5576
370.0,0.56695
375.0,0.573574
380.0,0.578239
385.0,0.582595
390.0,0.591318
395.0,0.598939
400.0,0.604623
405.0,0.610788
410.0,0.614716
415.0,0.61988
420.0,0.62475
425.0,0.632083
430.0,0.638938
435.0,0.645896
440.0,0.651215
445.0,0.65555
450.0,0.660473
455.0,0.664565
460.0,0.667603
465.0,0.671339
470.0,0.674064
475.0,0.676321
480.0,0.677824
485.0,0.681373
490.0,0.683758
495.0,0.686435
500.0,0.688215
505.0,0.69079
510.0,0.692033
515.0,0.693253
520.0,0.69536
525.0,0.697741
530.0,0.698556
535.0,0.698297
540.0,0.698703
545.0,0.699309
550.0,0.700319
555.0,0.701995
560.0,0.703329
565.0,0.703852
570.0,0.705362
575.0,0.708084
580.0,0.709731
585.0,0.711196
590.0,0.713786
595.0,0.717016
600.0,0.717936
605.0,0.720388
610.0,0.721981
615.0,0.722605
620.0,0.722814
625.0,0.723751
630.0,0.723236
635.0,0.724735
640.0,0.725423
645.0,0.725826
650.0,0.727087
655.0,0.727903
660.0,0.727989
665.0,0.729124
670.0,0.730028
675.0,0.730896
680.0,0.73051
685.0,0.732086
690.0,0.73184
695.0,0.733004
700.0,0.733756
705.0,0.734552
710.0,0.734989
715.0,0.7351
720.0,0.735918
725.0,0.733863
730.0,0.734864
735.0,0.735142
740.0,0.736506
745.0,0.734733
750.0,0.738032
755.0,0.736029
760.0,0.738549
765.0,0.736612
770.0,0.738268
775.0,0.737267
780.0,0.740112
785.0,0.738493
790.0,0.739339
795.0,0.739417
800.0,0.739524
805.0,0.739827
810.0,0.739505
815.0,0.738985
820.0,0.73989
825.0,0.738502
830.0,0.739722
835.0,0.739107
840.0,0.73951
845.0,0.739387
850.0,0.739782
855.0,0.738789
860.0,0.735903
865.0,0.735519
870.0,0.738465
875.0,0.737896
880.0,0.736977
885.0,0.735531
890.0,0.735726
895.0,0.732958
900.0,0.729912
905.0,0.729749
910.0,0.728921
915.0,0.727771
920.0,0.729181
925.0,0.730642
930.0,0.730083
935.0,0.730709
940.0,0.73054
945.0,0.729155
950.0,0.728583
955.0,0.729933
960.0,0.730722
965.0,0.728223
970.0,0.728933
975.0,0.727176
980.0,0.725183
985.0,0.722685
990.0,0.722902
995.0,0.722676
1000.0,0.725052
1005.0,0.724042
1010.0,0.723914
1015.0,0.723722
1020.0,0.721758
1025.0,0.719224
1030.0,0.718458
1035.0,0.718672
1040.0,0.718926
1045.0,0.718268
1050.0,0.717542
1055.0,0.716524
1060.0,0.715675
1065.0,0.714033
1070.0,0.712636
1075.0,0.712414
1080.0,0.711773
1085.0,0.710967
1090.0,0.710169
1095.0,0.710514
1100.0,0.708052
1105.0,0.708073
1110.0,0.70721
1115.0,0.706469
1120.0,0.704668
1125.0,0.706211
1130.0,0.705726
1135.0,0.706424
1140.0,0.706294
1145.0,0.706947
1150.0,0.706229
1155.0,0.705722
1160.0,0.704328
1165.0,0.704216
1170.0,0.702897
1175.0,0.701997
1180.0,0.701944
1185.0,0.699795
1190.0,0.698828
1195.0,0.69751
1200.0,0.698883
1205.0,0.700582
1210.0,0.698052
1215.0,0.696735
1220.0,0.695916
1225.0,0.693615
1230.0,0.693206
1235.0,0.692796
1240.0,0.692841
1245.0,0.693086
1250.0,0.693132
1255.0,0.692858
1260.0,0.693491
1265.0,0.693522
1270.0,0.69266
1275.0,0.692318
1280.0,0.692052
1285.0,0.690973
1290.0,0.690442
1295.0,0.690288
1300.0,0.690072
1305.0,0.690678
1310.0,0.691114
1315.0,0.692115
1320.0,0.692843
1325.0,0.692877
1330.0,0.691911
1335.0,0.693773
1340.0,0.693258
1345.0,0.693438
1350.0,0.694102
1355.0,0.694747
1360.0,0.693422
1365.0,0.694637
1370.0,0.69484
1375.0,0.69397
1380.0,0.69543
1385.0,0.697185
1390.0,0.697731
1395.0,0.697356
1400.0,0.69873
1405.0,0.699366
1410.0,0.700554
1415.0,0.701012
1420.0,0.701676
1425.0,0.702183
1430.0,0.702084
1435.0,0.702219
1440.0,0.703691
1445.0,0.70434
1450.0,0.705076
1455.0,0.706193
1460.0,0.707014
1465.0,0.707646
1470.0,0.708058
1475.0,0.708832
1480.0,0.709249
1485.0,0.710047
1490.0,0.709518
1495.0,0.710203
1500.0,0.710346
1505.0,0.710595
1510.0,0.711257
1515.0,0.711985
1520.0,0.712487
1525.0,0.712833
1530.0,0.713649
1535.0,0.713828
1540.0,0.714621
1545.0,0.716134
1550.0,0.717349
1555.0,0.717676
1560.0,0.716961
1565.0,0.717719
1570.0,0.717747
1575.0,0.717955
1580.0,0.718397
1585.0,0.719415
1590.0,0.719353
1595.0,0.719069
1600.0,0.718936
1605.0,0.719301
1610.0,0.719747
1615.0,0.720075
1620.0,0.721293
1625.0,0.721518
1630.0,0.720447
1635.0,0.720138
1640.0,0.720194
1645.0,0.72003
1650.0,0.71976
1655.0,0.72109
1660.0,0.721845
1665.0,0.722505
1670.0,0.722446
1675.0,0.723021
1680.0,0.722562
1685.0,0.721981
1690.0,0.721792
1695.0,0.721199
1700.0,0.721041
1705.0,0.721969
1710.0,0.72177
1715.0,0.722173
1720.0,0.722917
1725.0,0.721901
1730.0,0.722195
1735.0,0.721091
1740.0,0.720127
1745.0,0.720468
1750.0,0.720252
1755.0,0.719276
1760.0,0.719787
1765.0,0.720256
1770.0,0.719269
1775.0,0.720065
1780.0,0.719837
1785.0,0.71976
1790.0,0.720512
1795.0,0.720792
1800.0,0.719939
1805.0,0.719232
1810.0,0.718688
1815.0,0.717186
1820.0,0.71671
1825.0,0.717698
1830.0,0.718688
1835.0,0.719326
1840.0,0.719509
1845.0,0.719481
1850.0,0.718446
1855.0,0.717655
1860.0,0.716686
1865.0,0.716253
1870.0,0.71557
1875.0,0.71576
1880.0,0.715491
1885.0,0.715147
1890.0,0.715292
1895.0,0.715598
1900.0,0.713638
1905.0,0.712678
1910.0,0.712785
1915.0,0.71246
1920.0,0.711057
1925.0,0.711519
1930.0,0.711529
1935.0,0.710835
1940.0,0.710325
1945.0,0.710602
1950.0,0.710189
1955.0,0.709872
1960.0,0.710737
1965.0,0.710694
1970.0,0.712017
1975.0,0.712807
1980.0,0.71348
1985.0,0.712714
1990.0,0.714361
1995.0,0.713457
2000.0,0.71375
2005.0,0.714181
2010.0,0.715884
2015.0,0.714885
2020.0,0.714584
2025.0,0.714741
2030.0,0.715284
2035.0,0.714142
2040.0,0.713615
2045.0,0.713263
2050.0,0.713034
2055.0,0.712349
2060.0,0.71182
2065.0,0.712488
2070.0,0.713875
2075.0,0.714409
2080.0,0.713803
2085.0,0.714469
2090.0,0.71483
2095.0,0.713445
2100.0,0.712667
2105.0,0.714575
2110.0,0.714343
2115.0,0.714384
2120.0,0.714892
2125.0,0.715286
2130.0,0.713006
2135.0,0.71248
2140.0,0.710782
2145.0,0.710651
2150.0,0.709956
2155.0,0.710379
2160.0,0.711228
2165.0,0.712081
2170.0,0.713258
2175.0,0.714084
2180.0,0.714996
2185.0,0.71238
2190.0,0.712297
2195.0,0.709343
2200.0,0.70806
2205.0,0.708585
2210.0,0.710755
2215.0,0.709789
2220.0,0.712607
2225.0,0.711306
2230.0,0.710429
2235.0,0.710515
2240.0,0.711277
2245.0,0.710163
2250.0,0.712049
2255.0,0.711083
2260.0,0.709966
2265.0,0.709881
2270.0,0.710388
2275.0,0.710475
2280.0,0.710898
2285.0,0.712636
2290.0,0.713946
2295.0,0.714801
2300.0,0.716261
2305.0,0.717242
2310.0,0.716765
2315.0,0.715135
2320.0,0.712499
2325.0,0.711713
2330.0,0.713008
2335.0,0.711397
2340.0,0.712107
2345.0,0.712753
2350.0,0.711874
2355.0,0.708972
2360.0,0.710473
2365.0,0.712036
2370.0,0.712529
2375.0,0.713295
2380.0,0.715685
2385.0,0.715903
2390.0,0.714689
2395.0,0.713897
2400.0,0.713503
2405.0,0.714685
2410.0,0.713845
2415.0,0.712139
2420.0,0.713278
2425.0,0.711914
2430.0,0.708656
2435.0,0.708579
2440.0,0.709798
2445.0,0.709862
2450.0,0.71181
2455.0,0.710045
2460.0,0.708798
2465.0,0.706555
2470.0,0.702398
2475.0,0.700756
2480.0,0.699019
2485.0,0.698749
2490.0,0.698678
2495.0,0.696735
2500.0,0.696279
2505.0,0.696837
2510.0,0.699716
2515.0,0.696084
2520.0,0.698123
2525.0,0.697353
2530.08,0.696018
2535.03,0.693823
2540.0,0.695788
2544.99,0.696533
2549.99,0.693424
2552.5,0.692867
2553.76,0.693054
2555.02,0.694277
2556.28,0.694158
2557.54,0.693575
2558.8,0.693266
2560.07,0.692658
2561.33,0.690827
2562.6,0.691272
2563.86,0.693267
2565.13,0.693941
2566.4,0.695176
2567.67,0.695854
2568.95,0.693799
2570.22,0.691852
2571.5,0.693573
2572.77,0.694188
2574.05,0.691358
2575.33,0.693082
2576.61,0.69356
2577.89,0.692505
2579.17,0.694202
2580.46,0.694115
2581.74,0.692271
2583.03,0.692162
2584.31,0.690449
2585.6,0.692908
2586.89,0.69483
2588.19,0.6929
2589.48,0.694679
2590.77,0.695578
2592.07,0.694965
2593.36,0.69247
2594.66,0.687168
2595.96,0.687974
2597.26,0.69933
2598.56,0.700913
2599.87,0.696403
2601.17,0.693143
2602.48,0.69227
2603.78,0.692496
2605.09,0.691693
2606.4,0.691587
2607.71,0.694743
2609.03,0.695593
2610.34,0.694592
2611.65,0.69457
2612.97,0.693886
2614.29,0.692978
2615.61,0.693408
2616.93,0.690618
2618.25,0.690913
2619.57,0.695126
2620.9,0.692806
2622.22,0.694323
2623.55,0.696988
2624.88,0.69503
2626.21,0.692105
2627.54,0.690441
2628.87,0.693176
2630.21,0.691573
2631.54,0.689884
2632.88,0.695023
2634.21,0.695451
2635.55,0.694086
2636.89,0.693772
2638.24,0.693029
2639.58,0.692647
2640.92,0.692337
2642.27,0.691895
2643.62,0.692318
2644.97,0.693008
2646.32,0.691625
2647.67,0.692665
2649.02,0.69336
2650.38,0.692263
2651.73,0.690927
2653.09,0.689678
2654.45,0.691118
2655.81,0.69206
2657.17,0.692341
2658.53,0.692424
2659.89,0.689986
2661.26,0.68962
2662.63,0.690458
2664.0,0.68987
2665.36,0.685985
2666.74,0.685789
2668.11,0.690595
2669.48,0.692711
2670.86,0.686911
2672.23,0.689708
2673.61,0.69443
2674.99,0.69013
2676.37,0.685257
2677.76,0.684276
2679.14,0.686857
2680.52,0.687694
2681.91,0.688864
2683.3,0.685824
2684.69,0.682756
2686.08,0.682686
2687.47,0.682127
2688.87,0.68109
2690.26,0.680036
2691.66,0.678564
2693.06,0.674798
2694.46,0.670741
2695.86,0.671032
2697.26,0.671782
2698.66,0.669786
2700.07,0.665464
2701.48,0.660727
2702.89,0.657979
2704.3,0.656271
2705.71,0.65247
2707.12,0.648444
2708.53,0.643822
2709.95,0.638468
2711.37,0.633796
2712.79,0.633714
2714.21,0.63288
2715.63,0.627305
2717.05,0.620957
2718.48,0.613012
2719.9,0.601788
2721.33,0.591558
2722.76,0.59281
2724.19,0.59315
2725.62,0.589923
2727.06,0.590632
2728.49,0.588518
2729.93,0.582623
2731.37,0.5762
2732.81,0.571259
2734.25,0.567928
2735.69,0.565737
2737.14,0.565638
2738.58,0.562327
2740.03,0.556357
2741.48,0.554399
2742.93,0.554744
2744.38,0.552375
2745.83,0.547298
2747.29,0.542989
2748.75,0.540229
2750.2,0.536935
2751.66,0.532821
2753.13,0.530552
2754.59,0.52955
2756.05,0.526824
2757.52,0.529245
2758.99,0.531244
2760.46,0.528309
2761.93,0.526056
2763.4,0.524615
2764.87,0.525981
2766.35,0.527292
2767.82,0.525795
2769.3,0.524746
2770.78,0.523982
2772.26,0.523526
2773.75,0.524525
2775.23,0.523962
2776.72,0.5224
2778.21,0.521241
2779.7,0.52067
2781.19,0.519948
2782.68,0.519075
2784.18,0.51826
2785.67,0.517323
2787.17,0.515211
2788.67,0.514287
2790.17,0.514868
2791.67,0.514069
2793.18,0.512459
2794.68,0.51175
2796.19,0.511019
2797.7,0.509802
2799.21,0.509141
2800.72,0.508162
2802.24,0.506802
2803.75,0.505832
2805.27,0.506589
2806.79,0.507412
2808.31,0.506089
2809.83,0.505208
2811.35,0.505063
2812.88,0.505141
2814.41,0.504808
2815.93,0.504358
2817.46,0.504234
2819.0,0.50407
2820.53,0.503555
2822.07,0.503747
2823.6,0.504234
2825.14,0.504352
2826.68,0.504167
2828.22,0.504141
2829.77,0.504417
2831.31,0.50457
2832.86,0.504821
2834.41,0.504895
2835.96,0.504832
2837.51,0.504914
2839.07,0.505197
2840.62,0.505602
2842.18,0.505971
2843.74,0.506216
2845.3,0.506925
2846.86,0.506913
2848.43,0.506568
2849.99,0.506556
2851.56,0.507184
2853.13,0.507228
2854.7,0.506889
2856.27,0.507257
2857.85,0.50768
2859.42,0.507624
2861.0,0.507357
2862.58,0.507733
2864.16,0.507738
2865.75,0.507542
2867.33,0.507418
2868.92,0.507467
2870.51,0.507644
2872.1,0.507582
2873.69,0.507737
2875.28,0.508095
2876.88,0.50779
2878.48,0.507685
2880.07,0.507749
2881.68,0.507513
2883.28,0.507561
2884.88,0.507694
2886.49,0.507336
2888.1,0.507148
2889.71,0.5071
2891.32,0.507104
2892.93,0.506721
2894.55,0.506615
2896.16,0.506595
2897.78,0.50637
2899.4,0.505836
2901.03,0.505435
2902.65,0.505566
2904.28,0.505574
2905.91,0.50513
2907.53,0.505203
2909.17,0.50521
2910.8,0.504803
2912.44,0.504362
2914.07,0.504453
2915.71,0.504267
2917.35,0.504132
2918.99,0.504251
2920.64,0.504453
2922.29,0.504338
2923.93,0.504464
2925.58,0.504739
2927.24,0.504395
2928.89,0.504006
2930.55,0.504348
2932.2,0.504734
2933.86,0.504933
2935.52,0.504785
2937.19,0.505086
2938.85,0.505465
2940.52,0.505311
2942.19,0.505465
2943.86,0.505857
2945.53,0.506141
2947.21,0.506729
2948.88,0.506742
2950.56,0.507041
2952.24,0.507458
2953.92,0.507857
2955.61,0.508242
2957.29,0.508904
2958.98,0.509786
2960.67,0.509852
2962.36,0.510219
2964.06,0.510525
2965.75,0.510529
2967.45,0.511149
2969.15,0.512083
2970.85,0.512625
2972.55,0.513151
2974.26,0.513897
2975.97,0.514458
2977.68,0.515319
2979.39,0.51572
2981.1,0.516028
2982.82,0.516667
2984.53,0.517457
2986.25,0.518191
2987.97,0.518933
2989.7,0.519578
2991.42,0.520718
2993.15,0.52175
2994.88,0.52212
2996.61,0.522613
2998.34,0.523255
3000.08,0.524084
3001.82,0.524927
3003.55,0.52609
3005.3,0.52676
3007.04,0.527236
3008.78,0.528264
3010.53,0.529327
3012.28,0.530125
3014.03,0.531009
3015.79,0.53218
3017.54,0.533004
3019.3,0.533477
3021.06,0.53404
3022.82,0.534531
3024.58,0.535467
3026.35,0.536154
3028.12,0.536773
3029.89,0.5378
3031.66,0.538523
3033.43,0.538947
3035.21,0.539782
3036.99,0.54033
3038.77,0.540723
3040.55,0.541668
3042.33,0.542385
3044.12,0.542697
3045.91,0.543068
3047.7,0.543742
3049.49,0.54445
3051.29,0.544929
3053.08,0.545446
3054.88,0.545879
3056.68,0.546091
3058.49,0.546512
3060.29,0.546911
3062.1,0.547505
3063.91,0.548256
3065.72,0.548797
3067.54,0.548918
3069.35,0.549251
3071.17,0.54951
3072.99,0.55009
3074.81,0.55084
3076.64,0.551283
3078.46,0.551879
3080.29,0.552441
3082.13,0.552621
3083.96,0.553078
3085.79,0.553701
3087.63,0.554249
3089.47,0.554872
3091.31,0.555433
3093.16,0.555534
3095.01,0.556086
3096.85,0.556875
3098.71,0.557675
3100.56,0.558069
3102.41,0.558468
3104.27,0.559027
3106.13,0.559413
3107.99,0.560011
3109.86,0.561092
3111.73,0.561599
3113.59,0.562181
3115.47,0.56269
3117.34,0.563194
3119.21,0.563599
3121.09,0.564236
3122.97,0.564954
3124.86,0.565581
3126.74,0.566327
3128.63,0.56696
3130.52,0.567794
3132.41,0.568735
3134.3,0.569246
3136.2,0.56998
3138.1,0.570955
3140.0,0.571438
3141.9,0.572093
3143.81,0.572916
3145.71,0.573516
3147.62,0.573926
3149.54,0.574593
3151.45,0.575524
3153.37,0.57625
3155.29,0.576997
3157.21,0.577531
3159.13,0.578621
3161.06,0.579346
3162.99,0.580087
3164.92,0.580687
3166.85,0.581279
3168.79,0.581908
3170.72,0.582438
3172.67,0.583292
3174.61,0.584136
3176.55,0.584966
3178.5,0.585757
3180.45,0.586633
3182.4,0.58755
3184.36,0.588082
3186.32,0.588666
3188.27,0.589411
3190.24,0.59025
3192.2,0.590949
3194.17,0.5917
3196.14,0.592475
3198.11,0.593001
3200.08,0.593624
3202.06,0.594319
3204.04,0.595083
3206.02,0.595808
3208.0,0.596389
3209.99,0.59704
3211.98,0.597725
3213.97,0.598453
3215.96,0.599068
3217.96,0.599641
3219.96,0.600653
3221.96,0.601777
3223.96,0.602482
3225.97,0.602899
3227.98,0.603311
3229.99,0.603975
3232.0,0.604768
3234.02,0.60589
3236.04,0.606679
3238.06,0.606978
3240.08,0.607567
3242.11,0.608374
3244.14,0.608844
3246.17,0.60934
3248.2,0.610156
3250.24,0.610689
3252.28,0.611231
3254.32,0.612003
3256.37,0.61275
3258.41,0.613281
3260.46,0.613951
3262.51,0.614796
3264.57,0.615511
3266.63,0.616272
3268.69,0.616657
3270.75,0.617282
3272.81,0.617938
3274.88,0.618764
3276.95,0.619597
3279.02,0.620183
3281.1,0.620415
3283.18,0.621031
3285.26,0.621839
3287.34,0.622738
3289.43,0.623357
3291.51,0.623977
3293.61,0.624774
3295.7,0.625266
3297.8,0.625415
3299.89,0.625961
3302.0,0.626899
3304.1,0.627678
3306.21,0.628367
3308.32,0.62866
3310.43,0.629072
3312.55,0.629527
3314.66,0.630167
3316.78,0.630489
3318.91,0.630564
3321.03,0.631025
3323.16,0.63161
3325.29,0.631909
3327.43,0.631993
3329.57,0.632256
3331.71,0.63264
3333.85,0.632936
3335.99,0.632986
3338.14,0.632674
3340.29,0.632374
3342.45,0.632081
3344.6,0.63183
3346.76,0.631582
3348.92,0.63099
3351.09,0.630509
3353.26,0.629963
3355.43,0.629665
3357.6,0.629468
3359.78,0.629273
3361.96,0.629451
3364.14,0.629696
3366.32,0.629719
3368.51,0.630197
3370.7,0.630677
3372.89,0.631145
3375.09,0.63175
3377.29,0.632282
3379.49,0.63306
3381.69,0.633943
3383.9,0.634493
3386.11,0.635229
3388.32,0.635863
3390.54,0.636361
3392.76,0.636459
3394.98,0.63649
3397.21,0.636536
3399.43,0.63639
3401.66,0.636016
3403.9,0.635559
3406.13,0.635257
3408.37,0.634994
3410.61,0.634923
3412.86,0.634986
3415.11,0.635078
3417.36,0.635486
3419.61,0.636789
3421.87,0.63849
3424.13,0.64007
3426.39,0.641705
3428.66,0.64357
3430.93,0.645621
3433.2,0.647474
3435.48,0.64914
3437.76,0.650436
3440.04,0.651409
3442.32,0.652454
3444.61,0.653657
3446.9,0.654729
3449.19,0.655515
3451.49,0.656423
3453.79,0.657685
3456.09,0.65864
3458.4,0.659098
3460.7,0.659542
3463.02,0.659968
3465.33,0.660354
3467.65,0.660572
3469.97,0.660618
3472.29,0.660551
3474.62,0.660473
3476.95,0.660689
3479.29,0.660861
3481.62,0.661198
3483.96,0.662006
3486.3,0.662546
3488.65,0.663085
3491.0,0.663827
3493.35,0.66455
3495.71,0.665297
3498.07,0.665994
3500.43,0.666521
3502.79,0.667252
3505.16,0.668299
3507.53,0.669703
3509.91,0.671516
3512.29,0.673477
3514.67,0.675525
3517.05,0.677049
3519.44,0.678624
3521.83,0.680129
3524.22,0.681591
3526.62,0.682822
3529.02,0.68399
3531.43,0.685027
3533.83,0.685936
3536.24,0.686816
3538.66,0.687927
3541.08,0.688854
3543.5,0.689781
3545.92,0.690578
3548.35,0.691419
3550.78,0.692169
3553.21,0.692678
3555.65,0.693235
3558.09,0.694235
3560.53,0.694965
3562.98,0.695564
3565.43,0.696235
3567.88,0.696909
3570.34,0.697653
3572.8,0.698221
3575.27,0.6987
3577.73,0.699144
3580.2,0.699993
3582.68,0.700908
3585.16,0.701363
3587.64,0.701804
3590.12,0.702544
3592.61,0.703125
3595.1,0.703707
3597.6,0.704282
3600.09,0.704688
3602.6,0.705276
3605.1,0.705819
3607.61,0.706287
3610.12,0.706763
3612.64,0.707365
3615.16,0.707732
3617.68,0.707992
3620.21,0.708507
3622.74,0.709127
3625.27,0.709643
3627.81,0.710062
3630.35,0.710452
3632.89,0.710838
3635.44,0.711205
3637.99,0.71176
3640.54,0.712311
3643.1,0.712732
3645.66,0.713141
3648.23,0.713784
3650.8,0.714075
3653.37,0.714433
3655.95,0.714815
3658.53,0.715284
3661.11,0.715668
3663.7,0.715966
3666.29,0.71635
3668.89,0.716846
3671.48,0.717209
3674.09,0.717754
3676.69,0.718186
3679.3,0.718682
3681.91,0.719146
3684.53,0.719532
3687.15,0.719754
3689.78,0.720411
3692.4,0.720984
3695.04,0.721406
3697.67,0.721801
3700.31,0.722077
3702.95,0.722536
3705.6,0.723027
3708.25,0.723473
3710.91,0.724057
3713.56,0.724339
3716.23,0.724719
3718.89,0.72505
3721.56,0.725411
3724.23,0.725871
3726.91,0.726114
3729.59,0.72656
3732.28,0.727159
3734.97,0.727686
3737.66,0.728147
3740.36,0.728281
3743.06,0.728787
3745.76,0.729163
3748.47,0.729554
3751.18,0.729804
3753.9,0.730177
3756.62,0.73065
3759.34,0.731046
3762.07,0.731578
3764.8,0.732055
3767.54,0.732225
3770.28,0.732356
3773.02,0.732627
3775.77,0.733003
3778.52,0.733412
3781.28,0.733721
3784.04,0.734132
3786.8,0.734564
3789.57,0.734951
3792.34,0.735201
3795.12,0.735417
3797.9,0.735513
3800.69,0.735742
3803.47,0.735862
3806.27,0.7361
3809.06,0.736134
3811.86,0.736219
3814.67,0.736465
3817.48,0.736536
3820.29,0.736803
3823.11,0.736923
3825.93,0.736682
3828.76,0.73649
3831.59,0.736684
3834.42,0.736685
3837.26,0.736818
3840.1,0.736999
3842.95,0.737254
3845.8,0.73735
3848.65,0.737492
3851.51,0.737538
3854.38,0.737526
3857.24,0.737422
3860.12,0.73763
3862.99,0.73784
3865.87,0.737981
3868.76,0.738037
3871.65,0.738157
3874.54,0.738306
3877.44,0.738468
3880.34,0.738523
3883.25,0.738547
3886.16,0.73867
3889.07,0.738843
3891.99,0.738908
3894.92,0.738892
3897.85,0.738649
3900.78,0.738692
3903.72,0.738765
3906.66,0.738869
3909.6,0.738687
3912.55,0.73868
3915.51,0.738743
3918.47,0.738708
3921.43,0.738491
3924.4,0.738331
3927.37,0.73818
3930.35,0.737907
3933.33,0.737589
3936.32,0.737334
3939.31,0.736939
3942.31,0.736464
3945.31,0.735809
3948.31,0.734859
3951.32,0.733877
3954.34,0.732725
3957.35,0.73155
3960.38,0.730679
3963.41,0.729719
3966.44,0.728911
3969.48,0.728247
3972.52,0.727856
3975.56,0.72751
3978.61,0.72745
3981.67,0.72748
3984.73,0.727706
3987.8,0.728134
3990.87,0.72904
3993.94,0.730096
3997.02,0.731191
4000.1,0.732412
4003.19,0.733546
4006.29,0.734662
4009.39,0.735716
4012.49,0.736698
4015.6,0.737442
4018.71,0.738051
4021.83,0.73872
4024.95,0.739208
4028.08,0.739697
4031.21,0.740371
4034.35,0.741034
4037.49,0.74142
4040.64,0.741749
4043.79,0.741915
4046.94,0.742226
4050.11,0.742827
4053.27,0.74308
4056.44,0.743076
4059.62,0.743337
4062.8,0.743328
4065.99,0.743248
4069.18,0.743305
4072.38,0.743401
4075.58,0.743326
4078.78,0.743346
4082.0,0.743201
4085.21,0.743138
4088.43,0.743079
4091.66,0.743142
4094.89,0.743036
4098.13,0.74297
4101.37,0.742908
4104.62,0.74283
4107.87,0.74272
4111.13,0.742559
4114.39,0.742405
4117.66,0.742387
4120.93,0.742266
4124.21,0.742195
4127.5,0.741993
4130.78,0.741773
4134.08,0.741693
4137.38,0.741509
4140.68,0.741438
4143.99,0.741364
4147.31,0.741094
4150.63,0.740784
4153.95,0.740449
4157.29,0.740348
4160.62,0.740165
4163.96,0.740234
4167.31,0.740187
4170.66,0.739919
4174.02,0.739502
4177.39,0.739337
4180.75,0.739295
4184.13,0.739112
4187.51,0.738711
4190.89,0.738468
4194.28,0.738317
4197.68,0.737982
4201.08,0.737674
4204.49,0.737548
4207.9,0.737306
4211.32,0.737028
4214.74,0.736726
4218.17,0.736662
4221.61,0.736382
4225.05,0.736517
4228.5,0.736575
4231.95,0.736496
4235.4,0.736336
4238.87,0.73621
4242.34,0.736006
4245.81,0.735715
4249.29,0.735298
4252.78,0.734964
4256.27,0.734325
4259.77,0.732997
4263.27,0.731422
4266.78,0.730815
4270.29,0.730698
4273.81,0.730304
4277.34,0.729671
4280.87,0.729005
4284.41,0.728509
4287.95,0.728065
4291.5,0.727211
4295.06,0.726343
4298.62,0.725389
4302.19,0.724374
4305.76,0.723429
4309.34,0.722573
4312.92,0.721458
4316.52,0.720232
4320.11,0.719146
4323.72,0.718219
4327.32,0.717314
4330.94,0.716512
4334.56,0.715428
4338.19,0.714375
4341.82,0.713446
4345.46,0.71268
4349.11,0.71186
4352.76,0.711132
4356.42,0.710395
4360.08,0.7097
4363.75,0.708942
4367.43,0.708409
4371.11,0.707799
4374.8,0.707176
4378.49,0.70664
4382.19,0.705993
4385.9,0.705544
4389.61,0.705145
4393.33,0.704491
4397.06,0.703974
4400.79,0.703588
4404.53,0.703424
4408.28,0.703195
4412.03,0.702809
4415.79,0.702518
4419.55,0.702442
4423.32,0.70217
4427.1,0.701963
4430.88,0.701821
4434.67,0.701684
4438.47,0.701695
4442.27,0.701503
4446.08,0.70129
4449.9,0.701148
4453.72,0.700849
4457.55,0.70059
4461.39,0.700327
4465.23,0.700059
4469.08,0.699799
4472.94,0.699469
4476.8,0.699081
4480.67,0.698644
4484.55,0.698216
4488.43,0.697799
4492.32,0.697227
4496.21,0.69671
4500.12,0.696106
4504.03,0.695473
4507.94,0.694915
4511.87,0.694165
4515.8,0.693366
4519.73,0.692649
4523.68,0.691784
4527.63,0.691135
4531.59,0.690316
4535.55,0.689503
4539.52,0.688455
4543.5,0.687372
4547.49,0.686197
4551.48,0.68528
4555.48,0.684358
4559.49,0.683301
4563.5,0.682047
4567.52,0.680902
4571.55,0.679744
4575.58,0.678617
4579.62,0.677332
4583.67,0.67597
4587.73,0.674677
4591.79,0.67341
4595.86,0.672045
4599.94,0.670805
4604.03,0.669534
4608.12,0.66827
4612.22,0.666921
4616.33,0.665681
4620.44,0.664427
4624.56,0.663113
4628.69,0.661801
4632.83,0.660636
4636.97,0.659303
4641.12,0.657887
4645.28,0.656624
4649.45,0.655668
4653.62,0.654583
4657.8,0.653529
4661.99,0.652442
4666.19,0.651373
4670.39,0.6504
4674.6,0.649391
4678.82,0.648442
4683.05,0.647447
4687.28,0.646377
4691.52,0.645258
4695.77,0.644106
4700.03,0.64317
4704.3,0.642237
4708.57,0.641266
4712.85,0.640325
4717.14,0.63933
4721.43,0.638157
4725.74,0.637125
4730.05,0.635871
4734.37,0.634944
4738.7,0.634031
4743.03,0.633071
4747.38,0.632092
4751.73,0.631045
4756.09,0.629811
4760.45,0.628802
4764.83,0.627779
4769.21,0.626853
4773.6,0.625844
4778.0,0.624815
4782.41,0.623717
4786.83,0.622724
4791.25,0.621805
4795.68,0.620809
4800.13,0.619938
4804.57,0.618998
4809.03,0.617937
4813.5,0.616979
4817.97,0.616033
4822.45,0.61502
4826.94,0.614024
4831.44,0.613186
4835.95,0.612175
4840.46,0.611194
4844.99,0.610285
4849.52,0.609576
4854.06,0.608617
4858.61,0.607547
4863.17,0.606571
4867.73,0.605822
4872.31,0.604924
4876.89,0.604082
4881.48,0.603174
4886.08,0.602198
4890.69,0.601148
4895.31,0.600148
4899.94,0.599073
4904.57,0.598051
4909.22,0.597054
4913.87,0.59594
4918.53,0.59478
4923.21,0.593688
4927.88,0.592517
4932.57,0.591331
4937.27,0.590196
4941.98,0.589147
4946.69,0.58814
4951.42,0.587035
4956.15,0.585847
4960.89,0.584803
4965.65,0.583577
4970.41,0.582126
4975.18,0.580788
4979.96,0.579636
4984.75,0.578359
4989.54,0.577103
4994.35,0.575774
4999.17,0.574354
5003.99,0.572973
5008.83,0.571639
5013.67,0.570225
5018.52,0.568728
5023.39,0.567415
5028.26,0.566514
5033.14,0.565003
5038.03,0.563483
5042.93,0.562168
5047.84,0.560924
5052.76,0.55964
5057.69,0.558455
5062.63,0.557258
5067.58,0.556155
5072.54,0.554927
5077.51,0.553775
5082.49,0.552387
5087.47,0.551165
5092.47,0.550229
5097.48,0.548895
5102.5,0.547271
5107.52,0.545871
5112.56,0.544481
5117.61,0.542967
5122.66,0.541245
5127.73,0.539521
5132.81,0.537683
5137.89,0.535825
5142.99,0.533798
5148.1,0.531616
5153.22,0.529974
5158.34,0.528632
5163.48,0.526607
5168.63,0.524756
5173.79,0.523007
5178.96,0.52141
5184.13,0.519846
5189.32,0.518413
5194.52,0.51701
5199.73,0.515308
5204.95,0.513727
5210.19,0.512446
5215.43,0.510373
5220.68,0.509555
5225.94,0.508399
5231.22,0.506504
5236.5,0.504659
5241.79,0.503063
5247.1,0.501671
5252.42,0.500062
5257.74,0.498303
5263.08,0.496638
5268.43,0.49509
5273.79,0.493439
5279.16,0.491674
5284.54,0.490371
5289.93,0.48878
5295.34,0.487231
5300.75,0.486417
5306.18,0.484889
5311.61,0.483324
5317.06,0.481939
5322.52,0.48046
5327.99,0.479038
5333.47,0.477552
5338.96,0.476163
5344.47,0.474503
5349.98,0.472269
5355.51,0.471002
5361.05,0.470482
5366.6,0.468648
5372.16,0.466637
5377.73,0.464693
5383.32,0.462878
5388.91,0.461155
5394.52,0.459505
5400.14,0.457616
5405.77,0.455647
5411.41,0.453537
5417.07,0.451747
5422.74,0.449236
5428.41,0.448228
5434.1,0.44776
5439.81,0.445323
5445.52,0.443601
5451.25,0.442232
5456.98,0.440915
5462.73,0.439219
5468.5,0.438117
5474.27,0.438382
5480.06,0.437364
5485.86,0.437122
5491.67,0.437273
5497.49,0.436887
5503.33,0.437065
5509.18,0.43741
5515.04,0.437957
5520.91,0.438022
5526.8,0.438438
5532.69,0.439006
5538.61,0.439117
5544.53,0.43879
5550.47,0.438235
5556.41,0.437666
5562.38,0.437502
5568.35,0.437134
5574.34,0.436622
5580.34,0.435722
5586.35,0.43688
5592.38,0.438174
5598.42,0.437499
5604.47,0.436903
5610.54,0.437042
5616.61,0.436314
5622.71,0.435608
5628.81,0.435071
5634.93,0.433795
5641.06,0.431882
5647.21,0.431258
5653.36,0.432345
5659.54,0.43069
5665.72,0.429892
5671.92,0.428457
5678.13,0.426766
5684.36,0.426661
5690.6,0.425636
5696.85,0.424048
5703.12,0.423896
5709.4,0.421848
5715.69,0.42069
5722.0,0.420923
5728.33,0.420279
5734.66,0.419029
5741.01,0.417628
5747.38,0.41594
5753.76,0.414647
5760.15,0.413762
5766.56,0.409651
5772.98,0.40876
5779.41,0.409155
5785.86,0.405978
5792.33,0.403617
5798.81,0.401248
5805.3,0.399048
5811.81,0.396911
5818.33,0.393775
5824.87,0.390548
5831.42,0.390231
5837.99,0.388646
5844.57,0.386115
5851.17,0.383193
5857.78,0.380381
5864.41,0.377346
5871.05,0.375256
5877.7,0.37221
5884.38,0.367872
5891.06,0.368029
5897.76,0.364747
5904.48,0.362568
5911.21,0.36115
5917.96,0.357393
5924.73,0.354653
5931.5,0.351976
5938.3,0.348347
5945.11,0.347449
5951.93,0.346305
5958.78,0.342955
5965.63,0.340148
5972.51,0.337
5979.39,0.335948
5986.3,0.333227
5993.22,0.330585
6000.16,0.329491
6007.11,0.327768
6014.08,0.324988
6021.06,0.323703
6028.06,0.322868
6035.08,0.321303
6042.12,0.31927
6049.17,0.316278
6056.23,0.31696
6063.32,0.319237
6070.42,0.316407
6077.53,0.315343
6084.67,0.316527
6091.82,0.316253
6098.98,0.315146
6106.17,0.314677
6113.37,0.313294
6120.58,0.313674
6127.82,0.315072
6135.07,0.314375
6142.34,0.313689
6149.63,0.313618
6156.93,0.313285
6164.25,0.312688
6171.59,0.313269
6178.94,0.312866
6186.32,0.31145
6193.71,0.312141
6201.12,0.312903
6208.54,0.312104
6215.99,0.311769
6223.45,0.311518
6230.93,0.311412
6238.43,0.311202
6245.95,0.311026
6253.48,0.310847
6261.03,0.31073
6268.6,0.310436
6276.19,0.310315
6283.8,0.310216
6291.43,0.310186
6299.07,0.31014
6306.73,0.310164
6314.42,0.310113
6322.12,0.310283
6329.83,0.31048
6337.57,0.310692
6345.33,0.31003
6353.11,0.311721
6360.9,0.313436
6368.72,0.312718
6376.55,0.312989
6384.4,0.314614
6392.27,0.314935
6400.17,0.315605
6408.08,0.315235
6416.01,0.31389
6423.96,0.316907
6431.93,0.318526
6439.92,0.317689
6447.93,0.317957
6455.96,0.317292
6464.01,0.317192
6472.08,0.316476
6480.17,0.31573
6488.28,0.314775
6496.41,0.313861
6504.56,0.315159
6512.73,0.315404
6520.92,0.313147
6529.14,0.312641
6537.37,0.312453
6545.63,0.310844
6553.9,0.309376
6562.2,0.308457
6570.51,0.306977
6578.85,0.305383
6587.21,0.305117
6595.59,0.303048
6603.99,0.301768
6612.42,0.300155
6620.86,0.298276
6629.33,0.296425
6637.82,0.293915
6646.33,0.293331
6654.86,0.293546
6663.41,0.291726
6671.99,0.289916
6680.59,0.288405
6689.21,0.287569
6697.85,0.287267
6706.51,0.285905
6715.2,0.284428
6723.91,0.283949
6732.64,0.283267
6741.4,0.282305
6750.18,0.281158
6758.98,0.280095
6767.8,0.278928
6776.65,0.277455
6785.52,0.275977
6794.41,0.274628
6803.33,0.274309
6812.27,0.273306
6821.23,0.271638
6830.22,0.270292
6839.23,0.269885
6848.26,0.269044
6857.32,0.267315
6866.4,0.265909
6875.51,0.26656
6884.64,0.266424
6893.8,0.265206
6902.98,0.264294
6912.18,0.263603
6921.41,0.263502
6930.66,0.262819
6939.94,0.261984
6949.24,0.261233
6958.57,0.260104
6967.92,0.259385
6977.3,0.259763
6986.7,0.258903
6996.13,0.258022
7005.59,0.257518
7015.07,0.257227
7024.57,0.256567
7034.1,0.256499
7043.66,0.25579
7053.24,0.255316
7062.85,0.255699
7072.49,0.255377
7082.15,0.254923
7091.84,0.254506
7101.55,0.254104
7111.3,0.25364
7121.06,0.252943
7130.86,0.252286
7140.68,0.251406
7150.53,0.250565
7160.41,0.249993
7170.31,0.249034
7180.24,0.248457
7190.2,0.248051
7200.19,0.24702
7210.2,0.245984
7220.24,0.245158
7230.31,0.244291
7240.41,0.243209
7250.54,0.242128
7260.69,0.24079
7270.88,0.239429
7281.09,0.238025
7291.33,0.236897
7301.6,0.235472
7311.9,0.233968
7322.22,0.232302
7332.58,0.230662
7342.97,0.228898
7353.38,0.22723
7363.83,0.225363
7374.3,0.223434
7384.81,0.221354
7395.34,0.219399
7405.91,0.217317
7416.5,0.215115
7427.13,0.212837
7437.78,0.21052
7448.47,0.207933
7459.19,0.205377
7469.94,0.202769
7480.71,0.20041
7491.52,0.197877
7502.37,0.195184
7513.24,0.192294
7524.14,0.18955
7535.08,0.1868
7546.05,0.184069
7557.05,0.181253
7568.08,0.178394
7579.14,0.175457
7590.24,0.172509
7601.37,0.169403
7612.53,0.166433
7623.73,0.163324
7634.96,0.160106
7646.22,0.156755
7657.51,0.153372
7668.84,0.149818
7680.2,0.146282
7691.59,0.142635
7703.02,0.139088
7714.49,0.135322
7725.98,0.131504
7737.51,0.127431
7749.08,0.123465
7760.68,0.119602
7772.32,0.115641
7783.99,0.111666
7795.69,0.107845
7807.43,0.1038
7819.21,0.099906
7831.02,0.096005
7842.87,0.092243
7854.75,0.088436
7866.67,0.084652
7878.62,0.080823
7890.62,0.077179
7902.64,0.073609
7914.71,0.070323
7926.81,0.067017
7938.95,0.063947
7951.13,0.060974
7963.34,0.058177
7975.59,0.055435
7987.88,0.053068
8000.21,0.050832
8012.57,0.048784
8024.98,0.046965
8037.42,0.04557
8049.9,0.044331
8062.42,0.043641
8074.98,0.043262
8087.57,0.043262
8100.21,0.043712
8112.89,0.044859
8125.6,0.046412
8138.36,0.048744
8151.16,0.051486
8163.99,0.054857
8176.87,0.058792
8189.79,0.063274
8202.75,0.068076
8215.74,0.073424
8228.79,0.078879
8241.87,0.084496
8254.99,0.089857
8268.16,0.094935
8281.37,0.099408
8294.62,0.103157
8307.91,0.105851
8321.24,0.107571
8334.62,0.108367
8348.04,0.10846
8361.51,0.107611
8375.02,0.106292
8388.57,0.104702
8402.16,0.10333
8415.8,0.10213
8429.49,0.101296
8443.22,0.100681
8456.99,0.10025
8470.81,0.099697
8484.67,0.099097
8498.58,0.098262
8512.54,0.097372
8526.54,0.096491
8540.58,0.095739
8554.68,0.094729
8568.82,0.093853
8583.0,0.093187
8597.24,0.092595
8611.52,0.091875
8625.85,0.091229
8640.22,0.090477
8654.65,0.089674
8669.12,0.088877
8683.64,0.088281
8698.21,0.087558
8712.83,0.086799
8727.5,0.086191
8742.22,0.085715
8756.98,0.085049
8771.8,0.084445
8786.67,0.083854
8801.59,0.083415
8816.56,0.082895
8831.58,0.082489
8846.65,0.081925
8861.77,0.081613
8876.94,0.081193
8892.17,0.080589
8907.45,0.079738
8922.78,0.078791
8938.16,0.077938
8953.6,0.077236
8969.09,0.075938
8984.64,0.074646
9000.23,0.073375
9015.89,0.072123
9031.59,0.07079
9047.36,0.069447
9063.17,0.067918
9079.04,0.066485
9094.97,0.064921
9110.96,0.063476
9127.0,0.061895
9143.09,0.060578
9159.25,0.059232
9175.46,0.058199
9191.73,0.057167
9208.05,0.056525
9224.44,0.056021
9240.88,0.055776
9257.38,0.055411
9273.94,0.055406
9290.56,0.055729
9307.24,0.056106
9323.98,0.056339
9340.78,0.056865
9357.64,0.057663
9374.57,0.058502
9391.55,0.05914
9408.59,0.059813
9425.7,0.060381
9442.87,0.061211
9460.1,0.062007
9477.39,0.063033
9494.75,0.064158
9512.17,0.065502
9529.66,0.066882
9547.21,0.068223
9564.82,0.069602
9582.5,0.071105
9600.25,0.072439
9618.06,0.073671
9635.94,0.074589
9653.88,0.075601
9671.89,0.076316
9689.97,0.076745
9708.12,0.076981
9726.33,0.077053
9744.61,0.076875
9762.97,0.076665
9781.39,0.076288
9799.88,0.075757
9818.44,0.075154
9837.07,0.074549
9855.77,0.07403
9874.54,0.073868
9893.39,0.073706
9912.3,0.073729
9931.29,0.073741
9950.35,0.073914
9969.49,0.074017
9988.7,0.074116
10007.98,0.074283
10027.34,0.074694
10046.77,0.074718
10066.28,0.07474
10085.87,0.074717
10105.53,0.074602
10125.26,0.074362
10145.08,0.074236
10164.97,0.074035
10184.94,0.073715
10204.99,0.073511
10225.12,0.073671
10245.33,0.074079
10265.61,0.0751
10285.98,0.076431
10306.43,0.078002
10326.96,0.07948
10347.57,0.080915
10368.27,0.082211
10389.05,0.083551
10409.91,0.085005
10430.85,0.086372
10451.88,0.087362
10473.0,0.088056
10494.2,0.088466
10515.49,0.088843
10536.86,0.08905
10558.32,0.089207
10579.87,0.089298
10601.5,0.089583
10623.23,0.089913
10645.04,0.090196
10666.94,0.090247
10688.94,0.090354
10711.02,0.090425
10733.2,0.090669
10755.47,0.09084
10777.83,0.090935
10800.28,0.091111
10822.83,0.091297
10845.47,0.091226
10868.21,0.091046
10891.04,0.09054
10913.97,0.089983
10936.99,0.089552
10960.12,0.089033
10983.34,0.088508
11006.66,0.088362
11030.07,0.088104
11053.59,0.087865
11077.21,0.08793
11100.93,0.088163
11124.75,0.088292
11148.68,0.088793
11172.7,0.089336
11196.84,0.090257
11221.07,0.091031
11245.41,0.091838
11269.86,0.093151
11294.41,0.094864
11319.07,0.096644
11343.84,0.098578
11368.72,0.100686
11393.7,0.102676
11418.8,0.104528
11444.01,0.10687
11469.33,0.109272
11494.76,0.111682
11520.3,0.113753
11545.96,0.115846
11571.73,0.117796
11597.62,0.119671
11623.62,0.121499
11649.74,0.123365
11675.98,0.125316
11702.34,0.127173
11728.81,0.128718
11755.41,0.130521
11782.13,0.132356
11808.96,0.134271
11835.92,0.136175
11863.01,0.138081
11890.22,0.139606
11917.55,0.141109
11945.01,0.142791
11972.6,0.144376
12000.31,0.145573
12028.16,0.146597
12056.13,0.147615
12084.23,0.14859
12112.46,0.149243
12140.83,0.149661
12169.33,0.149832
12197.96,0.1499
12226.73,0.149539
12255.64,0.148739
12284.68,0.147773
12313.86,0.146364
12343.18,0.144335
12372.64,0.141751
12402.24,0.138607
12431.98,0.135029
12461.86,0.130663
12491.89,0.126144
12522.06,0.121578
12552.38,0.116957
12582.85,0.111971
12613.47,0.106901
12644.23,0.10207
12675.15,0.097089
12706.21,0.091917
12737.43,0.087055
12768.8,0.082509
12800.33,0.078451
12832.02,0.075145
12863.86,0.072428
12895.86,0.070226
12928.02,0.068685
12960.34,0.0673
12992.82,0.066067
13025.46,0.065193
13058.27,0.064546
13091.25,0.063377
13124.39,0.06263
13157.7,0.062327
13191.18,0.061884
13224.83,0.061432
13258.66,0.06151
13292.65,0.062099
13326.83,0.06276
13361.17,0.063157
13395.7,0.063462
13430.4,0.063643
13465.29,0.06374
13500.35,0.063138
13535.6,0.062667
13571.03,0.062147
13606.65,0.061633
13642.46,0.061207
13678.46,0.061237
13714.64,0.061537
13751.02,0.062028
13787.59,0.062776
13824.36,0.063867
13861.32,0.064826
13898.48,0.06596
13935.85,0.067173
13973.41,0.068104
14011.17,0.068201
14049.15,0.067746
14087.32,0.066617
14125.71,0.06552
14164.3,0.064161
14203.11,0.062636
14242.13,0.060855
14281.36,0.059207
14320.81,0.058096
14360.48,0.056854
14400.38,0.055588
14440.49,0.054455
14480.82,0.053383
14521.39,0.052398
14562.18,0.051593
14603.2,0.051431
14644.45,0.051591
14685.93,0.051704
14727.66,0.051587
14769.62,0.051368
14811.81,0.050967
14854.25,0.050987
14896.94,0.051198
14939.87,0.051566
14983.05,0.052363
15026.48,0.053415
15070.16,0.054501
15114.1,0.055997
15158.29,0.057748
15202.74,0.059966
15247.46,0.062626
15292.43,0.066019
15337.68,0.069589
15383.19,0.072981
15428.97,0.076034
15475.03,0.078864
15521.36,0.081306
15567.97,0.08317
15614.86,0.084376
15662.04,0.084991
15709.5,0.085132
15757.25,0.085383
15805.29,0.085398
15853.62,0.085169
15902.25,0.084899
15951.18,0.084909
16000.42,0.084159
16049.95,0.082917
16099.8,0.081255
16149.95,0.079622
16200.42,0.077916
16251.21,0.076408
16302.31,0.075515
16353.74,0.075369
16405.49,0.075754
16457.57,0.07683
16509.98,0.078073
16562.73,0.07971
16615.82,0.081526
16669.24,0.083119
16723.02,0.084568
16777.13,0.086329
16831.61,0.08768
16886.43,0.089082
16941.62,0.090164
16997.16,0.090546
17053.07,0.09028
17109.36,0.089818
17166.01,0.088595
17223.04,0.08699
17280.45,0.085467
17338.24,0.083999
17396.43,0.082485
17455.0,0.081756
17513.97,0.082175
17573.34,0.082721
17633.11,0.083191
17693.29,0.083008
17753.89,0.082283
17814.9,0.082103
17876.33,0.081614
17938.18,0.080982
18000.47,0.08071
18063.19,0.080936
18126.35,0.081342
18189.95,0.082546
18254.0,0.083931
18318.5,0.085693
18383.46,0.087943
18448.88,0.09068
18514.77,0.09211
18581.13,0.092646
18647.97,0.094092
18715.29,0.094623
18783.1,0.093973
18851.4,0.093713
18920.2,0.093123
18989.51,0.092955
19059.32,0.092536
19129.65,0.092142
19200.5,0.092878
19271.88,0.092739
19343.79,0.091161
19416.23,0.090899
19489.23,0.091505
19562.77,0.092641
19636.88,0.093491
19711.54,0.095055
19786.77,0.095852
19862.59,0.096596
19938.98,0.09662
20015.96,0.095074
20093.54,0.092628
20171.73,0.089981
20250.53,0.086443
20329.94,0.082151
20409.98,0.077801
20490.65,0.074843
20571.96,0.072938
20653.92,0.072017
20736.54,0.072833
20819.82,0.073922
20903.77,0.073779
20988.4,0.07329
21073.72,0.072222
21159.73,0.072136
21246.46,0.073524
21333.89,0.07504
21422.04,0.075821
21510.93,0.077356
21600.56,0.078465
21690.94,0.07877
21782.08,0.078939
21873.99,0.078837
21966.67,0.078286
22060.15,0.078231
22154.42,0.077604
22249.51,0.076589
22345.41,0.074575
22442.14,0.072618
22539.72,0.071635
22638.14,0.070783
22737.43,0.070488
22837.6,0.071044
22938.65,0.073256
23040.6,0.076805
23143.46,0.080629
23247.24,0.083947
23351.96,0.086706
23457.62,0.087558
23564.25,0.089238
23671.85,0.092367
23780.44,0.093532
23890.02,0.093119
24000.63,0.091935
24112.26,0.089641
24224.93,0.087718
24338.66,0.087705
24453.47,0.086716
24569.36,0.0882
24686.36,0.08817
24804.47,0.085647
24923.72,0.083798
25044.13,0.085757
25165.7,0.086221
25288.46,0.087278
25412.43,0.089942
25537.61,0.092643
25664.03,0.095254
25791.71,0.098661
25920.67,0.103547
