Database of Origin,University of Winnipeg Spectrophotometer Facility
Sample Description,Carbonates and Oxolates - RELAB+Nicolet spectra
Other Information,Alfa Aesar stock
Date Added,2018-08-06 20:57:44.162866

Data ID,RLA_CARB_7_1        
Sample ID,ART002
Mineral Name,Oxalic acid/
Locality,Unknown
Grain Size,<45 um
Viewing Geometry,30/0 and 30
Resolution,5/ 0.1-20 nm
Formula,HO2CCO2H
Composition,anhydrous/ synth.

Wavelength
285.0,0.28007
290.0,0.24692
295.0,0.32321
300.0,0.47943
305.0,0.60269
310.0,0.65672
315.0,0.6941
320.0,0.72017
325.0,0.73255
330.0,0.73856
335.0,0.74588
340.0,0.74941
345.0,0.75137
350.0,0.75361
355.0,0.75832
360.0,0.76359
365.0,0.76909
370.0,0.77541
375.0,0.77967
380.0,0.78578
385.0,0.79072
390.0,0.78875
395.0,0.79127
400.0,0.79512
405.0,0.79838
410.0,0.80018
415.0,0.80522
420.0,0.80704
425.0,0.81427
430.0,0.81647
435.0,0.82317
440.0,0.82693
445.0,0.83135
450.0,0.83317
455.0,0.83623
460.0,0.83716
465.0,0.84023
470.0,0.8409
475.0,0.84344
480.0,0.84407
485.0,0.8473
490.0,0.84807
495.0,0.85106
500.0,0.85341
505.0,0.8555
510.0,0.85659
515.0,0.85905
520.0,0.86114
525.0,0.86245
530.0,0.86423
535.0,0.86615
540.0,0.86825
545.0,0.86925
550.0,0.87048
555.0,0.87242
560.0,0.87346
565.0,0.87552
570.0,0.87627
575.0,0.87685
580.0,0.87771
585.0,0.87854
590.0,0.87897
595.0,0.87952
600.0,0.8805
605.0,0.88008
610.0,0.8812
615.0,0.88076
620.0,0.88097
625.0,0.88117
630.0,0.88106
635.0,0.88273
640.0,0.88256
645.0,0.88166
650.0,0.88207
655.0,0.88234
660.0,0.88402
665.0,0.88345
670.0,0.8849
675.0,0.88735
680.0,0.8875
685.0,0.88828
690.0,0.88808
695.0,0.88876
700.0,0.88773
705.0,0.88704
710.0,0.88693
715.0,0.88616
720.0,0.88585
725.0,0.88427
730.0,0.88424
735.0,0.88321
740.0,0.88235
745.0,0.88117
750.0,0.88215
755.0,0.88037
760.0,0.88024
765.0,0.88065
770.0,0.88234
775.0,0.88135
780.0,0.88208
785.0,0.88188
790.0,0.88401
795.0,0.8844
800.0,0.88539
805.0,0.88516
810.0,0.88599
815.0,0.88637
820.0,0.88682
825.0,0.88702
830.0,0.88773
835.0,0.88758
840.0,0.88836
845.0,0.88783
850.0,0.88735
855.0,0.88753
860.0,0.88732
865.0,0.88764
870.0,0.8879
875.0,0.88862
880.0,0.88957
885.0,0.8899
890.0,0.88985
895.0,0.88994
900.0,0.88981
905.0,0.88787
910.0,0.88899
915.0,0.89273
920.0,0.88985
925.0,0.89201
930.0,0.89251
930.2,0.89267
930.4,0.89278
930.5,0.89256
930.7,0.89218
930.9,0.89261
931.0,0.89251
931.2,0.89201
931.4,0.89189
931.6,0.89259
931.7,0.89332
931.9,0.89293
932.1,0.89235
932.2,0.8928
932.4,0.89314
932.6,0.89294
932.7,0.89246
932.9,0.89309
933.1,0.89282
933.2,0.89195
933.4,0.89256
933.6,0.89384
933.7,0.89365
933.9,0.89311
934.1,0.89302
934.2,0.89303
934.4,0.89222
934.6,0.89217
934.8,0.8927
934.9,0.89291
935.1,0.89288
935.3,0.89248
935.4,0.89294
935.6,0.89391
935.8,0.89423
935.9,0.89303
936.1,0.89207
936.3,0.89249
936.4,0.89266
936.6,0.89252
936.8,0.89274
936.9,0.89352
937.1,0.89343
937.3,0.89277
937.5,0.89254
937.6,0.89248
937.8,0.89257
938.0,0.89246
938.1,0.89263
938.3,0.89276
938.5,0.89274
938.6,0.89268
938.8,0.89291
939.0,0.89335
939.2,0.89309
939.3,0.89346
939.5,0.89396
939.7,0.89405
939.8,0.89371
940.0,0.89307
940.2,0.89298
940.3,0.89306
940.5,0.8932
940.7,0.89276
940.8,0.89205
941.0,0.89263
941.2,0.89282
941.4,0.89241
941.5,0.89267
941.7,0.89291
941.9,0.89359
942.0,0.8934
942.2,0.89328
942.4,0.8935
942.6,0.89337
942.7,0.8931
942.9,0.89289
943.1,0.89287
943.3,0.89297
943.4,0.89309
943.6,0.89328
943.8,0.89344
943.9,0.89325
944.1,0.8928
944.3,0.89264
944.5,0.89258
944.6,0.89306
944.8,0.89391
945.0,0.8942
945.1,0.89401
945.3,0.8938
945.5,0.89399
945.7,0.89416
945.8,0.89407
946.0,0.89328
946.2,0.89329
946.3,0.89362
946.5,0.89379
946.7,0.89335
946.9,0.89239
947.0,0.89241
947.2,0.89295
947.4,0.89379
947.6,0.89416
947.7,0.89388
947.9,0.89338
948.1,0.89336
948.3,0.89354
948.4,0.89366
948.6,0.89341
948.8,0.89321
949.0,0.89309
949.1,0.89333
949.3,0.89335
949.5,0.89329
949.6,0.89333
949.8,0.89301
950.0,0.89334
950.2,0.89338
950.3,0.89318
950.5,0.89295
950.7,0.8924
950.9,0.89274
951.0,0.89284
951.2,0.89308
951.4,0.89317
951.6,0.89396
951.7,0.89461
951.9,0.8937
952.1,0.89288
952.3,0.89283
952.4,0.89294
952.6,0.8942
952.8,0.89488
953.0,0.89327
953.1,0.89309
953.3,0.89396
953.5,0.89354
953.7,0.89313
953.8,0.89329
954.0,0.89325
954.2,0.89309
954.4,0.89314
954.5,0.89393
954.7,0.89343
954.9,0.89292
955.1,0.89313
955.2,0.89296
955.4,0.89226
955.6,0.89276
955.8,0.89267
956.0,0.89283
956.1,0.89324
956.3,0.89302
956.5,0.8935
956.7,0.89337
956.8,0.89274
957.0,0.89305
957.2,0.89332
957.4,0.89309
957.5,0.8929
957.7,0.89353
957.9,0.8934
958.1,0.89316
958.2,0.89327
958.4,0.8935
958.6,0.89362
958.8,0.89299
959.0,0.89258
959.1,0.89351
959.3,0.89411
959.5,0.89383
959.7,0.89306
959.8,0.89275
960.0,0.89266
960.2,0.89284
960.4,0.89337
960.5,0.89318
960.7,0.89302
960.9,0.89311
961.1,0.893
961.3,0.89311
961.4,0.89289
961.6,0.89276
961.8,0.89243
962.0,0.89282
962.2,0.89372
962.3,0.89377
962.5,0.89359
962.7,0.89351
962.9,0.89276
963.0,0.89324
963.2,0.89329
963.4,0.89305
963.6,0.89317
963.8,0.89296
963.9,0.89329
964.1,0.89325
964.3,0.89223
964.5,0.89259
964.7,0.89307
964.8,0.89262
965.0,0.89247
965.2,0.89251
965.4,0.8928
965.6,0.89306
965.7,0.89319
965.9,0.89307
966.1,0.89225
966.3,0.8922
966.5,0.89333
966.6,0.89334
966.8,0.89296
967.0,0.89292
967.2,0.89264
967.4,0.8925
967.5,0.89245
967.7,0.89202
967.9,0.8923
968.1,0.89271
968.3,0.89223
968.4,0.89166
968.6,0.89186
968.8,0.89172
969.0,0.89152
969.2,0.89256
969.3,0.89315
969.5,0.89292
969.7,0.89276
969.9,0.89307
970.1,0.89304
970.3,0.89241
970.4,0.89263
970.6,0.89258
970.8,0.89262
971.0,0.89258
971.2,0.89202
971.3,0.89205
971.5,0.89226
971.7,0.89217
971.9,0.89227
972.1,0.89296
972.3,0.89325
972.4,0.89256
972.6,0.89224
972.8,0.89254
973.0,0.89261
973.2,0.8924
973.3,0.89234
973.5,0.89257
973.7,0.89166
973.9,0.89138
974.1,0.89175
974.3,0.89216
974.5,0.8923
974.6,0.89245
974.8,0.89247
975.0,0.89242
975.2,0.89192
975.4,0.89144
975.5,0.8914
975.7,0.89083
975.9,0.89102
976.1,0.89204
976.3,0.892
976.5,0.89181
976.7,0.89174
976.8,0.89146
977.0,0.89211
977.2,0.8926
977.4,0.89238
977.6,0.89243
977.8,0.89237
977.9,0.89212
978.1,0.89181
978.3,0.892
978.5,0.89163
978.7,0.8911
978.9,0.89124
979.0,0.89169
979.2,0.89209
979.4,0.89189
979.6,0.89142
979.8,0.8919
980.0,0.89265
980.2,0.89258
980.3,0.89213
980.5,0.89162
980.7,0.89128
980.9,0.8914
981.1,0.89188
981.3,0.89204
981.5,0.89221
981.7,0.89155
981.8,0.89143
982.0,0.89208
982.2,0.89207
982.4,0.89185
982.6,0.89185
982.8,0.89203
983.0,0.8918
983.1,0.89186
983.3,0.89221
983.5,0.89143
983.7,0.89086
983.9,0.89109
984.1,0.89113
984.3,0.89077
984.4,0.89021
984.6,0.89031
984.8,0.891
985.0,0.89076
985.2,0.89133
985.4,0.89232
985.6,0.89176
985.8,0.89115
985.9,0.89149
986.1,0.89148
986.3,0.89101
986.5,0.89089
986.7,0.89074
986.9,0.89053
987.1,0.89064
987.3,0.89083
987.4,0.89146
987.6,0.89144
987.8,0.89109
988.0,0.89101
988.2,0.89083
988.4,0.89088
988.6,0.89086
988.8,0.89084
989.0,0.89067
989.1,0.89038
989.3,0.89019
989.5,0.89086
989.7,0.89102
989.9,0.89062
990.1,0.89088
990.3,0.8914
990.5,0.8912
990.7,0.89109
990.8,0.89137
991.0,0.89117
991.2,0.89109
991.4,0.89127
991.6,0.89085
991.8,0.89042
992.0,0.89056
992.2,0.89103
992.4,0.89115
992.5,0.89072
992.7,0.89078
992.9,0.89072
993.1,0.89062
993.3,0.89062
993.5,0.89039
993.7,0.89059
993.9,0.89062
994.1,0.89046
994.3,0.88978
994.5,0.8896
994.6,0.89024
994.8,0.89041
995.0,0.89043
995.2,0.8913
995.4,0.89081
995.6,0.89011
995.8,0.8905
996.0,0.89099
996.2,0.89073
996.4,0.89027
996.5,0.88979
996.7,0.88997
996.9,0.89004
997.1,0.89073
997.3,0.89047
997.5,0.88994
997.7,0.89002
997.9,0.89054
998.1,0.8908
998.3,0.89034
998.5,0.8901
998.7,0.89016
998.9,0.89002
999.0,0.8902
999.2,0.89035
999.4,0.89053
999.6,0.89059
999.8,0.89037
1000.0,0.89029
1000.2,0.8904
1000.4,0.89042
1000.6,0.89
1000.8,0.88987
1001.0,0.88991
1001.2,0.88987
1001.4,0.88993
1001.6,0.89029
1001.8,0.89056
1001.9,0.89047
1002.1,0.88984
1002.3,0.88921
1002.5,0.8892
1002.7,0.88956
1002.9,0.88989
1003.1,0.88991
1003.3,0.88979
1003.5,0.89
1003.7,0.89017
1003.9,0.88963
1004.1,0.88946
1004.3,0.88967
1004.5,0.88996
1004.7,0.88991
1004.9,0.8897
1005.0,0.8896
1005.3,0.88956
1005.4,0.88969
1005.6,0.89005
1005.8,0.89014
1006.0,0.89023
1006.2,0.89004
1006.4,0.88993
1006.6,0.88976
1006.8,0.88935
1007.0,0.88917
1007.2,0.88922
1007.4,0.88934
1007.6,0.88967
1007.8,0.88947
1008.0,0.88942
1008.2,0.88991
1008.4,0.88979
1008.6,0.8896
1008.8,0.88969
1009.0,0.88971
1009.2,0.88993
1009.4,0.8901
1009.5,0.89023
1009.8,0.8902
1010.0,0.8895
1010.1,0.88887
1010.3,0.88864
1010.5,0.88897
1010.7,0.8896
1010.9,0.88977
1011.1,0.88964
1011.3,0.88946
1011.5,0.88912
1011.7,0.8888
1011.9,0.88928
1012.1,0.88975
1012.3,0.88942
1012.5,0.88932
1012.7,0.88924
1012.9,0.88939
1013.1,0.88947
1013.3,0.88928
1013.5,0.88924
1013.7,0.88912
1013.9,0.88934
1014.1,0.88966
1014.3,0.88916
1014.5,0.88885
1014.7,0.88912
1014.9,0.88916
1015.1,0.88933
1015.3,0.88901
1015.5,0.88838
1015.7,0.88846
1015.9,0.88857
1016.1,0.88851
1016.3,0.88885
1016.5,0.88877
1016.7,0.88856
1016.9,0.88897
1017.1,0.88893
1017.3,0.88876
1017.5,0.88877
1017.7,0.88835
1017.9,0.88837
1018.1,0.88909
1018.3,0.88902
1018.5,0.88842
1018.7,0.88854
1018.9,0.88891
1019.1,0.88876
1019.3,0.8883
1019.5,0.88822
1019.7,0.88852
1019.9,0.88864
1020.1,0.88877
1020.3,0.88857
1020.5,0.88841
1020.7,0.88854
1020.9,0.88827
1021.1,0.88782
1021.3,0.88794
1021.5,0.88806
1021.7,0.88791
1021.9,0.88815
1022.1,0.88832
1022.3,0.88829
1022.5,0.88806
1022.7,0.88761
1022.9,0.88751
1023.1,0.88779
1023.3,0.88762
1023.5,0.88762
1023.7,0.88814
1023.9,0.88873
1024.1,0.88861
1024.3,0.88772
1024.5,0.88721
1024.7,0.88758
1024.9,0.88771
1025.1,0.88716
1025.3,0.88735
1025.5,0.88769
1025.7,0.88743
1025.9,0.88735
1026.1,0.88731
1026.3,0.88685
1026.5,0.88693
1026.8,0.88744
1026.9,0.88741
1027.2,0.88756
1027.4,0.88738
1027.6,0.88721
1027.8,0.88727
1028.0,0.88719
1028.2,0.88674
1028.4,0.88638
1028.6,0.88621
1028.8,0.88686
1029.0,0.88715
1029.2,0.88709
1029.4,0.88716
1029.6,0.88707
1029.8,0.88665
1030.0,0.88658
1030.2,0.88664
1030.4,0.88669
1030.6,0.88679
1030.8,0.8869
1031.0,0.88655
1031.2,0.88662
1031.4,0.88649
1031.7,0.88626
1031.8,0.88653
1032.1,0.88667
1032.3,0.88653
1032.5,0.88655
1032.7,0.88651
1032.9,0.88666
1033.1,0.88643
1033.3,0.88594
1033.5,0.88567
1033.7,0.88574
1033.9,0.88566
1034.1,0.88557
1034.3,0.88574
1034.5,0.88588
1034.7,0.88594
1034.9,0.88561
1035.2,0.88544
1035.4,0.8857
1035.6,0.88561
1035.8,0.88529
1036.0,0.88515
1036.2,0.88497
1036.4,0.88499
1036.6,0.88505
1036.8,0.88497
1037.0,0.88522
1037.2,0.88544
1037.4,0.8853
1037.6,0.88501
1037.8,0.8853
1038.1,0.88546
1038.3,0.885
1038.5,0.8849
1038.7,0.88537
1038.9,0.88549
1039.1,0.88465
1039.3,0.88455
1039.5,0.88484
1039.7,0.88473
1039.9,0.88458
1040.1,0.88464
1040.3,0.88447
1040.6,0.88421
1040.8,0.88454
1041.0,0.88457
1041.2,0.88434
1041.4,0.88432
1041.6,0.88438
1041.8,0.88432
1042.0,0.88411
1042.2,0.88404
1042.4,0.88419
1042.6,0.88404
1042.8,0.88386
1043.1,0.88397
1043.3,0.88371
1043.5,0.88375
1043.7,0.88405
1043.9,0.88371
1044.1,0.88347
1044.3,0.8836
1044.5,0.88364
1044.8,0.88356
1045.0,0.88357
1045.2,0.88338
1045.4,0.88325
1045.6,0.88357
1045.8,0.88358
1046.0,0.88315
1046.2,0.88297
1046.4,0.88299
1046.6,0.88266
1046.9,0.88264
1047.1,0.88304
1047.3,0.88313
1047.5,0.88322
1047.7,0.88306
1047.9,0.88289
1048.1,0.88291
1048.3,0.88275
1048.6,0.88279
1048.8,0.88232
1049.0,0.88229
1049.2,0.88262
1049.4,0.88239
1049.6,0.88203
1049.8,0.88184
1050.0,0.88173
1050.3,0.88183
1050.5,0.8816
1050.7,0.88108
1050.9,0.88109
1051.1,0.88143
1051.3,0.8816
1051.5,0.88169
1051.7,0.88194
1051.9,0.88162
1052.2,0.88148
1052.4,0.88172
1052.6,0.88134
1052.8,0.88113
1053.0,0.88142
1053.2,0.88139
1053.4,0.88122
1053.7,0.8814
1053.9,0.88123
1054.1,0.88097
1054.3,0.88112
1054.5,0.88085
1054.7,0.88063
1054.9,0.88055
1055.2,0.8807
1055.4,0.88066
1055.6,0.88032
1055.8,0.87979
1056.0,0.87954
1056.2,0.87996
1056.4,0.88038
1056.7,0.88036
1056.9,0.88046
1057.1,0.88024
1057.3,0.87998
1057.5,0.87992
1057.8,0.87991
1058.0,0.88027
1058.2,0.88032
1058.4,0.8798
1058.6,0.87969
1058.8,0.87981
1059.0,0.87982
1059.3,0.87971
1059.5,0.87985
1059.7,0.87981
1059.9,0.87932
1060.1,0.8793
1060.3,0.87948
1060.6,0.87923
1060.8,0.87892
1061.0,0.87893
1061.2,0.87909
1061.4,0.87923
1061.7,0.87895
1061.9,0.87852
1062.1,0.8784
1062.3,0.8785
1062.5,0.87861
1062.7,0.87874
1062.9,0.87901
1063.2,0.87906
1063.4,0.87889
1063.6,0.87841
1063.8,0.87821
1064.0,0.87844
1064.3,0.87866
1064.5,0.87863
1064.7,0.87858
1064.9,0.87847
1065.1,0.87832
1065.3,0.87816
1065.6,0.87838
1065.8,0.87831
1066.0,0.87825
1066.2,0.87818
1066.4,0.8782
1066.7,0.87836
1066.9,0.87835
1067.1,0.87837
1067.3,0.87816
1067.6,0.87788
1067.8,0.87793
1068.0,0.87819
1068.2,0.87797
1068.4,0.87781
1068.7,0.87816
1068.9,0.87811
1069.1,0.87793
1069.3,0.8778
1069.5,0.87801
1069.8,0.87791
1070.0,0.87736
1070.2,0.87729
1070.4,0.87771
1070.6,0.87783
1070.8,0.87756
1071.1,0.8774
1071.3,0.87745
1071.5,0.87729
1071.7,0.8771
1072.0,0.87712
1072.2,0.8769
1072.4,0.87686
1072.6,0.87707
1072.8,0.87717
1073.1,0.87748
1073.3,0.87758
1073.5,0.87724
1073.7,0.87684
1074.0,0.87669
1074.2,0.87709
1074.4,0.87722
1074.6,0.87709
1074.8,0.87713
1075.1,0.87676
1075.3,0.87661
1075.5,0.87673
1075.7,0.87679
1076.0,0.87666
1076.2,0.87646
1076.4,0.87646
1076.6,0.87673
1076.9,0.87679
1077.1,0.87703
1077.3,0.87714
1077.5,0.87708
1077.8,0.87684
1078.0,0.87643
1078.2,0.87642
1078.4,0.87669
1078.7,0.8766
1078.9,0.87645
1079.1,0.8765
1079.3,0.87671
1079.6,0.8765
1079.8,0.8764
1080.0,0.87654
1080.2,0.8765
1080.4,0.8762
1080.7,0.87648
1080.9,0.87668
1081.1,0.87661
1081.3,0.87673
1081.6,0.87675
1081.8,0.87663
1082.0,0.87665
1082.3,0.87664
1082.5,0.87682
1082.7,0.87658
1082.9,0.87653
1083.2,0.8766
1083.4,0.87629
1083.6,0.87615
1083.8,0.87625
1084.1,0.87619
1084.3,0.87641
1084.5,0.8765
1084.8,0.87612
1085.0,0.8759
1085.2,0.87586
1085.4,0.87608
1085.7,0.87607
1085.9,0.876
1086.1,0.8763
1086.3,0.87635
1086.6,0.8761
1086.8,0.87594
1087.0,0.87591
1087.3,0.8762
1087.5,0.87627
1087.7,0.87597
1087.9,0.87598
1088.2,0.87611
1088.4,0.8762
1088.6,0.87619
1088.8,0.87588
1089.1,0.87566
1089.3,0.87576
1089.5,0.87613
1089.8,0.87634
1090.0,0.87612
1090.2,0.87611
1090.4,0.87609
1090.7,0.87583
1090.9,0.87589
1091.1,0.87602
1091.4,0.8759
1091.6,0.87589
1091.8,0.87594
1092.1,0.87573
1092.3,0.87584
1092.5,0.87631
1092.8,0.87619
1093.0,0.876
1093.2,0.87601
1093.4,0.87623
1093.7,0.8762
1093.9,0.87618
1094.1,0.87621
1094.4,0.87629
1094.6,0.87607
1094.8,0.87583
1095.1,0.87592
1095.3,0.87599
1095.5,0.87588
1095.8,0.87588
1096.0,0.87596
1096.2,0.87583
1096.4,0.87565
1096.7,0.8758
1096.9,0.87568
1097.1,0.87568
1097.4,0.8757
1097.6,0.87594
1097.8,0.87592
1098.1,0.87576
1098.3,0.87577
1098.5,0.8758
1098.8,0.87586
1099.0,0.87583
1099.2,0.87586
1099.5,0.87614
1099.7,0.87605
1099.9,0.87572
1100.2,0.87569
1100.4,0.87592
1100.6,0.87591
1100.9,0.87571
1101.1,0.87577
1101.3,0.87601
1101.6,0.87608
1101.8,0.87574
1102.0,0.87566
1102.3,0.87589
1102.5,0.87591
1102.7,0.87607
1103.0,0.87587
1103.2,0.87569
1103.4,0.87573
1103.7,0.87548
1103.9,0.87546
1104.2,0.87585
1104.4,0.8761
1104.6,0.87585
1104.9,0.87558
1105.1,0.87534
1105.3,0.8754
1105.6,0.8755
1105.8,0.87528
1106.0,0.87555
1106.3,0.87589
1106.5,0.87581
1106.7,0.87587
1107.0,0.87584
1107.2,0.87573
1107.4,0.87587
1107.7,0.87592
1107.9,0.87586
1108.2,0.87573
1108.4,0.87552
1108.6,0.87563
1108.9,0.87577
1109.1,0.87569
1109.3,0.87573
1109.6,0.87554
1109.8,0.8756
1110.1,0.87593
1110.3,0.8759
1110.5,0.8758
1110.8,0.87581
1111.0,0.87565
1111.3,0.87578
1111.5,0.87585
1111.7,0.87591
1112.0,0.87593
1112.2,0.87557
1112.4,0.87556
1112.7,0.87578
1112.9,0.87602
1113.2,0.87594
1113.4,0.87559
1113.6,0.87548
1113.9,0.87545
1114.1,0.8756
1114.3,0.87571
1114.6,0.87568
1114.8,0.87581
1115.1,0.87574
1115.3,0.87574
1115.6,0.87601
1115.8,0.87604
1116.0,0.87591
1116.3,0.87592
1116.5,0.87586
1116.8,0.87585
1117.0,0.87599
1117.2,0.87595
1117.5,0.87596
1117.7,0.8759
1118.0,0.87606
1118.2,0.876
1118.4,0.87559
1118.7,0.87569
1118.9,0.87588
1119.2,0.87572
1119.4,0.87564
1119.7,0.87588
1119.9,0.87592
1120.1,0.87594
1120.4,0.87616
1120.6,0.87622
1120.9,0.876
1121.1,0.87561
1121.3,0.87564
1121.6,0.87603
1121.8,0.87627
1122.1,0.87602
1122.3,0.87583
1122.6,0.87562
1122.8,0.87554
1123.0,0.87577
1123.3,0.87567
1123.5,0.87535
1123.8,0.87548
1124.0,0.87575
1124.3,0.87595
1124.5,0.87605
1124.8,0.87611
1125.0,0.87602
1125.2,0.87608
1125.5,0.87591
1125.7,0.8757
1126.0,0.87576
1126.2,0.87606
1126.5,0.87607
1126.7,0.87605
1126.9,0.876
1127.2,0.87598
1127.4,0.87618
1127.7,0.87632
1127.9,0.87618
1128.2,0.87614
1128.4,0.87608
1128.7,0.87591
1128.9,0.87608
1129.2,0.87607
1129.4,0.87597
1129.7,0.87595
1129.9,0.87608
1130.1,0.87598
1130.4,0.87566
1130.6,0.87558
1130.9,0.87583
1131.1,0.87613
1131.4,0.87604
1131.6,0.87586
1131.9,0.87577
1132.1,0.87572
1132.4,0.87569
1132.6,0.87596
1132.9,0.87601
1133.1,0.87599
1133.3,0.8761
1133.6,0.87607
1133.8,0.87587
1134.1,0.87579
1134.3,0.87599
1134.6,0.87612
1134.8,0.87602
1135.1,0.87618
1135.3,0.87621
1135.6,0.87593
1135.8,0.87577
1136.1,0.87582
1136.3,0.8759
1136.6,0.87612
1136.8,0.8759
1137.1,0.87579
1137.3,0.876
1137.6,0.87611
1137.8,0.87583
1138.1,0.87594
1138.3,0.8761
1138.6,0.87569
1138.8,0.87562
1139.1,0.87595
1139.3,0.87617
1139.6,0.87612
1139.8,0.87594
1140.1,0.87591
1140.3,0.87571
1140.6,0.87583
1140.8,0.87597
1141.1,0.87595
1141.3,0.87589
1141.6,0.87618
1141.8,0.87606
1142.1,0.87583
1142.3,0.87578
1142.6,0.87555
1142.8,0.87572
1143.1,0.87598
1143.3,0.876
1143.6,0.8759
1143.9,0.8758
1144.1,0.87576
1144.4,0.87574
1144.6,0.87599
1144.9,0.87591
1145.1,0.8759
1145.4,0.87587
1145.6,0.87601
1145.9,0.87615
1146.1,0.87627
1146.4,0.87604
1146.6,0.87571
1146.9,0.87562
1147.2,0.87545
1147.4,0.87544
1147.7,0.87573
1147.9,0.87606
1148.2,0.87585
1148.4,0.87547
1148.7,0.87554
1148.9,0.8757
1149.2,0.87586
1149.4,0.87577
1149.7,0.87577
1149.9,0.87596
1150.2,0.87584
1150.4,0.87576
1150.7,0.87587
1151.0,0.87591
1151.2,0.87591
1151.5,0.87598
1151.7,0.87596
1152.0,0.8756
1152.2,0.8755
1152.5,0.87565
1152.8,0.87568
1153.0,0.87569
1153.3,0.87572
1153.5,0.8756
1153.8,0.87558
1154.0,0.87566
1154.3,0.87564
1154.6,0.87562
1154.8,0.87554
1155.1,0.87561
1155.3,0.87587
1155.6,0.87572
1155.8,0.87572
1156.1,0.8758
1156.4,0.8757
1156.6,0.87564
1156.9,0.87563
1157.1,0.87558
1157.4,0.87562
1157.7,0.87553
1157.9,0.87562
1158.2,0.87583
1158.4,0.87593
1158.7,0.87586
1158.9,0.87581
1159.2,0.87574
1159.5,0.87559
1159.7,0.87551
1160.0,0.87571
1160.2,0.87581
1160.5,0.87561
1160.8,0.87529
1161.0,0.87533
1161.3,0.87556
1161.5,0.87552
1161.8,0.87561
1162.1,0.87583
1162.3,0.87584
1162.6,0.87571
1162.8,0.8758
1163.1,0.87577
1163.4,0.87568
1163.6,0.87558
1163.9,0.87544
1164.2,0.87552
1164.4,0.87563
1164.7,0.87568
1164.9,0.87572
1165.2,0.87578
1165.4,0.87583
1165.7,0.87591
1166.0,0.87568
1166.2,0.87562
1166.5,0.8755
1166.8,0.87556
1167.0,0.87581
1167.3,0.87609
1167.6,0.87576
1167.8,0.87545
1168.1,0.87571
1168.3,0.87593
1168.6,0.87569
1168.9,0.87518
1169.1,0.87521
1169.4,0.87564
1169.7,0.87573
1169.9,0.87571
1170.2,0.87581
1170.4,0.87582
1170.7,0.87559
1171.0,0.87559
1171.3,0.8755
1171.5,0.87541
1171.8,0.8755
1172.0,0.87572
1172.3,0.87587
1172.6,0.87585
1172.8,0.87575
1173.1,0.8758
1173.4,0.87557
1173.6,0.87545
1173.9,0.87555
1174.2,0.87549
1174.4,0.87544
1174.7,0.87567
1175.0,0.87572
1175.2,0.87564
1175.5,0.87565
1175.8,0.8757
1176.0,0.87562
1176.3,0.87569
1176.6,0.87577
1176.8,0.87575
1177.1,0.8757
1177.4,0.87582
1177.6,0.87582
1177.9,0.8758
1178.2,0.87558
1178.4,0.87562
1178.7,0.87576
1179.0,0.87582
1179.2,0.87574
1179.5,0.87568
1179.8,0.87566
1180.0,0.87541
1180.3,0.87527
1180.6,0.87548
1180.8,0.87562
1181.1,0.87556
1181.4,0.87556
1181.7,0.87542
1181.9,0.87527
1182.2,0.87532
1182.5,0.87542
1182.7,0.87536
1183.0,0.87536
1183.3,0.87547
1183.5,0.87527
1183.8,0.875
1184.1,0.87503
1184.4,0.87521
1184.6,0.87527
1184.9,0.87533
1185.2,0.87535
1185.4,0.87539
1185.7,0.87539
1186.0,0.87533
1186.3,0.87537
1186.5,0.87532
1186.8,0.87512
1187.1,0.87504
1187.3,0.87504
1187.6,0.87501
1187.9,0.87518
1188.2,0.87522
1188.4,0.87533
1188.7,0.87539
1189.0,0.87539
1189.3,0.87532
1189.5,0.87518
1189.8,0.87518
1190.1,0.87516
1190.3,0.87511
1190.6,0.87488
1190.9,0.87479
1191.2,0.8751
1191.4,0.87509
1191.7,0.87488
1192.0,0.87506
1192.3,0.87509
1192.5,0.87513
1192.8,0.87526
1193.1,0.87517
1193.3,0.87507
1193.6,0.87495
1193.9,0.87502
1194.2,0.87503
1194.4,0.87504
1194.7,0.87513
1195.0,0.87497
1195.3,0.87488
1195.6,0.87478
1195.8,0.87487
1196.1,0.87507
1196.4,0.87485
1196.7,0.87493
1196.9,0.87514
1197.2,0.875
1197.5,0.87468
1197.8,0.87463
1198.0,0.87478
1198.3,0.87475
1198.6,0.87461
1198.9,0.87468
1199.2,0.87492
1199.4,0.87472
1199.7,0.87452
1200.0,0.8745
1200.3,0.87471
1200.5,0.87474
1200.8,0.87462
1201.1,0.87471
1201.4,0.87491
1201.7,0.87479
1201.9,0.87466
1202.2,0.87449
1202.5,0.87438
1202.8,0.87457
1203.0,0.87471
1203.3,0.87481
1203.6,0.87472
1203.9,0.87457
1204.2,0.87454
1204.4,0.87444
1204.7,0.87444
1205.0,0.87434
1205.3,0.87445
1205.6,0.87468
1205.8,0.87469
1206.1,0.87458
1206.4,0.87459
1206.7,0.8745
1207.0,0.87439
1207.2,0.87442
1207.5,0.87437
1207.8,0.8741
1208.1,0.87415
1208.4,0.87438
1208.7,0.87441
1208.9,0.87441
1209.2,0.87423
1209.5,0.87418
1209.8,0.87429
1210.1,0.87422
1210.3,0.87418
1210.6,0.87434
1210.9,0.87437
1211.2,0.87418
1211.5,0.87411
1211.8,0.87415
1212.0,0.87418
1212.3,0.87398
1212.6,0.87389
1212.9,0.87398
1213.2,0.87401
1213.5,0.87389
1213.7,0.87387
1214.0,0.87393
1214.3,0.874
1214.6,0.87397
1214.9,0.87378
1215.2,0.8738
1215.4,0.87392
1215.7,0.87381
1216.0,0.87377
1216.3,0.87396
1216.6,0.87397
1216.9,0.87377
1217.2,0.87364
1217.4,0.87361
1217.7,0.87371
1218.0,0.87363
1218.3,0.87365
1218.6,0.8737
1218.9,0.87378
1219.2,0.8738
1219.4,0.87389
1219.7,0.87398
1220.0,0.87382
1220.3,0.87374
1220.6,0.87389
1220.9,0.87393
1221.2,0.87378
1221.5,0.87359
1221.8,0.87353
1222.0,0.87358
1222.3,0.87356
1222.6,0.87356
1222.9,0.87354
1223.2,0.87356
1223.5,0.87349
1223.8,0.87355
1224.1,0.87363
1224.3,0.87362
1224.6,0.87342
1224.9,0.87318
1225.2,0.87323
1225.5,0.87329
1225.8,0.87317
1226.1,0.8731
1226.4,0.87322
1226.7,0.87336
1227.0,0.87315
1227.3,0.87305
1227.5,0.87308
1227.8,0.87313
1228.1,0.87319
1228.4,0.87313
1228.7,0.87315
1229.0,0.8731
1229.3,0.87295
1229.6,0.87284
1229.9,0.87277
1230.2,0.87283
1230.4,0.87287
1230.7,0.87277
1231.0,0.87264
1231.3,0.87271
1231.6,0.87285
1231.9,0.87277
1232.2,0.87264
1232.5,0.87244
1232.8,0.87236
1233.1,0.87239
1233.4,0.87233
1233.7,0.87228
1234.0,0.87225
1234.3,0.87216
1234.6,0.87219
1234.8,0.87227
1235.1,0.87235
1235.4,0.87245
1235.7,0.87226
1236.0,0.87202
1236.3,0.87205
1236.6,0.8721
1236.9,0.87202
1237.2,0.87184
1237.5,0.8718
1237.8,0.87189
1238.1,0.872
1238.4,0.87187
1238.7,0.87198
1239.0,0.87199
1239.3,0.87179
1239.6,0.87161
1239.9,0.87157
1240.2,0.87181
1240.5,0.87191
1240.8,0.87154
1241.1,0.87136
1241.3,0.87168
1241.7,0.8718
1241.9,0.87157
1242.2,0.87133
1242.5,0.87131
1242.8,0.87136
1243.1,0.8713
1243.4,0.87108
1243.7,0.87099
1244.0,0.87124
1244.3,0.87127
1244.6,0.87116
1244.9,0.87094
1245.2,0.87089
1245.5,0.87089
1245.8,0.87082
1246.1,0.87071
1246.4,0.87077
1246.7,0.87091
1247.0,0.8708
1247.3,0.87038
1247.6,0.8701
1247.9,0.8701
1248.2,0.87005
1248.5,0.87007
1248.8,0.87015
1249.1,0.87015
1249.4,0.86996
1249.7,0.86979
1250.0,0.86978
1250.3,0.86972
1250.6,0.86975
1250.9,0.8698
1251.2,0.86983
1251.5,0.86984
1251.8,0.86958
1252.1,0.86933
1252.4,0.86936
1252.8,0.8693
1253.1,0.86929
1253.3,0.86938
1253.7,0.86926
1254.0,0.86909
1254.3,0.86907
1254.6,0.86908
1254.9,0.86892
1255.2,0.86875
1255.5,0.86864
1255.8,0.86852
1256.1,0.86854
1256.4,0.86851
1256.7,0.86846
1257.0,0.86841
1257.3,0.86832
1257.6,0.86808
1257.9,0.86794
1258.2,0.86802
1258.5,0.86815
1258.8,0.8681
1259.1,0.86793
1259.4,0.86767
1259.8,0.86756
1260.1,0.86746
1260.4,0.86737
1260.7,0.86724
1261.0,0.86718
1261.3,0.86721
1261.6,0.8672
1261.9,0.86712
1262.2,0.86714
1262.5,0.86697
1262.8,0.86698
1263.1,0.86692
1263.4,0.86678
1263.7,0.86663
1264.1,0.8664
1264.4,0.86636
1264.7,0.86647
1265.0,0.86627
1265.3,0.8659
1265.6,0.86596
1265.9,0.86606
1266.2,0.8659
1266.5,0.8657
1266.8,0.86552
1267.1,0.86564
1267.4,0.86572
1267.8,0.86546
1268.1,0.86503
1268.4,0.86499
1268.7,0.86508
1269.0,0.86512
1269.3,0.86521
1269.6,0.865
1269.9,0.86471
1270.2,0.86458
1270.6,0.86463
1270.9,0.86439
1271.2,0.86412
1271.5,0.86413
1271.8,0.86411
1272.1,0.86401
1272.4,0.86388
1272.7,0.86383
1273.1,0.86376
1273.4,0.86382
1273.7,0.86372
1274.0,0.86364
1274.3,0.86358
1274.6,0.86348
1274.9,0.86347
1275.2,0.86342
1275.6,0.8634
1275.9,0.86328
1276.2,0.86296
1276.5,0.86295
1276.8,0.86291
1277.1,0.86277
1277.4,0.86272
1277.8,0.86278
1278.1,0.86276
1278.4,0.86273
1278.7,0.8626
1279.0,0.86238
1279.3,0.86227
1279.7,0.86218
1280.0,0.86207
1280.3,0.86219
1280.6,0.86218
1280.9,0.86216
1281.2,0.86205
1281.6,0.86197
1281.9,0.86202
1282.2,0.86208
1282.5,0.86186
1282.8,0.86164
1283.1,0.86163
1283.4,0.86156
1283.8,0.86152
1284.1,0.86161
1284.4,0.86156
1284.7,0.86139
1285.0,0.86115
1285.4,0.86124
1285.7,0.86144
1286.0,0.8615
1286.3,0.86123
1286.6,0.86106
1286.9,0.86116
1287.3,0.86139
1287.6,0.86134
1287.9,0.8611
1288.2,0.86102
1288.6,0.86096
1288.9,0.86061
1289.2,0.86044
1289.5,0.86049
1289.8,0.86049
1290.2,0.86046
1290.5,0.86058
1290.8,0.86049
1291.1,0.86042
1291.4,0.86038
1291.8,0.86039
1292.1,0.86036
1292.4,0.86036
1292.7,0.86039
1293.1,0.86039
1293.4,0.86036
1293.7,0.86023
1294.0,0.86002
1294.3,0.85998
1294.7,0.85998
1295.0,0.85989
1295.3,0.85971
1295.6,0.85947
1296.0,0.85948
1296.3,0.85952
1296.6,0.85958
1296.9,0.85953
1297.3,0.85945
1297.6,0.85934
1297.9,0.85914
1298.2,0.85912
1298.6,0.85921
1298.9,0.85935
1299.2,0.85922
1299.5,0.85904
1299.9,0.85897
1300.2,0.85905
1300.5,0.85904
1300.8,0.85897
1301.2,0.85896
1301.5,0.85892
1301.8,0.85889
1302.1,0.85875
1302.5,0.85849
1302.8,0.8584
1303.1,0.85849
1303.4,0.85861
1303.8,0.85844
1304.1,0.8584
1304.4,0.85844
1304.8,0.85843
1305.1,0.85834
1305.4,0.85815
1305.8,0.85811
1306.1,0.8581
1306.4,0.85804
1306.7,0.85802
1307.1,0.85801
1307.4,0.85779
1307.7,0.85769
1308.1,0.85794
1308.4,0.85797
1308.7,0.85787
1309.1,0.85768
1309.4,0.85753
1309.7,0.85747
1310.0,0.85757
1310.4,0.85755
1310.7,0.85746
1311.0,0.85736
1311.4,0.85732
1311.7,0.85719
1312.0,0.857
1312.4,0.85689
1312.7,0.85713
1313.0,0.85735
1313.4,0.85711
1313.7,0.85691
1314.0,0.85689
1314.4,0.85681
1314.7,0.85676
1315.0,0.85676
1315.4,0.85677
1315.7,0.8567
1316.0,0.8564
1316.4,0.85627
1316.7,0.85641
1317.0,0.85655
1317.4,0.85644
1317.7,0.8562
1318.0,0.85618
1318.4,0.85629
1318.7,0.85627
1319.0,0.85607
1319.4,0.85595
1319.7,0.85584
1320.1,0.85578
1320.4,0.85575
1320.7,0.85583
1321.1,0.85595
1321.4,0.85584
1321.7,0.85559
1322.1,0.85572
1322.4,0.85558
1322.7,0.85538
1323.1,0.85543
1323.4,0.85538
1323.8,0.85526
1324.1,0.8551
1324.4,0.85502
1324.8,0.85507
1325.1,0.85519
1325.4,0.85533
1325.8,0.85527
1326.1,0.85495
1326.5,0.85487
1326.8,0.85483
1327.1,0.85481
1327.5,0.8547
1327.8,0.85459
1328.2,0.85445
1328.5,0.85442
1328.8,0.85448
1329.2,0.85453
1329.5,0.85457
1329.9,0.85448
1330.2,0.85434
1330.6,0.85401
1330.9,0.85387
1331.2,0.85405
1331.6,0.85405
1331.9,0.85408
1332.3,0.85408
1332.6,0.85386
1332.9,0.85372
1333.3,0.85381
1333.6,0.85388
1334.0,0.85364
1334.3,0.85343
1334.7,0.85337
1335.0,0.85335
1335.3,0.85332
1335.7,0.85321
1336.0,0.85325
1336.4,0.85313
1336.7,0.85299
1337.1,0.85292
1337.4,0.85291
1337.8,0.85291
1338.1,0.8527
1338.4,0.85264
1338.8,0.85261
1339.1,0.85246
1339.5,0.8524
1339.8,0.85254
1340.2,0.85251
1340.5,0.85228
1340.9,0.852
1341.2,0.85197
1341.6,0.85194
1341.9,0.85181
1342.3,0.85169
1342.6,0.8517
1342.9,0.85158
1343.3,0.85163
1343.7,0.85159
1344.0,0.85152
1344.3,0.85149
1344.7,0.85132
1345.0,0.85121
1345.4,0.85126
1345.7,0.85116
1346.1,0.85087
1346.4,0.85066
1346.8,0.85057
1347.1,0.8505
1347.5,0.85046
1347.8,0.85041
1348.2,0.8504
1348.5,0.85049
1348.9,0.85057
1349.2,0.85035
1349.6,0.85021
1349.9,0.84997
1350.3,0.84987
1350.7,0.8499
1351.0,0.84965
1351.4,0.84938
1351.7,0.84946
1352.1,0.84944
1352.4,0.84928
1352.8,0.84926
1353.1,0.84919
1353.5,0.84897
1353.8,0.849
1354.2,0.84895
1354.5,0.84868
1354.9,0.84833
1355.2,0.84815
1355.6,0.84818
1355.9,0.84809
1356.3,0.84809
1356.7,0.84815
1357.0,0.84786
1357.4,0.84755
1357.7,0.84746
1358.1,0.84746
1358.4,0.84751
1358.8,0.84749
1359.2,0.8473
1359.5,0.84702
1359.9,0.847
1360.2,0.84706
1360.6,0.84681
1360.9,0.84646
1361.3,0.84629
1361.7,0.84607
1362.0,0.84592
1362.4,0.84549
1362.7,0.84547
1363.1,0.84587
1363.4,0.84601
1363.8,0.84589
1364.2,0.84568
1364.5,0.84531
1364.9,0.84502
1365.2,0.84492
1365.6,0.84494
1365.9,0.84502
1366.3,0.84512
1366.7,0.84511
1367.0,0.84487
1367.4,0.84456
1367.8,0.84427
1368.1,0.84411
1368.5,0.84393
1368.8,0.84371
1369.2,0.8438
1369.6,0.84394
1369.9,0.84375
1370.3,0.84352
1370.7,0.84329
1371.0,0.84295
1371.4,0.8429
1371.7,0.84305
1372.1,0.84284
1372.5,0.84263
1372.8,0.84266
1373.2,0.84279
1373.6,0.84263
1373.9,0.84236
1374.3,0.84221
1374.6,0.84206
1375.0,0.84186
1375.4,0.84163
1375.7,0.84154
1376.1,0.84157
1376.5,0.84146
1376.8,0.84121
1377.2,0.84102
1377.6,0.84086
1377.9,0.84074
1378.3,0.8406
1378.7,0.84044
1379.0,0.84033
1379.4,0.84033
1379.8,0.84035
1380.1,0.84007
1380.5,0.83948
1380.9,0.83898
1381.2,0.83917
1381.6,0.83937
1382.0,0.83923
1382.3,0.83884
1382.7,0.83826
1383.1,0.83818
1383.4,0.83857
1383.8,0.83856
1384.2,0.83848
1384.6,0.8385
1384.9,0.83827
1385.3,0.83811
1385.7,0.83798
1386.0,0.83777
1386.4,0.83758
1386.8,0.83753
1387.2,0.83746
1387.5,0.83727
1387.9,0.837
1388.3,0.83669
1388.6,0.83673
1389.0,0.83678
1389.4,0.83663
1389.8,0.83647
1390.1,0.83635
1390.5,0.83616
1390.9,0.83602
1391.2,0.83587
1391.6,0.8358
1392.0,0.83557
1392.4,0.83511
1392.7,0.83494
1393.1,0.83515
1393.5,0.83518
1393.9,0.83507
1394.2,0.83501
1394.6,0.83472
1395.0,0.83422
1395.4,0.834
1395.7,0.83396
1396.1,0.83378
1396.5,0.83359
1396.9,0.83369
1397.2,0.83374
1397.6,0.83363
1398.0,0.83352
1398.4,0.83341
1398.8,0.83337
1399.1,0.83344
1399.5,0.83315
1399.9,0.83289
1400.3,0.83273
1400.6,0.83269
1401.0,0.83261
1401.4,0.83273
1401.8,0.8329
1402.2,0.83294
1402.5,0.83289
1402.9,0.83269
1403.3,0.83255
1403.7,0.83253
1404.1,0.83239
1404.4,0.83227
1404.8,0.83185
1405.2,0.83172
1405.6,0.83195
1406.0,0.83199
1406.3,0.83178
1406.7,0.83169
1407.1,0.83159
1407.5,0.83146
1407.9,0.83163
1408.3,0.83175
1408.6,0.83159
1409.0,0.8314
1409.4,0.83117
1409.8,0.83122
1410.2,0.8314
1410.6,0.83141
1410.9,0.83132
1411.3,0.83128
1411.7,0.83118
1412.1,0.83097
1412.5,0.83085
1412.8,0.83102
1413.2,0.83112
1413.6,0.831
1414.0,0.83074
1414.4,0.83057
1414.8,0.83057
1415.2,0.83069
1415.6,0.83064
1415.9,0.83056
1416.3,0.83058
1416.7,0.83065
1417.1,0.83052
1417.5,0.83027
1417.9,0.83015
1418.3,0.83021
1418.7,0.83013
1419.0,0.82999
1419.4,0.82998
1419.8,0.83
1420.2,0.8299
1420.6,0.82992
1421.0,0.82996
1421.4,0.83003
1421.8,0.82992
1422.2,0.82981
1422.5,0.82983
1422.9,0.82973
1423.3,0.82958
1423.7,0.82943
1424.1,0.8294
1424.5,0.82947
1424.9,0.82937
1425.3,0.82925
1425.7,0.82921
1426.1,0.82923
1426.5,0.82914
1426.8,0.82914
1427.2,0.82906
1427.6,0.82891
1428.0,0.82888
1428.4,0.82885
1428.8,0.82876
1429.2,0.82871
1429.6,0.82865
1430.0,0.82862
1430.4,0.82856
1430.8,0.82847
1431.2,0.82834
1431.6,0.82818
1432.0,0.82812
1432.4,0.82793
1432.8,0.82773
1433.2,0.82765
1433.6,0.82767
1433.9,0.82755
1434.3,0.82736
1434.8,0.8273
1435.1,0.82725
1435.5,0.82719
1435.9,0.82699
1436.3,0.82668
1436.7,0.82661
1437.1,0.82663
1437.5,0.82649
1437.9,0.82635
1438.3,0.82632
1438.7,0.82627
1439.1,0.82598
1439.5,0.82592
1439.9,0.82588
1440.3,0.82571
1440.7,0.82555
1441.1,0.82538
1441.5,0.82518
1441.9,0.82497
1442.3,0.82491
1442.7,0.82496
1443.1,0.82479
1443.5,0.8246
1443.9,0.82443
1444.3,0.82422
1444.7,0.82414
1445.1,0.824
1445.6,0.82373
1445.9,0.82348
1446.3,0.82325
1446.8,0.82329
1447.2,0.82324
1447.6,0.82302
1448.0,0.82277
1448.4,0.82252
1448.8,0.82228
1449.2,0.82208
1449.6,0.82192
1450.0,0.8217
1450.4,0.82153
1450.8,0.82129
1451.2,0.82099
1451.6,0.8207
1452.0,0.8204
1452.4,0.8202
1452.8,0.81992
1453.2,0.81975
1453.7,0.81955
1454.1,0.81927
1454.5,0.81912
1454.9,0.819
1455.3,0.81876
1455.7,0.81848
1456.1,0.81841
1456.5,0.81833
1456.9,0.81815
1457.3,0.81814
1457.7,0.81814
1458.2,0.81799
1458.6,0.8178
1459.0,0.8177
1459.4,0.81758
1459.8,0.8175
1460.2,0.81731
1460.6,0.81707
1461.0,0.81683
1461.4,0.81668
1461.8,0.8167
1462.3,0.81659
1462.7,0.81638
1463.1,0.81618
1463.5,0.81592
1463.9,0.81568
1464.3,0.81554
1464.7,0.81525
1465.2,0.81493
1465.6,0.81477
1466.0,0.81469
1466.4,0.8144
1466.8,0.81406
1467.2,0.81372
1467.6,0.81341
1468.1,0.81312
1468.5,0.81284
1468.9,0.81259
1469.3,0.81226
1469.7,0.81199
1470.1,0.81183
1470.6,0.8115
1471.0,0.81109
1471.4,0.81063
1471.8,0.81024
1472.2,0.80997
1472.6,0.80955
1473.1,0.80907
1473.5,0.80863
1473.9,0.80842
1474.3,0.80808
1474.7,0.80765
1475.2,0.80724
1475.6,0.80677
1476.0,0.80628
1476.4,0.80586
1476.8,0.80542
1477.3,0.805
1477.7,0.80445
1478.1,0.80395
1478.5,0.80354
1478.9,0.80312
1479.4,0.80256
1479.8,0.80198
1480.2,0.80137
1480.6,0.80088
1481.1,0.80045
1481.5,0.79982
1481.9,0.79915
1482.3,0.79863
1482.8,0.79797
1483.2,0.79735
1483.6,0.79689
1484.0,0.79635
1484.4,0.79568
1484.9,0.79505
1485.3,0.7944
1485.7,0.7937
1486.2,0.79302
1486.6,0.79228
1487.0,0.79149
1487.4,0.79085
1487.9,0.79012
1488.3,0.78942
1488.7,0.78869
1489.1,0.78789
1489.6,0.78712
1490.0,0.78636
1490.4,0.78564
1490.8,0.78489
1491.3,0.78404
1491.7,0.7832
1492.1,0.78246
1492.6,0.78165
1493.0,0.7808
1493.4,0.77991
1493.9,0.77899
1494.3,0.77811
1494.7,0.77718
1495.2,0.77627
1495.6,0.77535
1496.0,0.77439
1496.4,0.77343
1496.9,0.77234
1497.3,0.77119
1497.7,0.77017
1498.2,0.7693
1498.6,0.76837
1499.0,0.76737
1499.5,0.76629
1499.9,0.76522
1500.3,0.76425
1500.8,0.7632
1501.2,0.762
1501.7,0.76088
1502.1,0.75981
1502.5,0.75864
1502.9,0.7575
1503.4,0.75637
1503.8,0.7552
1504.3,0.75396
1504.7,0.75279
1505.1,0.75176
1505.6,0.75058
1506.0,0.74927
1506.4,0.74804
1506.9,0.74695
1507.3,0.74569
1507.8,0.74436
1508.2,0.74311
1508.6,0.74176
1509.1,0.74044
1509.5,0.73917
1510.0,0.73792
1510.4,0.73661
1510.8,0.73528
1511.3,0.73396
1511.7,0.73267
1512.2,0.73127
1512.6,0.7299
1513.0,0.72855
1513.5,0.72728
1513.9,0.72596
1514.4,0.72456
1514.8,0.72312
1515.3,0.72168
1515.7,0.72025
1516.1,0.71887
1516.6,0.71756
1517.0,0.71625
1517.5,0.71483
1517.9,0.71335
1518.4,0.71189
1518.8,0.71043
1519.3,0.70897
1519.7,0.70765
1520.1,0.70613
1520.6,0.7046
1521.0,0.7033
1521.5,0.7019
1521.9,0.70041
1522.4,0.69892
1522.8,0.69743
1523.3,0.69594
1523.7,0.69435
1524.2,0.69277
1524.6,0.69135
1525.1,0.68996
1525.5,0.68843
1525.9,0.68693
1526.4,0.68546
1526.8,0.68406
1527.3,0.6826
1527.8,0.68113
1528.2,0.67964
1528.7,0.67795
1529.1,0.67631
1529.6,0.67486
1530.0,0.67349
1530.5,0.672
1530.9,0.67038
1531.4,0.66884
1531.8,0.66736
1532.3,0.66588
1532.7,0.66437
1533.2,0.66293
1533.6,0.6614
1534.1,0.65981
1534.5,0.65834
1535.0,0.65685
1535.4,0.65531
1535.9,0.65385
1536.3,0.65232
1536.8,0.65084
1537.3,0.64938
1537.7,0.64787
1538.2,0.64631
1538.6,0.64483
1539.1,0.64332
1539.6,0.64182
1540.0,0.64034
1540.5,0.63888
1540.9,0.6373
1541.4,0.63575
1541.8,0.63431
1542.3,0.6329
1542.8,0.63148
1543.2,0.62996
1543.7,0.62844
1544.1,0.62697
1544.6,0.6255
1545.1,0.62396
1545.5,0.62252
1546.0,0.62112
1546.4,0.6197
1546.9,0.61821
1547.4,0.61674
1547.8,0.61535
1548.3,0.6139
1548.8,0.61245
1549.2,0.61107
1549.7,0.60965
1550.1,0.60812
1550.6,0.60667
1551.1,0.60542
1551.5,0.60408
1552.0,0.60261
1552.4,0.60129
1552.9,0.59982
1553.4,0.59843
1553.8,0.59716
1554.3,0.59584
1554.8,0.59454
1555.3,0.59323
1555.7,0.5918
1556.2,0.59037
1556.7,0.58905
1557.1,0.58783
1557.6,0.58656
1558.1,0.58526
1558.5,0.58403
1559.0,0.58285
1559.5,0.58153
1559.9,0.58019
1560.4,0.57895
1560.9,0.57775
1561.3,0.57646
1561.8,0.57517
1562.3,0.57389
1562.8,0.57274
1563.2,0.57169
1563.7,0.57052
1564.2,0.56939
1564.6,0.56828
1565.1,0.56714
1565.6,0.56594
1566.1,0.56463
1566.5,0.56346
1567.0,0.56252
1567.5,0.56142
1567.9,0.56033
1568.4,0.55923
1568.9,0.55809
1569.4,0.55707
1569.8,0.55594
1570.3,0.55477
1570.8,0.55371
1571.3,0.55285
1571.8,0.55191
1572.2,0.55085
1572.7,0.54972
1573.2,0.54866
1573.7,0.54764
1574.1,0.54675
1574.6,0.5458
1575.1,0.54483
1575.6,0.54392
1576.1,0.54301
1576.5,0.54209
1577.0,0.54115
1577.5,0.54033
1578.0,0.53944
1578.4,0.53849
1578.9,0.5377
1579.4,0.53689
1579.9,0.53608
1580.4,0.5353
1580.9,0.53449
1581.3,0.53372
1581.8,0.53289
1582.3,0.53203
1582.8,0.5313
1583.3,0.5306
1583.8,0.52983
1584.2,0.52906
1584.7,0.52837
1585.2,0.52765
1585.7,0.52699
1586.2,0.52627
1586.7,0.52552
1587.2,0.52488
1587.6,0.52434
1588.1,0.52368
1588.6,0.52298
1589.1,0.52235
1589.6,0.52176
1590.1,0.52116
1590.6,0.52052
1591.0,0.51992
1591.5,0.51931
1592.0,0.5187
1592.5,0.51815
1593.0,0.51749
1593.5,0.51683
1594.0,0.51623
1594.5,0.51568
1595.0,0.51509
1595.4,0.51448
1595.9,0.51394
1596.4,0.51336
1596.9,0.51274
1597.4,0.51218
1597.9,0.5116
1598.4,0.51104
1598.9,0.51056
1599.4,0.50998
1599.9,0.5094
1600.4,0.50885
1600.9,0.50825
1601.4,0.50766
1601.9,0.50697
1602.3,0.50631
1602.8,0.50581
1603.3,0.50533
1603.8,0.50471
1604.3,0.50414
1604.8,0.50358
1605.3,0.50307
1605.8,0.50259
1606.3,0.50205
1606.8,0.50144
1607.3,0.5008
1607.8,0.50018
1608.3,0.49968
1608.8,0.49918
1609.3,0.4986
1609.8,0.49807
1610.3,0.49755
1610.8,0.49707
1611.3,0.49647
1611.8,0.49589
1612.3,0.49542
1612.8,0.49488
1613.3,0.49428
1613.8,0.49374
1614.3,0.49323
1614.8,0.49266
1615.3,0.49216
1615.8,0.49162
1616.3,0.49113
1616.8,0.49056
1617.3,0.48998
1617.8,0.4895
1618.4,0.48902
1618.9,0.48847
1619.4,0.48791
1619.9,0.48732
1620.4,0.48689
1620.9,0.4865
1621.4,0.48596
1621.9,0.4854
1622.4,0.4848
1622.9,0.48422
1623.4,0.48368
1623.9,0.48322
1624.4,0.48278
1624.9,0.48216
1625.5,0.48159
1626.0,0.48112
1626.5,0.48062
1627.0,0.48004
1627.5,0.47947
1628.0,0.4789
1628.5,0.47838
1629.0,0.47786
1629.6,0.47733
1630.1,0.47675
1630.6,0.47619
1631.1,0.47573
1631.6,0.4752
1632.1,0.4747
1632.6,0.47418
1633.1,0.47357
1633.7,0.47303
1634.2,0.47256
1634.7,0.47202
1635.2,0.47139
1635.7,0.47083
1636.2,0.47043
1636.8,0.47007
1637.3,0.46952
1637.8,0.46905
1638.3,0.46862
1638.8,0.46809
1639.3,0.46759
1639.8,0.4672
1640.4,0.46679
1640.9,0.46631
1641.4,0.46581
1641.9,0.46538
1642.4,0.46504
1643.0,0.46462
1643.5,0.46421
1644.0,0.46379
1644.5,0.46343
1645.1,0.463
1645.6,0.46257
1646.1,0.46233
1646.6,0.46211
1647.2,0.46178
1647.7,0.46141
1648.2,0.46114
1648.7,0.46086
1649.2,0.46059
1649.8,0.46028
1650.3,0.46004
1650.8,0.45985
1651.3,0.45959
1651.9,0.45942
1652.4,0.45921
1652.9,0.45899
1653.4,0.4587
1654.0,0.45846
1654.5,0.45836
1655.0,0.45823
1655.6,0.45817
1656.1,0.4581
1656.6,0.45785
1657.2,0.45766
1657.7,0.45753
1658.2,0.45747
1658.7,0.4574
1659.3,0.45731
1659.8,0.45721
1660.3,0.45712
1660.9,0.45711
1661.4,0.45715
1661.9,0.45718
1662.5,0.45721
1663.0,0.45717
1663.5,0.45716
1664.1,0.45721
1664.6,0.45722
1665.1,0.45724
1665.7,0.45723
1666.2,0.45721
1666.7,0.45735
1667.3,0.45742
1667.8,0.45746
1668.3,0.45753
1668.9,0.45761
1669.4,0.45764
1670.0,0.45774
1670.5,0.45787
1671.0,0.45796
1671.6,0.45804
1672.1,0.45818
1672.7,0.45831
1673.2,0.45847
1673.7,0.45865
1674.3,0.45875
1674.8,0.45877
1675.4,0.45896
1675.9,0.45909
1676.4,0.45916
1677.0,0.45923
1677.5,0.45928
1678.1,0.4594
1678.6,0.45953
1679.2,0.45962
1679.7,0.45964
1680.2,0.45968
1680.8,0.45984
1681.3,0.45982
1681.9,0.45965
1682.4,0.45956
1683.0,0.45951
1683.5,0.45956
1684.1,0.45957
1684.6,0.45953
1685.2,0.45943
1685.7,0.45929
1686.3,0.4591
1686.8,0.45896
1687.3,0.45885
1687.9,0.45865
1688.4,0.45851
1689.0,0.45831
1689.6,0.4581
1690.1,0.45792
1690.7,0.45777
1691.2,0.45762
1691.8,0.4574
1692.3,0.45717
1692.9,0.4569
1693.4,0.45667
1694.0,0.45652
1694.5,0.45636
1695.1,0.45611
1695.6,0.45587
1696.2,0.45566
1696.7,0.45556
1697.3,0.45546
1697.8,0.45521
1698.4,0.45499
1699.0,0.45478
1699.5,0.45465
1700.1,0.45449
1700.6,0.4543
1701.2,0.45418
1701.8,0.45408
1702.3,0.45398
1702.9,0.45395
1703.4,0.45393
1704.0,0.45383
1704.6,0.45367
1705.1,0.45358
1705.7,0.45362
1706.2,0.45363
1706.8,0.45359
1707.4,0.45362
1707.9,0.45372
1708.5,0.45374
1709.0,0.45372
1709.6,0.45383
1710.2,0.45392
1710.7,0.45399
1711.3,0.45407
1711.9,0.45422
1712.4,0.45445
1713.0,0.45461
1713.6,0.45471
1714.1,0.4549
1714.7,0.45509
1715.3,0.4553
1715.8,0.45551
1716.4,0.45569
1717.0,0.456
1717.5,0.45636
1718.1,0.4566
1718.7,0.45691
1719.2,0.45726
1719.8,0.45755
1720.4,0.45783
1721.0,0.45816
1721.5,0.45854
1722.1,0.45898
1722.7,0.4594
1723.2,0.45969
1723.8,0.45996
1724.4,0.46032
1725.0,0.46075
1725.5,0.46121
1726.1,0.46166
1726.7,0.46203
1727.3,0.46243
1727.8,0.46292
1728.4,0.46337
1729.0,0.46381
1729.6,0.46427
1730.1,0.46473
1730.7,0.46522
1731.3,0.46562
1731.9,0.466
1732.5,0.4665
1733.0,0.46701
1733.6,0.46742
1734.2,0.46792
1734.8,0.46848
1735.4,0.46903
1735.9,0.46945
1736.5,0.46978
1737.1,0.4702
1737.7,0.47066
1738.3,0.47121
1738.8,0.47168
1739.4,0.47205
1740.0,0.47242
1740.6,0.47287
1741.2,0.47334
1741.8,0.47387
1742.3,0.47429
1742.9,0.4747
1743.5,0.47518
1744.1,0.47554
1744.7,0.47586
1745.3,0.47627
1745.9,0.47679
1746.5,0.47719
1747.1,0.47752
1747.6,0.47793
1748.2,0.4783
1748.8,0.4787
1749.4,0.47912
1750.0,0.47954
1750.6,0.47995
1751.2,0.48034
1751.8,0.48067
1752.4,0.48102
1753.0,0.48139
1753.6,0.48175
1754.1,0.48211
1754.7,0.48248
1755.3,0.48278
1755.9,0.48306
1756.5,0.48339
1757.1,0.48375
1757.7,0.48411
1758.3,0.48442
1758.9,0.48474
1759.5,0.48506
1760.1,0.48536
1760.7,0.48565
1761.3,0.48594
1761.9,0.48623
1762.5,0.48656
1763.1,0.48692
1763.7,0.48718
1764.3,0.48753
1764.9,0.4878
1765.5,0.48804
1766.1,0.48838
1766.7,0.48868
1767.3,0.48905
1767.9,0.48941
1768.5,0.48973
1769.1,0.49005
1769.7,0.49038
1770.3,0.49071
1770.9,0.49104
1771.5,0.4913
1772.1,0.49169
1772.7,0.49213
1773.3,0.49261
1773.9,0.49298
1774.6,0.49333
1775.2,0.49374
1775.8,0.49407
1776.4,0.49433
1777.0,0.49474
1777.6,0.49517
1778.2,0.4956
1778.8,0.496
1779.4,0.49631
1780.0,0.49669
1780.7,0.49697
1781.3,0.49721
1781.9,0.49756
1782.5,0.49785
1783.1,0.49811
1783.7,0.4984
1784.3,0.49868
1784.9,0.49896
1785.6,0.49913
1786.2,0.49931
1786.8,0.49963
1787.4,0.49993
1788.0,0.50023
1788.6,0.50046
1789.3,0.5007
1789.9,0.50098
1790.5,0.50119
1791.1,0.50139
1791.7,0.50155
1792.3,0.50169
1793.0,0.5019
1793.6,0.50216
1794.2,0.50247
1794.8,0.50272
1795.4,0.50288
1796.1,0.50309
1796.7,0.50332
1797.3,0.50353
1797.9,0.50378
1798.6,0.50395
1799.2,0.50415
1799.8,0.50444
1800.4,0.50467
1801.1,0.50496
1801.7,0.50521
1802.3,0.5054
1802.9,0.50571
1803.6,0.50606
1804.2,0.50643
1804.8,0.50672
1805.4,0.50695
1806.1,0.5073
1806.7,0.50773
1807.3,0.50804
1808.0,0.50836
1808.6,0.50879
1809.2,0.50922
1809.9,0.50955
1810.5,0.50982
1811.1,0.51015
1811.8,0.51065
1812.4,0.51104
1813.0,0.51138
1813.7,0.51186
1814.3,0.51242
1814.9,0.51292
1815.6,0.51328
1816.2,0.51369
1816.8,0.5142
1817.5,0.51472
1818.1,0.51521
1818.8,0.51573
1819.4,0.51617
1820.0,0.51647
1820.7,0.51674
1821.3,0.51723
1821.9,0.51774
1822.6,0.51831
1823.2,0.51891
1823.9,0.51943
1824.5,0.51994
1825.2,0.52042
1825.8,0.52067
1826.4,0.52088
1827.1,0.52149
1827.7,0.52219
1828.4,0.52272
1829.0,0.52321
1829.7,0.52372
1830.3,0.52427
1831.0,0.52463
1831.6,0.5251
1832.3,0.52573
1832.9,0.52622
1833.6,0.52682
1834.2,0.52733
1834.8,0.52777
1835.5,0.52823
1836.1,0.52857
1836.8,0.5291
1837.4,0.52972
1838.1,0.53027
1838.8,0.53096
1839.4,0.53146
1840.1,0.53193
1840.7,0.5326
1841.4,0.53322
1842.0,0.53365
1842.7,0.5344
1843.3,0.53528
1844.0,0.53601
1844.6,0.53658
1845.3,0.53719
1845.9,0.53776
1846.6,0.538
1847.3,0.53824
1847.9,0.53896
1848.6,0.53977
1849.2,0.54061
1849.9,0.54121
1850.6,0.5418
1851.2,0.54252
1851.9,0.54319
1852.6,0.54365
1853.2,0.54401
1853.9,0.54436
1854.5,0.54509
1855.2,0.54596
1855.9,0.5466
1856.5,0.54693
1857.2,0.54734
1857.9,0.54809
1858.5,0.5488
1859.2,0.54925
1859.9,0.54941
1860.5,0.54991
1861.2,0.55084
1861.9,0.55169
1862.5,0.55227
1863.2,0.55281
1863.9,0.55321
1864.5,0.55362
1865.2,0.5543
1865.9,0.55501
1866.6,0.55555
1867.2,0.55592
1867.9,0.55612
1868.6,0.55676
1869.2,0.5576
1869.9,0.5581
1870.6,0.55838
1871.3,0.55874
1871.9,0.55961
1872.6,0.5603
1873.3,0.56061
1874.0,0.56123
1874.7,0.56201
1875.3,0.56253
1876.0,0.56309
1876.7,0.56358
1877.4,0.56403
1878.0,0.56475
1878.7,0.56534
1879.4,0.56582
1880.1,0.56632
1880.8,0.56677
1881.4,0.56721
1882.1,0.56769
1882.8,0.56821
1883.5,0.56859
1884.2,0.56882
1884.9,0.5693
1885.6,0.56979
1886.2,0.57017
1886.9,0.57047
1887.6,0.57083
1888.3,0.5712
1889.0,0.57158
1889.7,0.57172
1890.4,0.57171
1891.1,0.57208
1891.8,0.5725
1892.4,0.57277
1893.1,0.57303
1893.8,0.57321
1894.5,0.57326
1895.2,0.57344
1895.9,0.57363
1896.6,0.57373
1897.3,0.57375
1898.0,0.57368
1898.7,0.57358
1899.4,0.57329
1900.1,0.57304
1900.8,0.57315
1901.5,0.57338
1902.2,0.57334
1902.9,0.57297
1903.6,0.57277
1904.3,0.5728
1905.0,0.57245
1905.7,0.57196
1906.4,0.57172
1907.1,0.5716
1907.8,0.57161
1908.5,0.57143
1909.2,0.57111
1909.9,0.57077
1910.6,0.57037
1911.3,0.57001
1912.0,0.56958
1912.7,0.56916
1913.4,0.56863
1914.1,0.56822
1914.8,0.56813
1915.5,0.56786
1916.2,0.56732
1916.9,0.56688
1917.6,0.56655
1918.3,0.56622
1919.1,0.56576
1919.8,0.56502
1920.5,0.56434
1921.2,0.56401
1921.9,0.56389
1922.6,0.56357
1923.3,0.56312
1924.0,0.56249
1924.8,0.56195
1925.5,0.56153
1926.2,0.56109
1926.9,0.56057
1927.6,0.56006
1928.3,0.55943
1929.1,0.5589
1929.8,0.5585
1930.5,0.55802
1931.2,0.55757
1931.9,0.55715
1932.7,0.55677
1933.4,0.55644
1934.1,0.55612
1934.8,0.55577
1935.5,0.55532
1936.3,0.55487
1937.0,0.55455
1937.7,0.5544
1938.4,0.55419
1939.2,0.55381
1939.9,0.55343
1940.6,0.55316
1941.3,0.55301
1942.1,0.55288
1942.8,0.55262
1943.5,0.55238
1944.2,0.55228
1945.0,0.55219
1945.7,0.55203
1946.4,0.55182
1947.2,0.55165
1947.9,0.55151
1948.6,0.55136
1949.4,0.55123
1950.1,0.55096
1950.8,0.55073
1951.6,0.55058
1952.3,0.55028
1953.0,0.54988
1953.8,0.54952
1954.5,0.54917
1955.2,0.54883
1956.0,0.54846
1956.7,0.54795
1957.5,0.54743
1958.2,0.54695
1958.9,0.54644
1959.7,0.54588
1960.4,0.54535
1961.2,0.54488
1961.9,0.54428
1962.6,0.54372
1963.4,0.54327
1964.1,0.54297
1964.9,0.54269
1965.6,0.54241
1966.4,0.54223
1967.1,0.54214
1967.9,0.54208
1968.6,0.54206
1969.3,0.54203
1970.1,0.54209
1970.8,0.54217
1971.6,0.54228
1972.3,0.54234
1973.1,0.54234
1973.8,0.54221
1974.6,0.542
1975.3,0.54179
1976.1,0.54151
1976.9,0.54123
1977.6,0.54091
1978.4,0.5404
1979.1,0.53991
1979.9,0.53944
1980.6,0.53893
1981.4,0.53854
1982.2,0.53819
1982.9,0.53787
1983.7,0.5376
1984.4,0.53737
1985.2,0.53724
1985.9,0.53709
1986.7,0.53697
1987.5,0.53696
1988.2,0.53696
1989.0,0.53694
1989.8,0.53691
1990.5,0.53686
1991.3,0.53684
1992.1,0.53677
1992.8,0.53673
1993.6,0.53663
1994.3,0.53648
1995.1,0.53629
1995.9,0.53613
1996.7,0.53594
1997.4,0.53571
1998.2,0.53542
1999.0,0.5351
1999.7,0.53482
2000.5,0.53449
2001.3,0.53413
2002.1,0.53377
2002.8,0.53336
2003.6,0.53304
2004.4,0.5327
2005.2,0.53223
2005.9,0.53181
2006.7,0.53138
2007.5,0.5309
2008.3,0.53044
2009.0,0.53002
2009.8,0.52969
2010.6,0.52927
2011.4,0.52893
2012.2,0.52868
2012.9,0.52851
2013.7,0.52834
2014.5,0.52806
2015.3,0.52782
2016.1,0.52781
2016.8,0.52784
2017.6,0.52779
2018.4,0.52778
2019.2,0.5279
2020.0,0.52796
2020.8,0.52802
2021.6,0.52823
2022.3,0.52852
2023.1,0.52882
2023.9,0.52908
2024.7,0.52942
2025.5,0.52977
2026.3,0.53015
2027.1,0.5306
2027.9,0.53104
2028.7,0.53146
2029.5,0.53205
2030.3,0.53272
2031.1,0.5332
2031.9,0.53371
2032.7,0.53431
2033.5,0.53489
2034.3,0.53554
2035.1,0.53626
2035.8,0.53691
2036.7,0.53761
2037.4,0.53838
2038.3,0.53908
2039.1,0.53986
2039.9,0.54071
2040.7,0.54153
2041.5,0.54236
2042.3,0.54312
2043.1,0.54398
2043.9,0.54492
2044.7,0.54587
2045.5,0.54683
2046.3,0.5478
2047.1,0.5487
2047.9,0.54962
2048.7,0.55048
2049.5,0.55133
2050.4,0.55224
2051.2,0.5531
2052.0,0.55392
2052.8,0.55475
2053.6,0.55553
2054.4,0.55635
2055.2,0.55718
2056.0,0.55802
2056.9,0.55882
2057.7,0.55949
2058.5,0.56019
2059.3,0.56103
2060.1,0.56183
2060.9,0.56247
2061.8,0.56316
2062.6,0.56397
2063.4,0.5648
2064.2,0.5656
2065.0,0.56637
2065.9,0.56731
2066.7,0.56825
2067.5,0.56908
2068.3,0.56991
2069.2,0.57077
2070.0,0.57166
2070.8,0.57249
2071.6,0.57328
2072.5,0.57398
2073.3,0.57462
2074.1,0.57528
2075.0,0.57591
2075.8,0.57645
2076.6,0.57687
2077.5,0.57721
2078.3,0.5775
2079.1,0.57775
2080.0,0.57794
2080.8,0.578
2081.6,0.57797
2082.5,0.57784
2083.3,0.57772
2084.1,0.57761
2085.0,0.57729
2085.8,0.57686
2086.6,0.57628
2087.5,0.57569
2088.3,0.57509
2089.2,0.57434
2090.0,0.57348
2090.9,0.57256
2091.7,0.57155
2092.6,0.57044
2093.4,0.56928
2094.2,0.56814
2095.1,0.56679
2095.9,0.56526
2096.8,0.5637
2097.6,0.56216
2098.5,0.56062
2099.3,0.55901
2100.2,0.55714
2101.0,0.55533
2101.9,0.55357
2102.7,0.55173
2103.6,0.54981
2104.4,0.54793
2105.3,0.54605
2106.1,0.54412
2107.0,0.5421
2107.9,0.54005
2108.7,0.53798
2109.6,0.53599
2110.4,0.53391
2111.3,0.53184
2112.2,0.52982
2113.0,0.52768
2113.9,0.52545
2114.7,0.52334
2115.6,0.52127
2116.5,0.51903
2117.3,0.51669
2118.2,0.5144
2119.1,0.51207
2119.9,0.50977
2120.8,0.50741
2121.7,0.50492
2122.5,0.50237
2123.4,0.49983
2124.3,0.49727
2125.1,0.49473
2126.0,0.49215
2126.9,0.48946
2127.8,0.48682
2128.6,0.48412
2129.5,0.48136
2130.4,0.47872
2131.3,0.47623
2132.1,0.4737
2133.0,0.47106
2133.9,0.46847
2134.8,0.46588
2135.6,0.46333
2136.5,0.46078
2137.4,0.4582
2138.3,0.45555
2139.2,0.45304
2140.1,0.45055
2140.9,0.44802
2141.8,0.44542
2142.7,0.44279
2143.6,0.44018
2144.5,0.43756
2145.4,0.4349
2146.3,0.43232
2147.1,0.42971
2148.0,0.42708
2148.9,0.42446
2149.8,0.42183
2150.7,0.41926
2151.6,0.41679
2152.5,0.41416
2153.4,0.41149
2154.3,0.40887
2155.2,0.40635
2156.1,0.40381
2157.0,0.4013
2157.9,0.39875
2158.8,0.3962
2159.7,0.3937
2160.6,0.39119
2161.5,0.38863
2162.4,0.38617
2163.3,0.38373
2164.2,0.38129
2165.1,0.37881
2166.0,0.37628
2166.9,0.37379
2167.8,0.37145
2168.7,0.36901
2169.6,0.36656
2170.5,0.36426
2171.4,0.36207
2172.3,0.35978
2173.2,0.35753
2174.1,0.35534
2175.1,0.35326
2176.0,0.35119
2176.9,0.34924
2177.8,0.3474
2178.7,0.3456
2179.6,0.34381
2180.6,0.34211
2181.5,0.34052
2182.4,0.3391
2183.3,0.33774
2184.2,0.33649
2185.1,0.3353
2186.1,0.33413
2187.0,0.33308
2187.9,0.33224
2188.8,0.33154
2189.8,0.33084
2190.7,0.33011
2191.6,0.32951
2192.5,0.32894
2193.5,0.32841
2194.4,0.32785
2195.3,0.32734
2196.3,0.32676
2197.2,0.32614
2198.1,0.32548
2199.1,0.32475
2200.0,0.32392
2200.9,0.3232
2201.9,0.32241
2202.8,0.32143
2203.7,0.32042
2204.7,0.31959
2205.6,0.31875
2206.5,0.31783
2207.5,0.31683
2208.4,0.31586
2209.4,0.31502
2210.3,0.31423
2211.2,0.31346
2212.2,0.31267
2213.1,0.31179
2214.1,0.31104
2215.0,0.31043
2216.0,0.30984
2216.9,0.30912
2217.9,0.30843
2218.8,0.30774
2219.8,0.30697
2220.7,0.30613
2221.7,0.30522
2222.6,0.30444
2223.6,0.3037
2224.5,0.30278
2225.5,0.30186
2226.4,0.30101
2227.4,0.30019
2228.4,0.29935
2229.3,0.29861
2230.3,0.29789
2231.2,0.29719
2232.2,0.2965
2233.1,0.2959
2234.1,0.29538
2235.1,0.29486
2236.0,0.29443
2237.0,0.29408
2238.0,0.29374
2238.9,0.29352
2239.9,0.29332
2240.9,0.29311
2241.8,0.29295
2242.8,0.29294
2243.8,0.29299
2244.8,0.29311
2245.7,0.29334
2246.7,0.29366
2247.7,0.29392
2248.6,0.29429
2249.6,0.29475
2250.6,0.29522
2251.6,0.29574
2252.6,0.29631
2253.5,0.29685
2254.5,0.29745
2255.5,0.29806
2256.5,0.29871
2257.5,0.29942
2258.4,0.30023
2259.4,0.30086
2260.4,0.30158
2261.4,0.30234
2262.4,0.30304
2263.4,0.30363
2264.4,0.30426
2265.4,0.30495
2266.3,0.30559
2267.3,0.30622
2268.3,0.30688
2269.3,0.30742
2270.3,0.308
2271.3,0.30853
2272.3,0.30901
2273.3,0.30942
2274.3,0.30986
2275.3,0.3103
2276.3,0.31065
2277.3,0.31096
2278.3,0.31119
2279.3,0.31142
2280.3,0.31164
2281.3,0.31173
2282.3,0.31194
2283.3,0.3121
2284.3,0.31224
2285.3,0.31233
2286.3,0.31237
2287.3,0.3124
2288.3,0.31242
2289.4,0.3125
2290.4,0.31259
2291.4,0.31266
2292.4,0.31279
2293.4,0.3129
2294.4,0.31309
2295.4,0.31331
2296.4,0.31354
2297.5,0.3138
2298.5,0.31418
2299.5,0.31472
2300.5,0.31532
2301.6,0.31594
2302.6,0.31671
2303.6,0.31775
2304.6,0.31894
2305.6,0.32009
2306.7,0.32141
2307.7,0.32297
2308.7,0.32472
2309.8,0.32661
2310.8,0.3286
2311.8,0.33084
2312.8,0.33319
2313.9,0.33566
2314.9,0.33837
2315.9,0.34126
2317.0,0.34431
2318.0,0.34757
2319.1,0.35099
2320.1,0.35447
2321.1,0.35808
2322.2,0.3619
2323.2,0.3659
2324.3,0.37001
2325.3,0.37426
2326.3,0.37856
2327.4,0.38296
2328.4,0.38743
2329.5,0.39205
2330.5,0.39655
2331.6,0.40113
2332.6,0.40585
2333.7,0.41063
2334.7,0.41526
2335.8,0.41995
2336.8,0.42476
2337.9,0.42955
2338.9,0.43425
2340.0,0.43898
2341.0,0.44365
2342.1,0.44822
2343.1,0.4527
2344.2,0.45709
2345.3,0.46146
2346.3,0.46584
2347.4,0.47015
2348.5,0.47426
2349.5,0.47821
2350.6,0.48224
2351.7,0.48616
2352.7,0.48985
2353.8,0.49332
2354.9,0.49677
2355.9,0.50013
2357.0,0.5034
2358.1,0.50652
2359.1,0.50948
2360.2,0.5122
2361.3,0.5148
2362.4,0.5173
2363.4,0.51977
2364.5,0.522
2365.6,0.52385
2366.7,0.52557
2367.8,0.52726
2368.9,0.52863
2369.9,0.52967
2371.0,0.53063
2372.1,0.53134
2373.2,0.5318
2374.3,0.53207
2375.4,0.53214
2376.4,0.5319
2377.5,0.53133
2378.6,0.53057
2379.7,0.52964
2380.8,0.52846
2381.9,0.52698
2383.0,0.52536
2384.1,0.52347
2385.2,0.52142
2386.3,0.51927
2387.4,0.51684
2388.5,0.5144
2389.6,0.51198
2390.7,0.5095
2391.8,0.50702
2392.9,0.50454
2394.0,0.50219
2395.1,0.49988
2396.2,0.49765
2397.3,0.49542
2398.4,0.49324
2399.5,0.49112
2400.6,0.48912
2401.8,0.48707
2402.9,0.48497
2404.0,0.48293
2405.1,0.48082
2406.2,0.47858
2407.3,0.47644
2408.5,0.47428
2409.6,0.47194
2410.7,0.46955
2411.8,0.46712
2412.9,0.46463
2414.1,0.46217
2415.2,0.45976
2416.3,0.45732
2417.4,0.45485
2418.6,0.4525
2419.7,0.45015
2420.8,0.44782
2422.0,0.44558
2423.1,0.44343
2424.2,0.44127
2425.4,0.43923
2426.5,0.43727
2427.6,0.43543
2428.8,0.43366
2429.9,0.4319
2431.1,0.43019
2432.2,0.4286
2433.3,0.42693
2434.5,0.42516
2435.6,0.42339
2436.8,0.42176
2437.9,0.42
2439.1,0.41824
2440.2,0.41648
2441.4,0.4146
2442.5,0.41266
2443.6,0.41065
2444.8,0.40856
2445.9,0.40638
2447.1,0.40406
2448.3,0.40175
2449.4,0.39932
2450.6,0.39665
2451.7,0.39382
2452.9,0.39086
2454.1,0.38766
2455.2,0.38434
2456.4,0.38076
2457.6,0.37704
2458.7,0.37308
2459.9,0.3688
2461.1,0.36425
2462.2,0.3594
2463.4,0.35426
2464.6,0.34873
2465.7,0.34291
2466.9,0.3369
2468.1,0.33051
2469.3,0.32385
2470.4,0.31676
2471.6,0.3094
2472.8,0.3017
2474.0,0.29385
2475.1,0.28599
2476.3,0.27809
2477.5,0.27007
2478.7,0.26226
2479.9,0.25467
2481.1,0.24745
2482.3,0.24059
2483.4,0.23449
2484.6,0.22916
2485.8,0.22478
2487.0,0.22142
2488.2,0.21934
2489.4,0.21819
2490.6,0.21828
2491.8,0.2195
2493.0,0.22198
2494.2,0.22537
2495.4,0.22996
2496.6,0.23529
2497.8,0.2414
2499.0,0.24792
2500.2,0.25496
2501.4,0.26234
2502.6,0.26989
2503.8,0.2773
2505.0,0.28477
2506.3,0.29236
2507.5,0.29979
2508.7,0.30674
2509.9,0.31369
2511.1,0.32035
2512.3,0.32663
2513.5,0.33251
2514.8,0.33833
2516.0,0.34382
2517.2,0.34903
2518.4,0.354
2519.6,0.35879
2520.9,0.36317
2522.1,0.3675
2523.3,0.37146
2524.6,0.37516
2525.8,0.37867
2527.0,0.38231
2528.2,0.38576
2529.5,0.38884
2530.7,0.3916
2531.9,0.39428
2533.2,0.39694
2534.4,0.39956
2535.7,0.40178
2536.9,0.4042
2538.1,0.40675
2539.4,0.409
2540.6,0.41105
2541.9,0.41293
2543.1,0.41441
2544.4,0.41625
2545.6,0.41822
2546.9,0.41977
2548.1,0.42094
2549.4,0.42238
2550.6,0.42354
2551.9,0.42458
2553.1,0.4257
2554.4,0.42713
2555.6,0.42842
2556.9,0.42938
2558.2,0.43003
2559.4,0.43037
2560.7,0.43024
2562.0,0.43031
2563.2,0.43095
2564.5,0.43155
2565.8,0.43251
2567.0,0.4335
2568.3,0.43358
2569.6,0.43322
2570.9,0.43353
2572.1,0.43405
2573.4,0.43356
2574.7,0.43342
2576.0,0.43342
2577.3,0.43302
2578.5,0.43346
2579.8,0.43368
2581.1,0.43284
2582.4,0.43246
2583.7,0.43172
2585.0,0.43123
2586.2,0.43151
2587.5,0.43072
2588.8,0.43024
2590.1,0.43029
2591.4,0.43031
2592.7,0.42976
2594.0,0.42841
2595.3,0.42611
2596.6,0.42639
2597.9,0.42737
2599.2,0.42749
2600.5,0.42667
2601.8,0.42532
2603.1,0.42408
2604.4,0.42268
2605.7,0.42139
2607.1,0.42058
2608.4,0.41996
2609.7,0.41874
2611.0,0.41748
2612.3,0.41625
2613.6,0.41462
2614.9,0.41341
2616.3,0.41132
2617.6,0.40881
2618.9,0.40796
2620.2,0.40631
2621.6,0.4047
2622.9,0.40447
2624.2,0.40348
2625.5,0.40213
2626.9,0.40051
2628.2,0.39994
2629.5,0.39919
2630.9,0.39787
2632.2,0.39804
2633.5,0.3983
2634.9,0.3983
2636.2,0.39885
2637.6,0.39918
2638.9,0.39947
2640.2,0.39965
2641.6,0.39998
2642.9,0.40053
2644.3,0.40114
2645.6,0.4014
2647.0,0.40221
2648.3,0.40334
2649.7,0.40439
2651.0,0.40497
2652.4,0.40515
2653.8,0.40592
2655.1,0.40679
2656.5,0.40759
2657.8,0.40871
2659.2,0.40905
2660.6,0.40937
2661.9,0.41016
2663.3,0.41091
2664.7,0.41088
2666.0,0.41051
2667.4,0.41119
2668.8,0.41226
2670.1,0.41177
2671.5,0.41208
2672.9,0.41402
2674.3,0.4148
2675.6,0.41464
2677.0,0.41405
2678.4,0.41461
2679.8,0.41544
2681.2,0.41651
2682.6,0.41681
2684.0,0.4165
2685.4,0.41648
2686.8,0.41656
2688.1,0.41668
2689.5,0.41675
2690.9,0.41661
2692.3,0.41592
2693.7,0.41431
2695.1,0.41332
2696.5,0.41323
2697.9,0.41315
2699.3,0.41223
2700.7,0.40954
2702.1,0.40473
2703.6,0.40002
2705.0,0.39673
2706.4,0.396
2707.8,0.39657
2709.2,0.39712
2710.6,0.39775
2712.0,0.39902
2713.5,0.40028
2714.9,0.40048
2716.3,0.39973
2717.7,0.3988
2719.1,0.39772
2720.6,0.39546
2722.0,0.39427
2723.4,0.39408
2724.9,0.39238
2726.3,0.39184
2727.7,0.39183
2729.2,0.39087
2730.6,0.38948
2732.0,0.38809
2733.5,0.38638
2734.9,0.38407
2736.4,0.38212
2737.8,0.38023
2739.3,0.37689
2740.7,0.37387
2742.2,0.37209
2743.6,0.37106
2745.1,0.36917
2746.5,0.36663
2748.0,0.36383
2749.4,0.36108
2750.9,0.35811
2752.3,0.35497
2753.8,0.35159
2755.3,0.34718
2756.7,0.34324
2758.2,0.34093
2759.7,0.33784
2761.1,0.33399
2762.6,0.32976
2764.1,0.32655
2765.6,0.32422
2767.0,0.32174
2768.5,0.31918
2770.0,0.31702
2771.5,0.3142
2772.9,0.31175
2774.4,0.30945
2775.9,0.30671
2777.4,0.30361
2778.9,0.30084
2780.4,0.29776
2781.9,0.29453
2783.4,0.29131
2784.9,0.28816
2786.4,0.28442
2787.9,0.28051
2789.4,0.27728
2790.9,0.27423
2792.4,0.27045
2793.9,0.26629
2795.4,0.26178
2796.9,0.25757
2798.4,0.25334
2799.9,0.24917
2801.4,0.24463
2802.9,0.23964
2804.4,0.23495
2806.0,0.23122
2807.5,0.22714
2809.0,0.22298
2810.5,0.21887
2812.1,0.2149
2813.6,0.21075
2815.1,0.2066
2816.6,0.20232
2818.2,0.19811
2819.7,0.19362
2821.2,0.18933
2822.8,0.18513
2824.3,0.18104
2825.8,0.17669
2827.4,0.17243
2828.9,0.16809
2830.5,0.16414
2832.0,0.1601
2833.6,0.15629
2835.1,0.15241
2836.7,0.14873
2838.2,0.14499
2839.8,0.14156
2841.3,0.13807
2842.9,0.13461
2844.4,0.13099
2846.0,0.12758
2847.6,0.12406
2849.1,0.1204
2850.7,0.11651
2852.3,0.11264
2853.8,0.10831
2855.4,0.1041
2857.0,0.09984
2858.6,0.09559
2860.1,0.0911
2861.7,0.08687
2863.3,0.08284
2864.9,0.07879
2866.4,0.07481
2868.0,0.07131
2869.6,0.06787
2871.2,0.0647
2872.8,0.06163
2874.4,0.05881
2876.0,0.05596
2877.6,0.05331
2879.2,0.05091
2880.8,0.04888
2882.4,0.04703
2884.0,0.04559
2885.6,0.04437
2887.2,0.04341
2888.8,0.04265
2890.4,0.04219
2892.0,0.04162
2893.6,0.04127
2895.3,0.04064
2896.9,0.04011
2898.5,0.03942
2900.1,0.03865
2901.7,0.03788
2903.4,0.03723
2905.0,0.03625
2906.6,0.03547
2908.3,0.03461
2909.9,0.03371
2911.5,0.03282
2913.1,0.03198
2914.8,0.03107
2916.4,0.0304
2918.1,0.02957
2919.7,0.02884
2921.4,0.02818
2923.0,0.02746
2924.7,0.02664
2926.3,0.02595
2928.0,0.02522
2929.6,0.02466
2931.3,0.02405
2932.9,0.02343
2934.6,0.02288
2936.3,0.02245
2937.9,0.02182
2939.6,0.02131
2941.2,0.02088
2942.9,0.02074
2944.6,0.02052
2946.3,0.02016
2947.9,0.01959
2949.6,0.01911
2951.3,0.01867
2953.0,0.01847
2954.6,0.01809
2956.3,0.01772
2958.0,0.01736
2959.7,0.01709
2961.4,0.01679
2963.1,0.0165
2964.8,0.01607
2966.5,0.01574
2968.2,0.01537
2969.9,0.01516
2971.6,0.01487
2973.3,0.01453
2975.0,0.01428
2976.7,0.01406
2978.4,0.01378
2980.1,0.01356
2981.8,0.0133
2983.6,0.01313
2985.3,0.01281
2987.0,0.01256
2988.7,0.0124
2990.4,0.01229
2992.2,0.01192
2993.9,0.01155
2995.6,0.01133
2997.4,0.01141
2999.1,0.01133
3000.8,0.0112
3002.6,0.01097
3004.3,0.01093
3006.0,0.01072
3007.8,0.01057
3009.5,0.01052
3011.3,0.01047
3013.0,0.01025
3014.8,0.01021
3016.5,0.01012
3018.3,0.0102
3020.0,0.01029
3021.8,0.01022
3023.6,0.01006
3025.3,0.01004
3027.1,0.01009
3028.9,0.01021
3030.6,0.0102
3032.4,0.01014
3034.2,0.0102
3036.0,0.01042
3037.7,0.01045
3039.5,0.01057
3041.3,0.01061
3043.1,0.01065
3044.9,0.0107
3046.7,0.01086
3048.4,0.011
3050.2,0.01104
3052.0,0.01101
3053.8,0.01102
3055.6,0.01121
3057.4,0.0114
3059.2,0.01144
3061.1,0.01151
3062.9,0.0116
3064.7,0.01183
3066.5,0.01179
3068.3,0.01188
3070.1,0.01206
3071.9,0.01215
3073.8,0.01221
3075.6,0.01228
3077.4,0.01225
3079.2,0.01249
3081.1,0.01268
3082.9,0.01276
3084.7,0.01272
3086.6,0.01282
3088.4,0.01296
3090.2,0.01309
3092.1,0.0131
3093.9,0.01336
3095.8,0.01358
3097.6,0.0137
3099.5,0.01371
3101.3,0.01376
3103.2,0.0139
3105.0,0.01414
3106.9,0.01407
3108.8,0.01419
3110.6,0.0144
3112.5,0.01455
3114.4,0.01474
3116.2,0.01494
3118.1,0.01494
3120.0,0.01499
3121.9,0.01511
3123.7,0.01536
3125.6,0.01544
3127.5,0.01546
3129.4,0.01555
3131.3,0.01573
3133.2,0.0159
3135.1,0.01611
3137.0,0.01621
3138.9,0.0163
3140.8,0.01647
3142.7,0.01664
3144.6,0.01673
3146.5,0.01699
3148.4,0.01726
3150.3,0.01742
3152.2,0.01768
3154.1,0.01806
3156.1,0.01834
3158.0,0.01862
3159.9,0.0188
3161.8,0.01917
3163.8,0.01957
3165.7,0.0199
3167.6,0.02023
3169.6,0.02058
3171.5,0.02097
3173.4,0.02149
3175.4,0.02204
3177.3,0.02257
3179.3,0.02301
3181.2,0.02353
3183.2,0.02397
3185.1,0.02447
3187.1,0.02486
3189.1,0.02533
3191.0,0.02575
3193.0,0.02615
3194.9,0.02646
3196.9,0.02682
3198.9,0.02706
3200.9,0.0274
3202.9,0.02759
3204.8,0.02771
3206.8,0.02783
3208.8,0.02804
3210.8,0.02811
3212.8,0.02799
3214.8,0.02782
3216.8,0.02763
3218.8,0.02735
3220.8,0.0272
3222.8,0.027
3224.8,0.02669
3226.8,0.02656
3228.8,0.02631
3230.8,0.02597
3232.8,0.02573
3234.8,0.02555
3236.8,0.0254
3238.9,0.02514
3240.9,0.02477
3242.9,0.02456
3244.9,0.02443
3247.0,0.0242
3249.0,0.02418
3251.0,0.02415
3253.1,0.02401
3255.1,0.02376
3257.2,0.02358
3259.2,0.02344
3261.3,0.02341
3263.3,0.02337
3265.4,0.02318
3267.4,0.02295
3269.5,0.02285
3271.6,0.0228
3273.6,0.02273
3275.7,0.02259
3277.8,0.02248
3279.8,0.02244
3281.9,0.02256
3284.0,0.02249
3286.1,0.02248
3288.1,0.02249
3290.2,0.02246
3292.3,0.02243
3294.4,0.02247
3296.5,0.02239
3298.6,0.02225
3300.7,0.02221
3302.8,0.02221
3304.9,0.02225
3307.0,0.02218
3309.1,0.02217
3311.2,0.02226
3313.4,0.02223
3315.5,0.02214
3317.6,0.0221
3319.7,0.02217
3321.9,0.02222
3324.0,0.02227
3326.1,0.02229
3328.3,0.02231
3330.4,0.02222
3332.5,0.02211
3334.7,0.02212
3336.8,0.02213
3339.0,0.02211
3341.1,0.02214
3343.3,0.02217
3345.4,0.02229
3347.6,0.02229
3349.8,0.02216
3351.9,0.02205
3354.1,0.02218
3356.3,0.02227
3358.4,0.02222
3360.6,0.02223
3362.8,0.02223
3365.0,0.02216
3367.1,0.02199
3369.3,0.02195
3371.5,0.02199
3373.7,0.02196
3375.9,0.02201
3378.1,0.02208
3380.3,0.02211
3382.5,0.02203
3384.7,0.02205
3386.9,0.02214
3389.1,0.02211
3391.4,0.02195
3393.6,0.02184
3395.8,0.02174
3398.0,0.0217
3400.3,0.02172
3402.5,0.02174
3404.7,0.02169
3407.0,0.02163
3409.2,0.02154
3411.4,0.02165
3413.7,0.02183
3415.9,0.02213
3418.2,0.02219
3420.4,0.02233
3422.7,0.02257
3425.0,0.0229
3427.2,0.02331
3429.5,0.02357
3431.8,0.02375
3434.0,0.02417
3436.3,0.02447
3438.6,0.02469
3440.9,0.02493
3443.2,0.02514
3445.4,0.02542
3447.7,0.0258
3450.0,0.02609
3452.3,0.0264
3454.6,0.02662
3456.9,0.02676
3459.2,0.027
3461.6,0.0273
3463.9,0.02761
3466.2,0.02784
3468.5,0.02813
3470.8,0.02841
3473.1,0.02863
3475.5,0.02876
3477.8,0.02899
3480.1,0.02936
3482.5,0.02973
3484.8,0.03002
3487.2,0.03031
3489.5,0.03057
3491.9,0.03084
3494.2,0.03114
3496.6,0.03143
3498.9,0.03181
3501.3,0.03225
3503.6,0.03255
3506.0,0.03303
3508.4,0.03338
3510.8,0.03366
3513.1,0.0341
3515.5,0.03445
3517.9,0.03473
3520.3,0.03502
3522.7,0.03545
3525.1,0.03577
3527.5,0.03604
3529.9,0.03629
3532.3,0.03668
3534.7,0.03714
3537.1,0.03745
3539.5,0.03766
3541.9,0.03804
3544.4,0.0384
3546.8,0.03878
3549.2,0.03931
3551.6,0.03993
3554.1,0.04024
3556.5,0.04043
3559.0,0.04077
3561.4,0.04132
3563.9,0.04179
3566.3,0.0423
3568.8,0.0428
3571.2,0.04325
3573.7,0.04372
3576.1,0.04423
3578.6,0.04483
3581.1,0.0455
3583.6,0.04597
3586.0,0.04642
3588.5,0.04692
3591.0,0.04749
3593.5,0.04805
3596.0,0.04858
3598.5,0.049
3601.0,0.04955
3603.5,0.05017
3606.0,0.05069
3608.5,0.05111
3611.0,0.05161
3613.5,0.05218
3616.0,0.05277
3618.6,0.05335
3621.1,0.05407
3623.6,0.05482
3626.1,0.05542
3628.7,0.05608
3631.2,0.05674
3633.8,0.05723
3636.3,0.05769
3638.9,0.0581
3641.4,0.05868
3644.0,0.0591
3646.6,0.0594
3649.1,0.05996
3651.7,0.06038
3654.3,0.06057
3656.8,0.06087
3659.4,0.06117
3662.0,0.0614
3664.6,0.06162
3667.2,0.062
3669.8,0.06224
3672.4,0.06227
3675.0,0.06225
3677.6,0.06245
3680.2,0.06265
3682.8,0.06285
3685.4,0.06292
3688.1,0.06299
3690.7,0.06307
3693.3,0.06312
3695.9,0.06306
3698.6,0.06314
3701.2,0.06315
3703.9,0.06319
3706.5,0.06329
3709.2,0.06346
3711.8,0.06365
3714.5,0.06357
3717.1,0.06337
3719.8,0.0633
3722.5,0.06348
3725.1,0.06388
3727.8,0.06416
3730.5,0.06414
3733.2,0.06388
3735.9,0.06391
3738.6,0.06397
3741.3,0.06382
3744.0,0.06356
3746.7,0.06335
3749.4,0.06312
3752.1,0.06276
3754.8,0.06254
3757.6,0.06231
3760.3,0.06208
3763.0,0.06186
3765.7,0.06161
3768.5,0.06133
3771.2,0.06102
3774.0,0.06072
3776.7,0.06036
3779.5,0.05993
3782.2,0.0594
3785.0,0.05878
3787.7,0.05803
3790.5,0.05718
3793.3,0.05628
3796.1,0.05533
3798.8,0.05426
3801.6,0.05318
3804.4,0.05209
3807.2,0.05106
3810.0,0.05014
3812.8,0.0494
3815.6,0.04882
3818.4,0.04839
3821.2,0.04824
3824.1,0.04844
3826.9,0.04897
3829.7,0.04973
3832.5,0.05064
3835.4,0.05169
3838.2,0.05275
3841.1,0.05373
3843.9,0.0546
3846.8,0.05529
3849.6,0.05586
3852.5,0.05632
3855.3,0.05665
3858.2,0.05685
3861.1,0.05689
3863.9,0.05687
3866.8,0.05679
3869.7,0.05659
3872.6,0.05623
3875.5,0.05577
3878.4,0.05524
3881.3,0.05462
3884.2,0.05395
3887.1,0.05324
3890.0,0.05242
3893.0,0.05153
3895.9,0.05066
3898.8,0.04982
3901.7,0.04892
3904.7,0.04807
3907.6,0.04734
3910.6,0.04669
3913.5,0.04613
3916.5,0.04574
3919.4,0.04565
3922.4,0.04579
3925.4,0.04612
3928.4,0.04668
3931.3,0.0474
3934.3,0.04831
3937.3,0.04931
3940.3,0.0503
3943.3,0.05129
3946.3,0.05235
3949.3,0.05337
3952.3,0.05444
3955.3,0.05556
3958.3,0.05676
3961.4,0.05807
3964.4,0.05942
3967.4,0.06089
3970.5,0.06255
3973.5,0.06428
3976.6,0.06604
3979.6,0.0679
3982.6,0.0698
3985.7,0.07167
3988.8,0.07359
3991.9,0.07554
3994.9,0.0775
3998.0,0.07941
4001.1,0.08123
4004.2,0.08297
4007.3,0.08474
4010.4,0.0865
4013.5,0.08818
4016.6,0.08973
4019.7,0.09126
4022.8,0.09276
4025.9,0.09424
4029.1,0.09558
4032.2,0.09683
4035.3,0.09797
4038.5,0.09905
4041.6,0.09996
4044.8,0.10075
4047.9,0.10138
4051.1,0.10182
4054.3,0.10208
4057.4,0.10223
4060.6,0.10221
4063.8,0.10204
4067.0,0.10182
4070.2,0.10154
4073.4,0.10114
4076.6,0.10074
4079.8,0.10027
4083.0,0.09974
4086.2,0.09914
4089.4,0.0984
4092.7,0.09762
4095.9,0.09699
4099.1,0.09647
4102.4,0.0961
4105.6,0.09598
4108.9,0.09621
4112.1,0.09674
4115.4,0.09753
4118.7,0.0984
4122.0,0.09927
4125.2,0.10007
4128.5,0.10066
4131.8,0.10094
4135.1,0.10092
4138.4,0.10057
4141.7,0.09999
4145.0,0.09917
4148.3,0.09822
4151.6,0.09713
4155.0,0.09603
4158.3,0.09492
4161.6,0.09382
4165.0,0.09276
4168.3,0.09175
4171.7,0.09074
4175.0,0.08971
4178.4,0.08859
4181.8,0.08747
4185.2,0.08618
4188.5,0.08479
4191.9,0.08328
4195.3,0.08162
4198.7,0.07983
4202.1,0.07795
4205.5,0.07596
4208.9,0.07392
4212.4,0.07184
4215.8,0.06983
4219.2,0.068
4222.6,0.06639
4226.1,0.06506
4229.5,0.06412
4233.0,0.06353
4236.5,0.06332
4239.9,0.06356
4243.4,0.06425
4246.9,0.06533
4250.3,0.06681
4253.8,0.0686
4257.3,0.07068
4260.8,0.07304
4264.3,0.07556
4267.8,0.0781
4271.3,0.08078
4274.9,0.08383
4278.4,0.08743
4281.9,0.09164
4285.5,0.09651
4289.0,0.10177
4292.6,0.10729
4296.1,0.11292
4299.7,0.11866
4303.3,0.12436
4306.8,0.12997
4310.4,0.13535
4314.0,0.14057
4317.6,0.1455
4321.2,0.1501
4324.8,0.15439
4328.4,0.1584
4332.0,0.16203
4335.6,0.16534
4339.3,0.16833
4342.9,0.17108
4346.5,0.17349
4350.2,0.17574
4353.8,0.17771
4357.5,0.17954
4361.1,0.18118
4364.8,0.18266
4368.5,0.18392
4372.2,0.18507
4375.9,0.18601
4379.6,0.1869
4383.3,0.18773
4387.0,0.18853
4390.7,0.18924
4394.4,0.18998
4398.1,0.19066
4401.9,0.19139
4405.6,0.19211
4409.4,0.19284
4413.1,0.19343
4416.9,0.19397
4420.6,0.19441
4424.4,0.19486
4428.2,0.19517
4432.0,0.19544
4435.8,0.19566
4439.6,0.19592
4443.4,0.1961
4447.2,0.19631
4451.0,0.19653
4454.8,0.19684
4458.6,0.19713
4462.5,0.19743
4466.3,0.1977
4470.2,0.19794
4474.0,0.19809
4477.9,0.1983
4481.8,0.19842
4485.6,0.19845
4489.5,0.19835
4493.4,0.1982
4497.3,0.19788
4501.2,0.19748
4505.1,0.19683
4509.0,0.19606
4513.0,0.19511
4516.9,0.19402
4520.9,0.19271
4524.8,0.1913
4528.7,0.18965
4532.7,0.18783
4536.7,0.1857
4540.6,0.18339
4544.6,0.1808
4548.6,0.17811
4552.6,0.1754
4556.6,0.17286
4560.6,0.17057
4564.6,0.16867
4568.6,0.16704
4572.7,0.16565
4576.7,0.16438
4580.8,0.16336
4584.8,0.16257
4588.9,0.16205
4592.9,0.1618
4597.0,0.16201
4601.1,0.16253
4605.2,0.16339
4609.3,0.1645
4613.4,0.16588
4617.5,0.16742
4621.6,0.16915
4625.7,0.17088
4629.8,0.17271
4634.0,0.17446
4638.1,0.17607
4642.3,0.17741
4646.4,0.17864
4650.6,0.17957
4654.8,0.18024
4659.0,0.18058
4663.1,0.18062
4667.3,0.18032
4671.5,0.17986
4675.8,0.17911
4680.0,0.17823
4684.2,0.17725
4688.4,0.17638
4692.7,0.17566
4696.9,0.17536
4701.2,0.1755
4705.5,0.17625
4709.7,0.17746
4714.0,0.17918
4718.3,0.18112
4722.6,0.18314
4726.9,0.18498
4731.2,0.18663
4735.5,0.18782
4739.9,0.18867
4744.2,0.18917
4748.5,0.18952
4752.9,0.18972
4757.3,0.1899
4761.6,0.19
4766.0,0.19015
4770.4,0.19017
4774.8,0.19014
4779.2,0.18991
4783.6,0.18968
4788.0,0.18949
4792.4,0.18961
4796.9,0.1901
4801.3,0.19117
4805.8,0.1926
4810.2,0.19426
4814.7,0.19575
4819.1,0.19697
4823.6,0.19778
4828.1,0.19822
4832.6,0.19817
4837.1,0.19778
4841.6,0.19699
4846.2,0.19608
4850.7,0.19496
4855.3,0.19389
4859.8,0.19282
4864.4,0.19191
4868.9,0.19109
4873.5,0.19044
4878.1,0.18981
4882.7,0.1892
4887.3,0.18845
4891.9,0.1877
4896.5,0.18672
4901.1,0.18558
4905.8,0.18421
4910.4,0.18273
4915.1,0.18103
4919.7,0.17922
4924.4,0.17715
4929.1,0.17494
4933.8,0.17245
4938.5,0.1697
4943.2,0.16665
4947.9,0.16331
4952.6,0.15949
4957.4,0.15525
4962.1,0.15054
4966.9,0.14549
4971.6,0.1402
4976.4,0.13499
4981.2,0.13005
4986.0,0.12568
4990.8,0.12191
4995.6,0.11871
5000.4,0.11585
5005.2,0.11319
5010.0,0.11057
5014.9,0.10802
5019.8,0.10561
5024.6,0.10366
5029.5,0.1024
5034.4,0.10212
5039.3,0.10291
5044.2,0.10486
5049.1,0.10779
5054.0,0.11147
5058.9,0.11548
5063.9,0.11957
5068.8,0.12344
5073.8,0.12696
5078.8,0.12991
5083.7,0.13249
5088.7,0.13456
5093.7,0.13607
5098.7,0.13708
5103.7,0.13773
5108.8,0.13792
5113.8,0.13777
5118.9,0.13732
5123.9,0.13664
5129.0,0.1357
5134.1,0.13462
5139.1,0.13339
5144.3,0.13198
5149.4,0.13026
5154.5,0.12826
5159.6,0.12592
5164.7,0.12329
5169.9,0.12043
5175.0,0.11743
5180.2,0.11429
5185.4,0.11108
5190.6,0.10774
5195.8,0.1042
5201.0,0.10036
5206.2,0.09646
5211.5,0.09276
5216.7,0.08926
5222.0,0.08613
5227.2,0.08328
5232.5,0.08056
5237.8,0.07805
5243.1,0.07573
5248.4,0.07359
5253.7,0.07166
5259.0,0.06984
5264.4,0.06812
5269.7,0.06646
5275.1,0.06489
5280.5,0.06343
5285.8,0.06209
5291.2,0.06083
5296.6,0.05966
5302.0,0.05852
5307.5,0.05742
5312.9,0.05621
5318.4,0.05493
5323.8,0.0536
5329.3,0.05222
5334.8,0.05077
5340.3,0.04946
5345.8,0.0484
5351.3,0.04774
5356.8,0.04743
5362.4,0.04741
5367.9,0.04749
5373.5,0.04766
5379.0,0.0477
5384.6,0.04754
5390.2,0.04709
5395.8,0.04641
5401.5,0.04546
5407.1,0.04424
5412.7,0.04271
5418.4,0.04108
5424.1,0.0392
5429.7,0.03722
5435.4,0.03516
5441.1,0.03302
5446.9,0.03071
5452.6,0.02844
5458.3,0.02617
5464.1,0.02392
5469.8,0.02166
5475.6,0.01979
5481.4,0.01797
5487.2,0.01647
5493.0,0.01514
5498.8,0.01417
5504.7,0.0134
5510.5,0.01304
5516.4,0.01288
5522.3,0.01317
5528.1,0.01384
5534.0,0.0149
5540.0,0.01613
5545.9,0.01765
5551.8,0.01926
5557.8,0.02093
5563.7,0.0223
5569.7,0.02326
5575.7,0.02371
5581.7,0.0238
5587.7,0.02346
5593.7,0.02299
5599.8,0.02251
5605.8,0.0222
5611.9,0.02216
5618.0,0.02261
5624.1,0.02364
5630.2,0.02536
5636.3,0.02761
5642.4,0.03091
5648.6,0.03483
5654.7,0.03873
5660.9,0.04304
5667.1,0.04689
5673.3,0.05046
5679.5,0.05387
5685.7,0.05652
5692.0,0.05867
5698.2,0.06032
5704.5,0.06102
5710.8,0.06114
5717.1,0.06065
5723.4,0.05996
5729.7,0.05927
5736.1,0.05881
5742.4,0.05837
5748.8,0.05791
5755.1,0.05735
5761.5,0.05683
5768.0,0.05602
5774.4,0.05508
5780.8,0.05404
5787.3,0.05278
5793.7,0.05132
5800.2,0.04978
5806.7,0.04826
5813.2,0.04703
5819.7,0.0461
5826.3,0.04551
5832.8,0.04536
5839.4,0.04564
5846.0,0.04606
5852.6,0.04659
5859.2,0.0471
5865.8,0.0475
5872.5,0.0476
5879.1,0.04755
5885.8,0.04708
5892.5,0.04636
5899.2,0.04501
5905.9,0.04363
5912.6,0.04226
5919.4,0.04084
5926.2,0.0395
5932.9,0.0383
5939.7,0.03665
5946.5,0.03536
5953.4,0.03421
5960.2,0.0332
5967.1,0.03225
5974.0,0.03142
5980.8,0.03075
5987.8,0.03028
5994.7,0.02978
6001.6,0.02945
6008.6,0.02914
6015.5,0.02892
6022.5,0.02866
6029.5,0.0285
6036.5,0.02829
6043.6,0.02815
6050.6,0.02802
6057.7,0.0279
6064.8,0.02772
6071.9,0.02758
6079.0,0.02743
6086.1,0.02727
6093.3,0.02712
6100.5,0.02708
6107.6,0.02703
6114.9,0.0271
6122.1,0.02713
6129.3,0.02709
6136.5,0.02705
6143.8,0.02712
6151.1,0.02718
6158.4,0.02726
6165.7,0.02735
6173.1,0.02743
6180.4,0.02756
6187.8,0.02784
6195.2,0.02797
6202.6,0.02811
6210.0,0.02834
6217.5,0.02853
6225.0,0.02873
6232.4,0.02892
6239.9,0.02913
6247.5,0.02939
6255.0,0.02967
6262.5,0.02989
6270.1,0.03007
6277.7,0.03028
6285.3,0.03043
6293.0,0.03056
6300.6,0.03063
6308.3,0.03071
6315.9,0.0308
6323.6,0.0308
6331.4,0.03074
6339.1,0.03067
6346.9,0.03065
6354.6,0.03055
6362.4,0.03037
6370.3,0.0303
6378.1,0.03035
6385.9,0.03034
6393.8,0.03033
6401.7,0.03029
6409.6,0.03031
6417.5,0.03065
6425.5,0.03087
6433.5,0.03097
6441.5,0.03117
6449.5,0.03137
6457.5,0.03167
6465.6,0.03192
6473.6,0.03221
6481.7,0.03245
6489.8,0.0328
6498.0,0.03327
6506.1,0.03355
6514.3,0.03365
6522.5,0.03392
6530.7,0.03417
6538.9,0.03436
6547.2,0.03457
6555.5,0.03492
6563.8,0.03527
6572.1,0.03582
6580.4,0.03643
6588.8,0.03693
6597.2,0.03761
6605.6,0.03834
6614.0,0.0391
6622.5,0.03988
6630.9,0.04055
6639.4,0.04164
6647.9,0.04256
6656.5,0.04326
6665.0,0.044
6673.6,0.04479
6682.2,0.0456
6690.8,0.04644
6699.5,0.04701
6708.1,0.04774
6716.8,0.04861
6725.5,0.04948
6734.3,0.05036
6743.0,0.05129
6751.8,0.05219
6760.6,0.05309
6769.4,0.05391
6778.3,0.05482
6787.1,0.05564
6796.0,0.05673
6805.0,0.0576
6813.9,0.05836
6822.9,0.05916
6831.9,0.06006
6840.9,0.0607
6849.9,0.06124
6859.0,0.06174
6868.0,0.06248
6877.2,0.06288
6886.3,0.06318
6895.5,0.06347
6904.6,0.06373
6913.8,0.06399
6923.1,0.06415
6932.3,0.06412
6941.6,0.06411
6950.9,0.06419
6960.2,0.06444
6969.6,0.06469
6979.0,0.06468
6988.4,0.06447
6997.8,0.06418
7007.3,0.0638
7016.8,0.06335
7026.3,0.06269
7035.8,0.06176
7045.4,0.06044
7054.9,0.05875
7064.5,0.05681
7074.2,0.0544
7083.9,0.05145
7093.5,0.04807
7103.3,0.04442
7113.0,0.0405
7122.8,0.03649
7132.6,0.03284
7142.4,0.02974
7152.2,0.02721
7162.1,0.02581
7172.0,0.02537
7182.0,0.02572
7191.9,0.02646
7201.9,0.02768
7211.9,0.02945
7222.0,0.0315
7232.0,0.03374
7242.1,0.03611
7252.3,0.03832
7262.4,0.04015
7272.6,0.04157
7282.8,0.04253
7293.1,0.04286
7303.3,0.04254
7313.6,0.04156
7324.0,0.03992
7334.3,0.03771
7344.7,0.03497
7355.1,0.03189
7365.6,0.02862
7376.1,0.02543
7386.6,0.02256
7397.1,0.02017
7407.7,0.01853
7418.3,0.01766
7428.9,0.0175
7439.6,0.01779
7450.3,0.01846
7461.0,0.0193
7471.7,0.02026
7482.5,0.02108
7493.3,0.02171
7504.1,0.02211
7515.0,0.02239
7525.9,0.02256
7536.9,0.02274
7547.9,0.02286
7558.9,0.02308
7569.9,0.02337
7581.0,0.02375
7592.0,0.0242
7603.2,0.02478
7614.4,0.02538
7625.5,0.02608
7636.8,0.0268
7648.0,0.02763
7659.3,0.02862
7670.7,0.02969
7682.0,0.03075
7693.4,0.0318
7704.9,0.03269
7716.3,0.03331
7727.8,0.03363
7739.4,0.03372
7750.9,0.03368
7762.5,0.03364
7774.2,0.0336
7785.8,0.03361
7797.5,0.03367
7809.3,0.03388
7821.1,0.03426
7832.9,0.03482
7844.7,0.03554
7856.6,0.03634
7868.5,0.0373
7880.5,0.03858
7892.5,0.0401
7904.5,0.04182
7916.6,0.04368
7928.7,0.04566
7940.8,0.04786
7953.0,0.05035
7965.2,0.05327
7977.5,0.05661
7989.8,0.06028
8002.1,0.06428
8014.5,0.06861
8026.9,0.07332
8039.3,0.07845
8051.8,0.08378
8064.3,0.08923
8076.9,0.09474
8089.5,0.10016
8102.1,0.10529
8114.8,0.11012
8127.5,0.11438
8140.3,0.11823
8153.1,0.12152
8165.9,0.12439
8178.8,0.12674
8191.7,0.12866
8204.7,0.13011
8217.7,0.13126
8230.7,0.1319
8243.8,0.13217
8257.0,0.13192
8270.1,0.13135
8283.3,0.13037
8296.6,0.12911
8309.9,0.12752
8323.2,0.12579
8336.6,0.12382
8350.0,0.12181
8363.5,0.1197
8377.0,0.11762
8390.5,0.11542
8404.2,0.11317
8417.8,0.1107
8431.5,0.10802
8445.2,0.10501
8459.0,0.10175
8472.8,0.09803
8486.7,0.09386
8500.6,0.08908
8514.5,0.08363
8528.5,0.07748
8542.6,0.07114
8556.7,0.0655
8570.8,0.0615
8585.0,0.05923
8599.3,0.05811
8613.5,0.05747
8627.9,0.05697
8642.3,0.05622
8656.7,0.0552
8671.2,0.05404
8685.7,0.0529
8700.3,0.05191
8714.9,0.05103
8729.5,0.05017
8744.3,0.04939
8759.0,0.0487
8773.9,0.04803
8788.7,0.0474
8803.7,0.04677
8818.6,0.04622
8833.7,0.04587
8848.7,0.04565
8863.8,0.04556
8879.0,0.0457
8894.3,0.04599
8909.5,0.04642
8924.9,0.04698
8940.3,0.04772
8955.7,0.04864
8971.2,0.04969
8986.8,0.05083
9002.3,0.05208
9018.0,0.05332
9033.7,0.05448
9049.5,0.05562
9065.3,0.05666
9081.2,0.05762
9097.1,0.05848
9113.1,0.05922
9129.1,0.05992
9145.2,0.06065
9161.4,0.06146
9177.6,0.06226
9193.9,0.06291
9210.2,0.06354
9226.6,0.06418
9243.0,0.06473
9259.5,0.0652
9276.1,0.06564
9292.7,0.066
9309.4,0.06633
9326.2,0.06663
9343.0,0.06688
9359.8,0.06703
9376.8,0.06715
9393.8,0.06716
9410.8,0.06697
9427.9,0.06665
9445.1,0.06652
9462.3,0.0664
9479.6,0.06619
9497.0,0.06586
9514.4,0.06541
9531.9,0.06487
9549.4,0.06437
9567.1,0.06392
9584.7,0.06371
9602.5,0.06376
9620.3,0.06407
9638.2,0.06457
9656.1,0.06533
9674.2,0.06619
9692.2,0.06712
9710.4,0.06806
9728.6,0.06893
9746.9,0.06974
9765.2,0.07062
9783.7,0.07153
9802.2,0.07248
9820.7,0.07337
9839.4,0.07403
9858.1,0.07434
9876.8,0.07426
9895.7,0.07388
9914.6,0.07364
9933.6,0.07351
9952.7,0.07315
9971.8,0.07247
9991.0,0.07158
10010.3,0.07043
10029.7,0.06913
10049.1,0.0677
10068.6,0.06615
10088.2,0.06442
10107.9,0.0626
10127.6,0.06085
10147.5,0.05933
10167.3,0.05804
10187.3,0.05692
10207.4,0.05589
10227.5,0.05488
10247.7,0.054
10268.0,0.05337
10288.4,0.05298
10308.8,0.05277
10329.4,0.05252
10350.0,0.05215
10370.7,0.05169
10391.5,0.05116
10412.3,0.05055
10433.3,0.05005
10454.3,0.04975
10475.4,0.04957
10496.7,0.04945
10517.9,0.04923
10539.3,0.04886
10560.8,0.04855
10582.3,0.04827
10604.0,0.04795
10625.7,0.04754
10647.5,0.04708
10669.4,0.04657
10691.4,0.04608
10713.5,0.04562
10735.7,0.04511
10758.0,0.04455
10780.3,0.04401
10802.8,0.04347
10825.4,0.04314
10848.0,0.04295
10870.8,0.04278
10893.6,0.04255
10916.5,0.04223
10939.5,0.04193
10962.7,0.04151
10985.9,0.04111
11009.2,0.04076
11032.7,0.04036
11056.2,0.03996
11079.8,0.03958
11103.5,0.0392
11127.4,0.03881
11151.3,0.03836
11175.3,0.03794
11199.5,0.03754
11223.7,0.03714
11248.0,0.03673
11272.5,0.03631
11297.1,0.03602
11321.7,0.03582
11346.5,0.03571
11371.4,0.03562
11396.4,0.03556
11421.5,0.03553
11446.7,0.03546
11472.0,0.03551
11497.4,0.03563
11523.0,0.0358
11548.7,0.03593
11574.4,0.03599
11600.3,0.03595
11626.3,0.0358
11652.5,0.03565
11678.7,0.03547
11705.1,0.03517
11731.6,0.03492
11758.2,0.03477
11784.9,0.03444
11811.7,0.03409
11838.7,0.0338
11865.8,0.03347
11893.0,0.03308
11920.3,0.03273
11947.8,0.03251
11975.4,0.03229
12003.1,0.03203
12031.0,0.03186
12059.0,0.03171
12087.1,0.03136
12115.3,0.03099
12143.7,0.0307
12172.2,0.03044
12200.8,0.03027
12229.6,0.0302
12258.5,0.03014
12287.6,0.03016
12316.8,0.03027
12346.1,0.03044
12375.5,0.03073
12405.2,0.0312
12434.9,0.03166
12464.8,0.03208
12494.8,0.03244
12525.0,0.0328
12555.3,0.03302
12585.8,0.03301
12616.4,0.03293
12647.2,0.03277
12678.1,0.03239
12709.2,0.03194
12740.4,0.0315
12771.8,0.03106
12803.3,0.03081
12835.0,0.03068
12866.9,0.03038
12898.9,0.02996
12931.1,0.02951
12963.4,0.02903
12995.9,0.0286
13028.5,0.02824
13061.3,0.02791
13094.3,0.02775
13127.5,0.02751
13160.8,0.02723
13194.3,0.02693
13228.0,0.02643
13261.8,0.02582
13295.8,0.02523
13330.0,0.02471
13364.3,0.02429
13398.9,0.02389
13433.6,0.02356
13468.5,0.02334
13503.5,0.02313
13538.8,0.02276
13574.2,0.02246
13609.9,0.02229
13645.7,0.0223
13681.7,0.02264
13717.9,0.02333
13754.3,0.02459
13790.8,0.02673
13827.6,0.02985
13864.6,0.03423
13901.8,0.03975
13939.1,0.04576
13976.7,0.0517
14014.5,0.05721
14052.5,0.06201
14090.7,0.06601
14129.0,0.06933
14167.7,0.07187
14206.5,0.07391
14245.5,0.07548
14284.7,0.0768
14324.2,0.07769
14363.9,0.07805
14403.8,0.07792
14443.9,0.07736
14484.3,0.07622
14524.8,0.07467
14565.6,0.07266
14606.7,0.07031
14647.9,0.06747
14689.4,0.0644
14731.1,0.06041
14773.1,0.05497
14815.3,0.04927
14857.8,0.04495
14900.5,0.04234
14943.4,0.04078
14986.6,0.03972
15030.0,0.03883
15073.7,0.038
15117.7,0.03696
15161.9,0.03576
15206.3,0.03461
15251.1,0.03453
15296.0,0.03573
15341.3,0.0371
15386.8,0.03854
15432.6,0.04046
15478.7,0.04269
15525.0,0.0449
15571.7,0.04685
15618.6,0.0488
15665.8,0.05068
15713.2,0.05247
15761.0,0.05425
15809.0,0.0563
15857.4,0.05823
15906.0,0.06003
15955.0,0.06205
16004.2,0.06419
16053.8,0.06622
16103.6,0.06817
16153.8,0.07025
16204.3,0.0722
16255.1,0.07404
16306.2,0.07585
16357.6,0.07791
16409.4,0.0802
16461.5,0.08238
16513.9,0.08437
16566.7,0.08646
16619.8,0.08849
16673.2,0.09062
16727.0,0.0926
16781.1,0.09465
16835.6,0.09665
16890.5,0.09877
16945.7,0.10113
17001.2,0.10383
17057.2,0.1064
17113.4,0.10893
17170.1,0.1113
17227.2,0.1138
17284.6,0.11621
17342.4,0.11855
17400.6,0.12086
17459.2,0.12315
17518.2,0.12503
17577.5,0.12697
17637.3,0.12899
17697.5,0.13089
17758.1,0.13256
17819.2,0.13405
17880.6,0.13558
17942.5,0.13729
18004.8,0.13848
18067.5,0.13941
18130.7,0.14028
18194.3,0.14141
18258.4,0.14284
18322.9,0.14444
18387.9,0.14569
18453.3,0.14674
18519.2,0.14749
18585.6,0.14778
18652.4,0.14688
18719.8,0.14538
18787.6,0.14319
18855.9,0.14026
18924.7,0.13624
18994.1,0.1318
19063.9,0.12653
19134.2,0.12005
19205.1,0.11178
19276.5,0.10216
19348.4,0.09115
19420.9,0.07909
19493.9,0.0663
19567.5,0.05414
19641.6,0.04494
19716.3,0.0408
19791.5,0.04095
19867.4,0.04417
19943.8,0.04808
20020.8,0.05043
20098.4,0.0516
20176.6,0.05383
20255.4,0.05896
20334.8,0.0674
20414.9,0.07816
20495.6,0.09024
20576.9,0.10217
20658.9,0.11287
20741.5,0.12179
20824.8,0.12884
20908.8,0.13464
20993.4,0.13982
21078.8,0.14484
21164.8,0.15127
21251.6,0.15762
21339.0,0.16358
21427.2,0.16831
21516.1,0.17138
21605.7,0.17352
21696.2,0.17501
21787.3,0.17543
21879.3,0.17512
21972.0,0.17442
22065.5,0.17339
22159.8,0.17265
22254.9,0.17304
22350.8,0.17392
22447.5,0.17548
22545.1,0.17613
22643.6,0.17586
22742.9,0.17499
22843.1,0.17455
22944.2,0.17404
23046.2,0.1759
23149.0,0.17947
23252.8,0.18436
23357.6,0.18866
23463.3,0.19278
23569.9,0.19621
23677.6,0.19945
23786.2,0.20189
23895.8,0.20449
24006.4,0.20607
24118.1,0.20746
24230.8,0.20775
24344.5,0.2068
24459.4,0.2052
24575.3,0.2049
24692.3,0.20506
24810.4,0.20493
24929.7,0.20296
25050.2,0.20066
