Database of Origin,University of Winnipeg Spectrophotometer Facility
Sample Description,"RELAB plus Nicolet Melilite data. Merged @2500nm, different viewing geometries. See Master Melilites in PSF sample database for additional info."
Date Added,2016-11-08 17:15:35.706528

Data ID,RLA_MEL_01          
Sample ID,MEL101
Mineral Name,Melilite
Grain Size,<45
Viewing Geometry,"30/0,30"
Resolution,5 nm
Material Class,Sorosilicate

Wavelength
300.0,0.252508
305.0,0.27717
310.0,0.297429
315.0,0.316549
320.0,0.335491
325.0,0.347044
330.0,0.358473
335.0,0.368065
340.0,0.378017
345.0,0.384116
350.0,0.390209
355.0,0.399102
360.0,0.407436
365.0,0.413833
370.0,0.419145
375.0,0.423
380.0,0.425929
385.0,0.428389
390.0,0.432439
395.0,0.436826
400.0,0.441724
405.0,0.446395
410.0,0.450239
415.0,0.457071
420.0,0.46297
425.0,0.468409
430.0,0.473195
435.0,0.476108
440.0,0.478142
445.0,0.479693
450.0,0.479659
455.0,0.476503
460.0,0.475662
465.0,0.477232
470.0,0.479779
475.0,0.482645
480.0,0.486259
485.0,0.489778
490.0,0.492582
495.0,0.495524
500.0,0.497119
505.0,0.498547
510.0,0.498798
515.0,0.499934
520.0,0.500132
525.0,0.501121
530.0,0.499949
535.0,0.499572
540.0,0.499354
545.0,0.499771
550.0,0.499556
555.0,0.499154
560.0,0.499366
565.0,0.499088
570.0,0.498771
575.0,0.499107
580.0,0.498087
585.0,0.498687
590.0,0.497849
595.0,0.49718
600.0,0.496823
605.0,0.496645
610.0,0.495888
615.0,0.49545
620.0,0.494603
625.0,0.49454
630.0,0.493397
635.0,0.492757
640.0,0.493022
645.0,0.491755
650.0,0.491492
655.0,0.491874
660.0,0.491421
665.0,0.491153
670.0,0.491503
675.0,0.49151
680.0,0.49206
685.0,0.492269
690.0,0.492863
695.0,0.493303
700.0,0.493002
705.0,0.494212
710.0,0.493674
715.0,0.494455
720.0,0.494916
725.0,0.494694
730.0,0.495583
735.0,0.495592
740.0,0.496106
745.0,0.496387
750.0,0.495786
755.0,0.496206
760.0,0.49758
765.0,0.497686
770.0,0.498082
775.0,0.49895
780.0,0.498882
785.0,0.499461
790.0,0.499522
795.0,0.50024
800.0,0.500497
805.0,0.500816
810.0,0.500859
815.0,0.501064
820.0,0.500789
825.0,0.500563
830.0,0.500265
835.0,0.500901
840.0,0.500632
845.0,0.500767
850.0,0.501418
855.0,0.500136
860.0,0.500208
865.0,0.500762
870.0,0.50084
875.0,0.498888
880.0,0.499648
885.0,0.499135
890.0,0.499528
895.0,0.498444
900.0,0.499261
905.0,0.500916
910.0,0.501002
915.0,0.500082
920.0,0.50148
925.0,0.501162
930.0,0.500767
935.0,0.501137
940.0,0.501745
945.0,0.502543
950.0,0.502424
955.0,0.502587
960.0,0.503096
965.0,0.504213
970.0,0.505674
975.0,0.506224
980.0,0.506872
985.0,0.508957
990.0,0.50924
995.0,0.509808
1000.0,0.509612
1005.0,0.510649
1010.0,0.512156
1015.0,0.512369
1020.0,0.513686
1025.0,0.514436
1030.0,0.515824
1035.0,0.516206
1040.0,0.516807
1045.0,0.517651
1050.0,0.517969
1055.0,0.520044
1060.0,0.519846
1065.0,0.521162
1070.0,0.521198
1075.0,0.521894
1080.0,0.521981
1085.0,0.5226
1090.0,0.523193
1095.0,0.523662
1100.0,0.524389
1105.0,0.523852
1110.0,0.525398
1115.0,0.524967
1120.0,0.524774
1125.0,0.525171
1130.0,0.52551
1135.0,0.525789
1140.0,0.527173
1145.0,0.526815
1150.0,0.527246
1155.0,0.527553
1160.0,0.527415
1165.0,0.527761
1170.0,0.528935
1175.0,0.528681
1180.0,0.52855
1185.0,0.52904
1190.0,0.528967
1195.0,0.529697
1200.0,0.530261
1205.0,0.529745
1210.0,0.530099
1215.0,0.531353
1220.0,0.530329
1225.0,0.530561
1230.0,0.530926
1235.0,0.531482
1240.0,0.532204
1245.0,0.531995
1250.0,0.53193
1255.0,0.53119
1260.0,0.531932
1265.0,0.531793
1270.0,0.531896
1275.0,0.531228
1280.0,0.531523
1285.0,0.531595
1290.0,0.53171
1295.0,0.531658
1300.0,0.530528
1305.0,0.53191
1310.0,0.53156
1315.0,0.531755
1320.0,0.531883
1325.0,0.53175
1330.0,0.531598
1335.0,0.53197
1340.0,0.53161
1345.0,0.53113
1350.0,0.530158
1355.0,0.528855
1360.0,0.528314
1365.0,0.528012
1370.0,0.526817
1375.0,0.527088
1380.0,0.526308
1385.0,0.523442
1390.0,0.518396
1395.0,0.509982
1400.0,0.511109
1405.0,0.516162
1410.0,0.519841
1415.0,0.520409
1420.0,0.521022
1425.0,0.521882
1430.0,0.522611
1435.0,0.523089
1440.0,0.523909
1445.0,0.524299
1450.0,0.523896
1455.0,0.525575
1460.0,0.52518
1465.0,0.525105
1470.0,0.524878
1475.0,0.524035
1480.0,0.524218
1485.0,0.523797
1490.0,0.522872
1495.0,0.522431
1500.0,0.522254
1505.0,0.520806
1510.0,0.519759
1515.0,0.520346
1520.0,0.518677
1525.0,0.519136
1530.0,0.518374
1535.0,0.51735
1540.0,0.515239
1545.0,0.516044
1550.0,0.514039
1555.0,0.514252
1560.0,0.512526
1565.0,0.511683
1570.0,0.510944
1575.0,0.51013
1580.0,0.509028
1585.0,0.507388
1590.0,0.506099
1595.0,0.505212
1600.0,0.50419
1605.0,0.502859
1610.0,0.502103
1615.0,0.501155
1620.0,0.499744
1625.0,0.498095
1630.0,0.497222
1635.0,0.496203
1640.0,0.494878
1645.0,0.493704
1650.0,0.49277
1655.0,0.490951
1660.0,0.488501
1665.0,0.488788
1670.0,0.48764
1675.0,0.486785
1680.0,0.485234
1685.0,0.484171
1690.0,0.483143
1695.0,0.481352
1700.0,0.481812
1705.0,0.479495
1710.0,0.478608
1715.0,0.477183
1720.0,0.476424
1725.0,0.474762
1730.0,0.473206
1735.0,0.472363
1740.0,0.471127
1745.0,0.470035
1750.0,0.468434
1755.0,0.467269
1760.0,0.466803
1765.0,0.465463
1770.0,0.464714
1775.0,0.463712
1780.0,0.462539
1785.0,0.461411
1790.0,0.46051
1795.0,0.459621
1800.0,0.459133
1805.0,0.457953
1810.0,0.45745
1815.0,0.456791
1820.0,0.455496
1825.0,0.454998
1830.0,0.454578
1835.0,0.453917
1840.0,0.453154
1845.0,0.453271
1850.0,0.45243
1855.0,0.451351
1860.0,0.451559
1865.0,0.450778
1870.0,0.450466
1875.0,0.448972
1880.0,0.448898
1885.0,0.448521
1890.0,0.447786
1895.0,0.447788
1900.0,0.447199
1905.0,0.446417
1910.0,0.445725
1915.0,0.445325
1920.0,0.445075
1925.0,0.444257
1930.0,0.443564
1935.0,0.443004
1940.0,0.443179
1945.0,0.44251
1950.0,0.442781
1955.0,0.44312
1960.0,0.442923
1965.0,0.443128
1970.0,0.442496
1975.0,0.442583
1980.0,0.442645
1985.0,0.44263
1990.0,0.442806
1995.0,0.442497
2000.0,0.442951
2005.0,0.443128
2010.0,0.442579
2015.0,0.44328
2020.0,0.442996
2025.0,0.44285
2030.0,0.44324
2035.0,0.443183
2040.0,0.442791
2045.0,0.442914
2050.0,0.442667
2055.0,0.442688
2060.0,0.442863
2065.0,0.44247
2070.0,0.442698
2075.0,0.442875
2080.0,0.443064
2085.0,0.443496
2090.0,0.44328
2095.0,0.443396
2100.0,0.443026
2105.0,0.443283
2110.0,0.443166
2115.0,0.443121
2120.0,0.443207
2125.0,0.442862
2130.0,0.44265
2135.0,0.442155
2140.0,0.441689
2145.0,0.440614
2150.0,0.439272
2155.0,0.437982
2160.0,0.435594
2165.0,0.433608
2170.0,0.431504
2175.0,0.429173
2180.0,0.426998
2185.0,0.425019
2190.0,0.423244
2195.0,0.42182
2200.0,0.420374
2205.0,0.419787
2210.0,0.418906
2215.0,0.418393
2220.0,0.418222
2225.0,0.41855
2230.0,0.418224
2235.0,0.418709
2240.0,0.419058
2245.0,0.418844
2250.0,0.418332
2255.0,0.418616
2260.0,0.419669
2265.0,0.421305
2270.0,0.422362
2275.0,0.423712
2280.0,0.42488
2285.0,0.426265
2290.0,0.427377
2295.0,0.4271
2300.0,0.427604
2305.0,0.428254
2310.0,0.427777
2315.0,0.427456
2320.0,0.426748
2325.0,0.426384
2330.0,0.425159
2335.0,0.423395
2340.0,0.421003
2345.0,0.418697
2350.0,0.415879
2355.0,0.412688
2360.0,0.410163
2365.0,0.408411
2370.0,0.407515
2375.0,0.407651
2380.0,0.408423
2385.0,0.409014
2390.0,0.410361
2395.0,0.411849
2400.0,0.412769
2405.0,0.412946
2410.0,0.413352
2415.0,0.413879
2420.0,0.413075
2425.0,0.411206
2430.0,0.410969
2435.0,0.409718
2440.0,0.407318
2445.0,0.405179
2450.0,0.402381
2455.0,0.399416
2460.0,0.396174
2465.0,0.393456
2470.0,0.39206
2475.0,0.389174
2480.0,0.388356
2485.0,0.386034
2490.0,0.384614
2495.0,0.384171
2500.0,0.382912
2502.0,0.38287
2503.2,0.382886
2504.41,0.382716
2505.62,0.381773
2506.83,0.381196
2508.05,0.381488
2509.26,0.38152
2510.48,0.381665
2511.69,0.381923
2512.91,0.381863
2514.13,0.38169
2515.35,0.381888
2516.57,0.382107
2517.79,0.381918
2519.02,0.381769
2520.24,0.38184
2521.47,0.381817
2522.69,0.382065
2523.92,0.382472
2525.15,0.382337
2526.38,0.381681
2527.61,0.381635
2528.85,0.381996
2530.08,0.382185
2531.32,0.3819
2532.55,0.38195
2533.79,0.381907
2535.03,0.382079
2536.27,0.381957
2537.51,0.381976
2538.75,0.38204
2540.0,0.381969
2541.24,0.382366
2542.49,0.382711
2543.74,0.383015
2544.99,0.382376
2546.24,0.381633
2547.49,0.381959
2548.74,0.382337
2549.99,0.382472
2551.25,0.382314
2552.5,0.38238
2553.76,0.38253
2555.02,0.38253
2556.28,0.382587
2557.54,0.382725
2558.8,0.382868
2560.07,0.382838
2561.33,0.382603
2562.6,0.383401
2563.86,0.383153
2565.13,0.382948
2566.4,0.383316
2567.67,0.383378
2568.95,0.383282
2570.22,0.382813
2571.5,0.38264
2572.77,0.382847
2574.05,0.382822
2575.33,0.382838
2576.61,0.382091
2577.89,0.382576
2579.17,0.383162
2580.46,0.382962
2581.74,0.38212
2583.03,0.381812
2584.31,0.381532
2585.6,0.382222
2586.89,0.381936
2588.19,0.381138
2589.48,0.380816
2590.77,0.38078
2592.07,0.380513
2593.36,0.38023
2594.66,0.379929
2595.96,0.379924
2597.26,0.380299
2598.56,0.379729
2599.87,0.379011
2601.17,0.378261
2602.48,0.377923
2603.78,0.377599
2605.09,0.376928
2606.4,0.376564
2607.71,0.376783
2609.03,0.376465
2610.34,0.375828
2611.66,0.37506
2612.97,0.374782
2614.29,0.374547
2615.61,0.374113
2616.93,0.373473
2618.25,0.37357
2619.57,0.373087
2620.9,0.372252
2622.22,0.372165
2623.55,0.37141
2624.88,0.370313
2626.21,0.369713
2627.54,0.369755
2628.87,0.369548
2630.21,0.368559
2631.54,0.368044
2632.88,0.367814
2634.21,0.367489
2635.55,0.366728
2636.89,0.365551
2638.24,0.364833
2639.58,0.364718
2640.92,0.364267
2642.27,0.363702
2643.62,0.362952
2644.97,0.362184
2646.32,0.36154
2647.67,0.360914
2649.02,0.36068
2650.38,0.359965
2651.73,0.359436
2653.09,0.35881
2654.45,0.358523
2655.81,0.357752
2657.17,0.356816
2658.53,0.355703
2659.89,0.35447
2661.26,0.353346
2662.63,0.352727
2664.0,0.35123
2665.36,0.349673
2666.74,0.348956
2668.11,0.348429
2669.48,0.346755
2670.86,0.345437
2672.23,0.344347
2673.61,0.343137
2674.99,0.341311
2676.37,0.338926
2677.76,0.336604
2679.14,0.33444
2680.52,0.331908
2681.91,0.329106
2683.3,0.325671
2684.69,0.322778
2686.08,0.319675
2687.47,0.31684
2688.87,0.31328
2690.26,0.30954
2691.66,0.305384
2693.06,0.301135
2694.46,0.296701
2695.86,0.291699
2697.26,0.286375
2698.66,0.280724
2700.07,0.274554
2701.48,0.267639
2702.89,0.259642
2704.3,0.251207
2705.71,0.241456
2707.12,0.231153
2708.53,0.220533
2709.95,0.209243
2711.37,0.196905
2712.79,0.182978
2714.21,0.167914
2715.63,0.152764
2717.05,0.137967
2718.48,0.12378
2719.9,0.111168
2721.33,0.100329
2722.76,0.090838
2724.19,0.083861
2725.62,0.07939
2727.06,0.077474
2728.49,0.076934
2729.93,0.077012
2731.37,0.077679
2732.81,0.078898
2734.25,0.080512
2735.69,0.082016
2737.14,0.083366
2738.58,0.08461
2740.03,0.08571
2741.48,0.08768
2742.93,0.089976
2744.38,0.091928
2745.83,0.093991
2747.29,0.096695
2748.75,0.098747
2750.2,0.100366
2751.66,0.101773
2753.13,0.10325
2754.59,0.104607
2756.05,0.105483
2757.52,0.105651
2758.99,0.105568
2760.46,0.105271
2761.93,0.104381
2763.4,0.103597
2764.87,0.102652
2766.35,0.101293
2767.82,0.099708
2769.3,0.098078
2770.78,0.096695
2772.26,0.095074
2773.75,0.093669
2775.23,0.09254
2776.72,0.091388
2778.21,0.090578
2779.7,0.090006
2781.19,0.089375
2782.68,0.08918
2784.18,0.089309
2785.67,0.089368
2787.17,0.089723
2788.67,0.090086
2790.17,0.090916
2791.67,0.091634
2793.18,0.092646
2794.68,0.093708
2796.19,0.094428
2797.7,0.095686
2799.21,0.097436
2800.72,0.09917
2802.24,0.10086
2803.75,0.102659
2805.27,0.104144
2806.79,0.105678
2808.31,0.107428
2809.83,0.109261
2811.35,0.111269
2812.88,0.112932
2814.41,0.114643
2815.93,0.116535
2817.46,0.11864
2819.0,0.120889
2820.53,0.123212
2822.07,0.125447
2823.6,0.127521
2825.14,0.13001
2826.68,0.132314
2828.22,0.134598
2829.77,0.136877
2831.31,0.139133
2832.86,0.141391
2834.41,0.143519
2835.96,0.145915
2837.51,0.148001
2839.07,0.149926
2840.62,0.152021
2842.18,0.153757
2843.74,0.155535
2845.3,0.157784
2846.86,0.159766
2848.43,0.161326
2849.99,0.162496
2851.56,0.164336
2853.13,0.166236
2854.7,0.167843
2856.27,0.169186
2857.85,0.170564
2859.42,0.172054
2861.0,0.173367
2862.58,0.174482
2864.16,0.175616
2865.75,0.176899
2867.33,0.178049
2868.92,0.179089
2870.51,0.18043
2872.1,0.181711
2873.69,0.182373
2875.28,0.183205
2876.88,0.184171
2878.48,0.185181
2880.07,0.186204
2881.68,0.186924
2883.28,0.187465
2884.88,0.188136
2886.49,0.18886
2888.1,0.189544
2889.71,0.190376
2891.32,0.191284
2892.93,0.191951
2894.55,0.192441
2896.16,0.193085
2897.78,0.193708
2899.4,0.193987
2901.03,0.194571
2902.65,0.195291
2904.28,0.195649
2905.91,0.19619
2907.54,0.196535
2909.17,0.196933
2910.8,0.197186
2912.44,0.197473
2914.07,0.197961
2915.71,0.198554
2917.35,0.1988
2918.99,0.198915
2920.64,0.199377
2922.29,0.200341
2923.93,0.200704
2925.58,0.200939
2927.24,0.201585
2928.89,0.202378
2930.55,0.202905
2932.2,0.203018
2933.86,0.203627
2935.52,0.204451
2937.19,0.205269
2938.85,0.206265
2940.52,0.206946
2942.19,0.207771
2943.86,0.208813
2945.53,0.209968
2947.21,0.210963
2948.88,0.211623
2950.56,0.212677
2952.24,0.213765
2953.92,0.215011
2955.61,0.216418
2957.29,0.217591
2958.98,0.218555
2960.67,0.219762
2962.36,0.220737
2964.06,0.221892
2965.75,0.223272
2967.45,0.224403
2969.15,0.225601
2970.85,0.226843
2972.55,0.227685
2974.26,0.228879
2975.97,0.230228
2977.68,0.231415
2979.39,0.232708
2981.1,0.233726
2982.82,0.234504
2984.53,0.235493
2986.25,0.236801
2987.97,0.238197
2989.7,0.239317
2991.42,0.240184
2993.15,0.241058
2994.88,0.242475
2996.61,0.243597
2998.34,0.244784
3000.08,0.245869
3001.82,0.246998
3003.55,0.248178
3005.3,0.249496
3007.04,0.25043
3008.78,0.251506
3010.53,0.25289
3012.28,0.253953
3014.03,0.255061
3015.79,0.256218
3017.54,0.257269
3019.3,0.258382
3021.06,0.259412
3022.82,0.260417
3024.58,0.261498
3026.35,0.262361
3028.12,0.263559
3029.89,0.264716
3031.66,0.265847
3033.43,0.266859
3035.21,0.267744
3036.99,0.268312
3038.77,0.269035
3040.55,0.270247
3042.33,0.271247
3044.12,0.272086
3045.91,0.272919
3047.7,0.273632
3049.49,0.27431
3051.29,0.275409
3053.08,0.276343
3054.88,0.277005
3056.68,0.277792
3058.49,0.27865
3060.29,0.279475
3062.1,0.280494
3063.91,0.281495
3065.72,0.282557
3067.54,0.283502
3069.35,0.284422
3071.17,0.285457
3072.99,0.286232
3074.81,0.287101
3076.64,0.288081
3078.47,0.288847
3080.29,0.289739
3082.13,0.290717
3083.96,0.291512
3085.79,0.29249
3087.63,0.29323
3089.47,0.293973
3091.31,0.295226
3093.16,0.295935
3095.01,0.296914
3096.85,0.298106
3098.71,0.298982
3100.56,0.299538
3102.41,0.300346
3104.27,0.301282
3106.13,0.302252
3107.99,0.303322
3109.86,0.30429
3111.73,0.304948
3113.59,0.305874
3115.47,0.306801
3117.34,0.307769
3119.21,0.308508
3121.09,0.309232
3122.97,0.310196
3124.86,0.311297
3126.74,0.312249
3128.63,0.313084
3130.52,0.314107
3132.41,0.315009
3134.3,0.315894
3136.2,0.316906
3138.1,0.317851
3140.0,0.318654
3141.9,0.319539
3143.81,0.320264
3145.71,0.321262
3147.62,0.322249
3149.54,0.323171
3151.45,0.323923
3153.37,0.325059
3155.29,0.325967
3157.21,0.326742
3159.13,0.327775
3161.06,0.32858
3162.99,0.329394
3164.92,0.330486
3166.85,0.331436
3168.79,0.332349
3170.72,0.333402
3172.67,0.333876
3174.61,0.334695
3176.55,0.335587
3178.5,0.336728
3180.45,0.337926
3182.4,0.338786
3184.36,0.339573
3186.32,0.34043
3188.27,0.34133
3190.24,0.342307
3192.2,0.342928
3194.17,0.343636
3196.14,0.344662
3198.11,0.345679
3200.08,0.346706
3202.06,0.347661
3204.04,0.348507
3206.02,0.349379
3208.0,0.350278
3209.99,0.351021
3211.98,0.351805
3213.97,0.352695
3215.96,0.353528
3217.96,0.354613
3219.96,0.355498
3221.96,0.356239
3223.96,0.357014
3225.97,0.357764
3227.98,0.358748
3229.99,0.359608
3232.0,0.360349
3234.02,0.361294
3236.04,0.361912
3238.06,0.36249
3240.08,0.363299
3242.11,0.363996
3244.14,0.364645
3246.17,0.365254
3248.2,0.365951
3250.24,0.366767
3252.28,0.367595
3254.32,0.368432
3256.37,0.369118
3258.41,0.369819
3260.46,0.370231
3262.51,0.370826
3264.57,0.37185
3266.63,0.372742
3268.69,0.373282
3270.75,0.373772
3272.81,0.374701
3274.88,0.375361
3276.95,0.37584
3279.02,0.376523
3281.1,0.377332
3283.18,0.378082
3285.26,0.378666
3287.34,0.379082
3289.43,0.379667
3291.51,0.380451
3293.61,0.380899
3295.7,0.381233
3297.8,0.381831
3299.9,0.382652
3302.0,0.383243
3304.1,0.383799
3306.21,0.384324
3308.32,0.384935
3310.43,0.385584
3312.55,0.386044
3314.66,0.386435
3316.79,0.386757
3318.91,0.387148
3321.03,0.387743
3323.16,0.388298
3325.29,0.388994
3327.43,0.389321
3329.57,0.389832
3331.71,0.390041
3333.85,0.390379
3335.99,0.390744
3338.14,0.391076
3340.29,0.391349
3342.45,0.391423
3344.6,0.391726
3346.76,0.391993
3348.92,0.392269
3351.09,0.39257
3353.26,0.392828
3355.43,0.392971
3357.6,0.393111
3359.78,0.393037
3361.96,0.393201
3364.14,0.393277
3366.32,0.39349
3368.51,0.393555
3370.7,0.39344
3372.89,0.39367
3375.09,0.393681
3377.29,0.393718
3379.49,0.394224
3381.69,0.394932
3383.9,0.395677
3386.11,0.396112
3388.32,0.396377
3390.54,0.396855
3392.76,0.397347
3394.98,0.397345
3397.21,0.397306
3399.43,0.397301
3401.66,0.397133
3403.9,0.397048
3406.13,0.397122
3408.37,0.396655
3410.61,0.396296
3412.86,0.396206
3415.11,0.396305
3417.36,0.3968
3419.61,0.397338
3421.87,0.398364
3424.13,0.399435
3426.39,0.400578
3428.66,0.401963
3430.93,0.402926
3433.2,0.403934
3435.48,0.404975
3437.76,0.405953
3440.04,0.40693
3442.32,0.407708
3444.61,0.408627
3446.9,0.409354
3449.19,0.410005
3451.49,0.410644
3453.79,0.411327
3456.09,0.411831
3458.4,0.412358
3460.7,0.413061
3463.02,0.413662
3465.33,0.413984
3467.65,0.414179
3469.97,0.414455
3472.29,0.41465
3474.62,0.414703
3476.95,0.414922
3479.29,0.415166
3481.62,0.415306
3483.96,0.415865
3486.3,0.416251
3488.65,0.41658
3491.0,0.416934
3493.35,0.417079
3495.71,0.417104
3498.07,0.417261
3500.43,0.417688
3502.79,0.418215
3505.16,0.418951
3507.53,0.419841
3509.91,0.420795
3512.29,0.421874
3514.67,0.422849
3517.05,0.424038
3519.44,0.42516
3521.83,0.4258
3524.23,0.42649
3526.62,0.427203
3529.02,0.42789
3531.43,0.428509
3533.83,0.429212
3536.24,0.429928
3538.66,0.430346
3541.08,0.430746
3543.5,0.43134
3545.92,0.431848
3548.35,0.432338
3550.78,0.432807
3553.21,0.433253
3555.65,0.433863
3558.09,0.434318
3560.53,0.434585
3562.98,0.434858
3565.43,0.435247
3567.88,0.435748
3570.34,0.43625
3572.8,0.43653
3575.27,0.436749
3577.73,0.436983
3580.2,0.437255
3582.68,0.437618
3585.16,0.438117
3587.64,0.438552
3590.12,0.438837
3592.61,0.439164
3595.1,0.439702
3597.6,0.44007
3600.09,0.440192
3602.6,0.440447
3605.1,0.440799
3607.61,0.441061
3610.12,0.441291
3612.64,0.441735
3615.16,0.442248
3617.68,0.442514
3620.21,0.442751
3622.74,0.443059
3625.27,0.443319
3627.81,0.443673
3630.35,0.444115
3632.89,0.444333
3635.44,0.444593
3637.99,0.44495
3640.54,0.445228
3643.1,0.445433
3645.66,0.445752
3648.23,0.446139
3650.8,0.446378
3653.37,0.446707
3655.95,0.446948
3658.53,0.447229
3661.11,0.447677
3663.7,0.44796
3666.29,0.44808
3668.89,0.448305
3671.48,0.448505
3674.09,0.448671
3676.69,0.448997
3679.3,0.44928
3681.91,0.449441
3684.53,0.449781
3687.15,0.449906
3689.78,0.450202
3692.4,0.450281
3695.04,0.450232
3697.67,0.450294
3700.31,0.450529
3702.95,0.450706
3705.6,0.450796
3708.25,0.450904
3710.91,0.450998
3713.56,0.451088
3716.23,0.45143
3718.89,0.451598
3721.56,0.451856
3724.23,0.451985
3726.91,0.452189
3729.59,0.452445
3732.28,0.4525
3734.97,0.452665
3737.66,0.45284
3740.36,0.45319
3743.06,0.453378
3745.76,0.45347
3748.47,0.453709
3751.18,0.453785
3753.9,0.453979
3756.62,0.454296
3759.34,0.454399
3762.07,0.454413
3764.8,0.454429
3767.54,0.454606
3770.28,0.454894
3773.02,0.455076
3775.77,0.455128
3778.52,0.455046
3781.28,0.455177
3784.04,0.455283
3786.8,0.455444
3789.57,0.45563
3792.34,0.455639
3795.12,0.455726
3797.9,0.45594
3800.69,0.456085
3803.47,0.456099
3806.27,0.4562
3809.06,0.456407
3811.86,0.456584
3814.67,0.456524
3817.48,0.456467
3820.29,0.456524
3823.11,0.456704
3825.93,0.456823
3828.76,0.457044
3831.59,0.457083
3834.42,0.456915
3837.26,0.45701
3840.1,0.457065
3842.95,0.457168
3845.8,0.457155
3848.65,0.457111
3851.51,0.457058
3854.38,0.457138
3857.24,0.457182
3860.12,0.457329
3862.99,0.457311
3865.87,0.45732
3868.76,0.457518
3871.65,0.457628
3874.54,0.457493
3877.44,0.457375
3880.34,0.457357
3883.25,0.457476
3886.16,0.457504
3889.07,0.457575
3891.99,0.457548
3894.92,0.457504
3897.85,0.457327
3900.78,0.457276
3903.72,0.457286
3906.66,0.457304
3909.6,0.457097
3912.55,0.456931
3915.51,0.457014
3918.47,0.456966
3921.43,0.456651
3924.4,0.456534
3927.38,0.456442
3930.35,0.456225
3933.33,0.456106
3936.32,0.456
3939.31,0.455703
3942.31,0.455513
3945.31,0.455211
3948.31,0.454788
3951.32,0.454432
3954.34,0.453997
3957.35,0.453558
3960.38,0.453146
3963.41,0.452748
3966.44,0.452311
3969.48,0.451863
3972.52,0.451536
3975.56,0.451256
3978.61,0.45121
3981.67,0.451196
3984.73,0.451118
3987.8,0.451092
3990.87,0.451253
3993.94,0.451352
3997.02,0.45158
4000.1,0.451812
4003.19,0.451969
4006.29,0.452123
4009.39,0.452514
4012.49,0.452872
4015.6,0.453266
4018.71,0.453371
4021.83,0.453592
4024.95,0.453905
4028.08,0.454119
4031.21,0.454236
4034.35,0.454367
4037.49,0.454475
4040.64,0.45457
4043.79,0.454606
4046.94,0.454459
4050.11,0.454358
4053.27,0.454526
4056.44,0.454609
4059.62,0.454514
4062.8,0.454349
4065.99,0.454328
4069.18,0.45425
4072.38,0.454103
4075.58,0.453928
4078.78,0.453827
4082.0,0.453728
4085.21,0.453555
4088.43,0.453535
4091.66,0.453528
4094.89,0.453454
4098.13,0.453335
4101.37,0.453213
4104.62,0.453017
4107.87,0.452898
4111.13,0.452803
4114.39,0.452573
4117.66,0.452481
4120.93,0.452472
4124.21,0.452263
4127.5,0.451964
4130.79,0.451911
4134.08,0.451858
4137.38,0.451748
4140.68,0.451736
4143.99,0.451725
4147.31,0.45158
4150.63,0.451424
4153.95,0.451279
4157.29,0.451042
4160.62,0.450844
4163.96,0.450695
4167.31,0.450536
4170.66,0.450584
4174.02,0.450534
4177.39,0.450356
4180.75,0.450244
4184.13,0.450262
4187.51,0.450161
4190.89,0.449972
4194.28,0.449798
4197.68,0.449673
4201.08,0.44954
4204.49,0.449354
4207.9,0.449062
4211.32,0.448829
4214.74,0.448342
4218.17,0.447921
4221.61,0.447576
4225.05,0.447121
4228.5,0.446723
4231.95,0.446583
4235.4,0.446587
4238.87,0.446435
4242.34,0.44621
4245.81,0.446157
4249.29,0.446182
4252.78,0.446371
4256.27,0.446606
4259.77,0.446753
4263.27,0.44641
4266.78,0.445939
4270.29,0.44569
4273.81,0.445377
4277.34,0.445039
4280.87,0.444924
4284.41,0.444724
4287.95,0.444497
4291.5,0.444315
4295.06,0.444283
4298.62,0.444184
4302.19,0.443945
4305.76,0.443885
4309.34,0.44388
4312.92,0.443724
4316.52,0.443586
4320.11,0.44345
4323.72,0.443446
4327.32,0.44337
4330.94,0.443246
4334.56,0.443006
4338.19,0.442947
4341.82,0.442942
4345.46,0.442882
4349.11,0.442689
4352.76,0.44259
4356.42,0.442397
4360.08,0.442188
4363.75,0.4419
4367.43,0.441702
4371.11,0.441728
4374.8,0.441578
4378.49,0.44133
4382.19,0.441107
4385.9,0.440812
4389.61,0.440576
4393.33,0.440555
4397.06,0.440456
4400.79,0.440221
4404.53,0.440095
4408.28,0.439941
4412.03,0.439644
4415.79,0.43943
4419.55,0.439327
4423.32,0.43912
4427.1,0.438839
4430.88,0.438487
4434.68,0.438356
4438.47,0.43823
4442.28,0.438021
4446.08,0.437841
4449.9,0.437653
4453.72,0.437361
4457.55,0.437057
4461.39,0.436857
4465.23,0.436655
4469.08,0.436473
4472.94,0.436333
4476.8,0.436043
4480.67,0.435712
4484.55,0.435521
4488.43,0.435438
4492.32,0.435157
4496.21,0.434932
4500.12,0.434649
4504.03,0.434555
4507.94,0.434228
4511.87,0.434005
4515.8,0.43389
4519.73,0.433741
4523.68,0.433467
4527.63,0.433051
4531.59,0.432729
4535.55,0.43246
4539.52,0.43231
4543.5,0.432131
4547.49,0.43188
4551.48,0.431475
4555.48,0.431011
4559.49,0.430797
4563.5,0.430579
4567.52,0.430204
4571.55,0.429896
4575.58,0.429746
4579.63,0.429541
4583.67,0.429162
4587.73,0.428815
4591.79,0.428642
4595.86,0.42832
4599.94,0.427996
4604.03,0.427819
4608.12,0.427605
4612.22,0.427205
4616.33,0.426837
4620.44,0.426467
4624.56,0.426227
4628.69,0.425995
4632.83,0.42579
4636.97,0.425528
4641.12,0.425202
4645.28,0.424836
4649.45,0.424703
4653.62,0.424523
4657.8,0.424231
4661.99,0.42387
4666.19,0.423539
4670.39,0.423206
4674.6,0.422918
4678.82,0.422716
4683.05,0.422437
4687.28,0.422187
4691.52,0.421915
4695.77,0.421591
4700.03,0.42135
4704.3,0.421127
4708.57,0.420922
4712.85,0.420621
4717.14,0.420375
4721.43,0.420131
4725.74,0.420043
4730.05,0.419862
4734.37,0.41954
4738.7,0.419255
4743.03,0.419089
4747.38,0.418845
4751.73,0.418677
4756.09,0.41842
4760.45,0.418098
4764.83,0.417806
4769.21,0.417606
4773.6,0.417309
4778.0,0.416978
4782.41,0.416688
4786.83,0.416525
4791.25,0.416131
4795.68,0.415722
4800.13,0.415292
4804.57,0.414961
4809.03,0.414584
4813.5,0.414259
4817.97,0.414085
4822.45,0.413793
4826.94,0.413363
4831.44,0.412951
4835.95,0.412532
4840.46,0.412107
4844.99,0.411608
4849.52,0.411086
4854.06,0.410607
4858.61,0.410189
4863.17,0.40958
4867.73,0.409099
4872.31,0.408473
4876.89,0.407756
4881.48,0.407149
4886.08,0.406624
4890.69,0.406203
4895.31,0.405654
4899.94,0.404948
4904.57,0.404327
4909.22,0.403789
4913.87,0.403317
4918.53,0.402857
4923.21,0.402296
4927.88,0.401765
4932.57,0.401229
4937.27,0.400705
4941.98,0.400132
4946.69,0.3995
4951.42,0.398734
4956.15,0.397982
4960.9,0.397267
4965.65,0.396487
4970.41,0.395627
4975.18,0.394585
4979.96,0.393477
4984.75,0.392329
4989.54,0.391191
4994.35,0.389981
4999.17,0.38873
5003.99,0.387463
5008.83,0.38623
5013.67,0.38502
5018.52,0.383988
5023.39,0.383075
5028.26,0.382284
5033.14,0.381552
5038.03,0.381044
5042.93,0.380658
5047.84,0.3804
5052.76,0.380168
5057.69,0.379998
5062.63,0.37988
5067.58,0.379853
5072.54,0.379848
5077.51,0.379742
5082.49,0.379586
5087.47,0.379402
5092.47,0.379055
5097.48,0.378869
5102.5,0.378604
5107.52,0.378324
5112.56,0.378094
5117.61,0.377677
5122.66,0.377121
5127.73,0.376698
5132.81,0.376256
5137.89,0.375746
5142.99,0.375219
5148.1,0.374708
5153.22,0.374103
5158.34,0.37354
5163.48,0.373066
5168.63,0.372632
5173.79,0.372144
5178.96,0.371544
5184.13,0.370964
5189.32,0.370454
5194.52,0.369943
5199.73,0.369463
5204.96,0.368936
5210.19,0.368299
5215.43,0.367699
5220.68,0.367057
5225.94,0.366356
5231.22,0.365811
5236.5,0.365261
5241.79,0.364753
5247.1,0.364106
5252.42,0.363699
5257.74,0.363322
5263.08,0.362858
5268.43,0.362306
5273.79,0.361659
5279.16,0.360974
5284.54,0.360201
5289.93,0.359445
5295.34,0.358794
5300.75,0.358099
5306.18,0.357545
5311.61,0.357007
5317.06,0.35657
5322.52,0.356172
5327.99,0.35574
5333.47,0.355199
5338.96,0.354783
5344.47,0.354289
5349.98,0.353732
5355.51,0.353072
5361.05,0.35227
5366.6,0.351639
5372.16,0.350936
5377.73,0.350078
5383.32,0.349174
5388.91,0.348312
5394.52,0.347585
5400.14,0.346663
5405.77,0.345798
5411.41,0.344998
5417.07,0.34423
5422.74,0.343434
5428.41,0.342461
5434.1,0.34135
5439.81,0.340677
5445.52,0.339996
5451.25,0.339246
5456.98,0.338508
5462.73,0.337935
5468.5,0.337075
5474.27,0.336151
5480.06,0.335539
5485.86,0.334962
5491.67,0.334182
5497.49,0.333497
5503.33,0.332627
5509.18,0.331747
5515.04,0.330923
5520.91,0.330233
5526.8,0.329486
5532.69,0.328729
5538.61,0.327922
5544.53,0.326984
5550.47,0.326034
5556.41,0.325029
5562.38,0.323842
5568.35,0.322966
5574.34,0.322444
5580.34,0.322083
5586.35,0.321747
5592.38,0.321476
5598.42,0.321432
5604.47,0.321428
5610.54,0.321205
5616.61,0.320979
5622.71,0.320786
5628.81,0.320595
5634.93,0.320282
5641.06,0.319921
5647.21,0.319266
5653.36,0.318063
5659.54,0.316987
5665.72,0.31572
5671.92,0.314489
5678.13,0.313581
5684.36,0.312564
5690.6,0.311946
5696.85,0.311621
5703.12,0.311122
5709.4,0.310881
5715.69,0.310685
5722.0,0.310324
5728.33,0.310329
5734.66,0.310522
5741.01,0.310913
5747.38,0.311219
5753.76,0.311435
5760.15,0.311426
5766.56,0.311704
5772.98,0.311598
5779.41,0.311166
5785.86,0.311017
5792.33,0.310805
5798.81,0.310545
5805.3,0.310324
5811.81,0.310028
5818.33,0.310044
5824.87,0.310131
5831.42,0.309729
5837.99,0.309375
5844.57,0.309193
5851.17,0.308643
5857.78,0.308183
5864.41,0.307424
5871.05,0.306615
5877.7,0.305895
5884.38,0.305539
5891.06,0.304278
5897.76,0.30365
5904.48,0.303016
5911.21,0.302073
5917.96,0.301588
5924.73,0.300865
5931.5,0.300226
5938.3,0.299847
5945.11,0.298991
5951.93,0.298177
5958.78,0.298092
5965.63,0.297963
5972.51,0.297818
5979.39,0.297358
5986.3,0.296967
5993.22,0.296464
6000.16,0.295404
6007.11,0.294424
6014.08,0.293527
6021.06,0.292253
6028.06,0.290843
6035.08,0.289633
6042.12,0.288405
6049.17,0.287686
6056.23,0.28654
6063.32,0.28493
6070.42,0.284742
6077.53,0.284815
6084.67,0.284753
6091.82,0.285137
6098.98,0.285724
6106.17,0.286232
6113.37,0.286612
6120.58,0.286577
6127.82,0.286251
6135.07,0.28623
6142.34,0.286037
6149.63,0.285671
6156.93,0.285179
6164.25,0.284636
6171.59,0.283702
6178.95,0.282916
6186.32,0.282325
6193.71,0.281223
6201.12,0.279889
6208.54,0.279036
6215.99,0.278047
6223.45,0.277171
6230.93,0.276442
6238.43,0.275943
6245.95,0.275501
6253.48,0.275152
6261.03,0.274968
6268.6,0.274966
6276.19,0.274989
6283.8,0.275196
6291.43,0.2756
6299.07,0.27621
6306.73,0.276833
6314.42,0.277622
6322.12,0.278408
6329.84,0.279195
6337.57,0.279823
6345.33,0.280483
6353.11,0.280749
6360.9,0.280729
6368.72,0.280991
6376.55,0.28109
6384.4,0.280899
6392.27,0.280786
6400.17,0.280494
6408.08,0.280202
6416.01,0.279926
6423.96,0.278443
6431.93,0.276973
6439.92,0.276097
6447.93,0.27443
6455.96,0.272682
6464.01,0.270488
6472.08,0.268246
6480.17,0.265603
6488.28,0.26271
6496.41,0.259796
6504.56,0.256282
6512.73,0.252824
6520.92,0.250177
6529.14,0.246973
6537.37,0.243751
6545.63,0.240886
6553.9,0.237933
6562.2,0.235019
6570.51,0.232399
6578.85,0.229789
6587.21,0.226887
6595.59,0.224422
6603.99,0.22186
6612.42,0.219385
6620.86,0.217228
6629.33,0.215027
6637.82,0.213233
6646.33,0.210761
6654.86,0.208259
6663.41,0.206428
6671.99,0.204671
6680.59,0.202767
6689.21,0.2009
6697.85,0.198963
6706.51,0.197526
6715.2,0.196063
6723.91,0.194366
6732.64,0.192793
6741.4,0.191482
6750.18,0.190199
6758.98,0.188959
6767.8,0.187653
6776.65,0.186581
6785.52,0.185337
6794.41,0.184095
6803.33,0.182626
6812.27,0.181416
6821.23,0.180505
6830.22,0.179793
6839.23,0.178928
6848.26,0.178194
6857.32,0.177497
6866.4,0.176752
6875.51,0.175478
6884.64,0.174388
6893.8,0.17371
6902.98,0.172983
6912.18,0.172215
6921.41,0.171458
6930.66,0.170791
6939.94,0.170037
6949.24,0.169152
6958.57,0.168365
6967.92,0.167321
6977.3,0.165994
6986.7,0.165007
6996.13,0.163933
7005.59,0.162857
7015.07,0.162082
7024.57,0.161231
7034.1,0.160564
7043.66,0.160373
7053.25,0.160461
7062.85,0.160684
7072.49,0.161509
7082.15,0.163119
7091.84,0.165764
7101.55,0.169526
7111.3,0.17442
7121.06,0.180151
7130.86,0.18608
7140.68,0.191418
7150.53,0.196215
7160.41,0.20052
7170.31,0.204607
7180.24,0.208392
7190.2,0.211681
7200.19,0.214597
7210.2,0.216963
7220.24,0.218771
7230.31,0.220204
7240.41,0.221317
7250.54,0.222149
7260.69,0.222793
7270.88,0.223157
7281.09,0.223447
7291.33,0.223699
7301.6,0.223962
7311.9,0.224304
7322.22,0.224702
7332.58,0.22519
7342.97,0.225719
7353.38,0.226229
7363.83,0.226813
7374.3,0.227478
7384.81,0.228267
7395.34,0.228975
7405.91,0.229619
7416.5,0.230219
7427.13,0.23093
7437.78,0.231668
7448.47,0.232473
7459.19,0.233322
7469.94,0.234242
7480.71,0.235065
7491.52,0.235911
7502.37,0.23673
7513.24,0.237406
7524.14,0.237986
7535.08,0.238464
7546.05,0.238754
7557.05,0.238889
7568.08,0.238857
7579.15,0.238855
7590.24,0.238678
7601.37,0.238312
7612.53,0.237873
7623.73,0.237374
7634.96,0.236803
7646.22,0.236178
7657.51,0.235408
7668.84,0.234605
7680.2,0.233832
7691.59,0.233078
7703.02,0.232227
7714.49,0.231424
7725.98,0.230541
7737.52,0.229476
7749.08,0.228356
7760.68,0.227214
7772.32,0.226234
7783.99,0.225222
7795.69,0.22418
7807.43,0.223394
7819.21,0.222448
7831.02,0.221441
7842.87,0.220517
7854.75,0.21967
7866.67,0.21887
7878.62,0.21795
7890.62,0.216883
7902.64,0.215802
7914.71,0.214648
7926.81,0.213334
7938.95,0.212058
7951.13,0.210671
7963.34,0.208979
7975.59,0.207502
7987.88,0.206157
8000.21,0.204745
8012.57,0.203294
8024.98,0.201666
8037.42,0.199961
8049.9,0.198568
8062.42,0.197317
8074.98,0.195994
8087.57,0.194532
8100.21,0.193002
8112.89,0.191432
8125.6,0.18981
8138.36,0.188168
8151.16,0.186386
8163.99,0.184431
8176.87,0.182492
8189.79,0.180526
8202.75,0.178498
8215.75,0.176511
8228.79,0.17437
8241.87,0.172127
8254.99,0.16977
8268.16,0.167319
8281.37,0.16492
8294.62,0.16239
8307.91,0.159713
8321.24,0.157149
8334.62,0.154594
8348.04,0.151903
8361.51,0.149144
8375.02,0.146375
8388.57,0.143686
8402.16,0.141044
8415.8,0.138206
8429.49,0.135352
8443.22,0.132413
8456.99,0.129536
8470.81,0.12671
8484.67,0.123952
8498.58,0.121142
8512.54,0.118355
8526.54,0.115533
8540.58,0.112741
8554.68,0.109914
8568.82,0.107231
8583.0,0.104528
8597.24,0.101847
8611.52,0.099124
8625.85,0.096406
8640.23,0.093727
8654.65,0.091174
8669.12,0.088773
8683.64,0.086531
8698.21,0.084222
8712.83,0.081862
8727.5,0.079516
8742.22,0.077214
8756.99,0.07488
8771.8,0.072744
8786.67,0.070697
8801.59,0.068684
8816.56,0.066564
8831.58,0.064377
8846.65,0.062333
8861.77,0.06041
8876.94,0.058497
8892.17,0.056735
8907.45,0.054874
8922.78,0.052998
8938.16,0.051202
8953.6,0.049601
8969.09,0.047973
8984.64,0.046333
9000.23,0.044756
9015.89,0.043323
9031.59,0.041743
9047.36,0.040349
9063.17,0.038988
9079.05,0.037629
9094.97,0.036311
9110.96,0.035193
9127.0,0.03411
9143.1,0.033319
9159.25,0.032588
9175.46,0.031934
9191.73,0.031272
9208.06,0.030826
9224.44,0.030357
9240.88,0.03026
9257.38,0.030101
9273.94,0.030012
9290.56,0.029908
9307.24,0.029759
9323.98,0.02954
9340.78,0.029338
9357.64,0.029011
9374.57,0.028832
9391.55,0.02865
9408.59,0.028522
9425.7,0.028361
9442.87,0.028294
9460.1,0.028282
9477.4,0.028453
9494.75,0.028745
9512.17,0.0294
9529.66,0.03035
9547.21,0.03144
9564.83,0.032516
9582.5,0.033666
9600.25,0.034609
9618.06,0.035405
9635.94,0.036279
9653.88,0.03709
9671.89,0.037688
9689.97,0.038351
9708.12,0.03891
9726.33,0.039471
9744.62,0.039947
9762.97,0.040234
9781.39,0.040448
9799.88,0.040747
9818.44,0.04083
9837.07,0.040867
9855.77,0.040782
9874.54,0.040699
9893.39,0.040563
9912.3,0.040448
9931.29,0.040112
9950.36,0.039811
9969.49,0.039682
9988.7,0.039694
10007.98,0.039735
10027.34,0.03991
10046.77,0.040273
10066.28,0.040871
10085.87,0.041324
10105.53,0.04181
10125.26,0.042109
10145.08,0.042272
10164.97,0.042304
10184.94,0.042304
10204.99,0.042014
10225.12,0.041759
10245.33,0.041485
10265.61,0.04123
10285.98,0.040899
10306.43,0.040512
10326.96,0.039972
10347.57,0.039351
10368.27,0.038482
10389.05,0.037484
10409.91,0.036336
10430.86,0.035299
10451.88,0.03443
10473.0,0.0338
10494.2,0.033459
10515.49,0.033213
10536.86,0.032836
10558.32,0.033022
10579.87,0.033694
10601.5,0.034549
10623.23,0.035175
10645.04,0.0356
10666.94,0.035791
10688.94,0.035897
10711.02,0.03618
10733.2,0.036571
10755.47,0.03678
10777.83,0.03695
10800.28,0.037079
10822.83,0.03724
10845.47,0.037399
10868.21,0.03753
10891.04,0.037486
10913.97,0.037426
10936.99,0.037424
10960.12,0.037541
10983.34,0.037498
11006.66,0.03744
11030.07,0.037369
11053.59,0.037288
11077.21,0.037251
11100.93,0.037362
11124.75,0.037392
11148.68,0.03753
11172.71,0.037645
11196.84,0.037868
11221.07,0.038121
11245.41,0.038325
11269.86,0.038468
11294.41,0.038781
11319.07,0.038958
11343.84,0.039008
11368.72,0.038926
11393.7,0.038737
11418.8,0.038597
11444.01,0.038512
11469.33,0.038086
11494.76,0.037737
11520.3,0.037431
11545.96,0.037042
11571.73,0.036888
11597.62,0.037111
11623.62,0.037406
11649.74,0.037739
11675.98,0.038116
11702.34,0.038438
11728.81,0.038712
11755.41,0.039013
11782.13,0.039245
11808.96,0.03945
11835.92,0.039445
11863.01,0.039507
11890.22,0.03962
11917.55,0.039574
11945.01,0.039298
11972.6,0.039094
12000.31,0.038905
12028.16,0.038808
12056.13,0.038974
12084.23,0.039445
12112.46,0.040096
12140.83,0.040871
12169.33,0.041734
12197.96,0.042407
12226.73,0.043022
12255.64,0.043879
12284.68,0.044606
12313.86,0.045197
12343.18,0.045816
12372.64,0.046471
12402.24,0.047044
12431.98,0.047568
12461.86,0.047867
12491.89,0.048265
12522.07,0.048992
12552.38,0.049615
12582.85,0.049962
12613.47,0.050404
12644.23,0.050891
12675.15,0.051388
12706.21,0.051731
12737.43,0.052188
12768.81,0.052793
12800.33,0.053435
12832.02,0.054007
12863.86,0.054592
12895.86,0.055392
12928.02,0.056112
12960.34,0.056852
12992.82,0.057498
13025.46,0.057984
13058.27,0.058616
13091.25,0.058906
13124.39,0.058961
13157.7,0.059193
13191.18,0.059568
13224.83,0.059798
13258.66,0.060086
13292.65,0.060272
13326.83,0.060194
13361.17,0.060237
13395.7,0.060254
13430.4,0.060219
13465.29,0.060214
13500.35,0.059913
13535.6,0.059681
13571.03,0.059545
13606.65,0.059281
13642.46,0.058708
13678.46,0.057993
13714.64,0.057429
13751.02,0.056905
13787.59,0.056116
13824.36,0.055265
13861.32,0.054557
13898.49,0.053925
13935.85,0.053136
13973.41,0.05268
14011.17,0.052191
14049.15,0.051551
14087.32,0.051084
14125.71,0.050905
14164.3,0.050397
14203.11,0.049785
14242.13,0.049406
14281.36,0.049155
14320.81,0.048709
14360.49,0.048058
14400.38,0.04755
14440.49,0.04709
14480.82,0.046365
14521.39,0.045687
14562.18,0.045149
14603.2,0.044493
14644.45,0.043629
14685.93,0.043139
14727.66,0.042801
14769.62,0.042129
14811.81,0.041605
14854.25,0.041009
14896.94,0.040197
14939.87,0.039627
14983.05,0.03899
15026.48,0.03825
15070.16,0.037537
15114.1,0.03707
15158.29,0.036654
15202.74,0.036412
15247.46,0.035945
15292.43,0.035425
15337.68,0.034901
15383.19,0.034616
15428.97,0.034354
15475.03,0.033912
15521.36,0.033595
15567.97,0.033268
15614.87,0.032978
15662.04,0.032663
15709.5,0.03244
15757.25,0.032286
15805.29,0.031964
15853.62,0.031442
15902.26,0.031219
15951.19,0.031037
16000.42,0.03089
16049.95,0.030904
16099.8,0.030959
16149.95,0.031058
16200.42,0.031129
16251.21,0.031348
16302.31,0.0315
16353.74,0.031757
16405.49,0.032307
16457.57,0.033029
16509.98,0.033576
16562.73,0.034324
16615.82,0.035099
16669.24,0.035607
16723.02,0.035888
16777.14,0.036709
16831.61,0.037295
16886.43,0.0375
16941.62,0.03793
16997.16,0.038604
17053.08,0.039215
17109.36,0.040101
17166.01,0.040756
17223.04,0.041196
17280.45,0.041131
17338.24,0.04155
17396.43,0.042023
17455.0,0.041925
17513.97,0.041876
17573.34,0.042033
17633.11,0.041708
17693.29,0.04172
17753.89,0.042212
17814.9,0.042743
17876.33,0.043272
17938.18,0.043923
18000.47,0.044291
18063.19,0.044417
18126.35,0.044742
18189.95,0.044986
18254.0,0.045291
18318.5,0.045933
18383.46,0.046552
18448.88,0.046733
18514.77,0.047327
18581.13,0.048226
18647.97,0.048617
18715.29,0.048881
18783.1,0.049226
18851.4,0.049348
18920.2,0.049256
18989.51,0.049238
19059.32,0.049461
19129.65,0.049955
19200.5,0.050307
19271.88,0.050565
19343.79,0.050675
19416.24,0.050346
19489.23,0.050142
19562.77,0.050132
19636.88,0.050397
19711.54,0.050783
19786.78,0.051137
19862.59,0.051912
19938.98,0.05249
20015.96,0.053046
20093.55,0.053446
20171.73,0.05384
20250.53,0.054603
20329.94,0.05558
20409.98,0.055728
20490.65,0.056119
20571.96,0.056719
20653.92,0.056659
20736.54,0.056073
20819.82,0.056231
20903.77,0.056176
20988.4,0.055716
21073.72,0.055585
21159.73,0.055562
21246.46,0.054785
21333.89,0.053557
21422.04,0.052736
21510.93,0.053053
21600.56,0.053393
21690.94,0.052802
21782.08,0.051425
21873.99,0.051252
21966.67,0.050946
22060.15,0.050884
22154.42,0.052122
22249.51,0.052547
22345.41,0.053039
22442.14,0.053945
22539.72,0.054329
22638.14,0.055293
22737.43,0.056165
22837.6,0.056611
22938.65,0.057154
23040.6,0.057664
23143.46,0.057043
23247.24,0.057436
23351.96,0.058106
23457.63,0.058566
23564.25,0.056728
23671.85,0.056569
23780.44,0.058046
23890.02,0.058457
24000.63,0.058011
24112.26,0.056629
24224.93,0.055799
24338.66,0.055718
24453.47,0.054587
24569.36,0.05495
24686.36,0.055249
24804.47,0.054638
24923.73,0.05358
25044.13,0.054237
25165.71,0.055456
25288.46,0.057225
25412.43,0.056613
25537.61,0.054168
25664.04,0.049022
25791.72,0.04907
25920.68,0.052566
