Database of Origin,University of Winnipeg Spectrophotometer Facility
Sample Description,Basalts and Igneous Samples - RELAB plus Nicolet (from RELAB)
Date Added,2018-07-23 22:41:37.706495

Data ID,RLA_BAS_1_1         
Sample ID,BAS101A
Mineral Name,Basaltic glass
Locality,Kilauea Caldera
Grain Size,<45 um
Viewing Geometry,30/0/30
Resolution,5/ 0.6-129 nm
Composition,Basaltic glass

Wavelength
305.0,0.038125
310.0,0.039377
315.0,0.042151
320.0,0.045931
325.0,0.047827
330.0,0.049484
335.0,0.051941
340.0,0.054634
345.0,0.056542
350.0,0.059231
355.0,0.062187
360.0,0.064271
365.0,0.067001
370.0,0.07016
375.0,0.072989
380.0,0.075272
385.0,0.078075
390.0,0.080812
395.0,0.083315
400.0,0.085193
405.0,0.087559
410.0,0.089792
415.0,0.092194
420.0,0.094867
425.0,0.097764
430.0,0.100134
435.0,0.103238
440.0,0.105891
445.0,0.108678
450.0,0.111618
455.0,0.11472
460.0,0.117447
465.0,0.120959
470.0,0.124122
475.0,0.127499
480.0,0.131108
485.0,0.13462
490.0,0.138337
495.0,0.142426
500.0,0.145875
505.0,0.150131
510.0,0.15362
515.0,0.157806
520.0,0.16143
525.0,0.165169
530.0,0.168802
535.0,0.172798
540.0,0.176197
545.0,0.18016
550.0,0.183157
555.0,0.187043
560.0,0.190297
565.0,0.194129
570.0,0.197292
575.0,0.200612
580.0,0.203638
585.0,0.206717
590.0,0.209273
595.0,0.212021
600.0,0.214441
605.0,0.216681
610.0,0.218981
615.0,0.221528
620.0,0.223243
625.0,0.225531
630.0,0.227003
635.0,0.228894
640.0,0.230039
645.0,0.231016
650.0,0.232037
655.0,0.232854
660.0,0.233751
665.0,0.234149
670.0,0.234799
675.0,0.235241
680.0,0.235135
685.0,0.23574
690.0,0.235619
695.0,0.235697
700.0,0.235397
705.0,0.235109
710.0,0.234813
715.0,0.234061
720.0,0.233867
725.0,0.234493
730.0,0.233626
735.0,0.233001
740.0,0.231986
745.0,0.231534
750.0,0.230341
755.0,0.228906
760.0,0.228384
765.0,0.22635
770.0,0.225521
775.0,0.224492
780.0,0.22264
785.0,0.221869
790.0,0.22056
795.0,0.218536
800.0,0.2178
805.0,0.216242
810.0,0.214337
815.0,0.212691
820.0,0.211884
825.0,0.210056
830.0,0.209048
835.0,0.207431
840.0,0.206083
845.0,0.204427
850.0,0.203298
855.0,0.201866
860.0,0.200847
865.0,0.199459
870.0,0.196541
875.0,0.197634
880.0,0.196846
885.0,0.196564
890.0,0.195548
895.0,0.195359
900.0,0.195183
905.0,0.193473
910.0,0.19247
915.0,0.191323
920.0,0.190146
925.0,0.189094
930.0,0.188087
935.0,0.187545
940.0,0.187009
945.0,0.18658
950.0,0.186533
955.0,0.186749
960.0,0.186514
965.0,0.186278
970.0,0.185343
975.0,0.184929
980.0,0.184069
985.0,0.183574
990.0,0.182869
995.0,0.182379
1000.0,0.182023
1005.0,0.181876
1010.0,0.181483
1015.0,0.181806
1020.0,0.181874
1025.0,0.181907
1030.0,0.182161
1035.0,0.182462
1040.0,0.18209
1045.0,0.182619
1050.0,0.182803
1055.0,0.182747
1060.0,0.183061
1065.0,0.184014
1070.0,0.183492
1075.0,0.183617
1080.0,0.184522
1085.0,0.185019
1090.0,0.184885
1095.0,0.185652
1100.0,0.186413
1105.0,0.186418
1110.0,0.186696
1115.0,0.187174
1120.0,0.187835
1125.0,0.188263
1130.0,0.188762
1135.0,0.189534
1140.0,0.190357
1145.0,0.190933
1150.0,0.191411
1155.0,0.192375
1160.0,0.192878
1165.0,0.193309
1170.0,0.194112
1175.0,0.19483
1180.0,0.195258
1185.0,0.196281
1190.0,0.197695
1195.0,0.198631
1200.0,0.200109
1205.0,0.201875
1210.0,0.202894
1215.0,0.203755
1220.0,0.204941
1225.0,0.205618
1230.0,0.206535
1235.0,0.207361
1240.0,0.208209
1245.0,0.20936
1250.0,0.210259
1255.0,0.210833
1260.0,0.211598
1265.0,0.212536
1270.0,0.212983
1275.0,0.214431
1280.0,0.21547
1285.0,0.217022
1290.0,0.217828
1295.0,0.219238
1300.0,0.220097
1305.0,0.221041
1310.0,0.221563
1315.0,0.222996
1320.0,0.224253
1325.0,0.224887
1330.0,0.226695
1335.0,0.228089
1340.0,0.229312
1345.0,0.230277
1350.0,0.232456
1355.0,0.233108
1360.0,0.234656
1365.0,0.235967
1370.0,0.237541
1375.0,0.237819
1380.0,0.239436
1385.0,0.240438
1390.0,0.242261
1395.0,0.243492
1400.0,0.244776
1405.0,0.245745
1410.0,0.247368
1415.0,0.248699
1420.0,0.249588
1425.0,0.250899
1430.0,0.252388
1435.0,0.253787
1440.0,0.254717
1445.0,0.256128
1450.0,0.257306
1455.0,0.258383
1460.0,0.258924
1465.0,0.260272
1470.0,0.260662
1475.0,0.261536
1480.0,0.262265
1485.0,0.263384
1490.0,0.263808
1495.0,0.265011
1500.0,0.265711
1505.0,0.266837
1510.0,0.267753
1515.0,0.268765
1520.0,0.269674
1525.0,0.271057
1530.0,0.271547
1535.0,0.27209
1540.0,0.272249
1545.0,0.272644
1550.0,0.272599
1555.0,0.273173
1560.0,0.273333
1565.0,0.27458
1570.0,0.275883
1575.0,0.276937
1580.0,0.277455
1585.0,0.278686
1590.0,0.278753
1595.0,0.277981
1600.0,0.278471
1605.0,0.278546
1610.0,0.279067
1615.0,0.279139
1620.0,0.280789
1625.0,0.280732
1630.0,0.280979
1635.0,0.281271
1640.0,0.281953
1645.0,0.281593
1650.0,0.280868
1655.0,0.28182
1660.0,0.282615
1665.0,0.282507
1670.0,0.283407
1675.0,0.285226
1680.0,0.284924
1685.0,0.284069
1690.0,0.284143
1695.0,0.283697
1700.0,0.28288
1705.0,0.283214
1710.0,0.283098
1715.0,0.282945
1720.0,0.283493
1725.0,0.283719
1730.0,0.283909
1735.0,0.284246
1740.0,0.284993
1745.0,0.284718
1750.0,0.285098
1755.0,0.283297
1760.0,0.283781
1765.0,0.283852
1770.0,0.283717
1775.0,0.283156
1780.0,0.283087
1785.0,0.282594
1790.0,0.28267
1795.0,0.283234
1800.0,0.283994
1805.0,0.283925
1810.0,0.284648
1815.0,0.285079
1820.0,0.285411
1825.0,0.28518
1830.0,0.285075
1835.0,0.28422
1840.0,0.283891
1845.0,0.283494
1850.0,0.283614
1855.0,0.283418
1860.0,0.285068
1865.0,0.285447
1870.0,0.285719
1875.0,0.286281
1880.0,0.286957
1885.0,0.286617
1890.0,0.287302
1895.0,0.287763
1900.0,0.286898
1905.0,0.287072
1910.0,0.287165
1915.0,0.286882
1920.0,0.287482
1925.0,0.288772
1930.0,0.289139
1935.0,0.289691
1940.0,0.290344
1945.0,0.290827
1950.0,0.290905
1955.0,0.291963
1960.0,0.292113
1965.0,0.292617
1970.0,0.292869
1975.0,0.293642
1980.0,0.293513
1985.0,0.294668
1990.0,0.295355
1995.0,0.295456
2000.0,0.29601
2005.0,0.297019
2010.0,0.297109
2015.0,0.297417
2020.0,0.29888
2025.0,0.29936
2030.0,0.299757
2035.0,0.300043
2040.0,0.300633
2045.0,0.30075
2050.0,0.301561
2055.0,0.301775
2060.0,0.303796
2065.0,0.30526
2070.0,0.306321
2075.0,0.307304
2080.0,0.309078
2085.0,0.309321
2090.0,0.309497
2095.0,0.310557
2100.0,0.311603
2105.0,0.311789
2110.0,0.312564
2115.0,0.313899
2120.0,0.31465
2125.0,0.315863
2130.0,0.317662
2135.0,0.31833
2140.0,0.319061
2145.0,0.319251
2150.0,0.319153
2155.0,0.319105
2160.0,0.31914
2165.0,0.319938
2170.0,0.320887
2175.0,0.32218
2180.0,0.322939
2185.0,0.32454
2190.0,0.325459
2195.0,0.325867
2200.0,0.326261
2205.0,0.326609
2210.0,0.326473
2215.0,0.326526
2220.0,0.327408
2225.0,0.328416
2230.0,0.329197
2235.0,0.330887
2240.0,0.332402
2245.0,0.332576
2250.0,0.333118
2255.0,0.334301
2260.0,0.335294
2265.0,0.336036
2270.0,0.338556
2275.0,0.339853
2280.0,0.340317
2285.0,0.340452
2290.0,0.341447
2295.0,0.342218
2300.0,0.343711
2305.0,0.345852
2310.0,0.347189
2315.0,0.347075
2320.0,0.347734
2325.0,0.348287
2330.0,0.348792
2335.0,0.349893
2340.0,0.351583
2345.0,0.352636
2350.0,0.351894
2355.0,0.35314
2360.0,0.353377
2365.0,0.354476
2370.0,0.354633
2375.0,0.35668
2380.0,0.357183
2385.0,0.358664
2390.0,0.358184
2395.0,0.358673
2400.0,0.359428
2405.0,0.359712
2410.0,0.359662
2415.0,0.360662
2420.0,0.361582
2425.0,0.361204
2430.0,0.362222
2435.0,0.363639
2440.0,0.365135
2445.0,0.365284
2450.0,0.36703
2455.0,0.366937
2460.0,0.366706
2465.0,0.3675
2470.0,0.36952
2475.0,0.369808
2480.0,0.370789
2485.0,0.370865
2490.0,0.370766
2495.0,0.371273
2500.0,0.372255
2505.0,0.373413
2510.0,0.375076
2515.0,0.374502
2520.0,0.374651
2525.0,0.37475
2530.0,0.375112
2535.0,0.375043
2540.0,0.376711
2543.74,0.376855
2546.24,0.377045
2548.74,0.377271
2551.25,0.377412
2553.76,0.377611
2556.28,0.377767
2558.8,0.377929
2561.33,0.377814
2563.86,0.377612
2566.4,0.377879
2568.95,0.378479
2571.5,0.378804
2574.05,0.378598
2576.61,0.37864
2579.17,0.379053
2581.74,0.379311
2584.31,0.379015
2586.89,0.378885
2589.48,0.379325
2592.07,0.379631
2594.66,0.379452
2597.26,0.378967
2599.87,0.379778
2602.48,0.38017
2605.09,0.37991
2607.71,0.379769
2610.34,0.380031
2612.97,0.380334
2615.61,0.380675
2618.25,0.380483
2620.9,0.380217
2623.55,0.380722
2626.21,0.381211
2628.87,0.38108
2631.54,0.380948
2634.21,0.381091
2636.89,0.381483
2639.58,0.381725
2642.27,0.381789
2644.97,0.381842
2647.67,0.381854
2650.38,0.38193
2653.09,0.382016
2655.81,0.382026
2658.53,0.382151
2661.26,0.382175
2664.0,0.382299
2666.74,0.381861
2669.48,0.381246
2672.23,0.381295
2674.99,0.381505
2677.76,0.38156
2680.52,0.381489
2683.3,0.381811
2686.08,0.381488
2688.87,0.381159
2691.66,0.381012
2694.46,0.380464
2697.26,0.379697
2700.07,0.37954
2702.89,0.379085
2705.71,0.378315
2708.53,0.377603
2711.37,0.376374
2714.21,0.375416
2717.05,0.375046
2719.9,0.373951
2722.76,0.372045
2725.62,0.3707
2728.49,0.369945
2731.37,0.368867
2734.25,0.367468
2737.14,0.365429
2740.03,0.363582
2742.93,0.360832
2745.83,0.358988
2748.75,0.35793
2751.66,0.356114
2754.59,0.353452
2757.52,0.350825
2760.46,0.349758
2763.4,0.348601
2766.35,0.346505
2769.3,0.344985
2772.26,0.343306
2775.23,0.342095
2778.21,0.341082
2781.19,0.340191
2784.18,0.339194
2787.17,0.338491
2790.17,0.338203
2793.18,0.337758
2796.19,0.336882
2799.21,0.336204
2802.24,0.335443
2805.27,0.334747
2808.31,0.334817
2811.35,0.335123
2814.41,0.335406
2817.46,0.335752
2820.53,0.335693
2823.6,0.33619
2826.68,0.336541
2829.77,0.336609
2832.86,0.336664
2835.96,0.336748
2839.07,0.337202
2842.18,0.337928
2845.3,0.338244
2848.43,0.338315
2851.56,0.338526
2854.7,0.339049
2857.85,0.339606
2861.0,0.339895
2864.16,0.340431
2867.33,0.341074
2870.51,0.341158
2873.69,0.341188
2876.88,0.341574
2880.07,0.34217
2883.28,0.342524
2886.49,0.342911
2889.71,0.343198
2892.93,0.343483
2896.16,0.343847
2899.4,0.344121
2902.65,0.344438
2905.91,0.344754
2909.17,0.345282
2912.44,0.345815
2915.71,0.345698
2918.99,0.3462
2922.29,0.346856
2925.58,0.346884
2928.89,0.346983
2932.2,0.347375
2935.52,0.347779
2938.85,0.348242
2942.19,0.348739
2945.53,0.349434
2948.88,0.349687
2952.24,0.349908
2955.61,0.350334
2958.98,0.350276
2962.36,0.350562
2965.75,0.350953
2969.15,0.351477
2972.55,0.352126
2975.97,0.35237
2979.39,0.352786
2982.82,0.353346
2986.25,0.353461
2989.7,0.35401
2993.15,0.354724
2996.61,0.354979
3000.08,0.355205
3003.55,0.355771
3007.04,0.356221
3010.53,0.35695
3014.03,0.357563
3017.54,0.358009
3021.06,0.358329
3024.58,0.3585
3028.12,0.358605
3031.66,0.359073
3035.21,0.359598
3038.77,0.360033
3042.33,0.360449
3045.91,0.360926
3049.49,0.361177
3053.08,0.361308
3056.68,0.36156
3060.29,0.362119
3063.91,0.362414
3067.54,0.362151
3071.17,0.362158
3074.81,0.362402
3078.46,0.36275
3082.13,0.363213
3085.79,0.363358
3089.47,0.363611
3093.16,0.363867
3096.85,0.364024
3100.56,0.364595
3104.27,0.364589
3107.99,0.364597
3111.73,0.365074
3115.47,0.365552
3119.21,0.365925
3122.97,0.366007
3126.74,0.366209
3130.52,0.366583
3134.3,0.366795
3138.1,0.366942
3141.9,0.36735
3145.71,0.367622
3149.54,0.367276
3153.37,0.367048
3157.21,0.367107
3161.06,0.367486
3164.92,0.367757
3168.79,0.367913
3172.67,0.368051
3176.55,0.368481
3180.45,0.369156
3184.36,0.369144
3188.27,0.369151
3192.2,0.369552
3196.14,0.369901
3200.08,0.37006
3204.04,0.370074
3208.0,0.370268
3211.98,0.370622
3215.96,0.370937
3219.96,0.371073
3223.96,0.371441
3227.98,0.372026
3232.0,0.372311
3236.04,0.372697
3240.08,0.373325
3244.14,0.373758
3248.2,0.374188
3252.28,0.374716
3256.37,0.375171
3260.46,0.375352
3264.57,0.37577
3268.69,0.376692
3272.81,0.377486
3276.95,0.377705
3281.1,0.378061
3285.26,0.378742
3289.43,0.379528
3293.61,0.38016
3297.8,0.38071
3302.0,0.381537
3304.1,0.38161
3306.21,0.380983
3308.32,0.379837
3310.43,0.380261
3312.55,0.381772
3314.66,0.382692
3316.78,0.382832
3318.91,0.382785
3321.03,0.382148
3323.16,0.381753
3325.29,0.381868
3327.43,0.382324
3329.57,0.38317
3331.71,0.383447
3333.85,0.383328
3335.99,0.384182
3338.14,0.385652
3340.29,0.38576
3342.45,0.385872
3344.6,0.385689
3346.76,0.384938
3348.92,0.385099
3351.09,0.385899
3353.26,0.386774
3355.43,0.386529
3357.6,0.386939
3359.78,0.388027
3361.96,0.387687
3364.14,0.386623
3366.32,0.387158
3368.51,0.387939
3370.7,0.387302
3372.89,0.386276
3375.09,0.386369
3377.29,0.387457
3379.49,0.38815
3381.69,0.38745
3383.9,0.38722
3386.11,0.387914
3388.32,0.387656
3390.54,0.387397
3392.76,0.38719
3394.98,0.387626
3397.21,0.386901
3399.43,0.385822
3401.66,0.386017
3403.9,0.386716
3406.13,0.387433
3408.37,0.388172
3410.61,0.389127
3412.86,0.388865
3415.11,0.38801
3417.36,0.38806
3419.61,0.388091
3421.87,0.388586
3424.13,0.388542
3426.39,0.388888
3428.66,0.390175
3430.93,0.390444
3433.2,0.39004
3435.48,0.390827
3437.76,0.392202
3440.04,0.393103
3442.32,0.393639
3444.61,0.39456
3446.9,0.394655
3449.19,0.393102
3451.49,0.393034
3453.79,0.394462
3456.09,0.394927
3458.4,0.394767
3460.7,0.393849
3463.02,0.393517
3465.33,0.394001
3467.65,0.394836
3469.97,0.395315
3472.29,0.395261
3474.62,0.394395
3476.95,0.394799
3479.29,0.395862
3481.62,0.396
3483.96,0.39524
3486.3,0.395587
3488.65,0.395469
3491.0,0.39508
3493.35,0.395039
3495.71,0.395137
3498.07,0.395729
3500.43,0.395926
3502.79,0.396898
3505.16,0.397804
3507.53,0.397695
3509.91,0.397445
3512.29,0.397132
3514.67,0.397932
3517.05,0.399153
3519.44,0.400556
3521.83,0.4011
3524.22,0.401825
3526.62,0.402377
3529.02,0.401813
3531.43,0.402615
3533.83,0.402567
3536.24,0.40154
3538.66,0.401693
3541.08,0.402718
3543.5,0.403366
3545.92,0.403794
3548.35,0.404157
3550.78,0.403802
3553.21,0.403944
3555.65,0.404463
3558.09,0.404898
3560.53,0.40428
3562.98,0.40391
3565.43,0.404227
3567.88,0.40475
3570.34,0.404834
3572.8,0.404535
3575.27,0.404473
3577.73,0.404733
3580.2,0.405069
3582.68,0.405885
3585.16,0.406785
3587.64,0.407368
3590.12,0.407813
3592.61,0.40764
3595.1,0.40737
3597.6,0.40735
3600.09,0.407802
3602.6,0.408899
3605.1,0.40865
3607.61,0.40763
3610.12,0.408393
3612.64,0.410033
3615.16,0.410349
3617.68,0.409483
3620.21,0.408911
3622.74,0.409031
3625.27,0.410455
3627.81,0.411621
3630.35,0.412279
3632.89,0.412116
3635.44,0.41118
3637.99,0.411006
3640.54,0.411711
3643.1,0.412523
3645.66,0.412553
3648.23,0.411793
3650.8,0.411998
3653.37,0.412911
3655.95,0.412963
3658.53,0.412811
3661.11,0.412887
3663.7,0.413943
3666.29,0.414332
3668.89,0.413961
3671.48,0.414121
3674.09,0.414811
3676.69,0.414883
3679.3,0.414645
3681.91,0.41428
3684.53,0.414802
3687.15,0.415856
3689.78,0.41572
3692.4,0.415943
3695.04,0.41617
3697.67,0.416136
3700.31,0.416586
3702.95,0.415928
3705.6,0.415729
3708.25,0.416954
3710.91,0.417706
3713.56,0.41841
3716.23,0.418603
3718.89,0.41828
3721.56,0.418832
3724.23,0.420116
3726.91,0.420681
3729.59,0.419916
3732.28,0.42008
3734.97,0.420898
3737.66,0.421252
3740.36,0.420841
3743.06,0.421465
3745.76,0.421682
3748.47,0.421647
3751.18,0.422389
3753.9,0.423327
3756.62,0.424083
3759.34,0.424156
3762.07,0.424101
3764.8,0.424194
3767.54,0.424139
3770.28,0.42433
3773.02,0.424353
3775.77,0.424816
3778.52,0.424883
3781.28,0.425484
3784.04,0.425877
3786.8,0.425904
3789.57,0.426213
3792.34,0.426157
3795.12,0.426205
3797.9,0.426056
3800.69,0.426124
3803.47,0.426582
3806.27,0.427629
3809.06,0.428233
3811.86,0.428895
3814.67,0.429849
3817.48,0.430828
3820.29,0.430809
3823.11,0.430396
3825.93,0.431229
3828.76,0.432045
3831.59,0.431937
3834.42,0.431991
3837.26,0.432481
3840.1,0.433603
3842.95,0.434291
3845.8,0.434458
3848.65,0.434621
3851.51,0.434693
3854.38,0.435367
3857.24,0.43624
3860.12,0.436334
3862.99,0.436059
3865.87,0.436301
3868.76,0.437186
3871.65,0.438
3874.54,0.437741
3877.44,0.43781
3880.34,0.437623
3883.25,0.437924
3886.16,0.439655
3889.07,0.440268
3891.99,0.439216
3894.92,0.439409
3897.85,0.439964
3900.78,0.440383
3903.72,0.440505
3906.66,0.440102
3909.6,0.440455
3912.55,0.441007
3915.51,0.441434
3918.47,0.44241
3921.43,0.442896
3924.4,0.442647
3927.37,0.442722
3930.35,0.443346
3933.33,0.444671
3936.32,0.445584
3939.31,0.444596
3942.31,0.444856
3945.31,0.444937
3948.31,0.445046
3951.32,0.446205
3954.34,0.44724
3957.35,0.447803
3960.38,0.448029
3963.41,0.447463
3966.44,0.447553
3969.48,0.44762
3972.52,0.448657
3975.56,0.449728
3978.61,0.449524
3981.67,0.449726
3984.73,0.450876
3987.8,0.451085
3990.87,0.450333
3993.94,0.450394
3997.02,0.451199
4000.1,0.451842
4003.19,0.452407
4006.29,0.452837
4009.39,0.452949
4012.49,0.453953
4015.6,0.453666
4018.71,0.45296
4021.83,0.453806
4024.95,0.455082
4028.08,0.455613
4031.21,0.455566
4034.35,0.455818
4037.49,0.45651
4040.64,0.457261
4043.79,0.456628
4046.94,0.456709
4050.11,0.45789
4053.27,0.458409
4056.44,0.458717
4059.62,0.459469
4062.8,0.459738
4065.99,0.460356
4069.18,0.460486
4072.38,0.460558
4075.58,0.461284
4078.78,0.462229
4082.0,0.462665
4085.21,0.462795
4088.43,0.463103
4091.66,0.463922
4094.89,0.465133
4098.13,0.465426
4101.37,0.464766
4104.62,0.464436
4107.87,0.464226
4111.13,0.464847
4114.39,0.466002
4117.66,0.465975
4120.93,0.465451
4124.21,0.465704
4127.5,0.466104
4130.78,0.465998
4134.08,0.465845
4137.38,0.466227
4140.68,0.466914
4143.99,0.467317
4147.31,0.467632
4150.63,0.467292
4153.95,0.467199
4157.29,0.468454
4160.62,0.469754
4163.96,0.470337
4167.31,0.470055
4170.66,0.469739
4174.02,0.469903
4177.39,0.469985
4180.75,0.470525
4184.13,0.47143
4187.51,0.472368
4190.89,0.473304
4194.28,0.473453
4197.68,0.473608
4201.08,0.47386
4204.49,0.473776
4207.9,0.474645
4211.32,0.475712
4214.74,0.476083
4218.17,0.476235
4221.61,0.477023
4225.05,0.478366
4228.5,0.479119
4231.95,0.479851
4235.4,0.480021
4238.87,0.479192
4242.34,0.478639
4245.81,0.479151
4249.29,0.479908
4252.78,0.480084
4256.27,0.480339
4259.77,0.479995
4263.27,0.480003
4266.78,0.480864
4270.29,0.48206
4273.81,0.482401
4277.34,0.481958
4280.87,0.482053
4284.41,0.482616
4287.95,0.482831
4291.5,0.482454
4295.06,0.482434
4298.62,0.483324
4302.19,0.484219
4305.76,0.484556
4309.34,0.484129
4312.92,0.484167
4316.52,0.48403
4320.11,0.483577
4323.72,0.483529
4327.32,0.483781
4330.94,0.484745
4334.56,0.485153
4338.19,0.485215
4341.82,0.485638
4345.46,0.486753
4349.11,0.487308
4352.76,0.48732
4356.42,0.486948
4360.08,0.48742
4363.75,0.488088
4367.43,0.487835
4371.11,0.488409
4374.8,0.489213
4378.49,0.48895
4382.19,0.488452
4385.9,0.487736
4389.61,0.488009
4393.33,0.488881
4397.06,0.48894
4400.79,0.488762
4404.53,0.489072
4408.28,0.489144
4412.03,0.489145
4415.79,0.488607
4419.55,0.488535
4423.32,0.488915
4427.1,0.488918
4430.88,0.488865
4434.67,0.489301
4438.47,0.489339
4442.27,0.489131
4446.08,0.489292
4449.9,0.488889
4453.72,0.488799
4457.55,0.489042
4461.39,0.489252
4465.23,0.489107
4469.08,0.489393
4472.94,0.489867
4476.8,0.48997
4480.67,0.490388
4484.55,0.489725
4488.43,0.489517
4492.32,0.489676
4496.21,0.489474
4500.12,0.490101
4504.03,0.49038
4507.94,0.489624
4511.87,0.49014
4515.8,0.490576
4519.73,0.489684
4523.68,0.489803
4527.63,0.490403
4531.59,0.490241
4535.55,0.489272
4539.52,0.488831
4543.5,0.488406
4547.49,0.488141
4551.48,0.488052
4555.48,0.487878
4559.49,0.48706
4563.5,0.487151
4567.52,0.48742
4571.55,0.48694
4575.58,0.486738
4579.62,0.486148
4583.67,0.485675
4587.73,0.485502
4591.79,0.48543
4595.86,0.484614
4599.94,0.484599
4604.03,0.484266
4608.12,0.484195
4612.22,0.484234
4616.33,0.483562
4620.44,0.48284
4624.56,0.483055
4628.69,0.482477
4632.83,0.482296
4636.97,0.482228
4641.12,0.482093
4645.28,0.481543
4649.45,0.480989
4653.62,0.480582
4657.8,0.480889
4661.99,0.480729
4666.19,0.480045
4670.39,0.479854
4674.6,0.479363
4678.82,0.478665
4683.05,0.478521
4687.28,0.477821
4691.52,0.476845
4695.77,0.475987
4700.03,0.475331
4704.3,0.475589
4708.57,0.475923
4712.85,0.474874
4717.14,0.473815
4721.43,0.473349
4725.74,0.472776
4730.05,0.472143
4734.37,0.471684
4738.7,0.470573
4743.03,0.470188
4747.38,0.470005
4751.73,0.469581
4756.09,0.468751
4760.45,0.468349
4764.83,0.467753
4769.21,0.466724
4773.6,0.466042
4778.0,0.465795
4782.41,0.465042
4786.83,0.464171
4791.25,0.463713
4795.68,0.463161
4800.13,0.462382
4804.57,0.462092
4809.03,0.461606
4813.5,0.462116
4817.97,0.462073
4822.45,0.460407
4826.94,0.458965
4831.44,0.458264
4835.95,0.457722
4840.46,0.457615
4844.99,0.456876
4849.52,0.45588
4854.06,0.455051
4858.61,0.454601
4863.17,0.454022
4867.73,0.453104
4872.31,0.452101
4876.89,0.451327
4881.48,0.450403
4886.08,0.449539
4890.69,0.448918
4895.31,0.447575
4899.94,0.446212
4904.57,0.445959
4909.22,0.44538
4913.87,0.443756
4918.53,0.443112
4923.21,0.442525
4927.88,0.440873
4932.57,0.439813
4937.27,0.439235
4941.98,0.438394
4946.69,0.437362
4951.42,0.436317
4956.15,0.434958
4960.89,0.434275
4965.65,0.43366
4970.41,0.432212
4975.18,0.431059
4979.96,0.430346
4984.75,0.429466
4989.54,0.428279
4994.35,0.42743
4999.17,0.426604
5003.99,0.425023
5008.83,0.423782
5013.67,0.422466
5018.52,0.421347
5023.39,0.420898
5028.26,0.420623
5033.14,0.4196
5038.03,0.41837
5042.93,0.417097
5047.84,0.415814
5052.76,0.41459
5057.69,0.413199
5062.63,0.411732
5067.58,0.410856
5072.54,0.409573
5077.51,0.407458
5082.49,0.406311
5087.47,0.405632
5092.47,0.403914
5097.48,0.402679
5102.5,0.402043
5107.52,0.400483
5112.56,0.399419
5117.61,0.398247
5122.66,0.396899
5127.73,0.395714
5132.81,0.393909
5137.89,0.392934
5142.99,0.392635
5148.1,0.391855
5153.22,0.390501
5158.34,0.388809
5163.48,0.387524
5168.63,0.387082
5173.79,0.386124
5178.96,0.385399
5184.13,0.384769
5189.32,0.383885
5194.52,0.38296
5199.73,0.381575
5204.95,0.380659
5210.19,0.379888
5215.43,0.379363
5220.68,0.378962
5225.94,0.377758
5231.22,0.376465
5236.5,0.375899
5241.79,0.3755
5247.1,0.374438
5252.42,0.373871
5257.74,0.37318
5263.08,0.371673
5268.43,0.370422
5273.79,0.370143
5279.16,0.369336
5284.54,0.368122
5289.93,0.367727
5295.34,0.367333
5300.75,0.366405
5306.18,0.365395
5311.61,0.364448
5317.06,0.364256
5322.52,0.364334
5327.99,0.363602
5333.47,0.36231
5338.96,0.361574
5344.47,0.36141
5349.98,0.361156
5355.51,0.360835
5361.05,0.359928
5366.6,0.358857
5372.16,0.358488
5377.73,0.358233
5383.32,0.357864
5388.91,0.357566
5394.52,0.357059
5400.14,0.35608
5405.77,0.355504
5411.41,0.355782
5417.07,0.355501
5422.74,0.354649
5428.41,0.355382
5434.1,0.355038
5439.81,0.354093
5445.52,0.353453
5451.25,0.353026
5456.98,0.352961
5462.73,0.352567
5468.5,0.352517
5474.27,0.352124
5480.06,0.351491
5485.86,0.351574
5491.67,0.35137
5497.49,0.350742
5503.33,0.35004
5509.18,0.349715
5515.04,0.349314
5520.91,0.34915
5526.8,0.349022
5532.69,0.348691
5538.61,0.348248
5544.53,0.347993
5550.47,0.347567
5556.41,0.347348
5562.38,0.346955
5568.35,0.346411
5574.34,0.346317
5580.34,0.346379
5586.35,0.346684
5592.38,0.345921
5598.42,0.345253
5604.47,0.345198
5610.54,0.345309
5616.61,0.344776
5622.71,0.345129
5628.81,0.345235
5634.93,0.344993
5641.06,0.344868
5647.21,0.345748
5653.36,0.345159
5659.54,0.344607
5665.72,0.345193
5671.92,0.34485
5678.13,0.345233
5684.36,0.345542
5690.6,0.34473
5696.85,0.344684
5703.12,0.344631
5709.4,0.344826
5715.69,0.346359
5722.0,0.347026
5728.33,0.347255
5734.66,0.346846
5741.01,0.346567
5747.38,0.346209
5753.76,0.34687
5760.15,0.347056
5766.56,0.346258
5772.98,0.346813
5779.41,0.346158
5785.86,0.345061
5792.33,0.344026
5798.81,0.343391
5805.3,0.343277
5811.81,0.342911
5818.33,0.342391
5824.87,0.342774
5831.42,0.343841
5837.99,0.343439
5844.57,0.342247
5851.17,0.341445
5857.78,0.341431
5864.41,0.341451
5871.05,0.341798
5877.7,0.340938
5884.38,0.34173
5891.06,0.342711
5897.76,0.341544
5904.48,0.341717
5911.21,0.340905
5917.96,0.340003
5924.73,0.339375
5931.5,0.338862
5938.3,0.338891
5945.11,0.340191
5951.93,0.33897
5958.78,0.338087
5965.63,0.337373
5972.51,0.337428
5979.39,0.338121
5986.3,0.337792
5993.22,0.33774
6000.16,0.336747
6007.11,0.336013
6014.08,0.336025
6021.06,0.335972
6028.06,0.335044
6035.08,0.334527
6042.12,0.334223
6049.17,0.334313
6056.23,0.336
6063.32,0.335147
6070.42,0.333682
6077.53,0.333937
6084.67,0.333848
6091.82,0.333012
6098.98,0.332464
6106.17,0.332263
6113.37,0.331917
6120.58,0.333274
6127.82,0.332561
6135.07,0.331469
6142.34,0.331713
6149.63,0.332121
6156.93,0.331773
6164.25,0.331928
6171.59,0.332122
6178.94,0.331545
6186.32,0.331562
6193.71,0.331703
6201.12,0.331545
6208.54,0.331496
6215.99,0.331525
6223.45,0.331746
6230.93,0.331165
6238.43,0.330473
6245.95,0.330585
6253.48,0.330548
6261.03,0.330186
6268.6,0.329939
6276.19,0.330143
6283.8,0.330018
6291.43,0.329931
6299.07,0.329927
6306.73,0.329567
6314.42,0.329268
6322.12,0.329017
6329.83,0.328965
6337.57,0.329295
6345.33,0.330094
6353.11,0.330699
6360.9,0.329835
6368.72,0.329474
6376.55,0.330078
6384.4,0.330526
6392.27,0.330331
6400.17,0.33059
6408.08,0.330808
6416.01,0.332517
6423.96,0.334102
6431.93,0.33258
6439.92,0.332494
6447.93,0.332682
6455.96,0.332308
6464.01,0.332564
6472.08,0.332763
6480.17,0.33329
6488.28,0.334128
6496.41,0.334757
6504.56,0.334435
6512.73,0.333699
6520.92,0.333255
6529.14,0.333782
6537.37,0.33299
6545.63,0.332897
6553.9,0.333819
6562.2,0.334054
6570.51,0.333303
6578.85,0.333638
6587.21,0.333399
6595.59,0.33319
6603.99,0.333301
6612.42,0.332261
6620.86,0.331747
6629.33,0.331244
6637.82,0.331519
6646.33,0.332041
6654.86,0.33104
6663.41,0.329895
6671.99,0.329801
6680.59,0.330133
6689.21,0.330111
6697.85,0.329313
6706.51,0.328383
6715.2,0.328279
6723.91,0.327951
6732.64,0.327555
6741.4,0.327151
6750.18,0.326458
6758.98,0.326363
6767.8,0.325881
6776.65,0.325495
6785.52,0.325031
6794.41,0.324833
6803.33,0.32441
6812.27,0.323592
6821.23,0.323456
6830.22,0.323384
6839.23,0.322901
6848.26,0.322054
6857.32,0.321502
6866.4,0.321543
6875.51,0.320997
6884.64,0.319291
6893.8,0.31843
6902.98,0.317685
6912.18,0.316955
6921.41,0.316015
6930.66,0.31508
6939.94,0.31419
6949.24,0.31313
6958.57,0.31232
6967.92,0.311895
6977.3,0.310604
6986.7,0.309256
6996.13,0.308496
7005.59,0.307719
7015.07,0.306595
7024.57,0.305499
7034.1,0.304684
7043.66,0.303725
7053.24,0.30331
7062.85,0.302039
7072.49,0.300727
7082.15,0.299965
7091.84,0.298869
7101.55,0.297737
7111.3,0.296885
7121.06,0.295511
7130.86,0.293955
7140.68,0.292504
7150.53,0.29175
7160.41,0.290281
7170.31,0.289198
7180.24,0.288321
7190.2,0.287074
7200.19,0.285319
7210.2,0.283877
7220.24,0.282588
7230.31,0.280693
7240.41,0.279069
7250.54,0.277678
7260.69,0.275972
7270.88,0.27465
7281.09,0.273044
7291.33,0.270685
7301.6,0.268208
7311.9,0.266386
7322.22,0.26442
7332.58,0.262827
7342.97,0.260976
7353.38,0.258683
7363.83,0.256419
7374.3,0.253993
7384.81,0.251217
7395.34,0.249106
7405.91,0.246631
7416.5,0.244334
7427.13,0.241417
7437.78,0.23889
7448.47,0.236234
7459.19,0.233376
7469.94,0.230305
7480.71,0.227462
7491.52,0.224273
7502.37,0.221314
7513.24,0.218421
7524.14,0.215061
7535.08,0.211482
7546.05,0.208153
7557.05,0.204494
7568.08,0.200579
7579.14,0.197061
7590.24,0.194038
7601.37,0.1901
7612.53,0.186287
7623.73,0.182439
7634.96,0.178547
7646.22,0.174268
7657.51,0.170119
7668.84,0.165937
7680.2,0.16196
7691.59,0.157415
7703.02,0.152832
7714.49,0.147659
7725.98,0.142765
7737.51,0.138294
7749.08,0.133416
7760.68,0.127536
7772.32,0.122871
7783.99,0.117986
7795.69,0.112717
7807.43,0.107375
7819.21,0.102063
7831.02,0.096706
7842.87,0.091774
7854.75,0.086768
7866.67,0.082266
7878.62,0.076619
7890.62,0.071263
7902.64,0.06623
7914.71,0.061566
7926.81,0.056459
7938.95,0.051987
7951.13,0.047676
7963.34,0.043555
7975.59,0.038927
7987.88,0.035135
8000.21,0.031431
8012.57,0.028049
8024.98,0.024274
8037.42,0.02153
8049.9,0.019055
8062.42,0.017118
8074.98,0.015082
8087.57,0.013441
8100.21,0.012132
8112.89,0.011542
8125.6,0.011076
8138.36,0.010869
8151.16,0.010559
8163.99,0.011573
8176.87,0.012281
8189.79,0.013169
8202.75,0.014048
8215.74,0.015701
8228.79,0.016863
8241.87,0.01888
8254.99,0.020848
8268.16,0.022937
8281.37,0.024357
8294.62,0.025861
8307.91,0.027805
8321.24,0.029765
8334.62,0.03103
8348.04,0.032816
8361.51,0.034362
8375.02,0.035817
8388.57,0.036872
8402.16,0.038397
8415.8,0.039895
8429.49,0.041616
8443.22,0.042305
8456.99,0.043552
8470.81,0.044646
8484.67,0.045331
8498.58,0.045574
8512.54,0.045852
8526.54,0.04653
8540.58,0.047696
8554.68,0.048758
8568.82,0.04975
8583.0,0.049726
8597.24,0.049961
8611.52,0.051256
8625.85,0.05228
8640.22,0.052414
8654.65,0.053262
8669.12,0.053467
8683.64,0.054001
8698.21,0.054821
8712.83,0.055573
8727.5,0.055776
8742.22,0.056624
8756.98,0.057235
8771.8,0.057722
8786.67,0.057986
8801.59,0.059112
8816.56,0.059806
8831.58,0.060744
8846.65,0.061543
8861.77,0.062277
8876.94,0.062109
8892.17,0.062559
8907.45,0.063278
8922.78,0.063767
8938.16,0.064189
8953.6,0.065319
8969.09,0.066108
8984.64,0.066309
9000.23,0.066853
9015.89,0.068205
9031.59,0.068536
9047.36,0.068605
9063.17,0.068738
9079.04,0.069592
9094.97,0.070589
9110.96,0.071245
9127.0,0.071345
9143.09,0.072052
9159.25,0.072788
9175.46,0.074059
9191.73,0.074408
9208.05,0.074405
9224.44,0.074737
9240.88,0.075668
9257.38,0.076482
9273.94,0.077098
9290.56,0.077638
9307.24,0.078492
9323.98,0.078708
9340.78,0.079105
9357.64,0.079347
9374.57,0.080048
9391.55,0.080548
9408.59,0.081663
9425.7,0.081656
9442.87,0.081623
9460.1,0.082316
9477.39,0.082445
9494.75,0.082026
9512.17,0.082081
9529.66,0.082641
9547.21,0.083551
9564.82,0.084004
9582.5,0.084757
9600.25,0.084959
9618.06,0.084514
9635.94,0.08382
9653.88,0.083828
9671.89,0.084377
9689.97,0.084251
9708.12,0.083768
9726.33,0.083985
9744.61,0.084149
9762.97,0.084469
9781.39,0.084433
9799.88,0.084054
9818.44,0.084022
9837.07,0.084936
9855.77,0.084606
9874.54,0.084163
9893.39,0.084113
9912.3,0.084349
9931.29,0.084159
9950.35,0.084685
9969.49,0.085166
9988.7,0.085151
10007.98,0.084297
10027.34,0.084033
10046.77,0.083794
10066.28,0.083784
10085.87,0.084177
10105.53,0.084296
10125.26,0.083691
10145.08,0.083176
10164.97,0.082869
10184.94,0.082997
10204.99,0.082697
10225.12,0.082709
10245.33,0.082219
10265.61,0.081806
10285.98,0.081456
10306.43,0.081282
10326.96,0.081189
10347.57,0.080518
10368.27,0.079994
10389.05,0.080674
10409.91,0.080648
10430.85,0.079792
10451.88,0.079539
10473.0,0.079886
10494.2,0.079812
10515.49,0.079526
10536.86,0.07943
10558.32,0.079452
10579.87,0.078854
10601.5,0.078679
10623.23,0.078649
10645.04,0.07858
10666.94,0.078458
10688.94,0.078485
10711.02,0.077776
10733.2,0.077217
10755.47,0.077324
10777.83,0.077411
10800.28,0.077014
10822.83,0.076948
10845.47,0.077138
10868.21,0.076923
10891.04,0.076548
10913.97,0.076511
10936.99,0.076307
10960.12,0.07589
10983.34,0.07527
11006.66,0.075492
11030.07,0.075488
11053.59,0.075185
11077.21,0.073855
11100.93,0.074042
11124.75,0.074517
11148.68,0.074149
11172.7,0.073344
11196.84,0.073547
11221.07,0.073447
11245.41,0.073829
11269.86,0.073961
11294.41,0.073888
11319.07,0.073361
11343.84,0.07277
11368.72,0.072547
11393.7,0.072389
11418.8,0.072619
11444.01,0.072986
11469.33,0.072563
11494.76,0.072346
11520.3,0.072627
11545.96,0.072943
11571.73,0.072482
11597.62,0.072477
11623.62,0.073093
11649.74,0.073872
11675.98,0.073768
11702.34,0.073566
11728.81,0.074545
11755.41,0.074494
11782.13,0.073736
11808.96,0.074357
11835.92,0.075295
11863.01,0.07585
11890.22,0.075951
11917.55,0.076561
11945.01,0.076396
11972.6,0.075606
12000.31,0.075531
12028.16,0.07615
12056.13,0.076732
12084.23,0.077709
12112.46,0.077348
12140.83,0.077293
12169.33,0.076745
12197.96,0.076196
12226.73,0.075728
12255.64,0.075574
12284.68,0.074387
12313.86,0.073203
12343.18,0.072691
12372.64,0.071758
12402.24,0.070071
12431.98,0.069451
12461.86,0.06928
12491.89,0.068613
12522.06,0.067927
12552.38,0.066695
12582.85,0.064949
12613.47,0.064227
12644.23,0.06431
12675.15,0.063824
12706.21,0.062918
12737.43,0.062782
12768.8,0.063065
12800.33,0.062682
12832.02,0.061286
12863.86,0.06135
12895.86,0.061108
12928.02,0.060968
12960.34,0.060221
12992.82,0.059753
13025.46,0.059512
13058.27,0.059539
13091.25,0.059555
13124.39,0.059579
13157.7,0.059603
13191.18,0.059826
13224.83,0.05946
13258.66,0.059419
13292.65,0.059778
13326.83,0.059021
13361.17,0.058592
13395.7,0.059116
13430.4,0.058169
13465.29,0.058154
13500.35,0.058543
13535.6,0.057768
13571.03,0.056806
13606.65,0.057298
13642.46,0.058503
13678.46,0.059383
13714.64,0.059252
13751.02,0.059459
13787.59,0.058927
13824.36,0.05792
13861.32,0.057997
13898.48,0.057601
13935.85,0.057213
13973.41,0.05832
14011.17,0.058585
14049.15,0.058721
14087.32,0.058653
14125.71,0.058044
14164.3,0.057551
14203.11,0.057138
14242.13,0.057062
14281.36,0.057808
14320.81,0.057898
14360.48,0.057246
14400.38,0.056465
14440.49,0.056829
14480.82,0.057204
14521.39,0.057408
14562.18,0.057569
14603.2,0.057484
14644.45,0.057248
14685.93,0.057263
14727.66,0.057009
14769.62,0.057182
14811.81,0.056814
14854.25,0.056759
14896.94,0.056245
14939.87,0.056159
14983.05,0.057084
15026.48,0.057582
15070.16,0.057801
15114.1,0.057546
15158.29,0.05716
15202.74,0.05732
15247.46,0.057117
15292.43,0.057587
15337.68,0.057851
15383.19,0.057208
15428.97,0.056772
15475.03,0.056725
15521.36,0.05615
15567.97,0.056734
15614.86,0.056037
15662.04,0.05543
15709.5,0.055804
15757.25,0.056303
15805.29,0.055739
15853.62,0.055703
15902.25,0.055085
15951.18,0.055071
16000.42,0.054861
16049.95,0.054262
16099.8,0.053789
16149.95,0.054028
16200.42,0.053858
16251.21,0.053945
16302.31,0.053225
16353.74,0.053114
16405.49,0.053245
16457.57,0.053902
16509.98,0.053369
16562.73,0.052543
16615.82,0.051871
16669.24,0.051433
16723.02,0.051555
16777.13,0.05178
16831.61,0.050478
16886.43,0.049624
16941.62,0.050207
16997.16,0.050825
17053.07,0.050701
17109.36,0.049632
17166.01,0.050161
17223.04,0.051386
17280.45,0.052077
17338.24,0.05293
17396.43,0.052237
17455.0,0.052004
17513.97,0.052878
17573.34,0.053838
17633.11,0.05583
17693.29,0.05571
17753.89,0.053299
17814.9,0.053196
17876.33,0.054327
17938.18,0.054405
18000.47,0.054867
18063.19,0.057132
18126.35,0.057404
18189.95,0.056725
18254.0,0.056629
18318.5,0.057007
18383.46,0.057654
18448.88,0.059256
18514.77,0.060672
18581.13,0.061763
18647.97,0.061756
18715.29,0.062033
18783.1,0.060213
18851.4,0.060283
18920.2,0.062721
18989.51,0.06534
19059.32,0.065762
19129.65,0.066266
19200.5,0.066417
19271.88,0.066534
19343.79,0.066476
19416.23,0.06688
19489.23,0.065921
19562.77,0.066219
19636.88,0.068915
19711.54,0.071635
19786.77,0.07144
19862.59,0.072721
19938.98,0.074209
20015.96,0.075611
20093.54,0.076637
20171.73,0.076438
20250.53,0.075185
20329.94,0.075598
20409.98,0.079446
20490.65,0.081227
20571.96,0.081219
20653.92,0.082901
20736.54,0.082543
20819.82,0.084776
20903.77,0.084628
20988.4,0.083888
21073.72,0.082832
21159.73,0.081363
21246.46,0.080738
21333.89,0.084224
21422.04,0.085832
21510.93,0.086038
21600.56,0.084883
21690.94,0.08448
21782.08,0.086937
21873.99,0.092055
21966.67,0.093987
22060.15,0.090952
22154.42,0.088387
22249.51,0.088552
22345.41,0.086517
22442.14,0.08377
22539.72,0.085162
22638.14,0.087536
22737.43,0.088276
22837.6,0.088641
22938.65,0.088691
23040.6,0.085758
23143.46,0.08185
23247.24,0.083794
23351.96,0.084058
23457.62,0.081836
23564.25,0.083298
23671.85,0.084013
23780.44,0.082384
23890.02,0.081656
24000.63,0.079379
24112.26,0.083055
24224.93,0.090426
24338.66,0.091678
24453.47,0.088382
24569.36,0.082579
24686.36,0.083235
24804.47,0.094561
24923.72,0.094978
25044.13,0.087371
25165.7,0.07746
25288.46,0.071873
25412.43,0.08185
25537.61,0.092614
25664.03,0.099712
25791.71,0.104946
25920.67,0.097709
