Database of Origin,University of Winnipeg Spectrophotometer Facility
Sample Description,"RELAB plus Nicolet merged plagioclase data. Merged @2500nm, different viewing geometries. See Master Plagioclase in PSF sample database for more information"
Date Added,2016-11-22 03:59:29.745993

Data ID,RLA_PLG_04          
Sample ID,PLG104
Mineral Name,Andesine
Grain Size,<45
Viewing Geometry,"30/0,30"
Resolution,"5,0.6-129"
Composition,An53
Material Class,Tectosilicate

Wavelength
300.0,0.418034
305.0,0.450532
310.0,0.480657
315.0,0.510323
320.0,0.537648
325.0,0.552306
330.0,0.569636
335.0,0.581478
340.0,0.59177
345.0,0.599076
350.0,0.607291
355.0,0.615359
360.0,0.621507
365.0,0.628687
370.0,0.634052
375.0,0.637881
380.0,0.641046
385.0,0.645239
390.0,0.651443
395.0,0.657263
400.0,0.662421
405.0,0.666918
410.0,0.66783
415.0,0.671617
420.0,0.672121
425.0,0.675996
430.0,0.677986
435.0,0.680853
440.0,0.681689
445.0,0.68392
450.0,0.685105
455.0,0.687481
460.0,0.688347
465.0,0.690519
470.0,0.691128
475.0,0.693176
480.0,0.693476
485.0,0.695408
490.0,0.696064
495.0,0.69743
500.0,0.698055
505.0,0.699905
510.0,0.700107
515.0,0.70213
520.0,0.70199
525.0,0.703463
530.0,0.703339
535.0,0.705071
540.0,0.705249
545.0,0.706199
550.0,0.706051
555.0,0.706947
560.0,0.707543
565.0,0.708584
570.0,0.708544
575.0,0.710215
580.0,0.709879
585.0,0.711132
590.0,0.711418
595.0,0.712015
600.0,0.712626
605.0,0.713204
610.0,0.712761
615.0,0.714537
620.0,0.714078
625.0,0.714427
630.0,0.714585
635.0,0.715262
640.0,0.715433
645.0,0.716227
650.0,0.716343
655.0,0.716487
660.0,0.717378
665.0,0.71716
670.0,0.718168
675.0,0.718732
680.0,0.718657
685.0,0.719906
690.0,0.719923
695.0,0.720634
700.0,0.720764
705.0,0.720946
710.0,0.721739
715.0,0.722387
720.0,0.722298
725.0,0.722209
730.0,0.724228
735.0,0.721912
740.0,0.724295
745.0,0.723199
750.0,0.724463
755.0,0.724283
760.0,0.724859
765.0,0.724873
770.0,0.725917
775.0,0.725986
780.0,0.725801
785.0,0.726403
790.0,0.726928
795.0,0.727278
800.0,0.727082
805.0,0.727369
810.0,0.727677
815.0,0.728317
820.0,0.727936
825.0,0.728456
830.0,0.728284
835.0,0.728907
840.0,0.728572
845.0,0.729323
850.0,0.728616
855.0,0.729144
860.0,0.728481
865.0,0.729172
870.0,0.728767
875.0,0.728762
880.0,0.728807
885.0,0.729169
890.0,0.729107
895.0,0.730808
900.0,0.730656
905.0,0.730327
910.0,0.729644
915.0,0.728099
920.0,0.726848
925.0,0.726072
930.0,0.725821
935.0,0.725789
940.0,0.726207
945.0,0.72611
950.0,0.725996
955.0,0.725311
960.0,0.724835
965.0,0.723824
970.0,0.723556
975.0,0.723166
980.0,0.723026
985.0,0.722834
990.0,0.723112
995.0,0.722889
1000.0,0.722607
1005.0,0.722626
1010.0,0.722451
1015.0,0.721928
1020.0,0.720902
1025.0,0.719897
1030.0,0.718467
1035.0,0.717341
1040.0,0.716181
1045.0,0.71537
1050.0,0.71494
1055.0,0.715431
1060.0,0.715961
1065.0,0.716309
1070.0,0.716631
1075.0,0.716281
1080.0,0.715067
1085.0,0.713827
1090.0,0.713343
1095.0,0.713001
1100.0,0.713151
1105.0,0.71374
1110.0,0.713856
1115.0,0.712937
1120.0,0.711877
1125.0,0.710872
1130.0,0.709532
1135.0,0.708618
1140.0,0.70846
1145.0,0.708059
1150.0,0.707199
1155.0,0.706517
1160.0,0.705956
1165.0,0.705304
1170.0,0.705076
1175.0,0.705295
1180.0,0.705618
1185.0,0.705655
1190.0,0.705656
1195.0,0.705482
1200.0,0.70521
1205.0,0.706245
1210.0,0.706067
1215.0,0.705827
1220.0,0.705453
1225.0,0.704499
1230.0,0.704312
1235.0,0.703168
1240.0,0.703379
1245.0,0.702734
1250.0,0.702821
1255.0,0.702942
1260.0,0.703416
1265.0,0.70327
1270.0,0.703456
1275.0,0.702535
1280.0,0.702036
1285.0,0.702063
1290.0,0.70161
1295.0,0.701412
1300.0,0.701539
1305.0,0.700629
1310.0,0.70062
1315.0,0.700207
1320.0,0.699805
1325.0,0.700372
1330.0,0.701271
1335.0,0.700411
1340.0,0.701692
1345.0,0.701759
1350.0,0.700591
1355.0,0.700545
1360.0,0.700902
1365.0,0.700278
1370.0,0.699748
1375.0,0.699736
1380.0,0.699268
1385.0,0.699053
1390.0,0.699509
1395.0,0.699716
1400.0,0.699732
1405.0,0.699473
1410.0,0.700489
1415.0,0.699937
1420.0,0.700041
1425.0,0.69962
1430.0,0.700078
1435.0,0.700095
1440.0,0.700119
1445.0,0.700335
1450.0,0.70117
1455.0,0.702048
1460.0,0.702757
1465.0,0.703192
1470.0,0.703692
1475.0,0.70421
1480.0,0.704243
1485.0,0.704405
1490.0,0.70556
1495.0,0.705777
1500.0,0.705809
1505.0,0.706016
1510.0,0.706862
1515.0,0.706438
1520.0,0.706958
1525.0,0.707207
1530.0,0.707254
1535.0,0.707486
1540.0,0.707807
1545.0,0.707529
1550.0,0.708569
1555.0,0.708759
1560.0,0.708555
1565.0,0.709405
1570.0,0.710038
1575.0,0.709736
1580.0,0.709744
1585.0,0.710354
1590.0,0.709951
1595.0,0.709625
1600.0,0.710192
1605.0,0.711141
1610.0,0.710557
1615.0,0.710763
1620.0,0.711706
1625.0,0.711597
1630.0,0.711015
1635.0,0.711604
1640.0,0.712375
1645.0,0.712495
1650.0,0.711708
1655.0,0.712857
1660.0,0.713653
1665.0,0.714048
1670.0,0.713301
1675.0,0.714151
1680.0,0.713751
1685.0,0.713574
1690.0,0.713629
1695.0,0.713864
1700.0,0.714146
1705.0,0.714242
1710.0,0.714037
1715.0,0.713992
1720.0,0.714653
1725.0,0.71455
1730.0,0.715031
1735.0,0.715051
1740.0,0.714958
1745.0,0.715047
1750.0,0.715061
1755.0,0.714568
1760.0,0.714699
1765.0,0.714241
1770.0,0.714221
1775.0,0.714242
1780.0,0.714609
1785.0,0.714064
1790.0,0.714754
1795.0,0.715335
1800.0,0.715131
1805.0,0.714614
1810.0,0.714913
1815.0,0.714725
1820.0,0.714135
1825.0,0.714006
1830.0,0.714263
1835.0,0.715142
1840.0,0.713991
1845.0,0.714119
1850.0,0.715485
1855.0,0.715238
1860.0,0.715039
1865.0,0.715662
1870.0,0.715784
1875.0,0.715394
1880.0,0.714494
1885.0,0.713785
1890.0,0.71403
1895.0,0.713393
1900.0,0.71282
1905.0,0.713023
1910.0,0.712847
1915.0,0.712077
1920.0,0.712244
1925.0,0.712028
1930.0,0.711577
1935.0,0.711028
1940.0,0.711908
1945.0,0.711373
1950.0,0.711023
1955.0,0.71189
1960.0,0.712373
1965.0,0.712557
1970.0,0.713256
1975.0,0.714107
1980.0,0.714147
1985.0,0.714118
1990.0,0.714415
1995.0,0.714817
2000.0,0.71384
2005.0,0.714608
2010.0,0.716264
2015.0,0.715675
2020.0,0.715544
2025.0,0.71628
2030.0,0.716449
2035.0,0.715176
2040.0,0.716079
2045.0,0.717189
2050.0,0.71742
2055.0,0.718495
2060.0,0.719422
2065.0,0.720302
2070.0,0.719406
2075.0,0.720201
2080.0,0.719341
2085.0,0.719448
2090.0,0.718673
2095.0,0.718534
2100.0,0.718584
2105.0,0.717929
2110.0,0.717944
2115.0,0.717822
2120.0,0.718626
2125.0,0.71771
2130.0,0.718277
2135.0,0.717767
2140.0,0.717991
2145.0,0.717713
2150.0,0.718581
2155.0,0.71802
2160.0,0.716651
2165.0,0.715206
2170.0,0.714853
2175.0,0.714205
2180.0,0.714496
2185.0,0.715035
2190.0,0.715909
2195.0,0.715883
2200.0,0.714923
2205.0,0.713958
2210.0,0.714861
2215.0,0.714795
2220.0,0.71505
2225.0,0.714598
2230.0,0.714406
2235.0,0.713966
2240.0,0.713895
2245.0,0.713464
2250.0,0.714741
2255.0,0.715997
2260.0,0.716537
2265.0,0.71788
2270.0,0.718507
2275.0,0.719241
2280.0,0.718945
2285.0,0.719995
2290.0,0.719666
2295.0,0.719947
2300.0,0.719971
2305.0,0.720319
2310.0,0.718646
2315.0,0.71803
2320.0,0.717855
2325.0,0.716689
2330.0,0.716232
2335.0,0.716801
2340.0,0.716514
2345.0,0.715733
2350.0,0.716274
2355.0,0.716853
2360.0,0.716635
2365.0,0.717274
2370.0,0.716893
2375.0,0.716601
2380.0,0.717843
2385.0,0.718456
2390.0,0.718273
2395.0,0.719245
2400.0,0.719114
2405.0,0.716302
2410.0,0.715391
2415.0,0.71602
2420.0,0.715225
2425.0,0.715816
2430.0,0.719072
2435.0,0.720498
2440.0,0.719339
2445.0,0.719264
2450.0,0.717928
2455.0,0.716964
2460.0,0.71673
2465.0,0.716619
2470.0,0.717184
2475.0,0.718052
2480.0,0.717199
2485.0,0.715095
2490.0,0.715958
2495.0,0.714517
2500.0,0.712855
2505.0,0.713213
2510.0,0.712184
2515.0,0.709585
2520.0,0.710051
2525.0,0.709881
2530.08,0.711108
2535.03,0.711434
2540.0,0.711254
2544.99,0.71062
2549.99,0.711046
2552.5,0.710605
2553.76,0.710639
2555.02,0.71173
2556.28,0.711283
2557.54,0.710345
2558.8,0.709592
2560.07,0.708716
2561.33,0.707828
2562.6,0.708622
2563.86,0.710558
2565.13,0.711688
2566.4,0.713404
2567.67,0.712924
2568.95,0.709875
2570.22,0.708162
2571.5,0.711155
2572.77,0.711853
2574.05,0.7082
2575.33,0.711354
2576.61,0.71175
2577.89,0.710386
2579.17,0.712985
2580.46,0.712311
2581.74,0.709213
2583.03,0.710118
2584.31,0.709535
2585.6,0.712148
2586.89,0.71351
2588.19,0.710266
2589.48,0.711795
2590.77,0.713042
2592.07,0.71204
2593.36,0.709785
2594.66,0.70424
2595.96,0.705043
2597.26,0.716934
2598.56,0.718426
2599.87,0.714382
2601.17,0.711652
2602.48,0.71047
2603.78,0.710114
2605.09,0.70899
2606.4,0.709437
2607.71,0.713846
2609.03,0.714646
2610.34,0.712214
2611.65,0.71217
2612.97,0.711766
2614.29,0.710495
2615.61,0.710509
2616.93,0.707904
2618.25,0.70954
2619.57,0.714222
2620.9,0.711069
2622.22,0.71283
2623.55,0.715349
2624.88,0.712252
2626.21,0.709062
2627.54,0.708115
2628.87,0.7127
2630.21,0.710955
2631.54,0.708555
2632.88,0.713933
2634.21,0.71368
2635.55,0.712579
2636.89,0.713259
2638.24,0.711759
2639.58,0.711101
2640.92,0.710915
2642.27,0.710452
2643.62,0.711358
2644.97,0.711561
2646.32,0.710484
2647.67,0.711661
2649.02,0.712602
2650.38,0.7113
2651.73,0.709937
2653.09,0.709352
2654.45,0.711737
2655.81,0.712342
2657.17,0.711911
2658.53,0.711649
2659.89,0.709154
2661.26,0.709438
2662.63,0.711374
2664.0,0.710229
2665.36,0.705994
2666.74,0.706655
2668.11,0.711538
2669.48,0.713997
2670.86,0.707372
2672.23,0.710866
2673.61,0.716507
2674.99,0.711414
2676.37,0.706684
2677.76,0.706341
2679.14,0.709734
2680.52,0.709875
2681.91,0.710733
2683.3,0.707512
2684.69,0.704974
2686.08,0.705003
2687.47,0.705239
2688.87,0.705662
2690.26,0.70545
2691.66,0.704197
2693.06,0.701713
2694.46,0.699279
2695.86,0.703042
2697.26,0.706269
2698.66,0.704195
2700.07,0.700459
2701.48,0.697717
2702.89,0.697756
2704.3,0.698676
2705.71,0.696404
2707.12,0.694497
2708.53,0.692364
2709.95,0.689178
2711.37,0.687337
2712.79,0.689677
2714.21,0.689871
2715.63,0.684621
2717.05,0.679512
2718.48,0.675445
2719.9,0.671291
2721.33,0.666433
2722.76,0.668904
2724.19,0.665318
2725.62,0.658498
2727.06,0.659159
2728.49,0.657346
2729.93,0.652028
2731.37,0.64708
2732.81,0.643836
2734.25,0.64038
2735.69,0.637181
2737.14,0.637255
2738.58,0.634842
2740.03,0.629529
2741.48,0.628926
2742.93,0.631355
2744.38,0.630096
2745.83,0.625284
2747.29,0.621057
2748.75,0.618442
2750.2,0.616794
2751.66,0.614358
2753.13,0.611669
2754.59,0.608781
2756.05,0.60521
2757.52,0.608403
2758.99,0.609933
2760.46,0.605834
2761.93,0.602865
2763.4,0.601803
2764.87,0.603878
2766.35,0.604658
2767.82,0.60256
2769.3,0.602856
2770.78,0.603979
2772.26,0.603577
2773.75,0.60453
2775.23,0.60416
2776.72,0.602976
2778.21,0.602414
2779.7,0.60326
2781.19,0.603217
2782.68,0.602979
2784.18,0.603696
2785.67,0.60345
2787.17,0.60113
2788.67,0.601209
2790.17,0.602452
2791.67,0.602064
2793.18,0.601197
2794.68,0.600226
2796.19,0.599063
2797.7,0.598298
2799.21,0.597367
2800.72,0.596086
2802.24,0.5941
2803.75,0.593202
2805.27,0.594366
2806.79,0.595158
2808.31,0.593778
2809.83,0.592079
2811.35,0.591218
2812.88,0.590425
2814.41,0.58917
2815.93,0.588702
2817.46,0.588904
2819.0,0.58819
2820.53,0.586977
2822.07,0.587055
2823.6,0.587347
2825.14,0.586865
2826.68,0.585836
2828.22,0.585063
2829.77,0.585053
2831.31,0.585232
2832.86,0.584046
2834.41,0.583554
2835.96,0.583697
2837.51,0.583747
2839.07,0.583385
2840.62,0.583541
2842.18,0.583263
2843.74,0.582972
2845.3,0.582488
2846.86,0.582438
2848.43,0.58181
2849.99,0.581171
2851.56,0.5812
2853.13,0.580783
2854.7,0.580225
2856.27,0.580238
2857.85,0.579787
2859.42,0.578986
2861.0,0.578108
2862.58,0.577216
2864.16,0.576232
2865.75,0.575444
2867.33,0.574775
2868.92,0.574956
2870.51,0.574776
2872.1,0.574243
2873.69,0.574178
2875.28,0.575068
2876.88,0.57584
2878.48,0.576464
2880.07,0.576965
2881.68,0.578022
2883.28,0.5789
2884.88,0.579469
2886.49,0.580184
2888.1,0.580532
2889.71,0.580712
2891.32,0.581221
2892.93,0.581681
2894.55,0.581499
2896.16,0.581356
2897.78,0.58207
2899.4,0.582426
2901.03,0.582451
2902.65,0.582347
2904.28,0.582188
2905.91,0.581587
2907.53,0.581336
2909.17,0.581451
2910.8,0.581088
2912.44,0.580375
2914.07,0.579961
2915.71,0.579828
2917.35,0.579697
2918.99,0.579072
2920.64,0.578835
2922.29,0.578752
2923.93,0.578658
2925.58,0.578805
2927.24,0.57878
2928.89,0.578423
2930.55,0.578109
2932.2,0.577812
2933.86,0.578023
2935.52,0.578485
2937.19,0.578288
2938.85,0.577751
2940.52,0.577839
2942.19,0.578522
2943.86,0.578983
2945.53,0.57944
2947.21,0.579967
2948.88,0.580322
2950.56,0.580691
2952.24,0.580797
2953.92,0.581307
2955.61,0.581732
2957.29,0.582159
2958.98,0.582952
2960.67,0.58316
2962.36,0.583073
2964.06,0.583555
2965.75,0.584107
2967.45,0.584805
2969.15,0.585219
2970.85,0.585968
2972.55,0.586738
2974.26,0.587521
2975.97,0.587907
2977.68,0.58818
2979.39,0.588717
2981.1,0.589243
2982.82,0.589642
2984.53,0.590648
2986.25,0.591029
2987.97,0.591785
2989.7,0.592483
2991.42,0.593139
2993.15,0.594039
2994.88,0.594858
2996.61,0.594984
2998.34,0.595578
3000.08,0.596066
3001.82,0.596599
3003.55,0.597339
3005.3,0.597944
3007.04,0.598534
3008.78,0.599187
3010.53,0.599887
3012.28,0.600541
3014.03,0.600896
3015.79,0.601402
3017.54,0.601989
3019.3,0.602279
3021.06,0.602456
3022.82,0.602932
3024.58,0.603678
3026.35,0.603947
3028.12,0.604065
3029.89,0.6046
3031.66,0.605269
3033.43,0.60557
3035.21,0.606009
3036.99,0.606607
3038.77,0.60681
3040.55,0.607272
3042.33,0.607663
3044.12,0.607661
3045.91,0.607543
3047.7,0.607864
3049.49,0.608171
3051.29,0.607919
3053.08,0.607595
3054.88,0.607952
3056.68,0.608772
3058.49,0.608921
3060.29,0.608892
3062.1,0.608998
3063.91,0.609034
3065.72,0.609315
3067.54,0.609663
3069.35,0.609973
3071.17,0.610045
3072.99,0.60993
3074.81,0.610152
3076.64,0.610424
3078.46,0.610266
3080.29,0.610471
3082.13,0.610426
3083.96,0.61048
3085.79,0.610494
3087.63,0.610611
3089.47,0.610718
3091.31,0.611053
3093.16,0.611527
3095.01,0.611688
3096.85,0.611471
3098.71,0.611503
3100.56,0.611759
3102.41,0.61157
3104.27,0.611495
3106.13,0.612144
3107.99,0.612183
3109.86,0.612192
3111.73,0.612673
3113.59,0.613018
3115.47,0.613275
3117.34,0.613352
3119.21,0.613291
3121.09,0.613464
3122.97,0.613715
3124.86,0.61373
3126.74,0.614166
3128.63,0.614611
3130.52,0.61468
3132.41,0.614617
3134.3,0.614956
3136.2,0.615406
3138.1,0.615291
3140.0,0.615793
3141.9,0.616252
3143.81,0.616543
3145.71,0.616936
3147.62,0.617109
3149.54,0.617431
3151.45,0.617949
3153.37,0.618605
3155.29,0.619188
3157.21,0.619459
3159.13,0.620019
3161.06,0.620511
3162.99,0.621151
3164.92,0.621495
3166.85,0.621718
3168.79,0.622206
3170.72,0.623161
3172.67,0.623607
3174.61,0.624006
3176.55,0.624666
3178.5,0.625431
3180.45,0.625929
3182.4,0.62645
3184.36,0.62694
3186.32,0.627649
3188.27,0.628311
3190.24,0.629085
3192.2,0.629622
3194.17,0.630245
3196.14,0.630974
3198.11,0.631593
3200.08,0.632123
3202.06,0.632652
3204.04,0.633209
3206.02,0.634067
3208.0,0.635072
3209.99,0.635948
3211.98,0.636383
3213.97,0.636977
3215.96,0.637485
3217.96,0.638301
3219.96,0.638913
3221.96,0.639462
3223.96,0.640055
3225.97,0.640922
3227.98,0.641553
3229.99,0.642056
3232.0,0.64279
3234.02,0.643246
3236.04,0.643676
3238.06,0.644365
3240.08,0.645105
3242.11,0.645623
3244.14,0.646052
3246.17,0.646494
3248.2,0.647216
3250.24,0.647965
3252.28,0.648147
3254.32,0.648155
3256.37,0.648683
3258.41,0.649511
3260.46,0.650301
3262.51,0.650967
3264.57,0.651345
3266.63,0.651936
3268.69,0.652427
3270.75,0.652582
3272.81,0.652958
3274.88,0.653797
3276.95,0.654484
3279.02,0.654916
3281.1,0.65507
3283.18,0.655764
3285.26,0.656175
3287.34,0.656333
3289.43,0.656755
3291.51,0.657335
3293.61,0.657576
3295.7,0.658134
3297.8,0.658557
3299.89,0.659088
3302.0,0.659623
3304.1,0.660267
3306.21,0.660564
3308.32,0.660978
3310.43,0.661384
3312.55,0.661956
3314.66,0.662354
3316.78,0.66266
3318.91,0.663188
3321.03,0.663756
3323.16,0.664439
3325.29,0.665009
3327.43,0.665437
3329.57,0.665755
3331.71,0.666142
3333.85,0.666657
3335.99,0.667014
3338.14,0.667286
3340.29,0.667454
3342.45,0.66795
3344.6,0.668305
3346.76,0.668477
3348.92,0.668811
3351.09,0.669412
3353.26,0.669664
3355.43,0.669732
3357.6,0.669831
3359.78,0.669937
3361.96,0.670217
3364.14,0.670562
3366.32,0.670491
3368.51,0.67036
3370.7,0.670241
3372.89,0.670475
3375.09,0.670672
3377.29,0.671335
3379.49,0.672077
3381.69,0.672742
3383.9,0.673317
3386.11,0.674248
3388.32,0.674896
3390.54,0.675342
3392.76,0.675619
3394.98,0.675945
3397.21,0.675933
3399.43,0.675788
3401.66,0.675702
3403.9,0.675537
3406.13,0.675293
3408.37,0.675391
3410.61,0.67514
3412.86,0.675227
3415.11,0.675838
3417.36,0.676513
3419.61,0.676986
3421.87,0.677953
3424.13,0.679761
3426.39,0.681455
3428.66,0.682514
3430.93,0.683758
3433.2,0.684951
3435.48,0.685929
3437.76,0.686665
3440.04,0.687438
3442.32,0.688277
3444.61,0.689008
3446.9,0.689715
3449.19,0.69034
3451.49,0.691031
3453.79,0.691763
3456.09,0.69235
3458.4,0.693035
3460.7,0.693448
3463.02,0.693984
3465.33,0.694523
3467.65,0.695096
3469.97,0.695452
3472.29,0.695769
3474.62,0.695984
3476.95,0.69636
3479.29,0.696845
3481.62,0.697457
3483.96,0.697959
3486.3,0.698515
3488.65,0.698932
3491.0,0.699261
3493.35,0.699375
3495.71,0.69948
3498.07,0.699683
3500.43,0.700266
3502.79,0.700902
3505.16,0.701817
3507.53,0.703251
3509.91,0.704768
3512.29,0.705915
3514.67,0.706977
3517.05,0.707951
3519.44,0.708734
3521.83,0.709256
3524.22,0.710163
3526.62,0.710954
3529.02,0.711398
3531.43,0.711897
3533.83,0.712649
3536.24,0.713468
3538.66,0.713863
3541.08,0.714025
3543.5,0.714776
3545.92,0.715497
3548.35,0.716118
3550.78,0.716489
3553.21,0.716848
3555.65,0.717413
3558.09,0.718105
3560.53,0.718416
3562.98,0.718896
3565.43,0.719486
3567.88,0.719929
3570.34,0.720209
3572.8,0.720806
3575.27,0.721224
3577.73,0.721562
3580.2,0.722123
3582.68,0.7226
3585.16,0.723053
3587.64,0.72362
3590.12,0.723922
3592.61,0.724363
3595.1,0.724812
3597.6,0.725202
3600.09,0.725478
3602.6,0.725952
3605.1,0.726436
3607.61,0.726839
3610.12,0.727235
3612.64,0.72747
3615.16,0.727813
3617.68,0.728061
3620.21,0.728465
3622.74,0.729241
3625.27,0.729695
3627.81,0.730024
3630.35,0.730234
3632.89,0.730435
3635.44,0.730828
3637.99,0.731284
3640.54,0.731685
3643.1,0.732214
3645.66,0.732493
3648.23,0.73268
3650.8,0.733194
3653.37,0.733571
3655.95,0.733915
3658.53,0.734379
3661.11,0.734744
3663.7,0.734941
3666.29,0.735198
3668.89,0.735698
3671.48,0.735891
3674.09,0.73619
3676.69,0.736614
3679.3,0.737175
3681.91,0.737616
3684.53,0.737769
3687.15,0.737934
3689.78,0.738389
3692.4,0.738668
3695.04,0.739084
3697.67,0.739314
3700.31,0.739656
3702.95,0.739995
3705.6,0.740423
3708.25,0.740656
3710.91,0.740862
3713.56,0.741037
3716.23,0.741483
3718.89,0.741754
3721.56,0.741985
3724.23,0.742438
3726.91,0.74298
3729.59,0.743285
3732.28,0.743449
3734.97,0.743576
3737.66,0.743862
3740.36,0.744094
3743.06,0.744449
3745.76,0.744806
3748.47,0.74517
3751.18,0.745542
3753.9,0.745871
3756.62,0.74613
3759.34,0.746356
3762.07,0.746606
3764.8,0.747102
3767.54,0.747425
3770.28,0.747535
3773.02,0.74783
3775.77,0.748154
3778.52,0.748393
3781.28,0.748681
3784.04,0.748863
3786.8,0.749094
3789.57,0.749224
3792.34,0.749443
3795.12,0.749747
3797.9,0.750086
3800.69,0.750314
3803.47,0.750627
3806.27,0.750685
3809.06,0.750828
3811.86,0.751104
3814.67,0.751343
3817.48,0.751598
3820.29,0.751972
3823.11,0.752172
3825.93,0.752141
3828.76,0.752237
3831.59,0.752448
3834.42,0.752672
3837.26,0.752903
3840.1,0.752651
3842.95,0.752912
3845.8,0.753309
3848.65,0.753396
3851.51,0.753492
3854.38,0.753783
3857.24,0.753936
3860.12,0.753904
3862.99,0.753903
3865.87,0.754074
3868.76,0.754046
3871.65,0.754336
3874.54,0.754481
3877.44,0.754513
3880.34,0.754465
3883.25,0.754718
3886.16,0.75483
3889.07,0.754932
3891.99,0.754813
3894.92,0.754797
3897.85,0.754949
3900.78,0.755178
3903.72,0.755109
3906.66,0.755109
3909.6,0.755247
3912.55,0.755391
3915.51,0.755182
3918.47,0.755028
3921.43,0.755032
3924.4,0.755267
3927.37,0.755281
3930.35,0.755267
3933.33,0.75531
3936.32,0.7554
3939.31,0.755114
3942.31,0.755281
3945.31,0.75544
3948.31,0.755436
3951.32,0.755461
3954.34,0.755571
3957.35,0.755383
3960.38,0.755327
3963.41,0.755437
3966.44,0.75548
3969.48,0.755412
3972.52,0.755276
3975.56,0.755075
3978.61,0.755297
3981.67,0.755534
3984.73,0.755601
3987.8,0.755678
3990.87,0.755736
3993.94,0.755805
3997.02,0.755977
4000.1,0.755842
4003.19,0.755818
4006.29,0.755786
4009.39,0.756018
4012.49,0.756051
4015.6,0.756199
4018.71,0.756217
4021.83,0.756117
4024.95,0.755958
4028.08,0.755981
4031.21,0.755944
4034.35,0.756051
4037.49,0.75597
4040.64,0.755893
4043.79,0.755989
4046.94,0.756117
4050.11,0.756064
4053.27,0.755938
4056.44,0.755887
4059.62,0.755949
4062.8,0.755796
4065.99,0.755736
4069.18,0.755724
4072.38,0.755555
4075.58,0.755408
4078.78,0.755439
4082.0,0.75533
4085.21,0.755364
4088.43,0.755222
4091.66,0.755249
4094.89,0.755015
4098.13,0.754956
4101.37,0.754928
4104.62,0.754855
4107.87,0.754603
4111.13,0.754399
4114.39,0.754206
4117.66,0.754288
4120.93,0.754193
4124.21,0.753851
4127.5,0.753718
4130.78,0.753566
4134.08,0.753468
4137.38,0.753534
4140.68,0.753353
4143.99,0.753242
4147.31,0.753
4150.63,0.752969
4153.95,0.752721
4157.29,0.752619
4160.62,0.752617
4163.96,0.7526
4167.31,0.752235
4170.66,0.752112
4174.02,0.752128
4177.39,0.752127
4180.75,0.751868
4184.13,0.75166
4187.51,0.751353
4190.89,0.751286
4194.28,0.751048
4197.68,0.75061
4201.08,0.750201
4204.49,0.749922
4207.9,0.749531
4211.32,0.749438
4214.74,0.749266
4218.17,0.748924
4221.61,0.748683
4225.05,0.74872
4228.5,0.748465
4231.95,0.748365
4235.4,0.748234
4238.87,0.748085
4242.34,0.747936
4245.81,0.747885
4249.29,0.747461
4252.78,0.747084
4256.27,0.746535
4259.77,0.745349
4263.27,0.743915
4266.78,0.743371
4270.29,0.743149
4273.81,0.742714
4277.34,0.742215
4280.87,0.74196
4284.41,0.741659
4287.95,0.741099
4291.5,0.740386
4295.06,0.739925
4298.62,0.739195
4302.19,0.738549
4305.76,0.737891
4309.34,0.737257
4312.92,0.736708
4316.52,0.736061
4320.11,0.735212
4323.72,0.734395
4327.32,0.733547
4330.94,0.732792
4334.56,0.731961
4338.19,0.731226
4341.82,0.730359
4345.46,0.729644
4349.11,0.728807
4352.76,0.728093
4356.42,0.727288
4360.08,0.726452
4363.75,0.725685
4367.43,0.724998
4371.11,0.724198
4374.8,0.723391
4378.49,0.722651
4382.19,0.721754
4385.9,0.720866
4389.61,0.72022
4393.33,0.719307
4397.06,0.718483
4400.79,0.717676
4404.53,0.717001
4408.28,0.716147
4412.03,0.715347
4415.79,0.714461
4419.55,0.713677
4423.32,0.712822
4427.1,0.711996
4430.88,0.711107
4434.67,0.71027
4438.47,0.709349
4442.27,0.708607
4446.08,0.707801
4449.9,0.706794
4453.72,0.705866
4457.55,0.705204
4461.39,0.704486
4465.23,0.703672
4469.08,0.702661
4472.94,0.701751
4476.8,0.70095
4480.67,0.700125
4484.55,0.699265
4488.43,0.69852
4492.32,0.6977
4496.21,0.696714
4500.12,0.695677
4504.03,0.694927
4507.94,0.694096
4511.87,0.693272
4515.8,0.692333
4519.73,0.691393
4523.68,0.690405
4527.63,0.6894
4531.59,0.68841
4535.55,0.687392
4539.52,0.686222
4543.5,0.68523
4547.49,0.684144
4551.48,0.683127
4555.48,0.682061
4559.49,0.681027
4563.5,0.679746
4567.52,0.678506
4571.55,0.67728
4575.58,0.676239
4579.62,0.675165
4583.67,0.673973
4587.73,0.672606
4591.79,0.671493
4595.86,0.670298
4599.94,0.669141
4604.03,0.667793
4608.12,0.666647
4612.22,0.665462
4616.33,0.664358
4620.44,0.663164
4624.56,0.661927
4628.69,0.660778
4632.83,0.659704
4636.97,0.658493
4641.12,0.657327
4645.28,0.656117
4649.45,0.655154
4653.62,0.654104
4657.8,0.652911
4661.99,0.651902
4666.19,0.65097
4670.39,0.649884
4674.6,0.648803
4678.82,0.647744
4683.05,0.646856
4687.28,0.646039
4691.52,0.644933
4695.77,0.643885
4700.03,0.642876
4704.3,0.641769
4708.57,0.640867
4712.85,0.640014
4717.14,0.63913
4721.43,0.638313
4725.74,0.63756
4730.05,0.63663
4734.37,0.635921
4738.7,0.635045
4743.03,0.634238
4747.38,0.633308
4751.73,0.632565
4756.09,0.631939
4760.45,0.63122
4764.83,0.630339
4769.21,0.629645
4773.6,0.628885
4778.0,0.628206
4782.41,0.627554
4786.83,0.627021
4791.25,0.62635
4795.68,0.625584
4800.13,0.624906
4804.57,0.624341
4809.03,0.623647
4813.5,0.622992
4817.97,0.622399
4822.45,0.621922
4826.94,0.621242
4831.44,0.620401
4835.95,0.619699
4840.46,0.619014
4844.99,0.618179
4849.52,0.617612
4854.06,0.616932
4858.61,0.616304
4863.17,0.615605
4867.73,0.61496
4872.31,0.614282
4876.89,0.613632
4881.48,0.61291
4886.08,0.612205
4890.69,0.611431
4895.31,0.610847
4899.94,0.610185
4904.57,0.609536
4909.22,0.608702
4913.87,0.607885
4918.53,0.607088
4923.21,0.60658
4927.88,0.605776
4932.57,0.60493
4937.27,0.604098
4941.98,0.603307
4946.69,0.602481
4951.42,0.601665
4956.15,0.60057
4960.89,0.599523
4965.65,0.598727
4970.41,0.597764
4975.18,0.596763
4979.96,0.595765
4984.75,0.594563
4989.54,0.593394
4994.35,0.592147
4999.17,0.590946
5003.99,0.589769
5008.83,0.588563
5013.67,0.587104
5018.52,0.585486
5023.39,0.583961
5028.26,0.582582
5033.14,0.580752
5038.03,0.579138
5042.93,0.577144
5047.84,0.575234
5052.76,0.573409
5057.69,0.571577
5062.63,0.569486
5067.58,0.567357
5072.54,0.565214
5077.51,0.56312
5082.49,0.560872
5087.47,0.558806
5092.47,0.556878
5097.48,0.554583
5102.5,0.552166
5107.52,0.549852
5112.56,0.547909
5117.61,0.545895
5122.66,0.543622
5127.73,0.54143
5132.81,0.539388
5137.89,0.537318
5142.99,0.535213
5148.1,0.532982
5153.22,0.531111
5158.34,0.529297
5163.48,0.52682
5168.63,0.524804
5173.79,0.522814
5178.96,0.520826
5184.13,0.518749
5189.32,0.516772
5194.52,0.514809
5199.73,0.512954
5204.95,0.511342
5210.19,0.509589
5215.43,0.507297
5220.68,0.5065
5225.94,0.504987
5231.22,0.502923
5236.5,0.501244
5241.79,0.499838
5247.1,0.4986
5252.42,0.497071
5257.74,0.495639
5263.08,0.494264
5268.43,0.493015
5273.79,0.491824
5279.16,0.490576
5284.54,0.489625
5289.93,0.488166
5295.34,0.486799
5300.75,0.486164
5306.18,0.484964
5311.61,0.483614
5317.06,0.482396
5322.52,0.481106
5327.99,0.479991
5333.47,0.478764
5338.96,0.477537
5344.47,0.476252
5349.98,0.474729
5355.51,0.474024
5361.05,0.473449
5366.6,0.471696
5372.16,0.470105
5377.73,0.468527
5383.32,0.467076
5388.91,0.4657
5394.52,0.464376
5400.14,0.462799
5405.77,0.461405
5411.41,0.459716
5417.07,0.458174
5422.74,0.456292
5428.41,0.45595
5434.1,0.455204
5439.81,0.452565
5445.52,0.450773
5451.25,0.449526
5456.98,0.448055
5462.73,0.446112
5468.5,0.444714
5474.27,0.444126
5480.06,0.442163
5485.86,0.44113
5491.67,0.440061
5497.49,0.438234
5503.33,0.436879
5509.18,0.435775
5515.04,0.434587
5520.91,0.433066
5526.8,0.432014
5532.69,0.431149
5538.61,0.429994
5544.53,0.428599
5550.47,0.427116
5556.41,0.425946
5562.38,0.425369
5568.35,0.424155
5574.34,0.422548
5580.34,0.420805
5586.35,0.420725
5592.38,0.42022
5598.42,0.418456
5604.47,0.416918
5610.54,0.416133
5616.61,0.41498
5622.71,0.413987
5628.81,0.412875
5634.93,0.411614
5641.06,0.410255
5647.21,0.409972
5653.36,0.410356
5659.54,0.408596
5665.72,0.408009
5671.92,0.40671
5678.13,0.40537
5684.36,0.405439
5690.6,0.404628
5696.85,0.40372
5703.12,0.403582
5709.4,0.401937
5715.69,0.401634
5722.0,0.402252
5728.33,0.401764
5734.66,0.400934
5741.01,0.400154
5747.38,0.399345
5753.76,0.398846
5760.15,0.398398
5766.56,0.395647
5772.98,0.395849
5779.41,0.396145
5785.86,0.393709
5792.33,0.392134
5798.81,0.39052
5805.3,0.389125
5811.81,0.387955
5818.33,0.386014
5824.87,0.384607
5831.42,0.385224
5837.99,0.383901
5844.57,0.38186
5851.17,0.379681
5857.78,0.3779
5864.41,0.376283
5871.05,0.375292
5877.7,0.373269
5884.38,0.370874
5891.06,0.372007
5897.76,0.369285
5904.48,0.368232
5911.21,0.367153
5917.96,0.364373
5924.73,0.362932
5931.5,0.361413
5938.3,0.359251
5945.11,0.360101
5951.93,0.359505
5958.78,0.35678
5965.63,0.355061
5972.51,0.353406
5979.39,0.353462
5986.3,0.351727
5993.22,0.350491
6000.16,0.35028
6007.11,0.348989
6014.08,0.347124
6021.06,0.346779
6028.06,0.346308
6035.08,0.345188
6042.12,0.343966
6049.17,0.342445
6056.23,0.344278
6063.32,0.345218
6070.42,0.341952
6077.53,0.341161
6084.67,0.342035
6091.82,0.341231
6098.98,0.340047
6106.17,0.33964
6113.37,0.33874
6120.58,0.339585
6127.82,0.340111
6135.07,0.338636
6142.34,0.337655
6149.63,0.337869
6156.93,0.337639
6164.25,0.337173
6171.59,0.337565
6178.94,0.336631
6186.32,0.335414
6193.71,0.336095
6201.12,0.336045
6208.54,0.334626
6215.99,0.333954
6223.45,0.333504
6230.93,0.333118
6238.43,0.332474
6245.95,0.332032
6253.48,0.33179
6261.03,0.331429
6268.6,0.330813
6276.19,0.330473
6283.8,0.330235
6291.43,0.330047
6299.07,0.329969
6306.73,0.32987
6314.42,0.329624
6322.12,0.329607
6329.83,0.329691
6337.57,0.329748
6345.33,0.329414
6353.11,0.330774
6360.9,0.331444
6368.72,0.330595
6376.55,0.330847
6384.4,0.331781
6392.27,0.33135
6400.17,0.331474
6408.08,0.331102
6416.01,0.330595
6423.96,0.333689
6431.93,0.333962
6439.92,0.332657
6447.93,0.332543
6455.96,0.332045
6464.01,0.332182
6472.08,0.331556
6480.17,0.331319
6488.28,0.331061
6496.41,0.330965
6504.56,0.332067
6512.73,0.331395
6520.92,0.329427
6529.14,0.329412
6537.37,0.329187
6545.63,0.328132
6553.9,0.327532
6562.2,0.327189
6570.51,0.32627
6578.85,0.32588
6587.21,0.325922
6595.59,0.324423
6603.99,0.323924
6612.42,0.322879
6620.86,0.321688
6629.33,0.320789
6637.82,0.319981
6646.33,0.320699
6654.86,0.320286
6663.41,0.318348
6671.99,0.317133
6680.59,0.316509
6689.21,0.316181
6697.85,0.315984
6706.51,0.314748
6715.2,0.31416
6723.91,0.314178
6732.64,0.31351
6741.4,0.312613
6750.18,0.311638
6758.98,0.310956
6767.8,0.31017
6776.65,0.309201
6785.52,0.308479
6794.41,0.307745
6803.33,0.307485
6812.27,0.306238
6821.23,0.304853
6830.22,0.304033
6839.23,0.303512
6848.26,0.302281
6857.32,0.300982
6866.4,0.300145
6875.51,0.30017
6884.64,0.298751
6893.8,0.296999
6902.98,0.295685
6912.18,0.294387
6921.41,0.293487
6930.66,0.292228
6939.94,0.290915
6949.24,0.2894
6958.57,0.287833
6967.92,0.286807
6977.3,0.285714
6986.7,0.28385
6996.13,0.282388
7005.59,0.280797
7015.07,0.279363
7024.57,0.277738
7034.1,0.276401
7043.66,0.27483
7053.24,0.273637
7062.85,0.272243
7072.49,0.270418
7082.15,0.268648
7091.84,0.266971
7101.55,0.265242
7111.3,0.263539
7121.06,0.261751
7130.86,0.259937
7140.68,0.258017
7150.53,0.256041
7160.41,0.254162
7170.31,0.252215
7180.24,0.25007
7190.2,0.247823
7200.19,0.245578
7210.2,0.243401
7220.24,0.241096
7230.31,0.238587
7240.41,0.235983
7250.54,0.233539
7260.69,0.230974
7270.88,0.228391
7281.09,0.225718
7291.33,0.223125
7301.6,0.220239
7311.9,0.217556
7322.22,0.214732
7332.58,0.211993
7342.97,0.209074
7353.38,0.20605
7363.83,0.202925
7374.3,0.200057
7384.81,0.196872
7395.34,0.193793
7405.91,0.190592
7416.5,0.187429
7427.13,0.184158
7437.78,0.180926
7448.47,0.177529
7459.19,0.17422
7469.94,0.170791
7480.71,0.167216
7491.52,0.163494
7502.37,0.159971
7513.24,0.15623
7524.14,0.152402
7535.08,0.148483
7546.05,0.14454
7557.05,0.140313
7568.08,0.136306
7579.14,0.132246
7590.24,0.128284
7601.37,0.124059
7612.53,0.119771
7623.73,0.115372
7634.96,0.111131
7646.22,0.106876
7657.51,0.102736
7668.84,0.0984
7680.2,0.094158
7691.59,0.089943
7703.02,0.085815
7714.49,0.081595
7725.98,0.077475
7737.51,0.07332
7749.08,0.069421
7760.68,0.065306
7772.32,0.061463
7783.99,0.057667
7795.69,0.054079
7807.43,0.05035
7819.21,0.046937
7831.02,0.043749
7842.87,0.040817
7854.75,0.037826
7866.67,0.035344
7878.62,0.032912
7890.62,0.030897
7902.64,0.029037
7914.71,0.027551
7926.81,0.026265
7938.95,0.025392
7951.13,0.024798
7963.34,0.024662
7975.59,0.024765
7987.88,0.025544
8000.21,0.026823
8012.57,0.028839
8024.98,0.03119
8037.42,0.034314
8049.9,0.038102
8062.42,0.042616
8074.98,0.047699
8087.57,0.053581
8100.21,0.060029
8112.89,0.067291
8125.6,0.075081
8138.36,0.083403
8151.16,0.092088
8163.99,0.101387
8176.87,0.110813
8189.79,0.12025
8202.75,0.129491
8215.74,0.138462
8228.79,0.146777
8241.87,0.154359
8254.99,0.160915
8268.16,0.166088
8281.37,0.169758
8294.62,0.172173
8307.91,0.172993
8321.24,0.172511
8334.62,0.171095
8348.04,0.168977
8361.51,0.166003
8375.02,0.162722
8388.57,0.15919
8402.16,0.155561
8415.8,0.15194
8429.49,0.148574
8443.22,0.145401
8456.99,0.142544
8470.81,0.139932
8484.67,0.137655
8498.58,0.135555
8512.54,0.133554
8526.54,0.13156
8540.58,0.129989
8554.68,0.12845
8568.82,0.126845
8583.0,0.125174
8597.24,0.123654
8611.52,0.122289
8625.85,0.12108
8640.22,0.119742
8654.65,0.118562
8669.12,0.117259
8683.64,0.116138
8698.21,0.114884
8712.83,0.113458
8727.5,0.112042
8742.22,0.110788
8756.98,0.109649
8771.8,0.108448
8786.67,0.107047
8801.59,0.105798
8816.56,0.104553
8831.58,0.103103
8846.65,0.101656
8861.77,0.100666
8876.94,0.09934
8892.17,0.098094
8907.45,0.097035
8922.78,0.095746
8938.16,0.09449
8953.6,0.0936
8969.09,0.092658
8984.64,0.091553
9000.23,0.090432
9015.89,0.089696
9031.59,0.088759
9047.36,0.087852
9063.17,0.086724
9079.04,0.085822
9094.97,0.084913
9110.96,0.084147
9127.0,0.083163
9143.09,0.082213
9159.25,0.081308
9175.46,0.080752
9191.73,0.080051
9208.05,0.07935
9224.44,0.078835
9240.88,0.078497
9257.38,0.078154
9273.94,0.078147
9290.56,0.07824
9307.24,0.078632
9323.98,0.078995
9340.78,0.079694
9357.64,0.080502
9374.57,0.081221
9391.55,0.081997
9408.59,0.083058
9425.7,0.083957
9442.87,0.084833
9460.1,0.085548
9477.39,0.086372
9494.75,0.087332
9512.17,0.088505
9529.66,0.089521
9547.21,0.090525
9564.82,0.091435
9582.5,0.092305
9600.25,0.093273
9618.06,0.094067
9635.94,0.094543
9653.88,0.095294
9671.89,0.095783
9689.97,0.096041
9708.12,0.096401
9726.33,0.09675
9744.61,0.09691
9762.97,0.097088
9781.39,0.097278
9799.88,0.097566
9818.44,0.0978
9837.07,0.098029
9855.77,0.098286
9874.54,0.098712
9893.39,0.09913
9912.3,0.099251
9931.29,0.099077
9950.35,0.099053
9969.49,0.098983
9988.7,0.098702
10007.98,0.098201
10027.34,0.097733
10046.77,0.097129
10066.28,0.096758
10085.87,0.096307
10105.53,0.095764
10125.26,0.094994
10145.08,0.094138
10164.97,0.093503
10184.94,0.093169
10204.99,0.09276
10225.12,0.092353
10245.33,0.092152
10265.61,0.092172
10285.98,0.091939
10306.43,0.091963
10326.96,0.092189
10347.57,0.092366
10368.27,0.092496
10389.05,0.092851
10409.91,0.09328
10430.85,0.093883
10451.88,0.094383
10473.0,0.094626
10494.2,0.094747
10515.49,0.094919
10536.86,0.095142
10558.32,0.095707
10579.87,0.095858
10601.5,0.09559
10623.23,0.095314
10645.04,0.095363
10666.94,0.095299
10688.94,0.095306
10711.02,0.095598
10733.2,0.096018
10755.47,0.096078
10777.83,0.09629
10800.28,0.096368
10822.83,0.096642
10845.47,0.097028
10868.21,0.0974
10891.04,0.097618
10913.97,0.09793
10936.99,0.098196
10960.12,0.098619
10983.34,0.099052
11006.66,0.099627
11030.07,0.100288
11053.59,0.101133
11077.21,0.102115
11100.93,0.103572
11124.75,0.104981
11148.68,0.106585
11172.7,0.108686
11196.84,0.111165
11221.07,0.113802
11245.41,0.116797
11269.86,0.119889
11294.41,0.123388
11319.07,0.126812
11343.84,0.130013
11368.72,0.132981
11393.7,0.135626
11418.8,0.137898
11444.01,0.140013
11469.33,0.141769
11494.76,0.143147
11520.3,0.144125
11545.96,0.145191
11571.73,0.146191
11597.62,0.147025
11623.62,0.148024
11649.74,0.149282
11675.98,0.150637
11702.34,0.151914
11728.81,0.153065
11755.41,0.154596
11782.13,0.156035
11808.96,0.157627
11835.92,0.159315
11863.01,0.161256
11890.22,0.1629
11917.55,0.164399
11945.01,0.165979
11972.6,0.167609
12000.31,0.16898
12028.16,0.170098
12056.13,0.171207
12084.23,0.172219
12112.46,0.172573
12140.83,0.172456
12169.33,0.171488
12197.96,0.169631
12226.73,0.166771
12255.64,0.162482
12284.68,0.157401
12313.86,0.151828
12343.18,0.145379
12372.64,0.138741
12402.24,0.131989
12431.98,0.125242
12461.86,0.118869
12491.89,0.112991
12522.06,0.107315
12552.38,0.102346
12582.85,0.097758
12613.47,0.093593
12644.23,0.089709
12675.15,0.085871
12706.21,0.082735
12737.43,0.0803
12768.8,0.077963
12800.33,0.076257
12832.02,0.074807
12863.86,0.073308
12895.86,0.072042
12928.02,0.071233
12960.34,0.070722
12992.82,0.070051
13025.46,0.069385
13058.27,0.068774
13091.25,0.068036
13124.39,0.067381
13157.7,0.066872
13191.18,0.06672
13224.83,0.066905
13258.66,0.067188
13292.65,0.066917
13326.83,0.06715
13361.17,0.067687
13395.7,0.068501
13430.4,0.069165
13465.29,0.069665
13500.35,0.070091
13535.6,0.070483
13571.03,0.070811
13606.65,0.070711
13642.46,0.070619
13678.46,0.070504
13714.64,0.070375
13751.02,0.070361
13787.59,0.070492
13824.36,0.070468
13861.32,0.070345
13898.48,0.07046
13935.85,0.070492
13973.41,0.07045
14011.17,0.070293
14049.15,0.070308
14087.32,0.070108
14125.71,0.069751
14164.3,0.069192
14203.11,0.068507
14242.13,0.068023
14281.36,0.067363
14320.81,0.066549
14360.48,0.065996
14400.38,0.064971
14440.49,0.063952
14480.82,0.063013
14521.39,0.06205
14562.18,0.061107
14603.2,0.060479
14644.45,0.059926
14685.93,0.059717
14727.66,0.05936
14769.62,0.05918
14811.81,0.059287
14854.25,0.05941
14896.94,0.05948
14939.87,0.059471
14983.05,0.059231
15026.48,0.059433
15070.16,0.059433
15114.1,0.059942
15158.29,0.061451
15202.74,0.063821
15247.46,0.066836
15292.43,0.070157
15337.68,0.073968
15383.19,0.077824
15428.97,0.081189
15475.03,0.083968
15521.36,0.085986
15567.97,0.08752
15614.86,0.088242
15662.04,0.088495
15709.5,0.088433
15757.25,0.088644
15805.29,0.088759
15853.62,0.08863
15902.25,0.088849
15951.18,0.088976
16000.42,0.088673
16049.95,0.088349
16099.8,0.087826
16149.95,0.087849
16200.42,0.088611
16251.21,0.090541
16302.31,0.092794
16353.74,0.095683
16405.49,0.098581
16457.57,0.100919
16509.98,0.102675
16562.73,0.103793
16615.82,0.104227
16669.24,0.104489
16723.02,0.104335
16777.13,0.104067
16831.61,0.103601
16886.43,0.103321
16941.62,0.103634
16997.16,0.103691
17053.07,0.103724
17109.36,0.103923
17166.01,0.104047
17223.04,0.10413
17280.45,0.104329
17338.24,0.104715
17396.43,0.1041
17455.0,0.103388
17513.97,0.102751
17573.34,0.102121
17633.11,0.101303
17693.29,0.100672
17753.89,0.099559
17814.9,0.098681
17876.33,0.097943
17938.18,0.097818
18000.47,0.097662
18063.19,0.098045
18126.35,0.098955
18189.95,0.100591
18254.0,0.102608
18318.5,0.105221
18383.46,0.108213
18448.88,0.110832
18514.77,0.112279
18581.13,0.113732
18647.97,0.114089
18715.29,0.11263
18783.1,0.110949
18851.4,0.109503
18920.2,0.108103
18989.51,0.106886
19059.32,0.106406
19129.65,0.106639
19200.5,0.106361
19271.88,0.105913
19343.79,0.105902
19416.23,0.105847
19489.23,0.105167
19562.77,0.104814
19636.88,0.10405
19711.54,0.103645
19786.77,0.102899
19862.59,0.102432
19938.98,0.102269
20015.96,0.102112
20093.54,0.101115
20171.73,0.099296
20250.53,0.097039
20329.94,0.094427
20409.98,0.091391
20490.65,0.08919
20571.96,0.086802
20653.92,0.084905
20736.54,0.084871
20819.82,0.085134
20903.77,0.084374
20988.4,0.08447
21073.72,0.085018
21159.73,0.085871
21246.46,0.086494
21333.89,0.086548
21422.04,0.086094
21510.93,0.08535
21600.56,0.084956
21690.94,0.084856
21782.08,0.084281
21873.99,0.083867
21966.67,0.082957
22060.15,0.082259
22154.42,0.082752
22249.51,0.083753
22345.41,0.085129
22442.14,0.087073
22539.72,0.088947
22638.14,0.091754
22737.43,0.094937
22837.6,0.09739
22938.65,0.099874
23040.6,0.102473
23143.46,0.103031
23247.24,0.103097
23351.96,0.104647
23457.62,0.106663
23564.25,0.10693
23671.85,0.107263
23780.44,0.108856
23890.02,0.111383
24000.63,0.112011
24112.26,0.112109
24224.93,0.11299
24338.66,0.111894
24453.47,0.11176
24569.36,0.113367
24686.36,0.114274
24804.47,0.115163
24923.72,0.114958
25044.13,0.117934
25165.7,0.119702
25288.46,0.123401
25412.43,0.123351
25537.61,0.123052
25664.03,0.124642
25791.71,0.121754
25920.67,0.118823
