Database of Origin,University of Winnipeg Spectrophotometer Facility
Sample Description,Carbonates and Oxolates - RELAB+Nicolet spectra Newly merged spectra (merged by RELAB)
Other Information,dry seived
Date Added,2018-08-06 20:49:02.558190

Data ID,RLA_CARB_1_25       
Sample ID,CRB203
Mineral Name,Coalingite
Locality,near the Dallas Gem Mine/ San Benito County/ California/ USA
Grain Size,<45 um
Viewing Geometry,30/0/30
Resolution,5/ 0.6-129 nm
Formula,Mg10Fe+32(CO3)(OH)24*2(H2O)
Composition,Bronze coloured coatings on serpentine.

Wavelength
305.0,0.066004
310.0,0.070586
315.0,0.069879
320.0,0.070623
325.0,0.073211
330.0,0.075818
335.0,0.079004
340.0,0.080806
345.0,0.082013
350.0,0.086561
355.0,0.089206
360.0,0.092293
365.0,0.096622
370.0,0.101822
375.0,0.107031
380.0,0.112557
385.0,0.118061
390.0,0.123784
395.0,0.126195
400.0,0.128493
405.0,0.129784
410.0,0.131965
415.0,0.134632
420.0,0.139444
425.0,0.144956
430.0,0.15247
435.0,0.162175
440.0,0.172813
445.0,0.183068
450.0,0.1915
455.0,0.196274
460.0,0.197226
465.0,0.195403
470.0,0.193318
475.0,0.193154
480.0,0.195415
485.0,0.200703
490.0,0.208403
495.0,0.217304
500.0,0.226988
505.0,0.235976
510.0,0.243134
515.0,0.249083
520.0,0.257529
525.0,0.267651
530.0,0.276327
535.0,0.283473
540.0,0.289829
545.0,0.294592
550.0,0.296634
555.0,0.300813
560.0,0.305699
565.0,0.312906
570.0,0.319735
575.0,0.326664
580.0,0.335289
585.0,0.344585
590.0,0.352961
595.0,0.363669
600.0,0.372656
605.0,0.383473
610.0,0.393544
615.0,0.405322
620.0,0.416009
625.0,0.426122
630.0,0.436623
635.0,0.44719
640.0,0.455913
645.0,0.464836
650.0,0.472934
655.0,0.481239
660.0,0.486466
665.0,0.493198
670.0,0.499071
675.0,0.503122
680.0,0.508193
685.0,0.513052
690.0,0.516818
695.0,0.519826
700.0,0.523186
705.0,0.526762
710.0,0.52754
715.0,0.531077
720.0,0.530561
725.0,0.5328
730.0,0.534686
735.0,0.534557
740.0,0.536063
745.0,0.535697
750.0,0.536333
755.0,0.535496
760.0,0.536533
765.0,0.53455
770.0,0.535269
775.0,0.534089
780.0,0.534315
785.0,0.532011
790.0,0.532733
795.0,0.531336
800.0,0.531341
805.0,0.5294
810.0,0.528498
815.0,0.527514
820.0,0.527297
825.0,0.526209
830.0,0.525224
835.0,0.524088
840.0,0.523544
845.0,0.521456
850.0,0.521765
855.0,0.519862
860.0,0.520331
865.0,0.52022
870.0,0.520344
875.0,0.519298
880.0,0.518545
885.0,0.519306
890.0,0.520127
895.0,0.520038
900.0,0.521265
905.0,0.521899
910.0,0.521202
915.0,0.523496
920.0,0.524544
925.0,0.52465
930.0,0.52658
935.0,0.526213
940.0,0.527587
945.0,0.527261
950.0,0.526963
955.0,0.525073
960.0,0.525587
965.0,0.528578
970.0,0.531016
975.0,0.531415
980.0,0.532464
985.0,0.53357
990.0,0.534017
995.0,0.534047
1000.0,0.533669
1005.0,0.53343
1010.0,0.535521
1015.0,0.534996
1020.0,0.536029
1025.0,0.536801
1030.0,0.537902
1035.0,0.536962
1040.0,0.538306
1045.0,0.538573
1050.0,0.540193
1055.0,0.540782
1060.0,0.541754
1065.0,0.542924
1070.0,0.543401
1075.0,0.545151
1080.0,0.546632
1085.0,0.547652
1090.0,0.548154
1095.0,0.550027
1100.0,0.551966
1105.0,0.553297
1110.0,0.55523
1115.0,0.556866
1120.0,0.558938
1125.0,0.560624
1130.0,0.562543
1135.0,0.565313
1140.0,0.566302
1145.0,0.568937
1150.0,0.570535
1155.0,0.572779
1160.0,0.575151
1165.0,0.577237
1170.0,0.579103
1175.0,0.582464
1180.0,0.584261
1185.0,0.586326
1190.0,0.589204
1195.0,0.592327
1200.0,0.594698
1205.0,0.596068
1210.0,0.600359
1215.0,0.602363
1220.0,0.60381
1225.0,0.606588
1230.0,0.609081
1235.0,0.611053
1240.0,0.613185
1245.0,0.615767
1250.0,0.617832
1255.0,0.61972
1260.0,0.621745
1265.0,0.624148
1270.0,0.624899
1275.0,0.626832
1280.0,0.627745
1285.0,0.629042
1290.0,0.629475
1295.0,0.630714
1300.0,0.632012
1305.0,0.633821
1310.0,0.636622
1315.0,0.638571
1320.0,0.640357
1325.0,0.641668
1330.0,0.643499
1335.0,0.645014
1340.0,0.644512
1345.0,0.64429
1350.0,0.645284
1355.0,0.6436
1360.0,0.640218
1365.0,0.621036
1370.0,0.630841
1375.0,0.621515
1380.0,0.613579
1385.0,0.608002
1420.0,0.606857
1425.0,0.609776
1430.0,0.613621
1435.0,0.618332
1440.0,0.622775
1445.0,0.626768
1450.0,0.630623
1455.0,0.634414
1460.0,0.63713
1465.0,0.639505
1470.0,0.641513
1475.0,0.643289
1480.0,0.645277
1485.0,0.646685
1490.0,0.6481
1495.0,0.64963
1500.0,0.651016
1505.0,0.652212
1510.0,0.653105
1515.0,0.654211
1520.0,0.655079
1525.0,0.655711
1530.0,0.656499
1535.0,0.656876
1540.0,0.657484
1545.0,0.657941
1550.0,0.658652
1555.0,0.658981
1560.0,0.659508
1565.0,0.660094
1570.0,0.660472
1575.0,0.660917
1580.0,0.661246
1585.0,0.661546
1590.0,0.661801
1595.0,0.661923
1600.0,0.662036
1605.0,0.66236
1610.0,0.662565
1615.0,0.662576
1620.0,0.662534
1625.0,0.662593
1630.0,0.662534
1635.0,0.662433
1640.0,0.662291
1645.0,0.662323
1650.0,0.662163
1655.0,0.66197
1660.0,0.66159
1665.0,0.661443
1670.0,0.661139
1675.0,0.66067
1680.0,0.660452
1685.0,0.659745
1690.0,0.659117
1695.0,0.658767
1700.0,0.658286
1705.31,0.657786
1709.81,0.657349
1715.46,0.656979
1720.02,0.656563
1724.6,0.65581
1730.35,0.65517
1734.98,0.654718
1739.64,0.654397
1745.5,0.653402
1750.21,0.652924
1754.95,0.652551
1759.72,0.652119
1764.51,0.651746
1770.54,0.651089
1775.39,0.650599
1780.27,0.650356
1785.17,0.649787
1790.1,0.649211
1795.06,0.648663
1800.05,0.648119
1805.06,0.647378
1810.1,0.646653
1815.17,0.645701
1820.27,0.645008
1825.4,0.644146
1830.56,0.643352
1834.44,0.642638
1839.65,0.641346
1844.89,0.640184
1850.16,0.638903
1855.45,0.637228
1859.45,0.63592
1864.8,0.633997
1870.18,0.631569
1875.59,0.628861
1879.67,0.626248
1885.14,0.622008
1890.64,0.616853
1894.79,0.612064
1900.34,0.60427
1904.53,0.597588
1910.15,0.588213
1914.38,0.581778
1920.05,0.575426
1924.33,0.572906
1930.06,0.571275
1934.38,0.571172
1940.17,0.571358
1944.54,0.571927
1950.39,0.572555
1954.8,0.573079
1960.72,0.573664
1965.18,0.573876
1969.66,0.574044
1975.66,0.573975
1980.19,0.574083
1984.74,0.57386
1989.31,0.57343
1995.43,0.572771
2000.05,0.572255
2004.69,0.571689
2009.35,0.571334
2015.6,0.5706
2020.32,0.570502
2025.05,0.570497
2029.81,0.570758
2034.59,0.571079
2039.39,0.571498
2044.22,0.571577
2050.69,0.571929
2055.57,0.572212
2060.47,0.572727
2065.39,0.573133
2070.34,0.573624
2075.31,0.574065
2080.31,0.574375
2085.33,0.574627
2090.38,0.574792
2095.45,0.574374
2100.54,0.574494
2105.66,0.574443
2110.8,0.574416
2114.25,0.57412
2119.43,0.573855
2124.65,0.573698
2129.88,0.573104
2135.15,0.573026
2140.44,0.573112
2145.75,0.573413
2149.31,0.573369
2154.67,0.572776
2160.06,0.571081
2165.47,0.568474
2170.91,0.564644
2174.55,0.561319
2180.04,0.555311
2185.55,0.548631
2189.25,0.543935
2194.81,0.537225
2200.4,0.531253
2204.14,0.527928
2209.78,0.523127
2215.44,0.518777
2219.24,0.515387
2224.95,0.510152
2230.7,0.504401
2234.54,0.500429
2240.33,0.49473
2244.21,0.49114
2250.06,0.485926
2255.93,0.481215
2259.87,0.47841
2265.79,0.473432
2269.76,0.469515
2275.74,0.465407
2279.74,0.462913
2285.77,0.458104
2289.81,0.453767
2295.9,0.446341
2299.97,0.440716
2304.06,0.434896
2310.22,0.426308
2314.35,0.421049
2320.56,0.415008
2324.72,0.412779
2331.0,0.41623
2335.2,0.420501
2339.41,0.425739
2345.76,0.439568
2350.02,0.450255
2354.28,0.458612
2360.72,0.467789
2365.03,0.47168
2369.35,0.473637
2375.86,0.474449
2380.23,0.473961
2384.61,0.472232
2389.0,0.469061
2395.63,0.46146
2400.06,0.454745
2404.52,0.446853
2408.98,0.43704
2415.72,0.415876
2420.23,0.397202
2424.76,0.376008
2429.3,0.355065
2433.87,0.339194
2440.74,0.321364
2445.35,0.308827
2449.97,0.296904
2454.61,0.286668
2459.27,0.277961
2463.94,0.270685
2470.99,0.260017
2475.71,0.250877
2480.45,0.243692
2485.2,0.242439
2489.98,0.246623
2494.77,0.252955
2499.58,0.258588
2504.41,0.266717
2509.26,0.278025
2514.13,0.28939
2519.02,0.296796
2523.92,0.298239
2528.85,0.296389
2533.79,0.296078
2541.24,0.30444
2543.74,0.30854
2548.74,0.31733
2553.76,0.326305
2556.28,0.330974
2558.8,0.335609
2561.33,0.340324
2563.86,0.344999
2566.4,0.35005
2568.95,0.354513
2571.5,0.358711
2574.05,0.362674
2576.61,0.366216
2579.17,0.369281
2581.74,0.37179
2584.31,0.373318
2586.89,0.374392
2589.48,0.374406
2592.07,0.373146
2594.66,0.370591
2597.26,0.367196
2599.87,0.364102
2602.48,0.361115
2605.09,0.357711
2607.71,0.354243
2610.34,0.350891
2612.97,0.347478
2615.61,0.344105
2618.25,0.340682
2620.9,0.337121
2623.55,0.333667
2626.21,0.330312
2628.87,0.326871
2631.54,0.323335
2634.22,0.320027
2636.89,0.31731
2639.58,0.315478
2642.27,0.314497
2644.97,0.314325
2647.67,0.314583
2650.38,0.315012
2653.09,0.315314
2655.81,0.315377
2658.53,0.314629
2661.26,0.31304
2664.0,0.310389
2666.74,0.306532
2669.48,0.30111
2672.23,0.294116
2674.99,0.284922
2677.76,0.273691
2680.52,0.258327
2683.3,0.240794
2686.08,0.222058
2688.87,0.202519
2691.66,0.182418
2694.46,0.159714
2697.26,0.129885
2700.07,0.099185
2702.89,0.077901
2705.71,0.066011
2708.53,0.056186
2711.37,0.052825
2714.21,0.053138
2717.05,0.055309
2719.9,0.061277
2722.76,0.069915
2725.62,0.074915
2728.49,0.075856
2731.37,0.075417
2734.25,0.074311
2737.14,0.071805
2740.03,0.069785
2742.93,0.067941
2745.83,0.066172
2748.75,0.066398
2751.66,0.068316
2754.59,0.070172
2757.52,0.071515
2760.46,0.071903
2763.4,0.072055
2766.35,0.072019
2769.3,0.071281
2772.26,0.070333
2775.23,0.069139
2778.21,0.068281
2781.19,0.067737
2784.18,0.067101
2787.17,0.066408
2790.17,0.065687
2793.18,0.064988
2796.19,0.064737
2799.21,0.064635
2802.24,0.064764
2805.27,0.064883
2808.31,0.064786
2811.35,0.064563
2814.41,0.064571
2817.46,0.064455
2820.53,0.064259
2823.6,0.064377
2826.68,0.064468
2829.77,0.064375
2832.86,0.064419
2835.96,0.064416
2839.07,0.064613
2842.18,0.064505
2845.3,0.064222
2848.43,0.064117
2851.56,0.064144
2854.7,0.064051
2857.85,0.064134
2861.0,0.064141
2864.16,0.064026
2867.33,0.063914
2870.51,0.063958
2873.69,0.064093
2876.88,0.064309
2880.07,0.064382
2883.28,0.064434
2886.49,0.064404
2889.71,0.064453
2892.93,0.064703
2896.17,0.06488
2899.4,0.064983
2902.65,0.065169
2905.91,0.065302
2909.17,0.06541
2912.44,0.065518
2915.71,0.065729
2918.99,0.065971
2922.29,0.066407
2925.58,0.066672
2928.89,0.067119
2932.2,0.067631
2935.52,0.068029
2938.85,0.068408
2942.19,0.069059
2945.53,0.069647
2948.88,0.069976
2952.24,0.070263
2955.61,0.070542
2958.98,0.071158
2962.36,0.071748
2965.75,0.072092
2969.15,0.072565
2972.55,0.072889
2975.97,0.073299
2979.39,0.074098
2986.25,0.075295
2989.7,0.076175
2993.15,0.076893
2996.61,0.077482
3000.08,0.077879
3003.55,0.077978
3007.04,0.078599
3010.53,0.079641
3014.03,0.079952
3017.54,0.080821
3021.06,0.081129
3024.58,0.08132
3028.12,0.082142
3031.66,0.082718
3035.21,0.082212
3038.77,0.082507
3042.33,0.084263
3045.91,0.084143
3049.49,0.084462
3053.08,0.084539
3056.68,0.084975
3060.29,0.085683
3063.91,0.085742
3067.54,0.086609
3071.17,0.08816
3074.81,0.088209
3078.47,0.089178
3082.13,0.090052
3085.79,0.090302
3089.47,0.091657
3093.16,0.092718
3096.85,0.094399
3100.56,0.09461
3104.27,0.0959
3107.99,0.096927
3111.73,0.098253
3115.47,0.099044
3119.21,0.100507
3122.97,0.101227
3126.74,0.103385
3130.52,0.104394
3134.3,0.105566
3138.1,0.107283
3141.9,0.10864
3145.71,0.109487
3149.54,0.11018
3153.37,0.111074
3157.21,0.112602
3161.06,0.113615
3164.92,0.114546
3168.79,0.116092
3172.67,0.116985
3176.55,0.118536
3180.45,0.119083
3184.36,0.120593
3188.27,0.122271
3192.2,0.122984
3196.14,0.12407
3200.08,0.124681
3204.04,0.125906
3208.0,0.126755
3211.98,0.127892
3215.96,0.12926
3219.96,0.130004
3223.96,0.130883
3227.98,0.132185
3232.0,0.132647
3236.04,0.133907
3240.08,0.135247
3244.14,0.136234
3248.2,0.136842
3252.28,0.137567
3256.37,0.139099
3260.46,0.140441
3264.57,0.141421
3268.69,0.141866
3272.81,0.143172
3276.95,0.143729
3281.1,0.144452
3285.26,0.145969
3289.43,0.146314
3293.61,0.147671
3297.8,0.148896
3302.0,0.149414
3306.21,0.150959
3310.43,0.151883
3314.66,0.152844
3318.91,0.154127
3323.16,0.155389
3327.43,0.156453
3331.71,0.157645
3335.99,0.158622
3340.29,0.159655
3344.6,0.161319
3348.92,0.161919
3353.26,0.163073
3357.6,0.164139
3361.96,0.165066
3366.32,0.165555
3370.7,0.165862
3375.09,0.166857
3379.49,0.168125
3383.9,0.169771
3388.32,0.171617
3392.76,0.172476
3397.21,0.174002
3401.66,0.173553
3406.13,0.174503
3410.61,0.17493
3415.11,0.174713
3419.61,0.176335
3424.13,0.178363
3428.66,0.181744
3433.2,0.184846
3437.76,0.186915
3442.32,0.189473
3446.9,0.191552
3451.49,0.193888
3456.09,0.195859
3460.7,0.197603
3465.33,0.199329
3469.97,0.200408
3474.62,0.201631
3479.29,0.202583
3483.96,0.203532
3488.65,0.204828
3493.35,0.20519
3498.07,0.205843
3502.79,0.207571
3507.53,0.210619
3512.29,0.213332
3517.05,0.216275
3521.83,0.219051
3526.62,0.221846
3531.43,0.225263
3536.24,0.22744
3541.08,0.229764
3543.5,0.231073
3545.92,0.23205
3548.35,0.232914
3550.78,0.234217
3553.21,0.2351
3555.65,0.236009
3558.09,0.237019
3560.53,0.237894
3562.98,0.238698
3565.43,0.239329
3567.88,0.240172
3570.34,0.241134
3572.8,0.242007
3575.27,0.242815
3577.73,0.243841
3580.2,0.244592
3582.68,0.245024
3585.16,0.245283
3587.64,0.245787
3590.12,0.24681
3592.61,0.247723
3595.1,0.2481
3597.6,0.248952
3600.09,0.249838
3602.6,0.250373
3605.1,0.250995
3607.61,0.251978
3610.12,0.253196
3612.64,0.254413
3615.16,0.255972
3617.68,0.257217
3620.21,0.258305
3622.74,0.260023
3625.27,0.261488
3627.81,0.262792
3630.35,0.264248
3632.89,0.266078
3635.44,0.267932
3637.99,0.26954
3640.54,0.270867
3643.1,0.272651
3645.66,0.274436
3648.23,0.276089
3650.8,0.277521
3653.37,0.278991
3655.95,0.280299
3658.53,0.281419
3661.11,0.282718
3663.7,0.283838
3666.29,0.284941
3668.89,0.286667
3671.48,0.287725
3674.09,0.288403
3676.69,0.289399
3679.3,0.290514
3681.91,0.291481
3684.53,0.292089
3687.15,0.292726
3689.78,0.293896
3692.4,0.294742
3695.04,0.295577
3697.67,0.296205
3700.31,0.295718
3702.95,0.294876
3705.6,0.295387
3708.25,0.296635
3710.91,0.297913
3713.56,0.298957
3716.23,0.299542
3718.89,0.300209
3721.56,0.301199
3724.23,0.30214
3726.91,0.303209
3729.59,0.304185
3732.28,0.305296
3734.97,0.306332
3737.66,0.307746
3740.36,0.309266
3743.06,0.310734
3745.76,0.312282
3748.47,0.314348
3751.18,0.316594
3753.9,0.319018
3756.62,0.321148
3759.34,0.323025
3762.07,0.324884
3764.8,0.327009
3767.54,0.329004
3770.28,0.330539
3773.02,0.332475
3775.77,0.334616
3778.52,0.335927
3781.28,0.33722
3784.04,0.338818
3786.8,0.340332
3789.57,0.341658
3792.34,0.343182
3795.12,0.344718
3797.9,0.345948
3800.69,0.347036
3803.47,0.348367
3806.27,0.349574
3809.06,0.35062
3811.86,0.351797
3814.67,0.353006
3817.48,0.353828
3820.29,0.35511
3823.11,0.356346
3825.93,0.35729
3828.76,0.358414
3831.59,0.359447
3834.42,0.359899
3837.26,0.360594
3840.1,0.361651
3842.95,0.362988
3845.8,0.363676
3848.65,0.364201
3851.51,0.365041
3854.38,0.36577
3857.24,0.366118
3860.12,0.366732
3862.99,0.367491
3865.87,0.368059
3868.76,0.368498
3871.65,0.369252
3874.54,0.370142
3877.44,0.370962
3880.34,0.371529
3883.25,0.371544
3886.16,0.371862
3889.07,0.37281
3891.99,0.373449
3894.92,0.37386
3897.85,0.374281
3900.78,0.374851
3903.72,0.375248
3906.66,0.375579
3909.6,0.375922
3912.55,0.376446
3915.51,0.377069
3918.47,0.377619
3921.43,0.378053
3924.4,0.378482
3927.38,0.378628
3930.35,0.379094
3933.33,0.379683
3936.32,0.380052
3939.31,0.380377
3942.31,0.380732
3945.31,0.381004
3948.31,0.381459
3951.32,0.381905
3954.34,0.382205
3957.35,0.382516
3960.38,0.383141
3963.41,0.383509
3966.44,0.383775
3969.48,0.38412
3972.52,0.384616
3975.56,0.384967
3978.61,0.385156
3981.67,0.385279
3984.73,0.385604
3987.8,0.385918
3990.87,0.386307
3993.94,0.386728
3997.02,0.387545
4000.1,0.38815
4003.19,0.388368
4006.29,0.388317
4009.39,0.388863
4012.49,0.389482
4015.6,0.389629
4018.71,0.389919
4021.83,0.390246
4024.95,0.390568
4028.08,0.391083
4031.21,0.391262
4034.35,0.391645
4037.49,0.392136
4040.64,0.392349
4043.79,0.392382
4046.94,0.39287
4050.11,0.3934
4053.27,0.393602
4056.44,0.393585
4059.62,0.3938
4062.8,0.393732
4065.99,0.39386
4069.18,0.394177
4072.38,0.394297
4075.58,0.394166
4078.78,0.39408
4082.0,0.394027
4085.21,0.39413
4088.43,0.39409
4091.66,0.394078
4094.89,0.39407
4098.13,0.394021
4101.37,0.393935
4104.62,0.393841
4107.87,0.393962
4111.13,0.394
4114.39,0.393656
4117.66,0.393854
4120.93,0.394197
4124.21,0.394249
4127.5,0.393867
4130.79,0.393997
4134.08,0.394223
4137.38,0.394428
4140.68,0.394639
4143.99,0.394803
4147.31,0.394954
4150.63,0.39522
4153.95,0.39546
4157.29,0.395777
4160.62,0.396028
4163.96,0.396273
4167.31,0.396743
4170.66,0.397397
4174.02,0.39749
4177.39,0.398033
4180.75,0.398787
4184.13,0.399398
4187.51,0.399716
4190.89,0.400224
4194.28,0.400627
4197.68,0.401048
4201.08,0.40131
4204.49,0.401655
4207.9,0.401679
4211.32,0.401812
4214.74,0.401935
4218.17,0.40206
4221.61,0.4022
4225.05,0.402431
4228.5,0.40223
4231.95,0.402316
4235.4,0.402373
4238.87,0.402414
4242.34,0.402514
4245.81,0.402885
4249.29,0.403287
4252.78,0.403469
4256.27,0.403511
4259.77,0.403468
4263.27,0.403072
4266.78,0.40317
4270.29,0.4032
4273.81,0.403076
4277.34,0.403076
4280.87,0.403256
4284.41,0.403365
4287.95,0.403358
4291.5,0.403214
4295.06,0.40299
4298.62,0.402943
4302.19,0.403051
4305.76,0.402569
4309.34,0.402285
4312.92,0.402322
4316.52,0.402325
4320.11,0.401992
4323.72,0.402125
4327.32,0.402091
4330.94,0.401968
4334.56,0.401743
4338.19,0.401363
4341.82,0.401108
4345.46,0.401155
4349.11,0.401089
4352.76,0.400541
4356.42,0.399969
4360.08,0.399736
4363.75,0.399253
4367.43,0.398897
4371.11,0.398432
4374.8,0.398048
4378.49,0.397507
4382.19,0.397309
4385.9,0.39702
4389.61,0.396512
4393.33,0.396131
4397.06,0.395915
4400.79,0.395469
4404.53,0.395134
4408.28,0.394683
4412.03,0.394146
4415.79,0.393619
4419.55,0.393302
4423.32,0.392667
4427.1,0.39221
4430.88,0.39187
4434.68,0.391576
4438.47,0.390892
4442.28,0.39046
4446.08,0.389972
4449.9,0.389664
4453.72,0.389226
4457.55,0.38853
4461.39,0.387988
4465.23,0.387619
4469.08,0.387104
4472.94,0.38699
4476.8,0.386931
4480.67,0.386547
4484.55,0.385888
4488.43,0.38533
4492.32,0.384598
4496.21,0.384227
4500.12,0.383706
4504.03,0.383059
4507.94,0.382596
4511.87,0.38244
4515.8,0.382285
4519.73,0.38183
4523.68,0.381192
4527.63,0.380826
4531.59,0.380544
4535.55,0.380013
4539.52,0.379328
4543.5,0.37903
4547.49,0.378652
4551.48,0.378321
4555.48,0.377862
4559.49,0.377384
4563.5,0.376848
4567.52,0.376504
4571.55,0.375866
4575.58,0.375512
4579.63,0.375363
4583.67,0.375356
4587.73,0.374615
4591.79,0.374054
4595.86,0.373704
4599.94,0.373484
4604.03,0.373005
4608.12,0.372416
4612.22,0.371702
4616.33,0.371337
4620.44,0.371143
4624.56,0.37091
4628.69,0.370293
4632.83,0.370074
4636.97,0.36963
4641.12,0.369284
4645.28,0.369042
4649.45,0.36891
4653.62,0.368739
4657.8,0.368387
4661.99,0.367943
4666.19,0.367819
4670.39,0.367438
4674.6,0.36742
4678.82,0.367361
4683.05,0.366891
4687.28,0.366401
4691.52,0.366266
4695.77,0.365963
4700.03,0.365662
4704.3,0.3653
4708.57,0.365172
4712.85,0.364781
4717.14,0.364471
4721.43,0.364128
4725.74,0.363884
4730.05,0.36364
4734.37,0.363418
4738.7,0.362943
4743.03,0.362696
4747.38,0.362423
4751.73,0.362272
4756.09,0.361699
4760.45,0.360968
4764.83,0.360495
4769.21,0.360095
4773.6,0.359633
4778.0,0.359456
4782.41,0.359063
4786.83,0.358797
4791.25,0.358514
4795.68,0.358271
4800.13,0.357828
4804.57,0.357581
4809.03,0.357326
4813.5,0.35722
4817.97,0.357276
4822.45,0.35711
4826.94,0.356692
4831.44,0.356875
4835.95,0.356999
4840.46,0.356942
4844.99,0.356821
4849.52,0.356616
4854.06,0.356205
4858.61,0.356247
4863.17,0.356151
4867.73,0.355895
4872.31,0.355436
4876.89,0.355212
4881.48,0.354837
4886.08,0.354551
4890.69,0.354256
4895.31,0.354358
4899.94,0.354145
4904.57,0.353827
4909.22,0.353332
4913.87,0.352971
4918.53,0.352423
4923.21,0.352047
4927.88,0.351667
4932.57,0.351629
4937.27,0.351614
4941.98,0.351447
4946.69,0.351034
4951.42,0.351006
4956.15,0.351133
4960.9,0.350878
4965.65,0.350343
4970.41,0.35023
4975.18,0.35003
4979.96,0.349774
4984.75,0.34928
4989.54,0.349184
4994.35,0.34906
4999.17,0.348912
5003.99,0.348804
5008.83,0.348694
5013.67,0.348289
5018.52,0.348342
5023.39,0.348418
5028.26,0.348495
5033.14,0.348298
5038.03,0.348172
5042.93,0.348286
5047.84,0.348349
5052.76,0.34812
5057.69,0.348247
5062.63,0.348235
5067.58,0.348345
5072.54,0.348468
5077.51,0.348435
5082.49,0.348282
5087.47,0.348374
5092.47,0.348388
5097.48,0.34837
5102.5,0.348162
5107.52,0.348147
5112.56,0.348303
5117.61,0.348453
5122.66,0.348376
5127.73,0.348487
5132.81,0.348684
5137.89,0.34884
5142.99,0.34885
5148.1,0.349087
5153.22,0.348974
5158.34,0.348964
5163.48,0.348794
5168.63,0.348899
5173.79,0.34888
5178.96,0.348772
5184.13,0.348582
5189.32,0.34872
5194.52,0.348819
5199.73,0.348893
5204.96,0.348502
5210.19,0.348359
5215.43,0.348145
5220.68,0.34786
5225.94,0.347616
5231.22,0.347374
5236.5,0.34697
5241.79,0.346781
5247.1,0.346239
5252.42,0.345868
5257.74,0.345332
5263.08,0.344996
5268.43,0.344635
5273.79,0.344272
5279.16,0.3437
5284.54,0.343338
5289.93,0.342757
5295.34,0.342245
5300.75,0.34161
5306.18,0.341188
5311.61,0.34044
5317.06,0.339917
5322.52,0.339307
5327.99,0.338644
5333.47,0.338156
5338.96,0.337678
5344.47,0.336967
5349.98,0.336409
5355.51,0.335534
5361.05,0.334911
5366.6,0.334295
5372.16,0.333871
5377.73,0.333312
5383.32,0.332733
5388.91,0.332078
5394.52,0.331784
5400.14,0.33127
5405.77,0.331011
5411.41,0.330413
5417.07,0.329953
5422.74,0.329203
5428.41,0.32849
5434.1,0.327849
5439.81,0.327591
5445.52,0.326962
5451.25,0.326272
5456.98,0.325242
5462.73,0.324749
5468.5,0.324092
5474.27,0.323225
5480.06,0.322441
5485.86,0.321898
5491.67,0.321114
5497.49,0.320452
5503.33,0.31934
5509.18,0.318345
5515.04,0.317635
5520.91,0.317218
5526.8,0.316246
5532.69,0.315598
5538.61,0.314747
5544.53,0.313781
5550.47,0.312609
5556.41,0.311769
5562.38,0.310899
5568.35,0.310208
5574.34,0.309317
5580.34,0.308462
5586.35,0.307229
5592.38,0.306408
5598.42,0.305495
5604.47,0.304628
5610.54,0.303479
5616.61,0.302552
5622.71,0.301061
5628.81,0.299955
5634.93,0.298742
5641.06,0.297665
5647.21,0.295817
5653.36,0.294527
5659.54,0.293335
5665.72,0.291799
5671.92,0.29018
5678.13,0.28851
5684.36,0.286217
5690.6,0.284531
5696.85,0.282548
5703.12,0.280731
5709.4,0.278877
5715.69,0.276859
5722.0,0.274695
5728.33,0.27297
5734.66,0.271091
5741.01,0.269372
5747.38,0.267657
5753.76,0.26633
5760.15,0.264457
5766.56,0.263028
5772.98,0.260618
5779.41,0.258952
5785.86,0.257087
5792.33,0.254829
5798.81,0.252319
5805.3,0.249997
5811.81,0.247188
5818.33,0.2445
5824.87,0.241198
5831.42,0.237974
5837.99,0.234783
5844.57,0.231719
5851.17,0.228208
5857.78,0.224841
5864.41,0.221168
5871.05,0.2177
5877.7,0.214327
5884.38,0.210976
5891.06,0.20644
5897.76,0.203176
5904.48,0.198709
5911.21,0.194614
5917.96,0.190766
5924.73,0.186311
5931.5,0.181667
5938.3,0.177543
5945.11,0.172107
5951.93,0.16775
5958.78,0.163136
5965.63,0.15889
5972.51,0.153915
5979.39,0.148279
5986.3,0.142708
5993.22,0.137009
6000.16,0.130655
6007.11,0.124962
6014.08,0.1191
6021.06,0.1137
6028.06,0.109382
6035.08,0.106113
6042.12,0.103426
6049.17,0.101758
6056.23,0.099661
6063.32,0.098663
6070.42,0.098019
6077.53,0.097539
6084.67,0.096766
6091.82,0.096245
6098.98,0.095512
6106.17,0.095067
6113.37,0.094417
6120.58,0.093849
6127.82,0.093341
6135.07,0.093269
6142.34,0.092832
6149.63,0.092469
6156.93,0.092054
6164.25,0.091431
6171.59,0.090462
6178.95,0.089894
6186.32,0.089215
6193.71,0.087959
6201.12,0.086669
6208.54,0.085664
6215.99,0.084466
6223.45,0.08326
6230.93,0.081798
6238.43,0.080501
6245.95,0.079433
6253.48,0.078711
6261.03,0.077938
6268.6,0.077375
6276.19,0.077202
6283.8,0.077255
6291.43,0.077412
6299.07,0.078051
6306.73,0.078536
6314.42,0.079201
6322.12,0.080414
6329.84,0.081968
6337.57,0.083552
6345.33,0.085204
6353.11,0.086917
6360.9,0.088666
6368.72,0.090458
6376.55,0.092545
6384.4,0.094485
6392.27,0.096082
6400.17,0.097739
6408.08,0.099465
6416.01,0.100848
6423.96,0.101963
6431.93,0.102966
6439.92,0.104123
6447.93,0.105321
6455.96,0.106497
6464.01,0.107551
6472.08,0.108614
6480.17,0.109412
6488.28,0.110206
6496.41,0.111166
6504.56,0.111842
6512.73,0.112462
6520.92,0.113254
6529.14,0.113817
6537.37,0.114537
6545.63,0.115381
6553.9,0.116409
6562.2,0.117447
6570.51,0.11858
6578.85,0.119978
6587.21,0.121139
6595.59,0.122152
6603.99,0.123423
6612.42,0.124726
6620.86,0.126266
6629.33,0.127803
6637.82,0.129331
6646.33,0.13081
6654.86,0.132203
6663.41,0.133141
6671.99,0.133322
6680.59,0.133029
6689.21,0.132526
6697.85,0.131768
6706.51,0.1311
6715.2,0.130498
6723.91,0.129832
6732.64,0.129154
6741.4,0.128293
6750.18,0.127319
6758.98,0.12623
6767.8,0.125104
6776.65,0.124226
6785.52,0.123046
6794.41,0.121708
6803.33,0.120322
6812.27,0.119042
6821.23,0.117843
6830.22,0.117055
6839.23,0.116068
6848.26,0.115185
6857.32,0.114039
6866.4,0.112597
6875.51,0.110761
6884.64,0.109683
6893.8,0.109099
6902.98,0.108527
6912.18,0.108051
6921.41,0.107795
6930.66,0.107248
6939.94,0.106506
6949.24,0.105458
6958.57,0.104502
6967.92,0.103077
6977.3,0.101411
6986.7,0.100232
6996.13,0.099191
7005.59,0.098103
7015.07,0.097307
7024.57,0.096704
7034.1,0.096096
7043.66,0.095436
7053.25,0.094901
7062.85,0.094253
7072.49,0.093716
7082.15,0.092763
7091.84,0.091956
7101.55,0.09121
7111.3,0.090547
7121.06,0.089424
7130.86,0.08825
7140.68,0.08712
7150.53,0.085965
7160.41,0.084688
7170.31,0.083741
7180.24,0.082832
7190.2,0.082008
7200.19,0.081304
7210.2,0.080472
7220.24,0.079369
7230.31,0.078653
7240.41,0.078297
7250.54,0.077934
7260.69,0.077467
7270.88,0.077341
7281.09,0.077096
7291.33,0.076615
7301.6,0.076244
7311.9,0.076158
7322.22,0.076143
7332.58,0.076005
7342.97,0.075756
7353.38,0.075746
7363.83,0.07593
7374.3,0.075842
7384.81,0.075365
7395.34,0.075058
7405.91,0.074279
7416.5,0.073621
7427.13,0.07341
7437.78,0.073699
7448.47,0.074598
7459.19,0.076025
7469.94,0.078054
7480.71,0.08049
7491.52,0.083178
7502.37,0.086024
7513.24,0.088593
7524.14,0.09103
7535.08,0.093308
7546.05,0.095555
7557.05,0.097779
7568.08,0.09974
7579.15,0.101694
7590.24,0.103606
7601.37,0.105133
7612.53,0.106534
7623.73,0.108035
7634.96,0.10947
7646.22,0.110507
7657.51,0.111655
7668.84,0.112479
7680.2,0.113082
7691.59,0.113908
7703.02,0.114595
7714.49,0.114946
7725.98,0.115218
7737.52,0.115651
7749.08,0.116151
7760.68,0.116457
7772.32,0.116669
7783.99,0.117246
7795.69,0.117925
7807.43,0.118446
7819.21,0.118969
7831.02,0.119712
7842.87,0.120579
7854.75,0.121185
7866.67,0.121815
7878.62,0.122231
7890.62,0.122453
7902.64,0.122741
7914.71,0.123015
7926.81,0.123388
7938.95,0.123949
7951.13,0.124964
7963.34,0.126061
7975.59,0.126999
7987.88,0.128637
8000.21,0.130645
8012.57,0.132299
8024.98,0.133614
8037.42,0.135
8049.9,0.136419
8062.42,0.137867
8074.98,0.139216
8087.57,0.140269
8100.21,0.141056
8112.89,0.141932
8125.6,0.142648
8138.36,0.14309
8151.16,0.143637
8163.99,0.144316
8176.87,0.144737
8189.79,0.14498
8202.75,0.145034
8215.75,0.145109
8228.79,0.144857
8241.87,0.144736
8254.99,0.144887
8268.16,0.145016
8281.37,0.145162
8294.62,0.145522
8307.91,0.146204
8321.24,0.146795
8334.62,0.147111
8348.04,0.147238
8361.51,0.147711
8375.02,0.148328
8388.57,0.148968
8402.16,0.14943
8415.8,0.149894
8429.49,0.150311
8443.22,0.15066
8456.99,0.15108
8470.81,0.151676
8484.67,0.152462
8498.58,0.152793
8512.54,0.15292
8526.54,0.153385
8540.58,0.153766
8554.68,0.1541
8568.82,0.15415
8583.0,0.154211
8597.24,0.15457
8611.52,0.154779
8625.85,0.154792
8640.23,0.155017
8654.65,0.155291
8669.12,0.155437
8683.64,0.155618
8698.21,0.155628
8712.83,0.155771
8727.5,0.155781
8742.22,0.155955
8756.99,0.156137
8771.8,0.156138
8786.67,0.155801
8801.59,0.155508
8816.56,0.155335
8831.58,0.155045
8846.65,0.154553
8861.77,0.153889
8876.94,0.153238
8892.17,0.152639
8907.45,0.151965
8922.78,0.151042
8938.16,0.14982
8953.6,0.148402
8969.09,0.146832
8984.64,0.144643
9000.23,0.141442
9015.89,0.136751
9031.59,0.131159
9047.36,0.124922
9063.17,0.118294
9079.05,0.112127
9094.97,0.106909
9110.96,0.102765
9127.0,0.099084
9143.1,0.096045
9159.25,0.092832
9175.46,0.089238
9191.73,0.085701
9208.06,0.08179
9224.44,0.077649
9240.88,0.074063
9257.38,0.071041
9273.94,0.068401
9290.56,0.066488
9307.24,0.065457
9323.98,0.064932
9340.78,0.065188
9357.64,0.066611
9374.57,0.068604
9391.55,0.070887
9408.59,0.073572
9425.7,0.075948
9442.87,0.078194
9460.1,0.080225
9477.4,0.082115
9494.75,0.083653
9512.17,0.085015
9529.66,0.085848
9547.21,0.086057
9564.83,0.085845
9582.5,0.084937
9600.25,0.083518
9618.06,0.081636
9635.94,0.078853
9653.88,0.075723
9671.89,0.072747
9689.97,0.070071
9708.12,0.067985
9726.33,0.066569
9744.62,0.065329
9762.97,0.064971
9781.39,0.06487
9799.88,0.065191
9818.44,0.065853
9837.07,0.066772
9855.77,0.067766
9874.54,0.068987
9893.39,0.06997
9912.3,0.070582
9931.29,0.070883
9950.36,0.071141
9969.49,0.071378
9988.7,0.07113
10007.98,0.070168
10027.34,0.069035
10046.77,0.06786
10066.28,0.066868
10085.87,0.065966
10105.53,0.0651
10125.26,0.063738
10145.08,0.062797
10164.97,0.062232
10184.94,0.061442
10204.99,0.060531
10225.12,0.059935
10245.33,0.059338
10265.61,0.05828
10285.98,0.057097
10306.43,0.056132
10326.96,0.055667
10347.57,0.05553
10368.27,0.054415
10389.05,0.053371
10409.91,0.052879
10430.86,0.05254
10451.88,0.051776
10473.0,0.051099
10494.2,0.05092
10515.49,0.050899
10536.86,0.050698
10558.32,0.05105
10579.87,0.051895
10601.5,0.052689
10623.23,0.053357
10645.04,0.054529
10666.94,0.055644
10688.94,0.05724
10711.02,0.059538
10733.2,0.062237
10755.47,0.065637
10777.83,0.069378
10800.28,0.072604
10822.83,0.075309
10845.47,0.077582
10868.21,0.079717
10891.04,0.080972
10913.97,0.081647
10936.99,0.082612
10960.12,0.083296
10983.34,0.08368
11006.66,0.084066
11030.07,0.084075
11053.59,0.084009
11077.21,0.08363
11100.93,0.082989
11124.75,0.082824
11148.68,0.082807
11172.71,0.08222
11196.84,0.080986
11221.07,0.079492
11245.41,0.078713
11269.86,0.078307
11294.41,0.077316
11319.07,0.076323
11343.84,0.075428
11368.72,0.074574
11393.7,0.074012
11418.8,0.073081
11444.01,0.07215
11469.33,0.07153
11494.76,0.070824
11520.3,0.07055
11545.96,0.070322
11571.73,0.069748
11597.62,0.069013
11623.62,0.068057
11649.74,0.067407
11675.98,0.067058
11702.34,0.067083
11728.81,0.067233
11755.41,0.067117
11782.13,0.066799
11808.96,0.066674
11835.92,0.067146
11863.01,0.067593
11890.22,0.067504
11917.55,0.067926
11945.01,0.068088
11972.6,0.06753
12000.31,0.067345
12028.16,0.067713
12056.13,0.067718
12084.23,0.067711
12112.46,0.068225
12140.83,0.068708
12169.33,0.069019
12197.96,0.069115
12226.73,0.069046
12255.64,0.0696
12284.68,0.069504
12313.86,0.069542
12343.18,0.069638
12372.64,0.069965
12402.24,0.070672
12431.98,0.071105
12461.86,0.071279
12491.89,0.071986
12522.07,0.0731
12552.38,0.074124
12582.85,0.074399
12613.47,0.074317
12644.23,0.074586
12675.15,0.075272
12706.21,0.075981
12737.43,0.076715
12768.81,0.077018
12800.33,0.077898
12832.02,0.078289
12863.86,0.0784
12895.86,0.078707
12928.02,0.079788
12960.34,0.080993
12992.82,0.081275
13025.46,0.081091
13058.27,0.081106
13091.25,0.081489
13124.39,0.081776
13157.7,0.081591
13191.18,0.081821
13224.83,0.081956
13258.66,0.082063
13292.65,0.082437
13326.83,0.082529
13361.17,0.082791
13395.7,0.083375
13430.4,0.0835
13465.29,0.083414
13500.35,0.083319
13535.6,0.083939
13571.03,0.084259
13606.65,0.083964
13642.46,0.084276
13678.46,0.084714
13714.64,0.08452
13751.02,0.084432
13787.59,0.084595
13824.36,0.084545
13861.32,0.084369
13898.49,0.084419
13935.85,0.084567
13973.41,0.084338
14011.17,0.084048
14049.15,0.083355
14087.32,0.082985
14125.71,0.083059
14164.3,0.082916
14203.11,0.082735
14242.13,0.082879
14281.36,0.082589
14320.81,0.081871
14360.49,0.08136
14400.38,0.080525
14440.49,0.08053
14480.82,0.081202
14521.39,0.081781
14562.18,0.08116
14603.2,0.081277
14644.45,0.08228
14685.93,0.082422
14727.66,0.08229
14769.62,0.082389
14811.81,0.082853
14854.25,0.08368
14896.94,0.084033
14939.87,0.083997
14983.05,0.084141
15026.48,0.08421
15070.16,0.084008
15114.1,0.08397
15158.29,0.083661
15202.74,0.083285
15247.46,0.083088
15292.43,0.08305
15337.68,0.082936
15383.19,0.083101
15428.97,0.083666
15475.03,0.084482
15521.36,0.085204
15567.97,0.085342
15614.87,0.085625
15662.04,0.086147
15709.5,0.085756
15757.25,0.08585
15805.29,0.085879
15853.62,0.086062
15902.26,0.086571
15951.19,0.086836
16000.42,0.086581
16049.95,0.086148
16099.8,0.085897
16149.95,0.085515
16200.42,0.085437
16251.21,0.085371
16302.31,0.084673
16353.74,0.084675
16405.49,0.085057
16457.57,0.084546
16509.98,0.083638
16562.73,0.083262
16615.82,0.081858
16669.24,0.081005
16723.02,0.081635
16777.14,0.082472
16831.61,0.082093
16886.43,0.081175
16941.62,0.08109
16997.16,0.082549
17053.08,0.083647
17109.36,0.084323
17166.01,0.085537
17223.04,0.085779
17280.45,0.085819
17338.24,0.086935
17396.43,0.087607
17455.0,0.087837
17513.97,0.087885
17573.34,0.087564
17633.11,0.088265
17693.29,0.090063
17753.89,0.090484
17814.9,0.089602
17876.33,0.089821
17938.18,0.091202
18000.47,0.091886
18063.19,0.092107
18126.35,0.091969
18189.95,0.092381
18254.0,0.092758
18318.5,0.093144
18383.46,0.094132
18448.88,0.094089
18514.77,0.093953
18581.13,0.094025
18647.97,0.094121
18715.29,0.093701
18783.1,0.094607
18851.4,0.094648
18920.2,0.093612
18989.51,0.093681
19059.32,0.094221
19129.65,0.094651
19200.5,0.094813
19271.88,0.094843
19343.79,0.094429
19416.24,0.094833
19489.23,0.09518
19562.77,0.094948
19636.88,0.094398
19711.54,0.094108
19786.78,0.094508
19862.59,0.096674
19938.98,0.097857
20015.96,0.097725
20093.55,0.097777
20171.73,0.097582
20250.53,0.097036
20329.94,0.096359
20409.98,0.097616
20490.65,0.099438
20571.96,0.100732
20653.92,0.10189
20736.54,0.101929
20819.82,0.101382
20903.77,0.100784
20988.4,0.101061
21073.72,0.102385
21159.73,0.104405
21246.46,0.105142
21333.89,0.103973
21422.04,0.103611
21510.93,0.103795
21600.56,0.102734
21690.94,0.10205
21782.08,0.102063
21873.99,0.102483
21966.67,0.10209
22060.15,0.102947
22154.42,0.103342
22249.51,0.1032
22345.41,0.102956
22442.14,0.102138
22539.72,0.101946
22638.14,0.103026
22737.43,0.10305
22837.6,0.102025
22938.65,0.098561
23040.6,0.095729
23143.46,0.094868
23247.24,0.093949
23351.96,0.095426
23457.63,0.098585
23564.25,0.096558
23671.85,0.094992
23780.44,0.092678
23890.02,0.091683
24000.63,0.092584
24112.26,0.094443
24224.93,0.095818
24338.66,0.095846
24453.47,0.092677
24569.36,0.092059
24686.36,0.093648
24804.47,0.093045
24923.73,0.094398
25044.13,0.099607
25165.71,0.096147
25288.46,0.087152
25412.43,0.088187
25537.61,0.098669
25664.04,0.104907
25791.72,0.107807
25920.68,0.104607
