Database of Origin,University of Winnipeg Spectrophotometer Facility
Sample Description,8. Sulfates - RELAB sulfate spectra from their data base | RELAB Archived sulfate spectra (as of Sept. 2004  more coming out later)
Date Added,2016-07-15 22:05:15.729278

Data ID,RLA_SUL_33          
Sample ID,cc-jfm-035
Mineral Name,Gypsum (syn)
Grain Size,brick
Viewing Geometry,30 / 0
Resolution,5
Material Class,Sulfate

Wavelength
305.0,0.823848
310.0,0.829855
315.0,0.836254
320.0,0.845428
325.0,0.844883
330.0,0.851631
335.0,0.851961
340.0,0.856776
345.0,0.858739
350.0,0.861776
355.0,0.866259
360.0,0.867942
365.0,0.872084
370.0,0.871837
375.0,0.877921
380.0,0.880682
385.0,0.884481
390.0,0.887031
395.0,0.887812
400.0,0.887829
405.0,0.891162
410.0,0.891127
415.0,0.893814
420.0,0.897981
425.0,0.897748
430.0,0.900267
435.0,0.903871
440.0,0.904858
445.0,0.907715
450.0,0.90843
455.0,0.911447
460.0,0.908485
465.0,0.911674
470.0,0.913104
475.0,0.915812
480.0,0.914933
485.0,0.916879
490.0,0.916633
495.0,0.919328
500.0,0.917888
505.0,0.920837
510.0,0.919542
515.0,0.922195
520.0,0.920639
525.0,0.923163
530.0,0.921698
535.0,0.925586
540.0,0.923674
545.0,0.926585
550.0,0.925227
555.0,0.927837
560.0,0.926229
565.0,0.928719
570.0,0.927924
575.0,0.929798
580.0,0.92861
585.0,0.929783
590.0,0.928868
595.0,0.930679
600.0,0.929655
605.0,0.930667
610.0,0.930096
615.0,0.931753
620.0,0.931439
625.0,0.933129
630.0,0.932319
635.0,0.934155
640.0,0.93309
645.0,0.934235
650.0,0.933325
655.0,0.933975
660.0,0.933097
665.0,0.933897
670.0,0.93334
675.0,0.934368
680.0,0.934247
685.0,0.934033
690.0,0.934441
695.0,0.934967
700.0,0.934418
705.0,0.9351
710.0,0.934104
715.0,0.934947
720.0,0.935152
725.0,0.934058
730.0,0.933238
735.0,0.933335
740.0,0.933623
745.0,0.934285
750.0,0.933268
755.0,0.933994
760.0,0.933747
765.0,0.933529
770.0,0.933672
775.0,0.933853
780.0,0.934699
785.0,0.934406
790.0,0.934865
795.0,0.934925
800.0,0.935015
805.0,0.936006
810.0,0.935526
815.0,0.936709
820.0,0.934002
825.0,0.936342
830.0,0.93595
835.0,0.935839
840.0,0.935414
845.0,0.934967
850.0,0.934558
855.0,0.933965
860.0,0.934147
865.0,0.934221
870.0,0.934467
875.0,0.935496
880.0,0.934612
885.0,0.934936
890.0,0.935401
895.0,0.934353
900.0,0.934494
905.0,0.935
910.0,0.933902
915.0,0.934236
920.0,0.933706
925.0,0.934329
930.0,0.934539
935.0,0.934093
940.0,0.933677
945.0,0.933628
950.0,0.931839
955.0,0.931389
960.0,0.930264
965.0,0.928157
970.0,0.926595
975.0,0.924664
980.0,0.922835
985.0,0.921489
990.0,0.920372
995.0,0.918865
1000.0,0.918761
1005.0,0.920615
1010.0,0.923189
1015.0,0.924557
1020.0,0.927861
1025.0,0.929215
1030.0,0.931254
1035.0,0.932395
1040.0,0.933796
1045.0,0.935452
1050.0,0.935949
1055.0,0.937327
1060.0,0.937128
1065.0,0.937815
1070.0,0.938465
1075.0,0.938195
1080.0,0.938014
1085.0,0.937967
1090.0,0.937243
1095.0,0.937354
1100.0,0.936708
1105.0,0.935763
1110.0,0.934857
1115.0,0.934092
1120.0,0.934027
1125.0,0.932689
1130.0,0.931666
1135.0,0.93172
1140.0,0.929138
1145.0,0.926937
1150.0,0.9228
1155.0,0.918403
1160.0,0.912877
1165.0,0.905289
1170.0,0.89933
1175.0,0.89526
1180.0,0.89153
1185.0,0.891157
1190.0,0.892126
1195.0,0.891075
1200.0,0.890545
1205.0,0.890454
1210.0,0.890397
1215.0,0.894499
1220.0,0.897883
1225.0,0.898982
1230.0,0.899366
1235.0,0.900283
1240.0,0.903048
1245.0,0.906959
1250.0,0.909088
1255.0,0.911226
1260.0,0.911909
1265.0,0.913001
1270.0,0.912661
1275.0,0.913209
1280.0,0.912189
1285.0,0.912633
1290.0,0.912081
1295.0,0.91257
1300.0,0.911194
1305.0,0.910117
1310.0,0.907811
1315.0,0.905604
1320.0,0.902679
1325.0,0.899676
1330.0,0.896213
1335.0,0.891757
1340.0,0.887341
1345.0,0.881285
1350.0,0.876134
1355.0,0.871602
1360.0,0.868219
1365.0,0.8586
1370.0,0.855876
1375.0,0.851168
1380.0,0.851584
1385.0,0.842664
1390.0,0.843242
1395.0,0.842037
1400.0,0.834592
1405.0,0.824067
1410.0,0.80889
1415.0,0.796242
1420.0,0.776688
1425.0,0.757925
1430.0,0.746303
1435.0,0.728536
1440.0,0.697448
1445.0,0.664615
1450.0,0.664376
1455.0,0.690929
1460.0,0.708475
1465.0,0.7177
1470.0,0.72326
1475.0,0.726206
1480.0,0.728946
1485.0,0.724493
1490.0,0.715204
1495.0,0.716824
1500.0,0.731848
1505.0,0.747315
1510.0,0.757446
1515.0,0.762663
1520.0,0.764191
1525.0,0.761745
1530.0,0.758234
1535.0,0.753791
1540.0,0.752523
1545.0,0.759039
1550.0,0.771248
1555.0,0.784035
1560.0,0.794535
1565.0,0.803927
1570.0,0.811719
1575.0,0.817693
1580.0,0.822305
1585.0,0.827955
1590.0,0.832259
1595.0,0.837429
1600.0,0.841515
1605.0,0.84748
1610.0,0.852978
1615.0,0.857405
1620.0,0.861815
1625.0,0.864739
1630.0,0.867657
1635.0,0.871344
1640.0,0.874878
1645.0,0.877945
1650.0,0.881024
1655.0,0.882007
1660.0,0.884336
1665.0,0.886377
1670.0,0.887143
1675.0,0.886938
1680.0,0.886031
1685.0,0.884872
1690.0,0.881233
1695.0,0.877479
1700.0,0.871279
1705.0,0.862499
1710.0,0.852749
1715.0,0.841408
1720.0,0.828113
1725.0,0.81405
1730.0,0.799728
1735.0,0.785914
1740.0,0.77319
1745.0,0.763748
1750.0,0.758616
1755.0,0.762964
1760.0,0.768316
1765.0,0.773647
1770.0,0.77656
1775.0,0.778757
1780.0,0.781751
1785.0,0.787505
1790.0,0.795716
1795.0,0.804232
1800.0,0.811954
1805.0,0.816726
1810.0,0.821944
1815.0,0.825204
1820.0,0.827891
1825.0,0.828547
1830.0,0.831373
1835.0,0.832773
1840.0,0.829176
1845.0,0.825213
1850.0,0.821675
1855.0,0.815715
1860.0,0.806442
1865.0,0.797482
1870.0,0.787443
1875.0,0.755608
1880.0,0.733075
1885.0,0.713504
1890.0,0.689464
1895.0,0.664893
1900.0,0.644218
1905.0,0.616351
1910.0,0.587622
1915.0,0.561408
1920.0,0.533516
1925.0,0.49917
1930.0,0.461766
1935.0,0.42651
1940.0,0.405116
1945.0,0.398354
1950.0,0.403718
1955.0,0.42457
1960.0,0.457144
1965.0,0.479025
1970.0,0.485257
1975.0,0.491692
1980.0,0.502441
1985.0,0.514633
1990.0,0.531275
1995.0,0.5614
2000.0,0.599826
2005.0,0.635524
2010.0,0.662631
2015.0,0.681956
2020.0,0.696378
2025.0,0.706891
2030.0,0.715611
2035.0,0.722688
2040.0,0.72799
2045.0,0.732855
2050.0,0.736258
2055.0,0.738731
2060.0,0.738195
2065.0,0.737595
2070.0,0.737815
2075.0,0.738776
2080.0,0.738488
2085.0,0.738443
2090.0,0.736489
2095.0,0.733571
2100.0,0.728538
2105.0,0.723824
2110.0,0.719959
2115.0,0.715681
2120.0,0.711087
2125.0,0.707309
2130.0,0.703274
2135.0,0.699689
2140.0,0.696417
2145.0,0.692817
2150.0,0.689057
2155.0,0.684439
2160.0,0.679667
2165.0,0.674585
2170.0,0.670317
2175.0,0.666616
2180.0,0.664966
2185.0,0.664847
2190.0,0.663813
2195.0,0.662195
2200.0,0.657947
2205.0,0.658165
2210.0,0.652697
2215.0,0.646872
2220.0,0.64539
2225.0,0.65162
2230.0,0.661925
2235.0,0.669138
2240.0,0.673141
2245.0,0.674587
2250.0,0.674859
2255.0,0.67327
2260.0,0.669646
2265.0,0.665082
2270.0,0.662732
2275.0,0.667882
2280.0,0.676179
2285.0,0.68231
2290.0,0.685902
2295.0,0.688024
2300.0,0.689442
2305.0,0.689835
2310.0,0.68997
2315.0,0.689532
2320.0,0.688218
2325.0,0.686298
2330.0,0.683168
2335.0,0.6795
2340.0,0.675214
2345.0,0.669605
2350.0,0.663445
2355.0,0.6576
2360.0,0.650248
2365.0,0.641714
2370.0,0.633308
2375.0,0.623072
2380.0,0.610595
2385.0,0.597421
2390.0,0.582503
2395.0,0.566441
2400.0,0.549117
2405.0,0.539708
2410.0,0.527023
2415.0,0.518092
2420.0,0.511597
2425.0,0.505239
2430.0,0.50047
2435.0,0.497246
2440.0,0.492723
2445.0,0.490633
2450.0,0.488478
2455.0,0.484728
2460.0,0.480439
2465.0,0.474381
2470.0,0.469156
2475.0,0.463793
2480.0,0.45835
2485.0,0.454776
2490.0,0.455452
2495.0,0.457355
2500.0,0.460875
2505.0,0.465
2510.0,0.469204
2515.0,0.473734
2520.0,0.476285
2525.0,0.48032
2530.0,0.482823
2535.0,0.480827
2540.0,0.480296
2545.0,0.479223
2550.0,0.47565
2555.0,0.471645
2560.0,0.468054
2565.0,0.465086
2570.0,0.46379
2575.0,0.460828
2580.0,0.460683
2585.0,0.460757
2590.0,0.460518
2595.0,0.458863
2600.0,0.456934
