Database of Origin,University of Winnipeg Spectrophotometer Facility
Sample Description,8. Sulfates - RELAB sulfate spectra from their data base |  RELAB Archived sulfate spectra (as of Sept. 2004  more coming out later)
Date Added,2016-07-15 22:05:22.522792

Data ID,RLA_SUL_49          
Sample ID,f1cc09b
Mineral Name,alunite
Grain Size,25-75
Viewing Geometry,30 / 0 | 30
Resolution,5 / 0.8-129
Material Class,Sulfate

Wavelength
305.0,0.23132
310.0,0.245407
315.0,0.264579
320.0,0.284921
325.0,0.302901
330.0,0.323949
335.0,0.342208
340.0,0.36129
345.0,0.378905
350.0,0.397322
355.0,0.410849
360.0,0.425982
365.0,0.438443
370.0,0.45058
375.0,0.460961
380.0,0.47159
385.0,0.480461
390.0,0.488767
395.0,0.496175
400.0,0.503996
405.0,0.509397
410.0,0.512239
415.0,0.513921
420.0,0.518904
425.0,0.526136
430.0,0.531728
435.0,0.536411
440.0,0.541306
445.0,0.546024
450.0,0.549938
455.0,0.552761
460.0,0.555038
465.0,0.557796
470.0,0.560533
475.0,0.563612
480.0,0.567437
485.0,0.570957
490.0,0.575188
495.0,0.579683
500.0,0.585233
505.0,0.590594
510.0,0.59652
515.0,0.602274
520.0,0.607781
525.0,0.613567
530.0,0.620982
535.0,0.630192
540.0,0.635647
545.0,0.643091
550.0,0.652129
555.0,0.661609
560.0,0.671589
565.0,0.682638
570.0,0.693739
575.0,0.705836
580.0,0.717491
585.0,0.728087
590.0,0.739302
595.0,0.749033
600.0,0.758186
605.0,0.766574
610.0,0.773632
615.0,0.779813
620.0,0.786117
625.0,0.791253
630.0,0.795213
635.0,0.799383
640.0,0.803533
645.0,0.807064
650.0,0.810128
655.0,0.813843
660.0,0.817857
665.0,0.820922
670.0,0.824798
675.0,0.828097
680.0,0.831473
685.0,0.834882
690.0,0.838085
695.0,0.841142
700.0,0.844687
705.0,0.846858
710.0,0.850371
715.0,0.852603
720.0,0.851959
725.0,0.855404
730.0,0.856429
735.0,0.856306
740.0,0.857209
745.0,0.8586
750.0,0.860003
755.0,0.860014
760.0,0.859123
765.0,0.857441
770.0,0.858299
775.0,0.857978
780.0,0.856765
785.0,0.857101
790.0,0.856861
795.0,0.857346
800.0,0.858069
805.0,0.858315
810.0,0.857446
815.0,0.858115
820.0,0.85712
825.0,0.857013
830.0,0.856265
835.0,0.856218
840.0,0.855326
845.0,0.855875
850.0,0.855023
855.0,0.855529
860.0,0.855159
865.0,0.854202
870.0,0.855101
875.0,0.853024
880.0,0.855443
885.0,0.855146
890.0,0.855072
895.0,0.856197
900.0,0.855346
905.0,0.855786
910.0,0.85747
915.0,0.857966
920.0,0.860596
925.0,0.861318
930.0,0.862387
935.0,0.863975
940.0,0.865328
945.0,0.865015
950.0,0.866874
955.0,0.867786
960.0,0.868114
965.0,0.868342
970.0,0.86573
975.0,0.864732
980.0,0.862998
985.0,0.858807
990.0,0.855876
995.0,0.852483
1000.0,0.850858
1005.0,0.8504
1010.0,0.853343
1015.0,0.8589
1020.0,0.865305
1025.0,0.874759
1030.0,0.879269
1035.0,0.882968
1040.0,0.884435
1045.0,0.886046
1050.0,0.88721
1055.0,0.887663
1060.0,0.888943
1065.0,0.889959
1070.0,0.891068
1075.0,0.891982
1080.0,0.891896
1085.0,0.892645
1090.0,0.892322
1095.0,0.892691
1100.0,0.893362
1105.0,0.893447
1110.0,0.894104
1115.0,0.893926
1120.0,0.896017
1125.0,0.896743
1130.0,0.898328
1135.0,0.900528
1140.0,0.900312
1145.0,0.900589
1150.0,0.899866
1155.0,0.899116
1160.0,0.899842
1165.0,0.898725
1170.0,0.898423
1175.0,0.898372
1180.0,0.897355
1185.0,0.897669
1190.0,0.89674
1195.0,0.894991
1200.0,0.895324
1205.0,0.893118
1210.0,0.890613
1215.0,0.887102
1220.0,0.88287
1225.0,0.876213
1230.0,0.87093
1235.0,0.866345
1240.0,0.862058
1245.0,0.859213
1250.0,0.855811
1255.0,0.848161
1260.0,0.832639
1265.0,0.814948
1270.0,0.814311
1275.0,0.827204
1280.0,0.8435
1285.0,0.860005
1290.0,0.873058
1295.0,0.877346
1300.0,0.877695
1305.0,0.877817
1310.0,0.876757
1315.0,0.870339
1320.0,0.857687
1325.0,0.857191
1330.0,0.853254
1335.0,0.83448
1340.0,0.830519
1345.0,0.835161
1350.0,0.835284
1355.0,0.834128
1360.0,0.836995
1365.0,0.842136
1370.0,0.849216
1375.0,0.844206
1380.0,0.846252
1385.0,0.837105
1390.0,0.833694
1395.0,0.823699
1400.0,0.812422
1405.0,0.791864
1410.0,0.768431
1415.0,0.743289
1420.0,0.675552
1425.0,0.525133
1430.0,0.556411
1435.0,0.616443
1440.0,0.673465
1445.0,0.668983
1450.0,0.646496
1455.0,0.617654
1460.0,0.603709
1465.0,0.604487
1470.0,0.57279
1475.0,0.462041
1480.0,0.434461
1485.0,0.589403
1490.0,0.656428
1495.0,0.672634
1500.0,0.682924
1505.0,0.70261
1510.0,0.730375
1515.0,0.742831
1520.0,0.751389
1525.0,0.758581
1530.0,0.759231
1535.0,0.760684
1540.0,0.766961
1545.0,0.767812
1550.0,0.769409
1555.0,0.770017
1560.0,0.770088
1565.0,0.769884
1570.0,0.769539
1575.0,0.768
1580.0,0.767493
1585.0,0.766033
1590.0,0.765695
1595.0,0.765714
1600.0,0.766162
1605.0,0.76249
1610.0,0.762652
1615.0,0.763657
1620.0,0.762722
1625.0,0.761215
1630.0,0.760595
1635.0,0.757886
1640.0,0.757745
1645.0,0.75621
1650.0,0.754276
1655.0,0.753157
1660.0,0.751068
1665.0,0.748905
1670.0,0.74513
1675.0,0.741108
1680.0,0.737677
1685.0,0.73425
1690.0,0.730065
1695.0,0.725971
1700.0,0.72407
1705.0,0.719224
1710.0,0.714613
1715.0,0.708519
1720.0,0.698938
1725.0,0.685983
1730.0,0.669423
1735.0,0.652693
1740.0,0.635085
1745.0,0.613918
1750.0,0.59601
1755.0,0.584298
1760.0,0.573837
1765.0,0.56525
1770.0,0.564914
1775.0,0.579591
1780.0,0.596105
1785.0,0.619437
1790.0,0.6483
1795.0,0.677464
1800.0,0.692816
1805.0,0.700849
1810.0,0.70424
1815.0,0.705508
1820.0,0.705975
1825.0,0.705696
1830.0,0.703994
1835.0,0.700277
1840.0,0.697303
1845.0,0.696756
1850.0,0.693776
1855.0,0.69155
1860.0,0.688239
1865.0,0.684947
1870.0,0.679214
1875.0,0.671842
1880.0,0.665742
1885.0,0.658014
1890.0,0.648564
1895.0,0.63975
1900.0,0.62847
1905.0,0.617464
1910.0,0.607211
1915.0,0.597596
1920.0,0.58884
1925.0,0.582491
1930.0,0.578394
1935.0,0.575971
1940.0,0.573453
1945.0,0.570847
1950.0,0.566524
1955.0,0.561418
1960.0,0.557537
1965.0,0.556659
1970.0,0.557779
1975.0,0.560782
1980.0,0.561685
1985.0,0.558422
1990.0,0.552324
1995.0,0.542888
2000.0,0.531587
2005.0,0.522568
2010.0,0.51688
2015.0,0.515507
2020.0,0.517593
2025.0,0.518018
2030.0,0.515509
2035.0,0.511245
2040.0,0.506787
2045.0,0.502531
2050.0,0.49732
2055.0,0.492135
2060.0,0.487094
2065.0,0.485529
2070.0,0.486168
2075.0,0.487819
2080.0,0.488415
2085.0,0.486806
2090.0,0.481893
2095.0,0.473763
2100.0,0.463429
2104.81,0.449752
2106.52,0.447351
2107.37,0.444618
2108.23,0.440767
2109.09,0.437529
2109.95,0.434109
2110.8,0.430411
2111.66,0.427235
2112.52,0.423642
2113.39,0.420008
2114.25,0.416442
2115.11,0.412661
2115.97,0.407684
2116.84,0.402756
2117.7,0.397904
2118.57,0.392751
2119.43,0.387866
2120.3,0.383331
2121.17,0.378338
2122.04,0.373269
2122.91,0.368141
2123.78,0.363158
2124.65,0.357894
2125.52,0.353435
2126.39,0.349395
2127.26,0.346122
2128.13,0.343137
2129.01,0.340102
2129.88,0.338153
2130.76,0.336326
2131.63,0.333971
2132.51,0.331878
2133.39,0.32991
2134.27,0.329365
2135.15,0.328088
2136.03,0.3255
2136.91,0.323578
2137.79,0.320773
2138.67,0.318923
2139.55,0.318018
2140.44,0.316178
2141.32,0.314797
2142.2,0.31275
2143.09,0.311004
2143.98,0.308849
2144.86,0.30784
2145.75,0.306804
2146.64,0.305232
2147.53,0.303282
2148.42,0.300329
2149.31,0.297695
2150.2,0.294972
2151.09,0.291617
2151.99,0.28765
2152.88,0.283305
2153.77,0.279339
2154.67,0.274625
2155.57,0.270604
2156.46,0.267664
2157.36,0.265849
2158.26,0.265164
2159.16,0.265287
2160.06,0.26589
2160.96,0.267037
2161.86,0.268152
2162.76,0.269549
2163.66,0.269658
2164.57,0.269003
2165.47,0.268742
2166.37,0.268397
2167.28,0.266438
2168.19,0.264949
2169.09,0.263915
2170.0,0.264167
2170.91,0.265948
2171.82,0.268074
2172.73,0.271309
2173.64,0.274621
2174.55,0.277158
2175.47,0.27864
2176.38,0.277893
2177.29,0.276254
2178.21,0.274695
2179.12,0.271977
2180.04,0.268522
2180.96,0.266286
2181.88,0.264991
2182.79,0.265888
2183.71,0.269008
2184.63,0.274433
2185.55,0.281526
2186.48,0.288768
2187.4,0.294431
2188.32,0.299612
2189.25,0.3034
2190.17,0.305912
2191.1,0.308048
2192.02,0.309991
2192.95,0.31383
2193.88,0.320784
2194.81,0.329186
2195.74,0.338826
2196.67,0.349726
2197.6,0.36017
2198.53,0.368338
2199.46,0.373842
2200.4,0.376044
2201.33,0.375461
2202.27,0.371682
2203.2,0.364797
2204.14,0.355202
2205.08,0.345105
2206.01,0.337024
2206.95,0.331349
2207.89,0.327272
2208.83,0.323698
2209.78,0.320627
2210.72,0.319226
2211.66,0.320604
2212.61,0.326316
2213.55,0.335361
2214.5,0.347119
2215.44,0.360054
2216.39,0.374039
2217.34,0.387577
2218.29,0.400205
2219.24,0.41388
2220.19,0.428503
2221.14,0.44286
2222.09,0.456267
2223.04,0.468057
2224.0,0.479253
2224.95,0.488827
2225.91,0.497081
2226.86,0.503998
2227.82,0.509718
2228.78,0.5145
2229.74,0.519202
2230.7,0.523802
2231.66,0.52769
2232.62,0.529736
2233.58,0.53238
2234.54,0.535506
2235.5,0.53809
2236.47,0.539551
2237.43,0.541358
2238.4,0.543312
2239.37,0.544656
2240.33,0.545907
2241.3,0.547017
2242.27,0.547667
2243.24,0.549452
2244.21,0.550463
2245.19,0.550747
2246.16,0.551809
2247.13,0.552151
2248.11,0.553129
2249.08,0.554064
2250.06,0.554593
2251.04,0.555118
2252.01,0.55441
2252.99,0.555058
2253.97,0.55544
2254.95,0.555342
2255.93,0.555171
2256.92,0.555077
2257.9,0.554471
2258.88,0.554737
2259.87,0.554343
2260.85,0.554114
2261.84,0.554348
2262.83,0.554607
2263.81,0.554244
2264.8,0.553717
2265.79,0.553495
2266.78,0.553953
2267.78,0.554309
2268.77,0.553883
2269.76,0.553511
2270.76,0.553751
2271.75,0.553543
2272.75,0.553011
2273.74,0.552817
2274.74,0.552859
2275.74,0.552267
2276.74,0.552123
2277.74,0.551066
2278.74,0.549963
2279.74,0.548966
2280.75,0.548349
2281.75,0.547988
2282.75,0.547528
2283.76,0.546487
2284.77,0.546297
2285.77,0.54528
2286.78,0.544353
2287.79,0.543649
2288.8,0.54312
2289.81,0.541721
2290.82,0.540023
2291.84,0.538596
2292.85,0.537248
2293.87,0.535851
2294.88,0.533742
2295.9,0.530937
2296.91,0.528975
2297.93,0.526512
2298.95,0.523693
2299.97,0.520215
2300.99,0.517023
2302.01,0.513619
2303.04,0.509759
2304.06,0.504676
2305.08,0.499216
2306.11,0.493189
2307.14,0.486607
2308.16,0.478846
2309.19,0.470474
2310.22,0.461369
2311.25,0.451808
2312.28,0.442395
2313.31,0.433107
2314.35,0.424104
2315.38,0.415938
2316.41,0.408787
2317.45,0.402571
2318.49,0.397136
2319.52,0.393639
2320.56,0.390619
2321.6,0.388852
2322.64,0.388722
2323.68,0.389881
2324.72,0.392092
2325.77,0.394837
2326.81,0.398156
2327.86,0.402675
2328.9,0.407221
2329.95,0.412136
2331.0,0.417402
2332.04,0.422918
2333.09,0.428436
2334.14,0.434345
2335.2,0.439261
2336.25,0.444821
2337.3,0.450418
2338.36,0.455911
2339.41,0.460751
2340.47,0.465908
2341.52,0.470397
2342.58,0.474229
2343.64,0.47761
2344.7,0.481216
2345.76,0.484174
2346.82,0.486836
2347.89,0.488323
2348.95,0.490162
2350.02,0.491644
2351.08,0.492056
2352.15,0.492102
2353.22,0.492842
2354.28,0.493223
2355.35,0.49333
2356.43,0.493675
2357.5,0.493545
2358.57,0.492671
2359.64,0.492134
2360.72,0.491179
2361.79,0.490242
2362.87,0.488933
2363.95,0.487504
2365.03,0.485141
2366.1,0.483515
2367.19,0.481355
2368.27,0.478369
2369.35,0.475231
2370.43,0.47144
2371.52,0.466949
2372.6,0.462622
2373.69,0.457502
2374.78,0.452448
2375.86,0.447055
2376.95,0.441049
2378.04,0.434282
2379.14,0.426889
2380.23,0.419791
2381.32,0.412774
2382.42,0.404358
2383.51,0.395774
2384.61,0.387133
2385.7,0.378884
2386.8,0.370551
2387.9,0.362806
2389.0,0.355725
2390.1,0.348828
2391.21,0.342748
2392.31,0.337181
2393.41,0.332184
2394.52,0.328449
2395.63,0.325532
2396.73,0.323229
2397.84,0.321157
2398.95,0.319744
2400.06,0.318779
2401.17,0.318613
2402.29,0.31859
2403.4,0.318821
2404.52,0.319011
2405.63,0.319018
2406.75,0.318037
2407.87,0.316661
2408.98,0.315509
2410.1,0.314191
2411.23,0.312362
2412.35,0.310322
2413.47,0.307382
2414.59,0.303994
2415.72,0.300854
2416.85,0.29741
2417.97,0.293182
2419.1,0.288585
2420.23,0.284281
2421.36,0.280662
2422.49,0.277297
2423.63,0.273319
2424.76,0.268469
2425.89,0.264854
2427.03,0.261297
2428.17,0.257222
2429.3,0.253467
2430.44,0.250784
2431.58,0.247981
2432.72,0.246353
2433.87,0.246612
2435.01,0.24778
2436.15,0.249755
2437.3,0.252944
2438.45,0.256452
2439.59,0.260765
2440.74,0.264489
2441.89,0.26802
2443.04,0.271399
2444.19,0.27482
2445.35,0.277903
2446.5,0.280028
2447.66,0.281545
2448.81,0.282824
2449.97,0.282773
2451.13,0.28232
2452.29,0.282114
2453.45,0.281376
2454.61,0.279968
2455.77,0.278057
2456.94,0.275934
2458.1,0.273323
2459.27,0.269616
2460.43,0.265539
2461.6,0.261482
2462.77,0.257424
2463.94,0.252953
2465.11,0.249223
2466.29,0.246163
2467.46,0.243573
2468.64,0.242204
2469.81,0.242345
2470.99,0.243693
2472.17,0.246121
2473.35,0.249116
2474.53,0.252479
2475.71,0.25633
2476.89,0.260664
2478.08,0.264669
2479.26,0.268864
2480.45,0.272778
2481.63,0.275941
2482.82,0.277926
2484.01,0.279466
2485.2,0.279491
2486.4,0.278319
2487.59,0.275844
2488.78,0.27124
2489.98,0.265613
2491.17,0.26003
2492.37,0.253864
2493.57,0.248078
2494.77,0.242918
2495.97,0.238434
2497.17,0.234003
2498.38,0.229285
2499.58,0.223906
2500.79,0.218827
2502.0,0.213353
2503.2,0.206935
2504.41,0.19944
2505.62,0.191165
2506.83,0.18333
2508.05,0.176607
2509.26,0.170355
2510.48,0.16545
2511.69,0.162742
2512.91,0.161213
2514.13,0.160926
2515.35,0.161889
2516.57,0.163524
2517.79,0.166172
2519.02,0.169879
2520.24,0.174625
2521.47,0.180099
2522.69,0.186653
2523.92,0.193741
2525.15,0.201429
2526.38,0.209338
2527.61,0.2166
2528.85,0.22342
2530.08,0.229112
2531.32,0.233527
2532.55,0.236859
2533.79,0.238862
2535.03,0.240647
2536.27,0.242491
2537.51,0.244477
2538.75,0.24633
2540.0,0.249292
2541.24,0.25265
2542.49,0.256029
2543.74,0.258783
2544.99,0.261115
2546.24,0.26352
2547.49,0.266247
2548.74,0.268564
2549.99,0.269658
2551.25,0.270784
2552.5,0.271219
2553.76,0.270296
2555.02,0.26871
2556.28,0.267037
2557.54,0.265183
2558.8,0.263101
2560.07,0.261635
2561.33,0.260678
2562.6,0.258855
2563.86,0.257602
2565.13,0.257639
2566.4,0.256996
2567.67,0.258048
2568.95,0.259998
2570.22,0.261462
2571.5,0.260761
2572.77,0.261857
2574.05,0.263784
2575.33,0.260927
2576.61,0.260388
2577.89,0.260303
2579.17,0.258203
2580.46,0.258245
2581.74,0.258908
2583.03,0.257944
2584.31,0.258457
2585.6,0.256751
2586.89,0.25737
2588.19,0.261214
2589.48,0.26321
2590.77,0.266755
2592.07,0.271663
2593.36,0.278224
2594.66,0.286446
2595.96,0.289672
2597.26,0.28723
2598.56,0.291924
2599.87,0.296857
2601.17,0.300317
2602.48,0.30145
2603.78,0.301164
2605.09,0.301691
2606.4,0.301096
2607.71,0.297436
2609.03,0.29788
2610.34,0.300153
2611.66,0.302718
2612.97,0.306508
2614.29,0.311238
2615.61,0.31461
2616.93,0.31958
2618.25,0.319378
2619.57,0.318671
2620.9,0.323037
2622.22,0.321291
2623.55,0.320419
2624.88,0.323599
2626.21,0.326233
2627.54,0.328641
2628.87,0.327649
2630.21,0.332695
2631.54,0.335447
2632.88,0.33387
2634.21,0.338382
2635.55,0.341724
2636.89,0.343174
2638.24,0.346074
2639.58,0.347935
2640.92,0.350151
2642.27,0.35204
2643.62,0.352982
2644.97,0.352577
2646.32,0.352013
2647.67,0.346881
2649.02,0.341654
2650.38,0.336215
2651.73,0.331541
2653.09,0.325188
2654.45,0.315838
2655.81,0.308546
2657.17,0.302653
2658.53,0.297156
2659.89,0.294686
2661.26,0.290333
2662.63,0.287112
2664.0,0.285944
2665.36,0.287287
2666.74,0.284663
2668.11,0.279952
2669.48,0.276022
2670.86,0.277808
2672.23,0.270611
2673.61,0.26475
2674.99,0.26448
2676.37,0.263513
2677.76,0.260127
2679.14,0.25664
2680.52,0.255814
2681.91,0.25484
2683.3,0.256963
2684.69,0.258224
2686.08,0.25883
2687.47,0.261027
2688.87,0.262838
2690.26,0.265035
2691.66,0.267488
2693.06,0.270766
2694.46,0.272366
2695.86,0.269949
2697.26,0.267641
2698.66,0.265803
2700.07,0.263626
2701.48,0.261684
2702.89,0.257197
2704.3,0.252023
2705.71,0.24772
2707.12,0.242608
2708.53,0.237948
2709.95,0.233279
2711.37,0.227479
2712.79,0.219202
2714.21,0.211514
2715.63,0.206001
2717.05,0.199137
2718.48,0.192964
2719.9,0.187596
2721.33,0.182585
2722.76,0.173579
2724.19,0.169638
2725.62,0.165633
2727.06,0.159037
2728.49,0.155015
2729.93,0.151789
2731.37,0.147571
2732.81,0.142455
2734.25,0.137332
2735.69,0.132203
2737.14,0.124953
2738.58,0.119159
2740.03,0.113382
2741.48,0.105586
2742.93,0.097982
2744.38,0.092702
2745.83,0.089011
2747.29,0.085667
2748.75,0.082762
2750.2,0.08118
2751.66,0.079767
2753.13,0.07772
2754.59,0.075419
2756.05,0.073514
2757.52,0.068641
2758.99,0.064596
2760.46,0.061675
2761.93,0.058518
2763.4,0.054866
2764.87,0.05093
2766.35,0.047147
2767.82,0.044216
2769.3,0.041494
2770.78,0.03927
2772.26,0.037257
2773.75,0.035555
2775.23,0.034001
2776.72,0.032817
2778.21,0.032128
2779.7,0.031328
2781.19,0.030646
2782.68,0.030123
2784.18,0.029281
2785.67,0.028694
2787.17,0.028226
2788.67,0.027225
2790.17,0.026157
2791.67,0.025992
2793.18,0.025851
2794.68,0.025088
2796.19,0.024179
2797.7,0.023633
2799.21,0.02303
2800.72,0.022327
2802.24,0.021677
2803.75,0.021184
2805.27,0.020509
2806.79,0.020016
2808.31,0.019695
2809.83,0.019445
2811.35,0.019059
2812.88,0.018798
2814.41,0.01834
2815.93,0.017632
2817.46,0.017105
2819.0,0.016638
2820.53,0.016062
2822.07,0.015594
2823.6,0.014982
2825.14,0.014378
2826.68,0.013495
2828.22,0.012586
2829.77,0.012285
2831.31,0.012223
2832.86,0.012579
2834.41,0.014084
2835.96,0.016984
2837.51,0.021517
2839.07,0.026503
2840.62,0.030618
2842.18,0.033287
2843.74,0.034348
2845.3,0.034214
2846.86,0.033541
2848.43,0.031547
2849.99,0.028788
2851.56,0.026381
2853.13,0.025178
2854.7,0.026062
2856.27,0.030683
2857.85,0.041504
2859.42,0.059078
2861.0,0.082318
2862.58,0.106361
2864.16,0.12535
2865.75,0.136044
2867.33,0.138725
2868.92,0.13418
2870.51,0.123523
2872.1,0.109825
2873.69,0.09615
2875.28,0.085343
2876.88,0.077459
2878.48,0.071511
2880.07,0.066814
2881.68,0.062766
2883.28,0.05942
2884.88,0.056326
2886.49,0.053611
2888.1,0.051765
2889.71,0.04973
2891.32,0.047921
2892.93,0.046566
2894.55,0.045579
2896.16,0.04457
2897.78,0.043689
2899.4,0.042868
2901.03,0.042167
2902.65,0.041511
2904.28,0.04074
2905.91,0.040109
2907.54,0.039545
2909.17,0.039115
2910.8,0.038671
2912.44,0.038247
2914.07,0.038321
2915.71,0.038088
2917.35,0.037702
2918.99,0.037581
2920.64,0.037563
2922.29,0.03723
2923.93,0.036936
2925.58,0.036654
2927.24,0.03649
2928.89,0.036279
2930.55,0.036117
2932.2,0.036117
2933.86,0.036062
2935.52,0.03571
2937.19,0.035278
2938.85,0.035077
2940.52,0.035047
2942.19,0.035026
2943.86,0.03506
2945.53,0.034936
2947.21,0.034658
2948.88,0.034455
2950.56,0.034781
2952.24,0.034885
2953.92,0.034746
2955.61,0.034697
2957.29,0.034586
2958.98,0.034591
2960.67,0.034596
2962.36,0.034732
2964.06,0.034755
2965.75,0.034563
2967.45,0.034579
2969.15,0.034707
2970.85,0.034905
2972.55,0.034903
2974.26,0.034889
2975.97,0.034959
2977.68,0.034864
2979.39,0.034811
2981.1,0.03507
2982.82,0.035107
2984.53,0.035243
2986.25,0.035572
2987.97,0.035759
2989.7,0.035609
2991.42,0.035652
2993.15,0.035905
2994.88,0.035738
2996.61,0.035972
2998.34,0.036455
3000.08,0.036531
3001.82,0.036416
3003.55,0.036249
3005.3,0.036168
3007.04,0.036094
3008.78,0.03624
3010.53,0.0363
3012.28,0.036011
3014.03,0.036069
3015.79,0.036152
3017.54,0.03624
3019.3,0.036439
3021.06,0.036633
3022.82,0.036615
3024.58,0.036698
3026.35,0.036813
3028.12,0.036827
3029.89,0.037052
3031.66,0.037068
3033.43,0.037223
3035.21,0.037292
3036.99,0.037264
3038.77,0.037262
3040.55,0.03753
3042.33,0.037711
3044.12,0.037591
3045.91,0.037489
3047.7,0.037463
3049.49,0.037262
3051.29,0.037163
3053.08,0.037248
3054.88,0.037098
3056.68,0.036862
3058.49,0.036652
3060.29,0.036654
3062.1,0.036594
3063.91,0.036471
3065.72,0.036638
3067.54,0.036698
3069.35,0.036559
3071.17,0.03649
3072.99,0.036857
3074.81,0.036934
3076.64,0.036971
3078.47,0.03692
3080.29,0.036846
3082.13,0.036816
3083.96,0.036735
3085.79,0.036904
3087.63,0.03717
3089.47,0.037283
3091.31,0.037276
3093.16,0.037417
3095.01,0.037567
3096.85,0.0376
3098.71,0.037907
3100.56,0.03819
3102.41,0.038432
3104.27,0.038768
3106.13,0.039221
3107.99,0.039443
3109.86,0.039707
3111.73,0.039998
3113.59,0.039952
3115.47,0.039887
3117.34,0.039688
3119.21,0.039387
3121.09,0.039283
3122.97,0.039191
3124.86,0.039288
3126.74,0.039429
3128.63,0.039589
3130.52,0.039704
3132.41,0.039869
3134.3,0.040023
3136.2,0.040077
3138.1,0.040044
3140.0,0.040202
3141.9,0.040555
3143.81,0.040914
3145.71,0.041215
3147.62,0.041388
3149.54,0.041386
3151.45,0.041423
3153.37,0.041404
3155.29,0.041432
3157.21,0.041471
3159.13,0.041709
3161.06,0.041885
3162.99,0.04182
3164.92,0.041973
3166.85,0.042318
3168.79,0.042459
3170.72,0.042431
3172.67,0.042496
3174.61,0.042718
3176.55,0.042838
3178.5,0.04303
3180.45,0.043254
3182.4,0.043456
3184.36,0.043557
3186.32,0.043442
3188.27,0.043541
3190.24,0.043786
3192.2,0.043733
3194.17,0.043687
3196.14,0.043724
3198.11,0.043786
3200.08,0.043957
3202.06,0.044101
3204.04,0.044017
3206.02,0.044101
3208.0,0.044193
3209.99,0.044154
3211.98,0.044161
3213.97,0.044385
3215.96,0.044448
3217.96,0.044443
3219.96,0.044438
3221.96,0.044399
3223.96,0.044658
3225.97,0.045074
3227.98,0.045104
3229.99,0.0451
3232.0,0.045114
3234.02,0.045306
3236.04,0.045366
3238.06,0.045387
3240.08,0.045463
3242.11,0.045599
3244.14,0.045734
3246.17,0.045916
3248.2,0.046073
3250.24,0.04609
3252.28,0.046115
3254.32,0.046277
3256.37,0.046434
3258.41,0.046571
3260.46,0.046686
3262.51,0.046793
3264.57,0.046871
3266.63,0.046971
3268.69,0.046952
3270.75,0.04704
3272.81,0.047163
3274.88,0.047232
3276.95,0.047524
3279.02,0.047868
3281.1,0.048039
3283.18,0.047993
3285.26,0.048018
3287.34,0.047975
3289.43,0.047965
3291.51,0.048183
3293.61,0.048247
3295.7,0.048146
3297.8,0.048271
3299.9,0.048358
3302.0,0.048375
3304.1,0.048617
3306.21,0.048728
3308.32,0.048724
3310.43,0.048983
3312.55,0.049223
3314.66,0.049392
3316.79,0.049596
3318.91,0.049813
3321.03,0.050019
3323.16,0.050199
3325.29,0.050227
3327.43,0.050343
3329.57,0.050546
3331.71,0.050745
3333.85,0.050914
3335.99,0.051025
3338.14,0.051342
3340.29,0.051578
3342.45,0.051788
3344.6,0.051904
3346.76,0.051985
3348.92,0.052223
3351.09,0.052459
3353.26,0.052748
3355.43,0.053153
3357.6,0.053511
3359.78,0.053846
3361.96,0.054062
3364.14,0.054395
3366.32,0.054929
3368.51,0.055197
3370.7,0.055255
3372.89,0.055609
3375.09,0.055914
3377.29,0.055953
3379.49,0.056296
3381.69,0.056728
3383.9,0.056871
3386.11,0.057003
3388.32,0.057394
3390.54,0.057824
3392.76,0.057792
3394.98,0.057903
3397.21,0.058106
3399.43,0.058368
3401.66,0.058643
3403.9,0.058985
3406.13,0.059295
3408.37,0.05951
3410.61,0.059515
3412.86,0.059832
3415.11,0.06028
3417.36,0.060507
3419.61,0.060815
3421.87,0.061152
3424.13,0.061501
3426.39,0.061885
3428.66,0.062262
3430.93,0.062646
3433.2,0.063035
3435.48,0.0635
3437.76,0.064015
3440.04,0.064476
3442.32,0.064913
3444.61,0.065213
3446.9,0.065403
3449.19,0.065801
3451.49,0.066305
3453.79,0.066816
3456.09,0.067142
3458.4,0.067445
3460.7,0.06782
3463.02,0.068234
3465.33,0.068671
3467.65,0.069092
3469.97,0.069496
3472.29,0.069744
3474.62,0.070139
3476.95,0.070778
3479.29,0.071208
3481.62,0.071552
3483.96,0.071904
3486.3,0.072198
3488.65,0.072533
3491.0,0.072968
3493.35,0.073382
3495.71,0.073773
3498.07,0.074143
3500.43,0.074515
3502.79,0.074862
3505.16,0.075375
3507.53,0.075829
3509.91,0.076245
3512.29,0.076696
3514.67,0.077228
3517.05,0.077709
3519.44,0.078213
3521.83,0.078662
3524.23,0.079092
3526.62,0.079536
3529.02,0.079913
3531.43,0.080387
3533.83,0.08097
3536.24,0.081421
3538.66,0.082031
3541.08,0.082688
3543.5,0.083208
3545.92,0.083583
3548.35,0.08414
3550.78,0.084804
3553.21,0.085452
3555.65,0.086035
3558.09,0.086645
3560.53,0.087084
3562.98,0.087612
3565.43,0.088139
3567.88,0.088648
3570.34,0.089328
3572.8,0.089985
3575.27,0.090621
3577.73,0.091372
3580.2,0.09193
3582.68,0.092411
3585.16,0.093084
3587.64,0.093724
3590.12,0.094349
3592.61,0.095026
3595.1,0.095651
3597.6,0.096382
3600.09,0.09696
3602.6,0.097522
3605.1,0.098225
3607.61,0.098925
3610.12,0.099587
3612.64,0.100281
3615.16,0.101007
3617.68,0.10174
3620.21,0.102566
3622.74,0.103384
3625.27,0.103979
3627.81,0.104603
3630.35,0.105466
3632.89,0.106076
3635.44,0.106574
3637.99,0.107258
3640.54,0.108021
3643.1,0.10868
3645.66,0.109395
3648.23,0.110036
3650.8,0.110632
3653.37,0.111296
3655.95,0.111969
3658.53,0.112556
3661.11,0.113142
3663.7,0.113909
3666.29,0.114476
3668.89,0.114964
3671.48,0.115581
3674.09,0.116391
3676.69,0.117117
3679.3,0.117642
3681.91,0.118179
3684.53,0.118796
3687.15,0.119488
3689.78,0.120198
3692.4,0.120831
3695.04,0.121458
3697.67,0.122147
3700.31,0.122788
3702.95,0.123415
3705.6,0.124238
3708.25,0.125036
3710.91,0.125787
3713.56,0.126537
3716.23,0.127309
3718.89,0.12798
3721.56,0.128648
3724.23,0.12924
3726.91,0.129811
3729.59,0.130399
3732.28,0.131197
3734.97,0.131974
3737.66,0.132675
3740.36,0.133378
3743.06,0.134076
3745.76,0.134666
3748.47,0.135256
3751.18,0.13576
3753.9,0.136273
3756.62,0.136754
3759.34,0.137439
3762.07,0.138105
3764.8,0.138547
3767.54,0.139023
3770.28,0.139564
3773.02,0.140071
3775.77,0.140683
3778.52,0.141107
3781.28,0.141629
3784.04,0.142258
3786.8,0.142751
3789.57,0.143045
3792.34,0.143442
3795.12,0.143856
3797.9,0.144298
3800.69,0.144728
3803.47,0.145017
3806.27,0.145219
3809.06,0.145533
3811.86,0.145873
3814.67,0.146158
3817.48,0.146579
3820.29,0.146983
3823.11,0.147159
3825.93,0.147397
3828.76,0.147626
3831.59,0.1477
3834.42,0.14776
3837.26,0.147922
3840.1,0.148003
3842.95,0.148052
3845.8,0.148036
3848.65,0.148144
3851.51,0.148174
3854.38,0.148054
3857.24,0.147672
3860.12,0.146983
3862.99,0.145797
3865.87,0.143933
3868.76,0.14104
3871.65,0.137954
3874.54,0.137238
3877.44,0.13965
3880.34,0.142758
3883.25,0.145041
3886.16,0.146551
3889.07,0.147559
3891.99,0.147992
3894.92,0.148267
3897.85,0.148399
3900.78,0.148438
3903.72,0.14848
3906.66,0.148595
3909.6,0.148542
3912.55,0.148429
3915.51,0.148258
3918.47,0.148024
3921.43,0.147948
3924.4,0.147853
3927.38,0.147723
3930.35,0.147635
3933.33,0.14749
3936.32,0.14727
3939.31,0.147076
3942.31,0.146875
3945.31,0.146627
3948.31,0.146359
3951.32,0.1461
3954.34,0.145973
3957.35,0.145827
3960.38,0.145667
3963.41,0.145394
3966.44,0.145246
3969.48,0.145011
3972.52,0.14474
3975.56,0.144474
3978.61,0.144231
3981.67,0.143979
3984.73,0.143824
3987.8,0.143512
3990.87,0.143033
3993.94,0.142788
3997.02,0.142494
4000.1,0.142143
4003.19,0.141789
4006.29,0.141396
4009.39,0.141049
4012.49,0.140575
4015.6,0.140177
4018.71,0.13971
4021.83,0.139291
4024.95,0.13887
4028.08,0.138288
4031.21,0.137793
4034.35,0.137441
4037.49,0.136935
4040.64,0.136266
4043.79,0.135695
4046.94,0.135165
4050.11,0.134432
4053.27,0.133877
4056.44,0.133306
4059.62,0.132584
4062.8,0.131891
4065.99,0.131366
4069.18,0.1307
4072.38,0.129985
4075.58,0.12934
4078.78,0.128736
4082.0,0.128156
4085.21,0.127654
4088.43,0.127168
4091.66,0.126786
4094.89,0.126329
4098.13,0.125815
4101.37,0.125283
4104.62,0.124823
4107.87,0.124467
4111.13,0.124081
4114.39,0.123567
4117.66,0.123084
4120.93,0.122663
4124.21,0.122367
4127.5,0.121907
4130.79,0.121488
4134.08,0.121141
4137.38,0.120896
4140.68,0.120593
4143.99,0.120394
4147.31,0.120279
4150.63,0.120295
4153.95,0.120309
4157.29,0.120316
4160.62,0.120438
4163.96,0.120713
4167.31,0.120831
4170.66,0.121074
4174.02,0.121201
4177.39,0.121243
4180.75,0.121278
4184.13,0.121157
4187.51,0.120919
4190.89,0.120704
4194.28,0.120397
4197.68,0.119952
4201.08,0.119407
4204.49,0.119009
4207.9,0.118553
4211.32,0.117982
4214.74,0.11724
4218.17,0.116433
4221.61,0.115457
4225.05,0.114321
4228.5,0.112899
4231.95,0.111372
4235.4,0.109751
4238.87,0.108155
4242.34,0.106495
4245.81,0.104777
4249.29,0.103264
4252.78,0.101909
4256.27,0.100551
4259.77,0.099295
4263.27,0.098197
4266.78,0.097096
4270.29,0.096048
4273.81,0.095031
4277.34,0.09393
4280.87,0.092945
4284.41,0.092006
4287.95,0.091021
4291.5,0.09013
4295.06,0.089282
4298.62,0.08835
4302.19,0.087237
4305.76,0.085981
4309.34,0.084575
4312.92,0.082762
4316.52,0.080671
4320.11,0.078157
4323.72,0.07523
4327.32,0.072392
4330.94,0.069522
4334.56,0.06664
4338.19,0.064251
4341.82,0.062251
4345.46,0.060685
4349.11,0.059459
4352.76,0.058451
4356.42,0.057602
4360.08,0.056832
4363.75,0.05606
4367.43,0.055521
4371.11,0.055174
4374.8,0.054966
4378.49,0.054954
4382.19,0.055118
4385.9,0.055484
4389.61,0.056173
4393.33,0.056848
4397.06,0.057531
4400.79,0.05818
4404.53,0.058523
4408.28,0.058675
4412.03,0.058708
4415.79,0.058622
4419.55,0.05843
4423.32,0.058049
4427.1,0.057422
4430.88,0.056647
4434.68,0.055919
4438.47,0.055061
4442.28,0.054302
4446.08,0.053747
4449.9,0.053236
4453.72,0.052623
4457.55,0.052151
4461.39,0.051841
4465.23,0.051416
4469.08,0.050895
4472.94,0.050389
4476.8,0.049876
4480.67,0.049438
4484.55,0.048842
4488.43,0.047933
4492.32,0.046867
4496.21,0.046291
4500.12,0.046009
4504.03,0.045798
4507.94,0.045805
4511.87,0.045919
4515.8,0.046092
4519.73,0.04645
4523.68,0.046531
4527.63,0.046462
4531.59,0.046437
4535.55,0.046427
4539.52,0.046182
4543.5,0.045886
4547.49,0.0455
4551.48,0.045028
4555.48,0.044607
4559.49,0.04429
4563.5,0.044096
4567.52,0.043784
4571.55,0.043155
4575.58,0.042523
4579.63,0.041668
4583.67,0.040733
4587.73,0.03979
4591.79,0.039038
4595.86,0.038439
4599.94,0.038294
4604.03,0.038564
4608.12,0.039061
4612.22,0.039753
4616.33,0.04068
4620.44,0.041515
4624.56,0.042352
4628.69,0.043294
4632.83,0.044277
4636.97,0.045243
4641.12,0.046564
4645.28,0.048171
4649.45,0.049889
4653.62,0.051721
4657.8,0.053569
4661.99,0.055068
4666.19,0.055935
4670.39,0.056004
4674.6,0.055366
4678.82,0.054556
4683.05,0.054041
4687.28,0.053779
4691.52,0.053437
4695.77,0.053007
4700.03,0.05257
4704.3,0.05198
4708.57,0.05136
4712.85,0.05078
4717.14,0.050074
4721.43,0.049207
4725.74,0.048345
4730.05,0.047625
4734.37,0.047288
4738.7,0.047641
4743.03,0.048976
4747.38,0.051314
4751.73,0.054547
4756.09,0.0585
4760.45,0.063162
4764.83,0.068553
4769.21,0.074978
4773.6,0.082642
4778.0,0.091712
4782.41,0.102036
4786.83,0.112848
4791.25,0.123116
4795.68,0.132416
4800.13,0.140265
4804.57,0.146865
4809.03,0.152215
4813.5,0.156715
4817.97,0.160519
4822.45,0.163618
4826.94,0.165681
4831.44,0.166535
4835.95,0.165681
4840.46,0.163255
4844.99,0.159613
4849.52,0.156014
4854.06,0.154264
4858.61,0.155866
4863.17,0.160901
4867.73,0.168133
4872.31,0.17539
4876.89,0.181239
4881.48,0.184918
4886.08,0.187097
4890.69,0.189555
4895.31,0.193917
4899.94,0.199437
4904.57,0.204828
4909.22,0.209486
4913.87,0.213549
4918.53,0.216831
4923.21,0.219729
4927.88,0.222268
4932.57,0.224565
4937.27,0.226542
4941.98,0.228476
4946.69,0.230148
4951.42,0.231642
4956.15,0.232891
4960.9,0.233989
4965.65,0.234859
4970.41,0.235855
4975.18,0.236535
4979.96,0.237176
4984.75,0.237796
4989.54,0.238478
4994.35,0.239022
4999.17,0.23972
5003.99,0.240317
5008.83,0.240879
5013.67,0.241302
5018.52,0.241815
5023.39,0.242046
5028.26,0.242155
5033.14,0.242477
5038.03,0.242824
5042.93,0.242988
5047.84,0.243094
5052.76,0.243101
5057.69,0.24317
5062.63,0.243027
5067.58,0.242893
5072.54,0.242738
5077.51,0.242673
5082.49,0.242454
5087.47,0.242074
5092.47,0.241577
5097.48,0.241508
5102.5,0.241232
5107.52,0.240911
5112.56,0.240386
5117.61,0.240139
5122.66,0.239824
5127.73,0.239507
5132.81,0.238971
5137.89,0.238536
5142.99,0.238117
5148.1,0.237854
5153.22,0.237127
5158.34,0.236505
5163.48,0.236262
5168.63,0.235906
5173.79,0.235529
5178.96,0.235231
5184.13,0.234838
5189.32,0.234664
5194.52,0.234572
5199.73,0.2346
5204.96,0.234269
5210.19,0.233998
5215.43,0.234128
5220.68,0.233524
5225.94,0.233233
5231.22,0.233307
5236.5,0.232939
5241.79,0.232521
5247.1,0.231866
5252.42,0.23135
5257.74,0.230601
5263.08,0.229838
5268.43,0.228975
5273.79,0.228318
5279.16,0.22749
5284.54,0.226538
5289.93,0.2258
5295.34,0.225224
5300.75,0.224017
5306.18,0.223452
5311.61,0.222895
5317.06,0.222335
5322.52,0.221801
5327.99,0.22145
5333.47,0.221008
5338.96,0.220712
5344.47,0.22043
5349.98,0.220594
5355.51,0.219919
5361.05,0.219026
5366.6,0.218943
5372.16,0.218809
5377.73,0.218337
5383.32,0.217934
5388.91,0.217377
5394.52,0.216686
5400.14,0.215862
5405.77,0.214958
5411.41,0.213929
5417.07,0.212754
5422.74,0.211824
5428.41,0.209382
5434.1,0.206713
5439.81,0.205675
5445.52,0.20379
5451.25,0.201628
5456.98,0.199097
5462.73,0.19688
5468.5,0.193961
5474.27,0.190291
5480.06,0.187677
5485.86,0.184574
5491.67,0.1815
5497.49,0.179319
5503.33,0.176755
5509.18,0.17446
5515.04,0.172358
5520.91,0.170818
5526.8,0.169208
5532.69,0.167911
5538.61,0.166785
5544.53,0.165862
5550.47,0.164904
5556.41,0.164097
5562.38,0.163054
5568.35,0.162441
5574.34,0.162074
5580.34,0.161942
5586.35,0.160445
5592.38,0.159615
5598.42,0.159606
5604.47,0.159275
5610.54,0.158327
5616.61,0.157834
5622.71,0.157009
5628.81,0.156266
5634.93,0.155654
5641.06,0.155258
5647.21,0.153695
5653.36,0.151465
5659.54,0.150482
5665.72,0.148847
5671.92,0.147862
5678.13,0.146955
5684.36,0.144976
5690.6,0.144011
5696.85,0.143216
5703.12,0.141754
5709.4,0.141199
5715.69,0.139872
5722.0,0.137788
5728.33,0.136488
5734.66,0.135128
5741.01,0.133856
5747.38,0.132337
5753.76,0.130521
5760.15,0.128334
5766.56,0.128024
5772.98,0.125124
5779.41,0.122022
5785.86,0.120935
5792.33,0.119145
5798.81,0.117219
5805.3,0.115228
5811.81,0.112827
5818.33,0.111009
5824.87,0.108835
5831.42,0.105457
5837.99,0.102753
5844.57,0.100547
5851.17,0.098195
5857.78,0.095734
5864.41,0.093035
5871.05,0.0898
5877.7,0.0872
5884.38,0.084964
5891.06,0.079913
5897.76,0.077367
5904.48,0.073858
5911.21,0.070674
5917.96,0.069476
5924.73,0.0681
5931.5,0.067087
5938.3,0.066668
5945.11,0.064977
5951.93,0.064075
5958.78,0.064325
5965.63,0.0643
5972.51,0.064261
5979.39,0.063389
5986.3,0.063248
5993.22,0.063111
6000.16,0.062348
6007.11,0.061934
6014.08,0.061848
6021.06,0.061148
6028.06,0.060368
6035.08,0.059873
6042.12,0.059464
6049.17,0.059496
6056.23,0.058095
6063.32,0.056545
6070.42,0.057135
6077.53,0.05698
6084.67,0.056222
6091.82,0.056187
6098.98,0.056559
6106.17,0.056686
6113.37,0.057174
6120.58,0.056945
6127.82,0.056573
6135.07,0.057158
6142.34,0.057824
6149.63,0.05828
6156.93,0.058914
6164.25,0.059499
6171.59,0.059991
6178.95,0.06099
6186.32,0.062322
6193.71,0.06272
6201.12,0.063312
6208.54,0.064647
6215.99,0.06566
6223.45,0.066497
6230.93,0.067355
6238.43,0.068298
6245.95,0.069094
6253.48,0.069765
6261.03,0.070227
6268.6,0.070602
6276.19,0.07087
6283.8,0.071069
6291.43,0.071277
6299.07,0.0714
6306.73,0.071458
6314.42,0.071687
6322.12,0.071953
6329.84,0.072193
6337.57,0.0726
6345.33,0.073268
6353.11,0.072935
6360.9,0.072854
6368.72,0.073826
6376.55,0.074249
6384.4,0.074466
6392.27,0.075396
6400.17,0.076365
6408.08,0.077577
6416.01,0.07887
6423.96,0.078074
6431.93,0.078259
6439.92,0.079249
6447.93,0.079342
6455.96,0.079538
6464.01,0.079133
6472.08,0.078844
6480.17,0.078257
6488.28,0.077505
6496.41,0.076839
6504.56,0.074906
6512.73,0.073585
6520.92,0.073555
6529.14,0.072249
6537.37,0.070539
6545.63,0.069508
6553.9,0.068139
6562.2,0.066314
6570.51,0.064936
6578.85,0.063428
6587.21,0.061351
6595.59,0.0605
6603.99,0.059337
6612.42,0.058449
6620.86,0.057838
6629.33,0.057223
6637.82,0.056899
6646.33,0.055477
6654.86,0.053951
6663.41,0.053569
6671.99,0.053021
6680.59,0.05223
6689.21,0.051228
6697.85,0.049993
6706.51,0.049466
6715.2,0.048761
6723.91,0.047702
6732.64,0.047033
6741.4,0.046582
6750.18,0.046296
6758.98,0.045983
6767.8,0.045724
6776.65,0.045643
6785.52,0.045738
6794.41,0.045962
6803.33,0.045771
6812.27,0.04599
6821.23,0.046492
6830.22,0.04686
6839.23,0.047005
6848.26,0.047369
6857.32,0.047912
6866.4,0.048227
6875.51,0.047602
6884.64,0.04745
6893.8,0.04757
6902.98,0.047357
6912.18,0.047052
6921.41,0.046467
6930.66,0.045919
6939.94,0.045317
6949.24,0.044684
6958.57,0.044279
6967.92,0.043629
6977.3,0.042674
6986.7,0.042288
6996.13,0.041839
7005.59,0.041381
7015.07,0.041057
7024.57,0.040986
7034.1,0.040939
7043.66,0.041205
7053.25,0.041328
7062.85,0.041228
7072.49,0.041649
7082.15,0.042052
7091.84,0.04253
7101.55,0.042947
7111.3,0.043298
7121.06,0.043675
7130.86,0.043918
7140.68,0.044223
7150.53,0.04451
7160.41,0.044394
7170.31,0.044399
7180.24,0.044105
7190.2,0.043682
7200.19,0.043527
7210.2,0.043312
7220.24,0.042789
7230.31,0.042253
7240.41,0.0418
7250.54,0.041258
7260.69,0.040671
7270.88,0.039933
7281.09,0.03917
7291.33,0.038324
7301.6,0.037711
7311.9,0.03707
7322.22,0.036367
7332.58,0.035791
7342.97,0.035181
7353.38,0.034443
7363.83,0.033825
7374.3,0.033092
7384.81,0.032116
7395.34,0.030944
7405.91,0.029727
7416.5,0.028499
7427.13,0.027176
7437.78,0.025805
7448.47,0.024489
7459.19,0.023303
7469.94,0.022121
7480.71,0.021092
7491.52,0.020252
7502.37,0.019408
7513.24,0.018638
7524.14,0.018159
7535.08,0.017835
7546.05,0.01753
7557.05,0.01722
7568.08,0.017024
7579.15,0.016899
7590.24,0.016857
7601.37,0.017098
7612.53,0.017801
7623.73,0.018911
7634.96,0.020349
7646.22,0.022278
7657.51,0.024945
7668.84,0.028208
7680.2,0.031938
7691.59,0.03633
7703.02,0.041291
7714.49,0.046686
7725.98,0.052581
7737.52,0.05893
7749.08,0.065357
7760.68,0.071585
7772.32,0.077413
7783.99,0.082845
7795.69,0.087265
7807.43,0.090401
7819.21,0.092239
7831.02,0.092693
7842.87,0.091869
7854.75,0.090186
7866.67,0.087968
7878.62,0.085544
7890.62,0.08322
7902.64,0.081076
7914.71,0.078877
7926.81,0.076624
7938.95,0.074348
7951.13,0.072017
7963.34,0.069531
7975.59,0.067006
7987.88,0.064439
8000.21,0.061895
8012.57,0.059427
8024.98,0.057156
8037.42,0.054984
8049.9,0.052988
8062.42,0.051182
8074.98,0.049647
8087.57,0.04849
8100.21,0.047498
8112.89,0.046561
8125.6,0.045907
8138.36,0.04565
8151.16,0.04565
8163.99,0.045643
8176.87,0.045819
8189.79,0.046302
8202.75,0.047151
8215.75,0.048217
8228.79,0.049623
8241.87,0.051298
8254.99,0.053349
8268.16,0.055764
8281.37,0.058608
8294.62,0.062052
8307.91,0.065882
8321.24,0.069957
8334.62,0.074427
8348.04,0.079554
8361.51,0.085207
8375.02,0.091169
8388.57,0.09764
8402.16,0.104605
8415.8,0.111948
8429.49,0.119705
8443.22,0.128084
8456.99,0.137217
8470.81,0.147707
8484.67,0.159497
8498.58,0.172973
8512.54,0.188445
8526.54,0.20604
8540.58,0.225081
8554.68,0.244396
8568.82,0.261378
8583.0,0.273541
8597.24,0.277694
8611.52,0.269958
8625.85,0.247139
8640.23,0.215934
8654.65,0.19515
8669.12,0.196949
8683.64,0.213702
8698.21,0.233584
8712.83,0.250909
8727.5,0.265118
8742.22,0.276517
8756.99,0.286052
8771.8,0.29386
8786.67,0.300467
8801.59,0.305812
8816.56,0.310516
8831.58,0.314531
8846.65,0.318296
8861.77,0.321534
8876.94,0.324684
8892.17,0.327512
8907.45,0.330292
8922.78,0.332697
8938.16,0.334984
8953.6,0.336777
8969.09,0.338273
8984.64,0.339138
9000.23,0.339533
9015.89,0.339136
9031.59,0.338708
9047.36,0.33788
9063.17,0.33686
9079.05,0.335845
9094.97,0.334945
9110.96,0.333569
9127.0,0.332302
9143.1,0.330794
9159.25,0.329279
9175.46,0.327445
9191.73,0.325317
9208.06,0.322473
9224.44,0.3193
9240.88,0.315289
9257.38,0.310391
9273.94,0.304017
9290.56,0.295907
9307.24,0.284905
9323.98,0.269822
9340.78,0.248788
9357.64,0.223973
9374.57,0.19969
9391.55,0.179458
9408.59,0.163392
9425.7,0.150651
9442.87,0.140281
9460.1,0.131696
9477.4,0.124522
9494.75,0.118521
9512.17,0.113285
9529.66,0.108514
9547.21,0.104124
9564.83,0.099959
9582.5,0.096159
9600.25,0.092727
9618.06,0.089448
9635.94,0.086245
9653.88,0.083312
9671.89,0.080683
9689.97,0.079314
9708.12,0.082556
9726.33,0.093023
9744.62,0.103831
9762.97,0.104994
9781.39,0.097667
9799.88,0.089383
9818.44,0.083821
9837.07,0.08019
9855.77,0.077637
9874.54,0.075736
9893.39,0.074177
9912.3,0.072843
9931.29,0.071617
9950.36,0.070558
9969.49,0.069614
9988.7,0.068969
10007.98,0.068275
10027.34,0.067494
10046.77,0.066969
10066.28,0.066495
10085.87,0.066044
10105.53,0.065465
10125.26,0.064818
10145.08,0.06423
10164.97,0.063768
10184.94,0.063377
10204.99,0.063065
10225.12,0.06288
10245.33,0.062688
10265.61,0.062422
10285.98,0.062225
10306.43,0.062047
10326.96,0.061848
10347.57,0.061772
10368.27,0.061726
10389.05,0.061427
10409.91,0.060891
10430.86,0.060468
10451.88,0.060188
10473.0,0.059878
10494.2,0.059191
10515.49,0.05859
10536.86,0.058155
10558.32,0.057755
10579.87,0.05745
10601.5,0.056978
10623.23,0.056568
10645.04,0.056451
10666.94,0.056101
10688.94,0.055798
10711.02,0.055581
10733.2,0.055246
10755.47,0.054903
10777.83,0.054496
10800.28,0.054082
10822.83,0.053539
10845.47,0.052875
10868.21,0.0522
10891.04,0.051636
10913.97,0.051122
10936.99,0.050507
10960.12,0.049919
10983.34,0.049392
11006.66,0.048772
11030.07,0.048277
11053.59,0.047887
11077.21,0.047364
11100.93,0.046802
11124.75,0.046402
11148.68,0.04603
11172.71,0.045722
11196.84,0.045373
11221.07,0.044919
11245.41,0.044579
11269.86,0.044332
11294.41,0.044089
11319.07,0.043948
11343.84,0.043934
11368.72,0.044105
11393.7,0.044367
11418.8,0.044538
11444.01,0.044364
11469.33,0.043971
11494.76,0.043465
11520.3,0.043042
11545.96,0.042771
11571.73,0.042389
11597.62,0.042022
11623.62,0.041591
11649.74,0.041092
11675.98,0.040805
11702.34,0.040444
11728.81,0.039892
11755.41,0.039357
11782.13,0.03861
11808.96,0.03806
11835.92,0.037625
11863.01,0.037019
11890.22,0.036305
11917.55,0.035632
11945.01,0.034952
11972.6,0.033969
12000.31,0.033072
12028.16,0.032537
12056.13,0.031767
12084.23,0.030918
12112.46,0.030107
12140.83,0.029489
12169.33,0.028795
12197.96,0.027715
12226.73,0.026809
12255.64,0.026002
12284.68,0.024968
12313.86,0.024256
12343.18,0.023587
12372.64,0.022812
12402.24,0.022068
12431.98,0.021383
12461.86,0.020872
12491.89,0.020245
12522.07,0.019519
12552.38,0.018909
12582.85,0.018388
12613.47,0.017882
12644.23,0.017172
12675.15,0.016443
12706.21,0.015867
12737.43,0.015292
12768.81,0.014595
12800.33,0.014017
12832.02,0.013606
12863.86,0.013349
12895.86,0.013018
12928.02,0.012502
12960.34,0.012054
12992.82,0.011987
13025.46,0.01213
13058.27,0.012273
13091.25,0.012583
13124.39,0.013303
13157.7,0.014251
13191.18,0.015324
13224.83,0.01685
13258.66,0.01908
13292.65,0.021589
13326.83,0.024792
13361.17,0.028425
13395.7,0.032454
13430.4,0.037001
13465.29,0.042005
13500.35,0.047667
13535.6,0.053988
13571.03,0.060845
13606.65,0.068312
13642.46,0.075937
13678.46,0.083976
13714.64,0.092623
13751.02,0.101624
13787.59,0.11091
13824.36,0.120773
13861.32,0.131102
13898.49,0.142036
13935.85,0.153704
13973.41,0.165085
14011.17,0.175998
14049.15,0.18598
14087.32,0.194389
14125.71,0.20126
14164.3,0.206704
14203.11,0.210892
14242.13,0.214315
14281.36,0.217224
14320.81,0.219865
14360.49,0.22182
14400.38,0.223149
14440.49,0.223559
14480.82,0.223425
14521.39,0.222513
14562.18,0.220492
14603.2,0.216942
14644.45,0.211961
14685.93,0.2053
14727.66,0.197053
14769.62,0.187236
14811.81,0.176396
14854.25,0.164782
14896.94,0.152927
14939.87,0.141456
14983.05,0.130228
15026.48,0.118889
15070.16,0.108387
15114.1,0.098093
15158.29,0.0881
15202.74,0.078715
15247.46,0.070463
15292.43,0.064473
15337.68,0.062327
15383.19,0.064737
15428.97,0.071328
15475.03,0.083333
15521.36,0.105174
15567.97,0.135177
15614.87,0.163711
15662.04,0.184678
15709.5,0.198963
15757.25,0.208892
15805.29,0.215104
15853.62,0.219068
15902.26,0.222146
15951.19,0.223473
16000.42,0.221639
16049.95,0.21537
16099.8,0.203496
16149.95,0.185635
16200.42,0.164019
16251.21,0.142497
16302.31,0.125343
16353.74,0.118088
16405.49,0.12684
16457.57,0.153017
16509.98,0.188975
16562.73,0.222629
16615.82,0.248487
16669.24,0.265204
16723.02,0.272706
16777.14,0.271686
16831.61,0.263376
16886.43,0.24802
16941.62,0.227854
16997.16,0.20666
17053.08,0.18774
17109.36,0.171778
17166.01,0.159386
17223.04,0.149192
17280.45,0.140367
17338.24,0.132633
17396.43,0.126046
17455.0,0.120387
17513.97,0.115695
17573.34,0.111567
17633.11,0.107635
17693.29,0.103882
17753.89,0.100827
17814.9,0.097894
17876.33,0.095468
17938.18,0.093137
18000.47,0.090288
18063.19,0.087297
18126.35,0.084929
18189.95,0.083095
18254.0,0.081407
18318.5,0.079503
18383.46,0.077274
18448.88,0.07495
18514.77,0.073074
18581.13,0.071765
18647.97,0.071277
18715.29,0.072461
18783.1,0.07594
18851.4,0.081495
18920.2,0.086282
18989.51,0.088972
19059.32,0.090625
19129.65,0.091136
19200.5,0.091109
19271.88,0.089571
19343.79,0.08659
19416.24,0.083398
19489.23,0.080024
19562.77,0.077739
19636.88,0.075771
19711.54,0.072915
19786.78,0.070359
19862.59,0.068844
19938.98,0.067676
20015.96,0.066529
20093.55,0.065618
20171.73,0.064614
20250.53,0.062785
20329.94,0.060613
20409.98,0.059647
20490.65,0.060535
20571.96,0.063174
20653.92,0.064853
20736.54,0.064725
20819.82,0.064149
20903.77,0.063564
20988.4,0.062852
21073.72,0.062316
21159.73,0.061497
21246.46,0.060301
21333.89,0.059217
21422.04,0.057998
21510.93,0.056439
21600.56,0.054346
21690.94,0.053046
21782.08,0.052558
21873.99,0.050974
21966.67,0.048992
22060.15,0.048398
22154.42,0.048421
22249.51,0.048296
22345.41,0.049462
22442.14,0.054908
22539.72,0.062207
22638.14,0.068817
22737.43,0.075477
22837.6,0.083079
22938.65,0.087452
23040.6,0.090357
23143.46,0.092427
23247.24,0.0927
23351.96,0.090961
23457.63,0.08921
23564.25,0.087917
23671.85,0.087327
23780.44,0.083521
23890.02,0.082068
24000.63,0.077984
24112.26,0.072443
24224.93,0.071513
24338.66,0.069557
24453.47,0.066652
24569.36,0.062632
24686.36,0.055512
24804.47,0.054649
24923.73,0.053178
25044.13,0.045694
25165.71,0.036325
25288.46,0.048134
25412.43,0.047563
25537.61,0.040509
25664.04,0.029468
25791.72,0.032003
25920.68,0.037875
