Database of Origin,University of Winnipeg Spectrophotometer Facility
Sample Description,Carbonates and Oxolates - RELAB+Nicolet spectra Newly merged spectra (merged by RELAB)
Other Information,Baked
Date Added,2018-08-06 20:49:02.691367

Data ID,RLA_CARB_1_29       
Sample ID,CRB206Bk
Mineral Name,Gaylussite
Locality,Searles Lake/ San Bernardino County/ California/ USA
Grain Size,<45 um
Viewing Geometry,30/0/30
Resolution,5/ 0.6-129 nm
Formula,CaCO3*Na2CO3*5(H2O)
Composition,Nyererite

Wavelength
305.0,0.690799
310.0,0.698136
315.0,0.704094
320.0,0.708962
325.0,0.710709
330.0,0.716704
335.0,0.721247
340.0,0.726684
345.0,0.731045
350.0,0.733178
355.0,0.740268
360.0,0.741474
365.0,0.746285
370.0,0.748482
375.0,0.75174
380.0,0.753587
385.0,0.755058
390.0,0.755084
395.0,0.752376
400.0,0.751155
405.0,0.751026
410.0,0.752067
415.0,0.759194
420.0,0.763587
425.0,0.772151
430.0,0.778275
435.0,0.785794
440.0,0.790595
445.0,0.799102
450.0,0.802836
455.0,0.808915
460.0,0.813129
465.0,0.81792
470.0,0.820727
475.0,0.826125
480.0,0.828334
485.0,0.831807
490.0,0.834059
495.0,0.836628
500.0,0.838045
505.0,0.84054
510.0,0.843023
515.0,0.846373
520.0,0.848393
525.0,0.850442
530.0,0.852453
535.0,0.854255
540.0,0.855844
545.0,0.857006
550.0,0.858914
555.0,0.860298
560.0,0.860009
565.0,0.860958
570.0,0.861241
575.0,0.863294
580.0,0.86387
585.0,0.86563
590.0,0.866053
595.0,0.866696
600.0,0.867028
605.0,0.866997
610.0,0.86789
615.0,0.869638
620.0,0.870371
625.0,0.870603
630.0,0.871691
635.0,0.871418
640.0,0.871606
645.0,0.870255
650.0,0.869107
655.0,0.868413
660.0,0.86862
665.0,0.869268
670.0,0.87114
675.0,0.874094
680.0,0.876914
685.0,0.879857
690.0,0.882185
695.0,0.884672
700.0,0.885979
705.0,0.88842
710.0,0.889301
715.0,0.890222
720.0,0.891866
725.0,0.892014
730.0,0.89326
735.0,0.893816
740.0,0.895401
745.0,0.895839
750.0,0.896901
755.0,0.898075
760.0,0.898083
765.0,0.899266
770.0,0.900164
775.0,0.900753
780.0,0.901389
785.0,0.902172
790.0,0.903033
795.0,0.902333
800.0,0.903884
805.0,0.904454
810.0,0.904459
815.0,0.90552
820.0,0.906292
825.0,0.906076
830.0,0.906337
835.0,0.906699
840.0,0.9069
845.0,0.90594
850.0,0.906905
855.0,0.907999
860.0,0.907586
865.0,0.907875
870.0,0.907267
875.0,0.908681
880.0,0.90863
885.0,0.908663
890.0,0.908148
895.0,0.909769
900.0,0.90824
905.0,0.908657
910.0,0.90858
915.0,0.909336
920.0,0.909092
925.0,0.908642
930.0,0.909934
935.0,0.909381
940.0,0.909666
945.0,0.909315
950.0,0.910231
955.0,0.910549
960.0,0.910704
965.0,0.909734
970.0,0.90992
975.0,0.909785
980.0,0.910396
985.0,0.910839
990.0,0.910718
995.0,0.910674
1000.0,0.910654
1005.0,0.911113
1010.0,0.911377
1015.0,0.910908
1020.0,0.911823
1025.0,0.912061
1030.0,0.911431
1035.0,0.912249
1040.0,0.91198
1045.0,0.912508
1050.0,0.912561
1055.0,0.912446
1060.0,0.91259
1065.0,0.913059
1070.0,0.912701
1075.0,0.913356
1080.0,0.913193
1085.0,0.912799
1090.0,0.91292
1095.0,0.914008
1100.0,0.913062
1105.0,0.913207
1110.0,0.913548
1115.0,0.913314
1120.0,0.913532
1125.0,0.913205
1130.0,0.913473
1135.0,0.913243
1140.0,0.91332
1145.0,0.913358
1150.0,0.913132
1155.0,0.912689
1160.0,0.911982
1165.0,0.912416
1170.0,0.912215
1175.0,0.91304
1180.0,0.912938
1185.0,0.913503
1190.0,0.913751
1195.0,0.913596
1200.0,0.913861
1205.0,0.914142
1210.0,0.914285
1215.0,0.914383
1220.0,0.915299
1225.0,0.914868
1230.0,0.914584
1235.0,0.915342
1240.0,0.915212
1245.0,0.916032
1250.0,0.916098
1255.0,0.916452
1260.0,0.916186
1265.0,0.916737
1270.0,0.916758
1275.0,0.916886
1280.0,0.916088
1285.0,0.916214
1290.0,0.916835
1295.0,0.916384
1300.0,0.917372
1305.0,0.917726
1310.0,0.916335
1315.0,0.91607
1320.0,0.916132
1325.0,0.915063
1330.0,0.915114
1335.0,0.914508
1340.0,0.913665
1345.0,0.912626
1350.0,0.912231
1355.0,0.910742
1360.0,0.910486
1365.0,0.908938
1370.0,0.907322
1375.0,0.904177
1380.0,0.897465
1385.0,0.89204
1420.0,0.872927
1425.0,0.869017
1430.0,0.8673
1435.0,0.867137
1440.0,0.869443
1445.0,0.869816
1450.0,0.869906
1455.0,0.870919
1460.0,0.870249
1465.0,0.869786
1470.0,0.869104
1475.0,0.869926
1480.0,0.870933
1485.0,0.872278
1490.0,0.873164
1495.0,0.874516
1500.0,0.876396
1505.0,0.876897
1510.0,0.877209
1515.0,0.877425
1520.0,0.877693
1525.0,0.877978
1530.0,0.878073
1535.0,0.878221
1540.0,0.878336
1545.0,0.878365
1550.0,0.878481
1555.0,0.878365
1560.0,0.878468
1565.0,0.878531
1570.0,0.878583
1575.0,0.878421
1580.0,0.878483
1585.0,0.878471
1590.0,0.878367
1595.0,0.878398
1600.0,0.878127
1605.0,0.878119
1610.0,0.878059
1615.0,0.87776
1620.0,0.877674
1625.0,0.87749
1630.0,0.877469
1635.0,0.877253
1640.0,0.877138
1645.0,0.876895
1650.0,0.876695
1655.0,0.876386
1660.0,0.876132
1665.0,0.875943
1670.0,0.875494
1675.0,0.874787
1680.0,0.874561
1685.0,0.8739
1690.0,0.873544
1695.0,0.872994
1700.0,0.872547
1705.31,0.871923
1709.81,0.871994
1715.46,0.871778
1720.02,0.871468
1724.6,0.871094
1730.35,0.87057
1734.98,0.869899
1739.64,0.869173
1745.5,0.868589
1750.21,0.868398
1754.95,0.868249
1759.72,0.868244
1764.51,0.868047
1770.54,0.86759
1775.39,0.867421
1780.27,0.867159
1785.17,0.867078
1790.1,0.86713
1795.06,0.866852
1800.05,0.866958
1805.06,0.866723
1810.1,0.866542
1815.17,0.865925
1820.27,0.865709
1825.4,0.865324
1830.56,0.864684
1834.44,0.864464
1839.65,0.86378
1844.89,0.863526
1850.16,0.862655
1855.45,0.861855
1859.45,0.860784
1864.8,0.858554
1870.18,0.854027
1875.59,0.848257
1879.67,0.844948
1885.14,0.842889
1890.64,0.840448
1894.79,0.836861
1900.34,0.829085
1904.53,0.819763
1910.15,0.800919
1914.38,0.787259
1920.05,0.785551
1924.33,0.792148
1930.06,0.798689
1934.38,0.801121
1940.17,0.802474
1944.54,0.803168
1950.39,0.803592
1954.8,0.804004
1960.72,0.804108
1965.18,0.803838
1969.66,0.803283
1975.66,0.802873
1980.19,0.80299
1984.74,0.803811
1989.31,0.805128
1995.43,0.807805
2000.05,0.809784
2004.69,0.811863
2009.35,0.8139
2015.6,0.816388
2020.32,0.818333
2025.05,0.819709
2029.81,0.821208
2034.59,0.822311
2039.39,0.82338
2044.22,0.824178
2050.69,0.825387
2055.57,0.82587
2060.47,0.826381
2065.39,0.826668
2070.34,0.826967
2075.31,0.827381
2080.31,0.827343
2085.33,0.827753
2090.38,0.827979
2095.45,0.828458
2100.54,0.82896
2105.66,0.829316
2110.8,0.82995
2114.25,0.830357
2119.43,0.830916
2124.65,0.831451
2129.88,0.831461
2135.15,0.831899
2140.44,0.83202
2145.75,0.832107
2149.31,0.832068
2154.67,0.832257
2160.06,0.832224
2165.47,0.832224
2170.91,0.832197
2174.55,0.83213
2180.04,0.832045
2185.55,0.832145
2189.25,0.832061
2194.81,0.831887
2200.4,0.831467
2204.14,0.83118
2209.78,0.830573
2215.44,0.830228
2219.24,0.829823
2224.95,0.829366
2230.7,0.828794
2234.54,0.828221
2240.33,0.827169
2244.21,0.826342
2250.06,0.82514
2255.93,0.82338
2259.87,0.822336
2265.79,0.820326
2269.76,0.818986
2275.74,0.81725
2279.74,0.81618
2285.77,0.814155
2289.81,0.812638
2295.9,0.810745
2299.97,0.809499
2304.06,0.808381
2310.22,0.806573
2314.35,0.805877
2320.56,0.806078
2324.72,0.805906
2331.0,0.805438
2335.2,0.804997
2339.41,0.804611
2345.76,0.803569
2350.02,0.802925
2354.28,0.802117
2360.72,0.801597
2365.03,0.801052
2369.35,0.800181
2375.86,0.798824
2380.23,0.797569
2384.61,0.795921
2389.0,0.794328
2395.63,0.79157
2400.06,0.789365
2404.52,0.786588
2408.98,0.783225
2415.72,0.776264
2420.23,0.769638
2424.76,0.760615
2429.3,0.749424
2433.87,0.739327
2440.74,0.733358
2445.35,0.734077
2449.97,0.735791
2454.61,0.736893
2459.27,0.737695
2463.94,0.738084
2470.99,0.737411
2475.71,0.736276
2480.45,0.734515
2485.2,0.73246
2489.98,0.730175
2494.77,0.7277
2499.58,0.726183
2504.41,0.725233
2509.26,0.725058
2514.13,0.72543
2519.02,0.726326
2523.92,0.727317
2528.85,0.728606
2533.79,0.729845
2541.24,0.731905
2543.74,0.732522
2548.74,0.734395
2553.76,0.73601
2556.28,0.736872
2558.8,0.737885
2561.33,0.73834
2563.86,0.738566
2566.4,0.739533
2568.95,0.740231
2571.5,0.740626
2574.05,0.740796
2576.61,0.740711
2579.17,0.740938
2581.74,0.740921
2584.31,0.740293
2586.89,0.740073
2589.48,0.740002
2592.07,0.739818
2594.66,0.738845
2597.26,0.737492
2599.87,0.737905
2602.48,0.73787
2605.09,0.736677
2607.71,0.735841
2610.34,0.735608
2612.97,0.735085
2615.61,0.734438
2618.25,0.733491
2620.9,0.732312
2623.55,0.732083
2626.21,0.731738
2628.87,0.730516
2631.54,0.729545
2634.22,0.728943
2636.89,0.7284
2639.58,0.727718
2642.27,0.726534
2644.97,0.725208
2647.67,0.723728
2650.38,0.722208
2653.09,0.720417
2655.81,0.71838
2658.53,0.716185
2661.26,0.713772
2664.0,0.710818
2666.74,0.706776
2669.48,0.702785
2672.23,0.698967
2674.99,0.695069
2677.76,0.690085
2680.52,0.683105
2683.3,0.675349
2686.08,0.665207
2688.87,0.651595
2691.66,0.635156
2694.46,0.616839
2697.26,0.597446
2700.07,0.581934
2702.89,0.57124
2705.71,0.564803
2708.53,0.560968
2711.37,0.55752
2714.21,0.553587
2717.05,0.550611
2719.9,0.548179
2722.76,0.546471
2725.62,0.543812
2728.49,0.538892
2731.37,0.532208
2734.25,0.523917
2737.14,0.513973
2740.03,0.503406
2742.93,0.49118
2745.83,0.478171
2748.75,0.464022
2751.66,0.44817
2754.59,0.431303
2757.52,0.412631
2760.46,0.392622
2763.4,0.373206
2766.35,0.353205
2769.3,0.334081
2772.26,0.316307
2775.23,0.30096
2778.21,0.289796
2781.19,0.283675
2784.18,0.281631
2787.17,0.282305
2790.17,0.28413
2793.18,0.2862
2796.19,0.288152
2799.21,0.289519
2802.24,0.289794
2805.27,0.289237
2808.31,0.28784
2811.35,0.285695
2814.41,0.283145
2817.46,0.280183
2820.53,0.277009
2823.6,0.273717
2826.68,0.269977
2829.77,0.266325
2832.86,0.262729
2835.96,0.259181
2839.07,0.255609
2842.18,0.252059
2845.3,0.248365
2848.43,0.244886
2851.56,0.241608
2854.7,0.238241
2857.85,0.234938
2861.0,0.23161
2864.16,0.228272
2867.33,0.224994
2870.51,0.221768
2873.69,0.218657
2876.88,0.215556
2880.07,0.212353
2883.28,0.209175
2886.49,0.206044
2889.71,0.203026
2892.93,0.200121
2896.17,0.197263
2899.4,0.194405
2902.65,0.192058
2905.91,0.189718
2909.17,0.187496
2912.44,0.185625
2915.71,0.184052
2918.99,0.182343
2922.29,0.180973
2925.58,0.179745
2928.89,0.178783
2932.2,0.177968
2935.52,0.177349
2938.85,0.176889
2942.19,0.176627
2945.53,0.176395
2948.88,0.176274
2952.24,0.176145
2955.61,0.176101
2958.98,0.176359
2962.36,0.176819
2965.75,0.177178
2969.15,0.177746
2972.55,0.178309
2975.97,0.178914
2979.39,0.179539
2986.25,0.181242
2989.7,0.182194
2993.15,0.18327
2996.61,0.184309
3000.08,0.185303
3003.55,0.18661
3007.04,0.187837
3010.53,0.188942
3014.03,0.189982
3017.54,0.191395
3021.06,0.192734
3024.58,0.194074
3028.12,0.195344
3031.66,0.196519
3035.21,0.197839
3038.77,0.198992
3042.33,0.200044
3045.91,0.20105
3049.49,0.201919
3053.08,0.202821
3056.68,0.203736
3060.29,0.204209
3063.91,0.204632
3067.54,0.205072
3071.17,0.205819
3074.81,0.206022
3078.47,0.207222
3082.13,0.208102
3085.79,0.209259
3089.47,0.210588
3093.16,0.211933
3096.85,0.213766
3100.56,0.215575
3104.27,0.217605
3107.99,0.219698
3111.73,0.221553
3115.47,0.223456
3119.21,0.22574
3122.97,0.227771
3126.74,0.22991
3130.52,0.231906
3134.3,0.233867
3138.1,0.235437
3141.9,0.23785
3145.71,0.239769
3149.54,0.241597
3153.37,0.243649
3157.21,0.245718
3161.06,0.24741
3164.92,0.249315
3168.79,0.251135
3172.67,0.252703
3176.55,0.25451
3180.45,0.256609
3184.36,0.258184
3188.27,0.259733
3192.2,0.261413
3196.14,0.262956
3200.08,0.264633
3204.04,0.265621
3208.0,0.266536
3211.98,0.267861
3215.96,0.269101
3219.96,0.270233
3223.96,0.270601
3227.98,0.271349
3232.0,0.27225
3236.04,0.27256
3240.08,0.272859
3244.14,0.272934
3248.2,0.273042
3252.28,0.273093
3256.37,0.273282
3260.46,0.272929
3264.57,0.272683
3268.69,0.272313
3272.81,0.272077
3276.95,0.271654
3281.1,0.271343
3285.26,0.271092
3289.43,0.270392
3293.61,0.269574
3297.8,0.268906
3302.0,0.267565
3306.21,0.266512
3310.43,0.26479
3314.66,0.263255
3318.91,0.261273
3323.16,0.259562
3327.43,0.258106
3331.71,0.256349
3335.99,0.254349
3340.29,0.252401
3344.6,0.250585
3348.92,0.248894
3353.26,0.247174
3357.6,0.245488
3361.96,0.243916
3366.32,0.242709
3370.7,0.241349
3375.09,0.240221
3379.49,0.239165
3383.9,0.238346
3388.32,0.237361
3392.76,0.236379
3397.21,0.235166
3401.66,0.234143
3406.13,0.232912
3410.61,0.231796
3415.11,0.230392
3419.61,0.229796
3424.13,0.229589
3428.66,0.229697
3433.2,0.229304
3437.76,0.229164
3442.32,0.229246
3446.9,0.228831
3451.49,0.228934
3456.09,0.22908
3460.7,0.229505
3465.33,0.230423
3469.97,0.231911
3474.62,0.233724
3479.29,0.236261
3483.96,0.239128
3488.65,0.242737
3493.35,0.247113
3498.07,0.251804
3502.79,0.256759
3507.53,0.262763
3512.29,0.26941
3517.05,0.276351
3521.83,0.283298
3526.62,0.289879
3531.43,0.296588
3536.24,0.302679
3541.08,0.308506
3543.5,0.311424
3545.92,0.31428
3548.35,0.31698
3550.78,0.319566
3553.21,0.322294
3555.65,0.324866
3558.09,0.32737
3560.53,0.329876
3562.98,0.332308
3565.43,0.334646
3567.88,0.336977
3570.34,0.339336
3572.8,0.341687
3575.27,0.344074
3577.73,0.346566
3580.2,0.34893
3582.68,0.351361
3585.16,0.353737
3587.64,0.356135
3590.12,0.358497
3592.61,0.361005
3595.1,0.36342
3597.6,0.365868
3600.09,0.36832
3602.6,0.370593
3605.1,0.372741
3607.61,0.375152
3610.12,0.377557
3612.64,0.379764
3615.16,0.381957
3617.68,0.384133
3620.21,0.386176
3622.74,0.388357
3625.27,0.390365
3627.81,0.392448
3630.35,0.394427
3632.89,0.396252
3635.44,0.398078
3637.99,0.399901
3640.54,0.401625
3643.1,0.40342
3645.66,0.405042
3648.23,0.406652
3650.8,0.408147
3653.37,0.409566
3655.95,0.411037
3658.53,0.412542
3661.11,0.41383
3663.7,0.415165
3666.29,0.416394
3668.89,0.417518
3671.48,0.418475
3674.09,0.41967
3676.69,0.420716
3679.3,0.421725
3681.91,0.422605
3684.53,0.423415
3687.15,0.424025
3689.78,0.424735
3692.4,0.425422
3695.04,0.426033
3697.67,0.426572
3700.31,0.427173
3702.95,0.427644
3705.6,0.428016
3708.25,0.428083
3710.91,0.428256
3713.56,0.428367
3716.23,0.428441
3718.89,0.428392
3721.56,0.428329
3724.23,0.427803
3726.91,0.427311
3729.59,0.426754
3732.28,0.425982
3734.97,0.425057
3737.66,0.42406
3740.36,0.422778
3743.06,0.42135
3745.76,0.419403
3748.47,0.417249
3751.18,0.414723
3753.9,0.411836
3756.62,0.408368
3759.34,0.404551
3762.07,0.400243
3764.8,0.395473
3767.54,0.390103
3770.28,0.38432
3773.02,0.377988
3775.77,0.371309
3778.52,0.364228
3781.28,0.357053
3784.04,0.349632
3786.8,0.342349
3789.57,0.334999
3792.34,0.327703
3795.12,0.320692
3797.9,0.313964
3800.69,0.307491
3803.47,0.301393
3806.27,0.295596
3809.06,0.290267
3811.86,0.285395
3814.67,0.280776
3817.48,0.276472
3820.29,0.272503
3823.11,0.268855
3825.93,0.26557
3828.76,0.262508
3831.59,0.259794
3834.42,0.25754
3837.26,0.255509
3840.1,0.253826
3842.95,0.252628
3845.8,0.251645
3848.65,0.250978
3851.51,0.250691
3854.38,0.250738
3857.24,0.250983
3860.12,0.251365
3862.99,0.251776
3865.87,0.25228
3868.76,0.252561
3871.65,0.252654
3874.54,0.252416
3877.44,0.251821
3880.34,0.25067
3883.25,0.249018
3886.16,0.246869
3889.07,0.244307
3891.99,0.24141
3894.92,0.238271
3897.85,0.234827
3900.78,0.231167
3903.72,0.227298
3906.66,0.223369
3909.6,0.219417
3912.55,0.215493
3915.51,0.211517
3918.47,0.207725
3921.43,0.20414
3924.4,0.200885
3927.38,0.197836
3930.35,0.195117
3933.33,0.192529
3936.32,0.190254
3939.31,0.188558
3942.31,0.187109
3945.31,0.185763
3948.31,0.184616
3951.32,0.183604
3954.34,0.182862
3957.35,0.182304
3960.38,0.181794
3963.41,0.181238
3966.44,0.180996
3969.48,0.18084
3972.52,0.18072
3975.56,0.180769
3978.61,0.180922
3981.67,0.181144
3984.73,0.181586
3987.8,0.182085
3990.87,0.182716
3993.94,0.183371
3997.02,0.184176
4000.1,0.185104
4003.19,0.186012
4006.29,0.186868
4009.39,0.18765
4012.49,0.1884
4015.6,0.18933
4018.71,0.190296
4021.83,0.191379
4024.95,0.192685
4028.08,0.194234
4031.21,0.19595
4034.35,0.197972
4037.49,0.200214
4040.64,0.20268
4043.79,0.205566
4046.94,0.209095
4050.11,0.212965
4053.27,0.217119
4056.44,0.221795
4059.62,0.226934
4062.8,0.232372
4065.99,0.238138
4069.18,0.244202
4072.38,0.250504
4075.58,0.256923
4078.78,0.263709
4082.0,0.270505
4085.21,0.277459
4088.43,0.284562
4091.66,0.29192
4094.89,0.299282
4098.13,0.306641
4101.37,0.313997
4104.62,0.321283
4107.87,0.328543
4111.13,0.335785
4114.39,0.342879
4117.66,0.349854
4120.93,0.356494
4124.21,0.363071
4127.5,0.369531
4130.79,0.375926
4134.08,0.381889
4137.38,0.387601
4140.68,0.393063
4143.99,0.398473
4147.31,0.403458
4150.63,0.408243
4153.95,0.412753
4157.29,0.417108
4160.62,0.421189
4163.96,0.425099
4167.31,0.428657
4170.66,0.432057
4174.02,0.4352
4177.39,0.438193
4180.75,0.440966
4184.13,0.443612
4187.51,0.44603
4190.89,0.448276
4194.28,0.450279
4197.68,0.452224
4201.08,0.454185
4204.49,0.456139
4207.9,0.457991
4211.32,0.459938
4214.74,0.461658
4218.17,0.46337
4221.61,0.464929
4225.05,0.466401
4228.5,0.467693
4231.95,0.468875
4235.4,0.469869
4238.87,0.470767
4242.34,0.471355
4245.81,0.471943
4249.29,0.472123
4252.78,0.472123
4256.27,0.471877
4259.77,0.472074
4263.27,0.472977
4266.78,0.474198
4270.29,0.475019
4273.81,0.475642
4277.34,0.476152
4280.87,0.476656
4284.41,0.476917
4287.95,0.477142
4291.5,0.47728
4295.06,0.477652
4298.62,0.477882
4302.19,0.478018
4305.76,0.478031
4309.34,0.478115
4312.92,0.478109
4316.52,0.478242
4320.11,0.478239
4323.72,0.478301
4327.32,0.478202
4330.94,0.478134
4334.56,0.477952
4338.19,0.477942
4341.82,0.477888
4345.46,0.477755
4349.11,0.477505
4352.76,0.47731
4356.42,0.477056
4360.08,0.476878
4363.75,0.47655
4367.43,0.476162
4371.11,0.475638
4374.8,0.475268
4378.49,0.474641
4382.19,0.474161
4385.9,0.473677
4389.61,0.473037
4393.33,0.472205
4397.06,0.471526
4400.79,0.470686
4404.53,0.469811
4408.28,0.4688
4412.03,0.467924
4415.79,0.466998
4419.55,0.466199
4423.32,0.465149
4427.1,0.464238
4430.88,0.463261
4434.68,0.462359
4438.47,0.461466
4442.28,0.460653
4446.08,0.45969
4449.9,0.458943
4453.72,0.458156
4457.55,0.457527
4461.39,0.456921
4465.23,0.456413
4469.08,0.455831
4472.94,0.455491
4476.8,0.4551
4480.67,0.454799
4484.55,0.454338
4488.43,0.454
4492.32,0.453682
4496.21,0.453521
4500.12,0.45324
4504.03,0.452921
4507.94,0.452493
4511.87,0.452217
4515.8,0.451826
4519.73,0.451557
4523.68,0.45098
4527.63,0.450464
4531.59,0.449832
4535.55,0.449222
4539.52,0.448454
4543.5,0.447617
4547.49,0.446688
4551.48,0.445807
4555.48,0.444661
4559.49,0.44339
4563.5,0.441939
4567.52,0.44054
4571.55,0.439019
4575.58,0.437605
4579.63,0.436016
4583.67,0.434481
4587.73,0.432857
4591.79,0.431271
4595.86,0.429583
4599.94,0.428027
4604.03,0.426312
4608.12,0.424795
4612.22,0.423272
4616.33,0.421791
4620.44,0.420204
4624.56,0.418765
4628.69,0.417352
4632.83,0.416024
4636.97,0.414756
4641.12,0.413677
4645.28,0.412584
4649.45,0.411786
4653.62,0.411117
4657.8,0.41083
4661.99,0.41052
4666.19,0.410525
4670.39,0.41049
4674.6,0.410631
4678.82,0.410822
4683.05,0.411084
4687.28,0.411201
4691.52,0.411513
4695.77,0.411847
4700.03,0.41222
4704.3,0.412418
4708.57,0.412704
4712.85,0.41295
4717.14,0.413314
4721.43,0.41356
4725.74,0.413919
4730.05,0.4143
4734.37,0.414737
4738.7,0.414906
4743.03,0.41522
4747.38,0.415598
4751.73,0.416107
4756.09,0.416514
4760.45,0.41704
4764.83,0.41748
4769.21,0.418014
4773.6,0.418386
4778.0,0.418856
4782.41,0.419378
4786.83,0.42018
4791.25,0.421056
4795.68,0.422209
4800.13,0.423312
4804.57,0.424529
4809.03,0.425539
4813.5,0.426721
4817.97,0.427653
4822.45,0.428479
4826.94,0.429272
4831.44,0.4301
4835.95,0.430606
4840.46,0.431189
4844.99,0.431666
4849.52,0.432199
4854.06,0.432354
4858.61,0.432656
4863.17,0.43286
4867.73,0.433042
4872.31,0.433143
4876.89,0.433297
4881.48,0.433299
4886.08,0.433369
4890.69,0.43325
4895.31,0.433267
4899.94,0.433213
4904.57,0.4331
4909.22,0.432864
4913.87,0.4329
4918.53,0.432705
4923.21,0.432536
4927.88,0.43234
4932.57,0.432321
4937.27,0.432099
4941.98,0.43201
4946.69,0.431855
4951.42,0.431792
4956.15,0.431624
4960.9,0.431598
4965.65,0.431428
4970.41,0.431373
4975.18,0.431135
4979.96,0.431037
4984.75,0.430887
4989.54,0.430837
4994.35,0.430594
4999.17,0.430501
5003.99,0.430287
5008.83,0.430098
5013.67,0.429719
5018.52,0.429494
5023.39,0.429144
5028.26,0.428828
5033.14,0.428397
5038.03,0.42795
5042.93,0.427332
5047.84,0.426936
5052.76,0.426358
5057.69,0.425766
5062.63,0.42495
5067.58,0.424274
5072.54,0.423448
5077.51,0.422652
5082.49,0.421692
5087.47,0.420773
5092.47,0.41954
5097.48,0.418428
5102.5,0.417188
5107.52,0.416041
5112.56,0.414602
5117.61,0.413439
5122.66,0.412116
5127.73,0.410876
5132.81,0.409674
5137.89,0.40869
5142.99,0.407665
5148.1,0.406947
5153.22,0.406137
5158.34,0.40552
5163.48,0.404923
5168.63,0.404474
5173.79,0.403903
5178.96,0.403261
5184.13,0.402304
5189.32,0.401429
5194.52,0.40046
5199.73,0.39962
5204.96,0.398424
5210.19,0.397264
5215.43,0.396007
5220.68,0.394638
5225.94,0.393142
5231.22,0.391869
5236.5,0.390447
5241.79,0.389017
5247.1,0.387329
5252.42,0.385802
5257.74,0.384238
5263.08,0.382741
5268.43,0.381042
5273.79,0.379422
5279.16,0.377557
5284.54,0.375713
5289.93,0.373858
5295.34,0.372214
5300.75,0.370183
5306.18,0.368258
5311.61,0.366203
5317.06,0.36422
5322.52,0.362087
5327.99,0.360044
5333.47,0.357778
5338.96,0.355553
5344.47,0.353168
5349.98,0.351003
5355.51,0.348417
5361.05,0.345785
5366.6,0.343173
5372.16,0.340627
5377.73,0.337815
5383.32,0.334964
5388.91,0.331861
5394.52,0.328819
5400.14,0.325404
5405.77,0.321992
5411.41,0.318312
5417.07,0.314457
5422.74,0.310365
5428.41,0.305521
5434.1,0.30019
5439.81,0.295196
5445.52,0.289448
5451.25,0.283293
5456.98,0.276418
5462.73,0.269248
5468.5,0.261153
5474.27,0.252041
5480.06,0.242676
5485.86,0.232356
5491.67,0.22117
5497.49,0.209502
5503.33,0.196902
5509.18,0.183758
5515.04,0.17023
5520.91,0.156856
5526.8,0.143894
5532.69,0.131865
5538.61,0.121212
5544.53,0.111992
5550.47,0.10428
5556.41,0.097931
5562.38,0.092876
5568.35,0.088942
5574.34,0.085912
5580.34,0.083297
5586.35,0.080639
5592.38,0.078292
5598.42,0.076607
5604.47,0.075238
5610.54,0.074091
5616.61,0.07331
5622.71,0.072961
5628.81,0.072933
5634.93,0.073303
5641.06,0.074094
5647.21,0.07539
5653.36,0.077326
5659.54,0.080188
5665.72,0.083812
5671.92,0.088023
5678.13,0.092576
5684.36,0.097271
5690.6,0.101927
5696.85,0.106709
5703.12,0.11174
5709.4,0.116682
5715.69,0.121276
5722.0,0.124948
5728.33,0.127662
5734.66,0.129165
5741.01,0.129745
5747.38,0.12944
5753.76,0.128383
5760.15,0.126607
5766.56,0.125013
5772.98,0.122366
5779.41,0.119373
5785.86,0.116705
5792.33,0.113832
5798.81,0.110712
5805.3,0.10753
5811.81,0.103977
5818.33,0.100575
5824.87,0.096922
5831.42,0.092721
5837.99,0.088595
5844.57,0.084804
5851.17,0.080993
5857.78,0.077174
5864.41,0.073387
5871.05,0.069704
5877.7,0.06636
5884.38,0.063271
5891.06,0.059515
5897.76,0.056636
5904.48,0.053496
5911.21,0.050524
5917.96,0.047964
5924.73,0.045361
5931.5,0.043021
5938.3,0.041016
5945.11,0.03865
5951.93,0.036637
5958.78,0.034868
5965.63,0.033174
5972.51,0.031482
5979.39,0.02969
5986.3,0.028286
5993.22,0.026893
6000.16,0.025411
6007.11,0.024127
6014.08,0.022917
6021.06,0.021602
6028.06,0.020308
6035.08,0.01915
6042.12,0.018075
6049.17,0.017076
6056.23,0.015738
6063.32,0.014554
6070.42,0.013797
6077.53,0.012946
6084.67,0.012056
6091.82,0.011368
6098.98,0.010844
6106.17,0.010294
6113.37,0.009794
6120.58,0.009281
6127.82,0.008752
6135.07,0.00841
6142.34,0.008156
6149.63,0.007772
6156.93,0.007383
6164.25,0.006997
6171.59,0.006522
6178.95,0.006058
6186.32,0.005762
6193.71,0.005322
6201.12,0.004998
6208.54,0.004811
6215.99,0.004634
6223.45,0.004477
6230.93,0.004428
6238.43,0.004467
6245.95,0.004603
6253.48,0.004898
6261.03,0.005375
6268.6,0.005918
6276.19,0.006651
6283.8,0.00757
6291.43,0.008815
6299.07,0.010259
6306.73,0.01193
6314.42,0.013875
6322.12,0.016102
6329.84,0.018447
6337.57,0.020844
6345.33,0.0232
6353.11,0.025636
6360.9,0.027785
6368.72,0.02972
6376.55,0.031377
6384.4,0.032696
6392.27,0.033801
6400.17,0.034641
6408.08,0.035212
6416.01,0.035612
6423.96,0.035476
6431.93,0.035388
6439.92,0.035367
6447.93,0.035175
6455.96,0.034924
6464.01,0.034491
6472.08,0.034094
6480.17,0.033756
6488.28,0.033474
6496.41,0.033281
6504.56,0.03298
6512.73,0.032926
6520.92,0.033211
6529.14,0.033501
6537.37,0.033789
6545.63,0.034189
6553.9,0.034616
6562.2,0.035159
6570.51,0.035739
6578.85,0.036314
6587.21,0.036803
6595.59,0.037367
6603.99,0.037864
6612.42,0.038339
6620.86,0.038851
6629.33,0.039317
6637.82,0.039693
6646.33,0.039925
6654.86,0.040021
6663.41,0.040094
6671.99,0.040129
6680.59,0.040016
6689.21,0.039804
6697.85,0.03957
6706.51,0.039429
6715.2,0.039263
6723.91,0.038989
6732.64,0.038748
6741.4,0.038437
6750.18,0.038135
6758.98,0.037798
6767.8,0.037515
6776.65,0.037164
6785.52,0.036735
6794.41,0.036315
6803.33,0.035874
6812.27,0.035505
6821.23,0.0352
6830.22,0.034798
6839.23,0.034368
6848.26,0.033963
6857.32,0.033597
6866.4,0.033284
6875.51,0.032846
6884.64,0.032441
6893.8,0.032084
6902.98,0.031737
6912.18,0.031433
6921.41,0.03107
6930.66,0.030701
6939.94,0.030415
6949.24,0.030129
6958.57,0.029909
6967.92,0.029685
6977.3,0.029416
6986.7,0.029292
6996.13,0.029205
7005.59,0.029123
7015.07,0.029097
7024.57,0.029126
7034.1,0.029179
7043.66,0.029285
7053.25,0.029332
7062.85,0.029399
7072.49,0.029537
7082.15,0.029638
7091.84,0.029778
7101.55,0.029994
7111.3,0.030247
7121.06,0.030502
7130.86,0.030832
7140.68,0.031203
7150.53,0.031601
7160.41,0.032067
7170.31,0.032586
7180.24,0.033106
7190.2,0.033768
7200.19,0.034557
7210.2,0.035372
7220.24,0.036294
7230.31,0.037307
7240.41,0.038413
7250.54,0.03967
7260.69,0.041058
7270.88,0.042483
7281.09,0.044126
7291.33,0.045961
7301.6,0.047935
7311.9,0.050093
7322.22,0.052517
7332.58,0.054982
7342.97,0.057608
7353.38,0.060465
7363.83,0.063435
7374.3,0.066568
7384.81,0.069788
7395.34,0.073012
7405.91,0.076342
7416.5,0.079687
7427.13,0.083148
7437.78,0.086635
7448.47,0.090117
7459.19,0.093503
7469.94,0.096884
7480.71,0.1002
7491.52,0.10342
7502.37,0.106454
7513.24,0.109416
7524.14,0.112289
7535.08,0.11511
7546.05,0.117815
7557.05,0.120548
7568.08,0.123082
7579.15,0.12553
7590.24,0.127885
7601.37,0.13022
7612.53,0.132392
7623.73,0.13454
7634.96,0.136609
7646.22,0.138624
7657.51,0.140549
7668.84,0.142445
7680.2,0.144259
7691.59,0.146121
7703.02,0.147925
7714.49,0.149708
7725.98,0.151419
7737.52,0.153095
7749.08,0.154693
7760.68,0.156357
7772.32,0.157965
7783.99,0.159682
7795.69,0.161206
7807.43,0.162802
7819.21,0.16443
7831.02,0.16608
7842.87,0.167634
7854.75,0.169328
7866.67,0.170931
7878.62,0.17259
7890.62,0.174259
7902.64,0.176033
7914.71,0.177737
7926.81,0.179445
7938.95,0.181017
7951.13,0.182667
7963.34,0.184287
7975.59,0.186012
7987.88,0.187769
8000.21,0.189562
8012.57,0.191279
8024.98,0.193179
8037.42,0.195032
8049.9,0.196968
8062.42,0.198845
8074.98,0.200864
8087.57,0.202874
8100.21,0.204941
8112.89,0.206914
8125.6,0.208959
8138.36,0.210955
8151.16,0.212953
8163.99,0.214809
8176.87,0.216726
8189.79,0.218437
8202.75,0.220276
8215.75,0.221951
8228.79,0.22358
8241.87,0.225122
8254.99,0.226655
8268.16,0.228127
8281.37,0.229643
8294.62,0.230998
8307.91,0.232375
8321.24,0.233573
8334.62,0.234749
8348.04,0.235756
8361.51,0.236723
8375.02,0.237535
8388.57,0.238302
8402.16,0.238868
8415.8,0.239388
8429.49,0.23969
8443.22,0.239884
8456.99,0.239889
8470.81,0.239853
8484.67,0.239531
8498.58,0.239215
8512.54,0.238697
8526.54,0.238204
8540.58,0.237742
8554.68,0.237293
8568.82,0.23679
8583.0,0.236449
8597.24,0.236104
8611.52,0.235815
8625.85,0.235559
8640.23,0.235398
8654.65,0.235162
8669.12,0.234993
8683.64,0.234787
8698.21,0.234707
8712.83,0.234607
8727.5,0.234569
8742.22,0.23441
8756.99,0.234396
8771.8,0.234345
8786.67,0.234342
8801.59,0.234322
8816.56,0.234511
8831.58,0.234653
8846.65,0.234829
8861.77,0.234993
8876.94,0.235283
8892.17,0.235482
8907.45,0.235678
8922.78,0.235739
8938.16,0.235821
8953.6,0.235709
8969.09,0.23565
8984.64,0.235529
9000.23,0.235428
9015.89,0.234988
9031.59,0.234317
9047.36,0.232999
9063.17,0.230842
9079.05,0.227353
9094.97,0.222118
9110.96,0.214561
9127.0,0.204503
9143.1,0.191576
9159.25,0.176484
9175.46,0.159933
9191.73,0.143364
9208.06,0.127788
9224.44,0.113603
9240.88,0.101392
9257.38,0.09215
9273.94,0.085837
9290.56,0.082481
9307.24,0.082301
9323.98,0.085668
9340.78,0.092482
9357.64,0.101614
9374.57,0.111501
9391.55,0.1219
9408.59,0.132909
9425.7,0.144839
9442.87,0.157658
9460.1,0.170466
9477.4,0.182293
9494.75,0.192718
9512.17,0.201192
9529.66,0.20773
9547.21,0.212373
9564.83,0.215497
9582.5,0.217456
9600.25,0.21868
9618.06,0.219255
9635.94,0.219462
9653.88,0.21923
9671.89,0.218677
9689.97,0.217798
9708.12,0.21707
9726.33,0.216295
9744.62,0.215451
9762.97,0.214509
9781.39,0.213606
9799.88,0.212514
9818.44,0.211379
9837.07,0.210485
9855.77,0.210244
9874.54,0.210515
9893.39,0.211023
9912.3,0.211496
9931.29,0.212039
9950.36,0.212673
9969.49,0.213431
9988.7,0.214173
10007.98,0.214943
10027.34,0.215631
10046.77,0.216372
10066.28,0.217105
10085.87,0.217931
10105.53,0.218813
10125.26,0.219831
10145.08,0.220866
10164.97,0.22189
10184.94,0.222751
10204.99,0.22373
10225.12,0.22475
10245.33,0.225805
10265.61,0.226868
10285.98,0.228066
10306.43,0.229238
10326.96,0.230479
10347.57,0.231584
10368.27,0.232807
10389.05,0.233977
10409.91,0.23511
10430.86,0.236168
10451.88,0.237317
10473.0,0.238295
10494.2,0.239376
10515.49,0.240303
10536.86,0.241157
10558.32,0.241913
10579.87,0.242626
10601.5,0.243184
10623.23,0.243719
10645.04,0.244101
10666.94,0.244398
10688.94,0.244459
10711.02,0.24441
10733.2,0.244218
10755.47,0.243904
10777.83,0.243343
10800.28,0.242657
10822.83,0.241801
10845.47,0.240893
10868.21,0.239641
10891.04,0.238147
10913.97,0.236435
10936.99,0.234515
10960.12,0.232117
10983.34,0.229234
11006.66,0.225988
11030.07,0.222462
11053.59,0.218135
11077.21,0.212778
11100.93,0.206261
11124.75,0.198451
11148.68,0.188558
11172.71,0.175719
11196.84,0.15839
11221.07,0.134875
11245.41,0.105454
11269.86,0.07551
11294.41,0.051977
11319.07,0.036401
11343.84,0.025863
11368.72,0.018766
11393.7,0.015311
11418.8,0.014677
11444.01,0.015424
11469.33,0.016844
11494.76,0.018778
11520.3,0.020883
11545.96,0.023292
11571.73,0.026551
11597.62,0.031199
11623.62,0.038371
11649.74,0.051095
11675.98,0.073139
11702.34,0.104373
11728.81,0.136566
11755.41,0.159491
11782.13,0.169989
11808.96,0.171819
11835.92,0.170485
11863.01,0.169295
11890.22,0.1704
11917.55,0.176342
11945.01,0.187263
11972.6,0.199902
12000.31,0.212069
12028.16,0.222854
12056.13,0.232045
12084.23,0.238735
12112.46,0.243083
12140.83,0.245549
12169.33,0.246946
12197.96,0.247496
12226.73,0.247557
12255.64,0.247223
12284.68,0.246809
12313.86,0.246027
12343.18,0.245217
12372.64,0.244229
12402.24,0.242956
12431.98,0.241436
12461.86,0.239926
12491.89,0.238169
12522.07,0.236493
12552.38,0.23475
12582.85,0.23295
12613.47,0.231136
12644.23,0.229316
12675.15,0.227252
12706.21,0.225064
12737.43,0.222878
12768.81,0.220706
12800.33,0.218362
12832.02,0.215974
12863.86,0.213482
12895.86,0.211039
12928.02,0.20843
12960.34,0.205659
12992.82,0.202703
13025.46,0.19943
13058.27,0.195672
13091.25,0.191567
13124.39,0.186842
13157.7,0.181392
13191.18,0.174949
13224.83,0.16763
13258.66,0.159495
13292.65,0.150865
13326.83,0.142227
13361.17,0.134034
13395.7,0.126492
13430.4,0.119631
13465.29,0.113132
13500.35,0.106755
13535.6,0.100119
13571.03,0.092752
13606.65,0.08461
13642.46,0.076803
13678.46,0.07141
13714.64,0.068735
13751.02,0.065981
13787.59,0.061384
13824.36,0.056121
13861.32,0.051378
13898.49,0.047121
13935.85,0.043194
13973.41,0.040435
14011.17,0.039556
14049.15,0.040049
14087.32,0.041351
14125.71,0.043497
14164.3,0.045521
14203.11,0.046951
14242.13,0.049468
14281.36,0.054168
14320.81,0.059751
14360.49,0.064469
14400.38,0.068756
14440.49,0.074298
14480.82,0.081531
14521.39,0.089483
14562.18,0.097175
14603.2,0.103662
14644.45,0.109336
14685.93,0.115364
14727.66,0.12055
14769.62,0.123677
14811.81,0.125465
14854.25,0.126321
14896.94,0.126722
14939.87,0.126841
14983.05,0.127037
15026.48,0.126529
15070.16,0.12553
15114.1,0.125154
15158.29,0.124802
15202.74,0.124259
15247.46,0.123422
15292.43,0.122495
15337.68,0.121931
15383.19,0.12139
15428.97,0.120717
15475.03,0.119937
15521.36,0.119373
15567.97,0.11877
15614.87,0.117951
15662.04,0.117176
15709.5,0.116724
15757.25,0.116305
15805.29,0.116226
15853.62,0.116268
15902.26,0.115971
15951.19,0.115391
16000.42,0.114805
16049.95,0.114124
16099.8,0.113406
16149.95,0.112699
16200.42,0.112185
16251.21,0.112089
16302.31,0.112386
16353.74,0.112725
16405.49,0.112954
16457.57,0.113032
16509.98,0.112868
16562.73,0.11243
16615.82,0.111983
16669.24,0.111403
16723.02,0.110589
16777.14,0.109746
16831.61,0.109074
16886.43,0.108347
16941.62,0.107523
16997.16,0.106688
17053.08,0.106002
17109.36,0.105314
17166.01,0.104542
17223.04,0.103776
17280.45,0.102843
17338.24,0.10152
17396.43,0.100369
17455.0,0.0993
17513.97,0.098062
17573.34,0.096854
17633.11,0.095651
17693.29,0.094219
17753.89,0.092724
17814.9,0.091226
17876.33,0.089628
17938.18,0.088018
18000.47,0.086372
18063.19,0.084577
18126.35,0.082757
18189.95,0.081027
18254.0,0.079282
18318.5,0.077
18383.46,0.074784
18448.88,0.073333
18514.77,0.071779
18581.13,0.06987
18647.97,0.068035
18715.29,0.066196
18783.1,0.064426
18851.4,0.062723
18920.2,0.060633
18989.51,0.058895
19059.32,0.057512
19129.65,0.05618
19200.5,0.054766
19271.88,0.053381
19343.79,0.051966
19416.24,0.05039
19489.23,0.049071
19562.77,0.048151
19636.88,0.047096
19711.54,0.045729
19786.78,0.044835
19862.59,0.044098
19938.98,0.043312
20015.96,0.042331
20093.55,0.041566
20171.73,0.040985
20250.53,0.04048
20329.94,0.039766
20409.98,0.038652
20490.65,0.037733
20571.96,0.037288
20653.92,0.036827
20736.54,0.03617
20819.82,0.035393
20903.77,0.034548
20988.4,0.033429
21073.72,0.032509
21159.73,0.032037
21246.46,0.031871
21333.89,0.030965
21422.04,0.029769
21510.93,0.029074
21600.56,0.028618
21690.94,0.027244
21782.08,0.026205
21873.99,0.025849
21966.67,0.02533
22060.15,0.024241
22154.42,0.023322
22249.51,0.022241
22345.41,0.020673
22442.14,0.019461
22539.72,0.018209
22638.14,0.017605
22737.43,0.017355
22837.6,0.016601
22938.65,0.015581
23040.6,0.014554
23143.46,0.013442
23247.24,0.012389
23351.96,0.011633
23457.63,0.011195
23564.25,0.010636
23671.85,0.010234
23780.44,0.009283
23890.02,0.008567
24000.63,0.008032
24112.26,0.007495
24224.93,0.007472
24338.66,0.006567
24453.47,0.00453
24569.36,0.005399
24686.36,0.006613
24804.47,0.005212
24923.73,0.004575
25044.13,0.005008
25165.71,0.005981
25288.46,0.006335
25412.43,0.006391
25537.61,0.006765
25664.04,0.007544
25791.72,0.008541
25920.68,0.009599
