Database of Origin,University of Winnipeg Spectrophotometer Facility
Sample Description,Carbonaceous chondrites - RELAB archive 8. Lab-heated carbonaceous chondrites
Other Information,camp18 heated to 300C
Date Added,2018-07-23 23:45:04.199936

Data ID,RLA_MET_39_3        
Sample ID,Ivuna
Mineral Name,Ivuna
Grain Size,<125 um
Viewing Geometry,30/0
Material Class,CI1

Wavelength
305.0,0.018301
310.0,0.01838
315.0,0.018509
320.0,0.019085
325.0,0.019375
330.0,0.019542
335.0,0.0198
340.0,0.019496
345.0,0.019741
350.0,0.019709
355.0,0.019778
360.0,0.019758
365.0,0.019785
370.0,0.020009
375.0,0.020184
380.0,0.020246
385.0,0.020312
390.0,0.020567
395.0,0.02058
400.0,0.020566
405.0,0.021364
410.0,0.021035
415.0,0.02143
420.0,0.021543
425.0,0.021703
430.0,0.021779
435.0,0.021837
440.0,0.022025
445.0,0.02206
450.0,0.022101
455.0,0.022157
460.0,0.022217
465.0,0.022488
470.0,0.022559
475.0,0.02265
480.0,0.022651
485.0,0.022638
490.0,0.022679
495.0,0.022689
500.0,0.022779
505.0,0.02285
510.0,0.022856
515.0,0.022945
520.0,0.023156
525.0,0.023163
530.0,0.023236
535.0,0.023263
540.0,0.02337
545.0,0.023481
550.0,0.023543
555.0,0.023568
560.0,0.023651
565.0,0.02367
570.0,0.023715
575.0,0.023737
580.0,0.023782
585.0,0.023864
590.0,0.023814
595.0,0.023809
600.0,0.023851
605.0,0.023877
610.0,0.024069
615.0,0.024032
620.0,0.024133
625.0,0.024151
630.0,0.024253
635.0,0.02432
640.0,0.024351
645.0,0.024361
650.0,0.024304
655.0,0.02433
660.0,0.024288
665.0,0.024345
670.0,0.024204
675.0,0.024249
680.0,0.024203
685.0,0.024212
690.0,0.024225
695.0,0.024225
700.0,0.02429
705.0,0.024252
710.0,0.024261
715.0,0.0243
720.0,0.024344
725.0,0.024331
730.0,0.024343
735.0,0.024363
740.0,0.024343
745.0,0.024432
750.0,0.024493
755.0,0.024318
760.0,0.024215
765.0,0.024201
770.0,0.024154
775.0,0.024152
780.0,0.024176
785.0,0.024154
790.0,0.024292
795.0,0.024182
800.0,0.024317
805.0,0.024227
810.0,0.023967
815.0,0.024024
820.0,0.02427
825.0,0.024215
830.0,0.024248
835.0,0.024033
840.0,0.024312
845.0,0.024155
850.0,0.024127
855.0,0.023935
860.0,0.023828
865.0,0.023983
870.0,0.024402
875.0,0.02421
880.0,0.024672
885.0,0.024513
890.0,0.024586
895.0,0.024925
900.0,0.024667
905.0,0.024414
910.0,0.024567
915.0,0.024489
920.0,0.024661
925.0,0.024522
930.0,0.024793
935.0,0.024668
940.0,0.024665
945.0,0.024662
950.0,0.024658
955.0,0.024594
960.0,0.024431
965.0,0.024423
970.0,0.02456
975.0,0.024374
980.0,0.024301
985.0,0.024498
990.0,0.024245
995.0,0.024223
1000.0,0.024302
1005.0,0.024241
1010.0,0.024215
1015.0,0.024307
1020.0,0.024273
1025.0,0.024326
1030.0,0.024197
1035.0,0.024188
1040.0,0.024035
1045.0,0.024155
1050.0,0.024304
1055.0,0.024188
1060.0,0.024002
1065.0,0.024097
1070.0,0.023978
1075.0,0.023927
1080.0,0.023858
1085.0,0.023834
1090.0,0.02394
1095.0,0.023893
1100.0,0.023857
1105.0,0.023817
1110.0,0.023875
1115.0,0.023886
1120.0,0.023886
1125.0,0.024016
1130.0,0.023769
1135.0,0.023989
1140.0,0.024
1145.0,0.024008
1150.0,0.023916
1155.0,0.023928
1160.0,0.02387
1165.0,0.023905
1170.0,0.024046
1175.0,0.024013
1180.0,0.024134
1185.0,0.023944
1190.0,0.024087
1195.0,0.024191
1200.0,0.024272
1205.0,0.024308
1210.0,0.02445
1215.0,0.024428
1220.0,0.024321
1225.0,0.024409
1230.0,0.024167
1235.0,0.02424
1240.0,0.024161
1245.0,0.023988
1250.0,0.024042
1255.0,0.024097
1260.0,0.024087
1265.0,0.024076
1270.0,0.024099
1275.0,0.024016
1280.0,0.024048
1285.0,0.023942
1290.0,0.023966
1295.0,0.023949
1300.0,0.023966
1305.0,0.024053
1310.0,0.023961
1315.0,0.024073
1320.0,0.024239
1325.0,0.024051
1330.0,0.024093
1335.0,0.024167
1340.0,0.024084
1345.0,0.024177
1350.0,0.024087
1355.0,0.024036
1360.0,0.024209
1365.0,0.024005
1370.0,0.024056
1375.0,0.02411
1380.0,0.02426
1385.0,0.024038
1390.0,0.02391
1395.0,0.024073
1400.0,0.024169
1405.0,0.024145
1410.0,0.024002
1415.0,0.024068
1420.0,0.024079
1425.0,0.024145
1430.0,0.023903
1435.0,0.024044
1440.0,0.024028
1445.0,0.024102
1450.0,0.023878
1455.0,0.023989
1460.0,0.023844
1465.0,0.023935
1470.0,0.023945
1475.0,0.023993
1480.0,0.024064
1485.0,0.024038
1490.0,0.023803
1495.0,0.023946
1500.0,0.023906
1505.0,0.023976
1510.0,0.023941
1515.0,0.023933
1520.0,0.024003
1525.0,0.023889
1530.0,0.023968
1535.0,0.024129
1540.0,0.02396
1545.0,0.023815
1550.0,0.023527
1555.0,0.023419
1560.0,0.023422
1565.0,0.023531
1570.0,0.023492
1575.0,0.023315
1580.0,0.023408
1585.0,0.023399
1590.0,0.023574
1595.0,0.023565
1600.0,0.023589
1605.0,0.023485
1610.0,0.02344
1615.0,0.023386
1620.0,0.023587
1625.0,0.023409
1630.0,0.023496
1635.0,0.023571
1640.0,0.023333
1645.0,0.023392
1650.0,0.023574
1655.0,0.023385
1660.0,0.023396
1665.0,0.023285
1670.0,0.023195
1675.0,0.023229
1680.0,0.023437
1685.0,0.023275
1690.0,0.023515
1695.0,0.023196
1700.0,0.02335
1705.0,0.023298
1710.0,0.023487
1715.0,0.023523
1720.0,0.023338
1725.0,0.023171
1730.0,0.023382
1735.0,0.023296
1740.0,0.023343
1745.0,0.023328
1750.0,0.023371
1755.0,0.023241
1760.0,0.023165
1765.0,0.023232
1770.0,0.023304
1775.0,0.023174
1780.0,0.023273
1785.0,0.023159
1790.0,0.023324
1795.0,0.023228
1800.0,0.023251
1805.0,0.023215
1810.0,0.023149
1815.0,0.023383
1820.0,0.023201
1825.0,0.02342
1830.0,0.023376
1835.0,0.023344
1840.0,0.02319
1845.0,0.023373
1850.0,0.023244
1855.0,0.023098
1860.0,0.023173
1865.0,0.023306
1870.0,0.023345
1875.0,0.023246
1880.0,0.023216
1885.0,0.023272
1890.0,0.023252
1895.0,0.023117
1900.0,0.023094
1905.0,0.023212
1910.0,0.022968
1915.0,0.02296
1920.0,0.023337
1925.0,0.02305
1930.0,0.023189
1935.0,0.022945
1940.0,0.022991
1945.0,0.023028
1950.0,0.023082
1955.0,0.023042
1960.0,0.023095
1965.0,0.022988
1970.0,0.022959
1975.0,0.023057
1980.0,0.022887
1985.0,0.02308
1990.0,0.02302
1995.0,0.02296
2000.0,0.023022
2005.0,0.02283
2010.0,0.022924
2015.0,0.022924
2020.0,0.0229
2025.0,0.022854
2030.0,0.022924
2035.0,0.02293
2040.0,0.022862
2045.0,0.022874
2050.0,0.02281
2055.0,0.022957
2060.0,0.02281
2065.0,0.02291
2070.0,0.022847
2075.0,0.022894
2080.0,0.022811
2085.0,0.022859
2090.0,0.022836
2095.0,0.022822
2100.0,0.022874
2105.0,0.022693
2110.0,0.022826
2115.0,0.022602
2120.0,0.022644
2125.0,0.02264
2130.0,0.022401
2135.0,0.022588
2140.0,0.022732
2145.0,0.022469
2150.0,0.022535
2155.0,0.022586
2160.0,0.022527
2165.0,0.022688
2170.0,0.022389
2175.0,0.022559
2180.0,0.022641
2185.0,0.022651
2190.0,0.02262
2195.0,0.022628
2200.0,0.02275
2205.0,0.022799
2210.0,0.022834
2215.0,0.022652
2220.0,0.022781
2225.0,0.022849
2230.0,0.022735
2235.0,0.022639
2240.0,0.022642
2245.0,0.022697
2250.0,0.022565
2255.0,0.022495
2260.0,0.022747
2265.0,0.022634
2270.0,0.022476
2275.0,0.022454
2280.0,0.022509
2285.0,0.022399
2290.0,0.022398
2295.0,0.022521
2300.0,0.02264
2305.0,0.022426
2310.0,0.022523
2315.0,0.02255
2320.0,0.022443
2325.0,0.022361
2330.0,0.022234
2335.0,0.022038
2340.0,0.022324
2345.0,0.021953
2350.0,0.021829
2355.0,0.021907
2360.0,0.021866
2365.0,0.022096
2370.0,0.022004
2375.0,0.022015
2380.0,0.022019
2385.0,0.022019
2390.0,0.021998
2395.0,0.022074
2400.0,0.022083
2405.0,0.022281
2410.0,0.02216
2415.0,0.02213
2420.0,0.021991
2425.0,0.022037
2430.0,0.022052
2435.0,0.022145
2440.0,0.022075
2445.0,0.021977
2450.0,0.021963
2455.0,0.021855
2460.0,0.021795
2465.0,0.021729
2470.0,0.02165
2475.0,0.021591
2480.0,0.02157
2485.0,0.021673
2490.0,0.02147
2495.0,0.02156
2500.0,0.021644
2505.0,0.021628
2510.0,0.021737
2515.0,0.021843
2520.0,0.021816
2525.0,0.02183
2530.0,0.021951
2535.0,0.021936
2540.0,0.02215
2545.0,0.022035
2550.0,0.022086
2555.0,0.021957
2560.0,0.022307
2565.0,0.022056
2570.0,0.022128
2575.0,0.022167
2580.0,0.022234
2585.0,0.021586
2590.0,0.021595
2595.0,0.021564
2600.0,0.021461
