Database of Origin,University of Winnipeg Spectrophotometer Facility
Sample Description,"RELAB plus Nicolet merged plagioclase data. Merged @2500nm, different viewing geometries. See Master Plagioclase in PSF sample database for more information"
Date Added,2016-11-22 03:59:30.124237

Data ID,RLA_PLG_22          
Sample ID,PLG124
Mineral Name,Oligoclase
Grain Size,<45
Viewing Geometry,"30/0,30"
Resolution,"5,0.6-129"
Composition,An??
Material Class,Tectosilicate

Wavelength
300.0,0.361639
305.0,0.368949
310.0,0.38062
315.0,0.391423
320.0,0.403985
325.0,0.415817
330.0,0.42791
335.0,0.440845
340.0,0.452463
345.0,0.464742
350.0,0.476325
355.0,0.489334
360.0,0.501434
365.0,0.51533
370.0,0.526859
375.0,0.541475
380.0,0.553061
385.0,0.566009
390.0,0.574699
395.0,0.585315
400.0,0.594103
405.0,0.599942
410.0,0.607401
415.0,0.612913
420.0,0.619057
425.0,0.626686
430.0,0.634196
435.0,0.643002
440.0,0.649412
445.0,0.65662
450.0,0.662261
455.0,0.668693
460.0,0.671973
465.0,0.677629
470.0,0.677387
475.0,0.68335
480.0,0.6832
485.0,0.689253
490.0,0.69133
495.0,0.697539
500.0,0.698803
505.0,0.704646
510.0,0.707998
515.0,0.714936
520.0,0.715209
525.0,0.721357
530.0,0.72226
535.0,0.727742
540.0,0.726821
545.0,0.732048
550.0,0.731031
555.0,0.735319
560.0,0.734555
565.0,0.737782
570.0,0.736813
575.0,0.739265
580.0,0.738967
585.0,0.74148
590.0,0.740459
595.0,0.74219
600.0,0.741189
605.0,0.742501
610.0,0.741003
615.0,0.74422
620.0,0.74307
625.0,0.745426
630.0,0.743803
635.0,0.746079
640.0,0.744957
645.0,0.746351
650.0,0.74626
655.0,0.74695
660.0,0.746704
665.0,0.746819
670.0,0.748391
675.0,0.748435
680.0,0.749366
685.0,0.748249
690.0,0.750712
695.0,0.750308
700.0,0.752333
705.0,0.751173
710.0,0.752549
715.0,0.753303
720.0,0.751185
725.0,0.754489
730.0,0.753662
735.0,0.756847
740.0,0.755649
745.0,0.756597
750.0,0.757087
755.0,0.757198
760.0,0.75889
765.0,0.758876
770.0,0.759332
775.0,0.758802
780.0,0.760866
785.0,0.760912
790.0,0.762131
795.0,0.762567
800.0,0.762493
805.0,0.762101
810.0,0.762495
815.0,0.762588
820.0,0.761715
825.0,0.760584
830.0,0.762827
835.0,0.760709
840.0,0.762369
845.0,0.7609
850.0,0.761264
855.0,0.761607
860.0,0.760707
865.0,0.760756
870.0,0.760804
875.0,0.759079
880.0,0.762089
885.0,0.760869
890.0,0.761384
895.0,0.761225
900.0,0.75832
905.0,0.757627
910.0,0.758527
915.0,0.756399
920.0,0.755095
925.0,0.758532
930.0,0.758138
935.0,0.755789
940.0,0.757188
945.0,0.758625
950.0,0.757012
955.0,0.75973
960.0,0.763052
965.0,0.763159
970.0,0.766069
975.0,0.765738
980.0,0.765295
985.0,0.765161
990.0,0.765036
995.0,0.763682
1000.0,0.763794
1005.0,0.763134
1010.0,0.763863
1015.0,0.766173
1020.0,0.766956
1025.0,0.767965
1030.0,0.766609
1035.0,0.768078
1040.0,0.767806
1045.0,0.765996
1050.0,0.765344
1055.0,0.767855
1060.0,0.76635
1065.0,0.766132
1070.0,0.768132
1075.0,0.769254
1080.0,0.768103
1085.0,0.768077
1090.0,0.768669
1095.0,0.767278
1100.0,0.76725
1105.0,0.768512
1110.0,0.768859
1115.0,0.770198
1120.0,0.772219
1125.0,0.773455
1130.0,0.77369
1135.0,0.774541
1140.0,0.77499
1145.0,0.773762
1150.0,0.773709
1155.0,0.77483
1160.0,0.774953
1165.0,0.775683
1170.0,0.778194
1175.0,0.777522
1180.0,0.777502
1185.0,0.778752
1190.0,0.776759
1195.0,0.776026
1200.0,0.778687
1205.0,0.777901
1210.0,0.779984
1215.0,0.778673
1220.0,0.77956
1225.0,0.780213
1230.0,0.782476
1235.0,0.782218
1240.0,0.7841
1245.0,0.784544
1250.0,0.78524
1255.0,0.785235
1260.0,0.785699
1265.0,0.785107
1270.0,0.785519
1275.0,0.785836
1280.0,0.786226
1285.0,0.786149
1290.0,0.787159
1295.0,0.787479
1300.0,0.787754
1305.0,0.787599
1310.0,0.788711
1315.0,0.789781
1320.0,0.791258
1325.0,0.79154
1330.0,0.792464
1335.0,0.793652
1340.0,0.794159
1345.0,0.793748
1350.0,0.794975
1355.0,0.79489
1360.0,0.795265
1365.0,0.795715
1370.0,0.796942
1375.0,0.796421
1380.0,0.7969
1385.0,0.796595
1390.0,0.795934
1395.0,0.794727
1400.0,0.794127
1405.0,0.793586
1410.0,0.793484
1415.0,0.794219
1420.0,0.794712
1425.0,0.795297
1430.0,0.796656
1435.0,0.798361
1440.0,0.799735
1445.0,0.799899
1450.0,0.799818
1455.0,0.800333
1460.0,0.800603
1465.0,0.800916
1470.0,0.801389
1475.0,0.802565
1480.0,0.802962
1485.0,0.803473
1490.0,0.803917
1495.0,0.804566
1500.0,0.805124
1505.0,0.806364
1510.0,0.806723
1515.0,0.807394
1520.0,0.808044
1525.0,0.808198
1530.0,0.807974
1535.0,0.809218
1540.0,0.809231
1545.0,0.81001
1550.0,0.81046
1555.0,0.810821
1560.0,0.810537
1565.0,0.811493
1570.0,0.811812
1575.0,0.812273
1580.0,0.812807
1585.0,0.813926
1590.0,0.814219
1595.0,0.814166
1600.0,0.81504
1605.0,0.815775
1610.0,0.815499
1615.0,0.815895
1620.0,0.816847
1625.0,0.816778
1630.0,0.816184
1635.0,0.816467
1640.0,0.816514
1645.0,0.816334
1650.0,0.816425
1655.0,0.816583
1660.0,0.816449
1665.0,0.81693
1670.0,0.816013
1675.0,0.81582
1680.0,0.815082
1685.0,0.81493
1690.0,0.815418
1695.0,0.816413
1700.0,0.816871
1705.0,0.817873
1710.0,0.818415
1715.0,0.818796
1720.0,0.819271
1725.0,0.819923
1730.0,0.81922
1735.0,0.819675
1740.0,0.819422
1745.0,0.818646
1750.0,0.819275
1755.0,0.819672
1760.0,0.819025
1765.0,0.819502
1770.0,0.819603
1775.0,0.819514
1780.0,0.819593
1785.0,0.819602
1790.0,0.819912
1795.0,0.819428
1800.0,0.819232
1805.0,0.819168
1810.0,0.820274
1815.0,0.819968
1820.0,0.820953
1825.0,0.821113
1830.0,0.822365
1835.0,0.821605
1840.0,0.821774
1845.0,0.821613
1850.0,0.82114
1855.0,0.819783
1860.0,0.819873
1865.0,0.819866
1870.0,0.819693
1875.0,0.81889
1880.0,0.818919
1885.0,0.817383
1890.0,0.815771
1895.0,0.814344
1900.0,0.812727
1905.0,0.810761
1910.0,0.810144
1915.0,0.808689
1920.0,0.807588
1925.0,0.807739
1930.0,0.807456
1935.0,0.807914
1940.0,0.807017
1945.0,0.808081
1950.0,0.808645
1955.0,0.809159
1960.0,0.809901
1965.0,0.812125
1970.0,0.812184
1975.0,0.812581
1980.0,0.813802
1985.0,0.814233
1990.0,0.814602
1995.0,0.814735
2000.0,0.815941
2005.0,0.815763
2010.0,0.815864
2015.0,0.81684
2020.0,0.817745
2025.0,0.817441
2030.0,0.818153
2035.0,0.818625
2040.0,0.818917
2045.0,0.818884
2050.0,0.82005
2055.0,0.820462
2060.0,0.820837
2065.0,0.820391
2070.0,0.821253
2075.0,0.820656
2080.0,0.820633
2085.0,0.820262
2090.0,0.820877
2095.0,0.821024
2100.0,0.821147
2105.0,0.820222
2110.0,0.820048
2115.0,0.819951
2120.0,0.818754
2125.0,0.818948
2130.0,0.818908
2135.0,0.819095
2140.0,0.818758
2145.0,0.818726
2150.0,0.818143
2155.0,0.8183
2160.0,0.817271
2165.0,0.816437
2170.0,0.815932
2175.0,0.814685
2180.0,0.814155
2185.0,0.813812
2190.0,0.813312
2195.0,0.812569
2200.0,0.811945
2205.0,0.810611
2210.0,0.809153
2215.0,0.807431
2220.0,0.806302
2225.0,0.804261
2230.0,0.802524
2235.0,0.802665
2240.0,0.802207
2245.0,0.802181
2250.0,0.803012
2255.0,0.803804
2260.0,0.803502
2265.0,0.804192
2270.0,0.805109
2275.0,0.805878
2280.0,0.806112
2285.0,0.805007
2290.0,0.804546
2295.0,0.803489
2300.0,0.801743
2305.0,0.799903
2310.0,0.798245
2315.0,0.796182
2320.0,0.792614
2325.0,0.789644
2330.0,0.788162
2335.0,0.786166
2340.0,0.784094
2345.0,0.783903
2350.0,0.784944
2355.0,0.785328
2360.0,0.787612
2365.0,0.790332
2370.0,0.79208
2375.0,0.793005
2380.0,0.793469
2385.0,0.794546
2390.0,0.79494
2395.0,0.794442
2400.0,0.794595
2405.0,0.795687
2410.0,0.794854
2415.0,0.793518
2420.0,0.792922
2425.0,0.791947
2430.0,0.790888
2435.0,0.789918
2440.0,0.790059
2445.0,0.789104
2450.0,0.788622
2455.0,0.786659
2460.0,0.783941
2465.0,0.78074
2470.0,0.779578
2475.0,0.776784
2480.0,0.776256
2485.0,0.776395
2490.0,0.776413
2495.0,0.776126
2500.0,0.776137
2505.0,0.776588
2510.0,0.776485
2515.0,0.777309
2520.0,0.777321
2525.0,0.7783
2530.08,0.775584
2535.03,0.77542
2540.0,0.77485
2544.99,0.775012
2549.99,0.775546
2552.5,0.775089
2553.76,0.775162
2555.02,0.778109
2556.28,0.777586
2557.54,0.775849
2558.8,0.77542
2560.07,0.774625
2561.33,0.771671
2562.6,0.773494
2563.86,0.777114
2565.13,0.779468
2566.4,0.780859
2567.67,0.779403
2568.95,0.775237
2570.22,0.773937
2571.5,0.778123
2572.77,0.778522
2574.05,0.774065
2575.33,0.779497
2576.61,0.7791
2577.89,0.777279
2579.17,0.78054
2580.46,0.779309
2581.74,0.775212
2583.03,0.776642
2584.31,0.773688
2585.6,0.779697
2586.89,0.781521
2588.19,0.777993
2589.48,0.779586
2590.77,0.780605
2592.07,0.778553
2593.36,0.774831
2594.66,0.767706
2595.96,0.772186
2597.26,0.789581
2598.56,0.788716
2599.87,0.781074
2601.17,0.776746
2602.48,0.77541
2603.78,0.776239
2605.09,0.774743
2606.4,0.776058
2607.71,0.782252
2609.03,0.78239
2610.34,0.77921
2611.65,0.779597
2612.97,0.778627
2614.29,0.777535
2615.61,0.777328
2616.93,0.773228
2618.25,0.777303
2619.57,0.783197
2620.9,0.777006
2622.22,0.781141
2623.55,0.783243
2624.88,0.778041
2626.21,0.77371
2627.54,0.773228
2628.87,0.779792
2630.21,0.775361
2631.54,0.774315
2632.88,0.783442
2634.21,0.780094
2635.55,0.778325
2636.89,0.779283
2638.24,0.777702
2639.58,0.776474
2640.92,0.775583
2642.27,0.774631
2643.62,0.775276
2644.97,0.77584
2646.32,0.774543
2647.67,0.776036
2649.02,0.776505
2650.38,0.774901
2651.73,0.773017
2653.09,0.770878
2654.45,0.77437
2655.81,0.774952
2657.17,0.77461
2658.53,0.775177
2659.89,0.77154
2661.26,0.771612
2662.63,0.773575
2664.0,0.771886
2665.36,0.765816
2666.74,0.767243
2668.11,0.774614
2669.48,0.775849
2670.86,0.765844
2672.23,0.773685
2673.61,0.778958
2674.99,0.768759
2676.37,0.760995
2677.76,0.760738
2679.14,0.76595
2680.52,0.765966
2681.91,0.765856
2683.3,0.758461
2684.69,0.754828
2686.08,0.754474
2687.47,0.75272
2688.87,0.750068
2690.26,0.747161
2691.66,0.742692
2693.06,0.736914
2694.46,0.731595
2695.86,0.733253
2697.26,0.732485
2698.66,0.727355
2700.07,0.720372
2701.48,0.714276
2702.89,0.710323
2704.3,0.707744
2705.71,0.701353
2707.12,0.695602
2708.53,0.688428
2709.95,0.681143
2711.37,0.675235
2712.79,0.674316
2714.21,0.670325
2715.63,0.659577
2717.05,0.650542
2718.48,0.643399
2719.9,0.635997
2721.33,0.629242
2722.76,0.631816
2724.19,0.624472
2725.62,0.614843
2727.06,0.614605
2728.49,0.609136
2729.93,0.600814
2731.37,0.594238
2732.81,0.589202
2734.25,0.583046
2735.69,0.577742
2737.14,0.576724
2738.58,0.570673
2740.03,0.562266
2741.48,0.561372
2742.93,0.561651
2744.38,0.556992
2745.83,0.548887
2747.29,0.543803
2748.75,0.539216
2750.2,0.535112
2751.66,0.530702
2753.13,0.52619
2754.59,0.520851
2756.05,0.515524
2757.52,0.518876
2758.99,0.518664
2760.46,0.51273
2761.93,0.508734
2763.4,0.506134
2764.87,0.507513
2766.35,0.508014
2767.82,0.505877
2769.3,0.505377
2770.78,0.505165
2772.26,0.505392
2773.75,0.507128
2775.23,0.50654
2776.72,0.506102
2778.21,0.507237
2779.7,0.509272
2781.19,0.510219
2782.68,0.511606
2784.18,0.51335
2785.67,0.513841
2787.17,0.5129
2788.67,0.516027
2790.17,0.518903
2791.67,0.518564
2793.18,0.517747
2794.68,0.51811
2796.19,0.518222
2797.7,0.519093
2799.21,0.520139
2800.72,0.520448
2802.24,0.51981
2803.75,0.520186
2805.27,0.52313
2806.79,0.524468
2808.31,0.523283
2809.83,0.523312
2811.35,0.523457
2812.88,0.523884
2814.41,0.524437
2815.93,0.525396
2817.46,0.526487
2819.0,0.526437
2820.53,0.526952
2822.07,0.528789
2823.6,0.530017
2825.14,0.530619
2826.68,0.530634
2828.22,0.531339
2829.77,0.532958
2831.31,0.534532
2832.86,0.534668
2834.41,0.534846
2835.96,0.535778
2837.51,0.537526
2839.07,0.538429
2840.62,0.539281
2842.18,0.53906
2843.74,0.539493
2845.3,0.539939
2846.86,0.540541
2848.43,0.540765
2849.99,0.541024
2851.56,0.541805
2853.13,0.54247
2854.7,0.542545
2856.27,0.543705
2857.85,0.544601
2859.42,0.545037
2861.0,0.545298
2862.58,0.546058
2864.16,0.546318
2865.75,0.546465
2867.33,0.546332
2868.92,0.546746
2870.51,0.546627
2872.1,0.546628
2873.69,0.547232
2875.28,0.547928
2876.88,0.547622
2878.48,0.547314
2880.07,0.547233
2881.68,0.547139
2883.28,0.547458
2884.88,0.547221
2886.49,0.546814
2888.1,0.546771
2889.71,0.546529
2891.32,0.546505
2892.93,0.545946
2894.55,0.545423
2896.16,0.5448
2897.78,0.54507
2899.4,0.545505
2901.03,0.544502
2902.65,0.543684
2904.28,0.543611
2905.91,0.542533
2907.53,0.542379
2909.17,0.541871
2910.8,0.54085
2912.44,0.539644
2914.07,0.538967
2915.71,0.538557
2917.35,0.537854
2918.99,0.536828
2920.64,0.5362
2922.29,0.535228
2923.93,0.534574
2925.58,0.534318
2927.24,0.534053
2928.89,0.533145
2930.55,0.532622
2932.2,0.532256
2933.86,0.53196
2935.52,0.532064
2937.19,0.532824
2938.85,0.533108
2940.52,0.533592
2942.19,0.533535
2943.86,0.534097
2945.53,0.535035
2947.21,0.535822
2948.88,0.536518
2950.56,0.537521
2952.24,0.537993
2953.92,0.538687
2955.61,0.539251
2957.29,0.5406
2958.98,0.541971
2960.67,0.542761
2962.36,0.542989
2964.06,0.544108
2965.75,0.545091
2967.45,0.546269
2969.15,0.547215
2970.85,0.548288
2972.55,0.549008
2974.26,0.550274
2975.97,0.551257
2977.68,0.552453
2979.39,0.553407
2981.1,0.554655
2982.82,0.555671
2984.53,0.556552
2986.25,0.557346
2987.97,0.558535
2989.7,0.559399
2991.42,0.560612
2993.15,0.561675
2994.88,0.562865
2996.61,0.563887
2998.34,0.564838
3000.08,0.565974
3001.82,0.56712
3003.55,0.567505
3005.3,0.568364
3007.04,0.569371
3008.78,0.570437
3010.53,0.571721
3012.28,0.573057
3014.03,0.573689
3015.79,0.574582
3017.54,0.575
3019.3,0.575995
3021.06,0.577086
3022.82,0.577669
3024.58,0.577986
3026.35,0.57879
3028.12,0.579572
3029.89,0.580241
3031.66,0.580561
3033.43,0.581423
3035.21,0.582241
3036.99,0.5825
3038.77,0.582538
3040.55,0.583492
3042.33,0.583859
3044.12,0.584182
3045.91,0.58445
3047.7,0.585096
3049.49,0.585628
3051.29,0.586385
3053.08,0.586525
3054.88,0.586796
3056.68,0.587354
3058.49,0.588
3060.29,0.588488
3062.1,0.588819
3063.91,0.589242
3065.72,0.58979
3067.54,0.590073
3069.35,0.590734
3071.17,0.59091
3072.99,0.591007
3074.81,0.591259
3076.64,0.591934
3078.46,0.592322
3080.29,0.592579
3082.13,0.592973
3083.96,0.593526
3085.79,0.593626
3087.63,0.594198
3089.47,0.594751
3091.31,0.595222
3093.16,0.595435
3095.01,0.595914
3096.85,0.596753
3098.71,0.597247
3100.56,0.597089
3102.41,0.597533
3104.27,0.598131
3106.13,0.598962
3107.99,0.599607
3109.86,0.60003
3111.73,0.599923
3113.59,0.600357
3115.47,0.601232
3117.34,0.602386
3119.21,0.60293
3121.09,0.603586
3122.97,0.604482
3124.86,0.605277
3126.74,0.605765
3128.63,0.606305
3130.52,0.607072
3132.41,0.607979
3134.3,0.608395
3136.2,0.608881
3138.1,0.609208
3140.0,0.609977
3141.9,0.610748
3143.81,0.611112
3145.71,0.611244
3147.62,0.611735
3149.54,0.612148
3151.45,0.612773
3153.37,0.613136
3155.29,0.613717
3157.21,0.614487
3159.13,0.615028
3161.06,0.615301
3162.99,0.615763
3164.92,0.616184
3166.85,0.61688
3168.79,0.617444
3170.72,0.618098
3172.67,0.618289
3174.61,0.618725
3176.55,0.618999
3178.5,0.619254
3180.45,0.619823
3182.4,0.620629
3184.36,0.620937
3186.32,0.62151
3188.27,0.621736
3190.24,0.622284
3192.2,0.622584
3194.17,0.623314
3196.14,0.624135
3198.11,0.624388
3200.08,0.624922
3202.06,0.625889
3204.04,0.626471
3206.02,0.627022
3208.0,0.627368
3209.99,0.62812
3211.98,0.628898
3213.97,0.629709
3215.96,0.630276
3217.96,0.631154
3219.96,0.631778
3221.96,0.632311
3223.96,0.632566
3225.97,0.633381
3227.98,0.633827
3229.99,0.634261
3232.0,0.634702
3234.02,0.635489
3236.04,0.635866
3238.06,0.636185
3240.08,0.63639
3242.11,0.636729
3244.14,0.636738
3246.17,0.6367
3248.2,0.637033
3250.24,0.63748
3252.28,0.637365
3254.32,0.637269
3256.37,0.636768
3258.41,0.636363
3260.46,0.635821
3262.51,0.635517
3264.57,0.634736
3266.63,0.634152
3268.69,0.63323
3270.75,0.632474
3272.81,0.631395
3274.88,0.630436
3276.95,0.629349
3279.02,0.628221
3281.1,0.626903
3283.18,0.626032
3285.26,0.625034
3287.34,0.623984
3289.43,0.622771
3291.51,0.621942
3293.61,0.621412
3295.7,0.621173
3297.8,0.620986
3299.89,0.621397
3302.0,0.62187
3304.1,0.621955
3306.21,0.621894
3308.32,0.622389
3310.43,0.623052
3312.55,0.623685
3314.66,0.624021
3316.78,0.624675
3318.91,0.625073
3321.03,0.625502
3323.16,0.625751
3325.29,0.625969
3327.43,0.625851
3329.57,0.625873
3331.71,0.625404
3333.85,0.625148
3335.99,0.624453
3338.14,0.623411
3340.29,0.621584
3342.45,0.61955
3344.6,0.616774
3346.76,0.613702
3348.92,0.610885
3351.09,0.609122
3353.26,0.607808
3355.43,0.606832
3357.6,0.606136
3359.78,0.605933
3361.96,0.605684
3364.14,0.605148
3366.32,0.60429
3368.51,0.603455
3370.7,0.602335
3372.89,0.601132
3375.09,0.599444
3377.29,0.598068
3379.49,0.596569
3381.69,0.595113
3383.9,0.593453
3386.11,0.592128
3388.32,0.590813
3390.54,0.589652
3392.76,0.588185
3394.98,0.587113
3397.21,0.586446
3399.43,0.586251
3401.66,0.586268
3403.9,0.586924
3406.13,0.587898
3408.37,0.589616
3410.61,0.591842
3412.86,0.594703
3415.11,0.597722
3417.36,0.601555
3419.61,0.605599
3421.87,0.60984
3424.13,0.614261
3426.39,0.618865
3428.66,0.623465
3430.93,0.627612
3433.2,0.631121
3435.48,0.634565
3437.76,0.637516
3440.04,0.640363
3442.32,0.642938
3444.61,0.644994
3446.9,0.646487
3449.19,0.647832
3451.49,0.649128
3453.79,0.650293
3456.09,0.650944
3458.4,0.651533
3460.7,0.651293
3463.02,0.650607
3465.33,0.649277
3467.65,0.64714
3469.97,0.644427
3472.29,0.641862
3474.62,0.639094
3476.95,0.63675
3479.29,0.635178
3481.62,0.634796
3483.96,0.635261
3486.3,0.636352
3488.65,0.637366
3491.0,0.638597
3493.35,0.640045
3495.71,0.641733
3498.07,0.643192
3500.43,0.644522
3502.79,0.646149
3505.16,0.648112
3507.53,0.65033
3509.91,0.652632
3512.29,0.654945
3514.67,0.657235
3517.05,0.659546
3519.44,0.662125
3521.83,0.664795
3524.22,0.667627
3526.62,0.670569
3529.02,0.673644
3531.43,0.676197
3533.83,0.678531
3536.24,0.680805
3538.66,0.683068
3541.08,0.685043
3543.5,0.687311
3545.92,0.689294
3548.35,0.691246
3550.78,0.693117
3553.21,0.695101
3555.65,0.696702
3558.09,0.698719
3560.53,0.700631
3562.98,0.702689
3565.43,0.704549
3567.88,0.706469
3570.34,0.707956
3572.8,0.709918
3575.27,0.711949
3577.73,0.713988
3580.2,0.716021
3582.68,0.718098
3585.16,0.719709
3587.64,0.721515
3590.12,0.723306
3592.61,0.725008
3595.1,0.726478
3597.6,0.728073
3600.09,0.729517
3602.6,0.730886
3605.1,0.73189
3607.61,0.733106
3610.12,0.734081
3612.64,0.73492
3615.16,0.735487
3617.68,0.736505
3620.21,0.737359
3622.74,0.738073
3625.27,0.7387
3627.81,0.73931
3630.35,0.740079
3632.89,0.740969
3635.44,0.741448
3637.99,0.742005
3640.54,0.742452
3643.1,0.743017
3645.66,0.743495
3648.23,0.744253
3650.8,0.74457
3653.37,0.745147
3655.95,0.745667
3658.53,0.746222
3661.11,0.746458
3663.7,0.74694
3666.29,0.747229
3668.89,0.747711
3671.48,0.748128
3674.09,0.748605
3676.69,0.748936
3679.3,0.749412
3681.91,0.749725
3684.53,0.750496
3687.15,0.750728
3689.78,0.75104
3692.4,0.751332
3695.04,0.751693
3697.67,0.752199
3700.31,0.752767
3702.95,0.753001
3705.6,0.753397
3708.25,0.753774
3710.91,0.753915
3713.56,0.75394
3716.23,0.754294
3718.89,0.754428
3721.56,0.754471
3724.23,0.754322
3726.91,0.75432
3729.59,0.753994
3732.28,0.753763
3734.97,0.753352
3737.66,0.752936
3740.36,0.752341
3743.06,0.751732
3745.76,0.750769
3748.47,0.749847
3751.18,0.74881
3753.9,0.747775
3756.62,0.746505
3759.34,0.745161
3762.07,0.743442
3764.8,0.741554
3767.54,0.739247
3770.28,0.73683
3773.02,0.733703
3775.77,0.730402
3778.52,0.726221
3781.28,0.721674
3784.04,0.716269
3786.8,0.710144
3789.57,0.703085
3792.34,0.695167
3795.12,0.686235
3797.9,0.676591
3800.69,0.66613
3803.47,0.655196
3806.27,0.644168
3809.06,0.63351
3811.86,0.623112
3814.67,0.613614
3817.48,0.604989
3820.29,0.597694
3823.11,0.59194
3825.93,0.587933
3828.76,0.585303
3831.59,0.584377
3834.42,0.584856
3837.26,0.58673
3840.1,0.590116
3842.95,0.594841
3845.8,0.600208
3848.65,0.606223
3851.51,0.612639
3854.38,0.619325
3857.24,0.625592
3860.12,0.631369
3862.99,0.636404
3865.87,0.640987
3868.76,0.644853
3871.65,0.648202
3874.54,0.650917
3877.44,0.653349
3880.34,0.655308
3883.25,0.656865
3886.16,0.658125
3889.07,0.659207
3891.99,0.659786
3894.92,0.660317
3897.85,0.660369
3900.78,0.660254
3903.72,0.659985
3906.66,0.65978
3909.6,0.659162
3912.55,0.658479
3915.51,0.657661
3918.47,0.656421
3921.43,0.655076
3924.4,0.653882
3927.37,0.652465
3930.35,0.651003
3933.33,0.649375
3936.32,0.64786
3939.31,0.645853
3942.31,0.642666
3945.31,0.637971
3948.31,0.632592
3951.32,0.626902
3954.34,0.620994
3957.35,0.615007
3960.38,0.609396
3963.41,0.603742
3966.44,0.598386
3969.48,0.5939
3972.52,0.590253
3975.56,0.58695
3978.61,0.584507
3981.67,0.582817
3984.73,0.58196
3987.8,0.582058
3990.87,0.58356
3993.94,0.586371
3997.02,0.590257
4000.1,0.59476
4003.19,0.600039
4006.29,0.605564
4009.39,0.611407
4012.49,0.617228
4015.6,0.623036
4018.71,0.628501
4021.83,0.633904
4024.95,0.639173
4028.08,0.644792
4031.21,0.650491
4034.35,0.656385
4037.49,0.66238
4040.64,0.668736
4043.79,0.675102
4046.94,0.681241
4050.11,0.687276
4053.27,0.693355
4056.44,0.699008
4059.62,0.704264
4062.8,0.708994
4065.99,0.71382
4069.18,0.718201
4072.38,0.722281
4075.58,0.725849
4078.78,0.729484
4082.0,0.732677
4085.21,0.735671
4088.43,0.73833
4091.66,0.740998
4094.89,0.743334
4098.13,0.745668
4101.37,0.747694
4104.62,0.749836
4107.87,0.751844
4111.13,0.75401
4114.39,0.755995
4117.66,0.75822
4120.93,0.760205
4124.21,0.76239
4127.5,0.764396
4130.78,0.766438
4134.08,0.768043
4137.38,0.769707
4140.68,0.771181
4143.99,0.772524
4147.31,0.77359
4150.63,0.774667
4153.95,0.775587
4157.29,0.776425
4160.62,0.776773
4163.96,0.777201
4167.31,0.777515
4170.66,0.777985
4174.02,0.778027
4177.39,0.778012
4180.75,0.777863
4184.13,0.777924
4187.51,0.777644
4190.89,0.777387
4194.28,0.776915
4197.68,0.776574
4201.08,0.776258
4204.49,0.776022
4207.9,0.775636
4211.32,0.775384
4214.74,0.774932
4218.17,0.774716
4221.61,0.77434
4225.05,0.774235
4228.5,0.774128
4231.95,0.774048
4235.4,0.773691
4238.87,0.773505
4242.34,0.773091
4245.81,0.772916
4249.29,0.772206
4252.78,0.771616
4256.27,0.770658
4259.77,0.768744
4263.27,0.766861
4266.78,0.767054
4270.29,0.7678
4273.81,0.768241
4277.34,0.768542
4280.87,0.768852
4284.41,0.768741
4287.95,0.768413
4291.5,0.767959
4295.06,0.767854
4298.62,0.767364
4302.19,0.766836
4305.76,0.76611
4309.34,0.765593
4312.92,0.764952
4316.52,0.764251
4320.11,0.763159
4323.72,0.762491
4327.32,0.761452
4330.94,0.760516
4334.56,0.75937
4338.19,0.758387
4341.82,0.757536
4345.46,0.756591
4349.11,0.755523
4352.76,0.754852
4356.42,0.753717
4360.08,0.752798
4363.75,0.752096
4367.43,0.751497
4371.11,0.750878
4374.8,0.750533
4378.49,0.750024
4382.19,0.749613
4385.9,0.74913
4389.61,0.748894
4393.33,0.748482
4397.06,0.748133
4400.79,0.747657
4404.53,0.747249
4408.28,0.746796
4412.03,0.746629
4415.79,0.746018
4419.55,0.745578
4423.32,0.745052
4427.1,0.74458
4430.88,0.74396
4434.67,0.743481
4438.47,0.742592
4442.27,0.741764
4446.08,0.74079
4449.9,0.739912
4453.72,0.738833
4457.55,0.738153
4461.39,0.73708
4465.23,0.73593
4469.08,0.734841
4472.94,0.734179
4476.8,0.733182
4480.67,0.732388
4484.55,0.731409
4488.43,0.730665
4492.32,0.729808
4496.21,0.729042
4500.12,0.728044
4504.03,0.727095
4507.94,0.72592
4511.87,0.724803
4515.8,0.723504
4519.73,0.722241
4523.68,0.720438
4527.63,0.718611
4531.59,0.716378
4535.55,0.713891
4539.52,0.710979
4543.5,0.70819
4547.49,0.705153
4551.48,0.702379
4555.48,0.699872
4559.49,0.697803
4563.5,0.695816
4567.52,0.694449
4571.55,0.693353
4575.58,0.69277
4579.62,0.692341
4583.67,0.692139
4587.73,0.691752
4591.79,0.691512
4595.86,0.691114
4599.94,0.690698
4604.03,0.690024
4608.12,0.689647
4612.22,0.688828
4616.33,0.687908
4620.44,0.686879
4624.56,0.686041
4628.69,0.684932
4632.83,0.683644
4636.97,0.682254
4641.12,0.680848
4645.28,0.679205
4649.45,0.677641
4653.62,0.675824
4657.8,0.674175
4661.99,0.672433
4666.19,0.670614
4670.39,0.668736
4674.6,0.6671
4678.82,0.665251
4683.05,0.663498
4687.28,0.661751
4691.52,0.660222
4695.77,0.658622
4700.03,0.657138
4704.3,0.655608
4708.57,0.654377
4712.85,0.653048
4717.14,0.652032
4721.43,0.651129
4725.74,0.650584
4730.05,0.650109
4734.37,0.650033
4738.7,0.650127
4743.03,0.650241
4747.38,0.650061
4751.73,0.650094
4756.09,0.649863
4760.45,0.649465
4764.83,0.648861
4769.21,0.64849
4773.6,0.647867
4778.0,0.647247
4782.41,0.646503
4786.83,0.64585
4791.25,0.645179
4795.68,0.644625
4800.13,0.643822
4804.57,0.643436
4809.03,0.642925
4813.5,0.642419
4817.97,0.641765
4822.45,0.641308
4826.94,0.640756
4831.44,0.640382
4835.95,0.639665
4840.46,0.639006
4844.99,0.638432
4849.52,0.637946
4854.06,0.636977
4858.61,0.636044
4863.17,0.635199
4867.73,0.634351
4872.31,0.633442
4876.89,0.63267
4881.48,0.631629
4886.08,0.63065
4890.69,0.629875
4895.31,0.629015
4899.94,0.628046
4904.57,0.627102
4909.22,0.625902
4913.87,0.624825
4918.53,0.623761
4923.21,0.622813
4927.88,0.621488
4932.57,0.62044
4937.27,0.619498
4941.98,0.61849
4946.69,0.617206
4951.42,0.615951
4956.15,0.614452
4960.89,0.613371
4965.65,0.612222
4970.41,0.610723
4975.18,0.609051
4979.96,0.607616
4984.75,0.605963
4989.54,0.604288
4994.35,0.602457
4999.17,0.600793
5003.99,0.598882
5008.83,0.597034
5013.67,0.594953
5018.52,0.593053
5023.39,0.591284
5028.26,0.589772
5033.14,0.587758
5038.03,0.585898
5042.93,0.58395
5047.84,0.582147
5052.76,0.580441
5057.69,0.579072
5062.63,0.577424
5067.58,0.575796
5072.54,0.574157
5077.51,0.572617
5082.49,0.571012
5087.47,0.569804
5092.47,0.568369
5097.48,0.566512
5102.5,0.564717
5107.52,0.563408
5112.56,0.562567
5117.61,0.561839
5122.66,0.560981
5127.73,0.560357
5132.81,0.559604
5137.89,0.558948
5142.99,0.558438
5148.1,0.558109
5153.22,0.558393
5158.34,0.558733
5163.48,0.558404
5168.63,0.558769
5173.79,0.55936
5178.96,0.560427
5184.13,0.561378
5189.32,0.562439
5194.52,0.563248
5199.73,0.564188
5204.95,0.565505
5210.19,0.566619
5215.43,0.56671
5220.68,0.568169
5225.94,0.568411
5231.22,0.567995
5236.5,0.567726
5241.79,0.567715
5247.1,0.567325
5252.42,0.566456
5257.74,0.565226
5263.08,0.564138
5268.43,0.562685
5273.79,0.561154
5279.16,0.559605
5284.54,0.558303
5289.93,0.556082
5295.34,0.554196
5300.75,0.552463
5306.18,0.549816
5311.61,0.546977
5317.06,0.544055
5322.52,0.540694
5327.99,0.537323
5333.47,0.533457
5338.96,0.529559
5344.47,0.525564
5349.98,0.521594
5355.51,0.518667
5361.05,0.515912
5366.6,0.511968
5372.16,0.508956
5377.73,0.506751
5383.32,0.505252
5388.91,0.503928
5394.52,0.50315
5400.14,0.502434
5405.77,0.50186
5411.41,0.50087
5417.07,0.5002
5422.74,0.499062
5428.41,0.499475
5434.1,0.498481
5439.81,0.49557
5445.52,0.493352
5451.25,0.491538
5456.98,0.489452
5462.73,0.487085
5468.5,0.485212
5474.27,0.483766
5480.06,0.480477
5485.86,0.478053
5491.67,0.475441
5497.49,0.472278
5503.33,0.469421
5509.18,0.466827
5515.04,0.463837
5520.91,0.460633
5526.8,0.457675
5532.69,0.454161
5538.61,0.44946
5544.53,0.44354
5550.47,0.436288
5556.41,0.428063
5562.38,0.420474
5568.35,0.414906
5574.34,0.411597
5580.34,0.409912
5586.35,0.411503
5592.38,0.414526
5598.42,0.416923
5604.47,0.418437
5610.54,0.418469
5616.61,0.416238
5622.71,0.412854
5628.81,0.408711
5634.93,0.404453
5641.06,0.401016
5647.21,0.399578
5653.36,0.3989
5659.54,0.396762
5665.72,0.395973
5671.92,0.394777
5678.13,0.394634
5684.36,0.395996
5690.6,0.396576
5696.85,0.39736
5703.12,0.398797
5709.4,0.398584
5715.69,0.399668
5722.0,0.400514
5728.33,0.399932
5734.66,0.398724
5741.01,0.397756
5747.38,0.396497
5753.76,0.395661
5760.15,0.394012
5766.56,0.391082
5772.98,0.391221
5779.41,0.390196
5785.86,0.387036
5792.33,0.384984
5798.81,0.382775
5805.3,0.381074
5811.81,0.379492
5818.33,0.377522
5824.87,0.376484
5831.42,0.376704
5837.99,0.374817
5844.57,0.37241
5851.17,0.369713
5857.78,0.367398
5864.41,0.365089
5871.05,0.36339
5877.7,0.360832
5884.38,0.359632
5891.06,0.361208
5897.76,0.358883
5904.48,0.358124
5911.21,0.356481
5917.96,0.353487
5924.73,0.35198
5931.5,0.350052
5938.3,0.348248
5945.11,0.348688
5951.93,0.34633
5958.78,0.342369
5965.63,0.339588
5972.51,0.337507
5979.39,0.336689
5986.3,0.334279
5993.22,0.333584
6000.16,0.333668
6007.11,0.332753
6014.08,0.331618
6021.06,0.331629
6028.06,0.330099
6035.08,0.327835
6042.12,0.325178
6049.17,0.322778
6056.23,0.321966
6063.32,0.318733
6070.42,0.313957
6077.53,0.311956
6084.67,0.310003
6091.82,0.307196
6098.98,0.304199
6106.17,0.30206
6113.37,0.299768
6120.58,0.298689
6127.82,0.296113
6135.07,0.292972
6142.34,0.290224
6149.63,0.288145
6156.93,0.285523
6164.25,0.283161
6171.59,0.280421
6178.94,0.27733
6186.32,0.274215
6193.71,0.27208
6201.12,0.268448
6208.54,0.264683
6215.99,0.261131
6223.45,0.257541
6230.93,0.25361
6238.43,0.249986
6245.95,0.245979
6253.48,0.241959
6261.03,0.237579
6268.6,0.23332
6276.19,0.228577
6283.8,0.223973
6291.43,0.218894
6299.07,0.213878
6306.73,0.208612
6314.42,0.203546
6322.12,0.198101
6329.83,0.192765
6337.57,0.186823
6345.33,0.181351
6353.11,0.174568
6360.9,0.167114
6368.72,0.159998
6376.55,0.152754
6384.4,0.144047
6392.27,0.136409
6400.17,0.128554
6408.08,0.121692
6416.01,0.115772
6423.96,0.109082
6431.93,0.102444
6439.92,0.097949
6447.93,0.093437
6455.96,0.089744
6464.01,0.085917
6472.08,0.082536
6480.17,0.079241
6488.28,0.076428
6496.41,0.073837
6504.56,0.071729
6512.73,0.069529
6520.92,0.068503
6529.14,0.067987
6537.37,0.06798
6545.63,0.068079
6553.9,0.068946
6562.2,0.06987
6570.51,0.071092
6578.85,0.072579
6587.21,0.074565
6595.59,0.076296
6603.99,0.07878
6612.42,0.08094
6620.86,0.083529
6629.33,0.086061
6637.82,0.088454
6646.33,0.090898
6654.86,0.092509
6663.41,0.093045
6671.99,0.093754
6680.59,0.094064
6689.21,0.094348
6697.85,0.094064
6706.51,0.093567
6715.2,0.093063
6723.91,0.093004
6732.64,0.092573
6741.4,0.092246
6750.18,0.092136
6758.98,0.092198
6767.8,0.092087
6776.65,0.092179
6785.52,0.092176
6794.41,0.092015
6803.33,0.091563
6812.27,0.090782
6821.23,0.089933
6830.22,0.089301
6839.23,0.088537
6848.26,0.087679
6857.32,0.087005
6866.4,0.086585
6875.51,0.085964
6884.64,0.084964
6893.8,0.084113
6902.98,0.083489
6912.18,0.082651
6921.41,0.081579
6930.66,0.080085
6939.94,0.078447
6949.24,0.076562
6958.57,0.074653
6967.92,0.072543
6977.3,0.070296
6986.7,0.068351
6996.13,0.067006
7005.59,0.065869
7015.07,0.065372
7024.57,0.065377
7034.1,0.066015
7043.66,0.066539
7053.24,0.0674
7062.85,0.068665
7072.49,0.069866
7082.15,0.07105
7091.84,0.072602
7101.55,0.074285
7111.3,0.076115
7121.06,0.078212
7130.86,0.080795
7140.68,0.08337
7150.53,0.086245
7160.41,0.089671
7170.31,0.093231
7180.24,0.09703
7190.2,0.100774
7200.19,0.104304
7210.2,0.108113
7220.24,0.112158
7230.31,0.116156
7240.41,0.12053
7250.54,0.125497
7260.69,0.130835
7270.88,0.136776
7281.09,0.143099
7291.33,0.149672
7301.6,0.155616
7311.9,0.161435
7322.22,0.16731
7332.58,0.172297
7342.97,0.177065
7353.38,0.1816
7363.83,0.185078
7374.3,0.188041
7384.81,0.190756
7395.34,0.19301
7405.91,0.194975
7416.5,0.196722
7427.13,0.198284
7437.78,0.199673
7448.47,0.200936
7459.19,0.202097
7469.94,0.203274
7480.71,0.203963
7491.52,0.204255
7502.37,0.204317
7513.24,0.204063
7524.14,0.203553
7535.08,0.202773
7546.05,0.201657
7557.05,0.200264
7568.08,0.198711
7579.14,0.196872
7590.24,0.194764
7601.37,0.192621
7612.53,0.19011
7623.73,0.1877
7634.96,0.185088
7646.22,0.182446
7657.51,0.179867
7668.84,0.177153
7680.2,0.174224
7691.59,0.171358
7703.02,0.168351
7714.49,0.165238
7725.98,0.162064
7737.51,0.158784
7749.08,0.155168
7760.68,0.151393
7772.32,0.147732
7783.99,0.143953
7795.69,0.139983
7807.43,0.135967
7819.21,0.13205
7831.02,0.127903
7842.87,0.123694
7854.75,0.119458
7866.67,0.115001
7878.62,0.110644
7890.62,0.10627
7902.64,0.101905
7914.71,0.097749
7926.81,0.093658
7938.95,0.089694
7951.13,0.085723
7963.34,0.082027
7975.59,0.078777
7987.88,0.075845
8000.21,0.073164
8012.57,0.070872
8024.98,0.069093
8037.42,0.067872
8049.9,0.067309
8062.42,0.067673
8074.98,0.06923
8087.57,0.071968
8100.21,0.075795
8112.89,0.080986
8125.6,0.087583
8138.36,0.095389
8151.16,0.104155
8163.99,0.113221
8176.87,0.121864
8189.79,0.129048
8202.75,0.133909
8215.74,0.136066
8228.79,0.135836
8241.87,0.13372
8254.99,0.130373
8268.16,0.126682
8281.37,0.123121
8294.62,0.119872
8307.91,0.116938
8321.24,0.11446
8334.62,0.112245
8348.04,0.110192
8361.51,0.108371
8375.02,0.106466
8388.57,0.104348
8402.16,0.102232
8415.8,0.100142
8429.49,0.09823
8443.22,0.096342
8456.99,0.094458
8470.81,0.092778
8484.67,0.091338
8498.58,0.090086
8512.54,0.089187
8526.54,0.088542
8540.58,0.088075
8554.68,0.087598
8568.82,0.086833
8583.0,0.08585
8597.24,0.084715
8611.52,0.083134
8625.85,0.081407
8640.22,0.079516
8654.65,0.077542
8669.12,0.075618
8683.64,0.07365
8698.21,0.072061
8712.83,0.070724
8727.5,0.069802
8742.22,0.069813
8756.98,0.070708
8771.8,0.072161
8786.67,0.074231
8801.59,0.077106
8816.56,0.080795
8831.58,0.085147
8846.65,0.089765
8861.77,0.09438
8876.94,0.098257
8892.17,0.101779
8907.45,0.104852
8922.78,0.107395
8938.16,0.109572
8953.6,0.111247
8969.09,0.11254
8984.64,0.11358
9000.23,0.114248
9015.89,0.114529
9031.59,0.114683
9047.36,0.114854
9063.17,0.114868
9079.04,0.114695
9094.97,0.114591
9110.96,0.114511
9127.0,0.114223
9143.09,0.113852
9159.25,0.113819
9175.46,0.113706
9191.73,0.11349
9208.05,0.113516
9224.44,0.113646
9240.88,0.113694
9257.38,0.113928
9273.94,0.114243
9290.56,0.114315
9307.24,0.114119
9323.98,0.113967
9340.78,0.113981
9357.64,0.113977
9374.57,0.113942
9391.55,0.113973
9408.59,0.114023
9425.7,0.114047
9442.87,0.11419
9460.1,0.114449
9477.39,0.11487
9494.75,0.115091
9512.17,0.115466
9529.66,0.116103
9547.21,0.116736
9564.82,0.117543
9582.5,0.118505
9600.25,0.119419
9618.06,0.120449
9635.94,0.12135
9653.88,0.122085
9671.89,0.122898
9689.97,0.12351
9708.12,0.123933
9726.33,0.124256
9744.61,0.124326
9762.97,0.124152
9781.39,0.123978
9799.88,0.123972
9818.44,0.123878
9837.07,0.124166
9855.77,0.124353
9874.54,0.124547
9893.39,0.124909
9912.3,0.125337
9931.29,0.12582
9950.35,0.126048
9969.49,0.12596
9988.7,0.125823
10007.98,0.12534
10027.34,0.124648
10046.77,0.123883
10066.28,0.122977
10085.87,0.121798
10105.53,0.120329
10125.26,0.118556
10145.08,0.116716
10164.97,0.115097
10184.94,0.113534
10204.99,0.11178
10225.12,0.110341
10245.33,0.109408
10265.61,0.108655
10285.98,0.107788
10306.43,0.107139
10326.96,0.106886
10347.57,0.106589
10368.27,0.106214
10389.05,0.106033
10409.91,0.105825
10430.85,0.105565
10451.88,0.105587
10473.0,0.10581
10494.2,0.105878
10515.49,0.10583
10536.86,0.105958
10558.32,0.10612
10579.87,0.10638
10601.5,0.106567
10623.23,0.106517
10645.04,0.106771
10666.94,0.107349
10688.94,0.107754
10711.02,0.108075
10733.2,0.108548
10755.47,0.108977
10777.83,0.109434
10800.28,0.109776
10822.83,0.110298
10845.47,0.110994
10868.21,0.111669
10891.04,0.112337
10913.97,0.112935
10936.99,0.113391
10960.12,0.113946
10983.34,0.114482
11006.66,0.115476
11030.07,0.116734
11053.59,0.117995
11077.21,0.11945
11100.93,0.121242
11124.75,0.123232
11148.68,0.124922
11172.7,0.126292
11196.84,0.127565
11221.07,0.128273
11245.41,0.128208
11269.86,0.127374
11294.41,0.125805
11319.07,0.123323
11343.84,0.120543
11368.72,0.118261
11393.7,0.116079
11418.8,0.114002
11444.01,0.112389
11469.33,0.111315
11494.76,0.110832
11520.3,0.110393
11545.96,0.110562
11571.73,0.1112
11597.62,0.112027
11623.62,0.113395
11649.74,0.114972
11675.98,0.11655
11702.34,0.118106
11728.81,0.118541
11755.41,0.118939
11782.13,0.122841
11808.96,0.131211
11835.92,0.141662
11863.01,0.150933
11890.22,0.159018
11917.55,0.166352
11945.01,0.172884
11972.6,0.178383
12000.31,0.183257
12028.16,0.187522
12056.13,0.190802
12084.23,0.193136
12112.46,0.195097
12140.83,0.19688
12169.33,0.198671
12197.96,0.200484
12226.73,0.201862
12255.64,0.20294
12284.68,0.203653
12313.86,0.203859
12343.18,0.203977
12372.64,0.203855
12402.24,0.203706
12431.98,0.203156
12461.86,0.202498
12491.89,0.201265
12522.06,0.19966
12552.38,0.197882
12582.85,0.195791
12613.47,0.193317
12644.23,0.190401
12675.15,0.186719
12706.21,0.182105
12737.43,0.176642
12768.8,0.170896
12800.33,0.164862
12832.02,0.158725
12863.86,0.152104
12895.86,0.14461
12928.02,0.136502
12960.34,0.128963
12992.82,0.122661
13025.46,0.118037
13058.27,0.114529
13091.25,0.111153
13124.39,0.107428
13157.7,0.103166
13191.18,0.098193
13224.83,0.093296
13258.66,0.088627
13292.65,0.08382
13326.83,0.079729
13361.17,0.076381
13395.7,0.073754
13430.4,0.071737
13465.29,0.070383
13500.35,0.069561
13535.6,0.06894
13571.03,0.068566
13606.65,0.068829
13642.46,0.069294
13678.46,0.069472
13714.64,0.069493
13751.02,0.069641
13787.59,0.069557
13824.36,0.069064
13861.32,0.068448
13898.48,0.067889
13935.85,0.066967
13973.41,0.065246
14011.17,0.06392
14049.15,0.063237
14087.32,0.062967
14125.71,0.063037
14164.3,0.062639
14203.11,0.062701
14242.13,0.063155
14281.36,0.063303
14320.81,0.063278
14360.48,0.063764
14400.38,0.064815
14440.49,0.065756
14480.82,0.066193
14521.39,0.066759
14562.18,0.067222
14603.2,0.068063
14644.45,0.069164
14685.93,0.070014
14727.66,0.070548
14769.62,0.071175
14811.81,0.072019
14854.25,0.072907
14896.94,0.073658
14939.87,0.074374
14983.05,0.075038
15026.48,0.075405
15070.16,0.074867
15114.1,0.073856
15158.29,0.072414
15202.74,0.071106
15247.46,0.069609
15292.43,0.067735
15337.68,0.065475
15383.19,0.063041
15428.97,0.061254
15475.03,0.059474
15521.36,0.057409
15567.97,0.055984
15614.86,0.055075
15662.04,0.054529
15709.5,0.054721
15757.25,0.056183
15805.29,0.058828
15853.62,0.063007
15902.25,0.068351
15951.18,0.075099
16000.42,0.083534
16049.95,0.092905
16099.8,0.1022
16149.95,0.1107
16200.42,0.116987
16251.21,0.120661
16302.31,0.121875
16353.74,0.120787
16405.49,0.117476
16457.57,0.112493
16509.98,0.106866
16562.73,0.10121
16615.82,0.096047
16669.24,0.091387
16723.02,0.08769
16777.13,0.084297
16831.61,0.081385
16886.43,0.079717
16941.62,0.077974
16997.16,0.076094
17053.07,0.074557
17109.36,0.072541
17166.01,0.070913
17223.04,0.070187
17280.45,0.06936
17338.24,0.068904
17396.43,0.069254
17455.0,0.069886
17513.97,0.070623
17573.34,0.072491
17633.11,0.075411
17693.29,0.079433
17753.89,0.085312
17814.9,0.093776
17876.33,0.104458
17938.18,0.11569
18000.47,0.125341
18063.19,0.132698
18126.35,0.137648
18189.95,0.140409
18254.0,0.141122
18318.5,0.140207
18383.46,0.138581
18448.88,0.1362
18514.77,0.133133
18581.13,0.130298
18647.97,0.126875
18715.29,0.122689
18783.1,0.118823
18851.4,0.116857
18920.2,0.11518
18989.51,0.111703
19059.32,0.109291
19129.65,0.108423
19200.5,0.10777
19271.88,0.10536
19343.79,0.10229
19416.23,0.100325
19489.23,0.098459
19562.77,0.09607
19636.88,0.092724
19711.54,0.090266
19786.77,0.088595
19862.59,0.086557
19938.98,0.08393
20015.96,0.081098
20093.54,0.077987
20171.73,0.075294
20250.53,0.072156
20329.94,0.069322
20409.98,0.067251
20490.65,0.066182
20571.96,0.06793
20653.92,0.073712
20736.54,0.084038
20819.82,0.097246
20903.77,0.111304
20988.4,0.124645
21073.72,0.135548
21159.73,0.143877
21246.46,0.15016
21333.89,0.154106
21422.04,0.157038
21510.93,0.159881
21600.56,0.16186
21690.94,0.161665
21782.08,0.160051
21873.99,0.158383
21966.67,0.155951
22060.15,0.151937
22154.42,0.147705
22249.51,0.142004
22345.41,0.136633
22442.14,0.131969
22539.72,0.126951
22638.14,0.123781
22737.43,0.122279
22837.6,0.121054
22938.65,0.120123
23040.6,0.120117
23143.46,0.121128
23247.24,0.121499
23351.96,0.12221
23457.62,0.123346
23564.25,0.126778
23671.85,0.130168
23780.44,0.131768
23890.02,0.133666
24000.63,0.132935
24112.26,0.13125
24224.93,0.129766
24338.66,0.127942
24453.47,0.127758
24569.36,0.126591
24686.36,0.126919
24804.47,0.129347
24923.72,0.129431
25044.13,0.129062
25165.7,0.12725
25288.46,0.123532
25412.43,0.122343
25537.61,0.122941
25664.03,0.124263
25791.71,0.126386
25920.67,0.123054
