Database of Origin,University of Winnipeg Spectrophotometer Facility
Sample Description,Carbonates and Oxolates - RELAB+Nicolet spectra Newly merged spectra (merged by RELAB)
Other Information,Baked
Date Added,2018-08-06 20:49:03.248263

Data ID,RLA_CARB_1_50       
Sample ID,CRB214Bk
Mineral Name,Trona
Locality,Green River/ Sweetwater County/ Wyoming/ USA
Grain Size,<45 um
Viewing Geometry,30/0/30
Resolution,5/ 0.6-129 nm
Formula,Na3(CO3)(HCO3)*2(H2O)
Composition,Natrite and a bit of trona. Tan fibrous masses.

Wavelength
305.0,0.728295
310.0,0.734574
315.0,0.743069
320.0,0.744288
325.0,0.752737
330.0,0.759471
335.0,0.764668
340.0,0.768604
345.0,0.774887
350.0,0.779552
355.0,0.785479
360.0,0.78989
365.0,0.791957
370.0,0.798168
375.0,0.802128
380.0,0.807036
385.0,0.809337
390.0,0.812898
395.0,0.816622
400.0,0.817119
405.0,0.819968
410.0,0.822752
415.0,0.825702
420.0,0.827217
425.0,0.829724
430.0,0.831319
435.0,0.833248
440.0,0.834308
445.0,0.836853
450.0,0.837256
455.0,0.840297
460.0,0.84186
465.0,0.843526
470.0,0.844849
475.0,0.846711
480.0,0.848416
485.0,0.850975
490.0,0.851524
495.0,0.85486
500.0,0.856326
505.0,0.8586
510.0,0.859974
515.0,0.862133
520.0,0.864044
525.0,0.866644
530.0,0.867914
535.0,0.868964
540.0,0.870228
545.0,0.872265
550.0,0.873297
555.0,0.875177
560.0,0.875357
565.0,0.876857
570.0,0.877613
575.0,0.878956
580.0,0.879347
585.0,0.881391
590.0,0.881422
595.0,0.88221
600.0,0.883296
605.0,0.88454
610.0,0.884075
615.0,0.884416
620.0,0.884721
625.0,0.885583
630.0,0.886093
635.0,0.886036
640.0,0.886903
645.0,0.887557
650.0,0.887614
655.0,0.888248
660.0,0.88948
665.0,0.890598
670.0,0.88954
675.0,0.890021
680.0,0.890677
685.0,0.890976
690.0,0.891729
695.0,0.891936
700.0,0.892291
705.0,0.892496
710.0,0.892347
715.0,0.892878
720.0,0.892499
725.0,0.892718
730.0,0.893386
735.0,0.894591
740.0,0.894379
745.0,0.894908
750.0,0.894498
755.0,0.89478
760.0,0.89557
765.0,0.895942
770.0,0.895775
775.0,0.896129
780.0,0.895753
785.0,0.896795
790.0,0.897742
795.0,0.89801
800.0,0.900406
805.0,0.896459
810.0,0.898506
815.0,0.898174
820.0,0.897212
825.0,0.898452
830.0,0.898454
835.0,0.899924
840.0,0.897995
845.0,0.899484
850.0,0.89983
855.0,0.901086
860.0,0.900593
865.0,0.901401
870.0,0.898583
875.0,0.89995
880.0,0.898931
885.0,0.900762
890.0,0.900946
895.0,0.901075
900.0,0.900095
905.0,0.900502
910.0,0.900052
915.0,0.900108
920.0,0.899177
925.0,0.90024
930.0,0.899522
935.0,0.902665
940.0,0.900441
945.0,0.900845
950.0,0.901182
955.0,0.901837
960.0,0.901646
965.0,0.900741
970.0,0.901944
975.0,0.90201
980.0,0.90152
985.0,0.902045
990.0,0.902896
995.0,0.901339
1000.0,0.901745
1005.0,0.901934
1010.0,0.901542
1015.0,0.902078
1020.0,0.901982
1025.0,0.902505
1030.0,0.903059
1035.0,0.902077
1040.0,0.902072
1045.0,0.902995
1050.0,0.902244
1055.0,0.90289
1060.0,0.902544
1065.0,0.904135
1070.0,0.902949
1075.0,0.903469
1080.0,0.902906
1085.0,0.903508
1090.0,0.903809
1095.0,0.903519
1100.0,0.903049
1105.0,0.903324
1110.0,0.903427
1115.0,0.904383
1120.0,0.903791
1125.0,0.903857
1130.0,0.903791
1135.0,0.903856
1140.0,0.903861
1145.0,0.903689
1150.0,0.903506
1155.0,0.903499
1160.0,0.903383
1165.0,0.903562
1170.0,0.903332
1175.0,0.903119
1180.0,0.902978
1185.0,0.903082
1190.0,0.903428
1195.0,0.903015
1200.0,0.903734
1205.0,0.903443
1210.0,0.904423
1215.0,0.904303
1220.0,0.904532
1225.0,0.904034
1230.0,0.904287
1235.0,0.903544
1240.0,0.903451
1245.0,0.903954
1250.0,0.903712
1255.0,0.903283
1260.0,0.903791
1265.0,0.903735
1270.0,0.90432
1275.0,0.903242
1280.0,0.90266
1285.0,0.90313
1290.0,0.903166
1295.0,0.903403
1300.0,0.903753
1305.0,0.903337
1310.0,0.903575
1315.0,0.903462
1320.0,0.903409
1325.0,0.903358
1330.0,0.903028
1335.0,0.902758
1340.0,0.902139
1345.0,0.902257
1350.0,0.901123
1355.0,0.900371
1360.0,0.900507
1365.0,0.898735
1370.0,0.899888
1375.0,0.898551
1380.0,0.898506
1385.0,0.899687
1420.0,0.893149
1425.0,0.892279
1430.0,0.893219
1435.0,0.891907
1440.0,0.89259
1445.0,0.892045
1450.0,0.891013
1455.0,0.889639
1460.0,0.88972
1465.0,0.889099
1470.0,0.888138
1475.0,0.888105
1480.0,0.887102
1485.0,0.886607
1490.0,0.887284
1495.0,0.884958
1500.0,0.885168
1505.0,0.884464
1510.0,0.883195
1515.0,0.882931
1520.0,0.883487
1525.0,0.883016
1530.0,0.882775
1535.0,0.882781
1540.0,0.88277
1545.0,0.882685
1550.0,0.881958
1555.0,0.881834
1560.0,0.881437
1565.0,0.88129
1570.0,0.881114
1575.0,0.88061
1580.0,0.880442
1585.0,0.880215
1590.0,0.879806
1595.0,0.879565
1600.0,0.879177
1605.0,0.878857
1610.0,0.878167
1615.0,0.877665
1620.0,0.877147
1625.0,0.876489
1630.0,0.875855
1635.0,0.875206
1640.0,0.874483
1645.0,0.87371
1650.0,0.872813
1655.0,0.871634
1660.0,0.870267
1665.0,0.86911
1670.0,0.867657
1675.0,0.86641
1680.0,0.864932
1685.0,0.863378
1690.0,0.862196
1695.0,0.860773
1700.0,0.859522
1705.31,0.857942
1709.81,0.857432
1715.46,0.856691
1720.02,0.855948
1724.6,0.8554
1730.35,0.854491
1734.98,0.853604
1739.64,0.85302
1745.5,0.85174
1750.21,0.851243
1754.95,0.850751
1759.72,0.850145
1764.51,0.849607
1770.54,0.84886
1775.39,0.848203
1780.27,0.84768
1785.17,0.846846
1790.1,0.845928
1795.06,0.845146
1800.05,0.844236
1805.06,0.843203
1810.1,0.842108
1815.17,0.840777
1820.27,0.839704
1825.4,0.83852
1830.56,0.837237
1834.44,0.836466
1839.65,0.835002
1844.89,0.833794
1850.16,0.832511
1855.45,0.831197
1859.45,0.830267
1864.8,0.828866
1870.18,0.827144
1875.59,0.825484
1879.67,0.824128
1885.14,0.822345
1890.64,0.820782
1894.79,0.819643
1900.34,0.817366
1904.53,0.815581
1910.15,0.812729
1914.38,0.810547
1920.05,0.807568
1924.33,0.804947
1930.06,0.801399
1934.38,0.798792
1940.17,0.796275
1944.54,0.794846
1950.39,0.793998
1954.8,0.793872
1960.72,0.794283
1965.18,0.794546
1969.66,0.794785
1975.66,0.794498
1980.19,0.794267
1984.74,0.79372
1989.31,0.793156
1995.43,0.792259
2000.05,0.791112
2004.69,0.79029
2009.35,0.789065
2015.6,0.787889
2020.32,0.787195
2025.05,0.786129
2029.81,0.784811
2034.59,0.783787
2039.39,0.78268
2044.22,0.781812
2050.69,0.780804
2055.57,0.780158
2060.47,0.779506
2065.39,0.77897
2070.34,0.778359
2075.31,0.777962
2080.31,0.777484
2085.33,0.7769
2090.38,0.776458
2095.45,0.775908
2100.54,0.775232
2105.66,0.774841
2110.8,0.774359
2114.25,0.773779
2119.43,0.773392
2124.65,0.772582
2129.88,0.77201
2135.15,0.771022
2140.44,0.770154
2145.75,0.769215
2149.31,0.768654
2154.67,0.767462
2160.06,0.766001
2165.47,0.76458
2170.91,0.763517
2174.55,0.762874
2180.04,0.761933
2185.55,0.760813
2189.25,0.760068
2194.81,0.758737
2200.4,0.757352
2204.14,0.756336
2209.78,0.754677
2215.44,0.753193
2219.24,0.752127
2224.95,0.750165
2230.7,0.748275
2234.54,0.746927
2240.33,0.744606
2244.21,0.742871
2250.06,0.740017
2255.93,0.736937
2259.87,0.734905
2265.79,0.732268
2269.76,0.730207
2275.74,0.727058
2279.74,0.724947
2285.77,0.722023
2289.81,0.720316
2295.9,0.717556
2299.97,0.716301
2304.06,0.715344
2310.22,0.714534
2314.35,0.714334
2320.56,0.71383
2324.72,0.713081
2331.0,0.711567
2335.2,0.710047
2339.41,0.708341
2345.76,0.705467
2350.02,0.703467
2354.28,0.702308
2360.72,0.703374
2365.03,0.705485
2369.35,0.708029
2375.86,0.709416
2380.23,0.709329
2384.61,0.708847
2389.0,0.708361
2395.63,0.707463
2400.06,0.70678
2404.52,0.705939
2408.98,0.705107
2415.72,0.703635
2420.23,0.702933
2424.76,0.70187
2429.3,0.700472
2433.87,0.698869
2440.74,0.696594
2445.35,0.695236
2449.97,0.693594
2454.61,0.691947
2459.27,0.690492
2463.94,0.688723
2470.99,0.686193
2475.71,0.683987
2480.45,0.681896
2485.2,0.679581
2489.98,0.677776
2494.77,0.67629
2499.58,0.674985
2504.41,0.67392
2509.26,0.672706
2514.13,0.671121
2519.02,0.669396
2523.92,0.666792
2528.85,0.663545
2533.79,0.659997
2541.24,0.654516
2543.74,0.652661
2548.74,0.649932
2553.76,0.649092
2556.28,0.649657
2558.8,0.650616
2561.33,0.651835
2563.86,0.653515
2566.4,0.656403
2568.95,0.659299
2571.5,0.661451
2574.05,0.66314
2576.61,0.664165
2579.17,0.664582
2581.74,0.664887
2584.31,0.664812
2586.89,0.664521
2589.48,0.664118
2592.07,0.663624
2594.66,0.662693
2597.26,0.6619
2599.87,0.662145
2602.48,0.662058
2605.09,0.661299
2607.71,0.660609
2610.34,0.660358
2612.97,0.659975
2615.61,0.659196
2618.25,0.658237
2620.9,0.657403
2623.55,0.656899
2626.21,0.656292
2628.87,0.655215
2631.54,0.65428
2634.22,0.653543
2636.89,0.652944
2639.58,0.652234
2642.27,0.651232
2644.97,0.649989
2647.67,0.648926
2650.38,0.64784
2653.09,0.646824
2655.81,0.64585
2658.53,0.644771
2661.26,0.643427
2664.0,0.642148
2666.74,0.640363
2669.48,0.638734
2672.23,0.637307
2674.99,0.636077
2677.76,0.634757
2680.52,0.633178
2683.3,0.631427
2686.08,0.629274
2688.87,0.62671
2691.66,0.623577
2694.46,0.619802
2697.26,0.615623
2700.07,0.611889
2702.89,0.608134
2705.71,0.604469
2708.53,0.600662
2711.37,0.596335
2714.21,0.592153
2717.05,0.588516
2719.9,0.584347
2722.76,0.579332
2725.62,0.574197
2728.49,0.569337
2731.37,0.564213
2734.25,0.558321
2737.14,0.551733
2740.03,0.545192
2742.93,0.538394
2745.83,0.531571
2748.75,0.524503
2751.66,0.516908
2754.59,0.509257
2757.52,0.501754
2760.46,0.494632
2763.4,0.487868
2766.35,0.481141
2769.3,0.474747
2772.26,0.4686
2775.23,0.462442
2778.21,0.456099
2781.19,0.449713
2784.18,0.443629
2787.17,0.437495
2790.17,0.430996
2793.18,0.42493
2796.19,0.419223
2799.21,0.41324
2802.24,0.406836
2805.27,0.400329
2808.31,0.394148
2811.35,0.388762
2814.41,0.38481
2817.46,0.381539
2820.53,0.377787
2823.6,0.373698
2826.68,0.369638
2829.77,0.365568
2832.86,0.361996
2835.96,0.358843
2839.07,0.355815
2842.18,0.35302
2845.3,0.350109
2848.43,0.347094
2851.56,0.344339
2854.7,0.341583
2857.85,0.338674
2861.0,0.335827
2864.16,0.333094
2867.33,0.330297
2870.51,0.327581
2873.69,0.324851
2876.88,0.322104
2880.07,0.319463
2883.28,0.317109
2886.49,0.31477
2889.71,0.312562
2892.93,0.310576
2896.17,0.308831
2899.4,0.307099
2902.65,0.305609
2905.91,0.304516
2909.17,0.303695
2912.44,0.303045
2915.71,0.302818
2918.99,0.302808
2922.29,0.302968
2925.58,0.303183
2928.89,0.30361
2932.2,0.30411
2935.52,0.304227
2938.85,0.304251
2942.19,0.304356
2945.53,0.304211
2948.88,0.303909
2952.24,0.303636
2955.61,0.303239
2958.98,0.303009
2962.36,0.302608
2965.75,0.302035
2969.15,0.301549
2972.55,0.301223
2975.97,0.300922
2979.39,0.300432
2986.25,0.300062
2989.7,0.299884
2993.15,0.29943
2996.61,0.299036
3000.08,0.298799
3003.55,0.298258
3007.04,0.297732
3010.53,0.297338
3014.03,0.297016
3017.54,0.296437
3021.06,0.295751
3024.58,0.294976
3028.12,0.294188
3031.66,0.293439
3035.21,0.292691
3038.77,0.291889
3042.33,0.290895
3045.91,0.289861
3049.49,0.289062
3053.08,0.28826
3056.68,0.287258
3060.29,0.286518
3063.91,0.285704
3067.54,0.284819
3071.17,0.284109
3074.81,0.283251
3078.47,0.282271
3082.13,0.281474
3085.79,0.280596
3089.47,0.279608
3093.16,0.278883
3096.85,0.278114
3100.56,0.277137
3104.27,0.27582
3107.99,0.274784
3111.73,0.273456
3115.47,0.27249
3119.21,0.271122
3122.97,0.269688
3126.74,0.268318
3130.52,0.267293
3134.3,0.265773
3138.1,0.264729
3141.9,0.264229
3145.71,0.262765
3149.54,0.262489
3153.37,0.262018
3157.21,0.261882
3161.06,0.261204
3164.92,0.26055
3168.79,0.260182
3172.67,0.259406
3176.55,0.258715
3180.45,0.25711
3184.36,0.25595
3188.27,0.254882
3192.2,0.253743
3196.14,0.252661
3200.08,0.251691
3204.04,0.250346
3208.0,0.249325
3211.98,0.248691
3215.96,0.247195
3219.96,0.246441
3223.96,0.245691
3227.98,0.244351
3232.0,0.24339
3236.04,0.242794
3240.08,0.241854
3244.14,0.241625
3248.2,0.240775
3252.28,0.240131
3256.37,0.239537
3260.46,0.239074
3264.57,0.23833
3268.69,0.238467
3272.81,0.237437
3276.95,0.236937
3281.1,0.235951
3285.26,0.234678
3289.43,0.233475
3293.61,0.231924
3297.8,0.23049
3302.0,0.228451
3306.21,0.226703
3310.43,0.224674
3314.66,0.222522
3318.91,0.219843
3323.16,0.217523
3327.43,0.214454
3331.71,0.211598
3335.99,0.209383
3340.29,0.206033
3344.6,0.203131
3348.92,0.199163
3353.26,0.194552
3357.6,0.189026
3361.96,0.181934
3366.32,0.173829
3370.7,0.16764
3375.09,0.162452
3379.49,0.159969
3383.9,0.159091
3388.32,0.160029
3392.76,0.16067
3397.21,0.161866
3401.66,0.162922
3406.13,0.163114
3410.61,0.164241
3415.11,0.165515
3419.61,0.166915
3424.13,0.168537
3428.66,0.169734
3433.2,0.170385
3437.76,0.171368
3442.32,0.171203
3446.9,0.171609
3451.49,0.172137
3456.09,0.172294
3460.7,0.171233
3465.33,0.169535
3469.97,0.167623
3474.62,0.164598
3479.29,0.161241
3483.96,0.159566
3488.65,0.158117
3493.35,0.156999
3498.07,0.1539
3502.79,0.150202
3507.53,0.146154
3512.29,0.147989
3517.05,0.157943
3521.83,0.171789
3526.62,0.184426
3531.43,0.194467
3536.24,0.202112
3541.08,0.207532
3543.5,0.209757
3545.92,0.211573
3548.35,0.213018
3550.78,0.214571
3553.21,0.21575
3555.65,0.216541
3558.09,0.217268
3560.53,0.218257
3562.98,0.218809
3565.43,0.219032
3567.88,0.219474
3570.34,0.219658
3572.8,0.219842
3575.27,0.220119
3577.73,0.220174
3580.2,0.220024
3582.68,0.22028
3585.16,0.220388
3587.64,0.220788
3590.12,0.221498
3592.61,0.221919
3595.1,0.222424
3597.6,0.223128
3600.09,0.22342
3602.6,0.22344
3605.1,0.223516
3607.61,0.223557
3610.12,0.223529
3612.64,0.223568
3615.16,0.223697
3617.68,0.223635
3620.21,0.223329
3622.74,0.223209
3625.27,0.223019
3627.81,0.222795
3630.35,0.222634
3632.89,0.22242
3635.44,0.221873
3637.99,0.221388
3640.54,0.221055
3643.1,0.220758
3645.66,0.22043
3648.23,0.219801
3650.8,0.219096
3653.37,0.218519
3655.95,0.218083
3658.53,0.217572
3661.11,0.217108
3663.7,0.216693
3666.29,0.216029
3668.89,0.215378
3671.48,0.214894
3674.09,0.214152
3676.69,0.213368
3679.3,0.212821
3681.91,0.212084
3684.53,0.211399
3687.15,0.21063
3689.78,0.209581
3692.4,0.20862
3695.04,0.208042
3697.67,0.207248
3700.31,0.206453
3702.95,0.205859
3705.6,0.205148
3708.25,0.204258
3710.91,0.203748
3713.56,0.203141
3716.23,0.202614
3718.89,0.202227
3721.56,0.201582
3724.23,0.200797
3726.91,0.200328
3729.59,0.199645
3732.28,0.198793
3734.97,0.198035
3737.66,0.197575
3740.36,0.196855
3743.06,0.195906
3745.76,0.195356
3748.47,0.194932
3751.18,0.194216
3753.9,0.193687
3756.62,0.193074
3759.34,0.192101
3762.07,0.191449
3764.8,0.190965
3767.54,0.190317
3770.28,0.18996
3773.02,0.189332
3775.77,0.188486
3778.52,0.187879
3781.28,0.187406
3784.04,0.186718
3786.8,0.186345
3789.57,0.185928
3792.34,0.185121
3795.12,0.184201
3797.9,0.183481
3800.69,0.182469
3803.47,0.181492
3806.27,0.180672
3809.06,0.17967
3811.86,0.17832
3814.67,0.176821
3817.48,0.17504
3820.29,0.172749
3823.11,0.169905
3825.93,0.166924
3828.76,0.164296
3831.59,0.161599
3834.42,0.15893
3837.26,0.157042
3840.1,0.155474
3842.95,0.153992
3845.8,0.153114
3848.65,0.152438
3851.51,0.151569
3854.38,0.150722
3857.24,0.149737
3860.12,0.148398
3862.99,0.147126
3865.87,0.14632
3868.76,0.146035
3871.65,0.145992
3874.54,0.146088
3877.44,0.146266
3880.34,0.146426
3883.25,0.146655
3886.16,0.146871
3889.07,0.147266
3891.99,0.147574
3894.92,0.147897
3897.85,0.148475
3900.78,0.149248
3903.72,0.149864
3906.66,0.150378
3909.6,0.150975
3912.55,0.151583
3915.51,0.151957
3918.47,0.151481
3921.43,0.150337
3924.4,0.148744
3927.38,0.146092
3930.35,0.143298
3933.33,0.14078
3936.32,0.138316
3939.31,0.136317
3942.31,0.134958
3945.31,0.133727
3948.31,0.132111
3951.32,0.130254
3954.34,0.128316
3957.35,0.125823
3960.38,0.123091
3963.41,0.12008
3966.44,0.116745
3969.48,0.113533
3972.52,0.110159
3975.56,0.106269
3978.61,0.102176
3981.67,0.098413
3984.73,0.095112
3987.8,0.092724
3990.87,0.091363
3993.94,0.091129
3997.02,0.091505
4000.1,0.091604
4003.19,0.090364
4006.29,0.087745
4009.39,0.084638
4012.49,0.081769
4015.6,0.08035
4018.71,0.081539
4021.83,0.085759
4024.95,0.093152
4028.08,0.103512
4031.21,0.115325
4034.35,0.127053
4037.49,0.137423
4040.64,0.145562
4043.79,0.151667
4046.94,0.156552
4050.11,0.160358
4053.27,0.163489
4056.44,0.166374
4059.62,0.169335
4062.8,0.172082
4065.99,0.174814
4069.18,0.177371
4072.38,0.179884
4075.58,0.182143
4078.78,0.183979
4082.0,0.185225
4085.21,0.18649
4088.43,0.187944
4091.66,0.189143
4094.89,0.189954
4098.13,0.190883
4101.37,0.191805
4104.62,0.192548
4107.87,0.193219
4111.13,0.194111
4114.39,0.194927
4117.66,0.19559
4120.93,0.196027
4124.21,0.196557
4127.5,0.197371
4130.79,0.19821
4134.08,0.198697
4137.38,0.199253
4140.68,0.199889
4143.99,0.200428
4147.31,0.201074
4150.63,0.201766
4153.95,0.202265
4157.29,0.202753
4160.62,0.203187
4163.96,0.203717
4167.31,0.204433
4170.66,0.205046
4174.02,0.205442
4177.39,0.205932
4180.75,0.206338
4184.13,0.206849
4187.51,0.207359
4190.89,0.207762
4194.28,0.208266
4197.68,0.208679
4201.08,0.209087
4204.49,0.209587
4207.9,0.209863
4211.32,0.210075
4214.74,0.210431
4218.17,0.210934
4221.61,0.211149
4225.05,0.211474
4228.5,0.211696
4231.95,0.212238
4235.4,0.212764
4238.87,0.213174
4242.34,0.213411
4245.81,0.214042
4249.29,0.214695
4252.78,0.215254
4256.27,0.215788
4259.77,0.216474
4263.27,0.216906
4266.78,0.217235
4270.29,0.217427
4273.81,0.217822
4277.34,0.218195
4280.87,0.21851
4284.41,0.218879
4287.95,0.21943
4291.5,0.219764
4295.06,0.219924
4298.62,0.220342
4302.19,0.221104
4305.76,0.221635
4309.34,0.222135
4312.92,0.222633
4316.52,0.223045
4320.11,0.223475
4323.72,0.22398
4327.32,0.224326
4330.94,0.224793
4334.56,0.225267
4338.19,0.225626
4341.82,0.225832
4345.46,0.226129
4349.11,0.226276
4352.76,0.226408
4356.42,0.226504
4360.08,0.226726
4363.75,0.226971
4367.43,0.227141
4371.11,0.227344
4374.8,0.227623
4378.49,0.227912
4382.19,0.228268
4385.9,0.228657
4389.61,0.228958
4393.33,0.229086
4397.06,0.229325
4400.79,0.229595
4404.53,0.229978
4408.28,0.230272
4412.03,0.23046
4415.79,0.230803
4419.55,0.231204
4423.32,0.231398
4427.1,0.231638
4430.88,0.231868
4434.68,0.232101
4438.47,0.232313
4442.28,0.232496
4446.08,0.232609
4449.9,0.232725
4453.72,0.23292
4457.55,0.232879
4461.39,0.232807
4465.23,0.232863
4469.08,0.232716
4472.94,0.232586
4476.8,0.232494
4480.67,0.232359
4484.55,0.23215
4488.43,0.232172
4492.32,0.232053
4496.21,0.231833
4500.12,0.231846
4504.03,0.231971
4507.94,0.231795
4511.87,0.231546
4515.8,0.231408
4519.73,0.231452
4523.68,0.231302
4527.63,0.230998
4531.59,0.230879
4535.55,0.230967
4539.52,0.230952
4543.5,0.230796
4547.49,0.230637
4551.48,0.230439
4555.48,0.230295
4559.49,0.230133
4563.5,0.229749
4567.52,0.229308
4571.55,0.229059
4575.58,0.228852
4579.63,0.228723
4583.67,0.228707
4587.73,0.228416
4591.79,0.227896
4595.86,0.227365
4599.94,0.226944
4604.03,0.226295
4608.12,0.225713
4612.22,0.225109
4616.33,0.224406
4620.44,0.223761
4624.56,0.223076
4628.69,0.222275
4632.83,0.221603
4636.97,0.221
4641.12,0.220245
4645.28,0.219212
4649.45,0.218267
4653.62,0.217407
4657.8,0.216438
4661.99,0.215256
4666.19,0.214385
4670.39,0.213341
4674.6,0.212071
4678.82,0.21074
4683.05,0.209679
4687.28,0.208772
4691.52,0.207844
4695.77,0.206796
4700.03,0.205932
4704.3,0.204986
4708.57,0.204142
4712.85,0.202968
4717.14,0.201922
4721.43,0.201086
4725.74,0.200278
4730.05,0.199575
4734.37,0.199281
4738.7,0.199457
4743.03,0.199948
4747.38,0.20058
4751.73,0.201294
4756.09,0.202105
4760.45,0.202609
4764.83,0.202669
4769.21,0.202744
4773.6,0.202619
4778.0,0.202338
4782.41,0.202014
4786.83,0.201546
4791.25,0.200803
4795.68,0.200122
4800.13,0.199471
4804.57,0.198889
4809.03,0.198164
4813.5,0.197391
4817.97,0.19641
4822.45,0.195548
4826.94,0.194837
4831.44,0.193968
4835.95,0.192811
4840.46,0.19169
4844.99,0.190666
4849.52,0.189699
4854.06,0.188497
4858.61,0.187368
4863.17,0.186296
4867.73,0.185358
4872.31,0.184505
4876.89,0.183717
4881.48,0.182741
4886.08,0.181783
4890.69,0.180851
4895.31,0.179927
4899.94,0.178925
4904.57,0.178115
4909.22,0.177112
4913.87,0.176134
4918.53,0.17519
4923.21,0.174265
4927.88,0.173219
4932.57,0.172218
4937.27,0.171423
4941.98,0.170902
4946.69,0.170293
4951.42,0.169601
4956.15,0.16891
4960.9,0.168345
4965.65,0.167772
4970.41,0.167164
4975.18,0.166477
4979.96,0.165898
4984.75,0.165292
4989.54,0.164522
4994.35,0.163722
4999.17,0.163054
5003.99,0.162417
5008.83,0.161716
5013.67,0.160989
5018.52,0.160421
5023.39,0.15989
5028.26,0.15929
5033.14,0.158508
5038.03,0.157679
5042.93,0.156976
5047.84,0.15634
5052.76,0.155633
5057.69,0.155038
5062.63,0.154466
5067.58,0.153858
5072.54,0.152932
5077.51,0.152255
5082.49,0.151594
5087.47,0.150838
5092.47,0.15008
5097.48,0.149304
5102.5,0.148334
5107.52,0.147426
5112.56,0.146753
5117.61,0.146203
5122.66,0.14576
5127.73,0.145389
5132.81,0.144737
5137.89,0.144113
5142.99,0.143656
5148.1,0.143062
5153.22,0.14236
5158.34,0.141729
5163.48,0.141088
5168.63,0.140448
5173.79,0.139602
5178.96,0.138892
5184.13,0.138315
5189.32,0.137954
5194.52,0.137305
5199.73,0.136661
5204.96,0.136249
5210.19,0.135716
5215.43,0.135074
5220.68,0.134546
5225.94,0.13395
5231.22,0.133401
5236.5,0.132637
5241.79,0.13204
5247.1,0.131596
5252.42,0.131135
5257.74,0.130554
5263.08,0.130003
5268.43,0.12932
5273.79,0.128588
5279.16,0.128141
5284.54,0.127752
5289.93,0.127226
5295.34,0.126728
5300.75,0.126049
5306.18,0.12544
5311.61,0.124903
5317.06,0.124457
5322.52,0.123838
5327.99,0.123222
5333.47,0.122773
5338.96,0.122288
5344.47,0.121626
5349.98,0.121113
5355.51,0.120591
5361.05,0.12017
5366.6,0.119721
5372.16,0.119211
5377.73,0.118521
5383.32,0.118027
5388.91,0.117526
5394.52,0.116968
5400.14,0.116325
5405.77,0.115714
5411.41,0.115083
5417.07,0.114492
5422.74,0.113719
5428.41,0.113118
5434.1,0.1126
5439.81,0.11196
5445.52,0.111361
5451.25,0.110639
5456.98,0.109817
5462.73,0.109207
5468.5,0.108397
5474.27,0.107518
5480.06,0.106826
5485.86,0.106314
5491.67,0.105676
5497.49,0.104904
5503.33,0.10403
5509.18,0.103108
5515.04,0.102212
5520.91,0.101471
5526.8,0.100495
5532.69,0.099471
5538.61,0.098363
5544.53,0.097216
5550.47,0.095883
5556.41,0.094418
5562.38,0.092589
5568.35,0.090686
5574.34,0.08862
5580.34,0.085913
5586.35,0.081781
5592.38,0.075935
5598.42,0.067466
5604.47,0.056783
5610.54,0.046686
5616.61,0.039685
5622.71,0.035076
5628.81,0.031701
5634.93,0.029686
5641.06,0.029586
5647.21,0.032983
5653.36,0.041129
5659.54,0.052251
5665.72,0.062567
5671.92,0.068863
5678.13,0.072174
5684.36,0.073825
5690.6,0.074597
5696.85,0.074511
5703.12,0.073749
5709.4,0.072512
5715.69,0.070793
5722.0,0.068796
5728.33,0.066575
5734.66,0.064058
5741.01,0.061423
5747.38,0.05895
5753.76,0.056764
5760.15,0.054955
5766.56,0.053715
5772.98,0.052619
5779.41,0.051725
5785.86,0.051157
5792.33,0.050858
5798.81,0.050866
5805.3,0.050994
5811.81,0.051359
5818.33,0.051905
5824.87,0.052487
5831.42,0.052945
5837.99,0.053246
5844.57,0.053523
5851.17,0.053505
5857.78,0.053073
5864.41,0.052713
5871.05,0.052485
5877.7,0.052029
5884.38,0.051409
5891.06,0.050743
5897.76,0.050352
5904.48,0.04996
5911.21,0.049466
5917.96,0.048961
5924.73,0.048495
5931.5,0.048074
5938.3,0.047667
5945.11,0.047141
5951.93,0.046754
5958.78,0.046557
5965.63,0.046159
5972.51,0.04566
5979.39,0.045221
5986.3,0.044829
5993.22,0.044445
6000.16,0.044122
6007.11,0.043597
6014.08,0.043373
6021.06,0.043367
6028.06,0.043145
6035.08,0.042861
6042.12,0.042546
6049.17,0.042459
6056.23,0.042607
6063.32,0.042476
6070.42,0.042436
6077.53,0.042703
6084.67,0.04303
6091.82,0.043189
6098.98,0.043455
6106.17,0.043635
6113.37,0.043502
6120.58,0.043466
6127.82,0.043549
6135.07,0.043626
6142.34,0.043669
6149.63,0.043672
6156.93,0.043689
6164.25,0.043573
6171.59,0.043465
6178.95,0.043412
6186.32,0.043218
6193.71,0.042896
6201.12,0.042778
6208.54,0.042614
6215.99,0.042406
6223.45,0.042147
6230.93,0.041858
6238.43,0.041734
6245.95,0.041502
6253.48,0.041189
6261.03,0.040951
6268.6,0.040763
6276.19,0.040473
6283.8,0.040213
6291.43,0.040194
6299.07,0.040125
6306.73,0.040064
6314.42,0.040043
6322.12,0.040077
6329.84,0.040319
6337.57,0.040656
6345.33,0.04112
6353.11,0.041807
6360.9,0.042727
6368.72,0.043759
6376.55,0.045005
6384.4,0.046389
6392.27,0.047904
6400.17,0.050021
6408.08,0.05234
6416.01,0.054754
6423.96,0.057623
6431.93,0.060937
6439.92,0.064603
6447.93,0.068561
6455.96,0.07264
6464.01,0.076989
6472.08,0.080661
6480.17,0.083333
6488.28,0.084306
6496.41,0.083178
6504.56,0.080399
6512.73,0.077018
6520.92,0.073801
6529.14,0.070939
6537.37,0.068669
6545.63,0.066623
6553.9,0.064789
6562.2,0.063355
6570.51,0.062091
6578.85,0.060741
6587.21,0.059554
6595.59,0.058393
6603.99,0.057125
6612.42,0.056021
6620.86,0.055015
6629.33,0.053935
6637.82,0.052876
6646.33,0.051686
6654.86,0.050469
6663.41,0.04944
6671.99,0.048514
6680.59,0.047726
6689.21,0.046844
6697.85,0.045971
6706.51,0.045202
6715.2,0.044143
6723.91,0.043197
6732.64,0.042512
6741.4,0.041946
6750.18,0.04128
6758.98,0.040657
6767.8,0.040227
6776.65,0.039776
6785.52,0.039325
6794.41,0.038925
6803.33,0.038586
6812.27,0.038246
6821.23,0.037947
6830.22,0.03768
6839.23,0.037367
6848.26,0.037247
6857.32,0.037258
6866.4,0.037183
6875.51,0.037099
6884.64,0.037237
6893.8,0.037374
6902.98,0.037487
6912.18,0.037664
6921.41,0.037932
6930.66,0.038309
6939.94,0.038951
6949.24,0.04005
6958.57,0.041287
6967.92,0.042348
6977.3,0.043415
6986.7,0.044864
6996.13,0.046277
7005.59,0.04674
7015.07,0.045911
7024.57,0.04463
7034.1,0.043663
7043.66,0.042609
7053.25,0.040967
7062.85,0.039046
7072.49,0.037753
7082.15,0.037275
7091.84,0.037719
7101.55,0.038684
7111.3,0.040017
7121.06,0.041669
7130.86,0.043211
7140.68,0.044193
7150.53,0.044332
7160.41,0.044222
7170.31,0.044764
7180.24,0.045875
7190.2,0.047608
7200.19,0.050077
7210.2,0.053007
7220.24,0.055782
7230.31,0.058166
7240.41,0.060185
7250.54,0.061973
7260.69,0.063652
7270.88,0.065136
7281.09,0.066197
7291.33,0.067116
7301.6,0.068165
7311.9,0.069164
7322.22,0.069988
7332.58,0.070482
7342.97,0.071146
7353.38,0.07205
7363.83,0.072793
7374.3,0.073605
7384.81,0.07449
7395.34,0.075226
7405.91,0.07593
7416.5,0.076602
7427.13,0.077364
7437.78,0.078136
7448.47,0.078725
7459.19,0.079283
7469.94,0.079765
7480.71,0.080369
7491.52,0.080842
7502.37,0.081251
7513.24,0.081962
7524.14,0.082607
7535.08,0.083132
7546.05,0.08366
7557.05,0.084347
7568.08,0.085113
7579.15,0.08582
7590.24,0.08625
7601.37,0.086512
7612.53,0.086782
7623.73,0.087255
7634.96,0.087821
7646.22,0.087987
7657.51,0.088063
7668.84,0.088394
7680.2,0.088744
7691.59,0.088798
7703.02,0.088697
7714.49,0.088683
7725.98,0.08878
7737.52,0.08877
7749.08,0.088884
7760.68,0.089042
7772.32,0.08905
7783.99,0.089022
7795.69,0.088988
7807.43,0.089052
7819.21,0.089202
7831.02,0.089474
7842.87,0.089533
7854.75,0.089575
7866.67,0.08973
7878.62,0.089982
7890.62,0.090245
7902.64,0.090594
7914.71,0.090976
7926.81,0.091443
7938.95,0.091838
7951.13,0.092131
7963.34,0.09235
7975.59,0.092639
7987.88,0.092781
8000.21,0.092688
8012.57,0.092452
8024.98,0.092265
8037.42,0.091997
8049.9,0.091984
8062.42,0.092015
8074.98,0.091958
8087.57,0.092327
8100.21,0.092836
8112.89,0.092949
8125.6,0.093131
8138.36,0.093417
8151.16,0.093608
8163.99,0.093803
8176.87,0.094027
8189.79,0.094138
8202.75,0.094079
8215.75,0.093977
8228.79,0.094009
8241.87,0.093934
8254.99,0.093944
8268.16,0.093781
8281.37,0.093515
8294.62,0.093125
8307.91,0.09241
8321.24,0.09132
8334.62,0.090206
8348.04,0.088971
8361.51,0.087671
8375.02,0.086334
8388.57,0.084893
8402.16,0.083516
8415.8,0.082587
8429.49,0.08188
8443.22,0.081215
8456.99,0.080497
8470.81,0.079789
8484.67,0.078755
8498.58,0.077726
8512.54,0.077136
8526.54,0.076396
8540.58,0.075515
8554.68,0.074717
8568.82,0.073803
8583.0,0.073131
8597.24,0.072729
8611.52,0.072334
8625.85,0.071982
8640.23,0.071668
8654.65,0.071343
8669.12,0.071386
8683.64,0.071465
8698.21,0.071358
8712.83,0.071163
8727.5,0.071087
8742.22,0.071137
8756.99,0.071062
8771.8,0.07118
8786.67,0.071695
8801.59,0.072086
8816.56,0.07237
8831.58,0.072785
8846.65,0.073148
8861.77,0.07363
8876.94,0.074175
8892.17,0.074443
8907.45,0.07474
8922.78,0.075273
8938.16,0.075808
8953.6,0.076168
8969.09,0.076919
8984.64,0.077589
9000.23,0.078239
9015.89,0.07922
9031.59,0.080185
9047.36,0.081162
9063.17,0.082005
9079.05,0.082611
9094.97,0.083398
9110.96,0.084385
9127.0,0.085556
9143.1,0.086302
9159.25,0.08653
9175.46,0.086691
9191.73,0.08696
9208.06,0.087303
9224.44,0.087407
9240.88,0.086951
9257.38,0.085912
9273.94,0.084773
9290.56,0.084494
9307.24,0.084938
9323.98,0.085338
9340.78,0.085449
9357.64,0.085289
9374.57,0.08491
9391.55,0.084583
9408.59,0.084153
9425.7,0.083679
9442.87,0.083491
9460.1,0.083495
9477.4,0.083199
9494.75,0.082897
9512.17,0.082784
9529.66,0.082614
9547.21,0.082298
9564.83,0.081957
9582.5,0.082029
9600.25,0.082655
9618.06,0.08329
9635.94,0.083292
9653.88,0.082776
9671.89,0.08188
9689.97,0.081241
9708.12,0.081643
9726.33,0.082248
9744.62,0.082296
9762.97,0.081894
9781.39,0.080964
9799.88,0.079459
9818.44,0.077853
9837.07,0.076862
9855.77,0.077526
9874.54,0.079043
9893.39,0.080515
9912.3,0.081613
9931.29,0.08241
9950.36,0.083019
9969.49,0.083347
9988.7,0.083619
10007.98,0.083913
10027.34,0.084339
10046.77,0.084565
10066.28,0.084751
10085.87,0.084899
10105.53,0.085174
10125.26,0.085394
10145.08,0.086039
10164.97,0.086811
10184.94,0.087104
10204.99,0.087276
10225.12,0.087616
10245.33,0.088087
10265.61,0.088872
10285.98,0.089802
10306.43,0.090064
10326.96,0.09039
10347.57,0.09081
10368.27,0.091243
10389.05,0.091838
10409.91,0.092352
10430.86,0.092836
10451.88,0.093251
10473.0,0.093693
10494.2,0.094159
10515.49,0.094591
10536.86,0.094918
10558.32,0.095323
10579.87,0.095827
10601.5,0.096109
10623.23,0.096691
10645.04,0.097336
10666.94,0.097645
10688.94,0.097925
10711.02,0.098268
10733.2,0.098149
10755.47,0.098282
10777.83,0.098833
10800.28,0.098901
10822.83,0.098699
10845.47,0.098794
10868.21,0.098799
10891.04,0.098481
10913.97,0.09822
10936.99,0.097555
10960.12,0.096786
10983.34,0.095986
11006.66,0.09522
11030.07,0.093916
11053.59,0.09222
11077.21,0.090238
11100.93,0.087717
11124.75,0.084384
11148.68,0.079854
11172.71,0.074483
11196.84,0.067545
11221.07,0.058075
11245.41,0.046012
11269.86,0.03293
11294.41,0.0237
11319.07,0.021479
11343.84,0.023703
11368.72,0.026486
11393.7,0.029566
11418.8,0.036091
11444.01,0.049193
11469.33,0.066528
11494.76,0.082387
11520.3,0.094123
11545.96,0.101915
11571.73,0.107139
11597.62,0.110866
11623.62,0.11326
11649.74,0.114332
11675.98,0.11261
11702.34,0.104269
11728.81,0.094971
11755.41,0.098744
11782.13,0.105271
11808.96,0.10295
11835.92,0.097729
11863.01,0.095022
11890.22,0.094239
11917.55,0.092297
11945.01,0.09026
11972.6,0.091167
12000.31,0.094867
12028.16,0.101233
12056.13,0.110141
12084.23,0.117878
12112.46,0.122369
12140.83,0.125051
12169.33,0.126474
12197.96,0.126864
12226.73,0.12816
12255.64,0.129598
12284.68,0.130805
12313.86,0.132113
12343.18,0.133066
12372.64,0.1336
12402.24,0.134013
12431.98,0.13458
12461.86,0.134843
12491.89,0.134873
12522.07,0.135051
12552.38,0.135159
12582.85,0.135304
12613.47,0.135675
12644.23,0.136002
12675.15,0.135782
12706.21,0.135834
12737.43,0.136387
12768.81,0.136566
12800.33,0.136172
12832.02,0.135976
12863.86,0.135977
12895.86,0.136026
12928.02,0.135765
12960.34,0.135713
12992.82,0.135951
13025.46,0.136131
13058.27,0.136288
13091.25,0.136667
13124.39,0.137912
13157.7,0.139392
13191.18,0.140234
13224.83,0.140372
13258.66,0.140609
13292.65,0.141084
13326.83,0.141479
13361.17,0.142067
13395.7,0.142944
13430.4,0.144362
13465.29,0.145754
13500.35,0.146874
13535.6,0.147963
13571.03,0.148768
13606.65,0.149217
13642.46,0.149904
13678.46,0.150245
13714.64,0.149921
13751.02,0.149351
13787.59,0.148771
13824.36,0.147755
13861.32,0.14586
13898.49,0.142435
13935.85,0.138342
13973.41,0.133493
14011.17,0.127834
14049.15,0.120267
14087.32,0.111151
14125.71,0.099448
14164.3,0.082484
14203.11,0.06316
14242.13,0.045764
14281.36,0.035738
14320.81,0.042269
14360.49,0.048888
14400.38,0.043521
14440.49,0.046473
14480.82,0.06498
14521.39,0.078307
14562.18,0.080463
14603.2,0.076897
14644.45,0.073511
14685.93,0.071792
14727.66,0.070886
14769.62,0.070089
14811.81,0.069835
14854.25,0.070176
14896.94,0.070419
14939.87,0.070431
14983.05,0.069673
15026.48,0.068838
15070.16,0.070143
15114.1,0.07222
15158.29,0.072957
15202.74,0.072582
15247.46,0.071417
15292.43,0.069939
15337.68,0.069194
15383.19,0.068591
15428.97,0.067635
15475.03,0.065195
15521.36,0.063463
15567.97,0.063441
15614.87,0.063539
15662.04,0.063386
15709.5,0.062756
15757.25,0.062354
15805.29,0.062112
15853.62,0.061436
15902.26,0.060731
15951.19,0.059915
16000.42,0.058861
16049.95,0.057615
16099.8,0.057268
16149.95,0.057295
16200.42,0.057683
16251.21,0.05844
16302.31,0.059517
16353.74,0.06091
16405.49,0.062684
16457.57,0.063837
16509.98,0.064267
16562.73,0.064022
16615.82,0.064225
16669.24,0.064124
16723.02,0.062801
16777.14,0.062443
16831.61,0.062966
16886.43,0.062737
16941.62,0.06232
16997.16,0.062064
17053.08,0.062405
17109.36,0.062674
17166.01,0.062811
17223.04,0.062989
17280.45,0.062754
17338.24,0.062508
17396.43,0.062294
17455.0,0.062004
17513.97,0.062033
17573.34,0.062407
17633.11,0.062938
17693.29,0.062522
17753.89,0.062452
17814.9,0.06215
17876.33,0.061616
17938.18,0.060988
18000.47,0.060819
18063.19,0.061135
18126.35,0.061501
18189.95,0.061743
18254.0,0.059897
18318.5,0.058298
18383.46,0.05915
18448.88,0.059651
18514.77,0.058569
18581.13,0.060667
18647.97,0.062542
18715.29,0.061197
18783.1,0.06033
18851.4,0.060046
18920.2,0.059983
18989.51,0.059327
19059.32,0.058926
19129.65,0.057373
19200.5,0.056801
19271.88,0.058101
19343.79,0.05832
19416.24,0.057097
19489.23,0.05656
19562.77,0.055429
19636.88,0.054296
19711.54,0.053608
19786.78,0.053861
19862.59,0.053582
19938.98,0.054372
20015.96,0.055907
20093.55,0.055426
20171.73,0.054056
20250.53,0.054389
20329.94,0.054192
20409.98,0.052555
20490.65,0.051411
20571.96,0.051369
20653.92,0.051222
20736.54,0.050602
20819.82,0.049258
20903.77,0.049175
20988.4,0.049179
21073.72,0.047126
21159.73,0.046634
21246.46,0.0465
21333.89,0.043959
21422.04,0.044143
21510.93,0.043726
21600.56,0.042052
21690.94,0.041535
21782.08,0.042871
21873.99,0.042403
21966.67,0.041173
22060.15,0.041916
22154.42,0.04025
22249.51,0.038474
22345.41,0.037833
22442.14,0.037152
22539.72,0.036675
22638.14,0.036956
22737.43,0.036063
22837.6,0.035242
22938.65,0.035331
23040.6,0.035291
23143.46,0.034698
23247.24,0.033301
23351.96,0.031915
23457.63,0.030934
23564.25,0.029674
23671.85,0.028035
23780.44,0.027925
23890.02,0.028164
24000.63,0.026611
24112.26,0.025127
24224.93,0.022545
24338.66,0.02148
24453.47,0.022403
24569.36,0.02264
24686.36,0.021376
24804.47,0.019441
24923.73,0.018023
25044.13,0.018323
25165.71,0.018935
25288.46,0.018873
25412.43,0.024812
25537.61,0.024022
25664.04,0.019927
25791.72,0.020419
25920.68,0.024793
