Database of Origin,University of Winnipeg Spectrophotometer Facility
Sample Description,Carbonates and Oxolates - RELAB+Nicolet spectra Newly merged spectra (merged by RELAB)
Other Information,dry seived
Date Added,2018-08-06 20:49:02.960697

Data ID,RLA_CARB_1_39       
Sample ID,CRB211
Mineral Name,Pirssonite
Locality,Searles Lake/ San Bernardino County/ California/ USA
Grain Size,<45 um
Viewing Geometry,30/0/30
Resolution,5/ 0.6-129 nm
Formula,CaCO3*Na2CO3*2(H2O)

Wavelength
305.0,0.531216
310.0,0.545704
315.0,0.558138
320.0,0.571191
325.0,0.581973
330.0,0.590491
335.0,0.599658
340.0,0.609973
345.0,0.618487
350.0,0.626556
355.0,0.634664
360.0,0.643748
365.0,0.650854
370.0,0.659117
375.0,0.666829
380.0,0.674825
385.0,0.682788
390.0,0.688798
395.0,0.69332
400.0,0.697978
405.0,0.70167
410.0,0.705301
415.0,0.711304
420.0,0.716708
425.0,0.723156
430.0,0.72829
435.0,0.735637
440.0,0.739125
445.0,0.745106
450.0,0.748678
455.0,0.753635
460.0,0.757003
465.0,0.761502
470.0,0.764645
475.0,0.768763
480.0,0.771322
485.0,0.776013
490.0,0.77842
495.0,0.782585
500.0,0.785587
505.0,0.789217
510.0,0.791482
515.0,0.795265
520.0,0.797727
525.0,0.80088
530.0,0.803152
535.0,0.806121
540.0,0.808678
545.0,0.810824
550.0,0.813525
555.0,0.815826
560.0,0.81676
565.0,0.81873
570.0,0.819393
575.0,0.820731
580.0,0.821209
585.0,0.8219
590.0,0.823115
595.0,0.822769
600.0,0.822836
605.0,0.823844
610.0,0.823078
615.0,0.82333
620.0,0.823745
625.0,0.82378
630.0,0.824585
635.0,0.824338
640.0,0.824361
645.0,0.823686
650.0,0.823731
655.0,0.824387
660.0,0.82472
665.0,0.82653
670.0,0.828004
675.0,0.828156
680.0,0.829304
685.0,0.830737
690.0,0.832748
695.0,0.834455
700.0,0.834388
705.0,0.835074
710.0,0.834938
715.0,0.83619
720.0,0.836687
725.0,0.838133
730.0,0.838371
735.0,0.8392
740.0,0.838621
745.0,0.838882
750.0,0.840474
755.0,0.84137
760.0,0.842307
765.0,0.842661
770.0,0.842815
775.0,0.843551
780.0,0.844156
785.0,0.844701
790.0,0.845514
795.0,0.84513
800.0,0.846634
805.0,0.847696
810.0,0.848692
815.0,0.848372
820.0,0.847717
825.0,0.847526
830.0,0.847999
835.0,0.850473
840.0,0.849518
845.0,0.848628
850.0,0.849626
855.0,0.849579
860.0,0.850126
865.0,0.850699
870.0,0.850004
875.0,0.850872
880.0,0.853057
885.0,0.850604
890.0,0.851162
895.0,0.851361
900.0,0.851253
905.0,0.851188
910.0,0.85244
915.0,0.85248
920.0,0.851828
925.0,0.852611
930.0,0.851296
935.0,0.852641
940.0,0.853619
945.0,0.85315
950.0,0.853349
955.0,0.853311
960.0,0.853229
965.0,0.854134
970.0,0.853642
975.0,0.853768
980.0,0.85511
985.0,0.854334
990.0,0.854201
995.0,0.853445
1000.0,0.85385
1005.0,0.853305
1010.0,0.853189
1015.0,0.853129
1020.0,0.854495
1025.0,0.852518
1030.0,0.853853
1035.0,0.854261
1040.0,0.853313
1045.0,0.853613
1050.0,0.854427
1055.0,0.852957
1060.0,0.853519
1065.0,0.853903
1070.0,0.853517
1075.0,0.85385
1080.0,0.85446
1085.0,0.855072
1090.0,0.854203
1095.0,0.854397
1100.0,0.85488
1105.0,0.855246
1110.0,0.855376
1115.0,0.855762
1120.0,0.855611
1125.0,0.855177
1130.0,0.856009
1135.0,0.855889
1140.0,0.856643
1145.0,0.856137
1150.0,0.856749
1155.0,0.855992
1160.0,0.856461
1165.0,0.855992
1170.0,0.855945
1175.0,0.856567
1180.0,0.856598
1185.0,0.856363
1190.0,0.856424
1195.0,0.855577
1200.0,0.855181
1205.0,0.855107
1210.0,0.855039
1215.0,0.85489
1220.0,0.854643
1225.0,0.853788
1230.0,0.853785
1235.0,0.853632
1240.0,0.852853
1245.0,0.853434
1250.0,0.851637
1255.0,0.852069
1260.0,0.852203
1265.0,0.851356
1270.0,0.851375
1275.0,0.851262
1280.0,0.850093
1285.0,0.850237
1290.0,0.851296
1295.0,0.850895
1300.0,0.851269
1305.0,0.851455
1310.0,0.852188
1315.0,0.852493
1320.0,0.853403
1325.0,0.852734
1330.0,0.853429
1335.0,0.85328
1340.0,0.853463
1345.0,0.853635
1350.0,0.852664
1355.0,0.851767
1360.0,0.850628
1365.0,0.850046
1370.0,0.848633
1375.0,0.846896
1380.0,0.84461
1385.0,0.841876
1420.0,0.835537
1425.0,0.835364
1430.0,0.835822
1435.0,0.835619
1440.0,0.835569
1445.0,0.834215
1450.0,0.832316
1455.0,0.830809
1460.0,0.827992
1465.0,0.825388
1470.0,0.822011
1475.0,0.818178
1480.0,0.813638
1485.0,0.809733
1490.0,0.804923
1495.0,0.800285
1500.0,0.794504
1505.0,0.789216
1510.0,0.783105
1515.0,0.777905
1520.0,0.771882
1525.0,0.766606
1530.0,0.760862
1535.0,0.755707
1540.0,0.750552
1545.0,0.745901
1550.0,0.741875
1555.0,0.737871
1560.0,0.733569
1565.0,0.730008
1570.0,0.727119
1575.0,0.724586
1580.0,0.723006
1585.0,0.723883
1590.0,0.723606
1595.0,0.723409
1600.0,0.723268
1605.0,0.72329
1610.0,0.722122
1615.0,0.721996
1620.0,0.719656
1625.0,0.717901
1630.0,0.715093
1635.0,0.712836
1640.0,0.710138
1645.0,0.706913
1650.0,0.703008
1655.0,0.699389
1660.0,0.696262
1665.0,0.692915
1670.0,0.689728
1675.0,0.686708
1680.0,0.683301
1685.0,0.679453
1690.0,0.67663
1695.0,0.67384
1700.0,0.669891
1705.31,0.669002
1709.81,0.666126
1715.46,0.663715
1720.02,0.660936
1724.6,0.658627
1730.35,0.656129
1734.98,0.653951
1739.64,0.652218
1745.5,0.650908
1750.21,0.650687
1754.95,0.650514
1759.72,0.650717
1764.51,0.651367
1770.54,0.652438
1775.39,0.653395
1780.27,0.654715
1785.17,0.656272
1790.1,0.657811
1795.06,0.659275
1800.05,0.660667
1805.06,0.662297
1810.1,0.66364
1815.17,0.664975
1820.27,0.666593
1825.4,0.668389
1830.56,0.670016
1834.44,0.671671
1839.65,0.673345
1844.89,0.675267
1850.16,0.677005
1855.45,0.678603
1859.45,0.67954
1864.8,0.680439
1870.18,0.680721
1875.59,0.680259
1879.67,0.679504
1885.14,0.677473
1890.64,0.675352
1894.79,0.671367
1900.34,0.666068
1904.53,0.66149
1910.15,0.654375
1914.38,0.64845
1920.05,0.639955
1924.33,0.633355
1930.06,0.624041
1934.38,0.616943
1940.17,0.607064
1944.54,0.599939
1950.39,0.590344
1954.8,0.583558
1960.72,0.574917
1965.18,0.568615
1969.66,0.562615
1975.66,0.554081
1980.19,0.547796
1984.74,0.541482
1989.31,0.533753
1995.43,0.529941
2000.05,0.527823
2004.69,0.528067
2009.35,0.530155
2015.6,0.534818
2020.32,0.538197
2025.05,0.541091
2029.81,0.543124
2034.59,0.544211
2039.39,0.545089
2044.22,0.545814
2050.69,0.546138
2055.57,0.546056
2060.47,0.545292
2065.39,0.544382
2070.34,0.543216
2075.31,0.54198
2080.31,0.54029
2085.33,0.538221
2090.38,0.536125
2095.45,0.534
2100.54,0.53317
2105.66,0.533309
2110.8,0.535326
2114.25,0.537172
2119.43,0.541204
2124.65,0.545977
2129.88,0.551292
2135.15,0.556688
2140.44,0.561557
2145.75,0.566111
2149.31,0.568829
2154.67,0.572286
2160.06,0.575716
2165.47,0.579598
2170.91,0.584395
2174.55,0.588191
2180.04,0.594246
2185.55,0.600922
2189.25,0.605573
2194.81,0.612357
2200.4,0.61881
2204.14,0.622853
2209.78,0.628123
2215.44,0.632922
2219.24,0.635162
2224.95,0.638004
2230.7,0.639735
2234.54,0.640275
2240.33,0.640782
2244.21,0.640469
2250.06,0.640083
2255.93,0.639639
2259.87,0.639712
2265.79,0.639592
2269.76,0.639572
2275.74,0.63932
2279.74,0.639325
2285.77,0.638982
2289.81,0.638611
2295.9,0.63856
2299.97,0.63855
2304.06,0.638113
2310.22,0.637516
2314.35,0.637052
2320.56,0.636426
2324.72,0.635879
2331.0,0.634759
2335.2,0.63389
2339.41,0.632961
2345.76,0.631149
2350.02,0.629905
2354.28,0.628736
2360.72,0.627023
2365.03,0.625599
2369.35,0.62417
2375.86,0.621312
2380.23,0.618983
2384.61,0.616729
2389.0,0.614452
2395.63,0.610519
2400.06,0.607873
2404.52,0.60508
2408.98,0.601807
2415.72,0.595809
2420.23,0.591249
2424.76,0.586031
2429.3,0.579962
2433.87,0.572904
2440.74,0.560031
2445.35,0.550128
2449.97,0.538903
2454.61,0.526703
2459.27,0.513688
2463.94,0.50022
2470.99,0.481608
2475.71,0.471694
2480.45,0.46533
2485.2,0.46334
2489.98,0.465163
2494.77,0.470498
2499.58,0.477277
2504.41,0.484486
2509.26,0.491266
2514.13,0.497385
2519.02,0.503025
2523.92,0.508613
2528.85,0.514055
2533.79,0.518472
2541.24,0.523752
2543.74,0.525142
2548.74,0.527996
2553.76,0.530494
2556.28,0.532073
2558.8,0.533742
2561.33,0.535051
2563.86,0.536388
2566.4,0.538437
2568.95,0.54026
2571.5,0.541538
2574.05,0.542617
2576.61,0.543589
2579.17,0.5444
2581.74,0.545083
2584.31,0.54517
2586.89,0.545332
2589.48,0.545528
2592.07,0.545647
2594.66,0.544919
2597.26,0.54417
2599.87,0.544739
2602.48,0.544735
2605.09,0.544119
2607.71,0.54394
2610.34,0.544516
2612.97,0.545096
2615.61,0.545519
2618.25,0.54576
2620.9,0.545929
2623.55,0.546567
2626.21,0.547005
2628.87,0.546807
2631.54,0.546639
2634.22,0.546775
2636.89,0.54689
2639.58,0.546759
2642.27,0.545961
2644.97,0.544986
2647.67,0.543986
2650.38,0.542884
2653.09,0.541355
2655.81,0.539678
2658.53,0.537965
2661.26,0.535929
2664.0,0.533484
2666.74,0.530398
2669.48,0.527143
2672.23,0.523854
2674.99,0.520263
2677.76,0.515516
2680.52,0.508844
2683.3,0.501442
2686.08,0.493568
2688.87,0.485341
2691.66,0.476299
2694.46,0.466159
2697.26,0.455215
2700.07,0.444684
2702.89,0.433541
2705.71,0.422293
2708.53,0.411937
2711.37,0.40187
2714.21,0.391461
2717.05,0.381508
2719.9,0.371578
2722.76,0.361966
2725.62,0.35214
2728.49,0.342422
2731.37,0.332601
2734.25,0.322726
2737.14,0.312354
2740.03,0.302847
2742.93,0.293568
2745.83,0.284645
2748.75,0.276363
2751.66,0.268763
2754.59,0.261523
2757.52,0.25427
2760.46,0.247329
2763.4,0.24114
2766.35,0.234977
2769.3,0.229099
2772.26,0.22333
2775.23,0.217484
2778.21,0.211599
2781.19,0.205977
2784.18,0.200222
2787.17,0.194644
2790.17,0.188923
2793.18,0.182983
2796.19,0.177223
2799.21,0.171728
2802.24,0.166269
2805.27,0.16073
2808.31,0.155079
2811.35,0.149818
2814.41,0.144655
2817.46,0.139656
2820.53,0.134843
2823.6,0.130336
2826.68,0.12574
2829.77,0.121116
2832.86,0.116848
2835.96,0.112691
2839.07,0.108536
2842.18,0.104725
2845.3,0.100971
2848.43,0.097453
2851.56,0.094046
2854.7,0.090757
2857.85,0.087555
2861.0,0.084359
2864.16,0.08132
2867.33,0.078506
2870.51,0.075869
2873.69,0.073401
2876.88,0.070918
2880.07,0.068488
2883.28,0.066206
2886.49,0.064118
2889.71,0.062041
2892.93,0.060207
2896.17,0.058559
2899.4,0.056876
2902.65,0.055286
2905.91,0.053718
2909.17,0.052264
2912.44,0.050934
2915.71,0.049738
2918.99,0.048499
2922.29,0.047227
2925.58,0.046121
2928.89,0.045173
2932.2,0.044284
2935.52,0.043399
2938.85,0.042739
2942.19,0.042121
2945.53,0.041428
2948.88,0.040904
2952.24,0.040467
2955.61,0.039914
2958.98,0.039351
2962.36,0.039035
2965.75,0.038795
2969.15,0.038551
2972.55,0.038083
2975.97,0.037913
2979.39,0.037913
2986.25,0.037406
2989.7,0.037194
2993.15,0.036899
2996.61,0.036786
3000.08,0.036776
3003.55,0.036744
3007.04,0.036627
3010.53,0.036341
3014.03,0.036463
3017.54,0.036428
3021.06,0.036105
3024.58,0.036322
3028.12,0.036192
3031.66,0.035894
3035.21,0.036107
3038.77,0.036111
3042.33,0.035446
3045.91,0.035376
3049.49,0.035771
3053.08,0.035652
3056.68,0.035636
3060.29,0.035621
3063.91,0.035465
3067.54,0.035653
3071.17,0.035457
3074.81,0.035368
3078.47,0.035581
3082.13,0.035571
3085.79,0.035365
3089.47,0.035339
3093.16,0.035537
3096.85,0.035414
3100.56,0.035857
3104.27,0.035676
3107.99,0.03582
3111.73,0.035966
3115.47,0.036358
3119.21,0.036627
3122.97,0.03682
3126.74,0.036502
3130.52,0.036888
3134.3,0.037295
3138.1,0.037436
3141.9,0.037757
3145.71,0.038208
3149.54,0.038414
3153.37,0.038485
3157.21,0.038754
3161.06,0.039228
3164.92,0.0392
3168.79,0.039355
3172.67,0.039793
3176.55,0.039819
3180.45,0.040074
3184.36,0.040192
3188.27,0.040342
3192.2,0.040522
3196.14,0.04084
3200.08,0.040906
3204.04,0.04128
3208.0,0.041355
3211.98,0.041736
3215.96,0.042036
3219.96,0.041771
3223.96,0.042387
3227.98,0.042822
3232.0,0.04275
3236.04,0.043352
3240.08,0.043679
3244.14,0.043857
3248.2,0.044502
3252.28,0.044754
3256.37,0.045307
3260.46,0.046019
3264.57,0.046914
3268.69,0.04747
3272.81,0.048461
3276.95,0.049606
3281.1,0.050626
3285.26,0.051441
3289.43,0.052514
3293.61,0.053491
3297.8,0.054848
3302.0,0.055914
3306.21,0.057018
3310.43,0.058116
3314.66,0.059263
3318.91,0.060531
3323.16,0.061452
3327.43,0.06238
3331.71,0.063606
3335.99,0.064516
3340.29,0.065519
3344.6,0.066265
3348.92,0.067345
3353.26,0.068149
3357.6,0.068991
3361.96,0.069796
3366.32,0.070544
3370.7,0.071545
3375.09,0.072098
3379.49,0.07315
3383.9,0.073878
3388.32,0.074501
3392.76,0.075599
3397.21,0.076607
3401.66,0.077746
3406.13,0.079288
3410.61,0.080238
3415.11,0.081515
3419.61,0.082812
3424.13,0.084172
3428.66,0.085305
3433.2,0.086561
3437.76,0.087737
3442.32,0.089073
3446.9,0.090189
3451.49,0.091383
3456.09,0.092763
3460.7,0.093901
3465.33,0.095041
3469.97,0.096489
3474.62,0.097701
3479.29,0.099299
3483.96,0.100843
3488.65,0.102416
3493.35,0.10369
3498.07,0.105292
3502.79,0.106808
3507.53,0.108448
3512.29,0.110166
3517.05,0.111689
3521.83,0.113485
3526.62,0.115196
3531.43,0.117096
3536.24,0.119069
3541.08,0.121059
3543.5,0.121957
3545.92,0.12296
3548.35,0.123994
3550.78,0.125004
3553.21,0.126058
3555.65,0.127018
3558.09,0.128168
3560.53,0.129443
3562.98,0.130548
3565.43,0.131588
3567.88,0.132651
3570.34,0.133682
3572.8,0.135072
3575.27,0.136368
3577.73,0.137524
3580.2,0.138691
3582.68,0.139717
3585.16,0.140858
3587.64,0.142163
3590.12,0.143428
3592.61,0.144856
3595.1,0.146288
3597.6,0.147771
3600.09,0.149048
3602.6,0.150227
3605.1,0.151455
3607.61,0.152751
3610.12,0.15423
3612.64,0.155644
3615.16,0.15708
3617.68,0.158403
3620.21,0.159454
3622.74,0.160679
3625.27,0.16208
3627.81,0.163437
3630.35,0.164771
3632.89,0.166071
3635.44,0.167299
3637.99,0.168662
3640.54,0.169885
3643.1,0.171246
3645.66,0.172574
3648.23,0.173807
3650.8,0.175036
3653.37,0.176347
3655.95,0.17769
3658.53,0.179013
3661.11,0.180157
3663.7,0.181402
3666.29,0.182807
3668.89,0.184206
3671.48,0.18535
3674.09,0.18647
3676.69,0.187796
3679.3,0.18928
3681.91,0.190592
3684.53,0.191694
3687.15,0.192862
3689.78,0.19407
3692.4,0.195363
3695.04,0.196758
3697.67,0.19796
3700.31,0.199228
3702.95,0.200616
3705.6,0.201913
3708.25,0.203173
3710.91,0.204498
3713.56,0.205813
3716.23,0.207074
3718.89,0.20827
3721.56,0.209526
3724.23,0.21089
3726.91,0.212187
3729.59,0.21346
3732.28,0.214847
3734.97,0.215904
3737.66,0.217097
3740.36,0.218579
3743.06,0.220011
3745.76,0.221302
3748.47,0.222638
3751.18,0.223949
3753.9,0.225244
3756.62,0.226377
3759.34,0.227601
3762.07,0.228822
3764.8,0.229898
3767.54,0.231044
3770.28,0.232335
3773.02,0.233685
3775.77,0.234966
3778.52,0.236059
3781.28,0.237182
3784.04,0.238283
3786.8,0.239344
3789.57,0.240424
3792.34,0.241558
3795.12,0.242509
3797.9,0.243373
3800.69,0.244487
3803.47,0.245526
3806.27,0.246367
3809.06,0.247186
3811.86,0.247915
3814.67,0.248583
3817.48,0.249356
3820.29,0.249972
3823.11,0.250209
3825.93,0.25038
3828.76,0.250444
3831.59,0.250281
3834.42,0.24962
3837.26,0.248726
3840.1,0.247673
3842.95,0.246776
3845.8,0.246044
3848.65,0.245361
3851.51,0.244615
3854.38,0.244209
3857.24,0.244059
3860.12,0.244093
3862.99,0.244347
3865.87,0.244748
3868.76,0.245191
3871.65,0.245434
3874.54,0.245626
3877.44,0.24567
3880.34,0.245493
3883.25,0.24535
3886.16,0.245225
3889.07,0.245133
3891.99,0.245035
3894.92,0.244882
3897.85,0.244748
3900.78,0.244667
3903.72,0.244641
3906.66,0.24449
3909.6,0.244104
3912.55,0.243709
3915.51,0.242915
3918.47,0.242007
3921.43,0.240833
3924.4,0.239318
3927.38,0.237659
3930.35,0.235946
3933.33,0.234013
3936.32,0.232188
3939.31,0.23039
3942.31,0.22837
3945.31,0.226259
3948.31,0.224131
3951.32,0.221664
3954.34,0.21914
3957.35,0.2168
3960.38,0.214207
3963.41,0.211495
3966.44,0.20919
3969.48,0.20746
3972.52,0.206311
3975.56,0.206264
3978.61,0.207893
3981.67,0.210719
3984.73,0.214206
3987.8,0.217634
3990.87,0.220685
3993.94,0.223432
3997.02,0.225866
4000.1,0.227846
4003.19,0.229258
4006.29,0.230234
4009.39,0.230999
4012.49,0.231215
4015.6,0.231047
4018.71,0.230241
4021.83,0.229018
4024.95,0.227606
4028.08,0.225892
4031.21,0.223746
4034.35,0.221506
4037.49,0.219039
4040.64,0.216489
4043.79,0.213725
4046.94,0.210798
4050.11,0.207743
4053.27,0.204608
4056.44,0.201649
4059.62,0.198848
4062.8,0.196101
4065.99,0.193782
4069.18,0.192165
4072.38,0.191332
4075.58,0.191121
4078.78,0.191994
4082.0,0.194113
4085.21,0.197265
4088.43,0.201
4091.66,0.205291
4094.89,0.209617
4098.13,0.213613
4101.37,0.217219
4104.62,0.220461
4107.87,0.22312
4111.13,0.225321
4114.39,0.22697
4117.66,0.228235
4120.93,0.229322
4124.21,0.230158
4127.5,0.230469
4130.79,0.230616
4134.08,0.230728
4137.38,0.230574
4140.68,0.230031
4143.99,0.229382
4147.31,0.2285
4150.63,0.227456
4153.95,0.226312
4157.29,0.225037
4160.62,0.223518
4163.96,0.221998
4167.31,0.220327
4170.66,0.218541
4174.02,0.216598
4177.39,0.214585
4180.75,0.212607
4184.13,0.210605
4187.51,0.208444
4190.89,0.206473
4194.28,0.204469
4197.68,0.202456
4201.08,0.200603
4204.49,0.198763
4207.9,0.196962
4211.32,0.195121
4214.74,0.193479
4218.17,0.192041
4221.61,0.190422
4225.05,0.188841
4228.5,0.187471
4231.95,0.18628
4235.4,0.185159
4238.87,0.184035
4242.34,0.182997
4245.81,0.182235
4249.29,0.181454
4252.78,0.180578
4256.27,0.179915
4259.77,0.179497
4263.27,0.179024
4266.78,0.178528
4270.29,0.178179
4273.81,0.178024
4277.34,0.177678
4280.87,0.177499
4284.41,0.177664
4287.95,0.177705
4291.5,0.177768
4295.06,0.177883
4298.62,0.177886
4302.19,0.178168
4305.76,0.178387
4309.34,0.178663
4312.92,0.17911
4316.52,0.179715
4320.11,0.18018
4323.72,0.180435
4327.32,0.180781
4330.94,0.181468
4334.56,0.182208
4338.19,0.182897
4341.82,0.183504
4345.46,0.184236
4349.11,0.185041
4352.76,0.18585
4356.42,0.186589
4360.08,0.187448
4363.75,0.18836
4367.43,0.189354
4371.11,0.190317
4374.8,0.191374
4378.49,0.19262
4382.19,0.193861
4385.9,0.194926
4389.61,0.19613
4393.33,0.197381
4397.06,0.198809
4400.79,0.20025
4404.53,0.201617
4408.28,0.203081
4412.03,0.204565
4415.79,0.205963
4419.55,0.207487
4423.32,0.209117
4427.1,0.210741
4430.88,0.212415
4434.68,0.214098
4438.47,0.215717
4442.28,0.217322
4446.08,0.218864
4449.9,0.220483
4453.72,0.222204
4457.55,0.223932
4461.39,0.225606
4465.23,0.227324
4469.08,0.228809
4472.94,0.230399
4476.8,0.232215
4480.67,0.234007
4484.55,0.235566
4488.43,0.23713
4492.32,0.238659
4496.21,0.24028
4500.12,0.241856
4504.03,0.243306
4507.94,0.244846
4511.87,0.246484
4515.8,0.248049
4519.73,0.249695
4523.68,0.251203
4527.63,0.252762
4531.59,0.254438
4535.55,0.255931
4539.52,0.25732
4543.5,0.258928
4547.49,0.260372
4551.48,0.26177
4555.48,0.263493
4559.49,0.265251
4563.5,0.266769
4567.52,0.268179
4571.55,0.269633
4575.58,0.271064
4579.63,0.272547
4583.67,0.274052
4587.73,0.275441
4591.79,0.276867
4595.86,0.278403
4599.94,0.279769
4604.03,0.281016
4608.12,0.282549
4612.22,0.283959
4616.33,0.285264
4620.44,0.286491
4624.56,0.28769
4628.69,0.288826
4632.83,0.290024
4636.97,0.291331
4641.12,0.292547
4645.28,0.293652
4649.45,0.294822
4653.62,0.295907
4657.8,0.297088
4661.99,0.298151
4666.19,0.299053
4670.39,0.299595
4674.6,0.299843
4678.82,0.299238
4683.05,0.297578
4687.28,0.29491
4691.52,0.292246
4695.77,0.292054
4700.03,0.295524
4704.3,0.30016
4708.57,0.304039
4712.85,0.306816
4717.14,0.30888
4721.43,0.310503
4725.74,0.311984
4730.05,0.313248
4734.37,0.314673
4738.7,0.316033
4743.03,0.317421
4747.38,0.31883
4751.73,0.320386
4756.09,0.321865
4760.45,0.323557
4764.83,0.325303
4769.21,0.327055
4773.6,0.328778
4778.0,0.330561
4782.41,0.332191
4786.83,0.334002
4791.25,0.33576
4795.68,0.337527
4800.13,0.33933
4804.57,0.341055
4809.03,0.342434
4813.5,0.343933
4817.97,0.345464
4822.45,0.347048
4826.94,0.348451
4831.44,0.349864
4835.95,0.351267
4840.46,0.352711
4844.99,0.353926
4849.52,0.35523
4854.06,0.356612
4858.61,0.358016
4863.17,0.359252
4867.73,0.360472
4872.31,0.361635
4876.89,0.362917
4881.48,0.36416
4886.08,0.365286
4890.69,0.366221
4895.31,0.367284
4899.94,0.368249
4904.57,0.369065
4909.22,0.369926
4913.87,0.370912
4918.53,0.371739
4923.21,0.37256
4927.88,0.373248
4932.57,0.373926
4937.27,0.374601
4941.98,0.375225
4946.69,0.375761
4951.42,0.376291
4956.15,0.376664
4960.9,0.377162
4965.65,0.37752
4970.41,0.377928
4975.18,0.378183
4979.96,0.378436
4984.75,0.378704
4989.54,0.378914
4994.35,0.379121
4999.17,0.379332
5003.99,0.379347
5008.83,0.379444
5013.67,0.379482
5018.52,0.379635
5023.39,0.379634
5028.26,0.379572
5033.14,0.379373
5038.03,0.379312
5042.93,0.379147
5047.84,0.378984
5052.76,0.378799
5057.69,0.378634
5062.63,0.378358
5067.58,0.378125
5072.54,0.377588
5077.51,0.377228
5082.49,0.376828
5087.47,0.376415
5092.47,0.375805
5097.48,0.375275
5102.5,0.374652
5107.52,0.37405
5112.56,0.373517
5117.61,0.373075
5122.66,0.372438
5127.73,0.371992
5132.81,0.371405
5137.89,0.370901
5142.99,0.37031
5148.1,0.369767
5153.22,0.369127
5158.34,0.368741
5163.48,0.368272
5168.63,0.367924
5173.79,0.367448
5178.96,0.366848
5184.13,0.365998
5189.32,0.365218
5194.52,0.364261
5199.73,0.363148
5204.96,0.36193
5210.19,0.360828
5215.43,0.359405
5220.68,0.358096
5225.94,0.356636
5231.22,0.355197
5236.5,0.353627
5241.79,0.351994
5247.1,0.350359
5252.42,0.348918
5257.74,0.347298
5263.08,0.345919
5268.43,0.344516
5273.79,0.343179
5279.16,0.341775
5284.54,0.340542
5289.93,0.339446
5295.34,0.338596
5300.75,0.337643
5306.18,0.336738
5311.61,0.335749
5317.06,0.334801
5322.52,0.333796
5327.99,0.332971
5333.47,0.332008
5338.96,0.331084
5344.47,0.329865
5349.98,0.328651
5355.51,0.327277
5361.05,0.325992
5366.6,0.324616
5372.16,0.323357
5377.73,0.321847
5383.32,0.320234
5388.91,0.318448
5394.52,0.316785
5400.14,0.315024
5405.77,0.313294
5411.41,0.311395
5417.07,0.309554
5422.74,0.307467
5428.41,0.305346
5434.1,0.303082
5439.81,0.300996
5445.52,0.298642
5451.25,0.296275
5456.98,0.293668
5462.73,0.291129
5468.5,0.288408
5474.27,0.285696
5480.06,0.282944
5485.86,0.280152
5491.67,0.276976
5497.49,0.273804
5503.33,0.270306
5509.18,0.266617
5515.04,0.262727
5520.91,0.258677
5526.8,0.253911
5532.69,0.248715
5538.61,0.242863
5544.53,0.236543
5550.47,0.229376
5556.41,0.221131
5562.38,0.211683
5568.35,0.201397
5574.34,0.190248
5580.34,0.179021
5586.35,0.167935
5592.38,0.15844
5598.42,0.151382
5604.47,0.146755
5610.54,0.14427
5616.61,0.143944
5622.71,0.145518
5628.81,0.148328
5634.93,0.151595
5641.06,0.154584
5647.21,0.156593
5653.36,0.157307
5659.54,0.156985
5665.72,0.155679
5671.92,0.153567
5678.13,0.150781
5684.36,0.147057
5690.6,0.143193
5696.85,0.138976
5703.12,0.134309
5709.4,0.12993
5715.69,0.125475
5722.0,0.120952
5728.33,0.117262
5734.66,0.114399
5741.01,0.112084
5747.38,0.110218
5753.76,0.108845
5760.15,0.107761
5766.56,0.107082
5772.98,0.106208
5779.41,0.105385
5785.86,0.104848
5792.33,0.104283
5798.81,0.103901
5805.3,0.103439
5811.81,0.102892
5818.33,0.102379
5824.87,0.101854
5831.42,0.10109
5837.99,0.100367
5844.57,0.099655
5851.17,0.0989
5857.78,0.09809
5864.41,0.097163
5871.05,0.096344
5877.7,0.095489
5884.38,0.094593
5891.06,0.093354
5897.76,0.092524
5904.48,0.091471
5911.21,0.090512
5917.96,0.089919
5924.73,0.088962
5931.5,0.08819
5938.3,0.087403
5945.11,0.086213
5951.93,0.085278
5958.78,0.084455
5965.63,0.083431
5972.51,0.082406
5979.39,0.081221
5986.3,0.080091
5993.22,0.079003
6000.16,0.077885
6007.11,0.076806
6014.08,0.075722
6021.06,0.074525
6028.06,0.073261
6035.08,0.072132
6042.12,0.070957
6049.17,0.069969
6056.23,0.068479
6063.32,0.067005
6070.42,0.066176
6077.53,0.065135
6084.67,0.06387
6091.82,0.06285
6098.98,0.061894
6106.17,0.061009
6113.37,0.060113
6120.58,0.058975
6127.82,0.057726
6135.07,0.056744
6142.34,0.055799
6149.63,0.054687
6156.93,0.053448
6164.25,0.052303
6171.59,0.051061
6178.95,0.049975
6186.32,0.048926
6193.71,0.047664
6201.12,0.046381
6208.54,0.045301
6215.99,0.044192
6223.45,0.042984
6230.93,0.041669
6238.43,0.040509
6245.95,0.039287
6253.48,0.0382
6261.03,0.037148
6268.6,0.035987
6276.19,0.034678
6283.8,0.033456
6291.43,0.032217
6299.07,0.03105
6306.73,0.029912
6314.42,0.02884
6322.12,0.027762
6329.84,0.026746
6337.57,0.025713
6345.33,0.024808
6353.11,0.02387
6360.9,0.02301
6368.72,0.02231
6376.55,0.021785
6384.4,0.021316
6392.27,0.021019
6400.17,0.020999
6408.08,0.021236
6416.01,0.02169
6423.96,0.0225
6431.93,0.02363
6439.92,0.025359
6447.93,0.02761
6455.96,0.030253
6464.01,0.033497
6472.08,0.037419
6480.17,0.042214
6488.28,0.047943
6496.41,0.054804
6504.56,0.063075
6512.73,0.072129
6520.92,0.081772
6529.14,0.092797
6537.37,0.104327
6545.63,0.116073
6553.9,0.127703
6562.2,0.138933
6570.51,0.148705
6578.85,0.156742
6587.21,0.1624
6595.59,0.165521
6603.99,0.165855
6612.42,0.16425
6620.86,0.161039
6629.33,0.156851
6637.82,0.152325
6646.33,0.147596
6654.86,0.143271
6663.41,0.140104
6671.99,0.137146
6680.59,0.134484
6689.21,0.131704
6697.85,0.128994
6706.51,0.126351
6715.2,0.123733
6723.91,0.121242
6732.64,0.119225
6741.4,0.117631
6750.18,0.116562
6758.98,0.11562
6767.8,0.114621
6776.65,0.113003
6785.52,0.111079
6794.41,0.10943
6803.33,0.10841
6812.27,0.107822
6821.23,0.107267
6830.22,0.106474
6839.23,0.105986
6848.26,0.105656
6857.32,0.105223
6866.4,0.104575
6875.51,0.103917
6884.64,0.102981
6893.8,0.102031
6902.98,0.101057
6912.18,0.10014
6921.41,0.098943
6930.66,0.097731
6939.94,0.096544
6949.24,0.095387
6958.57,0.094137
6967.92,0.092843
6977.3,0.091491
6986.7,0.090281
6996.13,0.089115
7005.59,0.088014
7015.07,0.087023
7024.57,0.085974
7034.1,0.084619
7043.66,0.083177
7053.25,0.081455
7062.85,0.079648
7072.49,0.07815
7082.15,0.077271
7091.84,0.077232
7101.55,0.077809
7111.3,0.07872
7121.06,0.079791
7130.86,0.08081
7140.68,0.081621
7150.53,0.082212
7160.41,0.08293
7170.31,0.083734
7180.24,0.084685
7190.2,0.085725
7200.19,0.086892
7210.2,0.088198
7220.24,0.089625
7230.31,0.090873
7240.41,0.092302
7250.54,0.093745
7260.69,0.095002
7270.88,0.096261
7281.09,0.097547
7291.33,0.098705
7301.6,0.0999
7311.9,0.101359
7322.22,0.103033
7332.58,0.104604
7342.97,0.106457
7353.38,0.108405
7363.83,0.110422
7374.3,0.112438
7384.81,0.114448
7395.34,0.116226
7405.91,0.117949
7416.5,0.119621
7427.13,0.121332
7437.78,0.122879
7448.47,0.124491
7459.19,0.125981
7469.94,0.127351
7480.71,0.128496
7491.52,0.129556
7502.37,0.130518
7513.24,0.131413
7524.14,0.132109
7535.08,0.132804
7546.05,0.133418
7557.05,0.134144
7568.08,0.135064
7579.15,0.136288
7590.24,0.137435
7601.37,0.138686
7612.53,0.140031
7623.73,0.141385
7634.96,0.142614
7646.22,0.143968
7657.51,0.14532
7668.84,0.146651
7680.2,0.147922
7691.59,0.149181
7703.02,0.150463
7714.49,0.152114
7725.98,0.153869
7737.52,0.155754
7749.08,0.157728
7760.68,0.159809
7772.32,0.161831
7783.99,0.16386
7795.69,0.16582
7807.43,0.167852
7819.21,0.16977
7831.02,0.171793
7842.87,0.173911
7854.75,0.176085
7866.67,0.178289
7878.62,0.180647
7890.62,0.183
7902.64,0.185381
7914.71,0.187701
7926.81,0.190159
7938.95,0.192432
7951.13,0.194609
7963.34,0.196769
7975.59,0.198882
7987.88,0.200842
8000.21,0.202669
8012.57,0.204231
8024.98,0.205893
8037.42,0.207565
8049.9,0.20916
8062.42,0.210768
8074.98,0.212662
8087.57,0.214645
8100.21,0.216702
8112.89,0.218676
8125.6,0.220644
8138.36,0.222333
8151.16,0.22378
8163.99,0.224938
8176.87,0.226142
8189.79,0.227264
8202.75,0.228304
8215.75,0.229129
8228.79,0.229855
8241.87,0.230367
8254.99,0.231111
8268.16,0.231973
8281.37,0.233002
8294.62,0.234108
8307.91,0.235151
8321.24,0.236073
8334.62,0.237058
8348.04,0.238065
8361.51,0.239208
8375.02,0.240266
8388.57,0.241388
8402.16,0.242343
8415.8,0.243264
8429.49,0.244067
8443.22,0.245019
8456.99,0.245814
8470.81,0.246295
8484.67,0.246549
8498.58,0.246701
8512.54,0.246745
8526.54,0.247032
8540.58,0.247346
8554.68,0.247776
8568.82,0.248139
8583.0,0.248595
8597.24,0.249012
8611.52,0.249526
8625.85,0.249971
8640.23,0.250243
8654.65,0.250609
8669.12,0.251421
8683.64,0.252138
8698.21,0.252648
8712.83,0.253004
8727.5,0.253429
8742.22,0.25349
8756.99,0.253522
8771.8,0.253576
8786.67,0.253827
8801.59,0.254109
8816.56,0.254288
8831.58,0.254321
8846.65,0.254537
8861.77,0.254596
8876.94,0.254609
8892.17,0.254545
8907.45,0.254599
8922.78,0.254476
8938.16,0.254205
8953.6,0.253755
8969.09,0.253375
8984.64,0.252863
9000.23,0.252251
9015.89,0.251124
9031.59,0.249729
9047.36,0.248206
9063.17,0.246389
9079.05,0.244189
9094.97,0.241588
9110.96,0.238718
9127.0,0.23567
9143.1,0.231771
9159.25,0.227325
9175.46,0.222498
9191.73,0.217371
9208.06,0.211478
9224.44,0.204758
9240.88,0.196812
9257.38,0.187337
9273.94,0.17558
9290.56,0.161088
9307.24,0.1427
9323.98,0.119179
9340.78,0.092494
9357.64,0.073293
9374.57,0.073404
9391.55,0.091512
9408.59,0.121664
9425.7,0.154677
9442.87,0.18136
9460.1,0.199317
9477.4,0.210363
9494.75,0.217102
9512.17,0.219302
9529.66,0.217471
9547.21,0.212977
9564.83,0.211271
9582.5,0.213536
9600.25,0.214709
9618.06,0.213253
9635.94,0.210884
9653.88,0.208098
9671.89,0.205424
9689.97,0.202724
9708.12,0.200025
9726.33,0.197285
9744.62,0.194666
9762.97,0.192079
9781.39,0.189641
9799.88,0.187171
9818.44,0.18467
9837.07,0.182213
9855.77,0.180021
9874.54,0.177975
9893.39,0.175995
9912.3,0.174041
9931.29,0.172202
9950.36,0.170255
9969.49,0.168716
9988.7,0.167105
10007.98,0.165427
10027.34,0.164019
10046.77,0.162763
10066.28,0.161338
10085.87,0.159982
10105.53,0.15861
10125.26,0.157287
10145.08,0.155751
10164.97,0.153994
10184.94,0.152351
10204.99,0.15087
10225.12,0.14902
10245.33,0.147152
10265.61,0.145356
10285.98,0.143764
10306.43,0.142129
10326.96,0.140355
10347.57,0.138467
10368.27,0.136544
10389.05,0.13438
10409.91,0.132153
10430.86,0.129845
10451.88,0.127784
10473.0,0.125562
10494.2,0.122949
10515.49,0.120376
10536.86,0.117949
10558.32,0.115312
10579.87,0.112813
10601.5,0.110277
10623.23,0.107696
10645.04,0.105114
10666.94,0.102419
10688.94,0.099731
10711.02,0.097085
10733.2,0.094561
10755.47,0.09216
10777.83,0.089703
10800.28,0.087137
10822.83,0.084641
10845.47,0.082308
10868.21,0.080112
10891.04,0.077718
10913.97,0.075342
10936.99,0.073271
10960.12,0.071262
10983.34,0.069254
11006.66,0.067219
11030.07,0.06536
11053.59,0.063821
11077.21,0.062626
11100.93,0.061464
11124.75,0.060709
11148.68,0.060963
11172.71,0.062407
11196.84,0.064709
11221.07,0.066917
11245.41,0.066652
11269.86,0.062288
11294.41,0.055478
11319.07,0.048703
11343.84,0.043154
11368.72,0.039159
11393.7,0.036456
11418.8,0.03477
11444.01,0.033895
11469.33,0.033786
11494.76,0.034544
11520.3,0.035996
11545.96,0.037881
11571.73,0.039914
11597.62,0.041782
11623.62,0.043511
11649.74,0.045404
11675.98,0.047124
11702.34,0.048641
11728.81,0.050249
11755.41,0.051891
11782.13,0.053243
11808.96,0.054716
11835.92,0.05621
11863.01,0.057635
11890.22,0.059318
11917.55,0.060807
11945.01,0.062447
11972.6,0.064338
12000.31,0.066012
12028.16,0.067527
12056.13,0.069351
12084.23,0.071133
12112.46,0.07247
12140.83,0.073509
12169.33,0.074616
12197.96,0.075679
12226.73,0.076758
12255.64,0.077539
12284.68,0.078313
12313.86,0.079245
12343.18,0.079968
12372.64,0.080602
12402.24,0.081129
12431.98,0.081576
12461.86,0.082238
12491.89,0.082742
12522.07,0.08321
12552.38,0.083648
12582.85,0.084028
12613.47,0.08459
12644.23,0.08491
12675.15,0.085008
12706.21,0.085339
12737.43,0.085647
12768.81,0.085887
12800.33,0.086149
12832.02,0.086213
12863.86,0.086291
12895.86,0.086334
12928.02,0.086238
12960.34,0.086132
12992.82,0.086074
13025.46,0.086069
13058.27,0.085939
13091.25,0.085769
13124.39,0.085399
13157.7,0.084873
13191.18,0.084441
13224.83,0.084242
13258.66,0.083775
13292.65,0.08327
13326.83,0.083
13361.17,0.082691
13395.7,0.082
13430.4,0.081147
13465.29,0.08065
13500.35,0.080039
13535.6,0.079204
13571.03,0.078348
13606.65,0.077639
13642.46,0.076372
13678.46,0.074542
13714.64,0.072478
13751.02,0.069645
13787.59,0.065851
13824.36,0.060519
13861.32,0.053099
13898.49,0.045532
13935.85,0.041725
13973.41,0.041319
14011.17,0.041263
14049.15,0.040393
14087.32,0.040339
14125.71,0.041281
14164.3,0.041718
14203.11,0.041983
14242.13,0.04239
14281.36,0.042897
14320.81,0.043352
14360.49,0.043947
14400.38,0.044698
14440.49,0.045479
14480.82,0.046336
14521.39,0.047211
14562.18,0.047583
14603.2,0.047666
14644.45,0.047151
14685.93,0.045739
14727.66,0.044399
14769.62,0.043422
14811.81,0.0426
14854.25,0.042123
14896.94,0.041891
14939.87,0.041865
14983.05,0.042087
15026.48,0.042537
15070.16,0.043378
15114.1,0.044396
15158.29,0.044831
15202.74,0.045085
15247.46,0.045454
15292.43,0.046026
15337.68,0.046866
15383.19,0.047874
15428.97,0.049064
15475.03,0.050183
15521.36,0.050974
15567.97,0.05199
15614.87,0.053358
15662.04,0.054407
15709.5,0.055474
15757.25,0.056828
15805.29,0.058066
15853.62,0.059386
15902.26,0.06051
15951.19,0.06155
16000.42,0.06302
16049.95,0.064519
16099.8,0.065593
16149.95,0.066205
16200.42,0.066894
16251.21,0.067951
16302.31,0.069153
16353.74,0.070656
16405.49,0.07162
16457.57,0.071957
16509.98,0.072643
16562.73,0.073605
16615.82,0.074963
16669.24,0.075818
16723.02,0.076529
16777.14,0.077261
16831.61,0.077922
16886.43,0.079166
16941.62,0.080353
16997.16,0.080896
17053.08,0.081426
17109.36,0.082412
17166.01,0.083758
17223.04,0.084869
17280.45,0.085653
17338.24,0.08674
17396.43,0.087964
17455.0,0.088383
17513.97,0.088541
17573.34,0.089149
17633.11,0.089955
17693.29,0.09104
17753.89,0.09193
17814.9,0.09255
17876.33,0.092774
17938.18,0.093044
18000.47,0.093728
18063.19,0.094174
18126.35,0.094815
18189.95,0.095382
18254.0,0.096131
18318.5,0.09673
18383.46,0.09705
18448.88,0.097783
18514.77,0.098434
18581.13,0.098722
18647.97,0.099292
18715.29,0.099958
18783.1,0.100379
18851.4,0.100465
18920.2,0.100082
18989.51,0.099848
19059.32,0.100238
19129.65,0.100655
19200.5,0.101287
19271.88,0.100777
19343.79,0.100192
19416.24,0.099805
19489.23,0.0999
19562.77,0.100231
19636.88,0.100584
19711.54,0.100938
19786.78,0.100416
19862.59,0.100027
19938.98,0.101609
20015.96,0.102313
20093.55,0.101126
20171.73,0.100342
20250.53,0.100612
20329.94,0.099708
20409.98,0.097924
20490.65,0.096976
20571.96,0.095529
20653.92,0.094039
20736.54,0.092365
20819.82,0.091668
20903.77,0.091527
20988.4,0.090301
21073.72,0.088074
21159.73,0.085993
21246.46,0.084201
21333.89,0.082889
21422.04,0.081423
21510.93,0.080691
21600.56,0.080549
21690.94,0.079441
21782.08,0.077636
21873.99,0.076121
21966.67,0.074907
22060.15,0.074461
22154.42,0.072861
22249.51,0.071331
22345.41,0.070522
22442.14,0.068735
22539.72,0.067107
22638.14,0.065585
22737.43,0.063475
22837.6,0.061608
22938.65,0.06013
23040.6,0.059795
23143.46,0.059436
23247.24,0.05671
23351.96,0.054222
23457.63,0.052954
23564.25,0.05249
23671.85,0.051177
23780.44,0.049533
23890.02,0.048139
24000.63,0.047278
24112.26,0.047196
24224.93,0.044666
24338.66,0.042021
24453.47,0.04297
24569.36,0.043802
24686.36,0.042058
24804.47,0.038764
24923.73,0.035963
25044.13,0.037192
25165.71,0.036926
25288.46,0.033117
25412.43,0.034241
25537.61,0.039345
25664.04,0.03556
25791.72,0.030463
25920.68,0.02782
