Database of Origin,University of Winnipeg Spectrophotometer Facility
Sample Description,"RELAB plus Nicolet merged plagioclase data. Merged @2500nm, different viewing geometries. See Master Plagioclase in PSF sample database for more information"
Date Added,2016-11-22 03:59:30.058072

Data ID,RLA_PLG_19          
Sample ID,PLG120
Mineral Name,Oligoclase
Grain Size,<45
Viewing Geometry,"30/0,30"
Resolution,"5,0.6-129"
Composition,An14
Material Class,Tectosilicate

Wavelength
300.0,0.572492
305.0,0.591813
310.0,0.607188
315.0,0.622578
320.0,0.635446
325.0,0.645618
330.0,0.6567
335.0,0.665081
340.0,0.672027
345.0,0.680095
350.0,0.686096
355.0,0.693456
360.0,0.699621
365.0,0.704614
370.0,0.7102
375.0,0.714866
380.0,0.719281
385.0,0.723498
390.0,0.727352
395.0,0.730511
400.0,0.733725
405.0,0.736921
410.0,0.740411
415.0,0.742247
420.0,0.745387
425.0,0.74822
430.0,0.751118
435.0,0.754451
440.0,0.755399
445.0,0.757656
450.0,0.759231
455.0,0.759623
460.0,0.761184
465.0,0.76064
470.0,0.76148
475.0,0.760451
480.0,0.761458
485.0,0.761001
490.0,0.76192
495.0,0.76198
500.0,0.763162
505.0,0.763689
510.0,0.765627
515.0,0.766441
520.0,0.769146
525.0,0.77113
530.0,0.773242
535.0,0.777171
540.0,0.779738
545.0,0.782403
550.0,0.785949
555.0,0.787963
560.0,0.791327
565.0,0.793379
570.0,0.796578
575.0,0.797266
580.0,0.800323
585.0,0.800952
590.0,0.802743
595.0,0.802962
600.0,0.804518
605.0,0.8049
610.0,0.805298
615.0,0.805642
620.0,0.806201
625.0,0.8069
630.0,0.806725
635.0,0.806671
640.0,0.806858
645.0,0.807744
650.0,0.807792
655.0,0.808463
660.0,0.808317
665.0,0.808452
670.0,0.809157
675.0,0.80881
680.0,0.810004
685.0,0.80877
690.0,0.810118
695.0,0.809396
700.0,0.810539
705.0,0.810961
710.0,0.809953
715.0,0.810658
720.0,0.810135
725.0,0.810471
730.0,0.810293
735.0,0.810876
740.0,0.810958
745.0,0.810817
750.0,0.810613
755.0,0.810849
760.0,0.8115
765.0,0.811204
770.0,0.812033
775.0,0.8113
780.0,0.812048
785.0,0.81178
790.0,0.811877
795.0,0.812121
800.0,0.811391
805.0,0.812796
810.0,0.812379
815.0,0.812186
820.0,0.812469
825.0,0.812669
830.0,0.812518
835.0,0.812398
840.0,0.812593
845.0,0.812222
850.0,0.811934
855.0,0.812317
860.0,0.811979
865.0,0.811763
870.0,0.81195
875.0,0.811553
880.0,0.812084
885.0,0.812635
890.0,0.812257
895.0,0.813212
900.0,0.814753
905.0,0.813113
910.0,0.812696
915.0,0.813733
920.0,0.81226
925.0,0.810745
930.0,0.811072
935.0,0.812456
940.0,0.811003
945.0,0.81225
950.0,0.811804
955.0,0.811001
960.0,0.81063
965.0,0.811916
970.0,0.81101
975.0,0.812232
980.0,0.81412
985.0,0.81285
990.0,0.812412
995.0,0.811386
1000.0,0.810067
1005.0,0.808478
1010.0,0.811136
1015.0,0.809555
1020.0,0.811071
1025.0,0.809994
1030.0,0.809472
1035.0,0.808086
1040.0,0.809289
1045.0,0.808285
1050.0,0.809915
1055.0,0.809327
1060.0,0.809878
1065.0,0.810862
1070.0,0.812064
1075.0,0.810338
1080.0,0.812465
1085.0,0.81153
1090.0,0.811007
1095.0,0.808447
1100.0,0.808596
1105.0,0.806448
1110.0,0.806328
1115.0,0.803969
1120.0,0.80464
1125.0,0.805308
1130.0,0.806553
1135.0,0.808236
1140.0,0.809755
1145.0,0.810823
1150.0,0.810156
1155.0,0.80899
1160.0,0.807244
1165.0,0.807113
1170.0,0.805555
1175.0,0.807832
1180.0,0.807127
1185.0,0.806496
1190.0,0.807009
1195.0,0.804638
1200.0,0.805781
1205.0,0.801056
1210.0,0.800698
1215.0,0.799493
1220.0,0.800682
1225.0,0.800075
1230.0,0.799738
1235.0,0.800023
1240.0,0.799932
1245.0,0.799376
1250.0,0.800047
1255.0,0.80046
1260.0,0.79997
1265.0,0.800861
1270.0,0.801678
1275.0,0.801916
1280.0,0.802446
1285.0,0.802415
1290.0,0.802349
1295.0,0.802333
1300.0,0.801163
1305.0,0.801421
1310.0,0.802396
1315.0,0.801856
1320.0,0.801499
1325.0,0.801454
1330.0,0.800578
1335.0,0.800303
1340.0,0.800893
1345.0,0.799996
1350.0,0.799608
1355.0,0.799541
1360.0,0.798565
1365.0,0.797668
1370.0,0.798622
1375.0,0.798816
1380.0,0.798156
1385.0,0.799342
1390.0,0.800097
1395.0,0.798965
1400.0,0.798218
1405.0,0.798537
1410.0,0.797949
1415.0,0.798544
1420.0,0.798916
1425.0,0.80109
1430.0,0.802616
1435.0,0.803798
1440.0,0.804338
1445.0,0.805615
1450.0,0.805469
1455.0,0.805635
1460.0,0.806531
1465.0,0.806827
1470.0,0.807594
1475.0,0.807246
1480.0,0.80867
1485.0,0.808192
1490.0,0.808768
1495.0,0.807414
1500.0,0.808175
1505.0,0.808116
1510.0,0.809136
1515.0,0.810013
1520.0,0.811265
1525.0,0.812095
1530.0,0.810818
1535.0,0.810038
1540.0,0.809829
1545.0,0.81032
1550.0,0.809836
1555.0,0.810979
1560.0,0.812115
1565.0,0.812026
1570.0,0.812591
1575.0,0.812687
1580.0,0.812733
1585.0,0.812704
1590.0,0.813212
1595.0,0.8129
1600.0,0.813951
1605.0,0.815402
1610.0,0.815513
1615.0,0.816286
1620.0,0.816731
1625.0,0.816323
1630.0,0.815253
1635.0,0.815281
1640.0,0.814936
1645.0,0.813714
1650.0,0.813013
1655.0,0.813726
1660.0,0.814296
1665.0,0.81575
1670.0,0.816192
1675.0,0.816021
1680.0,0.814836
1685.0,0.815116
1690.0,0.813473
1695.0,0.812659
1700.0,0.814194
1705.0,0.815504
1710.0,0.814745
1715.0,0.816613
1720.0,0.817117
1725.0,0.815996
1730.0,0.815684
1735.0,0.815907
1740.0,0.814596
1745.0,0.81557
1750.0,0.815654
1755.0,0.815949
1760.0,0.816403
1765.0,0.816064
1770.0,0.814974
1775.0,0.8152
1780.0,0.815793
1785.0,0.81708
1790.0,0.818796
1795.0,0.819645
1800.0,0.818791
1805.0,0.81761
1810.0,0.816219
1815.0,0.814559
1820.0,0.813663
1825.0,0.814809
1830.0,0.81765
1835.0,0.816912
1840.0,0.818827
1845.0,0.819098
1850.0,0.819635
1855.0,0.817919
1860.0,0.817692
1865.0,0.818902
1870.0,0.819589
1875.0,0.818794
1880.0,0.816001
1885.0,0.816472
1890.0,0.813228
1895.0,0.812266
1900.0,0.810664
1905.0,0.809913
1910.0,0.809576
1915.0,0.81024
1920.0,0.809022
1925.0,0.80846
1930.0,0.810187
1935.0,0.809852
1940.0,0.809126
1945.0,0.80877
1950.0,0.810794
1955.0,0.809383
1960.0,0.809257
1965.0,0.80898
1970.0,0.809583
1975.0,0.808927
1980.0,0.81141
1985.0,0.811628
1990.0,0.813583
1995.0,0.81574
2000.0,0.817275
2005.0,0.816807
2010.0,0.819579
2015.0,0.820563
2020.0,0.821054
2025.0,0.820634
2030.0,0.820577
2035.0,0.819916
2040.0,0.818181
2045.0,0.817829
2050.0,0.818448
2055.0,0.819408
2060.0,0.819174
2065.0,0.820275
2070.0,0.821073
2075.0,0.819568
2080.0,0.818826
2085.0,0.81822
2090.0,0.817597
2095.0,0.815124
2100.0,0.817296
2105.0,0.818144
2110.0,0.818246
2115.0,0.818193
2120.0,0.818417
2125.0,0.818227
2130.0,0.816925
2135.0,0.818973
2140.0,0.819596
2145.0,0.820064
2150.0,0.818873
2155.0,0.818055
2160.0,0.81557
2165.0,0.813773
2170.0,0.812926
2175.0,0.811791
2180.0,0.812626
2185.0,0.808084
2190.0,0.806053
2195.0,0.804098
2200.0,0.803272
2205.0,0.801401
2210.0,0.804702
2215.0,0.806008
2220.0,0.806239
2225.0,0.805513
2230.0,0.806926
2235.0,0.806698
2240.0,0.807256
2245.0,0.807321
2250.0,0.808869
2255.0,0.80804
2260.0,0.810211
2265.0,0.812028
2270.0,0.813682
2275.0,0.815774
2280.0,0.817162
2285.0,0.815606
2290.0,0.8147
2295.0,0.815999
2300.0,0.813842
2305.0,0.813384
2310.0,0.81347
2315.0,0.815829
2320.0,0.812776
2325.0,0.811725
2330.0,0.811707
2335.0,0.810827
2340.0,0.807182
2345.0,0.809946
2350.0,0.811295
2355.0,0.810365
2360.0,0.812515
2365.0,0.811874
2370.0,0.811716
2375.0,0.809981
2380.0,0.811016
2385.0,0.810149
2390.0,0.812141
2395.0,0.808066
2400.0,0.808993
2405.0,0.807943
2410.0,0.805071
2415.0,0.802805
2420.0,0.803409
2425.0,0.803769
2430.0,0.80344
2435.0,0.802106
2440.0,0.802412
2445.0,0.804632
2450.0,0.80438
2455.0,0.803643
2460.0,0.805597
2465.0,0.803217
2470.0,0.802252
2475.0,0.800063
2480.0,0.800651
2485.0,0.800008
2490.0,0.802723
2495.0,0.802702
2500.0,0.805422
2505.0,0.805284
2510.0,0.804197
2515.0,0.800948
2520.0,0.802044
2525.0,0.802193
2530.08,0.800617
2535.03,0.803621
2540.0,0.805587
2544.99,0.805502
2549.99,0.805492
2552.5,0.804185
2553.76,0.804088
2555.02,0.806766
2556.28,0.806701
2557.54,0.805287
2558.8,0.805347
2560.07,0.804488
2561.33,0.800021
2562.6,0.799715
2563.86,0.803582
2565.13,0.80503
2566.4,0.807425
2567.67,0.80818
2568.95,0.804117
2570.22,0.800674
2571.5,0.804192
2572.77,0.805154
2574.05,0.799328
2575.33,0.804785
2576.61,0.80627
2577.89,0.802442
2579.17,0.806679
2580.46,0.806265
2581.74,0.801006
2583.03,0.8021
2584.31,0.798565
2585.6,0.803575
2586.89,0.808028
2588.19,0.802393
2589.48,0.804013
2590.77,0.806016
2592.07,0.804977
2593.36,0.799938
2594.66,0.789464
2595.96,0.790147
2597.26,0.812015
2598.56,0.814199
2599.87,0.8062
2601.17,0.801606
2602.48,0.799519
2603.78,0.799919
2605.09,0.797461
2606.4,0.795907
2607.71,0.803524
2609.03,0.805945
2610.34,0.802987
2611.65,0.803427
2612.97,0.802202
2614.29,0.799781
2615.61,0.800338
2616.93,0.794684
2618.25,0.796471
2619.57,0.804606
2620.9,0.798009
2622.22,0.80212
2623.55,0.807967
2624.88,0.803059
2626.21,0.796682
2627.54,0.793178
2628.87,0.801008
2630.21,0.797188
2631.54,0.793268
2632.88,0.804425
2634.21,0.802926
2635.55,0.800243
2636.89,0.801844
2638.24,0.799904
2639.58,0.79882
2640.92,0.798425
2642.27,0.797338
2643.62,0.797188
2644.97,0.797541
2646.32,0.796316
2647.67,0.798916
2649.02,0.800238
2650.38,0.798701
2651.73,0.796258
2653.09,0.793253
2654.45,0.796076
2655.81,0.797069
2657.17,0.796476
2658.53,0.797243
2659.89,0.792803
2661.26,0.79289
2662.63,0.79535
2664.0,0.793602
2665.36,0.784847
2666.74,0.783568
2668.11,0.792491
2669.48,0.797234
2670.86,0.7845
2672.23,0.790713
2673.61,0.800376
2674.99,0.791043
2676.37,0.78221
2677.76,0.780849
2679.14,0.786123
2680.52,0.787423
2681.91,0.789939
2683.3,0.784505
2684.69,0.780108
2686.08,0.779752
2687.47,0.778217
2688.87,0.776866
2690.26,0.775711
2691.66,0.772755
2693.06,0.766593
2694.46,0.759196
2695.86,0.760128
2697.26,0.761312
2698.66,0.757603
2700.07,0.750499
2701.48,0.74317
2702.89,0.740032
2704.3,0.739366
2705.71,0.734429
2707.12,0.729466
2708.53,0.723427
2709.95,0.717004
2711.37,0.71189
2712.79,0.713285
2714.21,0.712471
2715.63,0.70244
2717.05,0.69199
2718.48,0.681944
2719.9,0.670918
2721.33,0.657534
2722.76,0.655943
2724.19,0.646047
2725.62,0.630166
2727.06,0.624457
2728.49,0.614876
2729.93,0.602029
2731.37,0.590606
2732.81,0.580819
2734.25,0.571769
2735.69,0.563854
2737.14,0.560946
2738.58,0.554772
2740.03,0.544997
2741.48,0.541436
2742.93,0.541358
2744.38,0.537971
2745.83,0.531223
2747.29,0.525644
2748.75,0.520993
2750.2,0.516979
2751.66,0.512238
2753.13,0.50734
2754.59,0.501715
2756.05,0.494715
2757.52,0.497824
2758.99,0.500909
2760.46,0.4978
2761.93,0.495977
2763.4,0.495844
2764.87,0.500807
2766.35,0.506086
2767.82,0.508194
2769.3,0.512446
2770.78,0.517804
2772.26,0.522589
2773.75,0.529891
2775.23,0.535368
2776.72,0.539351
2778.21,0.544617
2779.7,0.550939
2781.19,0.556164
2782.68,0.561176
2784.18,0.56741
2785.67,0.572299
2787.17,0.574248
2788.67,0.579836
2790.17,0.587853
2791.67,0.5908
2793.18,0.592657
2794.68,0.595199
2796.19,0.597238
2797.7,0.599083
2799.21,0.600782
2800.72,0.602068
2802.24,0.601264
2803.75,0.600615
2805.27,0.604148
2806.79,0.606806
2808.31,0.606121
2809.83,0.605981
2811.35,0.60591
2812.88,0.605392
2814.41,0.604714
2815.93,0.60478
2817.46,0.60576
2819.0,0.604978
2820.53,0.60377
2822.07,0.604572
2823.6,0.605726
2825.14,0.605429
2826.68,0.604245
2828.22,0.603148
2829.77,0.602978
2831.31,0.603402
2832.86,0.60271
2834.41,0.60185
2835.96,0.601659
2837.51,0.601739
2839.07,0.601034
2840.62,0.601315
2842.18,0.600635
2843.74,0.600087
2845.3,0.599531
2846.86,0.598908
2848.43,0.5984
2849.99,0.597884
2851.56,0.598095
2853.13,0.597848
2854.7,0.597172
2856.27,0.597196
2857.85,0.596991
2859.42,0.596361
2861.0,0.595683
2862.58,0.595548
2864.16,0.595327
2865.75,0.5951
2867.33,0.594642
2868.92,0.594289
2870.51,0.594286
2872.1,0.594059
2873.69,0.593516
2875.28,0.593453
2876.88,0.592954
2878.48,0.592301
2880.07,0.591858
2881.68,0.591654
2883.28,0.591189
2884.88,0.590773
2886.49,0.590417
2888.1,0.589918
2889.71,0.589734
2891.32,0.589945
2892.93,0.589749
2894.55,0.589202
2896.16,0.588841
2897.78,0.588248
2899.4,0.58762
2901.03,0.58732
2902.65,0.587344
2904.28,0.587347
2905.91,0.586836
2907.53,0.586637
2909.17,0.586393
2910.8,0.586579
2912.44,0.586415
2914.07,0.586093
2915.71,0.58632
2917.35,0.586095
2918.99,0.585858
2920.64,0.585972
2922.29,0.585536
2923.93,0.58532
2925.58,0.585282
2927.24,0.58572
2928.89,0.585734
2930.55,0.585926
2932.2,0.586221
2933.86,0.586049
2935.52,0.585761
2937.19,0.586035
2938.85,0.586112
2940.52,0.586253
2942.19,0.586337
2943.86,0.586398
2945.53,0.586829
2947.21,0.587078
2948.88,0.587117
2950.56,0.58742
2952.24,0.587412
2953.92,0.587558
2955.61,0.588107
2957.29,0.588979
2958.98,0.589492
2960.67,0.589628
2962.36,0.589393
2964.06,0.589696
2965.75,0.59049
2967.45,0.591122
2969.15,0.591216
2970.85,0.591536
2972.55,0.592294
2974.26,0.592986
2975.97,0.593574
2977.68,0.593875
2979.39,0.594216
2981.1,0.594749
2982.82,0.595211
2984.53,0.595676
2986.25,0.59655
2987.97,0.597427
2989.7,0.598119
2991.42,0.598618
2993.15,0.598908
2994.88,0.599627
2996.61,0.600022
2998.34,0.600455
3000.08,0.601092
3001.82,0.601681
3003.55,0.602184
3005.3,0.603003
3007.04,0.603816
3008.78,0.604218
3010.53,0.605155
3012.28,0.606029
3014.03,0.606564
3015.79,0.607206
3017.54,0.60776
3019.3,0.607995
3021.06,0.608584
3022.82,0.609337
3024.58,0.61
3026.35,0.610818
3028.12,0.611133
3029.89,0.611445
3031.66,0.612334
3033.43,0.612997
3035.21,0.613404
3036.99,0.614019
3038.77,0.614259
3040.55,0.614884
3042.33,0.615576
3044.12,0.616208
3045.91,0.617106
3047.7,0.618063
3049.49,0.618508
3051.29,0.618905
3053.08,0.619276
3054.88,0.619971
3056.68,0.620017
3058.49,0.620695
3060.29,0.621452
3062.1,0.621978
3063.91,0.622682
3065.72,0.62323
3067.54,0.623653
3069.35,0.623823
3071.17,0.624469
3072.99,0.625058
3074.81,0.625745
3076.64,0.626719
3078.46,0.626794
3080.29,0.627488
3082.13,0.627968
3083.96,0.628617
3085.79,0.629517
3087.63,0.629982
3089.47,0.630425
3091.31,0.631186
3093.16,0.631922
3095.01,0.632697
3096.85,0.632973
3098.71,0.633546
3100.56,0.634353
3102.41,0.635031
3104.27,0.635624
3106.13,0.636665
3107.99,0.637711
3109.86,0.638701
3111.73,0.639275
3113.59,0.639723
3115.47,0.64026
3117.34,0.641198
3119.21,0.642161
3121.09,0.642788
3122.97,0.643502
3124.86,0.644527
3126.74,0.645427
3128.63,0.64613
3130.52,0.646805
3132.41,0.647633
3134.3,0.648309
3136.2,0.649105
3138.1,0.650166
3140.0,0.651003
3141.9,0.651999
3143.81,0.653016
3145.71,0.653848
3147.62,0.65466
3149.54,0.655156
3151.45,0.655902
3153.37,0.657226
3155.29,0.65825
3157.21,0.658773
3159.13,0.659771
3161.06,0.660642
3162.99,0.661243
3164.92,0.661986
3166.85,0.662875
3168.79,0.663802
3170.72,0.664909
3172.67,0.665671
3174.61,0.666647
3176.55,0.667652
3178.5,0.66863
3180.45,0.669458
3182.4,0.670441
3184.36,0.671204
3186.32,0.671974
3188.27,0.672795
3190.24,0.673361
3192.2,0.67416
3194.17,0.675245
3196.14,0.676017
3198.11,0.676809
3200.08,0.677707
3202.06,0.678509
3204.04,0.679296
3206.02,0.680121
3208.0,0.680647
3209.99,0.681404
3211.98,0.682262
3213.97,0.683162
3215.96,0.684022
3217.96,0.684729
3219.96,0.685528
3221.96,0.686295
3223.96,0.687029
3225.97,0.687775
3227.98,0.688535
3229.99,0.68922
3232.0,0.689792
3234.02,0.690719
3236.04,0.69176
3238.06,0.692629
3240.08,0.692859
3242.11,0.693411
3244.14,0.694113
3246.17,0.694806
3248.2,0.695385
3250.24,0.696314
3252.28,0.697164
3254.32,0.697816
3256.37,0.698506
3258.41,0.699
3260.46,0.699404
3262.51,0.700196
3264.57,0.700895
3266.63,0.701576
3268.69,0.702072
3270.75,0.702726
3272.81,0.703346
3274.88,0.70413
3276.95,0.70474
3279.02,0.705486
3281.1,0.706096
3283.18,0.706534
3285.26,0.707384
3287.34,0.708137
3289.43,0.708677
3291.51,0.709292
3293.61,0.709951
3295.7,0.710391
3297.8,0.711002
3299.89,0.711653
3302.0,0.712178
3304.1,0.712861
3306.21,0.713171
3308.32,0.713556
3310.43,0.714219
3312.55,0.714723
3314.66,0.715108
3316.78,0.715892
3318.91,0.716251
3321.03,0.716723
3323.16,0.716987
3325.29,0.717326
3327.43,0.717754
3329.57,0.718294
3331.71,0.718505
3333.85,0.718476
3335.99,0.718718
3338.14,0.719072
3340.29,0.719135
3342.45,0.719025
3344.6,0.718585
3346.76,0.718239
3348.92,0.717776
3351.09,0.717365
3353.26,0.716851
3355.43,0.71603
3357.6,0.714948
3359.78,0.713847
3361.96,0.712781
3364.14,0.711934
3366.32,0.710561
3368.51,0.709065
3370.7,0.707663
3372.89,0.705881
3375.09,0.704547
3377.29,0.703907
3379.49,0.703711
3381.69,0.703784
3383.9,0.704254
3386.11,0.705128
3388.32,0.705815
3390.54,0.706268
3392.76,0.706203
3394.98,0.705404
3397.21,0.703522
3399.43,0.700571
3401.66,0.696811
3403.9,0.692593
3406.13,0.68768
3408.37,0.682545
3410.61,0.677477
3412.86,0.672647
3415.11,0.668105
3417.36,0.664729
3419.61,0.663059
3421.87,0.663916
3424.13,0.667093
3426.39,0.672395
3428.66,0.679083
3430.93,0.686184
3433.2,0.692508
3435.48,0.698108
3437.76,0.702888
3440.04,0.706885
3442.32,0.710038
3444.61,0.71275
3446.9,0.715113
3449.19,0.717575
3451.49,0.719682
3453.79,0.721759
3456.09,0.723575
3458.4,0.725512
3460.7,0.727209
3463.02,0.729069
3465.33,0.730258
3467.65,0.73096
3469.97,0.731526
3472.29,0.731945
3474.62,0.731853
3476.95,0.731444
3479.29,0.731214
3481.62,0.731306
3483.96,0.730916
3486.3,0.730364
3488.65,0.729609
3491.0,0.72818
3493.35,0.72581
3495.71,0.722444
3498.07,0.718205
3500.43,0.713834
3502.79,0.710447
3505.16,0.709467
3507.53,0.711411
3509.91,0.716411
3512.29,0.72328
3514.67,0.730708
3517.05,0.737596
3519.44,0.743332
3521.83,0.747347
3524.22,0.750584
3526.62,0.753286
3529.02,0.755293
3531.43,0.756654
3533.83,0.75801
3536.24,0.759153
3538.66,0.760269
3541.08,0.761315
3543.5,0.76207
3545.92,0.762748
3548.35,0.7637
3550.78,0.764319
3553.21,0.764968
3555.65,0.765622
3558.09,0.766266
3560.53,0.767046
3562.98,0.767779
3565.43,0.768235
3567.88,0.768574
3570.34,0.768779
3572.8,0.76959
3575.27,0.770179
3577.73,0.770753
3580.2,0.771227
3582.68,0.771622
3585.16,0.772007
3587.64,0.772479
3590.12,0.772767
3592.61,0.773152
3595.1,0.773617
3597.6,0.774242
3600.09,0.774552
3602.6,0.774636
3605.1,0.774854
3607.61,0.775418
3610.12,0.775728
3612.64,0.77606
3615.16,0.776614
3617.68,0.776891
3620.21,0.777142
3622.74,0.777532
3625.27,0.777818
3627.81,0.777961
3630.35,0.778263
3632.89,0.778513
3635.44,0.778673
3637.99,0.779225
3640.54,0.779687
3643.1,0.779936
3645.66,0.780033
3648.23,0.780157
3650.8,0.780297
3653.37,0.780636
3655.95,0.780968
3658.53,0.781387
3661.11,0.781421
3663.7,0.781428
3666.29,0.781735
3668.89,0.7822
3671.48,0.782648
3674.09,0.783002
3676.69,0.783106
3679.3,0.783263
3681.91,0.783547
3684.53,0.78376
3687.15,0.784128
3689.78,0.784498
3692.4,0.784827
3695.04,0.785135
3697.67,0.785319
3700.31,0.785488
3702.95,0.785549
3705.6,0.785912
3708.25,0.786401
3710.91,0.786578
3713.56,0.786578
3716.23,0.786922
3718.89,0.787362
3721.56,0.78767
3724.23,0.787822
3726.91,0.788149
3729.59,0.788321
3732.28,0.788505
3734.97,0.78898
3737.66,0.789343
3740.36,0.789798
3743.06,0.790009
3745.76,0.790159
3748.47,0.790437
3751.18,0.790507
3753.9,0.7909
3756.62,0.791282
3759.34,0.79167
3762.07,0.792047
3764.8,0.792491
3767.54,0.792854
3770.28,0.793018
3773.02,0.793137
3775.77,0.793222
3778.52,0.793527
3781.28,0.793815
3784.04,0.794185
3786.8,0.79459
3789.57,0.794674
3792.34,0.794796
3795.12,0.794948
3797.9,0.795207
3800.69,0.795466
3803.47,0.795633
3806.27,0.795912
3809.06,0.796386
3811.86,0.796565
3814.67,0.796732
3817.48,0.796897
3820.29,0.796929
3823.11,0.796914
3825.93,0.797234
3828.76,0.797473
3831.59,0.797715
3834.42,0.797948
3837.26,0.798125
3840.1,0.798183
3842.95,0.798357
3845.8,0.798607
3848.65,0.798878
3851.51,0.798933
3854.38,0.798965
3857.24,0.799105
3860.12,0.799454
3862.99,0.799674
3865.87,0.799982
3868.76,0.800091
3871.65,0.800238
3874.54,0.800236
3877.44,0.800454
3880.34,0.800597
3883.25,0.800895
3886.16,0.800858
3889.07,0.800987
3891.99,0.801146
3894.92,0.801166
3897.85,0.801088
3900.78,0.801335
3903.72,0.80149
3906.66,0.801602
3909.6,0.801737
3912.55,0.801887
3915.51,0.802054
3918.47,0.801974
3921.43,0.801868
3924.4,0.802207
3927.37,0.802364
3930.35,0.802422
3933.33,0.802422
3936.32,0.802461
3939.31,0.802335
3942.31,0.802219
3945.31,0.802323
3948.31,0.802258
3951.32,0.802081
3954.34,0.802042
3957.35,0.802023
3960.38,0.802158
3963.41,0.802064
3966.44,0.802108
3969.48,0.802134
3972.52,0.802386
3975.56,0.80257
3978.61,0.802478
3981.67,0.802422
3984.73,0.802505
3987.8,0.802689
3990.87,0.802987
3993.94,0.803064
3997.02,0.803396
4000.1,0.803735
4003.19,0.804011
4006.29,0.803965
4009.39,0.804509
4012.49,0.804945
4015.6,0.805192
4018.71,0.805241
4021.83,0.805384
4024.95,0.805592
4028.08,0.805669
4031.21,0.805672
4034.35,0.80588
4037.49,0.805991
4040.64,0.806117
4043.79,0.806284
4046.94,0.806446
4050.11,0.806512
4053.27,0.806652
4056.44,0.806553
4059.62,0.806725
4062.8,0.806965
4065.99,0.807013
4069.18,0.806761
4072.38,0.806744
4075.58,0.806725
4078.78,0.806744
4082.0,0.806829
4085.21,0.807037
4088.43,0.806962
4091.66,0.806907
4094.89,0.806778
4098.13,0.806858
4101.37,0.806953
4104.62,0.807035
4107.87,0.806994
4111.13,0.807054
4114.39,0.807207
4117.66,0.807294
4120.93,0.807175
4124.21,0.807047
4127.5,0.806766
4130.78,0.806512
4134.08,0.806466
4137.38,0.806575
4140.68,0.806618
4143.99,0.806614
4147.31,0.80657
4150.63,0.806449
4153.95,0.806294
4157.29,0.806255
4160.62,0.806154
4163.96,0.805936
4167.31,0.805788
4170.66,0.805805
4174.02,0.805616
4177.39,0.805463
4180.75,0.805236
4184.13,0.805052
4187.51,0.804631
4190.89,0.804483
4194.28,0.804323
4197.68,0.804023
4201.08,0.803577
4204.49,0.803168
4207.9,0.802657
4211.32,0.802185
4214.74,0.801708
4218.17,0.801238
4221.61,0.800812
4225.05,0.800473
4228.5,0.800117
4231.95,0.799822
4235.4,0.799556
4238.87,0.799338
4242.34,0.798837
4245.81,0.798488
4249.29,0.798154
4252.78,0.797747
4256.27,0.796924
4259.77,0.795231
4263.27,0.793132
4266.78,0.792348
4270.29,0.792089
4273.81,0.791759
4277.34,0.791222
4280.87,0.790965
4284.41,0.790539
4287.95,0.789636
4291.5,0.788592
4295.06,0.787895
4298.62,0.787067
4302.19,0.786195
4305.76,0.785082
4309.34,0.784174
4312.92,0.783043
4316.52,0.781958
4320.11,0.780789
4323.72,0.779719
4327.32,0.778631
4330.94,0.777353
4334.56,0.776101
4338.19,0.775024
4341.82,0.773961
4345.46,0.772862
4349.11,0.771651
4352.76,0.770629
4356.42,0.76954
4360.08,0.768472
4363.75,0.767322
4367.43,0.766266
4371.11,0.764922
4374.8,0.763874
4378.49,0.762847
4382.19,0.761918
4385.9,0.760971
4389.61,0.75991
4393.33,0.758654
4397.06,0.757562
4400.79,0.756446
4404.53,0.755431
4408.28,0.754182
4412.03,0.753058
4415.79,0.751962
4419.55,0.750981
4423.32,0.749937
4427.1,0.749029
4430.88,0.748032
4434.67,0.747204
4438.47,0.746245
4442.27,0.74533
4446.08,0.744371
4449.9,0.743257
4453.72,0.742056
4457.55,0.740843
4461.39,0.739705
4465.23,0.738371
4469.08,0.736914
4472.94,0.735558
4476.8,0.73386
4480.67,0.732396
4484.55,0.730735
4488.43,0.729071
4492.32,0.727335
4496.21,0.725604
4500.12,0.723701
4504.03,0.721875
4507.94,0.720108
4511.87,0.718137
4515.8,0.715992
4519.73,0.714047
4523.68,0.712217
4527.63,0.710399
4531.59,0.708626
4535.55,0.706793
4539.52,0.704917
4543.5,0.703229
4547.49,0.701571
4551.48,0.700012
4555.48,0.698292
4559.49,0.696634
4563.5,0.694995
4567.52,0.693307
4571.55,0.691472
4575.58,0.689678
4579.62,0.688039
4583.67,0.686402
4587.73,0.684707
4591.79,0.683007
4595.86,0.681216
4599.94,0.679463
4604.03,0.677695
4608.12,0.675894
4612.22,0.673928
4616.33,0.671904
4620.44,0.669763
4624.56,0.667548
4628.69,0.665165
4632.83,0.662715
4636.97,0.660209
4641.12,0.657737
4645.28,0.655369
4649.45,0.653379
4653.62,0.651575
4657.8,0.649936
4661.99,0.648473
4666.19,0.64718
4670.39,0.646069
4674.6,0.644924
4678.82,0.643703
4683.05,0.642546
4687.28,0.641326
4691.52,0.639968
4695.77,0.638602
4700.03,0.637219
4704.3,0.635643
4708.57,0.634127
4712.85,0.632694
4717.14,0.631253
4721.43,0.629624
4725.74,0.628019
4730.05,0.626288
4734.37,0.62467
4738.7,0.622975
4743.03,0.621457
4747.38,0.619772
4751.73,0.618121
4756.09,0.616453
4760.45,0.614719
4764.83,0.613036
4769.21,0.611436
4773.6,0.609983
4778.0,0.608886
4782.41,0.60823
4786.83,0.608019
4791.25,0.608269
4795.68,0.609015
4800.13,0.610123
4804.57,0.61132
4809.03,0.612494
4813.5,0.613595
4817.97,0.614356
4822.45,0.614959
4826.94,0.615133
4831.44,0.614905
4835.95,0.614351
4840.46,0.613578
4844.99,0.612441
4849.52,0.611276
4854.06,0.609666
4858.61,0.607964
4863.17,0.606286
4867.73,0.604644
4872.31,0.602816
4876.89,0.601233
4881.48,0.599802
4886.08,0.598315
4890.69,0.596841
4895.31,0.595378
4899.94,0.593981
4904.57,0.592993
4909.22,0.592245
4913.87,0.592025
4918.53,0.592613
4923.21,0.593691
4927.88,0.59479
4932.57,0.595904
4937.27,0.596661
4941.98,0.59671
4946.69,0.596318
4951.42,0.595487
4956.15,0.593802
4960.89,0.591601
4965.65,0.589187
4970.41,0.586204
4975.18,0.582943
4979.96,0.579737
4984.75,0.576664
4989.54,0.57372
4994.35,0.570849
4999.17,0.568483
5003.99,0.566614
5008.83,0.565135
5013.67,0.563919
5018.52,0.562575
5023.39,0.561345
5028.26,0.560466
5033.14,0.559077
5038.03,0.557604
5042.93,0.556108
5047.84,0.554675
5052.76,0.553147
5057.69,0.551694
5062.63,0.550196
5067.58,0.548624
5072.54,0.547038
5077.51,0.545036
5082.49,0.542348
5087.47,0.539762
5092.47,0.537283
5097.48,0.534182
5102.5,0.531005
5107.52,0.52792
5112.56,0.525034
5117.61,0.522136
5122.66,0.519419
5127.73,0.516954
5132.81,0.514635
5137.89,0.512291
5142.99,0.50996
5148.1,0.507434
5153.22,0.505463
5158.34,0.50379
5163.48,0.501432
5168.63,0.499328
5173.79,0.497091
5178.96,0.49488
5184.13,0.492454
5189.32,0.490214
5194.52,0.488074
5199.73,0.485868
5204.95,0.483948
5210.19,0.482372
5215.43,0.479842
5220.68,0.47858
5225.94,0.476963
5231.22,0.475004
5236.5,0.473367
5241.79,0.47222
5247.1,0.471774
5252.42,0.471319
5257.74,0.471002
5263.08,0.471021
5268.43,0.470934
5273.79,0.470769
5279.16,0.470629
5284.54,0.470782
5289.93,0.470312
5295.34,0.469634
5300.75,0.470104
5306.18,0.469966
5311.61,0.469629
5317.06,0.469503
5322.52,0.469293
5327.99,0.469038
5333.47,0.468825
5338.96,0.468518
5344.47,0.467883
5349.98,0.466404
5355.51,0.465588
5361.05,0.465448
5366.6,0.463748
5372.16,0.461767
5377.73,0.45962
5383.32,0.457431
5388.91,0.454969
5394.52,0.452177
5400.14,0.449196
5405.77,0.446117
5411.41,0.44262
5417.07,0.439226
5422.74,0.43524
5428.41,0.43294
5434.1,0.431277
5439.81,0.42772
5445.52,0.424623
5451.25,0.42197
5456.98,0.419381
5462.73,0.41597
5468.5,0.413072
5474.27,0.411503
5480.06,0.408747
5485.86,0.406527
5491.67,0.404447
5497.49,0.401392
5503.33,0.398612
5509.18,0.395801
5515.04,0.39282
5520.91,0.389305
5526.8,0.386111
5532.69,0.382971
5538.61,0.379579
5544.53,0.375661
5550.47,0.371923
5556.41,0.368485
5562.38,0.365908
5568.35,0.363231
5574.34,0.360676
5580.34,0.358238
5586.35,0.358279
5592.38,0.358577
5598.42,0.357974
5604.47,0.357475
5610.54,0.357882
5616.61,0.357768
5622.71,0.357795
5628.81,0.357444
5634.93,0.356274
5641.06,0.354376
5647.21,0.353507
5653.36,0.35365
5659.54,0.352018
5665.72,0.351437
5671.92,0.350248
5678.13,0.348752
5684.36,0.348916
5690.6,0.348449
5696.85,0.347744
5703.12,0.348071
5709.4,0.34695
5715.69,0.346735
5722.0,0.347982
5728.33,0.348609
5734.66,0.349078
5741.01,0.349514
5747.38,0.349846
5753.76,0.350531
5760.15,0.351742
5766.56,0.349892
5772.98,0.351396
5779.41,0.354042
5785.86,0.353405
5792.33,0.353541
5798.81,0.353672
5805.3,0.353759
5811.81,0.354364
5818.33,0.353684
5824.87,0.352926
5831.42,0.355013
5837.99,0.355955
5844.57,0.355601
5851.17,0.354703
5857.78,0.353848
5864.41,0.352749
5871.05,0.352531
5877.7,0.351166
5884.38,0.348505
5891.06,0.350991
5897.76,0.349345
5904.48,0.349221
5911.21,0.349989
5917.96,0.348258
5924.73,0.347829
5931.5,0.347088
5938.3,0.345231
5945.11,0.347456
5951.93,0.349202
5958.78,0.347834
5965.63,0.347025
5972.51,0.345824
5979.39,0.346744
5986.3,0.345408
5993.22,0.344037
6000.16,0.344582
6007.11,0.343912
6014.08,0.341616
6021.06,0.341062
6028.06,0.341059
6035.08,0.339975
6042.12,0.338352
6049.17,0.335483
6056.23,0.336863
6063.32,0.339788
6070.42,0.336711
6077.53,0.33544
6084.67,0.33659
6091.82,0.336176
6098.98,0.334495
6106.17,0.333365
6113.37,0.331275
6120.58,0.330977
6127.82,0.331328
6135.07,0.329273
6142.34,0.327031
6149.63,0.325484
6156.93,0.32382
6164.25,0.32197
6171.59,0.321225
6178.94,0.319615
6186.32,0.3173
6193.71,0.317477
6201.12,0.317782
6208.54,0.316443
6215.99,0.315883
6223.45,0.315745
6230.93,0.315803
6238.43,0.315721
6245.95,0.315927
6253.48,0.316346
6261.03,0.316636
6268.6,0.316765
6276.19,0.31713
6283.8,0.317443
6291.43,0.317871
6299.07,0.31836
6306.73,0.318842
6314.42,0.319169
6322.12,0.319786
6329.83,0.320438
6337.57,0.321058
6345.33,0.320922
6353.11,0.322999
6360.9,0.324929
6368.72,0.32437
6376.55,0.325067
6384.4,0.327082
6392.27,0.327452
6400.17,0.327999
6408.08,0.327576
6416.01,0.326142
6423.96,0.329111
6431.93,0.330394
6439.92,0.32913
6447.93,0.328999
6455.96,0.327837
6464.01,0.327147
6472.08,0.325595
6480.17,0.323997
6488.28,0.322496
6496.41,0.320878
6504.56,0.321275
6512.73,0.320794
6520.92,0.318225
6529.14,0.317063
6537.37,0.31651
6545.63,0.314828
6553.9,0.313322
6562.2,0.312266
6570.51,0.310862
6578.85,0.309271
6587.21,0.309
6595.59,0.307123
6603.99,0.305748
6612.42,0.304206
6620.86,0.30262
6629.33,0.301034
6637.82,0.299003
6646.33,0.299044
6654.86,0.29984
6663.41,0.298555
6671.99,0.297259
6680.59,0.296281
6689.21,0.295882
6697.85,0.295443
6706.51,0.293833
6715.2,0.292058
6723.91,0.290976
6732.64,0.289676
6741.4,0.288293
6750.18,0.286666
6758.98,0.285344
6767.8,0.28416
6776.65,0.282744
6785.52,0.281453
6794.41,0.28025
6803.33,0.279848
6812.27,0.278996
6821.23,0.277403
6830.22,0.276059
6839.23,0.275398
6848.26,0.274204
6857.32,0.272202
6866.4,0.270173
6875.51,0.269558
6884.64,0.268577
6893.8,0.266357
6902.98,0.264372
6912.18,0.262411
6921.41,0.260607
6930.66,0.258556
6939.94,0.256711
6949.24,0.254728
6958.57,0.252532
6967.92,0.25058
6977.3,0.249409
6986.7,0.247675
6996.13,0.246041
7005.59,0.244411
7015.07,0.24307
7024.57,0.241431
7034.1,0.239932
7043.66,0.238051
7053.24,0.236232
7062.85,0.234382
7072.49,0.232363
7082.15,0.230082
7091.84,0.227688
7101.55,0.225022
7111.3,0.222189
7121.06,0.219262
7130.86,0.216431
7140.68,0.213388
7150.53,0.210204
7160.41,0.206749
7170.31,0.20341
7180.24,0.199834
7190.2,0.196439
7200.19,0.19297
7210.2,0.189493
7220.24,0.185948
7230.31,0.182733
7240.41,0.179403
7250.54,0.176108
7260.69,0.172837
7270.88,0.169786
7281.09,0.166535
7291.33,0.163382
7301.6,0.160043
7311.9,0.156852
7322.22,0.153496
7332.58,0.1503
7342.97,0.146937
7353.38,0.143627
7363.83,0.140371
7374.3,0.137296
7384.81,0.134042
7395.34,0.130904
7405.91,0.127621
7416.5,0.124606
7427.13,0.12142
7437.78,0.118386
7448.47,0.115309
7459.19,0.112316
7469.94,0.109147
7480.71,0.105861
7491.52,0.102275
7502.37,0.09881
7513.24,0.095278
7524.14,0.091685
7535.08,0.087772
7546.05,0.08398
7557.05,0.080043
7568.08,0.076351
7579.14,0.072559
7590.24,0.068947
7601.37,0.06516
7612.53,0.061601
7623.73,0.058168
7634.96,0.054901
7646.22,0.051589
7657.51,0.048563
7668.84,0.045667
7680.2,0.043117
7691.59,0.040415
7703.02,0.037977
7714.49,0.035614
7725.98,0.03358
7737.51,0.031636
7749.08,0.030033
7760.68,0.028476
7772.32,0.027464
7783.99,0.026818
7795.69,0.026503
7807.43,0.026261
7819.21,0.026508
7831.02,0.027072
7842.87,0.028275
7854.75,0.029989
7866.67,0.032299
7878.62,0.035076
7890.62,0.038752
7902.64,0.042875
7914.71,0.047834
7926.81,0.053558
7938.95,0.060102
7951.13,0.067075
7963.34,0.07486
7975.59,0.08322
7987.88,0.092271
8000.21,0.101735
8012.57,0.111808
8024.98,0.122158
8037.42,0.13264
8049.9,0.143242
8062.42,0.154044
8074.98,0.164808
8087.57,0.175755
8100.21,0.186628
8112.89,0.19756
8125.6,0.208093
8138.36,0.218533
8151.16,0.228797
8163.99,0.238888
8176.87,0.248467
8189.79,0.257365
8202.75,0.265502
8215.74,0.272384
8228.79,0.277836
8241.87,0.281972
8254.99,0.284337
8268.16,0.285112
8281.37,0.28456
8294.62,0.282746
8307.91,0.279807
8321.24,0.276275
8334.62,0.272374
8348.04,0.268037
8361.51,0.263335
8375.02,0.258466
8388.57,0.253329
8402.16,0.24814
8415.8,0.24291
8429.49,0.23769
8443.22,0.232596
8456.99,0.227748
8470.81,0.223099
8484.67,0.218736
8498.58,0.214618
8512.54,0.210872
8526.54,0.207141
8540.58,0.203671
8554.68,0.200207
8568.82,0.19681
8583.0,0.193362
8597.24,0.189861
8611.52,0.186171
8625.85,0.182411
8640.22,0.178658
8654.65,0.174973
8669.12,0.171254
8683.64,0.167978
8698.21,0.164467
8712.83,0.161215
8727.5,0.158368
8742.22,0.155678
8756.98,0.152903
8771.8,0.150153
8786.67,0.147501
8801.59,0.145107
8816.56,0.142693
8831.58,0.140623
8846.65,0.138596
8861.77,0.136521
8876.94,0.134448
8892.17,0.132676
8907.45,0.130991
8922.78,0.129599
8938.16,0.128265
8953.6,0.127127
8969.09,0.126214
8984.64,0.125328
9000.23,0.124475
9015.89,0.123601
9031.59,0.12272
9047.36,0.121899
9063.17,0.121146
9079.04,0.12081
9094.97,0.120601
9110.96,0.120635
9127.0,0.120885
9143.09,0.121013
9159.25,0.120899
9175.46,0.120684
9191.73,0.120572
9208.05,0.12057
9224.44,0.12034
9240.88,0.120277
9257.38,0.120246
9273.94,0.120473
9290.56,0.120815
9307.24,0.121354
9323.98,0.121812
9340.78,0.122768
9357.64,0.124076
9374.57,0.125289
9391.55,0.126553
9408.59,0.128127
9425.7,0.129865
9442.87,0.131998
9460.1,0.134616
9477.39,0.138027
9494.75,0.141993
9512.17,0.146305
9529.66,0.150467
9547.21,0.154123
9564.82,0.157242
9582.5,0.159545
9600.25,0.160992
9618.06,0.161922
9635.94,0.161951
9653.88,0.161503
9671.89,0.160782
9689.97,0.159017
9708.12,0.15646
9726.33,0.153404
9744.61,0.149804
9762.97,0.146342
9781.39,0.143347
9799.88,0.141482
9818.44,0.140889
9837.07,0.141673
9855.77,0.142857
9874.54,0.144397
9893.39,0.145702
9912.3,0.146303
9931.29,0.146245
9950.35,0.145877
9969.49,0.144707
9988.7,0.142945
10007.98,0.140882
10027.34,0.138981
10046.77,0.136821
10066.28,0.134686
10085.87,0.132589
10105.53,0.130788
10125.26,0.129085
10145.08,0.127563
10164.97,0.125863
10184.94,0.124425
10204.99,0.12295
10225.12,0.12148
10245.33,0.119994
10265.61,0.118803
10285.98,0.117691
10306.43,0.116679
10326.96,0.115568
10347.57,0.114764
10368.27,0.11418
10389.05,0.113752
10409.91,0.113156
10430.85,0.112875
10451.88,0.112771
10473.0,0.112752
10494.2,0.11295
10515.49,0.113251
10536.86,0.113282
10558.32,0.113425
10579.87,0.113759
10601.5,0.114316
10623.23,0.114592
10645.04,0.114982
10666.94,0.115408
10688.94,0.116096
10711.02,0.116892
10733.2,0.11781
10755.47,0.118725
10777.83,0.12002
10800.28,0.121311
10822.83,0.122737
10845.47,0.124398
10868.21,0.126412
10891.04,0.128284
10913.97,0.130223
10936.99,0.132349
10960.12,0.13494
10983.34,0.137628
11006.66,0.140485
11030.07,0.143136
11053.59,0.145949
11077.21,0.149194
11100.93,0.152678
11124.75,0.156266
11148.68,0.15991
11172.7,0.163389
11196.84,0.166745
11221.07,0.169888
11245.41,0.173007
11269.86,0.1759
11294.41,0.178406
11319.07,0.180561
11343.84,0.182539
11368.72,0.184072
11393.7,0.185343
11418.8,0.18634
11444.01,0.18736
11469.33,0.18827
11494.76,0.18866
11520.3,0.188921
11545.96,0.189251
11571.73,0.189667
11597.62,0.190229
11623.62,0.190558
11649.74,0.190933
11675.98,0.19134
11702.34,0.191672
11728.81,0.191943
11755.41,0.19227
11782.13,0.192638
11808.96,0.192882
11835.92,0.193306
11863.01,0.193587
11890.22,0.193481
11917.55,0.193335
11945.01,0.192938
11972.6,0.19235
12000.31,0.191226
12028.16,0.189689
12056.13,0.188059
12084.23,0.186452
12112.46,0.184563
12140.83,0.182079
12169.33,0.178818
12197.96,0.174791
12226.73,0.169917
12255.64,0.164431
12284.68,0.158077
12313.86,0.151278
12343.18,0.144596
12372.64,0.137654
12402.24,0.129993
12431.98,0.122393
12461.86,0.115035
12491.89,0.10788
12522.06,0.1009
12552.38,0.094331
12582.85,0.088421
12613.47,0.084038
12644.23,0.081259
12675.15,0.079855
12706.21,0.079276
12737.43,0.079392
12768.8,0.079513
12800.33,0.079598
12832.02,0.079801
12863.86,0.079913
12895.86,0.079576
12928.02,0.079194
12960.34,0.078964
12992.82,0.078886
13025.46,0.079414
13058.27,0.080809
13091.25,0.082295
13124.39,0.083513
13157.7,0.083808
13191.18,0.083542
13224.83,0.083293
13258.66,0.082944
13292.65,0.082409
13326.83,0.082007
13361.17,0.081695
13395.7,0.081804
13430.4,0.082358
13465.29,0.08353
13500.35,0.084637
13535.6,0.085583
13571.03,0.085772
13606.65,0.085462
13642.46,0.08468
13678.46,0.083704
13714.64,0.083019
13751.02,0.082426
13787.59,0.082365
13824.36,0.08338
13861.32,0.085123
13898.48,0.08714
13935.85,0.088876
13973.41,0.090556
14011.17,0.091784
14049.15,0.092794
14087.32,0.093748
14125.71,0.095142
14164.3,0.096145
14203.11,0.096505
14242.13,0.096726
14281.36,0.096769
14320.81,0.096728
14360.48,0.096498
14400.38,0.095982
14440.49,0.09553
14480.82,0.094597
14521.39,0.093685
14562.18,0.093217
14603.2,0.092552
14644.45,0.091479
14685.93,0.090866
14727.66,0.090646
14769.62,0.090336
14811.81,0.090017
14854.25,0.089811
14896.94,0.089941
14939.87,0.090014
14983.05,0.090443
15026.48,0.09169
15070.16,0.093075
15114.1,0.095268
15158.29,0.097818
15202.74,0.100111
15247.46,0.101997
15292.43,0.103488
15337.68,0.103447
15383.19,0.101646
15428.97,0.09837
15475.03,0.094043
15521.36,0.089753
15567.97,0.086106
15614.86,0.083641
15662.04,0.082857
15709.5,0.083041
15757.25,0.084007
15805.29,0.085581
15853.62,0.088377
15902.25,0.092072
15951.18,0.096154
16000.42,0.100861
16049.95,0.105595
16099.8,0.109849
16149.95,0.113413
16200.42,0.116001
16251.21,0.11811
16302.31,0.119691
16353.74,0.12112
16405.49,0.12241
16457.57,0.124672
16509.98,0.127727
16562.73,0.130647
16615.82,0.132136
16669.24,0.132681
16723.02,0.133148
16777.13,0.133277
16831.61,0.132642
16886.43,0.13203
16941.62,0.131112
16997.16,0.129826
17053.07,0.128279
17109.36,0.126856
17166.01,0.125734
17223.04,0.124599
17280.45,0.12289
17338.24,0.121166
17396.43,0.118987
17455.0,0.116708
17513.97,0.114696
17573.34,0.113653
17633.11,0.112486
17693.29,0.111282
17753.89,0.110193
17814.9,0.109214
17876.33,0.107425
17938.18,0.106365
18000.47,0.105614
18063.19,0.104948
18126.35,0.104764
18189.95,0.105241
18254.0,0.106224
18318.5,0.107696
18383.46,0.109297
18448.88,0.113609
18514.77,0.119551
18581.13,0.12473
18647.97,0.126885
18715.29,0.127461
18783.1,0.128127
18851.4,0.126403
18920.2,0.123497
18989.51,0.120996
19059.32,0.119856
19129.65,0.119233
19200.5,0.11805
19271.88,0.117282
19343.79,0.116238
19416.23,0.114832
19489.23,0.113292
19562.77,0.111844
19636.88,0.110367
19711.54,0.109176
19786.77,0.107825
19862.59,0.106977
19938.98,0.106679
20015.96,0.106103
20093.54,0.104379
20171.73,0.103101
20250.53,0.102266
20329.94,0.101764
20409.98,0.101503
20490.65,0.102556
20571.96,0.104803
20653.92,0.10826
20736.54,0.111931
20819.82,0.115781
20903.77,0.117495
20988.4,0.116897
21073.72,0.113975
21159.73,0.110805
21246.46,0.107224
21333.89,0.105517
21422.04,0.106951
21510.93,0.108747
21600.56,0.109069
21690.94,0.109224
21782.08,0.108527
21873.99,0.106629
21966.67,0.104488
22060.15,0.106367
22154.42,0.11104
22249.51,0.118163
22345.41,0.126308
22442.14,0.134417
22539.72,0.14155
22638.14,0.14824
22737.43,0.153772
22837.6,0.159138
22938.65,0.163256
23040.6,0.166266
23143.46,0.168912
23247.24,0.170685
23351.96,0.169723
23457.62,0.168932
23564.25,0.16636
23671.85,0.165048
23780.44,0.164341
23890.02,0.164663
24000.63,0.16398
24112.26,0.162544
24224.93,0.157201
24338.66,0.154143
24453.47,0.152353
24569.36,0.15299
24686.36,0.154838
24804.47,0.158765
24923.72,0.158867
25044.13,0.159518
25165.7,0.15822
25288.46,0.159014
25412.43,0.154608
25537.61,0.156457
25664.03,0.154424
25791.71,0.15601
25920.67,0.153174
