Database of Origin,University of Winnipeg Spectrophotometer Facility
Sample Description,"RELAB + Nicolet data. See Master phosphates, nitrates, etc. in HOSERLab database"
Date Added,2016-12-09 04:18:22.464044

Data ID,RLA_PNNB_01         
Sample ID,PHS101
Mineral Name,chlorapatite
Grain Size,<45um
Viewing Geometry,"30/0,30"
Resolution,"5,0.6-129"

Wavelength
305.0,0.354231
310.0,0.364578
315.0,0.379132
320.0,0.394897
325.0,0.409584
330.0,0.424031
335.0,0.438472
340.0,0.452677
345.0,0.466934
350.0,0.480524
355.0,0.495465
360.0,0.510895
365.0,0.526606
370.0,0.541428
375.0,0.556678
380.0,0.571433
385.0,0.587256
390.0,0.601586
395.0,0.616069
400.0,0.628113
405.0,0.637761
410.0,0.649266
415.0,0.658745
420.0,0.668294
425.0,0.677017
430.0,0.684712
435.0,0.691764
440.0,0.696841
445.0,0.700851
450.0,0.704951
455.0,0.708158
460.0,0.709933
465.0,0.711315
470.0,0.711604
475.0,0.712123
480.0,0.712413
485.0,0.713031
490.0,0.713652
495.0,0.714987
500.0,0.715244
505.0,0.716763
510.0,0.716891
515.0,0.71927
520.0,0.720731
525.0,0.721825
530.0,0.727928
535.0,0.734821
540.0,0.738962
545.0,0.744971
550.0,0.748952
555.0,0.75436
560.0,0.758001
565.0,0.761921
570.0,0.762114
575.0,0.754885
580.0,0.755492
585.0,0.757434
590.0,0.763549
595.0,0.768687
600.0,0.770808
605.0,0.773169
610.0,0.774157
615.0,0.775584
620.0,0.775556
625.0,0.776673
630.0,0.77656
635.0,0.778085
640.0,0.777711
645.0,0.778282
650.0,0.778202
655.0,0.77882
660.0,0.780096
665.0,0.780077
670.0,0.781197
675.0,0.78058
680.0,0.780965
685.0,0.781477
690.0,0.782283
695.0,0.782852
700.0,0.783697
705.0,0.783078
710.0,0.783921
715.0,0.784043
720.0,0.783896
725.0,0.785355
730.0,0.783824
735.0,0.778738
740.0,0.778431
745.0,0.773101
750.0,0.77339
755.0,0.778765
760.0,0.783037
765.0,0.785745
770.0,0.786475
775.0,0.78673
780.0,0.787393
785.0,0.786857
790.0,0.784456
795.0,0.78063
800.0,0.771866
805.0,0.770003
810.0,0.777338
815.0,0.783701
820.0,0.786008
825.0,0.7876
830.0,0.788594
835.0,0.789472
840.0,0.789634
845.0,0.789783
850.0,0.790179
855.0,0.78967
860.0,0.789721
865.0,0.787523
870.0,0.786219
875.0,0.790616
880.0,0.78832
885.0,0.789876
890.0,0.78921
895.0,0.784588
900.0,0.784891
905.0,0.786737
910.0,0.785116
915.0,0.785416
920.0,0.785558
925.0,0.78653
930.0,0.787832
935.0,0.790145
940.0,0.791262
945.0,0.792193
950.0,0.791866
955.0,0.791437
960.0,0.790936
965.0,0.790429
970.0,0.791456
975.0,0.791171
980.0,0.791344
985.0,0.79138
990.0,0.791967
995.0,0.791766
1000.0,0.792818
1005.0,0.793738
1010.0,0.793556
1015.0,0.792293
1020.0,0.791478
1025.0,0.79293
1030.0,0.793039
1035.0,0.79364
1040.0,0.794836
1045.0,0.79516
1050.0,0.793475
1055.0,0.793468
1060.0,0.793213
1065.0,0.793118
1070.0,0.792489
1075.0,0.793521
1080.0,0.793576
1085.0,0.794572
1090.0,0.79406
1095.0,0.793764
1100.0,0.793716
1105.0,0.792793
1110.0,0.79174
1115.0,0.791652
1120.0,0.792148
1125.0,0.793067
1130.0,0.794039
1135.0,0.793719
1140.0,0.794893
1145.0,0.795185
1150.0,0.794216
1155.0,0.794431
1160.0,0.795243
1165.0,0.795849
1170.0,0.796533
1175.0,0.796071
1180.0,0.795953
1185.0,0.795728
1190.0,0.795352
1195.0,0.795704
1200.0,0.798175
1205.0,0.798218
1210.0,0.798196
1215.0,0.797522
1220.0,0.798887
1225.0,0.79858
1230.0,0.798899
1235.0,0.798203
1240.0,0.798631
1245.0,0.79729
1250.0,0.797661
1255.0,0.797491
1260.0,0.798783
1265.0,0.798196
1270.0,0.799708
1275.0,0.798293
1280.0,0.798614
1285.0,0.797457
1290.0,0.798778
1295.0,0.798428
1300.0,0.800265
1305.0,0.800233
1310.0,0.801954
1315.0,0.801666
1320.0,0.80229
1325.0,0.801672
1330.0,0.801946
1335.0,0.80107
1340.0,0.80103
1345.0,0.799756
1350.0,0.800066
1355.0,0.799352
1360.0,0.799795
1365.0,0.799994
1370.0,0.801337
1375.0,0.801638
1380.0,0.801371
1385.0,0.799295
1390.0,0.799786
1395.0,0.798485
1400.0,0.797181
1405.0,0.798019
1410.0,0.800279
1415.0,0.800371
1420.0,0.800635
1425.0,0.799
1430.0,0.799736
1435.0,0.800809
1440.0,0.80087
1445.0,0.800701
1450.0,0.803517
1455.0,0.803008
1460.0,0.803836
1465.0,0.804643
1470.0,0.805588
1475.0,0.804237
1480.0,0.805689
1485.0,0.804826
1490.0,0.805034
1495.0,0.803611
1500.0,0.804473
1505.0,0.802903
1510.0,0.803024
1515.0,0.801845
1520.0,0.803061
1525.0,0.802978
1530.0,0.80406
1535.0,0.803621
1540.0,0.80436
1545.0,0.804808
1550.0,0.805436
1555.0,0.805382
1560.0,0.806155
1565.0,0.806347
1570.0,0.806731
1575.0,0.806337
1580.0,0.806191
1585.0,0.806586
1590.0,0.807234
1595.0,0.807
1600.0,0.807834
1605.0,0.807911
1610.0,0.808289
1615.0,0.808135
1620.0,0.808927
1625.0,0.80783
1630.0,0.808601
1635.0,0.808942
1640.0,0.809421
1645.0,0.808783
1650.0,0.809612
1655.0,0.809137
1660.0,0.809206
1665.0,0.808816
1670.0,0.809204
1675.0,0.809264
1680.0,0.81026
1685.0,0.808721
1690.0,0.809083
1695.0,0.80842
1700.0,0.80813
1705.0,0.808068
1710.0,0.809246
1715.0,0.809206
1720.0,0.80946
1725.0,0.809197
1730.0,0.809306
1735.0,0.80784
1740.0,0.807766
1745.0,0.807478
1750.0,0.807954
1755.0,0.808123
1760.0,0.809016
1765.0,0.809081
1770.0,0.809954
1775.0,0.80952
1780.0,0.809078
1785.0,0.809324
1790.0,0.809294
1795.0,0.808665
1800.0,0.808217
1805.0,0.807994
1810.0,0.808563
1815.0,0.809641
1820.0,0.810168
1825.0,0.810899
1830.0,0.811011
1835.0,0.810448
1840.0,0.809534
1845.0,0.808312
1850.0,0.807514
1855.0,0.806697
1860.0,0.806101
1865.0,0.806501
1870.0,0.808275
1875.0,0.8077
1880.0,0.80869
1885.0,0.809233
1890.0,0.807715
1895.0,0.806546
1900.0,0.806979
1905.0,0.805447
1910.0,0.80338
1915.0,0.803476
1920.0,0.803147
1925.0,0.80188
1930.0,0.803118
1935.0,0.803329
1940.0,0.802126
1945.0,0.801784
1950.0,0.802017
1955.0,0.799539
1960.0,0.798947
1965.0,0.800422
1970.0,0.799372
1975.0,0.800243
1980.0,0.80121
1985.0,0.80263
1990.0,0.801376
1995.0,0.802276
2000.0,0.802497
2005.0,0.802729
2010.0,0.802511
2015.0,0.803097
2020.0,0.80283
2025.0,0.802468
2030.0,0.802583
2035.0,0.802439
2040.0,0.803141
2045.0,0.803017
2050.0,0.803207
2055.0,0.804032
2060.0,0.804903
2065.0,0.804722
2070.0,0.805773
2075.0,0.806085
2080.0,0.806258
2085.0,0.80681
2090.0,0.807302
2095.0,0.807079
2100.0,0.805999
2105.0,0.806072
2110.0,0.806551
2115.0,0.807077
2120.0,0.808486
2125.0,0.809787
2130.0,0.809495
2135.0,0.807747
2140.0,0.806519
2145.0,0.804956
2150.0,0.804604
2155.0,0.804212
2160.0,0.804214
2165.0,0.804178
2170.0,0.802989
2175.0,0.803774
2180.0,0.804383
2185.0,0.805037
2190.0,0.806146
2195.0,0.808441
2200.0,0.80832
2205.0,0.80766
2210.0,0.807579
2215.0,0.806823
2220.0,0.807066
2225.0,0.806939
2230.0,0.807654
2235.0,0.807578
2240.0,0.808614
2245.0,0.807717
2250.0,0.807226
2255.0,0.808382
2260.0,0.807971
2265.0,0.808348
2270.0,0.807281
2275.0,0.806261
2280.0,0.802037
2285.0,0.800875
2290.0,0.797946
2295.0,0.795804
2300.0,0.791221
2305.0,0.789986
2310.0,0.788589
2315.0,0.789606
2320.0,0.793236
2325.0,0.799501
2330.0,0.804227
2335.0,0.806897
2340.0,0.808043
2345.0,0.807953
2350.0,0.806356
2355.0,0.805458
2360.0,0.805391
2365.0,0.804038
2370.0,0.801607
2375.0,0.801784
2380.0,0.79993
2385.0,0.799091
2390.0,0.798759
2395.0,0.800129
2400.0,0.801509
2405.0,0.800853
2410.0,0.802109
2415.0,0.803281
2420.0,0.803983
2425.0,0.802753
2430.0,0.804551
2435.0,0.803331
2440.0,0.802718
2445.0,0.800891
2450.0,0.801233
2455.0,0.799126
2460.0,0.798527
2465.0,0.797774
2470.0,0.799069
2475.0,0.799265
2480.0,0.802214
2485.0,0.802606
2490.0,0.802382
2495.0,0.80253
2500.0,0.803141
2505.62,0.802716
2510.48,0.803414
2515.35,0.8034
2520.24,0.801718
2525.15,0.803112
2530.08,0.803422
2535.03,0.804175
2540.0,0.803916
2544.99,0.801963
2549.99,0.80137
2552.5,0.799044
2553.76,0.798994
2555.02,0.800403
2556.28,0.800183
2557.54,0.798231
2558.8,0.797202
2560.07,0.795541
2561.33,0.793176
2562.6,0.79446
2563.86,0.796762
2565.13,0.797509
2566.4,0.799595
2567.67,0.79831
2568.95,0.793176
2570.22,0.790419
2571.5,0.793607
2572.77,0.793763
2574.05,0.789019
2575.33,0.791823
2576.61,0.792331
2577.89,0.791043
2579.17,0.793915
2580.46,0.792556
2581.74,0.789472
2583.03,0.790784
2584.31,0.788562
2585.6,0.792133
2586.89,0.794989
2588.19,0.792202
2589.48,0.793428
2590.77,0.79456
2592.07,0.793668
2593.36,0.789942
2594.66,0.783881
2595.96,0.785817
2597.26,0.799952
2598.56,0.80007
2599.87,0.79407
2601.17,0.789599
2602.48,0.789054
2603.78,0.789359
2605.09,0.786675
2606.4,0.786589
2607.71,0.79144
2609.03,0.79162
2610.34,0.78929
2611.66,0.789255
2612.97,0.788169
2614.29,0.786377
2615.61,0.78537
2616.93,0.781432
2618.25,0.782945
2619.57,0.787324
2620.9,0.782444
2622.22,0.785309
2623.55,0.788539
2624.88,0.784379
2626.21,0.780096
2627.54,0.778413
2628.87,0.782681
2630.21,0.779531
2631.54,0.777666
2632.88,0.784047
2634.21,0.782431
2635.55,0.780006
2636.89,0.780168
2638.24,0.778468
2639.58,0.777536
2640.92,0.777122
2642.27,0.77655
2643.62,0.776371
2644.97,0.776572
2646.32,0.775711
2647.67,0.777663
2649.02,0.778404
2650.38,0.776802
2651.73,0.775191
2653.09,0.77439
2654.45,0.776651
2655.81,0.778028
2657.17,0.777587
2658.53,0.777417
2659.89,0.77446
2661.26,0.775134
2662.63,0.777006
2664.0,0.776401
2665.36,0.771652
2666.74,0.772771
2668.11,0.779294
2669.48,0.781697
2670.86,0.773912
2672.23,0.779098
2673.61,0.785803
2674.99,0.779994
2676.37,0.774434
2677.76,0.774558
2679.14,0.779288
2680.52,0.780821
2681.91,0.782071
2683.3,0.778836
2684.69,0.77736
2686.08,0.778562
2687.47,0.77937
2688.87,0.780865
2690.26,0.781258
2691.66,0.78065
2693.06,0.778497
2694.46,0.776501
2695.86,0.780514
2697.26,0.783713
2698.66,0.783061
2700.07,0.780171
2701.48,0.777243
2702.89,0.776315
2704.3,0.777087
2705.71,0.775077
2707.12,0.772338
2708.53,0.768856
2709.95,0.764218
2711.37,0.759194
2712.79,0.757309
2714.21,0.751173
2715.63,0.735476
2717.05,0.710261
2718.48,0.664228
2719.9,0.588342
2721.33,0.526858
2722.76,0.545885
2724.19,0.597169
2725.62,0.6454
2727.06,0.689991
2728.49,0.708714
2729.93,0.706807
2731.37,0.687648
2732.81,0.658006
2734.25,0.652584
2735.69,0.674832
2737.14,0.700922
2738.58,0.709038
2740.03,0.707213
2741.48,0.710888
2742.93,0.716395
2744.38,0.71606
2745.83,0.715698
2747.29,0.719772
2748.75,0.726147
2750.2,0.73
2751.66,0.731677
2753.13,0.731952
2754.59,0.731276
2756.05,0.728571
2757.52,0.735163
2758.99,0.737994
2760.46,0.73328
2761.93,0.727995
2763.4,0.724556
2764.87,0.725232
2766.35,0.725352
2767.82,0.722609
2769.3,0.721103
2770.78,0.718852
2772.26,0.714688
2773.75,0.71075
2775.23,0.702987
2776.72,0.691161
2778.21,0.67719
2779.7,0.661427
2781.19,0.642496
2782.68,0.622354
2784.18,0.603412
2785.67,0.586085
2787.17,0.571039
2788.67,0.561994
2790.17,0.557173
2791.67,0.549652
2793.18,0.538234
2794.68,0.52352
2796.19,0.506137
2797.7,0.487304
2799.21,0.469407
2800.72,0.455129
2802.24,0.447711
2803.75,0.451721
2805.27,0.469294
2806.79,0.491928
2808.31,0.510673
2809.83,0.523737
2811.35,0.530625
2812.88,0.532268
2814.41,0.52952
2815.93,0.52373
2817.46,0.517479
2819.0,0.510387
2820.53,0.504002
2822.07,0.500754
2823.6,0.501048
2825.14,0.50487
2826.68,0.512203
2828.22,0.521201
2829.77,0.531321
2831.31,0.540833
2832.86,0.548807
2834.41,0.555085
2835.96,0.559693
2837.51,0.562546
2839.07,0.564258
2840.62,0.564952
2842.18,0.563824
2843.74,0.561098
2845.3,0.557545
2846.86,0.553408
2848.43,0.549555
2849.99,0.545359
2851.56,0.54276
2853.13,0.539839
2854.7,0.533246
2856.27,0.520326
2857.85,0.502467
2859.42,0.488143
2861.0,0.486146
2862.58,0.496755
2864.16,0.51365
2865.75,0.530324
2867.33,0.544409
2868.92,0.555723
2870.51,0.564786
2872.1,0.572104
2873.69,0.578805
2875.28,0.584752
2876.88,0.590006
2878.48,0.59393
2880.07,0.597842
2881.68,0.601192
2883.28,0.603007
2884.88,0.604833
2886.49,0.606439
2888.1,0.608203
2889.71,0.609997
2891.32,0.611308
2892.93,0.61255
2894.55,0.614217
2896.16,0.616134
2897.78,0.618055
2899.4,0.619547
2901.03,0.621211
2902.65,0.623454
2904.28,0.625808
2905.91,0.627407
2907.54,0.629015
2909.17,0.630405
2910.8,0.631492
2912.44,0.633043
2914.07,0.634484
2915.71,0.635415
2917.35,0.636943
2918.99,0.638387
2920.64,0.638907
2922.29,0.639527
2923.93,0.640014
2925.58,0.641027
2927.24,0.642366
2928.89,0.642975
2930.55,0.643092
2932.2,0.643975
2933.86,0.644891
2935.52,0.645409
2937.19,0.645894
2938.85,0.646343
2940.52,0.647084
2942.19,0.648103
2943.86,0.648633
2945.53,0.64942
2947.21,0.649781
2948.88,0.650263
2950.56,0.651014
2952.24,0.651162
2953.92,0.65109
2955.61,0.651842
2957.29,0.652706
2958.98,0.653037
2960.67,0.653515
2962.36,0.653925
2964.06,0.654213
2965.75,0.654685
2967.45,0.655098
2969.15,0.655679
2970.85,0.656272
2972.55,0.657351
2974.26,0.658128
2975.97,0.658704
2977.68,0.659188
2979.39,0.659732
2981.1,0.66017
2982.82,0.660414
2984.53,0.660811
2986.25,0.661389
2987.97,0.662008
2989.7,0.662994
2991.42,0.663965
2993.15,0.664469
2994.88,0.66457
2996.61,0.665
2998.34,0.665687
3000.08,0.66641
3001.82,0.667024
3003.55,0.667965
3005.3,0.668497
3007.04,0.668781
3008.78,0.66923
3010.53,0.669665
3012.28,0.669946
3014.03,0.670518
3015.79,0.671156
3017.54,0.671836
3019.3,0.672466
3021.06,0.672827
3022.82,0.673064
3024.58,0.673952
3026.35,0.6746
3028.12,0.67517
3029.89,0.675804
3031.66,0.676101
3033.43,0.676848
3035.21,0.677414
3036.99,0.677542
3038.77,0.678406
3040.55,0.679415
3042.33,0.680128
3044.12,0.680812
3045.91,0.681518
3047.7,0.682291
3049.49,0.682627
3051.29,0.68301
3053.08,0.683396
3054.88,0.683715
3056.68,0.684497
3058.49,0.685349
3060.29,0.686013
3062.1,0.686429
3063.91,0.686733
3065.72,0.687039
3067.54,0.687803
3069.35,0.688296
3071.17,0.688631
3072.99,0.689176
3074.81,0.689803
3076.64,0.690123
3078.47,0.690263
3080.29,0.690912
3082.13,0.691197
3083.96,0.691574
3085.79,0.691972
3087.63,0.692177
3089.47,0.692411
3091.31,0.692545
3093.16,0.692704
3095.01,0.693269
3096.85,0.693891
3098.71,0.693986
3100.56,0.694281
3102.41,0.695078
3104.27,0.695384
3106.13,0.695831
3107.99,0.696478
3109.86,0.696841
3111.73,0.696959
3113.59,0.697231
3115.47,0.697417
3117.34,0.69777
3119.21,0.698042
3121.09,0.697998
3122.97,0.698383
3124.86,0.698988
3126.74,0.699562
3128.63,0.700198
3130.52,0.700384
3132.41,0.700434
3134.3,0.70098
3136.2,0.701473
3138.1,0.701755
3140.0,0.702327
3141.9,0.703016
3143.81,0.703163
3145.71,0.70319
3147.62,0.703322
3149.54,0.703565
3151.45,0.704038
3153.37,0.704705
3155.29,0.704977
3157.21,0.705406
3159.13,0.706162
3161.06,0.706745
3162.99,0.707112
3164.92,0.707876
3166.85,0.708256
3168.79,0.70858
3170.72,0.70899
3172.67,0.709733
3174.61,0.710351
3176.55,0.711002
3178.5,0.711366
3180.45,0.711747
3182.4,0.712102
3184.36,0.712697
3186.32,0.713253
3188.27,0.713638
3190.24,0.714013
3192.2,0.71459
3194.17,0.715102
3196.14,0.715775
3198.11,0.716208
3200.08,0.716549
3202.06,0.716644
3204.04,0.716818
3206.02,0.717265
3208.0,0.717825
3209.99,0.718595
3211.98,0.719273
3213.97,0.719343
3215.96,0.719254
3217.96,0.719596
3219.96,0.720388
3221.96,0.720435
3223.96,0.720517
3225.97,0.720921
3227.98,0.721596
3229.99,0.722102
3232.0,0.722319
3234.02,0.722366
3236.04,0.722859
3238.06,0.72312
3240.08,0.723201
3242.11,0.723576
3244.14,0.724164
3246.17,0.724263
3248.2,0.724788
3250.24,0.725272
3252.28,0.725377
3254.32,0.725383
3256.37,0.725645
3258.41,0.725858
3260.46,0.726254
3262.51,0.726526
3264.57,0.72677
3266.63,0.727336
3268.69,0.727703
3270.75,0.727704
3272.81,0.728105
3274.88,0.728268
3276.95,0.728578
3279.02,0.728996
3281.1,0.729443
3283.18,0.729689
3285.26,0.729844
3287.34,0.730003
3289.43,0.730448
3291.51,0.730695
3293.61,0.730968
3295.7,0.730731
3297.8,0.730847
3299.9,0.731212
3302.0,0.731445
3304.1,0.731225
3306.21,0.731073
3308.32,0.731448
3310.43,0.731811
3312.55,0.732095
3314.66,0.732434
3316.79,0.732859
3318.91,0.733652
3321.03,0.7344
3323.16,0.734988
3325.29,0.735514
3327.43,0.73579
3329.57,0.735856
3331.71,0.736023
3333.85,0.736313
3335.99,0.736565
3338.14,0.736407
3340.29,0.736049
3342.45,0.735873
3344.6,0.735661
3346.76,0.734999
3348.92,0.73423
3351.09,0.733038
3353.26,0.731752
3355.43,0.730727
3357.6,0.729594
3359.78,0.728201
3361.96,0.727233
3364.14,0.726608
3366.32,0.725794
3368.51,0.724513
3370.7,0.72281
3372.89,0.721387
3375.09,0.720432
3377.29,0.719929
3379.49,0.719642
3381.69,0.719441
3383.9,0.719647
3386.11,0.720444
3388.32,0.721463
3390.54,0.722015
3392.76,0.721843
3394.98,0.720643
3397.21,0.718881
3399.43,0.71641
3401.66,0.713087
3403.9,0.708761
3406.13,0.704016
3408.37,0.699175
3410.61,0.694473
3412.86,0.689816
3415.11,0.68587
3417.36,0.682721
3419.61,0.681122
3421.87,0.681521
3424.13,0.684234
3426.39,0.688891
3428.66,0.695134
3430.93,0.702237
3433.2,0.709385
3435.48,0.716293
3437.76,0.722179
3440.04,0.72678
3442.32,0.730285
3444.61,0.7332
3446.9,0.735919
3449.19,0.738469
3451.49,0.740753
3453.79,0.742819
3456.09,0.744825
3458.4,0.746798
3460.7,0.748878
3463.02,0.75066
3465.33,0.751832
3467.65,0.752731
3469.97,0.753424
3472.29,0.753957
3474.62,0.754251
3476.95,0.754079
3479.29,0.753913
3481.62,0.754045
3483.96,0.754291
3486.3,0.754346
3488.65,0.754222
3491.0,0.75346
3493.35,0.751847
3495.71,0.749362
3498.07,0.745767
3500.43,0.741744
3502.79,0.738338
3505.16,0.736575
3507.53,0.73766
3509.91,0.742426
3512.29,0.749746
3514.67,0.757502
3517.05,0.764307
3519.44,0.769822
3521.83,0.774289
3524.23,0.777791
3526.62,0.780912
3529.02,0.783563
3531.43,0.785579
3533.83,0.787092
3536.24,0.788292
3538.66,0.789296
3541.08,0.790482
3543.5,0.791632
3545.92,0.792611
3548.35,0.793586
3550.78,0.794272
3553.21,0.795121
3555.65,0.796264
3558.09,0.796973
3560.53,0.79758
3562.98,0.798191
3565.43,0.798787
3567.88,0.799614
3570.34,0.800512
3572.8,0.801245
3575.27,0.801986
3577.73,0.802331
3580.2,0.803089
3582.68,0.804027
3585.16,0.804699
3587.64,0.805287
3590.12,0.805791
3592.61,0.806391
3595.1,0.807006
3597.6,0.807509
3600.09,0.808069
3602.6,0.808551
3605.1,0.80915
3607.61,0.809726
3610.12,0.810349
3612.64,0.810914
3615.16,0.811534
3617.68,0.811973
3620.21,0.81254
3622.74,0.813211
3625.27,0.813953
3627.81,0.814535
3630.35,0.814883
3632.89,0.815099
3635.44,0.815397
3637.99,0.815894
3640.54,0.81654
3643.1,0.817109
3645.66,0.817417
3648.23,0.817951
3650.8,0.818501
3653.37,0.818948
3655.95,0.819721
3658.53,0.820274
3661.11,0.820582
3663.7,0.820784
3666.29,0.82146
3668.89,0.821984
3671.48,0.822598
3674.09,0.823089
3676.69,0.823697
3679.3,0.824289
3681.91,0.824774
3684.53,0.825144
3687.15,0.825758
3689.78,0.826356
3692.4,0.826955
3695.04,0.827408
3697.67,0.827643
3700.31,0.828121
3702.95,0.828726
3705.6,0.82925
3708.25,0.829659
3710.91,0.829921
3713.56,0.830366
3716.23,0.830901
3718.89,0.831588
3721.56,0.831952
3724.23,0.832445
3726.91,0.833377
3729.59,0.833801
3732.28,0.834073
3734.97,0.834393
3737.66,0.834922
3740.36,0.835577
3743.06,0.835845
3745.76,0.83638
3748.47,0.836972
3751.18,0.837494
3753.9,0.837913
3756.62,0.838335
3759.34,0.838778
3762.07,0.839233
3764.8,0.839663
3767.54,0.840234
3770.28,0.84054
3773.02,0.840904
3775.77,0.841357
3778.52,0.842191
3781.28,0.842636
3784.04,0.842848
3786.8,0.843248
3789.57,0.843839
3792.34,0.84407
3795.12,0.844233
3797.9,0.844627
3800.69,0.845265
3803.47,0.845707
3806.27,0.846249
3809.06,0.846857
3811.86,0.847288
3814.67,0.847667
3817.48,0.848197
3820.29,0.848588
3823.11,0.849004
3825.93,0.849339
3828.76,0.849434
3831.59,0.849725
3834.42,0.850098
3837.26,0.850478
3840.1,0.850868
3842.95,0.851191
3845.8,0.851524
3848.65,0.851909
3851.51,0.852335
3854.38,0.852587
3857.24,0.852865
3860.12,0.852958
3862.99,0.853148
3865.87,0.85344
3868.76,0.853588
3871.65,0.853796
3874.54,0.853888
3877.44,0.854133
3880.34,0.854617
3883.25,0.85488
3886.16,0.855045
3889.07,0.855007
3891.99,0.855076
3894.92,0.855015
3897.85,0.855054
3900.78,0.855177
3903.72,0.855471
3906.66,0.855776
3909.6,0.855773
3912.55,0.855691
3915.51,0.855681
3918.47,0.855643
3921.43,0.855589
3924.4,0.855498
3927.38,0.855525
3930.35,0.855498
3933.33,0.855123
3936.32,0.854778
3939.31,0.85457
3942.31,0.854597
3945.31,0.854325
3948.31,0.854225
3951.32,0.854249
3954.34,0.854255
3957.35,0.854319
3960.38,0.854335
3963.41,0.854282
3966.44,0.854402
3969.48,0.854757
3972.52,0.854713
3975.56,0.854765
3978.61,0.854982
3981.67,0.854949
3984.73,0.854794
3987.8,0.855035
3990.87,0.85561
3993.94,0.855925
3997.02,0.856225
4000.1,0.8564
4003.19,0.856441
4006.29,0.856484
4009.39,0.856834
4012.49,0.85703
4015.6,0.857337
4018.71,0.857728
4021.83,0.858262
4024.95,0.858629
4028.08,0.859001
4031.21,0.859329
4034.35,0.859441
4037.49,0.859591
4040.64,0.85968
4043.79,0.859873
4046.94,0.860278
4050.11,0.860499
4053.27,0.860703
4056.44,0.860933
4059.62,0.861043
4062.8,0.861179
4065.99,0.861355
4069.18,0.861405
4072.38,0.861361
4075.58,0.861468
4078.78,0.861792
4082.0,0.861905
4085.21,0.861966
4088.43,0.86193
4091.66,0.861718
4094.89,0.861522
4098.13,0.861512
4101.37,0.861512
4104.62,0.861619
4107.87,0.861681
4111.13,0.86162
4114.39,0.861608
4117.66,0.861534
4120.93,0.861573
4124.21,0.86176
4127.5,0.861871
4130.79,0.861895
4134.08,0.862015
4137.38,0.861981
4140.68,0.861792
4143.99,0.861823
4147.31,0.861832
4150.63,0.861788
4153.95,0.861605
4157.29,0.861576
4160.62,0.861513
4163.96,0.861281
4167.31,0.861005
4170.66,0.860793
4174.02,0.86073
4177.39,0.860341
4180.75,0.860126
4184.13,0.86005
4187.51,0.859939
4190.89,0.8594
4194.28,0.859097
4197.68,0.858806
4201.08,0.858197
4204.49,0.857536
4207.9,0.856881
4211.32,0.856242
4214.74,0.855688
4218.17,0.854974
4221.61,0.854379
4225.05,0.853825
4228.5,0.853636
4231.95,0.85325
4235.4,0.853021
4238.87,0.852555
4242.34,0.852031
4245.81,0.851694
4249.29,0.851201
4252.78,0.850852
4256.27,0.85025
4259.77,0.848501
4263.27,0.846237
4266.78,0.845144
4270.29,0.844874
4273.81,0.844764
4277.34,0.84423
4280.87,0.843793
4284.41,0.843406
4287.95,0.842865
4291.5,0.842215
4295.06,0.841611
4298.62,0.841102
4302.19,0.840471
4305.76,0.839987
4309.34,0.839796
4312.92,0.839493
4316.52,0.83917
4320.11,0.838806
4323.72,0.838261
4327.32,0.837897
4330.94,0.837426
4334.56,0.837109
4338.19,0.837115
4341.82,0.836978
4345.46,0.836663
4349.11,0.836535
4352.76,0.836117
4356.42,0.835602
4360.08,0.835297
4363.75,0.835017
4367.43,0.834693
4371.11,0.834183
4374.8,0.833807
4378.49,0.833448
4382.19,0.832964
4385.9,0.832556
4389.61,0.832021
4393.33,0.831518
4397.06,0.830852
4400.79,0.829941
4404.53,0.828953
4408.28,0.827988
4412.03,0.827019
4415.79,0.825891
4419.55,0.824822
4423.32,0.823938
4427.1,0.822698
4430.88,0.82131
4434.68,0.819991
4438.47,0.818718
4442.28,0.81717
4446.08,0.81558
4449.9,0.814051
4453.72,0.81247
4457.55,0.810841
4461.39,0.809111
4465.23,0.807194
4469.08,0.805142
4472.94,0.802934
4476.8,0.800715
4480.67,0.798468
4484.55,0.795954
4488.43,0.793329
4492.32,0.790463
4496.21,0.787737
4500.12,0.78467
4504.03,0.781292
4507.94,0.777653
4511.87,0.773558
4515.8,0.769251
4519.73,0.764589
4523.68,0.759216
4527.63,0.753169
4531.59,0.746683
4535.55,0.73955
4539.52,0.731747
4543.5,0.723877
4547.49,0.716247
4551.48,0.709074
4555.48,0.702723
4559.49,0.697024
4563.5,0.691889
4567.52,0.687227
4571.55,0.682787
4575.58,0.678526
4579.63,0.674688
4583.67,0.670962
4587.73,0.667379
4591.79,0.663735
4595.86,0.65991
4599.94,0.656102
4604.03,0.652004
4608.12,0.647464
4612.22,0.642491
4616.33,0.637212
4620.44,0.63169
4624.56,0.62585
4628.69,0.619961
4632.83,0.614002
4636.97,0.608453
4641.12,0.602884
4645.28,0.59738
4649.45,0.59172
4653.62,0.586129
4657.8,0.580576
4661.99,0.575107
4666.19,0.570061
4670.39,0.566166
4674.6,0.563179
4678.82,0.560477
4683.05,0.558025
4687.28,0.556239
4691.52,0.554763
4695.77,0.554041
4700.03,0.554039
4704.3,0.55443
4708.57,0.554851
4712.85,0.55545
4717.14,0.556054
4721.43,0.55653
4725.74,0.556592
4730.05,0.556513
4734.37,0.555688
4738.7,0.554171
4743.03,0.551971
4747.38,0.548932
4751.73,0.545283
4756.09,0.541251
4760.45,0.536572
4764.83,0.531552
4769.21,0.526102
4773.6,0.52026
4778.0,0.514126
4782.41,0.507769
4786.83,0.501491
4791.25,0.495286
4795.68,0.489094
4800.13,0.483354
4804.57,0.477895
4809.03,0.473225
4813.5,0.469797
4817.97,0.468257
4822.45,0.46866
4826.94,0.471304
4831.44,0.475679
4835.95,0.481081
4840.46,0.486808
4844.99,0.492757
4849.52,0.498715
4854.06,0.50436
4858.61,0.50933
4863.17,0.513734
4867.73,0.516866
4872.31,0.518383
4876.89,0.517958
4881.48,0.51545
4886.08,0.511189
4890.69,0.505784
4895.31,0.50009
4899.94,0.495552
4904.57,0.492537
4909.22,0.491179
4913.87,0.490851
4918.53,0.49186
4923.21,0.493288
4927.88,0.49485
4932.57,0.49603
4937.27,0.496518
4941.98,0.496036
4946.69,0.494801
4951.42,0.492829
4956.15,0.49004
4960.9,0.486129
4965.65,0.481116
4970.41,0.475067
4975.18,0.468843
4979.96,0.462373
4984.75,0.456006
4989.54,0.450092
4994.35,0.445213
4999.17,0.441724
5003.99,0.439561
5008.83,0.438453
5013.67,0.438414
5018.52,0.438934
5023.39,0.440637
5028.26,0.443085
5033.14,0.444801
5038.03,0.445716
5042.93,0.446141
5047.84,0.446695
5052.76,0.447985
5057.69,0.449996
5062.63,0.453457
5067.58,0.459567
5072.54,0.470769
5077.51,0.488781
5082.49,0.512141
5087.47,0.537658
5092.47,0.56262
5097.48,0.585178
5102.5,0.605692
5107.52,0.624342
5112.56,0.641532
5117.61,0.656781
5122.66,0.670136
5127.73,0.68242
5132.81,0.693765
5137.89,0.703816
5142.99,0.712912
5148.1,0.720828
5153.22,0.729059
5158.34,0.736369
5163.48,0.74109
5168.63,0.744877
5173.79,0.747206
5178.96,0.747859
5184.13,0.746471
5189.32,0.743439
5194.52,0.738912
5199.73,0.733409
5204.96,0.730202
5210.19,0.731094
5215.43,0.734542
5220.68,0.742834
5225.94,0.750096
5231.22,0.755111
5236.5,0.760221
5241.79,0.76569
5247.1,0.771303
5252.42,0.775903
5257.74,0.780077
5263.08,0.784189
5268.43,0.787962
5273.79,0.791283
5279.16,0.794522
5284.54,0.798078
5289.93,0.800181
5295.34,0.802206
5300.75,0.805907
5306.18,0.807344
5311.61,0.808418
5317.06,0.809974
5322.52,0.811014
5327.99,0.81193
5333.47,0.812635
5338.96,0.813227
5344.47,0.813544
5349.98,0.813018
5355.51,0.814949
5361.05,0.817884
5366.6,0.817526
5372.16,0.817352
5377.73,0.817968
5383.32,0.818921
5388.91,0.819831
5394.52,0.820855
5400.14,0.821598
5405.77,0.82266
5411.41,0.823241
5417.07,0.823936
5422.74,0.822655
5428.41,0.82556
5434.1,0.828465
5439.81,0.825365
5445.52,0.823866
5451.25,0.823159
5456.98,0.821909
5462.73,0.818973
5468.5,0.817574
5474.27,0.818851
5480.06,0.815864
5485.86,0.814874
5491.67,0.815032
5497.49,0.813063
5503.33,0.812391
5509.18,0.812509
5515.04,0.812934
5520.91,0.81222
5526.8,0.812994
5532.69,0.814159
5538.61,0.814189
5544.53,0.813627
5550.47,0.813209
5556.41,0.81336
5562.38,0.815302
5568.35,0.815966
5574.34,0.815298
5580.34,0.814031
5586.35,0.818802
5592.38,0.822579
5598.42,0.821278
5604.47,0.820731
5610.54,0.823052
5616.61,0.823334
5622.71,0.823694
5628.81,0.824163
5634.93,0.822688
5641.06,0.820007
5647.21,0.820946
5653.36,0.82518
5659.54,0.822089
5665.72,0.82195
5671.92,0.819126
5678.13,0.816054
5684.36,0.81828
5690.6,0.817322
5696.85,0.815207
5703.12,0.816738
5709.4,0.813047
5715.69,0.813164
5722.0,0.816973
5728.33,0.817068
5734.66,0.815663
5741.01,0.813899
5747.38,0.81222
5753.76,0.81156
5760.15,0.81103
5766.56,0.801973
5772.98,0.803318
5779.41,0.807
5785.86,0.800213
5792.33,0.796584
5798.81,0.793206
5805.3,0.79033
5811.81,0.788446
5818.33,0.783372
5824.87,0.778917
5831.42,0.782124
5837.99,0.780067
5844.57,0.774434
5851.17,0.767906
5857.78,0.762542
5864.41,0.757705
5871.05,0.755454
5877.7,0.750044
5884.38,0.74209
5891.06,0.748475
5897.76,0.741555
5904.48,0.739037
5911.21,0.738218
5917.96,0.730109
5924.73,0.726272
5931.5,0.722006
5938.3,0.714746
5945.11,0.71764
5951.93,0.717182
5958.78,0.708464
5965.63,0.70203
5972.51,0.695522
5979.39,0.695373
5986.3,0.689075
5993.22,0.683999
6000.16,0.684042
6007.11,0.680793
6014.08,0.674753
6021.06,0.674097
6028.06,0.673874
6035.08,0.670836
6042.12,0.666948
6049.17,0.660648
6056.23,0.666564
6063.32,0.673865
6070.42,0.6647
6077.53,0.66293
6084.67,0.667701
6091.82,0.667179
6098.98,0.664928
6106.17,0.66534
6113.37,0.663633
6120.58,0.669072
6127.82,0.67611
6135.07,0.674718
6142.34,0.674454
6149.63,0.678264
6156.93,0.68127
6164.25,0.683339
6171.59,0.688417
6178.95,0.688679
6186.32,0.686098
6193.71,0.691395
6201.12,0.694742
6208.54,0.69143
6215.99,0.69061
6223.45,0.690557
6230.93,0.690629
6238.43,0.689775
6245.95,0.689111
6253.48,0.688514
6261.03,0.687733
6268.6,0.686507
6276.19,0.685438
6283.8,0.683873
6291.43,0.681514
6299.07,0.678245
6306.73,0.674147
6314.42,0.6688
6322.12,0.662724
6329.84,0.656407
6337.57,0.650231
6345.33,0.64389
6353.11,0.64539
6360.9,0.646976
6368.72,0.642488
6376.55,0.642272
6384.4,0.644773
6392.27,0.641917
6400.17,0.638967
6408.08,0.633283
6416.01,0.625909
6423.96,0.631441
6431.93,0.630576
6439.92,0.623317
6447.93,0.6199
6455.96,0.615124
6464.01,0.612052
6472.08,0.606639
6480.17,0.601589
6488.28,0.597258
6496.41,0.593418
6504.56,0.594984
6512.73,0.592197
6520.92,0.584187
6529.14,0.58163
6537.37,0.579989
6545.63,0.57455
6553.9,0.570393
6562.2,0.567861
6570.51,0.564604
6578.85,0.562678
6587.21,0.564555
6595.59,0.560551
6603.99,0.558692
6612.42,0.555237
6620.86,0.551097
6629.33,0.546382
6637.82,0.540529
6646.33,0.539858
6654.86,0.538312
6663.41,0.530441
6671.99,0.523702
6680.59,0.51816
6689.21,0.513421
6697.85,0.50844
6706.51,0.501045
6715.2,0.494712
6723.91,0.491161
6732.64,0.486339
6741.4,0.481027
6750.18,0.475017
6758.98,0.469961
6767.8,0.465396
6776.65,0.461973
6785.52,0.461638
6794.41,0.463363
6803.33,0.468892
6812.27,0.471105
6821.23,0.469505
6830.22,0.467138
6839.23,0.464534
6848.26,0.460293
6857.32,0.45648
6866.4,0.456718
6875.51,0.464182
6884.64,0.467815
6893.8,0.467644
6902.98,0.468355
6912.18,0.47016
6921.41,0.47565
6930.66,0.481555
6939.94,0.488447
6949.24,0.494789
6958.57,0.498123
6967.92,0.5017
6977.3,0.50511
6986.7,0.502096
6996.13,0.499285
7005.59,0.497879
7015.07,0.497347
7024.57,0.496601
7034.1,0.497284
7043.66,0.495933
7053.25,0.495741
7062.85,0.497246
7072.49,0.495384
7082.15,0.493183
7091.84,0.491426
7101.55,0.489773
7111.3,0.488659
7121.06,0.489442
7130.86,0.49287
7140.68,0.496343
7150.53,0.499852
7160.41,0.505257
7170.31,0.508894
7180.24,0.512826
7190.2,0.516549
7200.19,0.517891
7210.2,0.519766
7220.24,0.523479
7230.31,0.526624
7240.41,0.528988
7250.54,0.531961
7260.69,0.534631
7270.88,0.536827
7281.09,0.537941
7291.33,0.53935
7301.6,0.539053
7311.9,0.53819
7322.22,0.537445
7332.58,0.535713
7342.97,0.533706
7353.38,0.532398
7363.83,0.529951
7374.3,0.526963
7384.81,0.523986
7395.34,0.521029
7405.91,0.517806
7416.5,0.514747
7427.13,0.511758
7437.78,0.508725
7448.47,0.505203
7459.19,0.501524
7469.94,0.497782
7480.71,0.494402
7491.52,0.490541
7502.37,0.48637
7513.24,0.48195
7524.14,0.477657
7535.08,0.473165
7546.05,0.468628
7557.05,0.463924
7568.08,0.459283
7579.15,0.454641
7590.24,0.450319
7601.37,0.445732
7612.53,0.441086
7623.73,0.436648
7634.96,0.432501
7646.22,0.428077
7657.51,0.423908
7668.84,0.419706
7680.2,0.415682
7691.59,0.411428
7703.02,0.407167
7714.49,0.402794
7725.98,0.398488
7737.52,0.394164
7749.08,0.389849
7760.68,0.385043
7772.32,0.380224
7783.99,0.375393
7795.69,0.370406
7807.43,0.365065
7819.21,0.359716
7831.02,0.354012
7842.87,0.348292
7854.75,0.342365
7866.67,0.336092
7878.62,0.329567
7890.62,0.323201
7902.64,0.316311
7914.71,0.309466
7926.81,0.302481
7938.95,0.295323
7951.13,0.287753
7963.34,0.28038
7975.59,0.272994
7987.88,0.265782
8000.21,0.25848
8012.57,0.251559
8024.98,0.244322
8037.42,0.237226
8049.9,0.229993
8062.42,0.22277
8074.98,0.215004
8087.57,0.207387
8100.21,0.199606
8112.89,0.191915
8125.6,0.18401
8138.36,0.176651
8151.16,0.169493
8163.99,0.162682
8176.87,0.155628
8189.79,0.148723
8202.75,0.141575
8215.75,0.134438
8228.79,0.12697
8241.87,0.119862
8254.99,0.112438
8268.16,0.104953
8281.37,0.097232
8294.62,0.089854
8307.91,0.082516
8321.24,0.075401
8334.62,0.068178
8348.04,0.061421
8361.51,0.054848
8375.02,0.049291
8388.57,0.04397
8402.16,0.039079
8415.8,0.0343
8429.49,0.030298
8443.22,0.026623
8456.99,0.023571
8470.81,0.020857
8484.67,0.01913
8498.58,0.017834
8512.54,0.017645
8526.54,0.018293
8540.58,0.020057
8554.68,0.022782
8568.82,0.027481
8583.0,0.033781
8597.24,0.041927
8611.52,0.051897
8625.85,0.064274
8640.23,0.078555
8654.65,0.095208
8669.12,0.113751
8683.64,0.134226
8698.21,0.156497
8712.83,0.180698
8727.5,0.20593
8742.22,0.231879
8756.99,0.25729
8771.8,0.281544
8786.67,0.303877
8801.59,0.323292
8816.56,0.339533
8831.58,0.352745
8846.65,0.362579
8861.77,0.368781
8876.94,0.370713
8892.17,0.369108
8907.45,0.364516
8922.78,0.358027
8938.16,0.349541
8953.6,0.339699
8969.09,0.327641
8984.64,0.313619
9000.23,0.298359
9015.89,0.283498
9031.59,0.269818
9047.36,0.258021
9063.17,0.247801
9079.05,0.23986
9094.97,0.233792
9110.96,0.228929
9127.0,0.224506
9143.1,0.220089
9159.25,0.214692
9175.46,0.208444
9191.73,0.200912
9208.06,0.192627
9224.44,0.183262
9240.88,0.173385
9257.38,0.163532
9273.94,0.154641
9290.56,0.146457
9307.24,0.140571
9323.98,0.138248
9340.78,0.140331
9357.64,0.14633
9374.57,0.154536
9391.55,0.161556
9408.59,0.166353
9425.7,0.168619
9442.87,0.169461
9460.1,0.169171
9477.4,0.168816
9494.75,0.168183
9512.17,0.167176
9529.66,0.16591
9547.21,0.164852
9564.83,0.163402
9582.5,0.161635
9600.25,0.159349
9618.06,0.156528
9635.94,0.153356
9653.88,0.15075
9671.89,0.148907
9689.97,0.148394
9708.12,0.148189
9726.33,0.146881
9744.62,0.14249
9762.97,0.136255
9781.39,0.129825
9799.88,0.12452
9818.44,0.120161
9837.07,0.116925
9855.77,0.114562
9874.54,0.11323
9893.39,0.112226
9912.3,0.112027
9931.29,0.112363
9950.36,0.113555
9969.49,0.114845
9988.7,0.11623
10007.98,0.117798
10027.34,0.120087
10046.77,0.122836
10066.28,0.126797
10085.87,0.131342
10105.53,0.136798
10125.26,0.142988
10145.08,0.149731
10164.97,0.156605
10184.94,0.163791
10204.99,0.17056
10225.12,0.176606
10245.33,0.181406
10265.61,0.184196
10285.98,0.183275
10306.43,0.177431
10326.96,0.165209
10347.57,0.147685
10368.27,0.128725
10389.05,0.112888
10409.91,0.105363
10430.86,0.109114
10451.88,0.118643
10473.0,0.129088
10494.2,0.140873
10515.49,0.155242
10536.86,0.169433
10558.32,0.181901
10579.87,0.19226
10601.5,0.201751
10623.23,0.211054
10645.04,0.220367
10666.94,0.228822
10688.94,0.236238
10711.02,0.242425
10733.2,0.247602
10755.47,0.251955
10777.83,0.255983
10800.28,0.25955
10822.83,0.262901
10845.47,0.265836
10868.21,0.268662
10891.04,0.271154
10913.97,0.273539
10936.99,0.275861
10960.12,0.277754
10983.34,0.279336
11006.66,0.280838
11030.07,0.281935
11053.59,0.283255
11077.21,0.284232
11100.93,0.284948
11124.75,0.285676
11148.68,0.286532
11172.71,0.28708
11196.84,0.287674
11221.07,0.288434
11245.41,0.289276
11269.86,0.289893
11294.41,0.290669
11319.07,0.29136
11343.84,0.291752
11368.72,0.291582
11393.7,0.291666
11418.8,0.291585
11444.01,0.291221
11469.33,0.29022
11494.76,0.29054
11520.3,0.292746
11545.96,0.295848
11571.73,0.299373
11597.62,0.303111
11623.62,0.306288
11649.74,0.308801
11675.98,0.310638
11702.34,0.312718
11728.81,0.314586
11755.41,0.316003
11782.13,0.316947
11808.96,0.31759
11835.92,0.318768
11863.01,0.320548
11890.22,0.322262
11917.55,0.324168
11945.01,0.326179
11972.6,0.328345
12000.31,0.33066
12028.16,0.33277
12056.13,0.334274
12084.23,0.335734
12112.46,0.337162
12140.83,0.338441
12169.33,0.339177
12197.96,0.339335
12226.73,0.339387
12255.64,0.339707
12284.68,0.339699
12313.86,0.339537
12343.18,0.339274
12372.64,0.3393
12402.24,0.339025
12431.98,0.338026
12461.86,0.336728
12491.89,0.335956
12522.07,0.335202
12552.38,0.334687
12582.85,0.334165
12613.47,0.333877
12644.23,0.333142
12675.15,0.332112
12706.21,0.331153
12737.43,0.330494
12768.81,0.329576
12800.33,0.328576
12832.02,0.327328
12863.86,0.326496
12895.86,0.326097
12928.02,0.32592
12960.34,0.325281
12992.82,0.324355
13025.46,0.32316
13058.27,0.321569
13091.25,0.31974
13124.39,0.318248
13157.7,0.316602
13191.18,0.314664
13224.83,0.312328
13258.66,0.309888
13292.65,0.307466
13326.83,0.305137
13361.17,0.302605
13395.7,0.299918
13430.4,0.296771
13465.29,0.293513
13500.35,0.290321
13535.6,0.287439
13571.03,0.284723
13606.65,0.281408
13642.46,0.277964
13678.46,0.27471
13714.64,0.27128
13751.02,0.267674
13787.59,0.264264
13824.36,0.2612
13861.32,0.258161
13898.49,0.255153
13935.85,0.252094
13973.41,0.249065
14011.17,0.24589
14049.15,0.242596
14087.32,0.238863
14125.71,0.235207
14164.3,0.231297
14203.11,0.227476
14242.13,0.223828
14281.36,0.219649
14320.81,0.214815
14360.49,0.209926
14400.38,0.204692
14440.49,0.199047
14480.82,0.193111
14521.39,0.187273
14562.18,0.181509
14603.2,0.176528
14644.45,0.171136
14685.93,0.164893
14727.66,0.158544
14769.62,0.152064
14811.81,0.145114
14854.25,0.13828
14896.94,0.131647
14939.87,0.125745
14983.05,0.121047
15026.48,0.119277
15070.16,0.12023
15114.1,0.121977
15158.29,0.122784
15202.74,0.12216
15247.46,0.11985
15292.43,0.116734
15337.68,0.112021
15383.19,0.106528
15428.97,0.100905
15475.03,0.095389
15521.36,0.089229
15567.97,0.082824
15614.87,0.076158
15662.04,0.0695
15709.5,0.062794
15757.25,0.056532
15805.29,0.050489
15853.62,0.045631
15902.26,0.042383
15951.19,0.041819
16000.42,0.044277
16049.95,0.050846
16099.8,0.061379
16149.95,0.076383
16200.42,0.093553
16251.21,0.108605
16302.31,0.11745
16353.74,0.121569
16405.49,0.12279
16457.57,0.122259
16509.98,0.1192
16562.73,0.11443
16615.82,0.108648
16669.24,0.102842
16723.02,0.097976
16777.14,0.096338
16831.61,0.097793
16886.43,0.101392
16941.62,0.105567
16997.16,0.109944
17053.08,0.112988
17109.36,0.112951
17166.01,0.109822
17223.04,0.106077
17280.45,0.102604
17338.24,0.101532
17396.43,0.103548
17455.0,0.109183
17513.97,0.115222
17573.34,0.118901
17633.11,0.11934
17693.29,0.118539
17753.89,0.116893
17814.9,0.115908
17876.33,0.114693
17938.18,0.114014
18000.47,0.114554
18063.19,0.117647
18126.35,0.122063
18189.95,0.127362
18254.0,0.13341
18318.5,0.140587
18383.46,0.147286
18448.88,0.15335
18514.77,0.15859
18581.13,0.163752
18647.97,0.167948
18715.29,0.170909
18783.1,0.172964
18851.4,0.177656
18920.2,0.182259
18989.51,0.186019
19059.32,0.188084
19129.65,0.188733
19200.5,0.184525
19271.88,0.187387
19343.79,0.193386
19416.24,0.193451
19489.23,0.192295
19562.77,0.190299
19636.88,0.187665
19711.54,0.184063
19786.78,0.180445
19862.59,0.176603
19938.98,0.172653
20015.96,0.168777
20093.55,0.164341
20171.73,0.159666
20250.53,0.155059
20329.94,0.150294
20409.98,0.144498
20490.65,0.137605
20571.96,0.131636
20653.92,0.125568
20736.54,0.118779
20819.82,0.113185
20903.77,0.107707
20988.4,0.102668
21073.72,0.097915
21159.73,0.095181
21246.46,0.095816
21333.89,0.096902
21422.04,0.097158
21510.93,0.09778
21600.56,0.097596
21690.94,0.097839
21782.08,0.09853
21873.99,0.099661
21966.67,0.101399
22060.15,0.102452
22154.42,0.103267
22249.51,0.105292
22345.41,0.10591
22442.14,0.105914
22539.72,0.105349
22638.14,0.103577
22737.43,0.100378
22837.6,0.099825
22938.65,0.10017
23040.6,0.100993
23143.46,0.100435
23247.24,0.09695
23351.96,0.089574
23457.63,0.081738
23564.25,0.076932
23671.85,0.075491
23780.44,0.07506
23890.02,0.07607
24000.63,0.076153
24112.26,0.076878
24224.93,0.076064
24338.66,0.073212
24453.47,0.068168
24569.36,0.0644
24686.36,0.059062
24804.47,0.053211
24923.73,0.046354
25044.13,0.041279
25165.71,0.033832
25288.46,0.029576
25412.43,0.026752
25537.61,0.030862
25664.04,0.037075
25791.72,0.042729
25920.68,0.043672
