Database of Origin,University of Winnipeg Spectrophotometer Facility
Sample Description,8. Sulfates - RELAB sulfate spectra from their data base |  RELAB Archived sulfate spectra (as of Sept. 2004  more coming out later)
Date Added,2016-07-15 22:05:22.494542

Data ID,RLA_SUL_48          
Sample ID,f1cc08b
Mineral Name,alunite
Grain Size,25-75
Viewing Geometry,30 / 0 | 30
Resolution,5 / 0.8-129
Material Class,Sulfate

Wavelength
305.0,0.257505
310.0,0.278125
315.0,0.297799
320.0,0.320895
325.0,0.343374
330.0,0.365333
335.0,0.388459
340.0,0.409656
345.0,0.430027
350.0,0.451022
355.0,0.469584
360.0,0.487825
365.0,0.50484
370.0,0.519234
375.0,0.533122
380.0,0.546987
385.0,0.558203
390.0,0.570311
395.0,0.581096
400.0,0.587253
405.0,0.595719
410.0,0.599527
415.0,0.604924
420.0,0.609927
425.0,0.616928
430.0,0.621067
435.0,0.625301
440.0,0.630222
445.0,0.635574
450.0,0.63855
455.0,0.642693
460.0,0.646454
465.0,0.649299
470.0,0.65246
475.0,0.656054
480.0,0.660137
485.0,0.664021
490.0,0.668965
495.0,0.673672
500.0,0.679157
505.0,0.684373
510.0,0.689031
515.0,0.694618
520.0,0.700279
525.0,0.707026
530.0,0.717024
535.0,0.721743
540.0,0.728215
545.0,0.734473
550.0,0.74079
555.0,0.748487
560.0,0.754593
565.0,0.759367
570.0,0.765138
575.0,0.770937
580.0,0.776676
585.0,0.782518
590.0,0.788667
595.0,0.792617
600.0,0.797518
605.0,0.802201
610.0,0.805882
615.0,0.809406
620.0,0.81284
625.0,0.816307
630.0,0.819025
635.0,0.822149
640.0,0.825203
645.0,0.827519
650.0,0.830527
655.0,0.831899
660.0,0.834903
665.0,0.837573
670.0,0.839058
675.0,0.841717
680.0,0.844798
685.0,0.846711
690.0,0.848267
695.0,0.850676
700.0,0.852415
705.0,0.84885
710.0,0.851866
715.0,0.852439
720.0,0.855013
725.0,0.856676
730.0,0.856819
735.0,0.858385
740.0,0.85918
745.0,0.860482
750.0,0.859705
755.0,0.860347
760.0,0.864633
765.0,0.864627
770.0,0.864196
775.0,0.864602
780.0,0.86562
785.0,0.865755
790.0,0.867283
795.0,0.866429
800.0,0.867432
805.0,0.868543
810.0,0.869468
815.0,0.871883
820.0,0.870717
825.0,0.87232
830.0,0.870018
835.0,0.871781
840.0,0.871394
845.0,0.871606
850.0,0.871475
855.0,0.872591
860.0,0.871563
865.0,0.870242
870.0,0.87008
875.0,0.871274
880.0,0.871087
885.0,0.869555
890.0,0.870593
895.0,0.870077
900.0,0.869737
905.0,0.869644
910.0,0.869368
915.0,0.869775
920.0,0.872458
925.0,0.872621
930.0,0.872913
935.0,0.874154
940.0,0.875175
945.0,0.872971
950.0,0.873144
955.0,0.873645
960.0,0.87348
965.0,0.871974
970.0,0.870265
975.0,0.868079
980.0,0.865107
985.0,0.860632
990.0,0.856222
995.0,0.852792
1000.0,0.851213
1005.0,0.853248
1010.0,0.855388
1015.0,0.861357
1020.0,0.865575
1025.0,0.874811
1030.0,0.878985
1035.0,0.881236
1040.0,0.882724
1045.0,0.88429
1050.0,0.884981
1055.0,0.885682
1060.0,0.885346
1065.0,0.886731
1070.0,0.887293
1075.0,0.887865
1080.0,0.888256
1085.0,0.888403
1090.0,0.88771
1095.0,0.88807
1100.0,0.888716
1105.0,0.887969
1110.0,0.888785
1115.0,0.888412
1120.0,0.889704
1125.0,0.890651
1130.0,0.892055
1135.0,0.893271
1140.0,0.893429
1145.0,0.893742
1150.0,0.892946
1155.0,0.892111
1160.0,0.892485
1165.0,0.891607
1170.0,0.891779
1175.0,0.890987
1180.0,0.890752
1185.0,0.890764
1190.0,0.889943
1195.0,0.888221
1200.0,0.888206
1205.0,0.88534
1210.0,0.883505
1215.0,0.880925
1220.0,0.876728
1225.0,0.870363
1230.0,0.865522
1235.0,0.862123
1240.0,0.859132
1245.0,0.855935
1250.0,0.85239
1255.0,0.845732
1260.0,0.831601
1265.0,0.815853
1270.0,0.815798
1275.0,0.827133
1280.0,0.841104
1285.0,0.855514
1290.0,0.867676
1295.0,0.871977
1300.0,0.872574
1305.0,0.872714
1310.0,0.871241
1315.0,0.865638
1320.0,0.854747
1325.0,0.853701
1330.0,0.850291
1335.0,0.834274
1340.0,0.829876
1345.0,0.83402
1350.0,0.83359
1355.0,0.832501
1360.0,0.83422
1365.0,0.840111
1370.0,0.84681
1375.0,0.842285
1380.0,0.84216
1385.0,0.834013
1390.0,0.830191
1395.0,0.821653
1400.0,0.811493
1405.0,0.794355
1410.0,0.772225
1415.0,0.746742
1420.0,0.681532
1425.0,0.538674
1430.0,0.568757
1435.0,0.626193
1440.0,0.680751
1445.0,0.676978
1450.0,0.657019
1455.0,0.629291
1460.0,0.615138
1465.0,0.614275
1470.0,0.58279
1475.0,0.477573
1480.0,0.450646
1485.0,0.599581
1490.0,0.663926
1495.0,0.68189
1500.0,0.692873
1505.0,0.71119
1510.0,0.736825
1515.0,0.749945
1520.0,0.758735
1525.0,0.765252
1530.0,0.766549
1535.0,0.769326
1540.0,0.774681
1545.0,0.775301
1550.0,0.77708
1555.0,0.777264
1560.0,0.779013
1565.0,0.777964
1570.0,0.777775
1575.0,0.777321
1580.0,0.776678
1585.0,0.774819
1590.0,0.774183
1595.0,0.77447
1600.0,0.774857
1605.0,0.768974
1610.0,0.769861
1615.0,0.771041
1620.0,0.769981
1625.0,0.769748
1630.0,0.768366
1635.0,0.767653
1640.0,0.767449
1645.0,0.767317
1650.0,0.764865
1655.0,0.76333
1660.0,0.76248
1665.0,0.759715
1670.0,0.756487
1675.0,0.752869
1680.0,0.749577
1685.0,0.746117
1690.0,0.742784
1695.0,0.739164
1700.0,0.738212
1705.0,0.732706
1710.0,0.728506
1715.0,0.722024
1720.0,0.712618
1725.0,0.700256
1730.0,0.683474
1735.0,0.666843
1740.0,0.64975
1745.0,0.628903
1750.0,0.611125
1755.0,0.59914
1760.0,0.588492
1765.0,0.580601
1770.0,0.580278
1775.0,0.594282
1780.0,0.611285
1785.0,0.63388
1790.0,0.663821
1795.0,0.692132
1800.0,0.709926
1805.0,0.718888
1810.0,0.723774
1815.0,0.725769
1820.0,0.72685
1825.0,0.726134
1830.0,0.725485
1835.0,0.724836
1840.0,0.722694
1845.0,0.719453
1850.0,0.716741
1855.0,0.713841
1860.0,0.709864
1865.0,0.706608
1870.0,0.704052
1875.0,0.695211
1880.0,0.684377
1885.0,0.676585
1890.0,0.668402
1895.0,0.6593
1900.0,0.652178
1905.0,0.641032
1910.0,0.63026
1915.0,0.620801
1920.0,0.612066
1925.0,0.605313
1930.0,0.601241
1935.0,0.597695
1940.0,0.59515
1945.0,0.5911
1950.0,0.586506
1955.0,0.581045
1960.0,0.577035
1965.0,0.574165
1970.0,0.576101
1975.0,0.57862
1980.0,0.579052
1985.0,0.576035
1990.0,0.569292
1995.0,0.559318
2000.0,0.548034
2005.0,0.53834
2010.0,0.533106
2015.0,0.531383
2020.0,0.533408
2025.0,0.533647
2030.0,0.53124
2035.0,0.52679
2040.0,0.522159
2045.0,0.517842
2050.0,0.512468
2055.0,0.506923
2060.0,0.50253
2065.0,0.50086
2070.0,0.501136
2075.0,0.501899
2080.0,0.502934
2085.0,0.501253
2090.0,0.496476
2095.0,0.48811
2100.0,0.477236
2104.81,0.464153
2106.52,0.459729
2107.37,0.457385
2108.23,0.453846
2109.09,0.450685
2109.95,0.446538
2110.8,0.441458
2111.66,0.438019
2112.52,0.434916
2113.39,0.430712
2114.25,0.426143
2115.11,0.421563
2115.97,0.417271
2116.84,0.412258
2117.7,0.408084
2118.57,0.403704
2119.43,0.398611
2120.3,0.394278
2121.17,0.38895
2122.04,0.383641
2122.91,0.377934
2123.78,0.374146
2124.65,0.368465
2125.52,0.363118
2126.39,0.358888
2127.26,0.35585
2128.13,0.353718
2129.01,0.351005
2129.88,0.348027
2130.76,0.345509
2131.63,0.343824
2132.51,0.342648
2133.39,0.340914
2134.27,0.339488
2135.15,0.335867
2136.03,0.333361
2136.91,0.331864
2137.79,0.330186
2138.67,0.328426
2139.55,0.326088
2140.44,0.32401
2141.32,0.323964
2142.2,0.320858
2143.09,0.318774
2143.98,0.317562
2144.86,0.315818
2145.75,0.31462
2146.64,0.312772
2147.53,0.310563
2148.42,0.30848
2149.31,0.306963
2150.2,0.30368
2151.09,0.298991
2151.99,0.295363
2152.88,0.291472
2153.77,0.286712
2154.67,0.283024
2155.57,0.280124
2156.46,0.277349
2157.36,0.275913
2158.26,0.274301
2159.16,0.273262
2160.06,0.273548
2160.96,0.275345
2161.86,0.277012
2162.76,0.276687
2163.66,0.275596
2164.57,0.275448
2165.47,0.274761
2166.37,0.273444
2167.28,0.272157
2168.19,0.27148
2169.09,0.270009
2170.0,0.27016
2170.91,0.271267
2171.82,0.273028
2172.73,0.275181
2173.64,0.278312
2174.55,0.279868
2175.47,0.27996
2176.38,0.280663
2177.29,0.279775
2178.21,0.276403
2179.12,0.274179
2180.04,0.271486
2180.96,0.269265
2181.88,0.268578
2182.79,0.269629
2183.71,0.27183
2184.63,0.275716
2185.55,0.279939
2186.48,0.287069
2187.4,0.294792
2188.32,0.299732
2189.25,0.302611
2190.17,0.305128
2191.1,0.307396
2192.02,0.309806
2192.95,0.31385
2193.88,0.319165
2194.81,0.326476
2195.74,0.335794
2196.67,0.344482
2197.6,0.352953
2198.53,0.359826
2199.46,0.364791
2200.4,0.367387
2201.33,0.366922
2202.27,0.362863
2203.2,0.356617
2204.14,0.34854
2205.08,0.340804
2206.01,0.332507
2206.95,0.326542
2207.89,0.323662
2208.83,0.321012
2209.78,0.318051
2210.72,0.31716
2211.66,0.319398
2212.61,0.324549
2213.55,0.331838
2214.5,0.342232
2215.44,0.354134
2216.39,0.36581
2217.34,0.377579
2218.29,0.391481
2219.24,0.404802
2220.19,0.417508
2221.14,0.429219
2222.09,0.440504
2223.04,0.452536
2224.0,0.463001
2224.95,0.470714
2225.91,0.478296
2226.86,0.484939
2227.82,0.489837
2228.78,0.494172
2229.74,0.498546
2230.7,0.501658
2231.66,0.504965
2232.62,0.508177
2233.58,0.511444
2234.54,0.51384
2235.5,0.516233
2236.47,0.518355
2237.43,0.520148
2238.4,0.520169
2239.37,0.521345
2240.33,0.522536
2241.3,0.524071
2242.27,0.525451
2243.24,0.526091
2244.21,0.526485
2245.19,0.52816
2246.16,0.529648
2247.13,0.530014
2248.11,0.530542
2249.08,0.531585
2250.06,0.53176
2251.04,0.531687
2252.01,0.530832
2252.99,0.530635
2253.97,0.53072
2254.95,0.530773
2255.93,0.529783
2256.92,0.529667
2257.9,0.530765
2258.88,0.5309
2259.87,0.529326
2260.85,0.528716
2261.84,0.528905
2262.83,0.528523
2263.81,0.528205
2264.8,0.528265
2265.79,0.527873
2266.78,0.528035
2267.78,0.527376
2268.77,0.527074
2269.76,0.526795
2270.76,0.526645
2271.75,0.525875
2272.75,0.525523
2273.74,0.525829
2274.74,0.526239
2275.74,0.525728
2276.74,0.524824
2277.74,0.523658
2278.74,0.523367
2279.74,0.521645
2280.75,0.52093
2281.75,0.520813
2282.75,0.520737
2283.76,0.520581
2284.77,0.520197
2285.77,0.518721
2286.78,0.517724
2287.79,0.515856
2288.8,0.51476
2289.81,0.514182
2290.82,0.513542
2291.84,0.510945
2292.85,0.508824
2293.87,0.507075
2294.88,0.505192
2295.9,0.503633
2296.91,0.501946
2297.93,0.49904
2298.95,0.496728
2299.97,0.494079
2300.99,0.490634
2302.01,0.486669
2303.04,0.483324
2304.06,0.478971
2305.08,0.473785
2306.11,0.46836
2307.14,0.462316
2308.16,0.45464
2309.19,0.446831
2310.22,0.43893
2311.25,0.430537
2312.28,0.421625
2313.31,0.413396
2314.35,0.405292
2315.38,0.398466
2316.41,0.391613
2317.45,0.385461
2318.49,0.380337
2319.52,0.376921
2320.56,0.373926
2321.6,0.372119
2322.64,0.371686
2323.68,0.372974
2324.72,0.375072
2325.77,0.377096
2326.81,0.380134
2327.86,0.384641
2328.9,0.389075
2329.95,0.393291
2331.0,0.396605
2332.04,0.401082
2333.09,0.406561
2334.14,0.411842
2335.2,0.416765
2336.25,0.422349
2337.3,0.427066
2338.36,0.432204
2339.41,0.436458
2340.47,0.44062
2341.52,0.444664
2342.58,0.448072
2343.64,0.450834
2344.7,0.454267
2345.76,0.457297
2346.82,0.459738
2347.89,0.461764
2348.95,0.46274
2350.02,0.463985
2351.08,0.465117
2352.15,0.46511
2353.22,0.465936
2354.28,0.465764
2355.35,0.466098
2356.43,0.466472
2357.5,0.466721
2358.57,0.466511
2359.64,0.466056
2360.72,0.464796
2361.79,0.46383
2362.87,0.462345
2363.95,0.460727
2365.03,0.458676
2366.1,0.457124
2367.19,0.455697
2368.27,0.453433
2369.35,0.450116
2370.43,0.445696
2371.52,0.441278
2372.6,0.437984
2373.69,0.434363
2374.78,0.429354
2375.86,0.423183
2376.95,0.417459
2378.04,0.412039
2379.14,0.406391
2380.23,0.398626
2381.32,0.391558
2382.42,0.38496
2383.51,0.3774
2384.61,0.369446
2385.7,0.361596
2386.8,0.354581
2387.9,0.348339
2389.0,0.34106
2390.1,0.334642
2391.21,0.329555
2392.31,0.32503
2393.41,0.320257
2394.52,0.316123
2395.63,0.313583
2396.73,0.3122
2397.84,0.310413
2398.95,0.309112
2400.06,0.307871
2401.17,0.307215
2402.29,0.306933
2403.4,0.307011
2404.52,0.306318
2405.63,0.305737
2406.75,0.305577
2407.87,0.305198
2408.98,0.303836
2410.1,0.301598
2411.23,0.299845
2412.35,0.297699
2413.47,0.295284
2414.59,0.293214
2415.72,0.28949
2416.85,0.28556
2417.97,0.282115
2419.1,0.278567
2420.23,0.274918
2421.36,0.271542
2422.49,0.268554
2423.63,0.265298
2424.76,0.261215
2425.89,0.257722
2427.03,0.254675
2428.17,0.251573
2429.3,0.248078
2430.44,0.245278
2431.58,0.243248
2432.72,0.241575
2433.87,0.241755
2435.01,0.242693
2436.15,0.244679
2437.3,0.247156
2438.45,0.249453
2439.59,0.2532
2440.74,0.257339
2441.89,0.260187
2443.04,0.262926
2444.19,0.266293
2445.35,0.268835
2446.5,0.271308
2447.66,0.271466
2448.81,0.271222
2449.97,0.271846
2451.13,0.27248
2452.29,0.27161
2453.45,0.270787
2454.61,0.270245
2455.77,0.269044
2456.94,0.267124
2458.1,0.264016
2459.27,0.260316
2460.43,0.2568
2461.6,0.253657
2462.77,0.250131
2463.94,0.246376
2465.11,0.242952
2466.29,0.24005
2467.46,0.238835
2468.64,0.238354
2469.81,0.238219
2470.99,0.23838
2472.17,0.240236
2473.35,0.243259
2474.53,0.246344
2475.71,0.249315
2476.89,0.25293
2478.08,0.256431
2479.26,0.259635
2480.45,0.263298
2481.63,0.266231
2482.82,0.268381
2484.01,0.269327
2485.2,0.2689
2486.4,0.268006
2487.59,0.265797
2488.78,0.261997
2489.98,0.257347
2491.17,0.252663
2492.37,0.24726
2493.57,0.241481
2494.77,0.236224
2495.97,0.232125
2497.17,0.228274
2498.38,0.224392
2499.58,0.220146
2500.79,0.214985
2502.0,0.20938
2503.2,0.203822
2504.41,0.197309
2505.62,0.190818
2506.83,0.184248
2508.05,0.177795
2509.26,0.172579
2510.48,0.168801
2511.69,0.165375
2512.91,0.164098
2514.13,0.163885
2515.35,0.164286
2516.57,0.165138
2517.79,0.168007
2519.02,0.172082
2520.24,0.176146
2521.47,0.1807
2522.69,0.186171
2523.92,0.192953
2525.15,0.200584
2526.38,0.207355
2527.61,0.213147
2528.85,0.218811
2530.08,0.22382
2531.32,0.227315
2532.55,0.230634
2533.79,0.233022
2535.03,0.234841
2536.27,0.236664
2537.51,0.238645
2538.75,0.239934
2540.0,0.242547
2541.24,0.2454
2542.49,0.248637
2543.74,0.251804
2544.99,0.25327
2546.24,0.254597
2547.49,0.256796
2548.74,0.259448
2549.99,0.260896
2551.25,0.261534
2552.5,0.261551
2553.76,0.261576
2555.02,0.260133
2556.28,0.257933
2557.54,0.256723
2558.8,0.255573
2560.07,0.254754
2561.33,0.254272
2562.6,0.253161
2563.86,0.250811
2565.13,0.250654
2566.4,0.250014
2567.67,0.250017
2568.95,0.251931
2570.22,0.253853
2571.5,0.25309
2572.77,0.252042
2574.05,0.254488
2575.33,0.253988
2576.61,0.252936
2577.89,0.254392
2579.17,0.252496
2580.46,0.251189
2581.74,0.25165
2583.03,0.251386
2584.31,0.253235
2585.6,0.253824
2586.89,0.252995
2588.19,0.255751
2589.48,0.257515
2590.77,0.260506
2592.07,0.263843
2593.36,0.268958
2594.66,0.276582
2595.96,0.282684
2597.26,0.280258
2598.56,0.281913
2599.87,0.285677
2601.17,0.289042
2602.48,0.291254
2603.78,0.291976
2605.09,0.292575
2606.4,0.292908
2607.71,0.28961
2609.03,0.288508
2610.34,0.290292
2611.66,0.292621
2612.97,0.295695
2614.29,0.300604
2615.61,0.303423
2616.93,0.308389
2618.25,0.311057
2619.57,0.308629
2620.9,0.31109
2622.22,0.311866
2623.55,0.309845
2624.88,0.311927
2626.21,0.314902
2627.54,0.318323
2628.87,0.317143
2630.21,0.320222
2631.54,0.325329
2632.88,0.324512
2634.21,0.325914
2635.55,0.329104
2636.89,0.329881
2638.24,0.332201
2639.58,0.333602
2640.92,0.335828
2642.27,0.337237
2643.62,0.338275
2644.97,0.337726
2646.32,0.337668
2647.67,0.333793
2649.02,0.328592
2650.38,0.323483
2651.73,0.319249
2653.09,0.314301
2654.45,0.306702
2655.81,0.29946
2657.17,0.294326
2658.53,0.289203
2659.89,0.287913
2661.26,0.284585
2662.63,0.281216
2664.0,0.279343
2665.36,0.280972
2666.74,0.280094
2668.11,0.275388
2669.48,0.27083
2670.86,0.272781
2672.23,0.268785
2673.61,0.260845
2674.99,0.259897
2676.37,0.259581
2677.76,0.258268
2679.14,0.254527
2680.52,0.253307
2681.91,0.252552
2683.3,0.253223
2684.69,0.255414
2686.08,0.256575
2687.47,0.257984
2688.87,0.258918
2690.26,0.260167
2691.66,0.261657
2693.06,0.264452
2694.46,0.266495
2695.86,0.263995
2697.26,0.260316
2698.66,0.257401
2700.07,0.25481
2701.48,0.252731
2702.89,0.248333
2704.3,0.242025
2705.71,0.237701
2707.12,0.233836
2708.53,0.22924
2709.95,0.22547
2711.37,0.221688
2712.79,0.215244
2714.21,0.207141
2715.63,0.202509
2717.05,0.197708
2718.48,0.192891
2719.9,0.188133
2721.33,0.185216
2722.76,0.177475
2724.19,0.172128
2725.62,0.169117
2727.06,0.162619
2728.49,0.158316
2729.93,0.155688
2731.37,0.151481
2732.81,0.146904
2734.25,0.143058
2735.69,0.139211
2737.14,0.132158
2738.58,0.126349
2740.03,0.122499
2741.48,0.115699
2742.93,0.107209
2744.38,0.101739
2745.83,0.098491
2747.29,0.09557
2748.75,0.092901
2750.2,0.090947
2751.66,0.088907
2753.13,0.087237
2754.59,0.085099
2756.05,0.083078
2757.52,0.077897
2758.99,0.072967
2760.46,0.06963
2761.93,0.06665
2763.4,0.063633
2764.87,0.059359
2766.35,0.055386
2767.82,0.052286
2769.3,0.049345
2770.78,0.046876
2772.26,0.044537
2773.75,0.042496
2775.23,0.040884
2776.72,0.039437
2778.21,0.037948
2779.7,0.037003
2781.19,0.036917
2782.68,0.036505
2784.18,0.035622
2785.67,0.03462
2787.17,0.033304
2788.67,0.032765
2790.17,0.031972
2791.67,0.030993
2793.18,0.030335
2794.68,0.030079
2796.19,0.029156
2797.7,0.028318
2799.21,0.027874
2800.72,0.027437
2802.24,0.026983
2803.75,0.026109
2805.27,0.024698
2806.79,0.023661
2808.31,0.02342
2809.83,0.023333
2811.35,0.022757
2812.88,0.021692
2814.41,0.021018
2815.93,0.021264
2817.46,0.020704
2819.0,0.019596
2820.53,0.019014
2822.07,0.018225
2823.6,0.017573
2825.14,0.016825
2826.68,0.015755
2828.22,0.014892
2829.77,0.014326
2831.31,0.01439
2832.86,0.015211
2834.41,0.017558
2835.96,0.021287
2837.51,0.02644
2839.07,0.031924
2840.62,0.036393
2842.18,0.038941
2843.74,0.03939
2845.3,0.03907
2846.86,0.038031
2848.43,0.035693
2849.99,0.033484
2851.56,0.031594
2853.13,0.030291
2854.7,0.031227
2856.27,0.036328
2857.85,0.04657
2859.42,0.061556
2861.0,0.079644
2862.58,0.096994
2864.16,0.109759
2865.75,0.116014
2867.33,0.116282
2868.92,0.111133
2870.51,0.101851
2872.1,0.091183
2873.69,0.081487
2875.28,0.073717
2876.88,0.068051
2878.48,0.063844
2880.07,0.060203
2881.68,0.057047
2883.28,0.054278
2884.88,0.052262
2886.49,0.050388
2888.1,0.048399
2889.71,0.046776
2891.32,0.045952
2892.93,0.045352
2894.55,0.044878
2896.16,0.044133
2897.78,0.042847
2899.4,0.042071
2901.03,0.041813
2902.65,0.041321
2904.28,0.040593
2905.91,0.03994
2907.54,0.039718
2909.17,0.039522
2910.8,0.039754
2912.44,0.039912
2914.07,0.039642
2915.71,0.038994
2917.35,0.03838
2918.99,0.038461
2920.64,0.038868
2922.29,0.038657
2923.93,0.038189
2925.58,0.037972
2927.24,0.037869
2928.89,0.037819
2930.55,0.03787
2932.2,0.03774
2933.86,0.037529
2935.52,0.037555
2937.19,0.036981
2938.85,0.036861
2940.52,0.036885
2942.19,0.036899
2943.86,0.036967
2945.53,0.036846
2947.21,0.036858
2948.88,0.036814
2950.56,0.036969
2952.24,0.037283
2953.92,0.037111
2955.61,0.037016
2957.29,0.037113
2958.98,0.037324
2960.67,0.037395
2962.36,0.037614
2964.06,0.037782
2965.75,0.037635
2967.45,0.037541
2969.15,0.037394
2970.85,0.037412
2972.55,0.037934
2974.26,0.037838
2975.97,0.037848
2977.68,0.037807
2979.39,0.037896
2981.1,0.038338
2982.82,0.03888
2984.53,0.039161
2986.25,0.039041
2987.97,0.03896
2989.7,0.039097
2991.42,0.039246
2993.15,0.039376
2994.88,0.039906
2996.61,0.040471
2998.34,0.040494
3000.08,0.040301
3001.82,0.040655
3003.55,0.040883
3005.3,0.040615
3007.04,0.040307
3008.78,0.040406
3010.53,0.040262
3012.28,0.040044
3014.03,0.040213
3015.79,0.040538
3017.54,0.040814
3019.3,0.040983
3021.06,0.041204
3022.82,0.041554
3024.58,0.041748
3026.35,0.041959
3028.12,0.042199
3029.89,0.042118
3031.66,0.042323
3033.43,0.04283
3035.21,0.04272
3036.99,0.042797
3038.77,0.042809
3040.55,0.042846
3042.33,0.042735
3044.12,0.042846
3045.91,0.043058
3047.7,0.043051
3049.49,0.042953
3051.29,0.042856
3053.08,0.042756
3054.88,0.042635
3056.68,0.042383
3058.49,0.042077
3060.29,0.042261
3062.1,0.042405
3063.91,0.042622
3065.72,0.042805
3067.54,0.042915
3069.35,0.042826
3071.17,0.042897
3072.99,0.042597
3074.81,0.042338
3076.64,0.042651
3078.47,0.042918
3080.29,0.0428
3082.13,0.042644
3083.96,0.042729
3085.79,0.042925
3087.63,0.04304
3089.47,0.043337
3091.31,0.043597
3093.16,0.043758
3095.01,0.043919
3096.85,0.044467
3098.71,0.044994
3100.56,0.045332
3102.41,0.045713
3104.27,0.046186
3106.13,0.046729
3107.99,0.0471
3109.86,0.04744
3111.73,0.047778
3113.59,0.047853
3115.47,0.047831
3117.34,0.047619
3119.21,0.047368
3121.09,0.047415
3122.97,0.047382
3124.86,0.04742
3126.74,0.047584
3128.63,0.047645
3130.52,0.047743
3132.41,0.048023
3134.3,0.048319
3136.2,0.048753
3138.1,0.04917
3140.0,0.049565
3141.9,0.049998
3143.81,0.050517
3145.71,0.050642
3147.62,0.050687
3149.54,0.05069
3151.45,0.050758
3153.37,0.050982
3155.29,0.051109
3157.21,0.051088
3159.13,0.051363
3161.06,0.051644
3162.99,0.051915
3164.92,0.052167
3166.85,0.052421
3168.79,0.052524
3170.72,0.052621
3172.67,0.052797
3174.61,0.053051
3176.55,0.053549
3178.5,0.054062
3180.45,0.053924
3182.4,0.054077
3184.36,0.054556
3186.32,0.05473
3188.27,0.054798
3190.24,0.054874
3192.2,0.055079
3194.17,0.055486
3196.14,0.055687
3198.11,0.055722
3200.08,0.055967
3202.06,0.056346
3204.04,0.056652
3206.02,0.0564
3208.0,0.056267
3209.99,0.05661
3211.98,0.056582
3213.97,0.056772
3215.96,0.057164
3217.96,0.057219
3219.96,0.057199
3221.96,0.057505
3223.96,0.057858
3225.97,0.057931
3227.98,0.057903
3229.99,0.058136
3232.0,0.058453
3234.02,0.058617
3236.04,0.058907
3238.06,0.059043
3240.08,0.059253
3242.11,0.059686
3244.14,0.059925
3246.17,0.05996
3248.2,0.060024
3250.24,0.060352
3252.28,0.060764
3254.32,0.061069
3256.37,0.060984
3258.41,0.061026
3260.46,0.061293
3262.51,0.061287
3264.57,0.06141
3266.63,0.061851
3268.69,0.062223
3270.75,0.06239
3272.81,0.062496
3274.88,0.06264
3276.95,0.062777
3279.02,0.063091
3281.1,0.063416
3283.18,0.063663
3285.26,0.063972
3287.34,0.064139
3289.43,0.064363
3291.51,0.064517
3293.61,0.064418
3295.7,0.064488
3297.8,0.064699
3299.9,0.064729
3302.0,0.064811
3304.1,0.065273
3306.21,0.065622
3308.32,0.065924
3310.43,0.066193
3312.55,0.066208
3314.66,0.066566
3316.79,0.067151
3318.91,0.067398
3321.03,0.067638
3323.16,0.067907
3325.29,0.068057
3327.43,0.068195
3329.57,0.068494
3331.71,0.068639
3333.85,0.068843
3335.99,0.069288
3338.14,0.069577
3340.29,0.070014
3342.45,0.070456
3344.6,0.070712
3346.76,0.070969
3348.92,0.071318
3351.09,0.071916
3353.26,0.072325
3355.43,0.072638
3357.6,0.073151
3359.78,0.073759
3361.96,0.074268
3364.14,0.074676
3366.32,0.075146
3368.51,0.075806
3370.7,0.076069
3372.89,0.076468
3375.09,0.077001
3377.29,0.077517
3379.49,0.077892
3381.69,0.07824
3383.9,0.078545
3386.11,0.078902
3388.32,0.079163
3390.54,0.079517
3392.76,0.079958
3394.98,0.080286
3397.21,0.080566
3399.43,0.081056
3401.66,0.08131
3403.9,0.081328
3406.13,0.081726
3408.37,0.082325
3410.61,0.082529
3412.86,0.082741
3415.11,0.083142
3417.36,0.083476
3419.61,0.084103
3421.87,0.08482
3424.13,0.085284
3426.39,0.085816
3428.66,0.086365
3430.93,0.086948
3433.2,0.087505
3435.48,0.088073
3437.76,0.088861
3440.04,0.089499
3442.32,0.089903
3444.61,0.090458
3446.9,0.091152
3449.19,0.091682
3451.49,0.092242
3453.79,0.093108
3456.09,0.093747
3458.4,0.094251
3460.7,0.094794
3463.02,0.095081
3465.33,0.095713
3467.65,0.096493
3469.97,0.096996
3472.29,0.0975
3474.62,0.098016
3476.95,0.098464
3479.29,0.098956
3481.62,0.099457
3483.96,0.100149
3486.3,0.100741
3488.65,0.10144
3491.0,0.10188
3493.35,0.102316
3495.71,0.102871
3498.07,0.103394
3500.43,0.104174
3502.79,0.104895
3505.16,0.105243
3507.53,0.105712
3509.91,0.106427
3512.29,0.10689
3514.67,0.10752
3517.05,0.108452
3519.44,0.109117
3521.83,0.109571
3524.23,0.109999
3526.62,0.110655
3529.02,0.11154
3531.43,0.112409
3533.83,0.113156
3536.24,0.113792
3538.66,0.114478
3541.08,0.115146
3543.5,0.115714
3545.92,0.116547
3548.35,0.117546
3550.78,0.118161
3553.21,0.118794
3555.65,0.119657
3558.09,0.120548
3560.53,0.12116
3562.98,0.121896
3565.43,0.122669
3567.88,0.123316
3570.34,0.123994
3572.8,0.124857
3575.27,0.125723
3577.73,0.126692
3580.2,0.127469
3582.68,0.128178
3585.16,0.129085
3587.64,0.130005
3590.12,0.130823
3592.61,0.131605
3595.1,0.1323
3597.6,0.133371
3600.09,0.134555
3602.6,0.135527
3605.1,0.136222
3607.61,0.137017
3610.12,0.137884
3612.64,0.138786
3615.16,0.139797
3617.68,0.140635
3620.21,0.141402
3622.74,0.142524
3625.27,0.143417
3627.81,0.144065
3630.35,0.144932
3632.89,0.145934
3635.44,0.146915
3637.99,0.147839
3640.54,0.148618
3643.1,0.149423
3645.66,0.150294
3648.23,0.151134
3650.8,0.151961
3653.37,0.152795
3655.95,0.153605
3658.53,0.154396
3661.11,0.155195
3663.7,0.155936
3666.29,0.156567
3668.89,0.157348
3671.48,0.158031
3674.09,0.158767
3676.69,0.159561
3679.3,0.160518
3681.91,0.161268
3684.53,0.162006
3687.15,0.162871
3689.78,0.163689
3692.4,0.164383
3695.04,0.165199
3697.67,0.166034
3700.31,0.167183
3702.95,0.1682
3705.6,0.168994
3708.25,0.170002
3710.91,0.171039
3713.56,0.171842
3716.23,0.172577
3718.89,0.173565
3721.56,0.174605
3724.23,0.175418
3726.91,0.176081
3729.59,0.176953
3732.28,0.177911
3734.97,0.178624
3737.66,0.179505
3740.36,0.18027
3743.06,0.181038
3745.76,0.18172
3748.47,0.182512
3751.18,0.183396
3753.9,0.184275
3756.62,0.184984
3759.34,0.185752
3762.07,0.186528
3764.8,0.187246
3767.54,0.187885
3770.28,0.188553
3773.02,0.189088
3775.77,0.189759
3778.52,0.190595
3781.28,0.191172
3784.04,0.191763
3786.8,0.192475
3789.57,0.192979
3792.34,0.19368
3795.12,0.194329
3797.9,0.194728
3800.69,0.195107
3803.47,0.195631
3806.27,0.196193
3809.06,0.196782
3811.86,0.197008
3814.67,0.197374
3817.48,0.197898
3820.29,0.198233
3823.11,0.198408
3825.93,0.198791
3828.76,0.199278
3831.59,0.199606
3834.42,0.199824
3837.26,0.20021
3840.1,0.200294
3842.95,0.200344
3845.8,0.200464
3848.65,0.200603
3851.51,0.200581
3854.38,0.200292
3857.24,0.199818
3860.12,0.199052
3862.99,0.197716
3865.87,0.195352
3868.76,0.191628
3871.65,0.18814
3874.54,0.18767
3877.44,0.190853
3880.34,0.194884
3883.25,0.197707
3886.16,0.199551
3889.07,0.200884
3891.99,0.201572
3894.92,0.202079
3897.85,0.202351
3900.78,0.202436
3903.72,0.202647
3906.66,0.202881
3909.6,0.202732
3912.55,0.202645
3915.51,0.20268
3918.47,0.202545
3921.43,0.202425
3924.4,0.202304
3927.38,0.202167
3930.35,0.202238
3933.33,0.202015
3936.32,0.201816
3939.31,0.201666
3942.31,0.201569
3945.31,0.201525
3948.31,0.201419
3951.32,0.201156
3954.34,0.200959
3957.35,0.200951
3960.38,0.200776
3963.41,0.200391
3966.44,0.200186
3969.48,0.199987
3972.52,0.199773
3975.56,0.199518
3978.61,0.199103
3981.67,0.198672
3984.73,0.19851
3987.8,0.198338
3990.87,0.197931
3993.94,0.19767
3997.02,0.197356
4000.1,0.196869
4003.19,0.196434
4006.29,0.196026
4009.39,0.195577
4012.49,0.195019
4015.6,0.194509
4018.71,0.193996
4021.83,0.193519
4024.95,0.192982
4028.08,0.192426
4031.21,0.191664
4034.35,0.190996
4037.49,0.190264
4040.64,0.189495
4043.79,0.188647
4046.94,0.187893
4050.11,0.187126
4053.27,0.186156
4056.44,0.185341
4059.62,0.184618
4062.8,0.183668
4065.99,0.182623
4069.18,0.181761
4072.38,0.180996
4075.58,0.179887
4078.78,0.178917
4082.0,0.178245
4085.21,0.177747
4088.43,0.177015
4091.66,0.176373
4094.89,0.175759
4098.13,0.175166
4101.37,0.174692
4104.62,0.174208
4107.87,0.173649
4111.13,0.173125
4114.39,0.172386
4117.66,0.171725
4120.93,0.171296
4124.21,0.170799
4127.5,0.170136
4130.79,0.169641
4134.08,0.169109
4137.38,0.168693
4140.68,0.168322
4143.99,0.168041
4147.31,0.167857
4150.63,0.167854
4153.95,0.167842
4157.29,0.167962
4160.62,0.168203
4163.96,0.168561
4167.31,0.168933
4170.66,0.169316
4174.02,0.169585
4177.39,0.169642
4180.75,0.169439
4184.13,0.169363
4187.51,0.169113
4190.89,0.168668
4194.28,0.16808
4197.68,0.167614
4201.08,0.166982
4204.49,0.166372
4207.9,0.165812
4211.32,0.165082
4214.74,0.164239
4218.17,0.163213
4221.61,0.161893
4225.05,0.160281
4228.5,0.158411
4231.95,0.156605
4235.4,0.154582
4238.87,0.152432
4242.34,0.150282
4245.81,0.148205
4249.29,0.14619
4252.78,0.144443
4256.27,0.1428
4259.77,0.141385
4263.27,0.139972
4266.78,0.138413
4270.29,0.136875
4273.81,0.135343
4277.34,0.133905
4280.87,0.13261
4284.41,0.13145
4287.95,0.130369
4291.5,0.129109
4295.06,0.127843
4298.62,0.126647
4302.19,0.125537
4305.76,0.124072
4309.34,0.122172
4312.92,0.119698
4316.52,0.117032
4320.11,0.113804
4323.72,0.110169
4327.32,0.106298
4330.94,0.102355
4334.56,0.098456
4338.19,0.095147
4341.82,0.092207
4345.46,0.089802
4349.11,0.087768
4352.76,0.086156
4356.42,0.084719
4360.08,0.083585
4363.75,0.082687
4367.43,0.081973
4371.11,0.081451
4374.8,0.081099
4378.49,0.080854
4382.19,0.081097
4385.9,0.081688
4389.61,0.082471
4393.33,0.083213
4397.06,0.084062
4400.79,0.0848
4404.53,0.085535
4408.28,0.086107
4412.03,0.086339
4415.79,0.086203
4419.55,0.08592
4423.32,0.085363
4427.1,0.084663
4430.88,0.083676
4434.68,0.082561
4438.47,0.081552
4442.28,0.080514
4446.08,0.079614
4449.9,0.078979
4453.72,0.078278
4457.55,0.077657
4461.39,0.077063
4465.23,0.076409
4469.08,0.075858
4472.94,0.075351
4476.8,0.074619
4480.67,0.073538
4484.55,0.072376
4488.43,0.071342
4492.32,0.070222
4496.21,0.069089
4500.12,0.068285
4504.03,0.068027
4507.94,0.068131
4511.87,0.068388
4515.8,0.068632
4519.73,0.068963
4523.68,0.069138
4527.63,0.069296
4531.59,0.069436
4535.55,0.069375
4539.52,0.068969
4543.5,0.068437
4547.49,0.067875
4551.48,0.06728
4555.48,0.066695
4559.49,0.06631
4563.5,0.065719
4567.52,0.065203
4571.55,0.064679
4575.58,0.063741
4579.63,0.062488
4583.67,0.061061
4587.73,0.059394
4591.79,0.058023
4595.86,0.057109
4599.94,0.056632
4604.03,0.056769
4608.12,0.057575
4612.22,0.0586
4616.33,0.059812
4620.44,0.061255
4624.56,0.062772
4628.69,0.064328
4632.83,0.065804
4636.97,0.067299
4641.12,0.069372
4645.28,0.071748
4649.45,0.074145
4653.62,0.076767
4657.8,0.079589
4661.99,0.081991
4666.19,0.083468
4670.39,0.083666
4674.6,0.083004
4678.82,0.081896
4683.05,0.080998
4687.28,0.080364
4691.52,0.079958
4695.77,0.079568
4700.03,0.078955
4704.3,0.078194
4708.57,0.077514
4712.85,0.076708
4717.14,0.075622
4721.43,0.074267
4725.74,0.072944
4730.05,0.071695
4734.37,0.071007
4738.7,0.071341
4743.03,0.073148
4747.38,0.076406
4751.73,0.080912
4756.09,0.086523
4760.45,0.093146
4764.83,0.100697
4769.21,0.109413
4773.6,0.119556
4778.0,0.131532
4782.41,0.145009
4786.83,0.159258
4791.25,0.172765
4795.68,0.184982
4800.13,0.195593
4804.57,0.204669
4809.03,0.212228
4813.5,0.218515
4817.97,0.223624
4822.45,0.228006
4826.94,0.230995
4831.44,0.232407
4835.95,0.231958
4840.46,0.229572
4844.99,0.225399
4849.52,0.22104
4854.06,0.218594
4858.61,0.220088
4863.17,0.225695
4867.73,0.23449
4872.31,0.243683
4876.89,0.251365
4881.48,0.256446
4886.08,0.259498
4890.69,0.262768
4895.31,0.268348
4899.94,0.275354
4904.57,0.282368
4909.22,0.288283
4913.87,0.293474
4918.53,0.298015
4923.21,0.302126
4927.88,0.305564
4932.57,0.308761
4937.27,0.311453
4941.98,0.313923
4946.69,0.316206
4951.42,0.318464
4956.15,0.320351
4960.9,0.322023
4965.65,0.323337
4970.41,0.324623
4975.18,0.325571
4979.96,0.326462
4984.75,0.327251
4989.54,0.328255
4994.35,0.329128
4999.17,0.330134
5003.99,0.330954
5008.83,0.331773
5013.67,0.332298
5018.52,0.333068
5023.39,0.333737
5028.26,0.334053
5033.14,0.334338
5038.03,0.334791
5042.93,0.334921
5047.84,0.335207
5052.76,0.335287
5057.69,0.335503
5062.63,0.335486
5067.58,0.335406
5072.54,0.335184
5077.51,0.335135
5082.49,0.33487
5087.47,0.334707
5092.47,0.334276
5097.48,0.334097
5102.5,0.333681
5107.52,0.333312
5112.56,0.332658
5117.61,0.332359
5122.66,0.331961
5127.73,0.331647
5132.81,0.331185
5137.89,0.330857
5142.99,0.330288
5148.1,0.329978
5153.22,0.329476
5158.34,0.328615
5163.48,0.328036
5168.63,0.327599
5173.79,0.327098
5178.96,0.326899
5184.13,0.326491
5189.32,0.32635
5194.52,0.326113
5199.73,0.326099
5204.96,0.325921
5210.19,0.325697
5215.43,0.326129
5220.68,0.325832
5225.94,0.325054
5231.22,0.324941
5236.5,0.324637
5241.79,0.324362
5247.1,0.323469
5252.42,0.322794
5257.74,0.32208
5263.08,0.321262
5268.43,0.320224
5273.79,0.319401
5279.16,0.318453
5284.54,0.317398
5289.93,0.31632
5295.34,0.315842
5300.75,0.314526
5306.18,0.313595
5311.61,0.312789
5317.06,0.312261
5322.52,0.311539
5327.99,0.31095
5333.47,0.310466
5338.96,0.310222
5344.47,0.309768
5349.98,0.310109
5355.51,0.310047
5361.05,0.309097
5366.6,0.308442
5372.16,0.308105
5377.73,0.307654
5383.32,0.307074
5388.91,0.30637
5394.52,0.305743
5400.14,0.30483
5405.77,0.303722
5411.41,0.302553
5417.07,0.301247
5422.74,0.300314
5428.41,0.29834
5434.1,0.294769
5439.81,0.292641
5445.52,0.290087
5451.25,0.287269
5456.98,0.284055
5462.73,0.281205
5468.5,0.278022
5474.27,0.273487
5480.06,0.269785
5485.86,0.26607
5491.67,0.261686
5497.49,0.25846
5503.33,0.255179
5509.18,0.252176
5515.04,0.24933
5520.91,0.247442
5526.8,0.245526
5532.69,0.243652
5538.61,0.241861
5544.53,0.240695
5550.47,0.239594
5556.41,0.238826
5562.38,0.237595
5568.35,0.236743
5574.34,0.236086
5580.34,0.236243
5586.35,0.235108
5592.38,0.233512
5598.42,0.232835
5604.47,0.232624
5610.54,0.23169
5616.61,0.231157
5622.71,0.230366
5628.81,0.229293
5634.93,0.228379
5641.06,0.22799
5647.21,0.227032
5653.36,0.22421
5659.54,0.222239
5665.72,0.219974
5671.92,0.218201
5678.13,0.21739
5684.36,0.215142
5690.6,0.213413
5696.85,0.212357
5703.12,0.210478
5709.4,0.20952
5715.69,0.208515
5722.0,0.206203
5728.33,0.2043
5734.66,0.20215
5741.01,0.200322
5747.38,0.198202
5753.76,0.196301
5760.15,0.193181
5766.56,0.192517
5772.98,0.190185
5779.41,0.185824
5785.86,0.183479
5792.33,0.18081
5798.81,0.177827
5805.3,0.175079
5811.81,0.171859
5818.33,0.169607
5824.87,0.167537
5831.42,0.163483
5837.99,0.159117
5844.57,0.155342
5851.17,0.15186
5857.78,0.148469
5864.41,0.144873
5871.05,0.14057
5877.7,0.1365
5884.38,0.134069
5891.06,0.127138
5897.76,0.12257
5904.48,0.117294
5911.21,0.111912
5917.96,0.109608
5924.73,0.10756
5931.5,0.105848
5938.3,0.105425
5945.11,0.103907
5951.93,0.102194
5958.78,0.101982
5965.63,0.10172
5972.51,0.101936
5979.39,0.101008
5986.3,0.100579
5993.22,0.100614
6000.16,0.099587
6007.11,0.098435
6014.08,0.097925
6021.06,0.09705
6028.06,0.095795
6035.08,0.094863
6042.12,0.094145
6049.17,0.094517
6056.23,0.093489
6063.32,0.090735
6070.42,0.09075
6077.53,0.090733
6084.67,0.089669
6091.82,0.089144
6098.98,0.089379
6106.17,0.089544
6113.37,0.090376
6120.58,0.090777
6127.82,0.090156
6135.07,0.09053
6142.34,0.091524
6149.63,0.092411
6156.93,0.093199
6164.25,0.094289
6171.59,0.095071
6178.95,0.096155
6186.32,0.09811
6193.71,0.099422
6201.12,0.100204
6208.54,0.101743
6215.99,0.103275
6223.45,0.104666
6230.93,0.105976
6238.43,0.107297
6245.95,0.108439
6253.48,0.109409
6261.03,0.110257
6268.6,0.110982
6276.19,0.111584
6283.8,0.111845
6291.43,0.112008
6299.07,0.11222
6306.73,0.112456
6314.42,0.11274
6322.12,0.113011
6329.84,0.113449
6337.57,0.114088
6345.33,0.115205
6353.11,0.115542
6360.9,0.115132
6368.72,0.116218
6376.55,0.117448
6384.4,0.11775
6392.27,0.118662
6400.17,0.120045
6408.08,0.121682
6416.01,0.124636
6423.96,0.125121
6431.93,0.124349
6439.92,0.125069
6447.93,0.12506
6455.96,0.125297
6464.01,0.124799
6472.08,0.124254
6480.17,0.123756
6488.28,0.123237
6496.41,0.123023
6504.56,0.120694
6512.73,0.118163
6520.92,0.117575
6529.14,0.115942
6537.37,0.113131
6545.63,0.111364
6553.9,0.109515
6562.2,0.107288
6570.51,0.105332
6578.85,0.103524
6587.21,0.100556
6595.59,0.098901
6603.99,0.097122
6612.42,0.095423
6620.86,0.094342
6629.33,0.09349
6637.82,0.093536
6646.33,0.092198
6654.86,0.089487
6663.41,0.08826
6671.99,0.087546
6680.59,0.086519
6689.21,0.084991
6697.85,0.082942
6706.51,0.08187
6715.2,0.081045
6723.91,0.079734
6732.64,0.078407
6741.4,0.077288
6750.18,0.076626
6758.98,0.076172
6767.8,0.075739
6776.65,0.075748
6785.52,0.075906
6794.41,0.076296
6803.33,0.075999
6812.27,0.075914
6821.23,0.076524
6830.22,0.077271
6839.23,0.077538
6848.26,0.077875
6857.32,0.078721
6866.4,0.079632
6875.51,0.079167
6884.64,0.07854
6893.8,0.078551
6902.98,0.078126
6912.18,0.07752
6921.41,0.076518
6930.66,0.075751
6939.94,0.07493
6949.24,0.074138
6958.57,0.07364
6967.92,0.072833
6977.3,0.07121
6986.7,0.070356
6996.13,0.069563
7005.59,0.068752
7015.07,0.068209
7024.57,0.067967
7034.1,0.067737
7043.66,0.067945
7053.25,0.068438
7062.85,0.068388
7072.49,0.068622
7082.15,0.069126
7091.84,0.069841
7101.55,0.070424
7111.3,0.071139
7121.06,0.071731
7130.86,0.072147
7140.68,0.072565
7150.53,0.072903
7160.41,0.072686
7170.31,0.072586
7180.24,0.072363
7190.2,0.071807
7200.19,0.071596
7210.2,0.071279
7220.24,0.070466
7230.31,0.069589
7240.41,0.068966
7250.54,0.068139
7260.69,0.067114
7270.88,0.066121
7281.09,0.065241
7291.33,0.063909
7301.6,0.062696
7311.9,0.061743
7322.22,0.06072
7332.58,0.059921
7342.97,0.059104
7353.38,0.057972
7363.83,0.056942
7374.3,0.055802
7384.81,0.054256
7395.34,0.052412
7405.91,0.050481
7416.5,0.048498
7427.13,0.046336
7437.78,0.044177
7448.47,0.042009
7459.19,0.04002
7469.94,0.038163
7480.71,0.036219
7491.52,0.034474
7502.37,0.033049
7513.24,0.031793
7524.14,0.030952
7535.08,0.030249
7546.05,0.029771
7557.05,0.029283
7568.08,0.028796
7579.15,0.028474
7590.24,0.028553
7601.37,0.02886
7612.53,0.029667
7623.73,0.030984
7634.96,0.032856
7646.22,0.035513
7657.51,0.03903
7668.84,0.043128
7680.2,0.04781
7691.59,0.053116
7703.02,0.059207
7714.49,0.065947
7725.98,0.073076
7737.52,0.080437
7749.08,0.088037
7760.68,0.095648
7772.32,0.102871
7783.99,0.109315
7795.69,0.11475
7807.43,0.119048
7819.21,0.121875
7831.02,0.123179
7842.87,0.123193
7854.75,0.122021
7866.67,0.120083
7878.62,0.118047
7890.62,0.115721
7902.64,0.1132
7914.71,0.110582
7926.81,0.107869
7938.95,0.105051
7951.13,0.101959
7963.34,0.09873
7975.59,0.095368
7987.88,0.091866
8000.21,0.088424
8012.57,0.085135
8024.98,0.081823
8037.42,0.078867
8049.9,0.076345
8062.42,0.074059
8074.98,0.071865
8087.57,0.069906
8100.21,0.068259
8112.89,0.067075
8125.6,0.066337
8138.36,0.065915
8151.16,0.065478
8163.99,0.065241
8176.87,0.065434
8189.79,0.065886
8202.75,0.066654
8215.75,0.067804
8228.79,0.069225
8241.87,0.070971
8254.99,0.073126
8268.16,0.075876
8281.37,0.079183
8294.62,0.082849
8307.91,0.086912
8321.24,0.091488
8334.62,0.096486
8348.04,0.101883
8361.51,0.107842
8375.02,0.114653
8388.57,0.122022
8402.16,0.129721
8415.8,0.138001
8429.49,0.146863
8443.22,0.156281
8456.99,0.16653
8470.81,0.178184
8484.67,0.191351
8498.58,0.206497
8512.54,0.223809
8526.54,0.243355
8540.58,0.264209
8554.68,0.285315
8568.82,0.304219
8583.0,0.318005
8597.24,0.322855
8611.52,0.315197
8625.85,0.291384
8640.23,0.256972
8654.65,0.231059
8669.12,0.229105
8683.64,0.245585
8698.21,0.267447
8712.83,0.287207
8727.5,0.303418
8742.22,0.316546
8756.99,0.327651
8771.8,0.336635
8786.67,0.344213
8801.59,0.350551
8816.56,0.355932
8831.58,0.360304
8846.65,0.364577
8861.77,0.368516
8876.94,0.372344
8892.17,0.375569
8907.45,0.378698
8922.78,0.381479
8938.16,0.383911
8953.6,0.38566
8969.09,0.387338
8984.64,0.388273
9000.23,0.388551
9015.89,0.38812
9031.59,0.387347
9047.36,0.38602
9063.17,0.384913
9079.05,0.38346
9094.97,0.382062
9110.96,0.38051
9127.0,0.378875
9143.1,0.377061
9159.25,0.375332
9175.46,0.373057
9191.73,0.370668
9208.06,0.367639
9224.44,0.364003
9240.88,0.359189
9257.38,0.353747
9273.94,0.346873
9290.56,0.337897
9307.24,0.325747
9323.98,0.309496
9340.78,0.287105
9357.64,0.259867
9374.57,0.232636
9391.55,0.209666
9408.59,0.191115
9425.7,0.176373
9442.87,0.164725
9460.1,0.155222
9477.4,0.147217
9494.75,0.14025
9512.17,0.134086
9529.66,0.128462
9547.21,0.123302
9564.83,0.118667
9582.5,0.114507
9600.25,0.110537
9618.06,0.106696
9635.94,0.103015
9653.88,0.099344
9671.89,0.095954
9689.97,0.0944
9708.12,0.099422
9726.33,0.114317
9744.62,0.129593
9762.97,0.132026
9781.39,0.122831
9799.88,0.112022
9818.44,0.104828
9837.07,0.100151
9855.77,0.097029
9874.54,0.094741
9893.39,0.093027
9912.3,0.091785
9931.29,0.090528
9950.36,0.089327
9969.49,0.088518
9988.7,0.088061
10007.98,0.087744
10027.34,0.087317
10046.77,0.086698
10066.28,0.086168
10085.87,0.085819
10105.53,0.085442
10125.26,0.085019
10145.08,0.084666
10164.97,0.084282
10184.94,0.083815
10204.99,0.083558
10225.12,0.083523
10245.33,0.083836
10265.61,0.084275
10285.98,0.084542
10306.43,0.084835
10326.96,0.085315
10347.57,0.085327
10368.27,0.085088
10389.05,0.085063
10409.91,0.085014
10430.86,0.084759
10451.88,0.084393
10473.0,0.083834
10494.2,0.083277
10515.49,0.082676
10536.86,0.08224
10558.32,0.081865
10579.87,0.081338
10601.5,0.08107
10623.23,0.080971
10645.04,0.080822
10666.94,0.080553
10688.94,0.080364
10711.02,0.080236
10733.2,0.079855
10755.47,0.079403
10777.83,0.078862
10800.28,0.078133
10822.83,0.077452
10845.47,0.076803
10868.21,0.075999
10891.04,0.074988
10913.97,0.074216
10936.99,0.073609
10960.12,0.072774
10983.34,0.071847
11006.66,0.070987
11030.07,0.070031
11053.59,0.069164
11077.21,0.068499
11100.93,0.068069
11124.75,0.06764
11148.68,0.066938
11172.71,0.066505
11196.84,0.066222
11221.07,0.065799
11245.41,0.06547
11269.86,0.065177
11294.41,0.064867
11319.07,0.064732
11343.84,0.06486
11368.72,0.065221
11393.7,0.065816
11418.8,0.066238
11444.01,0.066197
11469.33,0.066056
11494.76,0.065722
11520.3,0.065308
11545.96,0.064731
11571.73,0.064043
11597.62,0.063419
11623.62,0.062816
11649.74,0.062314
11675.98,0.061734
11702.34,0.061099
11728.81,0.060452
11755.41,0.059922
11782.13,0.059157
11808.96,0.058263
11835.92,0.057296
11863.01,0.056048
11890.22,0.054815
11917.55,0.053733
11945.01,0.052776
11972.6,0.051721
12000.31,0.050467
12028.16,0.049107
12056.13,0.048026
12084.23,0.04694
12112.46,0.045676
12140.83,0.044538
12169.33,0.043152
12197.96,0.041705
12226.73,0.040228
12255.64,0.038886
12284.68,0.037708
12313.86,0.036346
12343.18,0.03504
12372.64,0.033867
12402.24,0.032411
12431.98,0.031236
12461.86,0.030578
12491.89,0.029918
12522.07,0.029103
12552.38,0.027973
12582.85,0.026935
12613.47,0.026224
12644.23,0.025401
12675.15,0.024729
12706.21,0.023877
12737.43,0.022878
12768.81,0.022092
12800.33,0.021531
12832.02,0.020511
12863.86,0.01962
12895.86,0.018826
12928.02,0.018396
12960.34,0.017841
12992.82,0.017417
13025.46,0.017236
13058.27,0.017411
13091.25,0.017901
13124.39,0.018677
13157.7,0.019438
13191.18,0.020631
13224.83,0.022418
13258.66,0.024958
13292.65,0.028016
13326.83,0.031662
13361.17,0.035982
13395.7,0.040908
13430.4,0.046816
13465.29,0.053241
13500.35,0.060276
13535.6,0.068057
13571.03,0.076498
13606.65,0.085521
13642.46,0.09503
13678.46,0.105048
13714.64,0.115649
13751.02,0.126417
13787.59,0.137429
13824.36,0.148653
13861.32,0.160494
13898.49,0.173116
13935.85,0.186182
13973.41,0.199475
14011.17,0.212451
14049.15,0.224072
14087.32,0.233952
14125.71,0.241846
14164.3,0.248412
14203.11,0.253551
14242.13,0.257775
14281.36,0.261282
14320.81,0.264321
14360.49,0.266746
14400.38,0.268548
14440.49,0.269454
14480.82,0.269696
14521.39,0.268616
14562.18,0.266576
14603.2,0.263034
14644.45,0.258031
14685.93,0.251245
14727.66,0.243003
14769.62,0.233026
14811.81,0.221386
14854.25,0.208448
14896.94,0.195824
14939.87,0.183176
14983.05,0.170154
15026.48,0.157158
15070.16,0.144293
15114.1,0.131099
15158.29,0.11812
15202.74,0.105519
15247.46,0.093422
15292.43,0.083733
15337.68,0.078764
15383.19,0.07933
15428.97,0.084814
15475.03,0.097439
15521.36,0.122368
15567.97,0.157609
15614.87,0.192074
15662.04,0.218339
15709.5,0.236357
15757.25,0.248764
15805.29,0.25724
15853.62,0.262679
15902.26,0.266163
15951.19,0.267596
16000.42,0.266752
16049.95,0.261888
16099.8,0.250919
16149.95,0.2329
16200.42,0.209626
16251.21,0.185045
16302.31,0.16373
16353.74,0.15211
16405.49,0.157614
16457.57,0.182377
16509.98,0.219804
16562.73,0.258139
16615.82,0.289118
16669.24,0.309692
16723.02,0.319956
16777.14,0.320205
16831.61,0.312261
16886.43,0.296286
16941.62,0.274103
16997.16,0.249859
17053.08,0.228021
17109.36,0.20928
17166.01,0.19401
17223.04,0.181462
17280.45,0.171197
17338.24,0.161787
17396.43,0.153554
17455.0,0.146681
17513.97,0.14076
17573.34,0.136047
17633.11,0.132133
17693.29,0.127978
17753.89,0.123798
17814.9,0.120103
17876.33,0.116857
17938.18,0.114077
18000.47,0.111407
18063.19,0.108631
18126.35,0.105739
18189.95,0.102692
18254.0,0.099856
18318.5,0.097577
18383.46,0.095018
18448.88,0.092195
18514.77,0.089995
18581.13,0.088164
18647.97,0.087902
18715.29,0.089805
18783.1,0.09409
18851.4,0.100658
18920.2,0.106831
18989.51,0.111876
19059.32,0.115056
19129.65,0.115869
19200.5,0.11553
19271.88,0.114106
19343.79,0.111672
19416.24,0.107872
19489.23,0.104566
19562.77,0.101403
19636.88,0.097644
19711.54,0.09468
19786.78,0.092315
19862.59,0.090048
19938.98,0.088313
20015.96,0.086869
20093.55,0.084776
20171.73,0.082803
20250.53,0.080968
20329.94,0.078505
20409.98,0.076214
20490.65,0.075978
20571.96,0.079181
20653.92,0.082558
20736.54,0.083605
20819.82,0.08405
20903.77,0.084332
20988.4,0.084372
21073.72,0.082681
21159.73,0.080727
21246.46,0.080452
21333.89,0.079699
21422.04,0.07836
21510.93,0.076265
21600.56,0.074081
21690.94,0.073983
21782.08,0.072109
21873.99,0.068698
21966.67,0.067152
22060.15,0.065098
22154.42,0.062602
22249.51,0.06285
22345.41,0.065133
22442.14,0.069369
22539.72,0.077889
22638.14,0.089169
22737.43,0.101652
22837.6,0.11372
22938.65,0.120806
23040.6,0.123748
23143.46,0.126773
23247.24,0.130608
23351.96,0.131525
23457.63,0.131033
23564.25,0.12906
23671.85,0.124811
23780.44,0.121746
23890.02,0.119856
24000.63,0.115693
24112.26,0.111355
24224.93,0.108848
24338.66,0.103685
24453.47,0.098731
24569.36,0.094561
24686.36,0.088283
24804.47,0.085731
24923.73,0.084393
25044.13,0.077825
25165.71,0.072534
25288.46,0.073885
25412.43,0.064425
25537.61,0.059584
25664.04,0.057097
25791.72,0.049489
25920.68,0.046388
