Database of Origin,University of Winnipeg Spectrophotometer Facility
Sample Description,See Master Clays in HOSERLab database
Date Added,2016-12-11 20:59:12.015993

Data ID,RLA_CLAY_57         
Sample ID,CHY102
Grain Size,<45um
Viewing Geometry,"30/0,30"
Resolution,"5,1.1-475"
Composition,Chrysocolla
Material Class,Phyllosilicate

Wavelength
305.0,0.05514
310.0,0.0576
315.0,0.0621
320.0,0.06682
325.0,0.07431
330.0,0.08213
335.0,0.09097
340.0,0.10369
345.0,0.11756
350.0,0.13685
355.0,0.15944
360.0,0.18546
365.0,0.2147
370.0,0.24542
375.0,0.2775
380.0,0.30894
385.0,0.33813
390.0,0.36525
395.0,0.38898
400.0,0.41192
405.0,0.43036
410.0,0.44717
415.0,0.46281
420.0,0.47643
425.0,0.4909
430.0,0.50414
435.0,0.51709
440.0,0.52936
445.0,0.5412
450.0,0.55213
455.0,0.56161
460.0,0.57141
465.0,0.58049
470.0,0.58845
475.0,0.59648
480.0,0.60327
485.0,0.61088
490.0,0.61632
495.0,0.62218
500.0,0.62753
505.0,0.63202
510.0,0.63439
515.0,0.63634
520.0,0.63516
525.0,0.63275
530.0,0.62734
535.0,0.62118
540.0,0.61181
545.0,0.60085
550.0,0.58675
555.0,0.5723
560.0,0.55497
565.0,0.53717
570.0,0.51782
575.0,0.49821
580.0,0.47782
585.0,0.45775
590.0,0.43747
595.0,0.41783
600.0,0.39864
605.0,0.38023
610.0,0.36264
615.0,0.34569
620.0,0.32999
625.0,0.31524
630.0,0.30139
635.0,0.28865
640.0,0.27705
645.0,0.26594
650.0,0.25625
655.0,0.2474
660.0,0.2393
665.0,0.23204
670.0,0.22557
675.0,0.2198
680.0,0.21496
685.0,0.21041
690.0,0.20683
695.0,0.20354
700.0,0.20098
705.0,0.1988
710.0,0.19716
715.0,0.19583
720.0,0.19513
725.0,0.19432
730.0,0.19417
735.0,0.19456
740.0,0.1951
745.0,0.19614
750.0,0.19722
755.0,0.1985
760.0,0.20023
765.0,0.20185
770.0,0.2041
775.0,0.20613
780.0,0.20871
785.0,0.21085
790.0,0.21347
795.0,0.21589
800.0,0.21848
805.0,0.22172
810.0,0.22434
815.0,0.22782
820.0,0.23029
825.0,0.23335
830.0,0.23609
835.0,0.23923
840.0,0.24249
845.0,0.24541
850.0,0.24911
855.0,0.25161
860.0,0.25456
865.0,0.25809
870.0,0.26202
875.0,0.26456
880.0,0.26982
885.0,0.27334
890.0,0.27701
895.0,0.28152
900.0,0.28627
905.0,0.29122
910.0,0.29588
915.0,0.30049
920.0,0.30545
925.0,0.31015
930.0,0.31593
935.0,0.32087
940.0,0.32655
945.0,0.33173
950.0,0.33738
955.0,0.34281
960.0,0.3479
965.0,0.35418
970.0,0.35943
975.0,0.36492
980.0,0.37106
985.0,0.37707
990.0,0.3829
995.0,0.38796
1000.0,0.39374
1005.0,0.39882
1010.0,0.40461
1015.0,0.40997
1020.0,0.4156
1025.0,0.42044
1030.0,0.42622
1035.0,0.43139
1040.0,0.43658
1045.0,0.44125
1050.0,0.44693
1055.0,0.45145
1060.0,0.45697
1065.0,0.46183
1070.0,0.46633
1075.0,0.47064
1080.0,0.4757
1085.0,0.48034
1090.0,0.48519
1095.0,0.48943
1100.0,0.49436
1105.0,0.49895
1110.0,0.50346
1115.0,0.50714
1120.0,0.51209
1125.0,0.51634
1130.0,0.5214
1135.0,0.52515
1140.0,0.52895
1145.0,0.53249
1150.0,0.53692
1155.0,0.54102
1160.0,0.54503
1165.0,0.5492
1170.0,0.55387
1175.0,0.55796
1180.0,0.56233
1185.0,0.5664
1190.0,0.57074
1195.0,0.57441
1200.0,0.57861
1205.0,0.5826
1210.0,0.5867
1215.0,0.59081
1220.0,0.59457
1225.0,0.59836
1230.0,0.60218
1235.0,0.60608
1240.0,0.60937
1245.0,0.61303
1250.0,0.61631
1255.0,0.6208
1260.0,0.62391
1265.0,0.62732
1270.0,0.63111
1275.0,0.63447
1280.0,0.63719
1285.0,0.64083
1290.0,0.64419
1295.0,0.64779
1300.0,0.65036
1305.0,0.6531
1310.0,0.6557
1315.0,0.65822
1320.0,0.66103
1325.0,0.66327
1330.0,0.666
1335.0,0.66802
1340.0,0.67032
1345.0,0.67185
1350.0,0.67368
1355.0,0.67459
1360.0,0.67598
1365.0,0.67788
1370.0,0.678
1375.0,0.67697
1380.0,0.67298
1385.0,0.67033
1390.0,0.66258
1395.0,0.64886
1400.0,0.62943
1405.0,0.59692
1410.0,0.56801
1415.0,0.55442
1420.0,0.57393
1425.0,0.58908
1430.0,0.602
1435.0,0.61186
1440.0,0.61885
1445.0,0.62411
1450.0,0.62799
1455.0,0.63099
1460.0,0.63315
1465.0,0.63618
1470.0,0.64025
1475.0,0.64646
1480.0,0.65218
1485.0,0.65798
1490.0,0.66337
1495.0,0.66816
1500.0,0.67307
1505.0,0.67836
1510.0,0.68278
1515.0,0.68706
1520.0,0.69105
1525.0,0.69492
1530.0,0.69854
1535.0,0.70238
1540.0,0.70636
1545.0,0.70873
1550.0,0.71206
1555.0,0.7154
1560.0,0.71856
1565.0,0.72147
1570.0,0.72333
1575.0,0.72584
1580.0,0.72822
1585.0,0.73027
1590.0,0.73223
1595.0,0.73423
1600.0,0.73672
1605.0,0.73801
1610.0,0.73964
1615.0,0.74138
1620.0,0.74255
1625.0,0.74316
1630.0,0.74422
1635.0,0.74515
1640.0,0.74635
1645.0,0.7472
1650.0,0.74862
1655.0,0.74921
1660.0,0.74955
1665.0,0.75178
1670.0,0.75226
1675.0,0.7525
1680.0,0.75205
1685.0,0.7531
1690.0,0.75298
1695.0,0.75312
1700.0,0.75284
1705.0,0.75285
1710.0,0.75287
1715.0,0.7532
1720.0,0.75157
1725.0,0.7515
1730.0,0.75033
1735.0,0.7494
1740.0,0.74845
1745.0,0.74693
1750.0,0.74611
1755.0,0.74532
1760.0,0.74366
1765.0,0.74039
1770.0,0.7405
1775.0,0.73933
1780.0,0.73765
1785.0,0.73767
1790.0,0.73731
1795.0,0.73629
1800.0,0.73597
1805.0,0.73632
1810.0,0.736
1815.0,0.73599
1820.0,0.73527
1825.0,0.73573
1830.0,0.73422
1835.0,0.73383
1840.0,0.7324
1845.0,0.73127
1850.0,0.72796
1855.0,0.7231
1860.0,0.71574
1865.0,0.70569
1870.0,0.6904
1875.0,0.66844
1880.0,0.64034
1885.0,0.60481
1890.0,0.56339
1895.0,0.51462
1900.0,0.47023
1905.0,0.44098
1910.0,0.4328
1915.0,0.437
1920.0,0.44456
1925.0,0.45307
1930.0,0.45887
1935.0,0.46528
1940.0,0.47065
1945.0,0.47714
1950.0,0.48058
1955.0,0.48558
1960.0,0.49196
1965.0,0.49821
1970.0,0.50414
1975.0,0.51165
1980.0,0.51852
1985.0,0.52642
1990.0,0.53389
1995.0,0.5407
2000.0,0.54805
2005.0,0.55591
2010.0,0.56387
2015.0,0.57158
2020.0,0.57809
2025.0,0.58438
2030.0,0.58982
2035.0,0.59504
2040.0,0.60044
2045.0,0.60452
2050.0,0.6092
2055.0,0.61443
2060.0,0.61807
2065.0,0.62088
2070.0,0.62448
2075.0,0.6277
2080.0,0.63003
2085.0,0.63261
2090.0,0.63475
2095.0,0.63741
2100.0,0.63877
2105.0,0.64018
2110.0,0.64265
2115.0,0.6437
2120.0,0.64552
2125.0,0.64793
2130.0,0.64959
2135.0,0.65046
2140.0,0.65044
2145.0,0.65105
2150.0,0.65087
2155.0,0.65091
2160.0,0.6508
2165.0,0.64963
2170.0,0.6496
2175.0,0.64764
2180.0,0.64498
2185.0,0.64291
2190.0,0.64119
2195.0,0.63838
2200.0,0.63368
2205.0,0.63027
2210.0,0.62414
2215.0,0.61773
2220.0,0.60818
2225.0,0.59791
2230.0,0.58528
2235.0,0.5719
2240.0,0.55439
2245.0,0.53887
2250.0,0.52622
2255.0,0.52138
2260.0,0.52091
2265.0,0.52147
2270.0,0.52144
2275.0,0.52454
2280.0,0.53044
2285.0,0.53931
2290.0,0.54837
2295.0,0.55588
2300.0,0.55998
2305.0,0.56302
2310.0,0.56474
2315.0,0.56519
2320.0,0.56496
2325.0,0.5636
2330.0,0.56161
2335.0,0.55903
2340.0,0.55716
2345.0,0.55298
2350.0,0.54786
2355.0,0.54167
2360.0,0.53591
2365.0,0.52787
2370.0,0.51892
2375.0,0.51068
2380.0,0.50303
2385.0,0.49744
2390.0,0.4913
2395.0,0.48576
2400.0,0.48013
2405.0,0.47504
2410.0,0.47066
2415.0,0.46888
2420.0,0.46863
2425.0,0.46692
2430.0,0.46338
2435.0,0.45783
2440.0,0.45285
2445.0,0.44638
2450.0,0.44282
2455.0,0.43747
2460.0,0.43358
2465.0,0.42962
2470.0,0.42535
2475.0,0.42182
2480.0,0.41941
2485.0,0.41414
2490.0,0.41124
2495.0,0.40903
2500.0,0.40482
2505.0,0.40239
2510.0,0.40001
2515.0,0.3978
2520.0,0.39612
2525.0,0.39428
2530.0,0.39341
2535.0,0.39207
2540.0,0.39201
2545.0,0.38982
2550.0,0.38983
2555.0,0.38708
2560.0,0.38496
2565.0,0.38211
2570.0,0.37875
2575.0,0.37561
2580.0,0.37269
2585.0,0.37077
2586.2,0.36986
2588.8,0.3689
2592.7,0.36701
2594.0,0.36721
2596.6,0.36559
2599.2,0.3634
2601.8,0.36236
2605.7,0.36059
2607.1,0.35947
2609.7,0.35763
2612.3,0.35588
2614.9,0.35428
2618.9,0.35204
2620.2,0.35144
2622.9,0.34893
2625.5,0.34758
2628.2,0.34607
2632.2,0.34343
2634.9,0.3416
2636.2,0.34037
2638.9,0.33829
2642.9,0.33489
2644.3,0.3335
2647.0,0.33106
2649.7,0.32797
2653.8,0.32328
2655.1,0.32125
2657.8,0.31679
2660.6,0.31199
2663.3,0.30564
2667.4,0.29146
2670.1,0.27354
2672.9,0.24435
2674.3,0.23383
2678.4,0.20495
2679.8,0.1873
2684.0,0.12183
2686.8,0.12458
2688.1,0.1372
2690.9,0.1544
2695.1,0.1567
2697.9,0.15347
2700.7,0.15079
2702.1,0.14875
2706.4,0.14145
2709.2,0.13626
2712.0,0.13053
2714.9,0.12507
2717.7,0.1197
2720.6,0.11406
2722.0,0.10997
2724.9,0.10218
2729.2,0.08784
2732.0,0.07805
2734.9,0.06893
2737.8,0.06023
2740.7,0.05277
2743.6,0.04808
2745.1,0.04663
2749.4,0.04291
2750.9,0.04133
2753.8,0.03775
2756.7,0.03398
2759.7,0.03115
2762.6,0.02985
2767.0,0.0296
2770.0,0.0301
2772.9,0.03089
2775.9,0.03113
2778.9,0.03138
2781.9,0.03183
2784.9,0.0326
2787.9,0.03368
2790.9,0.03467
2793.9,0.03584
2796.9,0.037
2799.9,0.03831
2801.4,0.03905
2806.0,0.04136
2809.0,0.04281
2810.5,0.04353
2813.6,0.04496
2816.6,0.04638
2819.7,0.04767
2822.8,0.04888
2827.4,0.05033
2830.5,0.05123
2832.0,0.0516
2836.7,0.05271
2839.8,0.05328
2842.9,0.05378
2846.0,0.05415
2849.1,0.05446
2850.7,0.05457
2855.4,0.05488
2857.0,0.05495
2861.7,0.05509
2864.9,0.05518
2868.0,0.05519
2871.2,0.0552
2874.4,0.05522
2876.0,0.0552
2880.8,0.05512
2884.0,0.05513
2885.6,0.05513
2890.4,0.0551
2893.6,0.0551
2896.9,0.05506
2900.1,0.0551
2903.4,0.05506
2906.6,0.05515
2909.9,0.05523
2913.1,0.05526
2916.4,0.05534
2919.7,0.05543
2923.0,0.05553
2926.3,0.0557
2929.6,0.05583
2932.9,0.056
2936.3,0.05618
2937.9,0.05626
2942.9,0.05652
2946.3,0.05678
2949.6,0.05704
2953.0,0.0574
2956.3,0.05774
2959.7,0.05808
2963.1,0.0585
2966.5,0.05885
2969.9,0.05929
2973.3,0.05974
2976.7,0.06018
2980.1,0.06064
2983.6,0.06112
2987.0,0.06164
2990.4,0.0622
2993.9,0.06272
2997.4,0.06324
3000.8,0.06377
3004.3,0.06433
3007.8,0.0649
3011.3,0.06543
3014.8,0.06603
3018.3,0.06659
3021.8,0.06718
3025.3,0.06774
3028.9,0.06823
3032.4,0.06872
3036.0,0.06927
3039.5,0.06973
3043.1,0.0702
3046.7,0.07062
3050.2,0.07103
3053.8,0.07139
3057.4,0.07173
3061.1,0.0721
3064.7,0.07244
3068.3,0.07277
3071.9,0.07311
3075.6,0.07341
3079.2,0.07379
3082.9,0.07416
3086.6,0.07454
3090.2,0.07503
3093.9,0.07549
3097.6,0.07603
3101.3,0.07662
3105.0,0.07723
3108.8,0.07787
3112.5,0.07868
3116.2,0.07944
3120.0,0.08029
3123.7,0.08108
3127.5,0.08197
3131.3,0.08288
3135.1,0.08383
3138.9,0.08488
3142.7,0.08577
3146.5,0.08682
3150.3,0.0878
3154.1,0.08884
3158.0,0.0899
3161.8,0.091
3165.7,0.09202
3169.6,0.09307
3173.4,0.09419
3177.3,0.09527
3181.2,0.09639
3185.1,0.09748
3189.1,0.09858
3193.0,0.09973
3196.9,0.10091
3200.9,0.10201
3204.8,0.10315
3208.8,0.10438
3212.8,0.10551
3216.8,0.1067
3220.8,0.10785
3224.8,0.10909
3228.8,0.11032
3232.8,0.1115
3236.8,0.11271
3240.9,0.11392
3244.9,0.11517
3249.0,0.11647
3253.1,0.11768
3257.2,0.11897
3261.3,0.12029
3265.4,0.12156
3269.5,0.12287
3273.6,0.12421
3277.8,0.12546
3281.9,0.12685
3286.1,0.12814
3290.2,0.1295
3294.4,0.13085
3298.6,0.13221
3302.8,0.13351
3304.9,0.13425
3307.0,0.13491
3309.1,0.13557
3311.2,0.13622
3313.4,0.13691
3315.5,0.13755
3317.6,0.13822
3319.7,0.13885
3321.9,0.1395
3324.0,0.1401
3326.1,0.14076
3328.3,0.14137
3330.4,0.14195
3332.5,0.14248
3334.7,0.14304
3336.8,0.14352
3339.0,0.14396
3341.1,0.14437
3343.3,0.14478
3345.4,0.14511
3347.6,0.14541
3349.8,0.14568
3351.9,0.14599
3354.1,0.14619
3356.3,0.14637
3358.4,0.14649
3360.6,0.14657
3362.8,0.14661
3365.0,0.14665
3367.1,0.14667
3369.3,0.14678
3371.5,0.14686
3373.7,0.147
3375.9,0.14724
3378.1,0.14765
3380.3,0.14816
3382.5,0.14885
3384.7,0.14956
3386.9,0.15034
3389.1,0.15117
3391.4,0.15199
3393.6,0.15266
3395.8,0.15316
3398.0,0.15348
3400.3,0.15368
3402.5,0.15376
3404.7,0.1538
3407.0,0.15381
3409.2,0.15386
3411.4,0.15398
3413.7,0.15428
3415.9,0.15475
3418.2,0.15546
3420.4,0.15646
3422.7,0.15781
3425.0,0.15936
3427.2,0.16109
3429.5,0.1628
3431.8,0.16452
3434.0,0.16612
3436.3,0.1676
3438.6,0.16899
3440.9,0.17034
3443.2,0.17163
3445.4,0.17288
3447.7,0.17406
3450.0,0.17528
3452.3,0.17641
3454.6,0.1775
3456.9,0.17852
3459.2,0.17948
3461.6,0.18034
3463.9,0.18119
3466.2,0.18193
3468.5,0.18257
3470.8,0.18305
3473.1,0.18352
3475.5,0.18393
3477.8,0.18435
3480.1,0.18482
3482.5,0.18542
3484.8,0.18614
3487.2,0.18701
3489.5,0.18784
3491.9,0.18864
3494.2,0.18927
3496.6,0.18976
3498.9,0.19017
3501.3,0.19066
3503.6,0.19133
3506.0,0.19235
3508.4,0.19368
3510.8,0.19523
3513.1,0.19685
3515.5,0.19852
3517.9,0.20013
3520.3,0.20182
3522.7,0.20351
3525.1,0.20518
3527.5,0.20682
3529.9,0.20852
3532.3,0.21011
3534.7,0.21165
3537.1,0.21311
3539.5,0.21455
3541.9,0.21583
3544.4,0.21706
3546.8,0.21825
3549.2,0.21941
3551.6,0.22045
3554.1,0.22152
3556.5,0.22255
3559.0,0.22356
3561.4,0.22452
3563.9,0.22545
3566.3,0.22635
3568.8,0.22728
3571.2,0.22816
3573.7,0.22902
3576.1,0.22989
3578.6,0.23079
3581.1,0.23168
3583.6,0.23256
3586.0,0.23339
3588.5,0.23422
3591.0,0.23502
3593.5,0.23584
3596.0,0.23665
3598.5,0.23752
3601.0,0.2383
3603.5,0.23908
3606.0,0.23988
3608.5,0.24075
3611.0,0.24159
3613.5,0.2424
3616.0,0.24314
3618.6,0.24393
3621.1,0.24475
3623.6,0.24559
3626.1,0.24637
3628.7,0.24714
3631.2,0.24788
3633.8,0.24867
3636.3,0.24942
3638.9,0.25021
3641.4,0.25098
3644.0,0.25179
3646.6,0.25253
3649.1,0.25329
3651.7,0.25402
3654.3,0.25483
3656.8,0.25564
3659.4,0.25647
3662.0,0.25726
3664.6,0.25804
3667.2,0.25879
3669.8,0.25959
3672.4,0.26035
3675.0,0.26117
3677.6,0.26201
3680.2,0.2628
3682.8,0.26354
3685.4,0.26435
3688.1,0.26514
3690.7,0.26596
3693.3,0.26668
3695.9,0.26743
3698.6,0.26816
3701.2,0.26887
3703.9,0.26956
3706.5,0.27031
3709.2,0.27098
3711.8,0.27169
3714.5,0.27235
3717.1,0.27304
3719.8,0.27371
3722.5,0.2744
3725.1,0.27507
3727.8,0.27577
3730.5,0.27648
3733.2,0.27715
3735.9,0.27767
3738.6,0.27826
3741.3,0.27885
3744.0,0.2795
3746.7,0.28014
3749.4,0.28078
3752.1,0.28138
3754.8,0.28202
3757.5,0.28262
3760.3,0.28324
3763.0,0.28384
3765.7,0.28446
3768.5,0.28505
3771.2,0.28556
3773.9,0.28607
3776.7,0.28671
3779.4,0.28727
3782.2,0.28778
3785.0,0.28835
3787.7,0.28893
3790.5,0.28943
3793.3,0.29004
3796.1,0.29056
3798.8,0.29111
3801.6,0.29158
3804.4,0.2921
3807.2,0.29264
3810.0,0.2931
3812.8,0.29357
3815.6,0.29409
3818.4,0.29456
3821.2,0.29513
3824.0,0.29565
3826.9,0.29613
3829.7,0.29654
3832.5,0.29699
3835.4,0.29746
3838.2,0.29794
3841.0,0.29832
3843.9,0.29876
3846.7,0.29919
3849.6,0.29958
3852.4,0.2999
3855.3,0.30032
3858.2,0.30069
3861.1,0.30108
3863.9,0.30151
3866.8,0.30195
3869.7,0.3023
3872.6,0.30265
3875.5,0.30301
3878.4,0.30341
3881.3,0.30371
3884.2,0.3041
3887.1,0.30441
3890.0,0.30468
3892.9,0.30501
3895.9,0.30543
3898.8,0.30574
3901.7,0.30606
3904.7,0.30637
3907.6,0.30666
3910.6,0.30685
3913.5,0.30714
3916.5,0.30744
3919.4,0.30768
3922.4,0.30787
3925.4,0.30815
3928.3,0.30838
3931.3,0.30863
3934.3,0.30887
3937.3,0.30903
3940.3,0.30914
3943.3,0.30933
3946.3,0.30949
3949.3,0.30972
3952.3,0.30987
3955.3,0.31
3958.3,0.31015
3961.3,0.31034
3964.4,0.31045
3967.4,0.3106
3970.4,0.31065
3973.5,0.31075
3976.5,0.31086
3979.6,0.31099
3982.6,0.3111
3985.7,0.31123
3988.8,0.31132
3991.8,0.31134
3994.9,0.3113
3998.0,0.31134
4001.1,0.31141
4004.2,0.31142
4007.3,0.31144
4010.4,0.31142
4013.5,0.31142
4016.6,0.31138
4019.7,0.31137
4022.8,0.31136
4025.9,0.31133
4029.1,0.31126
4032.2,0.31119
4035.3,0.31113
4038.5,0.31111
4041.6,0.31105
4044.8,0.31099
4047.9,0.3109
4051.1,0.31082
4054.3,0.31073
4057.4,0.31066
4060.6,0.31057
4063.8,0.31048
4067.0,0.31035
4070.2,0.31025
4073.4,0.31015
4076.6,0.31005
4079.8,0.30993
4083.0,0.30984
4086.2,0.3097
4089.4,0.3096
4092.6,0.30948
4095.9,0.30935
4099.1,0.3092
4102.4,0.30905
4105.6,0.30887
4108.9,0.30872
4112.1,0.30854
4115.4,0.30838
4118.7,0.30819
4121.9,0.30804
4125.2,0.30785
4128.5,0.30766
4131.8,0.30745
4135.1,0.30728
4138.4,0.30709
4141.7,0.30694
4145.0,0.30676
4148.3,0.30657
4151.6,0.30638
4155.0,0.30624
4158.3,0.30605
4161.6,0.30587
4165.0,0.30568
4168.3,0.30553
4171.7,0.30536
4175.0,0.30519
4178.4,0.30499
4181.8,0.30483
4185.1,0.30464
4188.5,0.30445
4191.9,0.30427
4195.3,0.30413
4198.7,0.30393
4202.1,0.30377
4205.5,0.30362
4208.9,0.30351
4212.4,0.30336
4215.8,0.30321
4219.2,0.30306
4222.6,0.30296
4226.1,0.30281
4229.5,0.30266
4233.0,0.30243
4236.5,0.30224
4239.9,0.30204
4243.4,0.30183
4246.9,0.30155
4250.3,0.30128
4253.8,0.30095
4257.3,0.30071
4260.8,0.30052
4264.3,0.30036
4267.8,0.30009
4271.3,0.29978
4274.9,0.29945
4278.4,0.29932
4281.9,0.29926
4285.5,0.2992
4289.0,0.29909
4292.6,0.29896
4296.1,0.29872
4299.7,0.29854
4303.3,0.29838
4306.8,0.29827
4310.4,0.29812
4314.0,0.29798
4317.6,0.2978
4321.2,0.29762
4324.8,0.2974
4328.4,0.29722
4332.0,0.29702
4335.6,0.29685
4339.3,0.29666
4342.9,0.29649
4346.5,0.29629
4350.2,0.29614
4353.8,0.29594
4357.5,0.29577
4361.1,0.29557
4364.8,0.29541
4368.5,0.29523
4372.2,0.29508
4375.9,0.2949
4379.6,0.29475
4383.3,0.29456
4387.0,0.29441
4390.7,0.29426
4394.4,0.29416
4398.1,0.294
4401.9,0.29386
4405.6,0.29368
4409.4,0.29356
4413.1,0.29341
4416.9,0.29329
4420.6,0.29313
4424.4,0.29301
4428.2,0.29288
4432.0,0.29278
4435.8,0.29266
4439.6,0.29257
4443.4,0.29244
4447.2,0.29233
4451.0,0.2922
4454.8,0.29212
4458.6,0.29198
4462.5,0.29188
4466.3,0.29173
4470.2,0.2916
4474.0,0.29143
4477.9,0.29131
4481.8,0.29115
4485.6,0.29103
4489.5,0.29086
4493.4,0.29073
4497.3,0.29056
4501.2,0.29043
4505.1,0.29025
4509.0,0.29009
4513.0,0.28991
4516.9,0.28973
4520.9,0.28951
4524.8,0.28936
4528.7,0.28912
4532.7,0.2889
4536.7,0.28864
4540.6,0.28841
4544.6,0.28813
4548.6,0.28788
4552.6,0.2876
4556.6,0.28736
4560.6,0.28709
4564.6,0.28684
4568.6,0.28654
4572.7,0.28628
4576.7,0.28601
4580.8,0.28577
4584.8,0.28548
4588.9,0.28522
4592.9,0.28492
4597.0,0.2847
4601.1,0.28444
4605.2,0.28422
4609.3,0.28395
4613.4,0.28372
4617.5,0.28345
4621.6,0.28323
4625.7,0.28296
4629.8,0.28275
4634.0,0.2825
4638.1,0.28228
4642.3,0.28202
4646.4,0.28182
4650.6,0.28157
4654.8,0.28133
4659.0,0.28104
4663.1,0.2808
4667.3,0.2805
4671.5,0.28026
4675.8,0.27997
4680.0,0.27973
4684.2,0.27941
4688.4,0.27913
4692.7,0.27882
4696.9,0.27856
4701.2,0.27823
4705.5,0.27795
4709.7,0.2776
4714.0,0.27729
4718.3,0.27693
4722.6,0.2766
4726.9,0.2762
4731.2,0.27586
4735.5,0.27548
4739.9,0.27513
4744.2,0.27473
4748.5,0.27437
4752.9,0.27395
4757.3,0.27356
4761.6,0.27312
4766.0,0.27273
4770.4,0.27228
4774.8,0.27185
4779.2,0.2714
4783.6,0.27097
4788.0,0.27048
4792.4,0.27002
4796.9,0.26952
4801.3,0.26904
4805.8,0.26852
4810.2,0.26802
4814.7,0.26746
4819.1,0.26696
4823.6,0.26638
4828.1,0.26584
4832.6,0.26524
4837.1,0.26466
4841.6,0.26403
4846.2,0.26345
4850.7,0.26281
4855.3,0.26219
4859.8,0.26148
4864.4,0.26084
4868.9,0.26015
4873.5,0.25947
4878.1,0.25868
4882.7,0.25792
4887.3,0.25711
4891.9,0.25632
4896.5,0.25548
4901.1,0.25465
4905.8,0.25372
4910.4,0.25285
4915.1,0.25191
4919.7,0.25101
4924.4,0.25007
4929.1,0.24917
4933.8,0.24823
4938.5,0.24734
4943.2,0.24639
4947.9,0.24549
4952.6,0.24453
4957.4,0.24361
4962.1,0.2426
4966.9,0.24162
4971.6,0.24056
4976.4,0.23955
4981.2,0.23849
4986.0,0.23747
4990.8,0.23641
4995.6,0.2354
5000.4,0.23435
5005.2,0.23332
5010.0,0.23224
5014.9,0.23121
5019.8,0.23011
5024.6,0.22904
5029.5,0.22791
5034.4,0.22683
5039.3,0.22566
5044.2,0.22453
5049.1,0.22332
5054.0,0.22215
5058.9,0.22093
5063.9,0.21975
5068.8,0.21851
5073.8,0.21733
5078.8,0.21612
5083.7,0.21497
5088.7,0.21377
5093.7,0.21264
5098.7,0.21146
5103.7,0.21034
5108.8,0.20917
5113.8,0.20805
5118.9,0.20691
5123.9,0.20584
5129.0,0.20472
5134.1,0.20368
5139.1,0.20262
5144.3,0.2016
5149.4,0.20052
5154.5,0.1995
5159.6,0.1985
5164.7,0.19753
5169.9,0.19649
5175.0,0.19552
5180.2,0.19452
5185.4,0.19357
5190.6,0.19257
5195.8,0.19165
5201.0,0.19068
5206.2,0.18974
5211.5,0.18879
5216.7,0.18782
5222.0,0.18681
5227.2,0.18589
5232.5,0.1849
5237.8,0.18394
5243.1,0.18293
5248.4,0.18197
5253.7,0.18095
5259.0,0.17997
5264.4,0.17895
5269.7,0.17799
5275.1,0.177
5280.5,0.17605
5285.8,0.1751
5291.2,0.17423
5296.6,0.17328
5302.0,0.17242
5307.5,0.17157
5312.9,0.17079
5318.4,0.17003
5323.8,0.16938
5329.3,0.16872
5334.8,0.16815
5340.3,0.16761
5345.8,0.16725
5351.3,0.16688
5356.8,0.16653
5362.4,0.16622
5367.9,0.16605
5373.5,0.16587
5379.0,0.16578
5384.6,0.16565
5390.2,0.16559
5395.8,0.1655
5401.5,0.16545
5407.1,0.16534
5412.7,0.1653
5418.4,0.16523
5424.1,0.16514
5429.7,0.16491
5435.4,0.16477
5441.1,0.16459
5446.8,0.16445
5452.6,0.16425
5458.3,0.16412
5464.1,0.16391
5469.8,0.16366
5475.6,0.16339
5481.4,0.16314
5487.2,0.16276
5493.0,0.16244
5498.8,0.16206
5504.7,0.16174
5510.5,0.16137
5516.4,0.16105
5522.3,0.16066
5528.1,0.16036
5534.0,0.16006
5540.0,0.15985
5545.9,0.15963
5551.8,0.15953
5557.8,0.15938
5563.7,0.15935
5569.7,0.15932
5575.7,0.15945
5581.7,0.15951
5587.7,0.15959
5593.7,0.15968
5599.8,0.15991
5605.8,0.16004
5611.9,0.16022
5618.0,0.1603
5624.1,0.16046
5630.2,0.16054
5636.3,0.16072
5642.4,0.1608
5648.6,0.16079
5654.7,0.16068
5660.9,0.16061
5667.1,0.16044
5673.3,0.16037
5679.5,0.16007
5685.7,0.15981
5692.0,0.15947
5698.2,0.15912
5704.5,0.1587
5710.8,0.15833
5717.1,0.1577
5723.4,0.15714
5729.7,0.15641
5736.0,0.15573
5742.4,0.15489
5748.8,0.15403
5755.1,0.15291
5761.5,0.15207
5768.0,0.15073
5774.4,0.14928
5780.8,0.14777
5787.3,0.14618
5793.7,0.14434
5800.2,0.14249
5806.7,0.14035
5813.2,0.13837
5819.8,0.13606
5826.3,0.13352
5832.8,0.13093
5839.4,0.12857
5846.0,0.12624
5852.6,0.12416
5859.2,0.1221
5865.8,0.12001
5872.5,0.118
5879.1,0.11616
5885.8,0.11373
5892.5,0.1119
5899.2,0.10971
5905.9,0.10769
5912.6,0.10588
5919.4,0.10405
5926.2,0.10224
5932.9,0.10064
5939.7,0.09861
5946.5,0.09681
5953.4,0.09505
5960.2,0.09341
5967.1,0.09171
5974.0,0.08988
5980.8,0.08815
5987.8,0.08649
5994.7,0.08462
6001.6,0.08294
6008.6,0.08126
6015.5,0.07954
6022.5,0.07779
6029.5,0.07621
6036.5,0.07464
6043.6,0.07329
6050.6,0.07147
6057.7,0.06982
6064.8,0.0685
6071.9,0.06706
6079.0,0.0655
6086.1,0.06423
6093.3,0.06306
6100.5,0.06211
6107.6,0.06139
6114.9,0.06088
6122.1,0.06049
6129.3,0.06042
6136.5,0.06062
6143.8,0.0612
6151.1,0.06216
6158.4,0.06367
6165.7,0.06579
6173.1,0.06828
6180.4,0.07109
6187.8,0.07452
6195.2,0.07778
6202.6,0.08086
6210.0,0.08397
6217.5,0.08685
6225.0,0.08948
6232.4,0.09182
6239.9,0.0939
6247.5,0.09572
6255.0,0.09731
6262.5,0.09874
6270.1,0.10006
6277.7,0.10124
6285.3,0.10227
6293.0,0.10316
6300.6,0.10398
6308.3,0.1047
6315.9,0.1054
6323.6,0.10611
6331.4,0.10686
6339.1,0.10765
6346.9,0.10845
6354.6,0.109
6362.4,0.1096
6370.3,0.11025
6378.1,0.11086
6385.9,0.11143
6393.8,0.11209
6401.7,0.11276
6409.6,0.11362
6417.5,0.11453
6425.5,0.1152
6433.5,0.11598
6441.5,0.1169
6449.5,0.11782
6457.5,0.11886
6465.6,0.11989
6473.6,0.121
6481.7,0.1221
6489.8,0.12328
6498.0,0.12431
6506.1,0.12509
6514.3,0.12589
6522.5,0.12678
6530.7,0.12743
6538.9,0.12807
6547.2,0.12867
6555.5,0.1292
6563.8,0.1296
6572.1,0.13
6580.4,0.13015
6588.8,0.13023
6597.2,0.13023
6605.6,0.13015
6614.0,0.13005
6622.5,0.12994
6630.9,0.12985
6639.4,0.12951
6647.9,0.12892
6656.5,0.12844
6665.0,0.12801
6673.6,0.12754
6682.2,0.12699
6690.8,0.12631
6699.5,0.12569
6708.1,0.12508
6716.8,0.12434
6725.5,0.12345
6734.3,0.12246
6743.0,0.12133
6751.8,0.12005
6760.6,0.11853
6769.4,0.11689
6778.3,0.11503
6787.1,0.11292
6796.0,0.11039
6805.0,0.1084
6813.9,0.10721
6822.9,0.10645
6831.9,0.10555
6840.9,0.10456
6849.9,0.10358
6859.0,0.10257
6868.0,0.1013
6877.2,0.10018
6886.3,0.09922
6895.5,0.09829
6904.6,0.09734
6913.8,0.09642
6923.1,0.09556
6932.3,0.09478
6941.6,0.094
6950.9,0.09338
6960.2,0.09274
6969.6,0.09207
6979.0,0.09144
6988.4,0.09085
6997.8,0.09022
7007.3,0.08962
7016.8,0.08902
7026.3,0.08847
7035.8,0.08793
7045.4,0.0875
7054.9,0.08698
7064.5,0.08657
7074.2,0.08616
7083.9,0.08584
7093.5,0.08554
7103.3,0.08529
7113.0,0.08501
7122.8,0.08476
7132.6,0.0844
7142.4,0.08402
7152.2,0.08353
7162.1,0.08302
7172.0,0.08243
7182.0,0.08187
7191.9,0.08134
7201.9,0.08082
7211.9,0.08019
7222.0,0.07955
7232.0,0.07888
7242.1,0.07824
7252.3,0.0776
7262.4,0.07701
7272.6,0.0764
7282.8,0.07576
7293.1,0.07501
7303.3,0.07428
7313.6,0.07352
7324.0,0.07281
7334.3,0.0721
7344.7,0.07137
7355.1,0.07056
7365.6,0.06975
7376.1,0.06882
7386.6,0.06793
7397.1,0.06703
7407.7,0.06623
7418.3,0.06546
7428.9,0.06476
7439.6,0.06401
7450.3,0.06334
7461.0,0.06262
7471.7,0.0619
7482.5,0.06111
7493.3,0.06036
7504.2,0.05955
7515.0,0.05878
7525.9,0.05791
7536.9,0.05703
7547.9,0.05608
7558.9,0.0552
7569.9,0.0543
7581.0,0.05344
7592.0,0.05252
7603.2,0.05168
7614.3,0.0508
7625.5,0.05
7636.8,0.04913
7648.0,0.04833
7659.3,0.04749
7670.7,0.04673
7682.0,0.04594
7693.4,0.04518
7704.9,0.04438
7716.3,0.04364
7727.8,0.04284
7739.4,0.04207
7750.9,0.04122
7762.5,0.04041
7774.2,0.03953
7785.8,0.0387
7797.5,0.03781
7809.3,0.03695
7821.1,0.03603
7832.9,0.03514
7844.7,0.03418
7856.6,0.03327
7868.5,0.03227
7880.5,0.03132
7892.5,0.03029
7904.5,0.02926
7916.6,0.02815
7928.7,0.02709
7940.8,0.02598
7953.0,0.02495
7965.2,0.02385
7977.5,0.0228
7989.8,0.0217
8002.1,0.02072
8014.5,0.0197
8026.9,0.01874
8039.3,0.01776
8051.8,0.0169
8064.3,0.01601
8076.9,0.01521
8089.5,0.01438
8102.1,0.01367
8114.8,0.01296
8127.5,0.01233
8140.3,0.01167
8153.1,0.01114
8165.9,0.01059
8178.8,0.01013
8191.7,0.00967
8204.7,0.00929
8217.7,0.00888
8230.7,0.00856
8243.8,0.00823
8256.9,0.00798
8270.1,0.0077
8283.3,0.00751
8296.6,0.00729
8309.9,0.00713
8323.2,0.00694
8336.6,0.00688
8350.0,0.00679
8363.5,0.0068
8377.0,0.00674
8390.5,0.00678
8404.2,0.00679
8417.8,0.00684
8431.5,0.00685
8445.2,0.00697
8459.0,0.00701
8472.8,0.0071
8486.7,0.00716
8500.6,0.00726
8514.5,0.00734
8528.5,0.0075
8542.6,0.0076
8556.7,0.00777
8570.8,0.00791
8585.0,0.00812
8599.3,0.00825
8613.5,0.00844
8627.9,0.00867
8642.3,0.00905
8656.7,0.00944
8671.2,0.00991
8685.7,0.01033
8700.3,0.01085
8714.9,0.01133
8729.6,0.0119
8744.3,0.01242
8759.0,0.01305
8773.9,0.01367
8788.7,0.01435
8803.7,0.015
8818.6,0.01572
8833.7,0.01643
8848.7,0.01719
8863.8,0.01792
8879.0,0.01868
8894.3,0.01939
8909.5,0.02012
8924.9,0.02076
8940.3,0.02145
8955.7,0.02208
8971.2,0.02276
8986.7,0.02341
9002.3,0.02409
9018.0,0.02472
9033.7,0.02538
9049.5,0.0259
9065.3,0.02641
9081.2,0.02687
9097.1,0.0273
9113.1,0.02767
9129.1,0.02807
9145.2,0.0284
9161.4,0.02879
9177.6,0.02915
9193.9,0.02949
9210.2,0.02977
9226.6,0.03009
9243.0,0.03038
9259.5,0.0307
9276.1,0.03097
9292.7,0.03128
9309.4,0.03152
9326.2,0.03178
9343.0,0.03201
9359.8,0.03225
9376.8,0.03244
9393.7,0.03264
9410.8,0.0328
9427.9,0.03298
9445.1,0.03308
9462.3,0.03313
9479.6,0.03305
9497.0,0.0329
9514.4,0.03261
9531.9,0.03226
9549.4,0.03174
9567.0,0.03121
9584.7,0.03067
9602.5,0.0302
9620.3,0.0297
9638.2,0.02929
9656.1,0.02893
9674.2,0.02864
9692.2,0.02836
9710.4,0.02814
9728.6,0.02792
9746.9,0.02772
9765.2,0.02748
9783.7,0.02729
9802.2,0.02708
9820.7,0.02688
9839.4,0.02667
9858.1,0.02655
9876.8,0.02638
9895.7,0.02629
9914.6,0.02615
9933.6,0.02602
9952.7,0.02591
9971.8,0.02582
9991.0,0.02567
10010.3,0.02556
10029.7,0.02545
10049.1,0.02541
10068.6,0.02538
10088.2,0.02542
10107.9,0.02543
10127.6,0.0255
10147.4,0.02557
10167.3,0.02569
10187.3,0.0258
10207.4,0.02597
10227.5,0.02611
10247.7,0.02629
10268.0,0.02647
10288.4,0.02668
10308.8,0.02688
10329.4,0.02712
10350.0,0.02732
10370.7,0.02753
10391.5,0.0277
10412.3,0.02794
10433.3,0.02816
10454.3,0.02837
10475.5,0.02856
10496.7,0.02875
10518.0,0.0289
10539.3,0.02904
10560.8,0.02916
10582.3,0.02932
10604.0,0.02946
10625.7,0.02956
10647.5,0.02956
10669.4,0.02959
10691.4,0.02963
10713.5,0.02973
10735.7,0.02982
10758.0,0.02995
10780.3,0.03008
10802.8,0.03024
10825.4,0.03045
10848.0,0.03068
10870.8,0.03082
10893.6,0.03093
10916.5,0.03103
10939.5,0.03118
10962.7,0.03128
10985.9,0.03134
11009.2,0.03133
11032.7,0.03135
11056.2,0.0313
11079.8,0.03125
11103.5,0.03111
11127.3,0.03094
11151.3,0.03073
11175.3,0.03055
11199.5,0.0303
11223.7,0.03006
11248.0,0.0298
11272.5,0.02956
11297.0,0.0293
11321.7,0.02905
11346.5,0.0287
11371.4,0.02838
11396.4,0.02805
11421.5,0.02771
11446.7,0.02731
11472.0,0.02691
11497.5,0.0265
11523.0,0.02611
11548.7,0.02563
11574.5,0.02521
11600.3,0.02478
11626.3,0.0244
11652.5,0.02397
11678.7,0.02359
11705.1,0.02323
11731.6,0.02285
11758.2,0.02245
11784.9,0.02212
11811.7,0.02184
11838.7,0.02157
11865.8,0.02128
11893.0,0.02109
11920.3,0.02093
11947.8,0.02081
11975.4,0.02065
12003.1,0.02056
12031.0,0.02048
12059.0,0.02047
12087.1,0.02051
12115.3,0.02058
12143.7,0.02058
12172.2,0.02059
12200.8,0.02059
12229.6,0.0206
12258.5,0.02058
12287.6,0.02062
12316.8,0.02063
12346.1,0.02065
12375.5,0.02061
12405.2,0.02066
12434.9,0.02073
12464.8,0.02089
12494.8,0.02102
12525.0,0.02118
12555.3,0.02135
12585.8,0.02157
12616.4,0.02169
12647.2,0.02177
12678.1,0.02176
12709.2,0.02182
12740.4,0.02189
12771.8,0.02192
12803.3,0.02193
12835.0,0.0221
12866.9,0.02234
12898.9,0.02269
12931.1,0.023
12963.4,0.02335
12995.9,0.02371
13028.5,0.02405
13061.3,0.02429
13094.3,0.0246
13127.5,0.02483
13160.8,0.02505
13194.3,0.02514
13228.0,0.02521
13261.8,0.02527
13295.8,0.02533
13330.0,0.02537
13364.3,0.02537
13398.8,0.02533
13433.6,0.02528
13468.5,0.02528
13503.5,0.02538
13538.8,0.02534
13574.2,0.02532
13609.9,0.02533
13645.7,0.02523
13681.7,0.02507
13717.9,0.02515
13754.3,0.02526
13790.8,0.02532
13827.6,0.0252
13864.6,0.02515
13901.8,0.02511
13939.2,0.02504
13976.7,0.02484
14014.5,0.02463
14052.5,0.02441
14090.7,0.02429
14129.0,0.02397
14167.6,0.0236
14206.5,0.02319
14245.5,0.02273
14284.7,0.02219
14324.2,0.02168
14363.9,0.02113
14403.8,0.02064
14443.9,0.02017
14484.3,0.01961
14524.8,0.01893
14565.6,0.01826
14606.7,0.01748
14647.9,0.01663
14689.4,0.01591
14731.2,0.01529
14773.1,0.01487
14815.3,0.01483
14857.8,0.01511
14900.5,0.01561
14943.4,0.01598
14986.6,0.01634
15030.0,0.01656
15073.7,0.01685
15117.7,0.01734
15161.9,0.01774
15206.3,0.01788
15251.1,0.01807
15296.1,0.01851
15341.3,0.01902
15386.8,0.01939
15432.6,0.01943
15478.7,0.01902
15525.0,0.01894
15571.7,0.01894
15618.6,0.01891
15665.8,0.01872
15713.2,0.01856
15761.0,0.01815
15809.0,0.0175
15857.4,0.01695
15906.0,0.01666
15955.0,0.01624
16004.2,0.01573
16053.8,0.0154
16103.6,0.01515
16153.8,0.0148
16204.3,0.01426
16255.1,0.01369
16306.2,0.01329
16357.6,0.01302
16409.4,0.01282
16461.5,0.01246
16513.9,0.01213
16566.7,0.01189
16619.8,0.01148
16673.2,0.01079
16727.0,0.01044
16781.1,0.01022
16835.6,0.01007
16890.5,0.00979
16945.7,0.00938
17001.2,0.00898
17057.2,0.00873
17113.4,0.00839
17170.1,0.00826
17227.2,0.00818
17284.6,0.00802
17342.4,0.00774
17400.6,0.00772
17459.2,0.00757
17518.2,0.00739
17577.5,0.00754
17637.3,0.00787
17697.5,0.00832
17758.1,0.00858
17819.2,0.00899
17880.6,0.00974
17942.5,0.01061
18004.8,0.01139
18067.5,0.01205
18130.7,0.01296
18194.3,0.01432
18258.4,0.01549
18322.9,0.01645
18387.9,0.0176
18453.3,0.01867
18519.2,0.0199
18585.6,0.02117
18652.4,0.02241
18719.8,0.02348
18787.6,0.02445
18855.9,0.02543
18924.7,0.02638
18994.1,0.02719
19063.9,0.0278
19134.2,0.02842
19205.1,0.029
19276.5,0.02944
19348.4,0.02999
19420.9,0.03045
19493.9,0.03079
19567.5,0.03132
19641.6,0.03159
19716.3,0.0317
19791.5,0.03179
19867.3,0.03165
19943.8,0.03174
20020.8,0.03164
20098.4,0.03128
20176.6,0.03085
20255.4,0.03039
20334.8,0.02982
20414.9,0.02953
20495.6,0.02935
20576.9,0.02901
20658.9,0.02903
20741.5,0.02936
20824.8,0.02971
20908.8,0.03055
20993.5,0.03111
21078.8,0.03134
21164.8,0.03163
21251.6,0.0315
21339.1,0.03143
21427.2,0.03162
21516.1,0.03158
21605.8,0.03149
21696.2,0.03129
21787.3,0.03118
21879.3,0.03114
21972.0,0.03097
22065.4,0.03095
22159.7,0.03116
22254.8,0.03103
22350.8,0.03097
22447.5,0.03131
22545.1,0.0317
22643.6,0.03166
22742.9,0.03162
22843.1,0.03167
22944.2,0.0319
23046.1,0.03193
23149.0,0.03261
23252.8,0.03295
23357.6,0.03291
23463.3,0.03252
23569.9,0.03244
23677.5,0.03289
23786.1,0.03348
23895.8,0.03352
24006.4,0.0338
24118.0,0.03429
24230.7,0.03458
24344.5,0.03453
24459.3,0.03464
24575.3,0.03494
24692.3,0.03516
24810.4,0.03536
24929.7,0.03589
25050.1,0.03619
25171.7,0.03665
25294.5,0.03698
25418.5,0.03784
25543.7,0.03872
25670.2,0.03915
25797.9,0.0395
25926.9,0.03995
26057.2,0.04028
26188.8,0.04066
26321.7,0.0411
26456.0,0.04172
26591.7,0.04186
26728.8,0.04191
26867.2,0.04171
27007.2,0.04173
27148.6,0.0415
27291.5,0.04143
27435.9,0.0415
27581.8,0.04148
27729.3,0.04125
27878.4,0.04066
28029.1,0.04007
28181.4,0.04035
28335.4,0.0403
28491.1,0.03988
28648.5,0.03936
28807.7,0.03909
28968.6,0.03904
29131.3,0.03939
29295.9,0.04029
29462.4,0.04111
29630.7,0.04163
29801.0,0.04286
29973.3,0.04397
30147.5,0.04434
30323.8,0.04459
30502.2,0.04583
30682.7,0.04659
30865.3,0.04703
31050.2,0.04642
31237.2,0.04605
31426.5,0.04521
31618.2,0.04485
31812.1,0.04521
32008.5,0.04522
32207.3,0.04528
32408.6,0.04528
32612.4,0.0447
32818.8,0.044
33027.9,0.04302
33239.6,0.04215
33454.1,0.04172
33671.3,0.04153
33891.4,0.0416
34114.3,0.04166
34340.3,0.04143
34569.2,0.0416
34801.2,0.04169
35036.3,0.04171
35274.7,0.04103
35516.3,0.03965
35761.2,0.03794
36009.6,0.03655
36261.4,0.03662
36516.7,0.03635
36775.7,0.03546
37038.4,0.03493
37304.9,0.03379
37575.2,0.03287
37849.5,0.03135
38127.8,0.03081
38410.2,0.03101
38696.8,0.03104
38987.8,0.03061
39283.2,0.03152
39583.0,0.03192
39887.5,0.03288
40196.7,0.0347
40510.8,0.03585
40829.8,0.0343
41153.8,0.03461
41483.0,0.03528
41817.6,0.03548
42157.5,0.03621
42503.1,0.03769
42854.4,0.03634
43211.5,0.03543
43574.6,0.03624
43943.9,0.03715
44319.5,0.03634
44701.5,0.03589
45090.2,0.03675
45485.8,0.03836
45888.3,0.03776
46298.0,0.03962
46715.1,0.04179
47139.8,0.04303
47572.3,0.04295
48012.8,0.0425
48461.5,0.04389
48918.7,0.04499
49384.6,0.04391
49859.4,0.04448
