Database of Origin,University of Winnipeg Spectrophotometer Facility
Sample Description,See Master Clays in HOSERLab database
Date Added,2016-12-11 20:59:00.586569

Data ID,RLA_CLAY_41         
Sample ID,IDD001
Mineral Name,Iddingsite
Grain Size,<45um
Viewing Geometry,"30/0,30"
Resolution,"5,0.6-129"
Material Class,Phyllosilicate

Wavelength
305.0,0.102946
310.0,0.106192
315.0,0.109647
320.0,0.114531
325.0,0.118024
330.0,0.123263
335.0,0.128926
340.0,0.133033
345.0,0.137778
350.0,0.142303
355.0,0.146585
360.0,0.149977
365.0,0.153042
370.0,0.155414
375.0,0.156662
380.0,0.158272
385.0,0.160236
390.0,0.162713
395.0,0.1659
400.0,0.167879
405.0,0.170234
410.0,0.1727
415.0,0.175157
420.0,0.177914
425.0,0.180571
430.0,0.183277
435.0,0.186401
440.0,0.189034
445.0,0.191977
450.0,0.195177
455.0,0.198682
460.0,0.201635
465.0,0.204867
470.0,0.207714
475.0,0.210572
480.0,0.213277
485.0,0.216159
490.0,0.219481
495.0,0.223218
500.0,0.22647
505.0,0.229862
510.0,0.232902
515.0,0.236527
520.0,0.239813
525.0,0.243733
530.0,0.247864
535.0,0.253284
540.0,0.259333
545.0,0.267167
550.0,0.275992
555.0,0.287652
560.0,0.301443
565.0,0.317077
570.0,0.33334
575.0,0.3506
580.0,0.367302
585.0,0.382956
590.0,0.396665
595.0,0.408485
600.0,0.418485
605.0,0.426521
610.0,0.433545
615.0,0.439243
620.0,0.444288
625.0,0.448828
630.0,0.452396
635.0,0.456799
640.0,0.460825
645.0,0.464622
650.0,0.469024
655.0,0.473277
660.0,0.477323
665.0,0.481303
670.0,0.486505
675.0,0.491706
680.0,0.495918
685.0,0.500324
690.0,0.504125
695.0,0.508453
700.0,0.512577
705.0,0.516943
710.0,0.521038
715.0,0.52486
720.0,0.528764
725.0,0.531671
730.0,0.534535
735.0,0.536735
740.0,0.538064
745.0,0.539305
750.0,0.538958
755.0,0.538403
760.0,0.537894
765.0,0.53587
770.0,0.534684
775.0,0.532531
780.0,0.529572
785.0,0.526618
790.0,0.524135
795.0,0.520169
800.0,0.517266
805.0,0.513671
810.0,0.509643
815.0,0.505112
820.0,0.502186
825.0,0.49728
830.0,0.494449
835.0,0.490018
840.0,0.486134
845.0,0.482392
850.0,0.479814
855.0,0.475904
860.0,0.473392
865.0,0.470186
870.0,0.466011
875.0,0.466274
880.0,0.464323
885.0,0.463393
890.0,0.460921
895.0,0.46016
900.0,0.460051
905.0,0.46031
910.0,0.45962
915.0,0.459074
920.0,0.459531
925.0,0.460034
930.0,0.46007
935.0,0.46097
940.0,0.461565
945.0,0.46118
950.0,0.461679
955.0,0.462534
960.0,0.463493
965.0,0.466263
970.0,0.466454
975.0,0.467042
980.0,0.467251
985.0,0.467202
990.0,0.466971
995.0,0.468529
1000.0,0.469437
1005.0,0.470182
1010.0,0.471051
1015.0,0.472205
1020.0,0.473024
1025.0,0.473599
1030.0,0.474756
1035.0,0.475977
1040.0,0.477187
1045.0,0.4783
1050.0,0.479667
1055.0,0.481449
1060.0,0.483003
1065.0,0.484633
1070.0,0.486372
1075.0,0.488438
1080.0,0.491314
1085.0,0.494445
1090.0,0.497637
1095.0,0.500982
1100.0,0.505001
1105.0,0.507276
1110.0,0.510771
1115.0,0.513691
1120.0,0.517129
1125.0,0.519604
1130.0,0.522975
1135.0,0.524953
1140.0,0.527517
1145.0,0.530551
1150.0,0.532839
1155.0,0.535546
1160.0,0.539093
1165.0,0.541016
1170.0,0.542217
1175.0,0.545454
1180.0,0.546441
1185.0,0.54808
1190.0,0.55075
1195.0,0.552515
1200.0,0.55339
1205.0,0.555193
1210.0,0.555723
1215.0,0.556411
1220.0,0.558384
1225.0,0.5586
1230.0,0.560035
1235.0,0.561658
1240.0,0.562539
1245.0,0.563179
1250.0,0.565383
1255.0,0.566594
1260.0,0.567702
1265.0,0.570451
1270.0,0.572164
1275.0,0.573926
1280.0,0.575553
1285.0,0.57842
1290.0,0.578861
1295.0,0.580568
1300.0,0.581978
1305.0,0.583653
1310.0,0.583505
1315.0,0.585053
1320.0,0.586466
1325.0,0.587715
1330.0,0.588436
1335.0,0.59067
1340.0,0.592966
1345.0,0.594325
1350.0,0.596942
1355.0,0.599134
1360.0,0.60065
1365.0,0.601495
1370.0,0.603396
1375.0,0.603243
1380.0,0.604749
1385.0,0.605478
1390.0,0.607146
1395.0,0.607519
1400.0,0.609018
1405.0,0.610259
1410.0,0.612586
1415.0,0.615374
1420.0,0.617344
1425.0,0.618778
1430.0,0.620851
1435.0,0.623707
1440.0,0.623928
1445.0,0.624935
1450.0,0.626528
1455.0,0.627662
1460.0,0.628527
1465.0,0.63045
1470.0,0.632096
1475.0,0.63285
1480.0,0.633842
1485.0,0.633553
1490.0,0.63363
1495.0,0.634131
1500.0,0.63423
1505.0,0.633834
1510.0,0.635117
1515.0,0.636025
1520.0,0.636773
1525.0,0.637717
1530.0,0.638295
1535.0,0.63802
1540.0,0.637265
1545.0,0.635691
1550.0,0.63534
1555.0,0.635418
1560.0,0.634233
1565.0,0.635257
1570.0,0.635614
1575.0,0.634562
1580.0,0.633504
1585.0,0.634524
1590.0,0.633578
1595.0,0.632068
1600.0,0.631127
1605.0,0.630894
1610.0,0.630541
1615.0,0.629395
1620.0,0.63104
1625.0,0.631172
1630.0,0.630335
1635.0,0.629838
1640.0,0.630232
1645.0,0.629344
1650.0,0.627738
1655.0,0.628969
1660.0,0.628593
1665.0,0.6279
1670.0,0.626924
1675.0,0.627347
1680.0,0.625783
1685.0,0.624506
1690.0,0.62443
1695.0,0.624633
1700.0,0.623124
1705.0,0.623421
1710.0,0.623177
1715.0,0.622377
1720.0,0.622477
1725.0,0.622514
1730.0,0.621903
1735.0,0.621686
1740.0,0.621265
1745.0,0.620115
1750.0,0.618984
1755.0,0.619672
1760.0,0.619173
1765.0,0.618698
1770.0,0.617599
1775.0,0.617017
1780.0,0.616766
1785.0,0.616127
1790.0,0.616369
1795.0,0.616425
1800.0,0.617358
1805.0,0.616899
1810.0,0.617269
1815.0,0.616938
1820.0,0.617118
1825.0,0.615987
1830.0,0.61665
1835.0,0.616577
1840.0,0.616687
1845.0,0.616629
1850.0,0.617004
1855.0,0.616777
1860.0,0.617476
1865.0,0.61798
1870.0,0.619151
1875.0,0.619134
1880.0,0.619545
1885.0,0.618429
1890.0,0.617711
1895.0,0.614031
1900.0,0.614732
1905.0,0.613327
1910.0,0.609715
1915.0,0.613921
1920.0,0.614552
1925.0,0.617038
1930.0,0.617696
1935.0,0.61862
1940.0,0.619307
1945.0,0.620046
1950.0,0.619665
1955.0,0.620449
1960.0,0.622108
1965.0,0.623574
1970.0,0.624895
1975.0,0.626381
1980.0,0.627333
1985.0,0.628083
1990.0,0.628637
1995.0,0.62941
2000.0,0.630592
2005.0,0.632163
2010.0,0.633311
2015.0,0.635052
2020.0,0.63681
2025.0,0.637387
2030.0,0.638022
2035.0,0.638739
2040.0,0.639075
2045.0,0.639535
2050.0,0.641019
2055.0,0.641589
2060.0,0.642443
2065.0,0.642852
2070.0,0.643519
2075.0,0.644168
2080.0,0.64549
2085.0,0.646541
2090.0,0.648338
2095.0,0.649913
2100.0,0.650986
2105.0,0.65124
2110.0,0.651751
2115.0,0.652102
2120.0,0.652635
2125.0,0.653186
2130.0,0.654344
2135.0,0.65412
2140.0,0.655122
2145.0,0.655887
2150.0,0.656323
2155.0,0.65646
2160.0,0.658266
2165.0,0.658162
2170.0,0.657544
2175.0,0.658557
2180.0,0.659619
2185.0,0.659602
2190.0,0.660707
2195.0,0.661471
2200.0,0.66115
2205.0,0.660243
2210.0,0.660327
2215.0,0.660791
2220.0,0.661081
2225.0,0.661757
2230.0,0.662989
2235.0,0.663102
2240.0,0.663068
2245.0,0.663402
2250.0,0.661714
2255.0,0.661051
2260.0,0.661381
2265.0,0.661473
2270.0,0.662066
2275.0,0.663602
2280.0,0.663462
2285.0,0.662763
2290.0,0.662337
2295.0,0.662024
2300.0,0.661353
2305.0,0.660846
2310.0,0.660334
2315.0,0.660157
2320.0,0.659879
2325.0,0.661232
2330.0,0.662805
2335.0,0.664173
2340.0,0.664386
2345.0,0.665271
2350.0,0.664528
2355.0,0.666117
2360.0,0.665916
2365.0,0.666426
2370.0,0.666468
2375.0,0.666224
2380.0,0.66561
2385.0,0.667211
2390.0,0.667406
2395.0,0.66726
2400.0,0.668628
2405.0,0.668513
2410.0,0.668204
2415.0,0.669125
2420.0,0.668978
2425.0,0.668721
2430.0,0.669942
2435.0,0.670259
2440.0,0.669797
2445.0,0.67084
2450.0,0.671245
2455.0,0.670834
2460.0,0.671139
2465.0,0.671554
2470.0,0.67054
2475.0,0.670015
2480.0,0.670022
2485.0,0.668477
2490.0,0.66742
2495.0,0.668222
2500.0,0.668583
2505.0,0.668161
2510.0,0.669663
2515.0,0.6688
2520.0,0.667227
2525.0,0.665863
2530.0,0.665886
2535.0,0.665599
2540.0,0.666785
2543.74,0.666389
2546.24,0.666412
2548.74,0.666594
2551.25,0.666359
2553.76,0.665993
2556.28,0.666277
2558.8,0.666602
2561.33,0.665969
2563.86,0.664729
2566.4,0.665128
2568.95,0.666036
2571.5,0.665793
2574.05,0.665232
2576.61,0.665179
2579.17,0.665612
2581.74,0.665812
2584.31,0.664822
2586.89,0.664733
2589.48,0.665183
2592.07,0.665342
2594.66,0.664489
2597.26,0.663482
2599.87,0.665609
2602.48,0.666028
2605.09,0.664268
2607.71,0.663259
2610.34,0.664114
2612.97,0.665198
2615.61,0.665073
2618.25,0.663709
2620.9,0.663138
2623.55,0.664308
2626.21,0.66487
2628.87,0.663689
2631.54,0.662707
2634.21,0.662839
2636.89,0.663532
2639.58,0.663807
2642.27,0.663352
2644.97,0.662694
2647.67,0.661966
2650.38,0.661657
2653.09,0.660524
2655.81,0.659104
2658.53,0.658342
2661.26,0.657099
2664.0,0.655078
2666.74,0.651946
2669.48,0.648054
2672.23,0.644227
2674.99,0.6385
2677.76,0.629125
2680.52,0.613511
2683.3,0.597353
2686.08,0.578038
2688.87,0.555679
2691.66,0.533199
2694.46,0.512233
2697.26,0.489236
2700.07,0.469451
2702.89,0.450972
2705.71,0.434388
2708.53,0.42021
2711.37,0.407266
2714.21,0.394566
2717.05,0.385781
2719.9,0.379482
2722.76,0.379411
2725.62,0.386216
2728.49,0.396169
2731.37,0.402703
2734.25,0.405575
2737.14,0.40629
2740.03,0.406629
2742.93,0.405719
2745.83,0.405236
2748.75,0.405538
2751.66,0.406151
2754.59,0.406432
2757.52,0.406702
2760.46,0.407987
2763.4,0.409304
2766.35,0.409984
2769.3,0.410985
2772.26,0.412126
2775.23,0.413138
2778.21,0.413851
2781.19,0.414721
2784.18,0.415414
2787.17,0.415681
2790.17,0.41606
2793.18,0.416781
2796.19,0.417287
2799.21,0.41746
2802.24,0.417253
2805.27,0.417047
2808.31,0.417753
2811.35,0.418354
2814.41,0.418971
2817.46,0.419418
2820.53,0.41999
2823.6,0.420626
2826.68,0.42106
2829.77,0.421641
2832.86,0.422075
2835.96,0.422325
2839.07,0.422909
2842.18,0.423187
2845.3,0.423438
2848.43,0.423767
2851.56,0.423977
2854.7,0.424233
2857.85,0.424416
2861.0,0.424455
2864.16,0.42456
2867.33,0.424509
2870.51,0.424654
2873.69,0.424553
2876.88,0.424442
2880.07,0.424482
2883.28,0.424627
2886.49,0.424727
2889.71,0.424228
2892.93,0.424026
2896.16,0.423953
2899.4,0.423941
2902.65,0.424176
2905.91,0.42434
2909.17,0.42471
2912.44,0.424928
2915.71,0.424702
2918.99,0.424488
2922.29,0.424795
2925.58,0.425031
2928.89,0.425143
2932.2,0.425239
2935.52,0.425366
2938.85,0.42586
2942.19,0.426171
2945.53,0.426307
2948.88,0.426757
2952.24,0.427184
2955.61,0.427522
2958.98,0.428024
2962.36,0.429133
2965.75,0.429665
2969.15,0.430261
2972.55,0.431197
2975.97,0.431804
2979.39,0.432004
2982.82,0.432648
2986.25,0.433838
2989.7,0.43514
2993.15,0.435799
2996.61,0.436331
3000.08,0.437267
3003.55,0.438493
3007.04,0.438928
3010.53,0.439477
3014.03,0.440516
3017.54,0.442061
3021.06,0.443566
3024.58,0.444094
3028.12,0.44472
3031.66,0.445692
3035.21,0.446343
3038.77,0.446876
3042.33,0.447432
3045.91,0.448031
3049.49,0.448769
3053.08,0.449442
3056.68,0.449791
3060.29,0.450654
3063.91,0.451767
3067.54,0.452408
3071.17,0.452891
3074.81,0.453413
3078.46,0.453933
3082.13,0.454265
3085.79,0.454286
3089.47,0.454857
3093.16,0.455504
3096.85,0.456275
3100.56,0.457197
3104.27,0.457551
3107.99,0.457992
3111.73,0.459105
3115.47,0.460259
3119.21,0.461209
3122.97,0.462421
3126.74,0.46396
3130.52,0.464968
3134.3,0.465672
3138.1,0.466856
3141.9,0.468189
3145.71,0.468907
3149.54,0.469729
3153.37,0.471066
3157.21,0.472406
3161.06,0.473397
3164.92,0.474195
3168.79,0.4755
3172.67,0.477126
3176.55,0.478505
3180.45,0.479741
3184.36,0.480834
3188.27,0.481952
3192.2,0.482928
3196.14,0.484264
3200.08,0.485277
3204.04,0.486328
3208.0,0.487583
3211.98,0.489025
3215.96,0.490517
3219.96,0.491879
3223.96,0.493327
3227.98,0.494459
3232.0,0.495465
3236.04,0.497104
3240.08,0.498731
3244.14,0.499785
3248.2,0.500914
3252.28,0.502523
3256.37,0.503585
3260.46,0.504623
3264.57,0.505909
3268.69,0.507464
3272.81,0.509235
3276.95,0.510932
3281.1,0.512253
3285.26,0.513506
3289.43,0.51451
3293.61,0.515628
3297.8,0.516831
3302.0,0.518077
3304.1,0.51658
3306.21,0.517412
3308.32,0.518787
3310.43,0.518705
3312.55,0.518845
3314.66,0.51949
3316.78,0.519231
3318.91,0.519975
3321.03,0.520909
3323.16,0.521191
3325.29,0.5219
3327.43,0.522215
3329.57,0.520864
3331.71,0.520821
3333.85,0.521863
3335.99,0.521967
3338.14,0.522199
3340.29,0.522323
3342.45,0.522
3344.6,0.520685
3346.76,0.520289
3348.92,0.520118
3351.09,0.520556
3353.26,0.52046
3355.43,0.519456
3357.6,0.518778
3359.78,0.518866
3361.96,0.518649
3364.14,0.518259
3366.32,0.517985
3368.51,0.516903
3370.7,0.51654
3372.89,0.515733
3375.09,0.514427
3377.29,0.513787
3379.49,0.51339
3381.69,0.512731
3383.9,0.513511
3386.11,0.515355
3388.32,0.516311
3390.54,0.517217
3392.76,0.516819
3394.98,0.516599
3397.21,0.516473
3399.43,0.516263
3401.66,0.515129
3403.9,0.512817
3406.13,0.511044
3408.37,0.510328
3410.61,0.50911
3412.86,0.508497
3415.11,0.508586
3417.36,0.508004
3419.61,0.508566
3421.87,0.510568
3424.13,0.51275
3426.39,0.516111
3428.66,0.518446
3430.93,0.519667
3433.2,0.521325
3435.48,0.523326
3437.76,0.525514
3440.04,0.52663
3442.32,0.527756
3444.61,0.529823
3446.9,0.53014
3449.19,0.529858
3451.49,0.530586
3453.79,0.531029
3456.09,0.531891
3458.4,0.532797
3460.7,0.533024
3463.02,0.534299
3465.33,0.534277
3467.65,0.532625
3469.97,0.53219
3472.29,0.532723
3474.62,0.532007
3476.95,0.531416
3479.29,0.532291
3481.62,0.53219
3483.96,0.531976
3486.3,0.533491
3488.65,0.534588
3491.0,0.534174
3493.35,0.532562
3495.71,0.531367
3498.07,0.531139
3500.43,0.530989
3502.79,0.531714
3505.16,0.533132
3507.53,0.534716
3509.91,0.537314
3512.29,0.539197
3514.67,0.54126
3517.05,0.543455
3519.44,0.545143
3521.83,0.546395
3524.22,0.547899
3526.62,0.550017
3529.02,0.551904
3531.43,0.552457
3533.83,0.553039
3536.24,0.554624
3538.66,0.555902
3541.08,0.556123
3543.5,0.556605
3545.92,0.557908
3548.35,0.55857
3550.78,0.559054
3553.21,0.559712
3555.65,0.560237
3558.09,0.560813
3560.53,0.560347
3562.98,0.561022
3565.43,0.562839
3567.88,0.563417
3570.34,0.563805
3572.8,0.563394
3575.27,0.56227
3577.73,0.563886
3580.2,0.564777
3582.68,0.565463
3585.16,0.566565
3587.64,0.567067
3590.12,0.566812
3592.61,0.566087
3595.1,0.566281
3597.6,0.56595
3600.09,0.566812
3602.6,0.568125
3605.1,0.568284
3607.61,0.568557
3610.12,0.568497
3612.64,0.56772
3615.16,0.567314
3617.68,0.568242
3620.21,0.569573
3622.74,0.570547
3625.27,0.570364
3627.81,0.569401
3630.35,0.569229
3632.89,0.569426
3635.44,0.569786
3637.99,0.569947
3640.54,0.570057
3643.1,0.570442
3645.66,0.570474
3648.23,0.570682
3650.8,0.571467
3653.37,0.572187
3655.95,0.572765
3658.53,0.572583
3661.11,0.572494
3663.7,0.573579
3666.29,0.573268
3668.89,0.573951
3671.48,0.575469
3674.09,0.576316
3676.69,0.575953
3679.3,0.575672
3681.91,0.575971
3684.53,0.576546
3687.15,0.57609
3689.78,0.576362
3692.4,0.578003
3695.04,0.578284
3697.67,0.577736
3700.31,0.578095
3702.95,0.578918
3705.6,0.579085
3708.25,0.579621
3710.91,0.580514
3713.56,0.580612
3716.23,0.580063
3718.89,0.579694
3721.56,0.580125
3724.23,0.580669
3726.91,0.581176
3729.59,0.581219
3732.28,0.581319
3734.97,0.582439
3737.66,0.583786
3740.36,0.583762
3743.06,0.583478
3745.76,0.583515
3748.47,0.583668
3751.18,0.583859
3753.9,0.584423
3756.62,0.585276
3759.34,0.585856
3762.07,0.586004
3764.8,0.58599
3767.54,0.586123
3770.28,0.586754
3773.02,0.58759
3775.77,0.588586
3778.52,0.588667
3781.28,0.588363
3784.04,0.587696
3786.8,0.587477
3789.57,0.588579
3792.34,0.589438
3795.12,0.588783
3797.9,0.588283
3800.69,0.588885
3803.47,0.589799
3806.27,0.590523
3809.06,0.589936
3811.86,0.589646
3814.67,0.590273
3817.48,0.591185
3820.29,0.591544
3823.11,0.591766
3825.93,0.591958
3828.76,0.592068
3831.59,0.592425
3834.42,0.592364
3837.26,0.592483
3840.1,0.593163
3842.95,0.593466
3845.8,0.593329
3848.65,0.593256
3851.51,0.59358
3854.38,0.593841
3857.24,0.594548
3860.12,0.595633
3862.99,0.596141
3865.87,0.595492
3868.76,0.595524
3871.65,0.5961
3874.54,0.596218
3877.44,0.596732
3880.34,0.596727
3883.25,0.596306
3886.16,0.596428
3889.07,0.596988
3891.99,0.597979
3894.92,0.599286
3897.85,0.599368
3900.78,0.599396
3903.72,0.599826
3906.66,0.599677
3909.6,0.600102
3912.55,0.600529
3915.51,0.601209
3918.47,0.602333
3921.43,0.601916
3924.4,0.60122
3927.37,0.601429
3930.35,0.602279
3933.33,0.602718
3936.32,0.602369
3939.31,0.602119
3942.31,0.602242
3945.31,0.601797
3948.31,0.601546
3951.32,0.602007
3954.34,0.601685
3957.35,0.600563
3960.38,0.600297
3963.41,0.600368
3966.44,0.600329
3969.48,0.600389
3972.52,0.601029
3975.56,0.600448
3978.61,0.599673
3981.67,0.600371
3984.73,0.601361
3987.8,0.602032
3990.87,0.602994
3993.94,0.603737
3997.02,0.605222
4000.1,0.606339
4003.19,0.606983
4006.29,0.607248
4009.39,0.60761
4012.49,0.608808
4015.6,0.609752
4018.71,0.610058
4021.83,0.611395
4024.95,0.612742
4028.08,0.612963
4031.21,0.613174
4034.35,0.614524
4037.49,0.615602
4040.64,0.616343
4043.79,0.616837
4046.94,0.617427
4050.11,0.617446
4053.27,0.617781
4056.44,0.618817
4059.62,0.619963
4062.8,0.620157
4065.99,0.620679
4069.18,0.620803
4072.38,0.620879
4075.58,0.621472
4078.78,0.622156
4082.0,0.62265
4085.21,0.622428
4088.43,0.622925
4091.66,0.624372
4094.89,0.625011
4098.13,0.625243
4101.37,0.624954
4104.62,0.625451
4107.87,0.626021
4111.13,0.626248
4114.39,0.626409
4117.66,0.626746
4120.93,0.627287
4124.21,0.62762
4127.5,0.627832
4130.78,0.627718
4134.08,0.627754
4137.38,0.62776
4140.68,0.628437
4143.99,0.629875
4147.31,0.630145
4150.63,0.629592
4153.95,0.629255
4157.29,0.629461
4160.62,0.629999
4163.96,0.630215
4167.31,0.630227
4170.66,0.630828
4174.02,0.631571
4177.39,0.631612
4180.75,0.631514
4184.13,0.631941
4187.51,0.632659
4190.89,0.63252
4194.28,0.632516
4197.68,0.633135
4201.08,0.633707
4204.49,0.634149
4207.9,0.633844
4211.32,0.634301
4214.74,0.634956
4218.17,0.635526
4221.61,0.635902
4225.05,0.63642
4228.5,0.636862
4231.95,0.637071
4235.4,0.63758
4238.87,0.638542
4242.34,0.638332
4245.81,0.638187
4249.29,0.638364
4252.78,0.638422
4256.27,0.638876
4259.77,0.638351
4263.27,0.637674
4266.78,0.638525
4270.29,0.639076
4273.81,0.639634
4277.34,0.640173
4280.87,0.640219
4284.41,0.63986
4287.95,0.63988
4291.5,0.640359
4295.06,0.640819
4298.62,0.640502
4302.19,0.640398
4305.76,0.640797
4309.34,0.641039
4312.92,0.641362
4316.52,0.641096
4320.11,0.640654
4323.72,0.640761
4327.32,0.641202
4330.94,0.641135
4334.56,0.641249
4338.19,0.641385
4341.82,0.640853
4345.46,0.640582
4349.11,0.641071
4352.76,0.641773
4356.42,0.642443
4360.08,0.642662
4363.75,0.642711
4367.43,0.642955
4371.11,0.642788
4374.8,0.642611
4378.49,0.642199
4382.19,0.642769
4385.9,0.643025
4389.61,0.642878
4393.33,0.643177
4397.06,0.644299
4400.79,0.644141
4404.53,0.643577
4408.28,0.6434
4412.03,0.64404
4415.79,0.643747
4419.55,0.643762
4423.32,0.644369
4427.1,0.644768
4430.88,0.644837
4434.67,0.644982
4438.47,0.644703
4442.27,0.644463
4446.08,0.644104
4449.9,0.644266
4453.72,0.643649
4457.55,0.643341
4461.39,0.643826
4465.23,0.644234
4469.08,0.644393
4472.94,0.644342
4476.8,0.643617
4480.67,0.64368
4484.55,0.644131
4488.43,0.644371
4492.32,0.644067
4496.21,0.643537
4500.12,0.643287
4504.03,0.642631
4507.94,0.641788
4511.87,0.641584
4515.8,0.641419
4519.73,0.640943
4523.68,0.640886
4527.63,0.641097
4531.59,0.640834
4535.55,0.640054
4539.52,0.639097
4543.5,0.637851
4547.49,0.636867
4551.48,0.636464
4555.48,0.636047
4559.49,0.635362
4563.5,0.634497
4567.52,0.633507
4571.55,0.632203
4575.58,0.631595
4579.62,0.630901
4583.67,0.630273
4587.73,0.629045
4591.79,0.628116
4595.86,0.627029
4599.94,0.625767
4604.03,0.624835
4608.12,0.623994
4612.22,0.622845
4616.33,0.622029
4620.44,0.620661
4624.56,0.618649
4628.69,0.617966
4632.83,0.617695
4636.97,0.616216
4641.12,0.614319
4645.28,0.613421
4649.45,0.613144
4653.62,0.611615
4657.8,0.610468
4661.99,0.609159
4666.19,0.607759
4670.39,0.606959
4674.6,0.606642
4678.82,0.605925
4683.05,0.60488
4687.28,0.604101
4691.52,0.603129
4695.77,0.601824
4700.03,0.601227
4704.3,0.600588
4708.57,0.599718
4712.85,0.598881
4717.14,0.59787
4721.43,0.596726
4725.74,0.595766
4730.05,0.59463
4734.37,0.59396
4738.7,0.592605
4743.03,0.591639
4747.38,0.590148
4751.73,0.58821
4756.09,0.587401
4760.45,0.58673
4764.83,0.584956
4769.21,0.58318
4773.6,0.58211
4778.0,0.580611
4782.41,0.579176
4786.83,0.578177
4791.25,0.576752
4795.68,0.574966
4800.13,0.573387
4804.57,0.57209
4809.03,0.570501
4813.5,0.5692
4817.97,0.567635
4822.45,0.565763
4826.94,0.563415
4831.44,0.561595
4835.95,0.560331
4840.46,0.558911
4844.99,0.557308
4849.52,0.556092
4854.06,0.553585
4858.61,0.550724
4863.17,0.547867
4867.73,0.544905
4872.31,0.541608
4876.89,0.538449
4881.48,0.534908
4886.08,0.531331
4890.69,0.52758
4895.31,0.523655
4899.94,0.519597
4904.57,0.515904
4909.22,0.512195
4913.87,0.508902
4918.53,0.506586
4923.21,0.50381
4927.88,0.500596
4932.57,0.497875
4937.27,0.495557
4941.98,0.493713
4946.69,0.492741
4951.42,0.492199
4956.15,0.492675
4960.89,0.493956
4965.65,0.49435
4970.41,0.494776
4975.18,0.495996
4979.96,0.496721
4984.75,0.497659
4989.54,0.497608
4994.35,0.498022
4999.17,0.498737
5003.99,0.49893
5008.83,0.499325
5013.67,0.499058
5018.52,0.498447
5023.39,0.498183
5028.26,0.497949
5033.14,0.497736
5038.03,0.497568
5042.93,0.496806
5047.84,0.495657
5052.76,0.495082
5057.69,0.494265
5062.63,0.492908
5067.58,0.492015
5072.54,0.491316
5077.51,0.490254
5082.49,0.488871
5087.47,0.487455
5092.47,0.485769
5097.48,0.483746
5102.5,0.482067
5107.52,0.480663
5112.56,0.479573
5117.61,0.478403
5122.66,0.476781
5127.73,0.475408
5132.81,0.473816
5137.89,0.472336
5142.99,0.470883
5148.1,0.469462
5153.22,0.468677
5158.34,0.467677
5163.48,0.466211
5168.63,0.465787
5173.79,0.465371
5178.96,0.464402
5184.13,0.463743
5189.32,0.462708
5194.52,0.461096
5199.73,0.460042
5204.95,0.459273
5210.19,0.458482
5215.43,0.457824
5220.68,0.457894
5225.94,0.458283
5231.22,0.458728
5236.5,0.459158
5241.79,0.460036
5247.1,0.460763
5252.42,0.461378
5257.74,0.461872
5263.08,0.462149
5268.43,0.462257
5273.79,0.463143
5279.16,0.463247
5284.54,0.463387
5289.93,0.463697
5295.34,0.464163
5300.75,0.4646
5306.18,0.464151
5311.61,0.463369
5317.06,0.463381
5322.52,0.463197
5327.99,0.463012
5333.47,0.462381
5338.96,0.461556
5344.47,0.460572
5349.98,0.459636
5355.51,0.458665
5361.05,0.45719
5366.6,0.455327
5372.16,0.453642
5377.73,0.452268
5383.32,0.450785
5388.91,0.449253
5394.52,0.447609
5400.14,0.445523
5405.77,0.443737
5411.41,0.441065
5417.07,0.43907
5422.74,0.437344
5428.41,0.436395
5434.1,0.434703
5439.81,0.432561
5445.52,0.431218
5451.25,0.430484
5456.98,0.42988
5462.73,0.429096
5468.5,0.42914
5474.27,0.429788
5480.06,0.430109
5485.86,0.430852
5491.67,0.430534
5497.49,0.430349
5503.33,0.430455
5509.18,0.431136
5515.04,0.43134
5520.91,0.430659
5526.8,0.429687
5532.69,0.428265
5538.61,0.426635
5544.53,0.424815
5550.47,0.421632
5556.41,0.418097
5562.38,0.414231
5568.35,0.409822
5574.34,0.405339
5580.34,0.400254
5586.35,0.394658
5592.38,0.389565
5598.42,0.385007
5604.47,0.380496
5610.54,0.376851
5616.61,0.37421
5622.71,0.372862
5628.81,0.372229
5634.93,0.372115
5641.06,0.37226
5647.21,0.373962
5653.36,0.375732
5659.54,0.377921
5665.72,0.381263
5671.92,0.38466
5678.13,0.388332
5684.36,0.392624
5690.6,0.396315
5696.85,0.40058
5703.12,0.404188
5709.4,0.406568
5715.69,0.410639
5722.0,0.414245
5728.33,0.416919
5734.66,0.419733
5741.01,0.422201
5747.38,0.423901
5753.76,0.425995
5760.15,0.426108
5766.56,0.424774
5772.98,0.42579
5779.41,0.425706
5785.86,0.424669
5792.33,0.423344
5798.81,0.421333
5805.3,0.419728
5811.81,0.41807
5818.33,0.416107
5824.87,0.414975
5831.42,0.41431
5837.99,0.413179
5844.57,0.412103
5851.17,0.409855
5857.78,0.407987
5864.41,0.405915
5871.05,0.40517
5877.7,0.40356
5884.38,0.402513
5891.06,0.402183
5897.76,0.399815
5904.48,0.399484
5911.21,0.39838
5917.96,0.396759
5924.73,0.39499
5931.5,0.392351
5938.3,0.389547
5945.11,0.388444
5951.93,0.386031
5958.78,0.382777
5965.63,0.379131
5972.51,0.375945
5979.39,0.373785
5986.3,0.370432
5993.22,0.368037
6000.16,0.366541
6007.11,0.365593
6014.08,0.365284
6021.06,0.367042
6028.06,0.36884
6035.08,0.371571
6042.12,0.374819
6049.17,0.377497
6056.23,0.384612
6063.32,0.388267
6070.42,0.38863
6077.53,0.390651
6084.67,0.392634
6091.82,0.393265
6098.98,0.393932
6106.17,0.394718
6113.37,0.394471
6120.58,0.394967
6127.82,0.395092
6135.07,0.394264
6142.34,0.393725
6149.63,0.393977
6156.93,0.39378
6164.25,0.393605
6171.59,0.393846
6178.94,0.393484
6186.32,0.39321
6193.71,0.394639
6201.12,0.394868
6208.54,0.394047
6215.99,0.393713
6223.45,0.393942
6230.93,0.394359
6238.43,0.39346
6245.95,0.392819
6253.48,0.393569
6261.03,0.394253
6268.6,0.394206
6276.19,0.394289
6283.8,0.394859
6291.43,0.395898
6299.07,0.396881
6306.73,0.398292
6314.42,0.399838
6322.12,0.40144
6329.83,0.403331
6337.57,0.405142
6345.33,0.406643
6353.11,0.409459
6360.9,0.41111
6368.72,0.412238
6376.55,0.414088
6384.4,0.41579
6392.27,0.416654
6400.17,0.418136
6408.08,0.419114
6416.01,0.419986
6423.96,0.423585
6431.93,0.424605
6439.92,0.425438
6447.93,0.426043
6455.96,0.425714
6464.01,0.425624
6472.08,0.425051
6480.17,0.42459
6488.28,0.423759
6496.41,0.423526
6504.56,0.423877
6512.73,0.422618
6520.92,0.42058
6529.14,0.41949
6537.37,0.417476
6545.63,0.415102
6553.9,0.412996
6562.2,0.410936
6570.51,0.408015
6578.85,0.405803
6587.21,0.403046
6595.59,0.399716
6603.99,0.397134
6612.42,0.393858
6620.86,0.390717
6629.33,0.387131
6637.82,0.38378
6646.33,0.381355
6654.86,0.378872
6663.41,0.37602
6671.99,0.373067
6680.59,0.370252
6689.21,0.368557
6697.85,0.36591
6706.51,0.362994
6715.2,0.361224
6723.91,0.359191
6732.64,0.356604
6741.4,0.354286
6750.18,0.351524
6758.98,0.349158
6767.8,0.346708
6776.65,0.344861
6785.52,0.342528
6794.41,0.340099
6803.33,0.338916
6812.27,0.337341
6821.23,0.335508
6830.22,0.334536
6839.23,0.333956
6848.26,0.332978
6857.32,0.33193
6866.4,0.331352
6875.51,0.331318
6884.64,0.331634
6893.8,0.33125
6902.98,0.330491
6912.18,0.330769
6921.41,0.331342
6930.66,0.330796
6939.94,0.330553
6949.24,0.330357
6958.57,0.330438
6967.92,0.331169
6977.3,0.331613
6986.7,0.331717
6996.13,0.331998
7005.59,0.331591
7015.07,0.331428
7024.57,0.332265
7034.1,0.333422
7043.66,0.33391
7053.24,0.335823
7062.85,0.337467
7072.49,0.338664
7082.15,0.34065
7091.84,0.342875
7101.55,0.345357
7111.3,0.347519
7121.06,0.349648
7130.86,0.351553
7140.68,0.35303
7150.53,0.35462
7160.41,0.355961
7170.31,0.357054
7180.24,0.358962
7190.2,0.36086
7200.19,0.36226
7210.2,0.363774
7220.24,0.365054
7230.31,0.365553
7240.41,0.365953
7250.54,0.366308
7260.69,0.366998
7270.88,0.367418
7281.09,0.367557
7291.33,0.367667
7301.6,0.367509
7311.9,0.367094
7322.22,0.366148
7332.58,0.364916
7342.97,0.363487
7353.38,0.361997
7363.83,0.360468
7374.3,0.359337
7384.81,0.358378
7395.34,0.357515
7405.91,0.356443
7416.5,0.355385
7427.13,0.354021
7437.78,0.352545
7448.47,0.351169
7459.19,0.349754
7469.94,0.348224
7480.71,0.347155
7491.52,0.345605
7502.37,0.344251
7513.24,0.342668
7524.14,0.340843
7535.08,0.339255
7546.05,0.337988
7557.05,0.336586
7568.08,0.335312
7579.14,0.33444
7590.24,0.333588
7601.37,0.332868
7612.53,0.332668
7623.73,0.332478
7634.96,0.33221
7646.22,0.331729
7657.51,0.331245
7668.84,0.329885
7680.2,0.328675
7691.59,0.327825
7703.02,0.326732
7714.49,0.325757
7725.98,0.324492
7737.51,0.322515
7749.08,0.320957
7760.68,0.3196
7772.32,0.318051
7783.99,0.316132
7795.69,0.314106
7807.43,0.312709
7819.21,0.311539
7831.02,0.309891
7842.87,0.308645
7854.75,0.307394
7866.67,0.30579
7878.62,0.303764
7890.62,0.302021
7902.64,0.30004
7914.71,0.297898
7926.81,0.295931
7938.95,0.293557
7951.13,0.290966
7963.34,0.28834
7975.59,0.285172
7987.88,0.282875
8000.21,0.280364
8012.57,0.277079
8024.98,0.273496
8037.42,0.270197
8049.9,0.266292
8062.42,0.262734
8074.98,0.259048
8087.57,0.255632
8100.21,0.251594
8112.89,0.247715
8125.6,0.244566
8138.36,0.241234
8151.16,0.237209
8163.99,0.23331
8176.87,0.228725
8189.79,0.2243
8202.75,0.22062
8215.74,0.21799
8228.79,0.215192
8241.87,0.211938
8254.99,0.209042
8268.16,0.206301
8281.37,0.203035
8294.62,0.199948
8307.91,0.197237
8321.24,0.194709
8334.62,0.191055
8348.04,0.187625
8361.51,0.184857
8375.02,0.182182
8388.57,0.179425
8402.16,0.176482
8415.8,0.173523
8429.49,0.171411
8443.22,0.16916
8456.99,0.167615
8470.81,0.166664
8484.67,0.166019
8498.58,0.165065
8512.54,0.165372
8526.54,0.165908
8540.58,0.16672
8554.68,0.167931
8568.82,0.169191
8583.0,0.170966
8597.24,0.173282
8611.52,0.175597
8625.85,0.178739
8640.22,0.181717
8654.65,0.184171
8669.12,0.185479
8683.64,0.186918
8698.21,0.18781
8712.83,0.186286
8727.5,0.18245
8742.22,0.176921
8756.98,0.171269
8771.8,0.168685
8786.67,0.168227
8801.59,0.168842
8816.56,0.16966
8831.58,0.169592
8846.65,0.167457
8861.77,0.163923
8876.94,0.160297
8892.17,0.157283
8907.45,0.153355
8922.78,0.150128
8938.16,0.14848
8953.6,0.147035
8969.09,0.145528
8984.64,0.145342
9000.23,0.144909
9015.89,0.14425
9031.59,0.144251
9047.36,0.144765
9063.17,0.145101
9079.04,0.145967
9094.97,0.147472
9110.96,0.149577
9127.0,0.151363
9143.09,0.153188
9159.25,0.155101
9175.46,0.158126
9191.73,0.161122
9208.05,0.163987
9224.44,0.166781
9240.88,0.169601
9257.38,0.17246
9273.94,0.175156
9290.56,0.178511
9307.24,0.181953
9323.98,0.183993
9340.78,0.18511
9357.64,0.185218
9374.57,0.18493
9391.55,0.18369
9408.59,0.182384
9425.7,0.180443
9442.87,0.178926
9460.1,0.177505
9477.39,0.176097
9494.75,0.174059
9512.17,0.172608
9529.66,0.171371
9547.21,0.169136
9564.82,0.166092
9582.5,0.162864
9600.25,0.160152
9618.06,0.15802
9635.94,0.154628
9653.88,0.150859
9671.89,0.148273
9689.97,0.146131
9708.12,0.144095
9726.33,0.142969
9744.61,0.14193
9762.97,0.142413
9781.39,0.143687
9799.88,0.145269
9818.44,0.145638
9837.07,0.146235
9855.77,0.147483
9874.54,0.148675
9893.39,0.149647
9912.3,0.15032
9931.29,0.150297
9950.35,0.150555
9969.49,0.150929
9988.7,0.150732
10007.98,0.150595
10027.34,0.151813
10046.77,0.152835
10066.28,0.15419
10085.87,0.1561
10105.53,0.159236
10125.26,0.162489
10145.08,0.164796
10164.97,0.165818
10184.94,0.165193
10204.99,0.162926
10225.12,0.16075
10245.33,0.158699
10265.61,0.157597
10285.98,0.15794
10306.43,0.159404
10326.96,0.162015
10347.57,0.16565
10368.27,0.16983
10389.05,0.173746
10409.91,0.176359
10430.85,0.178213
10451.88,0.181828
10473.0,0.187984
10494.2,0.19395
10515.49,0.198249
10536.86,0.201438
10558.32,0.20267
10579.87,0.201927
10601.5,0.200431
10623.23,0.198858
10645.04,0.197399
10666.94,0.195497
10688.94,0.19313
10711.02,0.191052
10733.2,0.189486
10755.47,0.188151
10777.83,0.187355
10800.28,0.185382
10822.83,0.182966
10845.47,0.180745
10868.21,0.178688
10891.04,0.177051
10913.97,0.175503
10936.99,0.173352
10960.12,0.171606
10983.34,0.169942
11006.66,0.168566
11030.07,0.16721
11053.59,0.166458
11077.21,0.165025
11100.93,0.163571
11124.75,0.162313
11148.68,0.161744
11172.7,0.160513
11196.84,0.15944
11221.07,0.159081
11245.41,0.158717
11269.86,0.157642
11294.41,0.15688
11319.07,0.156665
11343.84,0.15613
11368.72,0.155379
11393.7,0.154574
11418.8,0.153295
11444.01,0.151962
11469.33,0.149409
11494.76,0.145358
11520.3,0.141195
11545.96,0.137311
11571.73,0.133163
11597.62,0.129771
11623.62,0.127045
11649.74,0.124851
11675.98,0.122783
11702.34,0.121185
11728.81,0.118938
11755.41,0.117297
11782.13,0.115236
11808.96,0.112096
11835.92,0.109387
11863.01,0.108425
11890.22,0.108867
11917.55,0.110129
11945.01,0.111393
11972.6,0.114401
12000.31,0.117146
12028.16,0.119043
12056.13,0.121153
12084.23,0.123633
12112.46,0.125781
12140.83,0.128282
12169.33,0.131222
12197.96,0.134431
12226.73,0.136795
12255.64,0.139437
12284.68,0.142009
12313.86,0.144132
12343.18,0.145528
12372.64,0.146738
12402.24,0.148222
12431.98,0.149913
12461.86,0.151246
12491.89,0.153269
12522.06,0.154616
12552.38,0.155247
12582.85,0.156313
12613.47,0.158013
12644.23,0.159447
12675.15,0.160667
12706.21,0.161664
12737.43,0.162469
12768.8,0.162529
12800.33,0.162992
12832.02,0.162265
12863.86,0.16131
12895.86,0.160932
12928.02,0.159634
12960.34,0.157731
12992.82,0.156228
13025.46,0.1544
13058.27,0.152682
13091.25,0.150753
13124.39,0.149704
13157.7,0.148685
13191.18,0.148045
13224.83,0.147544
13258.66,0.146589
13292.65,0.145823
13326.83,0.144809
13361.17,0.143477
13395.7,0.142368
13430.4,0.141789
13465.29,0.142166
13500.35,0.142018
13535.6,0.141064
13571.03,0.139989
13606.65,0.138638
13642.46,0.1365
13678.46,0.133907
13714.64,0.132268
13751.02,0.130958
13787.59,0.128455
13824.36,0.126427
13861.32,0.124589
13898.48,0.123301
13935.85,0.122032
13973.41,0.120348
14011.17,0.118592
14049.15,0.116884
14087.32,0.115177
14125.71,0.112615
14164.3,0.110223
14203.11,0.109256
14242.13,0.10774
14281.36,0.105497
14320.81,0.104555
14360.48,0.103279
14400.38,0.101655
14440.49,0.099406
14480.82,0.096539
14521.39,0.093632
14562.18,0.090439
14603.2,0.088773
14644.45,0.087864
14685.93,0.086238
14727.66,0.083528
14769.62,0.082341
14811.81,0.082393
14854.25,0.080573
14896.94,0.078976
14939.87,0.078604
14983.05,0.07787
15026.48,0.078732
15070.16,0.07866
15114.1,0.077292
15158.29,0.07678
15202.74,0.077955
15247.46,0.079171
15292.43,0.081159
15337.68,0.082827
15383.19,0.084954
15428.97,0.086573
15475.03,0.088519
15521.36,0.091238
15567.97,0.094595
15614.86,0.095976
15662.04,0.097228
15709.5,0.098822
15757.25,0.099169
15805.29,0.099342
15853.62,0.100367
15902.25,0.100329
15951.18,0.100137
16000.42,0.098796
16049.95,0.097511
16099.8,0.096895
16149.95,0.097428
16200.42,0.097413
16251.21,0.096747
16302.31,0.097005
16353.74,0.098435
16405.49,0.099905
16457.57,0.100004
16509.98,0.10004
16562.73,0.100749
16615.82,0.102827
16669.24,0.103743
16723.02,0.103538
16777.13,0.104666
16831.61,0.106372
16886.43,0.108035
16941.62,0.111777
16997.16,0.116421
17053.07,0.120384
17109.36,0.125926
17166.01,0.131984
17223.04,0.137313
17280.45,0.141825
17338.24,0.147289
17396.43,0.151639
17455.0,0.156473
17513.97,0.161927
17573.34,0.166097
17633.11,0.169611
17693.29,0.174026
17753.89,0.176496
17814.9,0.17824
17876.33,0.180494
17938.18,0.18366
18000.47,0.186799
18063.19,0.19018
18126.35,0.192831
18189.95,0.194388
18254.0,0.197413
18318.5,0.198184
18383.46,0.197042
18448.88,0.194464
18514.77,0.194471
18581.13,0.196101
18647.97,0.198006
18715.29,0.202631
18783.1,0.206509
18851.4,0.210573
18920.2,0.21275
18989.51,0.211076
19059.32,0.209931
19129.65,0.205842
19200.5,0.203065
19271.88,0.201515
19343.79,0.198642
19416.23,0.194681
19489.23,0.191665
19562.77,0.187276
19636.88,0.18146
19711.54,0.180926
19786.77,0.184197
19862.59,0.182012
19938.98,0.175333
20015.96,0.171363
20093.54,0.165613
20171.73,0.157966
20250.53,0.153109
20329.94,0.149296
20409.98,0.143531
20490.65,0.137307
20571.96,0.132751
20653.92,0.127745
20736.54,0.123151
20819.82,0.120601
20903.77,0.121567
20988.4,0.125501
21073.72,0.132032
21159.73,0.138106
21246.46,0.139599
21333.89,0.139806
21422.04,0.140732
21510.93,0.142027
21600.56,0.140631
21690.94,0.140632
21782.08,0.140369
21873.99,0.141887
21966.67,0.147386
22060.15,0.154799
22154.42,0.159279
22249.51,0.161732
22345.41,0.167179
22442.14,0.178438
22539.72,0.184625
22638.14,0.184358
22737.43,0.183255
22837.6,0.180583
22938.65,0.179133
23040.6,0.180993
23143.46,0.184492
23247.24,0.185766
23351.96,0.188297
23457.62,0.194424
23564.25,0.198587
23671.85,0.200224
23780.44,0.199364
23890.02,0.199176
24000.63,0.195844
24112.26,0.198809
24224.93,0.196963
24338.66,0.190181
24453.47,0.189248
24569.36,0.186091
24686.36,0.183018
24804.47,0.175233
24923.72,0.163353
25044.13,0.154352
25165.7,0.141954
25288.46,0.142291
25412.43,0.152375
25537.61,0.159931
25664.03,0.154983
25791.71,0.151091
25920.67,0.152463
