Database of Origin,University of Winnipeg Spectrophotometer Facility
Sample Description,16.12. Meteorites - Ureilites 16.12.3. Pierre Hudon (JSC) samples (b) RELAB + Nicolet FTIR merged spectra from RELAB
Other Information,bkr1ph038
Date Added,2018-07-23 23:49:07.920690

Data ID,RLA_MET2_10_11      
Sample ID,Kenna
Mineral Name,Kenna
Grain Size,<75 um
Viewing Geometry,30/0/30
Resolution,5/0.8-121 nm

Wavelength
305.0,0.05171
310.0,0.05205
315.0,0.05261
320.0,0.0534
325.0,0.05413
330.0,0.05476
335.0,0.05525
340.0,0.05535
345.0,0.05561
350.0,0.05586
355.0,0.05632
360.0,0.0569
365.0,0.05765
370.0,0.05811
375.0,0.05915
380.0,0.06042
385.0,0.06223
390.0,0.06357
395.0,0.06516
400.0,0.06645
405.0,0.06806
410.0,0.06939
415.0,0.07077
420.0,0.07231
425.0,0.074
430.0,0.07602
435.0,0.07805
440.0,0.08003
445.0,0.08174
450.0,0.08337
455.0,0.08413
460.0,0.08521
465.0,0.08613
470.0,0.0868
475.0,0.08765
480.0,0.08858
485.0,0.08984
490.0,0.09122
495.0,0.09274
500.0,0.09434
505.0,0.09637
510.0,0.09856
515.0,0.10061
520.0,0.10238
525.0,0.10428
530.0,0.10665
535.0,0.10885
540.0,0.11091
545.0,0.11296
550.0,0.11487
555.0,0.1166
560.0,0.11807
565.0,0.11954
570.0,0.12093
575.0,0.12207
580.0,0.12333
585.0,0.12409
590.0,0.12525
595.0,0.12613
600.0,0.12688
605.0,0.12752
610.0,0.12832
615.0,0.12903
620.0,0.12973
625.0,0.13042
630.0,0.13102
635.0,0.1317
640.0,0.13221
645.0,0.13288
650.0,0.13347
655.0,0.13392
660.0,0.13427
665.0,0.13471
670.0,0.13546
675.0,0.13577
680.0,0.13601
685.0,0.1361
690.0,0.13661
695.0,0.13686
700.0,0.13715
705.0,0.1374
710.0,0.13757
715.0,0.13807
720.0,0.13832
725.0,0.13879
730.0,0.13919
735.0,0.13938
740.0,0.1392
745.0,0.13924
750.0,0.13924
755.0,0.13927
760.0,0.13907
765.0,0.13911
770.0,0.13886
775.0,0.13882
780.0,0.13862
785.0,0.13826
790.0,0.13788
795.0,0.13784
800.0,0.13762
805.0,0.13703
810.0,0.13651
815.0,0.13618
820.0,0.13587
825.0,0.13518
830.0,0.13499
835.0,0.13416
840.0,0.13385
845.0,0.1332
850.0,0.13278
855.0,0.13204
860.0,0.13172
865.0,0.13116
870.0,0.13085
875.0,0.13012
880.0,0.12992
885.0,0.12938
890.0,0.12916
895.0,0.12858
900.0,0.12832
905.0,0.12768
910.0,0.12739
915.0,0.1267
920.0,0.1264
925.0,0.1259
930.0,0.12573
935.0,0.12532
940.0,0.12542
945.0,0.125
950.0,0.12503
955.0,0.12465
960.0,0.12456
965.0,0.12403
970.0,0.1241
975.0,0.12384
980.0,0.12394
985.0,0.12379
990.0,0.12386
995.0,0.12364
1000.0,0.12364
1005.0,0.12343
1010.0,0.12357
1015.0,0.12339
1020.0,0.12354
1025.0,0.12344
1030.0,0.12367
1035.0,0.1236
1040.0,0.12378
1045.0,0.12363
1050.0,0.12377
1055.0,0.12366
1060.0,0.12379
1065.0,0.12366
1070.0,0.12381
1075.0,0.12366
1080.0,0.12379
1085.0,0.12365
1090.0,0.12398
1095.0,0.12385
1100.0,0.12413
1105.0,0.12384
1110.0,0.12405
1115.0,0.12372
1120.0,0.12403
1125.0,0.12373
1130.0,0.12401
1135.0,0.1237
1140.0,0.12394
1145.0,0.12353
1150.0,0.12374
1155.0,0.12348
1160.0,0.12368
1165.0,0.12329
1170.0,0.12346
1175.0,0.12321
1180.0,0.12327
1185.0,0.12301
1190.0,0.12313
1195.0,0.12287
1200.0,0.12294
1205.0,0.12274
1210.0,0.12282
1215.0,0.12248
1220.0,0.12254
1225.0,0.12226
1230.0,0.12224
1235.0,0.12197
1240.0,0.1223
1245.0,0.12213
1250.0,0.12236
1255.0,0.12213
1260.0,0.1223
1265.0,0.12188
1270.0,0.12203
1275.0,0.12154
1280.0,0.12161
1285.0,0.12127
1290.0,0.12152
1295.0,0.12123
1300.0,0.1215
1305.0,0.12132
1310.0,0.12151
1315.0,0.12112
1320.0,0.12128
1325.0,0.12091
1330.0,0.12102
1335.0,0.12073
1340.0,0.121
1345.0,0.12066
1350.0,0.12084
1355.0,0.12047
1360.0,0.12062
1365.0,0.12024
1370.0,0.12044
1375.0,0.12009
1380.0,0.12039
1385.0,0.12015
1390.0,0.12049
1395.0,0.12016
1400.0,0.12046
1405.0,0.1201
1410.0,0.12038
1415.0,0.12011
1420.0,0.12037
1425.0,0.12008
1430.0,0.1204
1435.0,0.12003
1440.0,0.12017
1445.0,0.11984
1450.0,0.12003
1455.0,0.11971
1460.0,0.12003
1465.0,0.1198
1470.0,0.12005
1475.0,0.11977
1480.0,0.12001
1485.0,0.11971
1490.0,0.11996
1495.0,0.11968
1500.0,0.11992
1505.0,0.11972
1510.0,0.11995
1515.0,0.11961
1520.0,0.11982
1525.0,0.11954
1530.0,0.11977
1535.0,0.11953
1540.0,0.11977
1545.0,0.1195
1550.0,0.11967
1555.0,0.1193
1560.0,0.11945
1565.0,0.11913
1570.0,0.1193
1575.0,0.11903
1580.0,0.11918
1585.0,0.1189
1590.0,0.11907
1595.0,0.11878
1600.0,0.11891
1605.0,0.11871
1610.0,0.11891
1615.0,0.11871
1620.0,0.11895
1625.0,0.11873
1630.0,0.11893
1635.0,0.11871
1640.0,0.11891
1645.0,0.11868
1650.0,0.11883
1655.0,0.11859
1660.0,0.11873
1665.0,0.11851
1670.0,0.11854
1675.0,0.11838
1680.0,0.11834
1685.0,0.11803
1690.0,0.118
1695.0,0.11784
1700.0,0.11802
1705.0,0.11792
1710.0,0.11792
1715.0,0.11786
1720.0,0.11795
1725.0,0.11775
1730.0,0.11779
1735.0,0.11768
1740.0,0.11765
1745.0,0.11758
1750.0,0.11756
1755.0,0.11731
1760.0,0.11736
1765.0,0.11724
1770.0,0.11731
1775.0,0.11713
1780.0,0.11724
1785.0,0.11715
1790.0,0.11726
1795.0,0.11722
1800.0,0.11733
1805.0,0.11717
1810.0,0.11718
1815.0,0.117
1820.0,0.11691
1825.0,0.11681
1830.0,0.11689
1835.0,0.11682
1840.0,0.11677
1845.0,0.11669
1850.0,0.11667
1855.0,0.11664
1860.0,0.11674
1865.0,0.11661
1870.0,0.11667
1875.0,0.1166
1880.0,0.11654
1885.0,0.11633
1890.0,0.11651
1895.0,0.11637
1900.0,0.1164
1905.0,0.11633
1910.0,0.11642
1915.0,0.11633
1920.0,0.11643
1925.0,0.11636
1930.0,0.11643
1935.0,0.11635
1940.0,0.11641
1945.0,0.11619
1950.0,0.11624
1955.0,0.11602
1960.0,0.1161
1965.0,0.11601
1970.0,0.11618
1975.0,0.11603
1980.0,0.11621
1985.0,0.116
1990.0,0.11599
1995.0,0.11598
2000.0,0.11621
2005.0,0.11605
2010.0,0.11627
2015.0,0.11624
2020.0,0.11626
2025.0,0.11602
2030.0,0.11619
2035.0,0.11604
2040.0,0.11608
2045.0,0.11596
2050.0,0.11599
2055.0,0.11583
2060.0,0.11594
2065.0,0.11589
2070.0,0.11603
2075.0,0.116
2080.0,0.11616
2085.0,0.116
2090.0,0.11607
2095.0,0.11595
2100.0,0.11599
2105.0,0.1159
2110.0,0.11614
2115.0,0.11617
2120.0,0.11627
2125.0,0.1163
2130.0,0.11639
2135.0,0.11626
2140.0,0.11627
2145.0,0.11635
2150.0,0.11646
2155.0,0.11632
2160.0,0.11638
2165.0,0.11636
2170.0,0.11642
2175.0,0.11634
2180.0,0.11655
2185.0,0.11658
2190.0,0.11673
2195.0,0.11666
2200.0,0.11689
2205.0,0.11683
2210.0,0.11696
2215.0,0.1169
2220.0,0.11709
2225.0,0.11698
2230.0,0.11716
2235.0,0.11718
2240.0,0.11734
2245.0,0.11727
2250.0,0.11743
2255.0,0.11737
2260.0,0.11743
2265.0,0.1174
2270.0,0.11741
2275.0,0.11729
2280.0,0.11737
2285.0,0.11731
2290.0,0.11742
2295.0,0.11727
2300.0,0.11725
2305.0,0.11718
2310.0,0.11721
2315.0,0.11737
2320.0,0.11752
2325.0,0.11767
2330.0,0.11771
2335.0,0.11779
2340.0,0.11779
2345.0,0.11777
2350.0,0.11772
2355.0,0.1179
2360.0,0.11798
2365.0,0.11801
2370.0,0.11796
2375.0,0.11807
2380.0,0.118
2385.0,0.11803
2390.0,0.11806
2395.0,0.11822
2400.0,0.11832
2405.0,0.11831
2410.0,0.11824
2415.0,0.11844
2420.0,0.11831
2425.0,0.11848
2430.0,0.11854
2435.0,0.11861
2440.0,0.11867
2445.0,0.11871
2450.0,0.11879
2455.0,0.1188
2460.0,0.11886
2465.0,0.1189
2470.0,0.1189
2475.0,0.11901
2480.0,0.11893
2485.0,0.11908
2490.0,0.11909
2495.0,0.11918
2500.0,0.11917
2505.0,0.11921
2510.0,0.11928
2515.0,0.11919
2520.0,0.11932
2525.0,0.11934
2530.0,0.11942
2535.0,0.11942
2540.0,0.11944
2545.0,0.11947
2550.0,0.11953
2551.9,0.11954
2553.1,0.11959
2554.4,0.11955
2555.7,0.11952
2556.9,0.11956
2558.2,0.11953
2559.4,0.11952
2560.7,0.11957
2562.0,0.11965
2563.2,0.11968
2564.5,0.11966
2565.8,0.11963
2567.1,0.1196
2568.3,0.11959
2569.6,0.11966
2570.9,0.1197
2572.1,0.11956
2573.4,0.11971
2574.7,0.11981
2576.0,0.11971
2577.3,0.11979
2578.5,0.11977
2579.8,0.11964
2581.1,0.11971
2582.4,0.11972
2583.7,0.11973
2585.0,0.11977
2586.3,0.11969
2587.5,0.11987
2588.8,0.11986
2590.1,0.11979
2591.4,0.1197
2592.7,0.11962
2594.0,0.11972
2595.3,0.12015
2596.6,0.12007
2597.9,0.11982
2599.2,0.11977
2600.5,0.11979
2601.8,0.11984
2603.1,0.11984
2604.4,0.11981
2605.8,0.11993
2607.1,0.11991
2608.4,0.11981
2609.7,0.11982
2611.0,0.11986
2612.3,0.11978
2613.6,0.1198
2614.9,0.11975
2616.3,0.11979
2617.6,0.12004
2618.9,0.11993
2620.2,0.11992
2621.6,0.11998
2622.9,0.11981
2624.2,0.11974
2625.5,0.11974
2626.9,0.11994
2628.2,0.11996
2629.5,0.11985
2630.9,0.11995
2632.2,0.11988
2633.5,0.11977
2634.9,0.11982
2636.2,0.11975
2637.6,0.11972
2638.9,0.11972
2640.2,0.11974
2641.6,0.11977
2642.9,0.11981
2644.3,0.1198
2645.6,0.11984
2647.0,0.11985
2648.3,0.11983
2649.7,0.11978
2651.0,0.11973
2652.4,0.11983
2653.8,0.11986
2655.1,0.11976
2656.5,0.11975
2657.8,0.11966
2659.2,0.11971
2660.6,0.11972
2661.9,0.11967
2663.3,0.11962
2664.7,0.11967
2666.0,0.11987
2667.4,0.11991
2668.8,0.1197
2670.1,0.11974
2671.5,0.12
2672.9,0.11962
2674.3,0.11945
2675.7,0.11947
2677.0,0.1196
2678.4,0.11955
2679.8,0.11948
2681.2,0.11937
2682.6,0.11929
2684.0,0.11924
2685.4,0.11914
2686.8,0.11916
2688.1,0.11916
2689.5,0.11913
2690.9,0.11909
2692.3,0.11896
2693.7,0.11896
2695.1,0.11894
2696.5,0.11875
2697.9,0.11863
2699.3,0.11856
2700.8,0.11852
2702.1,0.11848
2703.6,0.11835
2705.0,0.11821
2706.4,0.11807
2707.8,0.11796
2709.2,0.11792
2710.6,0.11778
2712.1,0.11768
2713.5,0.11752
2714.9,0.1174
2716.3,0.11722
2717.7,0.11713
2719.2,0.1171
2720.6,0.11719
2722.0,0.11712
2723.4,0.11686
2724.9,0.11686
2726.3,0.11673
2727.7,0.1165
2729.2,0.11635
2730.6,0.11624
2732.1,0.11616
2733.5,0.11604
2734.9,0.11599
2736.4,0.11579
2737.8,0.11552
2739.3,0.11553
2740.7,0.11549
2742.2,0.11521
2743.6,0.1149
2745.1,0.11465
2746.5,0.11449
2748.0,0.11433
2749.4,0.11417
2750.9,0.11404
2752.4,0.11388
2753.8,0.11362
2755.3,0.11349
2756.7,0.11333
2758.2,0.11295
2759.7,0.11272
2761.1,0.11257
2762.6,0.11247
2764.1,0.11233
2765.6,0.11203
2767.0,0.11176
2768.5,0.1116
2770.0,0.1114
2771.5,0.11125
2773.0,0.11098
2774.4,0.11066
2775.9,0.11045
2777.4,0.11027
2778.9,0.11007
2780.4,0.10982
2781.9,0.10965
2783.4,0.10943
2784.9,0.10913
2786.4,0.10894
2787.9,0.10873
2789.4,0.10836
2790.9,0.10802
2792.4,0.10775
2793.9,0.10751
2795.4,0.10729
2796.9,0.10712
2798.4,0.10698
2799.9,0.10683
2801.4,0.10667
2802.9,0.10647
2804.4,0.10632
2806.0,0.10614
2807.5,0.10597
2809.0,0.10588
2810.5,0.10582
2812.1,0.10574
2813.6,0.10562
2815.1,0.10555
2816.6,0.10551
2818.2,0.10543
2819.7,0.10533
2821.2,0.10524
2822.8,0.10518
2824.3,0.10511
2825.9,0.10504
2827.4,0.10501
2828.9,0.10498
2830.5,0.10493
2832.0,0.10486
2833.6,0.10481
2835.1,0.10475
2836.7,0.1047
2838.2,0.10459
2839.8,0.1045
2841.3,0.10444
2842.9,0.10435
2844.4,0.10427
2846.0,0.10416
2847.6,0.10406
2849.1,0.104
2850.7,0.10389
2852.3,0.1038
2853.8,0.10369
2855.4,0.10357
2857.0,0.10342
2858.6,0.10329
2860.1,0.1032
2861.7,0.10314
2863.3,0.10307
2864.9,0.10295
2866.5,0.10282
2868.1,0.1027
2869.6,0.10265
2871.2,0.10257
2872.8,0.10245
2874.4,0.10233
2876.0,0.10225
2877.6,0.10215
2879.2,0.10205
2880.8,0.10194
2882.4,0.10181
2884.0,0.10173
2885.6,0.10165
2887.2,0.10155
2888.8,0.10145
2890.4,0.10132
2892.0,0.10121
2893.6,0.10111
2895.3,0.10102
2896.9,0.10092
2898.5,0.10077
2900.1,0.10063
2901.8,0.10055
2903.4,0.10048
2905.0,0.10034
2906.6,0.1002
2908.3,0.10009
2909.9,0.09996
2911.5,0.09982
2913.2,0.09971
2914.8,0.09957
2916.4,0.09945
2918.1,0.09929
2919.7,0.09913
2921.4,0.09897
2923.0,0.0988
2924.7,0.09863
2926.3,0.09845
2928.0,0.09828
2929.6,0.0981
2931.3,0.09789
2932.9,0.09766
2934.6,0.09747
2936.3,0.09724
2937.9,0.09703
2939.6,0.09675
2941.3,0.09645
2942.9,0.09627
2944.6,0.09606
2946.3,0.09578
2947.9,0.09546
2949.6,0.09515
2951.3,0.09491
2953.0,0.09468
2954.7,0.09443
2956.3,0.09417
2958.0,0.09392
2959.7,0.09367
2961.4,0.09344
2963.1,0.09325
2964.8,0.09308
2966.5,0.0929
2968.2,0.09275
2969.9,0.09265
2971.6,0.09259
2973.3,0.09259
2975.0,0.09261
2976.7,0.0926
2978.4,0.09263
2980.1,0.09267
2981.9,0.09276
2983.6,0.09282
2985.3,0.09287
2987.0,0.09295
2988.7,0.09308
2990.4,0.09322
2992.2,0.09335
2993.9,0.09349
2995.6,0.09362
2997.4,0.09375
2999.1,0.09389
3000.8,0.09401
3002.6,0.09409
3004.3,0.09418
3006.1,0.09425
3007.8,0.0943
3009.5,0.09435
3011.3,0.09438
3013.0,0.09443
3014.8,0.0944
3016.5,0.09436
3018.3,0.09434
3020.1,0.09431
3021.8,0.09429
3023.6,0.09425
3025.3,0.0942
3027.1,0.09426
3028.9,0.09434
3030.6,0.09435
3032.4,0.09431
3034.2,0.09431
3036.0,0.09433
3037.7,0.09431
3039.5,0.09432
3041.3,0.0943
3043.1,0.09427
3044.9,0.09425
3046.7,0.09421
3048.5,0.09419
3050.3,0.09418
3052.1,0.09415
3053.8,0.09408
3055.6,0.09405
3057.4,0.09399
3059.3,0.09393
3061.1,0.0939
3062.9,0.09383
3064.7,0.09378
3066.5,0.09371
3068.3,0.09361
3070.1,0.09351
3071.9,0.09345
3073.8,0.09339
3075.6,0.09332
3077.4,0.0932
3079.2,0.09308
3081.1,0.09294
3082.9,0.09285
3084.7,0.09275
3086.6,0.09264
3088.4,0.09252
3090.2,0.09235
3092.1,0.0922
3093.9,0.09212
3095.8,0.09206
3097.6,0.09194
3099.5,0.09181
3101.3,0.09168
3103.2,0.09156
3105.1,0.09147
3106.9,0.09137
3108.8,0.09127
3110.6,0.09117
3112.5,0.09109
3114.4,0.091
3116.2,0.09096
3118.1,0.09089
3120.0,0.09075
3121.9,0.09068
3123.8,0.09065
3125.6,0.09063
3127.5,0.09063
3129.4,0.09058
3131.3,0.09053
3133.2,0.09056
3135.1,0.09056
3137.0,0.09061
3138.9,0.09069
3140.8,0.09073
3142.7,0.09077
3144.6,0.09087
3146.5,0.091
3148.4,0.09113
3150.3,0.09127
3152.2,0.09141
3154.1,0.09159
3156.1,0.09176
3158.0,0.09196
3159.9,0.09218
3161.8,0.09233
3163.8,0.09251
3165.7,0.09271
3167.6,0.0929
3169.6,0.09312
3171.5,0.09327
3173.5,0.09342
3175.4,0.09364
3177.3,0.09386
3179.3,0.09405
3181.2,0.09421
3183.2,0.09439
3185.1,0.09459
3187.1,0.09479
3189.1,0.09499
3191.0,0.09516
3193.0,0.0953
3195.0,0.09546
3196.9,0.09566
3198.9,0.09583
3200.9,0.09599
3202.9,0.09616
3204.8,0.09628
3206.8,0.09644
3208.8,0.09663
3210.8,0.0968
3212.8,0.097
3214.8,0.09719
3216.8,0.09734
3218.8,0.0975
3220.8,0.09769
3222.8,0.09783
3224.8,0.09792
3226.8,0.09805
3228.8,0.09824
3230.8,0.09842
3232.8,0.09859
3234.8,0.09873
3236.8,0.09885
3238.9,0.09902
3240.9,0.09922
3242.9,0.09938
3244.9,0.09954
3247.0,0.09968
3249.0,0.09985
3251.1,0.10004
3253.1,0.1002
3255.1,0.10035
3257.2,0.10048
3259.2,0.10058
3261.3,0.10073
3263.3,0.10087
3265.4,0.10097
3267.4,0.10111
3269.5,0.10123
3271.6,0.10138
3273.6,0.10151
3275.7,0.10165
3277.8,0.10179
3279.8,0.10186
3281.9,0.10194
3284.0,0.10202
3286.1,0.10208
3288.2,0.10217
3290.2,0.10229
3292.3,0.10239
3294.4,0.10244
3296.5,0.10247
3298.6,0.10255
3300.7,0.10262
3302.8,0.10265
3304.9,0.10265
3307.0,0.10269
3309.1,0.10268
3311.3,0.10259
3313.4,0.10251
3315.5,0.10243
3317.6,0.10232
3319.7,0.10221
3321.9,0.10212
3324.0,0.10205
3326.1,0.10201
3328.3,0.10205
3330.4,0.10219
3332.5,0.10241
3334.7,0.10268
3336.8,0.10299
3339.0,0.10324
3341.1,0.10336
3343.3,0.10344
3345.4,0.10351
3347.6,0.10354
3349.8,0.10353
3351.9,0.10348
3354.1,0.10343
3356.3,0.10333
3358.4,0.10315
3360.6,0.10292
3362.8,0.10263
3365.0,0.10228
3367.2,0.10184
3369.4,0.10132
3371.5,0.10084
3373.7,0.10043
3375.9,0.10004
3378.1,0.09978
3380.3,0.09967
3382.5,0.09965
3384.7,0.09968
3386.9,0.0997
3389.2,0.09975
3391.4,0.09966
3393.6,0.09936
3395.8,0.09891
3398.1,0.09834
3400.3,0.09774
3402.5,0.09717
3404.7,0.09671
3407.0,0.09633
3409.2,0.09595
3411.5,0.09561
3413.7,0.09531
3416.0,0.09506
3418.2,0.09497
3420.5,0.09508
3422.7,0.0954
3425.0,0.09588
3427.3,0.09651
3429.5,0.09721
3431.8,0.09783
3434.1,0.0984
3436.3,0.09892
3438.6,0.09937
3440.9,0.09976
3443.2,0.10008
3445.5,0.10041
3447.8,0.10076
3450.1,0.1011
3452.4,0.10141
3454.6,0.10169
3456.9,0.10198
3459.3,0.10224
3461.6,0.1025
3463.9,0.10273
3466.2,0.10293
3468.5,0.10312
3470.8,0.10322
3473.2,0.10322
3475.5,0.10311
3477.8,0.10296
3480.1,0.10279
3482.5,0.10269
3484.8,0.10257
3487.2,0.10231
3489.5,0.10194
3491.9,0.10152
3494.2,0.10106
3496.6,0.10056
3498.9,0.1001
3501.3,0.09965
3503.7,0.09941
3506.0,0.09951
3508.4,0.09995
3510.8,0.10067
3513.2,0.10159
3515.5,0.1026
3517.9,0.10356
3520.3,0.1044
3522.7,0.10505
3525.1,0.10557
3527.5,0.10605
3529.9,0.10645
3532.3,0.10681
3534.7,0.10716
3537.1,0.10746
3539.5,0.10776
3541.9,0.10802
3544.4,0.10822
3546.8,0.10837
3549.2,0.10847
3551.7,0.10858
3554.1,0.10866
3556.5,0.10869
3559.0,0.10867
3561.4,0.10866
3563.9,0.10872
3566.3,0.10882
3568.8,0.1089
3571.2,0.10902
3573.7,0.10914
3576.1,0.10929
3578.6,0.10946
3581.1,0.10961
3583.6,0.10974
3586.0,0.10987
3588.5,0.11004
3591.0,0.1102
3593.5,0.11032
3596.0,0.11043
3598.5,0.11055
3601.0,0.11061
3603.5,0.11061
3606.0,0.11065
3608.5,0.11074
3611.0,0.1108
3613.5,0.11084
3616.1,0.11089
3618.6,0.11093
3621.1,0.11099
3623.6,0.11106
3626.2,0.11116
3628.7,0.11122
3631.3,0.11129
3633.8,0.11137
3636.3,0.11144
3638.9,0.11149
3641.4,0.11155
3644.0,0.11163
3646.6,0.11168
3649.1,0.1117
3651.7,0.11176
3654.3,0.11182
3656.9,0.11185
3659.4,0.11184
3662.0,0.1119
3664.6,0.11199
3667.2,0.11203
3669.8,0.11208
3672.4,0.11217
3675.0,0.11221
3677.6,0.11224
3680.2,0.1123
3682.8,0.11237
3685.4,0.1124
3688.1,0.11242
3690.7,0.11246
3693.3,0.11251
3695.9,0.11256
3698.6,0.11264
3701.2,0.11271
3703.9,0.11275
3706.5,0.11277
3709.2,0.11278
3711.8,0.11276
3714.5,0.11281
3717.1,0.11288
3719.8,0.1129
3722.5,0.11292
3725.2,0.11294
3727.8,0.11296
3730.5,0.11297
3733.2,0.11298
3735.9,0.11303
3738.6,0.11307
3741.3,0.11306
3744.0,0.11308
3746.7,0.11315
3749.4,0.11321
3752.1,0.11324
3754.8,0.11327
3757.6,0.1133
3760.3,0.11332
3763.0,0.11332
3765.7,0.11338
3768.5,0.11344
3771.2,0.11347
3774.0,0.11348
3776.7,0.1135
3779.5,0.11351
3782.2,0.11356
3785.0,0.11359
3787.7,0.11361
3790.5,0.11364
3793.3,0.11367
3796.1,0.1137
3798.8,0.11371
3801.6,0.11371
3804.4,0.11373
3807.2,0.11377
3810.0,0.11379
3812.8,0.11381
3815.6,0.11386
3818.4,0.1139
3821.2,0.11391
3824.1,0.11392
3826.9,0.11392
3829.7,0.11397
3832.5,0.11401
3835.4,0.11402
3838.2,0.11405
3841.1,0.11406
3843.9,0.11405
3846.8,0.11406
3849.6,0.11406
3852.5,0.11409
3855.3,0.11412
3858.2,0.11417
3861.1,0.1142
3863.9,0.11423
3866.8,0.11424
3869.7,0.11423
3872.6,0.11423
3875.5,0.11422
3878.4,0.11424
3881.3,0.11426
3884.2,0.11424
3887.1,0.11424
3890.0,0.11425
3893.0,0.11426
3895.9,0.11429
3898.8,0.1143
3901.7,0.11426
3904.7,0.11426
3907.6,0.11428
3910.6,0.11429
3913.5,0.11429
3916.5,0.11427
3919.4,0.11428
3922.4,0.11433
3925.4,0.11435
3928.4,0.11438
3931.3,0.11439
3934.3,0.1144
3937.3,0.1144
3940.3,0.11442
3943.3,0.11442
3946.3,0.11444
3949.3,0.11445
3952.3,0.11446
3955.3,0.11447
3958.3,0.11448
3961.4,0.11447
3964.4,0.11449
3967.4,0.1145
3970.5,0.11449
3973.5,0.11449
3976.6,0.11447
3979.6,0.11443
3982.6,0.11443
3985.7,0.11445
3988.8,0.11447
3991.9,0.11446
3994.9,0.11446
3998.0,0.11446
4001.1,0.11446
4004.2,0.11447
4007.3,0.11449
4010.4,0.11448
4013.5,0.11449
4016.6,0.11451
4019.7,0.11449
4022.8,0.11449
4025.9,0.11449
4029.1,0.11449
4032.2,0.11449
4035.3,0.11452
4038.5,0.11455
4041.6,0.11457
4044.8,0.11457
4047.9,0.11455
4051.1,0.11454
4054.3,0.11455
4057.4,0.11456
4060.6,0.11456
4063.8,0.11458
4067.0,0.11461
4070.2,0.11463
4073.4,0.11463
4076.6,0.11463
4079.8,0.11461
4083.0,0.1146
4086.2,0.11459
4089.4,0.11459
4092.7,0.11458
4095.9,0.1146
4099.1,0.11458
4102.4,0.11456
4105.6,0.11455
4108.9,0.11457
4112.1,0.11455
4115.4,0.11452
4118.7,0.11452
4122.0,0.11451
4125.2,0.1145
4128.5,0.11449
4131.8,0.11451
4135.1,0.11448
4138.4,0.11445
4141.7,0.11447
4145.0,0.11446
4148.3,0.11443
4151.6,0.11443
4155.0,0.11442
4158.3,0.11438
4161.6,0.11437
4165.0,0.11438
4168.3,0.11436
4171.7,0.11434
4175.0,0.11433
4178.4,0.11433
4181.8,0.11429
4185.2,0.11422
4188.5,0.11421
4191.9,0.11422
4195.3,0.11422
4198.7,0.11422
4202.1,0.11424
4205.5,0.11425
4208.9,0.11426
4212.4,0.11428
4215.8,0.11433
4219.2,0.11435
4222.6,0.11436
4226.1,0.11435
4229.5,0.11435
4233.0,0.11435
4236.5,0.11433
4239.9,0.11428
4243.4,0.11421
4246.9,0.11413
4250.3,0.11403
4253.8,0.11386
4257.3,0.11369
4260.8,0.1136
4264.3,0.11361
4267.8,0.11362
4271.3,0.11362
4274.9,0.11362
4278.4,0.11368
4281.9,0.11372
4285.5,0.11375
4289.0,0.11375
4292.6,0.11376
4296.1,0.11374
4299.7,0.11372
4303.3,0.11369
4306.8,0.11369
4310.4,0.11365
4314.0,0.11361
4317.6,0.11357
4321.2,0.11351
4324.8,0.11344
4328.4,0.1134
4332.0,0.11337
4335.6,0.11335
4339.3,0.11333
4342.9,0.11332
4346.5,0.1133
4350.2,0.11325
4353.8,0.11321
4357.5,0.1132
4361.1,0.11317
4364.8,0.11316
4368.5,0.11317
4372.2,0.11315
4375.9,0.11312
4379.6,0.11312
4383.3,0.11309
4387.0,0.11306
4390.7,0.11306
4394.4,0.11306
4398.1,0.11304
4401.9,0.11302
4405.6,0.113
4409.4,0.113
4413.1,0.11298
4416.9,0.11297
4420.6,0.11296
4424.4,0.11295
4428.2,0.11291
4432.0,0.11289
4435.8,0.11289
4439.6,0.11291
4443.4,0.11291
4447.2,0.1129
4451.0,0.11286
4454.8,0.11284
4458.6,0.11283
4462.5,0.11283
4466.3,0.1128
4470.2,0.11277
4474.0,0.11274
4477.9,0.11273
4481.8,0.11271
4485.6,0.11269
4489.5,0.11265
4493.4,0.11263
4497.3,0.11258
4501.2,0.11257
4505.1,0.11256
4509.0,0.11256
4513.0,0.11253
4516.9,0.11249
4520.9,0.11246
4524.8,0.11243
4528.7,0.11239
4532.7,0.11238
4536.7,0.11234
4540.6,0.11232
4544.6,0.11231
4548.6,0.11226
4552.6,0.11219
4556.6,0.11214
4560.6,0.11213
4564.6,0.1121
4568.6,0.11207
4572.7,0.11205
4576.7,0.11201
4580.8,0.11197
4584.8,0.11192
4588.9,0.11188
4592.9,0.11182
4597.0,0.1118
4601.1,0.11179
4605.2,0.11175
4609.3,0.1117
4613.4,0.11166
4617.5,0.11162
4621.6,0.11157
4625.7,0.11151
4629.8,0.11146
4634.0,0.11141
4638.1,0.11138
4642.3,0.11134
4646.4,0.11128
4650.6,0.11122
4654.8,0.11118
4659.0,0.11113
4663.1,0.1111
4667.3,0.11105
4671.5,0.11102
4675.8,0.11094
4680.0,0.11089
4684.2,0.11085
4688.4,0.11083
4692.7,0.11075
4696.9,0.11068
4701.2,0.11064
4705.5,0.11061
4709.7,0.11056
4714.0,0.11052
4718.3,0.11048
4722.6,0.11043
4726.9,0.11035
4731.2,0.1103
4735.5,0.11024
4739.9,0.11018
4744.2,0.11013
4748.5,0.11009
4752.9,0.11002
4757.3,0.10996
4761.6,0.1099
4766.0,0.10984
4770.4,0.10976
4774.8,0.10971
4779.2,0.10963
4783.6,0.10957
4788.0,0.10954
4792.4,0.1095
4796.9,0.1094
4801.3,0.10931
4805.8,0.10924
4810.2,0.10918
4814.7,0.1091
4819.1,0.10902
4823.6,0.10894
4828.1,0.10888
4832.6,0.10879
4837.1,0.1087
4841.6,0.10862
4846.2,0.10855
4850.7,0.10844
4855.3,0.10836
4859.8,0.10826
4864.4,0.10818
4868.9,0.10806
4873.5,0.10795
4878.1,0.10782
4882.7,0.10771
4887.3,0.10758
4891.9,0.10746
4896.5,0.10731
4901.1,0.10718
4905.8,0.10702
4910.4,0.10687
4915.1,0.10674
4919.7,0.1066
4924.4,0.10646
4929.1,0.10635
4933.8,0.10624
4938.5,0.10615
4943.2,0.10603
4947.9,0.10594
4952.6,0.10586
4957.4,0.10579
4962.1,0.10572
4966.9,0.10567
4971.6,0.10563
4976.4,0.1056
4981.2,0.10559
4986.0,0.10558
4990.8,0.10555
4995.6,0.10552
5000.4,0.10546
5005.2,0.10545
5010.0,0.10544
5014.9,0.1054
5019.8,0.10536
5024.6,0.1053
5029.5,0.10524
5034.4,0.10519
5039.3,0.10514
5044.2,0.10509
5049.1,0.105
5054.0,0.10496
5058.9,0.10491
5063.9,0.10484
5068.8,0.10472
5073.8,0.10463
5078.8,0.10454
5083.7,0.10448
5088.7,0.10438
5093.7,0.10429
5098.7,0.1042
5103.7,0.10411
5108.8,0.10403
5113.8,0.10393
5118.9,0.10381
5123.9,0.10373
5129.0,0.10362
5134.1,0.10354
5139.1,0.10346
5144.3,0.10338
5149.4,0.10328
5154.5,0.10319
5159.6,0.1031
5164.7,0.10303
5169.9,0.10294
5175.0,0.10287
5180.2,0.10281
5185.4,0.10277
5190.6,0.10269
5195.8,0.10262
5201.0,0.10258
5206.2,0.10254
5211.5,0.10251
5216.7,0.1025
5222.0,0.10243
5227.2,0.1024
5232.5,0.10238
5237.8,0.10239
5243.1,0.10234
5248.4,0.10231
5253.7,0.10227
5259.0,0.10226
5264.4,0.10226
5269.7,0.10226
5275.1,0.10225
5280.5,0.10225
5285.8,0.10223
5291.2,0.10222
5296.6,0.10219
5302.0,0.10217
5307.5,0.10215
5312.9,0.10211
5318.4,0.10206
5323.8,0.10202
5329.3,0.10197
5334.8,0.10193
5340.3,0.10186
5345.8,0.10181
5351.3,0.10178
5356.8,0.1017
5362.4,0.10157
5367.9,0.10147
5373.5,0.10139
5379.0,0.10129
5384.6,0.10115
5390.2,0.10106
5395.8,0.10095
5401.5,0.10082
5407.1,0.10069
5412.7,0.10057
5418.4,0.10047
5424.1,0.1004
5429.7,0.10018
5435.4,0.10003
5441.1,0.09992
5446.9,0.09982
5452.6,0.09969
5458.3,0.09958
5464.1,0.09951
5469.8,0.09943
5475.6,0.09932
5481.4,0.09926
5487.2,0.09915
5493.0,0.09908
5498.8,0.09902
5504.7,0.09894
5510.5,0.09884
5516.4,0.09879
5522.3,0.09871
5528.1,0.09861
5534.0,0.09848
5540.0,0.09837
5545.9,0.0982
5551.8,0.09806
5557.8,0.09785
5563.7,0.09761
5569.7,0.09735
5575.7,0.0971
5581.7,0.09682
5587.7,0.09649
5593.7,0.09615
5599.8,0.09585
5605.8,0.09556
5611.9,0.09532
5618.0,0.09512
5624.1,0.09495
5630.2,0.09483
5636.3,0.09476
5642.4,0.09478
5648.6,0.09475
5654.7,0.09473
5660.9,0.09476
5667.1,0.09481
5673.3,0.09496
5679.5,0.09505
5685.7,0.0951
5692.0,0.09523
5698.2,0.09535
5704.5,0.09545
5710.8,0.09567
5717.1,0.09581
5723.4,0.09588
5729.7,0.09596
5736.0,0.09608
5742.4,0.09613
5748.8,0.09617
5755.1,0.09611
5761.5,0.09609
5768.0,0.09608
5774.4,0.09587
5780.8,0.09562
5787.3,0.09542
5793.7,0.0952
5800.2,0.09499
5806.7,0.09475
5813.2,0.09455
5819.8,0.09437
5826.3,0.09417
5832.8,0.09382
5839.4,0.09345
5846.0,0.09302
5852.6,0.09257
5859.2,0.09203
5865.8,0.09147
5872.5,0.0911
5879.1,0.09118
5885.8,0.09114
5892.5,0.09089
5899.2,0.09056
5905.9,0.09007
5912.6,0.08961
5919.4,0.08908
5926.2,0.08846
5932.9,0.08793
5939.7,0.08725
5946.5,0.08639
5953.4,0.08554
5960.2,0.08469
5967.1,0.08383
5974.0,0.08282
5980.8,0.0818
5987.8,0.08087
5994.7,0.07981
6001.6,0.07889
6008.6,0.07821
6015.5,0.0778
6022.5,0.07756
6029.5,0.07767
6036.5,0.07804
6043.6,0.07863
6050.6,0.07949
6057.7,0.07998
6064.8,0.08035
6071.9,0.0809
6079.0,0.08121
6086.1,0.08128
6093.3,0.08124
6100.5,0.0811
6107.6,0.0809
6114.9,0.08075
6122.1,0.08058
6129.3,0.08067
6136.5,0.08109
6143.8,0.08181
6151.1,0.08261
6158.4,0.08346
6165.7,0.08423
6173.1,0.08482
6180.4,0.0854
6187.8,0.08594
6195.2,0.08618
6202.6,0.08635
6210.0,0.08653
6217.5,0.08665
6225.0,0.08674
6232.4,0.08682
6239.9,0.08691
6247.5,0.08697
6255.0,0.08704
6262.5,0.08712
6270.1,0.08718
6277.7,0.08723
6285.3,0.08729
6292.9,0.08743
6300.6,0.08759
6308.3,0.08776
6315.9,0.08793
6323.6,0.08812
6331.4,0.08827
6339.1,0.08844
6346.9,0.08869
6354.6,0.08875
6362.4,0.08881
6370.3,0.08897
6378.1,0.08901
6385.9,0.08901
6393.8,0.08905
6401.7,0.08906
6409.6,0.08922
6417.6,0.08939
6425.5,0.08919
6433.5,0.08911
6441.5,0.089
6449.5,0.0889
6457.5,0.08879
6465.6,0.0887
6473.6,0.08865
6481.7,0.08856
6489.8,0.08851
6498.0,0.08838
6506.1,0.08807
6514.3,0.08788
6522.5,0.08777
6530.7,0.08755
6538.9,0.08734
6547.2,0.08717
6555.5,0.08699
6563.8,0.0868
6572.1,0.08665
6580.4,0.08643
6588.8,0.08615
6597.2,0.08588
6605.6,0.08562
6614.0,0.08543
6622.5,0.08519
6630.9,0.08504
6639.4,0.08485
6647.9,0.08448
6656.5,0.08416
6665.0,0.08395
6673.6,0.08373
6682.2,0.08352
6690.8,0.08321
6699.5,0.08295
6708.1,0.08273
6716.8,0.08248
6725.5,0.08215
6734.3,0.08183
6743.0,0.08148
6751.8,0.08112
6760.6,0.08065
6769.4,0.08011
6778.3,0.07938
6787.1,0.07826
6796.0,0.07641
6805.0,0.07476
6813.9,0.0743
6822.9,0.07499
6831.9,0.07576
6840.9,0.07604
6849.9,0.07617
6859.0,0.07632
6868.0,0.07639
6877.2,0.07636
6886.3,0.07637
6895.5,0.07639
6904.6,0.07635
6913.8,0.07627
6923.1,0.07611
6932.3,0.07592
6941.6,0.07567
6950.9,0.07542
6960.2,0.07518
6969.6,0.07475
6979.0,0.07419
6988.4,0.07366
6997.8,0.07312
7007.3,0.07271
7016.8,0.07246
7026.3,0.07236
7035.8,0.07241
7045.4,0.07267
7054.9,0.0728
7064.5,0.07269
7074.2,0.07235
7083.9,0.07214
7093.5,0.07264
7103.3,0.07364
7113.0,0.07446
7122.8,0.07501
7132.6,0.07539
7142.4,0.07573
7152.2,0.07601
7162.1,0.07622
7172.0,0.07635
7182.0,0.07642
7191.9,0.07645
7201.9,0.07646
7211.9,0.0764
7222.0,0.07625
7232.0,0.07603
7242.1,0.07575
7252.3,0.07557
7262.4,0.07558
7272.6,0.07566
7282.8,0.07566
7293.1,0.07557
7303.3,0.07542
7313.6,0.07523
7324.0,0.07503
7334.3,0.07484
7344.7,0.07474
7355.1,0.07468
7365.6,0.07457
7376.1,0.07438
7386.6,0.07417
7397.1,0.0739
7407.7,0.0736
7418.3,0.07326
7428.9,0.07291
7439.6,0.07256
7450.3,0.07235
7461.0,0.0723
7471.7,0.07236
7482.5,0.07236
7493.3,0.07225
7504.2,0.07209
7515.0,0.07186
7525.9,0.07159
7536.9,0.07132
7547.9,0.07102
7558.9,0.07077
7569.9,0.07052
7581.0,0.07024
7592.0,0.07
7603.2,0.06991
7614.4,0.06996
7625.5,0.07004
7636.8,0.07001
7648.0,0.06996
7659.3,0.0699
7670.7,0.06983
7682.0,0.06976
7693.4,0.06969
7704.9,0.06958
7716.3,0.06947
7727.8,0.06931
7739.4,0.06913
7750.9,0.06893
7762.5,0.06867
7774.2,0.06835
7785.8,0.06802
7797.5,0.0676
7809.3,0.06716
7821.1,0.06685
7832.9,0.06675
7844.7,0.06674
7856.6,0.06668
7868.5,0.06654
7880.5,0.0664
7892.5,0.0662
7904.5,0.06592
7916.6,0.0656
7928.7,0.06529
7940.8,0.06494
7953.0,0.06457
7965.2,0.06417
7977.5,0.06379
7989.8,0.06341
8002.1,0.06296
8014.5,0.06245
8026.9,0.06195
8039.3,0.06138
8051.8,0.06068
8064.3,0.05985
8076.9,0.0592
8089.5,0.05888
8102.1,0.05867
8114.8,0.05838
8127.5,0.05804
8140.3,0.05763
8153.1,0.05722
8165.9,0.05681
8178.8,0.0564
8191.7,0.05597
8204.7,0.05551
8217.7,0.055
8230.7,0.05454
8243.8,0.05409
8257.0,0.05363
8270.1,0.05314
8283.3,0.0527
8296.6,0.05219
8309.9,0.05163
8323.2,0.05102
8336.6,0.05057
8350.0,0.05035
8363.5,0.05028
8377.0,0.05015
8390.5,0.04995
8404.2,0.04965
8417.8,0.04936
8431.5,0.04904
8445.2,0.04871
8459.0,0.04837
8472.8,0.04808
8486.7,0.04776
8500.6,0.04746
8514.5,0.04719
8528.5,0.04696
8542.6,0.04673
8556.7,0.0465
8570.8,0.04625
8585.0,0.0461
8599.3,0.04593
8613.5,0.04577
8627.9,0.04557
8642.3,0.04534
8656.7,0.04499
8671.2,0.04452
8685.7,0.044
8700.3,0.04361
8714.9,0.04341
8729.6,0.04342
8744.3,0.04341
8759.0,0.04329
8773.9,0.04306
8788.7,0.043
8803.7,0.04317
8818.6,0.04355
8833.7,0.04394
8848.7,0.04432
8863.8,0.04458
8879.0,0.04473
8894.3,0.04483
8909.5,0.04497
8924.9,0.04512
8940.3,0.04533
8955.7,0.0454
8971.2,0.04538
8986.8,0.04528
9002.3,0.04511
9018.0,0.04485
9033.7,0.0446
9049.5,0.04427
9065.3,0.04397
9081.2,0.04369
9097.1,0.04343
9113.1,0.04317
9129.1,0.04305
9145.2,0.04299
9161.4,0.04299
9177.6,0.043
9193.9,0.04311
9210.2,0.04328
9226.6,0.04358
9243.0,0.04389
9259.5,0.04425
9276.1,0.04465
9292.7,0.04513
9309.4,0.04556
9326.2,0.04603
9343.0,0.04647
9359.8,0.04695
9376.8,0.04743
9393.7,0.04786
9410.8,0.04822
9427.9,0.04858
9445.1,0.04886
9462.3,0.04912
9479.6,0.04929
9497.0,0.04939
9514.4,0.04947
9531.9,0.04956
9549.4,0.04955
9567.1,0.04939
9584.7,0.04915
9602.5,0.04895
9620.3,0.0487
9638.2,0.04846
9656.1,0.04821
9674.2,0.04796
9692.2,0.04776
9710.4,0.04758
9728.6,0.04735
9746.9,0.04716
9765.2,0.04699
9783.7,0.04687
9802.2,0.04675
9820.7,0.04669
9839.4,0.04665
9858.1,0.04659
9876.8,0.04651
9895.7,0.04654
9914.6,0.0466
9933.6,0.04671
9952.7,0.04684
9971.8,0.04696
9991.0,0.04707
10010.3,0.0472
10029.7,0.04723
10049.1,0.04731
10068.6,0.04738
10088.2,0.04748
10107.9,0.04753
10127.6,0.04757
10147.4,0.04753
10167.3,0.04745
10187.3,0.04735
10207.4,0.04729
10227.5,0.04727
10247.7,0.04739
10268.0,0.04759
10288.4,0.04781
10308.8,0.04804
10329.4,0.04844
10350.0,0.04884
10370.7,0.04913
10391.5,0.04939
10412.3,0.04984
10433.3,0.0504
10454.3,0.05113
10475.5,0.0521
10496.7,0.05344
10517.9,0.05486
10539.3,0.05611
10560.8,0.05705
10582.3,0.05772
10604.0,0.05812
10625.7,0.05835
10647.5,0.05845
10669.4,0.05839
10691.4,0.05825
10713.5,0.05803
10735.7,0.05768
10758.0,0.05732
10780.3,0.05698
10802.8,0.0566
10825.4,0.05615
10848.0,0.0557
10870.8,0.05526
10893.6,0.05487
10916.5,0.05455
10939.5,0.05432
10962.7,0.0541
10985.9,0.05395
11009.2,0.05387
11032.7,0.05377
11056.2,0.05378
11079.8,0.0539
11103.5,0.05402
11127.3,0.05417
11151.3,0.05445
11175.3,0.05483
11199.5,0.05513
11223.7,0.05546
11248.0,0.05577
11272.5,0.05605
11297.1,0.05629
11321.7,0.05648
11346.5,0.05651
11371.4,0.05649
11396.4,0.0563
11421.5,0.05593
11446.7,0.05532
11472.0,0.05439
11497.5,0.05328
11523.0,0.05219
11548.7,0.0512
11574.4,0.05046
11600.3,0.04991
11626.3,0.04958
11652.5,0.04939
11678.7,0.04928
11705.1,0.04917
11731.6,0.04912
11758.2,0.04899
11784.9,0.04862
11811.7,0.04803
11838.7,0.04748
11865.8,0.04717
11893.0,0.04747
11920.3,0.0484
11947.8,0.04985
11975.4,0.05148
12003.1,0.05314
12031.0,0.05468
12059.0,0.05602
12087.1,0.05721
12115.3,0.0583
12143.7,0.05925
12172.2,0.06012
12200.8,0.06085
12229.6,0.06148
12258.5,0.06217
12287.6,0.06288
12316.8,0.06342
12346.1,0.06389
12375.5,0.06431
12405.2,0.06468
12434.9,0.06495
12464.8,0.0651
12494.8,0.06524
12525.0,0.06539
12555.3,0.06556
12585.8,0.06572
12616.4,0.06585
12647.2,0.06594
12678.1,0.06596
12709.2,0.06603
12740.4,0.06614
12771.8,0.06617
12803.3,0.06622
12835.0,0.06623
12866.9,0.06618
12898.9,0.06611
12931.1,0.06593
12963.4,0.06568
12995.9,0.06533
13028.5,0.06492
13061.3,0.06457
13094.3,0.06412
13127.5,0.06361
13160.8,0.063
13194.3,0.0623
13228.0,0.06144
13261.8,0.06047
13295.8,0.05958
13330.0,0.05851
13364.3,0.05729
13398.9,0.05607
13433.6,0.05486
13468.5,0.05354
13503.5,0.05209
13538.8,0.05063
13574.2,0.04929
13609.9,0.04829
13645.7,0.04772
13681.7,0.04735
13717.9,0.04691
13754.3,0.04625
13790.8,0.04559
13827.6,0.04535
13864.6,0.04553
13901.8,0.04582
13939.1,0.04597
13976.7,0.04591
14014.5,0.04577
14052.5,0.04549
14090.7,0.04497
14129.0,0.04422
14167.7,0.04357
14206.5,0.04293
14245.5,0.04218
14284.7,0.04138
14324.2,0.04065
14363.9,0.04003
14403.8,0.03924
14443.9,0.03831
14484.2,0.03755
14524.8,0.03691
14565.6,0.03626
14606.7,0.03552
14647.9,0.03482
14689.4,0.03415
14731.2,0.03375
14773.1,0.0335
14815.3,0.0333
14857.8,0.03305
14900.5,0.03282
14943.4,0.03267
14986.6,0.03247
15030.0,0.03212
15073.7,0.03172
15117.7,0.03115
15161.9,0.03074
15206.3,0.03043
15251.1,0.03024
15296.1,0.03009
15341.3,0.02988
15386.8,0.02991
15432.6,0.0301
15478.7,0.03021
15525.0,0.03036
15571.7,0.0307
15618.6,0.03117
15665.8,0.03163
15713.2,0.03214
15761.0,0.03257
15809.0,0.03305
15857.4,0.03349
15906.0,0.0339
15955.0,0.03426
16004.2,0.03453
16053.8,0.03484
16103.6,0.03508
16153.8,0.03527
16204.3,0.03551
16255.1,0.03575
16306.2,0.03601
16357.6,0.03622
16409.4,0.03644
16461.5,0.03671
16513.9,0.03681
16566.7,0.03698
16619.8,0.03735
16673.2,0.0376
16727.0,0.03775
16781.1,0.03797
16835.6,0.0384
16890.5,0.03861
16945.7,0.03865
17001.2,0.03884
17057.2,0.03912
17113.4,0.03921
17170.1,0.03929
17227.2,0.03962
17284.6,0.04003
17342.4,0.04038
17400.6,0.04074
17459.2,0.04118
17518.2,0.04172
17577.5,0.04214
17637.3,0.04263
17697.5,0.04313
17758.1,0.04358
17819.2,0.04383
17880.6,0.04419
17942.5,0.04457
18004.8,0.04481
18067.5,0.04486
18130.7,0.04518
18194.3,0.04569
18258.4,0.04628
18322.9,0.04687
18387.9,0.04725
18453.3,0.04765
18519.2,0.04807
18585.6,0.04837
18652.4,0.04893
18719.8,0.04971
18787.6,0.05054
18855.9,0.05123
18924.8,0.05201
18994.1,0.05293
19063.9,0.05374
19134.3,0.05391
19205.1,0.054
19276.5,0.05412
19348.4,0.05384
19420.9,0.05358
19493.9,0.05357
19567.5,0.05375
19641.6,0.05358
19716.3,0.05325
19791.5,0.05307
19867.4,0.0528
19943.8,0.05262
20020.8,0.05207
20098.4,0.05127
20176.6,0.05046
20255.4,0.04929
20334.8,0.04784
20414.9,0.04677
20495.6,0.04582
20576.9,0.0448
20658.9,0.04391
20741.5,0.04361
20824.8,0.04333
20908.8,0.04312
20993.4,0.04329
21078.8,0.0438
21164.8,0.04415
21251.6,0.04383
21339.0,0.04331
21427.2,0.04321
21516.1,0.04296
21605.8,0.04278
21696.2,0.04298
21787.3,0.04257
21879.3,0.04233
21972.0,0.04266
22065.5,0.04333
22159.8,0.04337
22254.9,0.04346
22350.8,0.04448
22447.5,0.04569
22545.1,0.04712
22643.6,0.04846
22742.9,0.04903
22843.1,0.04997
22944.2,0.05145
23046.2,0.05297
23149.0,0.05458
23252.8,0.05549
23357.6,0.05657
23463.3,0.05824
23569.9,0.05987
23677.6,0.0614
23786.2,0.06256
23895.8,0.06414
24006.4,0.06461
24118.1,0.06488
24230.8,0.06636
24344.5,0.06605
24459.4,0.06461
24575.3,0.06357
24692.3,0.06424
24810.4,0.06463
24929.7,0.06356
25050.2,0.06234
