Database of Origin,University of Winnipeg Spectrophotometer Facility
Sample Description,"RELAB plus Nicolet merged plagioclase data. Merged @2500nm, different viewing geometries. See Master Plagioclase in PSF sample database for more information"
Date Added,2016-11-22 03:59:29.959685

Data ID,RLA_PLG_14          
Sample ID,PLG115
Mineral Name,Oligoclase
Grain Size,<45
Viewing Geometry,"30/0,30"
Resolution,"5,0.6-129"
Composition,An23
Material Class,Tectosilicate

Wavelength
300.0,0.647357
305.0,0.655402
310.0,0.666345
315.0,0.674773
320.0,0.684896
325.0,0.693158
330.0,0.700638
335.0,0.707617
340.0,0.714228
345.0,0.719683
350.0,0.724515
355.0,0.730628
360.0,0.735484
365.0,0.740849
370.0,0.744806
375.0,0.748329
380.0,0.751409
385.0,0.753965
390.0,0.755392
395.0,0.757981
400.0,0.758948
405.0,0.759483
410.0,0.762372
415.0,0.762677
420.0,0.766256
425.0,0.768379
430.0,0.769757
435.0,0.772411
440.0,0.773172
445.0,0.774109
450.0,0.774204
455.0,0.774759
460.0,0.774075
465.0,0.773282
470.0,0.771609
475.0,0.771121
480.0,0.769225
485.0,0.766346
490.0,0.765503
495.0,0.763252
500.0,0.762067
505.0,0.761545
510.0,0.76144
515.0,0.761403
520.0,0.760648
525.0,0.762119
530.0,0.762363
535.0,0.765236
540.0,0.768191
545.0,0.772903
550.0,0.777836
555.0,0.783898
560.0,0.789052
565.0,0.794326
570.0,0.798666
575.0,0.802366
580.0,0.80488
585.0,0.806989
590.0,0.810127
595.0,0.811188
600.0,0.812337
605.0,0.813439
610.0,0.81382
615.0,0.815147
620.0,0.813848
625.0,0.81461
630.0,0.814604
635.0,0.815775
640.0,0.814415
645.0,0.815884
650.0,0.815774
655.0,0.816181
660.0,0.81654
665.0,0.816654
670.0,0.817122
675.0,0.817666
680.0,0.81679
685.0,0.816693
690.0,0.817795
695.0,0.818243
700.0,0.818413
705.0,0.818306
710.0,0.818579
715.0,0.818178
720.0,0.819077
725.0,0.818707
730.0,0.818414
735.0,0.818781
740.0,0.818795
745.0,0.819422
750.0,0.818709
755.0,0.818823
760.0,0.818243
765.0,0.820004
770.0,0.819108
775.0,0.819612
780.0,0.819095
785.0,0.819366
790.0,0.819913
795.0,0.819466
800.0,0.819712
805.0,0.819318
810.0,0.820396
815.0,0.82075
820.0,0.819506
825.0,0.821554
830.0,0.820884
835.0,0.8192
840.0,0.821537
845.0,0.820185
850.0,0.819682
855.0,0.822139
860.0,0.820931
865.0,0.819373
870.0,0.820587
875.0,0.820909
880.0,0.819254
885.0,0.819344
890.0,0.821839
895.0,0.824122
900.0,0.822662
905.0,0.822934
910.0,0.824236
915.0,0.823287
920.0,0.821416
925.0,0.82163
930.0,0.821328
935.0,0.820949
940.0,0.82169
945.0,0.821293
950.0,0.821606
955.0,0.822372
960.0,0.823946
965.0,0.82169
970.0,0.823728
975.0,0.822655
980.0,0.822869
985.0,0.820872
990.0,0.822673
995.0,0.820178
1000.0,0.820122
1005.0,0.820599
1010.0,0.820658
1015.0,0.820102
1020.0,0.821549
1025.0,0.821956
1030.0,0.820873
1035.0,0.82209
1040.0,0.820876
1045.0,0.821016
1050.0,0.820296
1055.0,0.820851
1060.0,0.820073
1065.0,0.821028
1070.0,0.821261
1075.0,0.821317
1080.0,0.821358
1085.0,0.821528
1090.0,0.820812
1095.0,0.820596
1100.0,0.821192
1105.0,0.821798
1110.0,0.82141
1115.0,0.821667
1120.0,0.821121
1125.0,0.822674
1130.0,0.823621
1135.0,0.82586
1140.0,0.826576
1145.0,0.8261
1150.0,0.825649
1155.0,0.824467
1160.0,0.823148
1165.0,0.823472
1170.0,0.824201
1175.0,0.823346
1180.0,0.823431
1185.0,0.821537
1190.0,0.81921
1195.0,0.817713
1200.0,0.816168
1205.0,0.812551
1210.0,0.810709
1215.0,0.809421
1220.0,0.808531
1225.0,0.810648
1230.0,0.811274
1235.0,0.811349
1240.0,0.810998
1245.0,0.811044
1250.0,0.810327
1255.0,0.810766
1260.0,0.810774
1265.0,0.811607
1270.0,0.812447
1275.0,0.812265
1280.0,0.81123
1285.0,0.812517
1290.0,0.812364
1295.0,0.811837
1300.0,0.81173
1305.0,0.812942
1310.0,0.811414
1315.0,0.811796
1320.0,0.812692
1325.0,0.812206
1330.0,0.811036
1335.0,0.811611
1340.0,0.811533
1345.0,0.811096
1350.0,0.811116
1355.0,0.810919
1360.0,0.811046
1365.0,0.811879
1370.0,0.810074
1375.0,0.808664
1380.0,0.809283
1385.0,0.8081
1390.0,0.807239
1395.0,0.80813
1400.0,0.807992
1405.0,0.806891
1410.0,0.807334
1415.0,0.806608
1420.0,0.80658
1425.0,0.806121
1430.0,0.807472
1435.0,0.807836
1440.0,0.808691
1445.0,0.808949
1450.0,0.809593
1455.0,0.808786
1460.0,0.80843
1465.0,0.809066
1470.0,0.808614
1475.0,0.808526
1480.0,0.808914
1485.0,0.810201
1490.0,0.809888
1495.0,0.810036
1500.0,0.81113
1505.0,0.81165
1510.0,0.812405
1515.0,0.813301
1520.0,0.814239
1525.0,0.814272
1530.0,0.814311
1535.0,0.813889
1540.0,0.812947
1545.0,0.811628
1550.0,0.811634
1555.0,0.81197
1560.0,0.811578
1565.0,0.81187
1570.0,0.811741
1575.0,0.811643
1580.0,0.81152
1585.0,0.812468
1590.0,0.812437
1595.0,0.812695
1600.0,0.812166
1605.0,0.811983
1610.0,0.812859
1615.0,0.813585
1620.0,0.813456
1625.0,0.813609
1630.0,0.813714
1635.0,0.812819
1640.0,0.812779
1645.0,0.81403
1650.0,0.814531
1655.0,0.815623
1660.0,0.816502
1665.0,0.815949
1670.0,0.816008
1675.0,0.816211
1680.0,0.817083
1685.0,0.817351
1690.0,0.817238
1695.0,0.816205
1700.0,0.816589
1705.0,0.816609
1710.0,0.816979
1715.0,0.817275
1720.0,0.817365
1725.0,0.817731
1730.0,0.817235
1735.0,0.8167
1740.0,0.816599
1745.0,0.816528
1750.0,0.816537
1755.0,0.816183
1760.0,0.816737
1765.0,0.815782
1770.0,0.815326
1775.0,0.815287
1780.0,0.816122
1785.0,0.816016
1790.0,0.81665
1795.0,0.817744
1800.0,0.817545
1805.0,0.817948
1810.0,0.817999
1815.0,0.817273
1820.0,0.81623
1825.0,0.814696
1830.0,0.812861
1835.0,0.812475
1840.0,0.813115
1845.0,0.812559
1850.0,0.813322
1855.0,0.814409
1860.0,0.813866
1865.0,0.812869
1870.0,0.813528
1875.0,0.813082
1880.0,0.811693
1885.0,0.80913
1890.0,0.807953
1895.0,0.804503
1900.0,0.800889
1905.0,0.797695
1910.0,0.796554
1915.0,0.795797
1920.0,0.797089
1925.0,0.797587
1930.0,0.799475
1935.0,0.799533
1940.0,0.799219
1945.0,0.797723
1950.0,0.798454
1955.0,0.797622
1960.0,0.799103
1965.0,0.800149
1970.0,0.801938
1975.0,0.803046
1980.0,0.804704
1985.0,0.805982
1990.0,0.805529
1995.0,0.806252
2000.0,0.80692
2005.0,0.807392
2010.0,0.80887
2015.0,0.810709
2020.0,0.810733
2025.0,0.811049
2030.0,0.811035
2035.0,0.809292
2040.0,0.80928
2045.0,0.809333
2050.0,0.809507
2055.0,0.810157
2060.0,0.810987
2065.0,0.81235
2070.0,0.813686
2075.0,0.813248
2080.0,0.813463
2085.0,0.813923
2090.0,0.814022
2095.0,0.81203
2100.0,0.813975
2105.0,0.813841
2110.0,0.81315
2115.0,0.811661
2120.0,0.813628
2125.0,0.812935
2130.0,0.812572
2135.0,0.813993
2140.0,0.814908
2145.0,0.814957
2150.0,0.814042
2155.0,0.814958
2160.0,0.814557
2165.0,0.813498
2170.0,0.811659
2175.0,0.810702
2180.0,0.809308
2185.0,0.807277
2190.0,0.807234
2195.0,0.807009
2200.0,0.807549
2205.0,0.80687
2210.0,0.807423
2215.0,0.806417
2220.0,0.807012
2225.0,0.807144
2230.0,0.805499
2235.0,0.805609
2240.0,0.804398
2245.0,0.803896
2250.0,0.803169
2255.0,0.806211
2260.0,0.80676
2265.0,0.809059
2270.0,0.809712
2275.0,0.809129
2280.0,0.807038
2285.0,0.807402
2290.0,0.807003
2295.0,0.805535
2300.0,0.806227
2305.0,0.806459
2310.0,0.803162
2315.0,0.801387
2320.0,0.801408
2325.0,0.801931
2330.0,0.801623
2335.0,0.80208
2340.0,0.802759
2345.0,0.801383
2350.0,0.800312
2355.0,0.799695
2360.0,0.800029
2365.0,0.801084
2370.0,0.800049
2375.0,0.799552
2380.0,0.79842
2385.0,0.797442
2390.0,0.795085
2395.0,0.796336
2400.0,0.79595
2405.0,0.794622
2410.0,0.79177
2415.0,0.792649
2420.0,0.791411
2425.0,0.790289
2430.0,0.790613
2435.0,0.79051
2440.0,0.787305
2445.0,0.785159
2450.0,0.782018
2455.0,0.781982
2460.0,0.784644
2465.0,0.783242
2470.0,0.784839
2475.0,0.787274
2480.0,0.787664
2485.0,0.785416
2490.0,0.786691
2495.0,0.786117
2500.0,0.785594
2505.0,0.783746
2510.0,0.782923
2515.0,0.781836
2520.0,0.781948
2525.0,0.783485
2530.08,0.782346
2535.03,0.783772
2540.0,0.783852
2544.99,0.784935
2549.99,0.784118
2552.5,0.782067
2553.76,0.782706
2555.02,0.785431
2556.28,0.785628
2557.54,0.784336
2558.8,0.783896
2560.07,0.782288
2561.33,0.77853
2562.6,0.779243
2563.86,0.782953
2565.13,0.785291
2566.4,0.787926
2567.67,0.786759
2568.95,0.781836
2570.22,0.7793
2571.5,0.784619
2572.77,0.785661
2574.05,0.778556
2575.33,0.783882
2576.61,0.7842
2577.89,0.780512
2579.17,0.784601
2580.46,0.784025
2581.74,0.779992
2583.03,0.781347
2584.31,0.778142
2585.6,0.784045
2586.89,0.787399
2588.19,0.781798
2589.48,0.783353
2590.77,0.785006
2592.07,0.784793
2593.36,0.780128
2594.66,0.768584
2595.96,0.769882
2597.26,0.793361
2598.56,0.795108
2599.87,0.78693
2601.17,0.780856
2602.48,0.778699
2603.78,0.779474
2605.09,0.777346
2606.4,0.776566
2607.71,0.784027
2609.03,0.785951
2610.34,0.783014
2611.65,0.783697
2612.97,0.782694
2614.29,0.780367
2615.61,0.780676
2616.93,0.773726
2618.25,0.77695
2619.57,0.785057
2620.9,0.77825
2622.22,0.782172
2623.55,0.786604
2624.88,0.782035
2626.21,0.77672
2627.54,0.773694
2628.87,0.7814
2630.21,0.777586
2631.54,0.774246
2632.88,0.785298
2634.21,0.783425
2635.55,0.780397
2636.89,0.782026
2638.24,0.780508
2639.58,0.778679
2640.92,0.777211
2642.27,0.776323
2643.62,0.7765
2644.97,0.776707
2646.32,0.774542
2647.67,0.777056
2649.02,0.778592
2650.38,0.776502
2651.73,0.773335
2653.09,0.771205
2654.45,0.775147
2655.81,0.775553
2657.17,0.774252
2658.53,0.774795
2659.89,0.769783
2661.26,0.769843
2662.63,0.771866
2664.0,0.76936
2665.36,0.760925
2666.74,0.761215
2668.11,0.769982
2669.48,0.772477
2670.86,0.758045
2672.23,0.763877
2673.61,0.772142
2674.99,0.76128
2676.37,0.750994
2677.76,0.748227
2679.14,0.753016
2680.52,0.752031
2681.91,0.751172
2683.3,0.743371
2684.69,0.737077
2686.08,0.73527
2687.47,0.732006
2688.87,0.728436
2690.26,0.723446
2691.66,0.71698
2693.06,0.707614
2694.46,0.698427
2695.86,0.696961
2697.26,0.694664
2698.66,0.686736
2700.07,0.675911
2701.48,0.66552
2702.89,0.658812
2704.3,0.653781
2705.71,0.643407
2707.12,0.633598
2708.53,0.623677
2709.95,0.614005
2711.37,0.605439
2712.79,0.603449
2714.21,0.599229
2715.63,0.588029
2717.05,0.578421
2718.48,0.570772
2719.9,0.563175
2721.33,0.555382
2722.76,0.559345
2724.19,0.554472
2725.62,0.545698
2727.06,0.546659
2728.49,0.543434
2729.93,0.536628
2731.37,0.530621
2732.81,0.526611
2734.25,0.522423
2735.69,0.518464
2737.14,0.518836
2738.58,0.514809
2740.03,0.506912
2741.48,0.506964
2742.93,0.510205
2744.38,0.509296
2745.83,0.504015
2747.29,0.500007
2748.75,0.498081
2750.2,0.496412
2751.66,0.493669
2753.13,0.491823
2754.59,0.489264
2756.05,0.484294
2757.52,0.490322
2758.99,0.493554
2760.46,0.489501
2761.93,0.486265
2763.4,0.484415
2764.87,0.487448
2766.35,0.489712
2767.82,0.488215
2769.3,0.487911
2770.78,0.488475
2772.26,0.489243
2773.75,0.492762
2775.23,0.493279
2776.72,0.491871
2778.21,0.491393
2779.7,0.493071
2781.19,0.493607
2782.68,0.494125
2784.18,0.49535
2785.67,0.495509
2787.17,0.493879
2788.67,0.496052
2790.17,0.500074
2791.67,0.500183
2793.18,0.498973
2794.68,0.498827
2796.19,0.499509
2797.7,0.500119
2799.21,0.500246
2800.72,0.500247
2802.24,0.498721
2803.75,0.498423
2805.27,0.501969
2806.79,0.504285
2808.31,0.50297
2809.83,0.501888
2811.35,0.501629
2812.88,0.50163
2814.41,0.501417
2815.93,0.501225
2817.46,0.502054
2819.0,0.501463
2820.53,0.501158
2822.07,0.502598
2823.6,0.503444
2825.14,0.50331
2826.68,0.50279
2828.22,0.502871
2829.77,0.50312
2831.31,0.503202
2832.86,0.503101
2834.41,0.503016
2835.96,0.503265
2837.51,0.504044
2839.07,0.50359
2840.62,0.50368
2842.18,0.503905
2843.74,0.503808
2845.3,0.503856
2846.86,0.503307
2848.43,0.502922
2849.99,0.502992
2851.56,0.503644
2853.13,0.50377
2854.7,0.502994
2856.27,0.503236
2857.85,0.504196
2859.42,0.503904
2861.0,0.503101
2862.58,0.503335
2864.16,0.50353
2865.75,0.503016
2867.33,0.502878
2868.92,0.503413
2870.51,0.503617
2872.1,0.503039
2873.69,0.503112
2875.28,0.504075
2876.88,0.504241
2878.48,0.504378
2880.07,0.504602
2881.68,0.504375
2883.28,0.504409
2884.88,0.504285
2886.49,0.504174
2888.1,0.504361
2889.71,0.504555
2891.32,0.504828
2892.93,0.504694
2894.55,0.504554
2896.16,0.504829
2897.78,0.505185
2899.4,0.505323
2901.03,0.505332
2902.65,0.505399
2904.28,0.506242
2905.91,0.506727
2907.53,0.506886
2909.17,0.50686
2910.8,0.506805
2912.44,0.506941
2914.07,0.507632
2915.71,0.507846
2917.35,0.50777
2918.99,0.508013
2920.64,0.508203
2922.29,0.508399
2923.93,0.508724
2925.58,0.508836
2927.24,0.509193
2928.89,0.509337
2930.55,0.509506
2932.2,0.5099
2933.86,0.510018
2935.52,0.510379
2937.19,0.510845
2938.85,0.511143
2940.52,0.511926
2942.19,0.512068
2943.86,0.512131
2945.53,0.51265
2947.21,0.513061
2948.88,0.513691
2950.56,0.514282
2952.24,0.513882
2953.92,0.513989
2955.61,0.51462
2957.29,0.515125
2958.98,0.515638
2960.67,0.516123
2962.36,0.5166
2964.06,0.516966
2965.75,0.517166
2967.45,0.517761
2969.15,0.518272
2970.85,0.518585
2972.55,0.518848
2974.26,0.519359
2975.97,0.51997
2977.68,0.52048
2979.39,0.521028
2981.1,0.52155
2982.82,0.5218
2984.53,0.52226
2986.25,0.52308
2987.97,0.523793
2989.7,0.524239
2991.42,0.524728
2993.15,0.525217
2994.88,0.525489
2996.61,0.525978
2998.34,0.526661
3000.08,0.52716
3001.82,0.527492
3003.55,0.528036
3005.3,0.528803
3007.04,0.529169
3008.78,0.529521
3010.53,0.530316
3012.28,0.53089
3014.03,0.531025
3015.79,0.531637
3017.54,0.532296
3019.3,0.532862
3021.06,0.533519
3022.82,0.534252
3024.58,0.534634
3026.35,0.535187
3028.12,0.53594
3029.89,0.536074
3031.66,0.536362
3033.43,0.537199
3035.21,0.537727
3036.99,0.538014
3038.77,0.538424
3040.55,0.539148
3042.33,0.539429
3044.12,0.539679
3045.91,0.540229
3047.7,0.541067
3049.49,0.541297
3051.29,0.541279
3053.08,0.541563
3054.88,0.54222
3056.68,0.542936
3058.49,0.543087
3060.29,0.543398
3062.1,0.543782
3063.91,0.544245
3065.72,0.544923
3067.54,0.54549
3069.35,0.545505
3071.17,0.54573
3072.99,0.546179
3074.81,0.54688
3076.64,0.547304
3078.46,0.547475
3080.29,0.547784
3082.13,0.548129
3083.96,0.548715
3085.79,0.54951
3087.63,0.549987
3089.47,0.550581
3091.31,0.551007
3093.16,0.550899
3095.01,0.55148
3096.85,0.552431
3098.71,0.553026
3100.56,0.553779
3102.41,0.553942
3104.27,0.554244
3106.13,0.555164
3107.99,0.556121
3109.86,0.556864
3111.73,0.557107
3113.59,0.557801
3115.47,0.558401
3117.34,0.558863
3119.21,0.559559
3121.09,0.560505
3122.97,0.561197
3124.86,0.561962
3126.74,0.562619
3128.63,0.563372
3130.52,0.56425
3132.41,0.565111
3134.3,0.565485
3136.2,0.565808
3138.1,0.566875
3140.0,0.567876
3141.9,0.568699
3143.81,0.569597
3145.71,0.570153
3147.62,0.570796
3149.54,0.571777
3151.45,0.572548
3153.37,0.573314
3155.29,0.574169
3157.21,0.575154
3159.13,0.575952
3161.06,0.576732
3162.99,0.577612
3164.92,0.578301
3166.85,0.578598
3168.79,0.579177
3170.72,0.580391
3172.67,0.581445
3174.61,0.582423
3176.55,0.583245
3178.5,0.584105
3180.45,0.584848
3182.4,0.58565
3184.36,0.586641
3186.32,0.587742
3188.27,0.5886
3190.24,0.589312
3192.2,0.590134
3194.17,0.591093
3196.14,0.592202
3198.11,0.593061
3200.08,0.593523
3202.06,0.594562
3204.04,0.595391
3206.02,0.595995
3208.0,0.596954
3209.99,0.598019
3211.98,0.598793
3213.97,0.599761
3215.96,0.600876
3217.96,0.601805
3219.96,0.60277
3221.96,0.603523
3223.96,0.604288
3225.97,0.605426
3227.98,0.606571
3229.99,0.607509
3232.0,0.608199
3234.02,0.609248
3236.04,0.610136
3238.06,0.610777
3240.08,0.611671
3242.11,0.612788
3244.14,0.613432
3246.17,0.614195
3248.2,0.615054
3250.24,0.615865
3252.28,0.616814
3254.32,0.617746
3256.37,0.618374
3258.41,0.61914
3260.46,0.620215
3262.51,0.621367
3264.57,0.622275
3266.63,0.623346
3268.69,0.624314
3270.75,0.624972
3272.81,0.625998
3274.88,0.627105
3276.95,0.627962
3279.02,0.628819
3281.1,0.629376
3283.18,0.630127
3285.26,0.630991
3287.34,0.63204
3289.43,0.633162
3291.51,0.633992
3293.61,0.634861
3295.7,0.63538
3297.8,0.636136
3299.89,0.636825
3302.0,0.637898
3304.1,0.639093
3306.21,0.640045
3308.32,0.640857
3310.43,0.641666
3312.55,0.642428
3314.66,0.643163
3316.78,0.644221
3318.91,0.644923
3321.03,0.645308
3323.16,0.646296
3325.29,0.647183
3327.43,0.647918
3329.57,0.648805
3331.71,0.64959
3333.85,0.649959
3335.99,0.65024
3338.14,0.650845
3340.29,0.651598
3342.45,0.652048
3344.6,0.652262
3346.76,0.652695
3348.92,0.652781
3351.09,0.653136
3353.26,0.653594
3355.43,0.653954
3357.6,0.653862
3359.78,0.65394
3361.96,0.654165
3364.14,0.654503
3366.32,0.654593
3368.51,0.654351
3370.7,0.65427
3372.89,0.654123
3375.09,0.653734
3377.29,0.653826
3379.49,0.654338
3381.69,0.654867
3383.9,0.65571
3386.11,0.656633
3388.32,0.657431
3390.54,0.658219
3392.76,0.658691
3394.98,0.658718
3397.21,0.658071
3399.43,0.656836
3401.66,0.655536
3403.9,0.653698
3406.13,0.65136
3408.37,0.648942
3410.61,0.646425
3412.86,0.644683
3415.11,0.643158
3417.36,0.64185
3419.61,0.641607
3421.87,0.642939
3424.13,0.645656
3426.39,0.649659
3428.66,0.654129
3430.93,0.658704
3433.2,0.662833
3435.48,0.666213
3437.76,0.669354
3440.04,0.671842
3442.32,0.674034
3444.61,0.676186
3446.9,0.677769
3449.19,0.67948
3451.49,0.681129
3453.79,0.682686
3456.09,0.684236
3458.4,0.68567
3460.7,0.687236
3463.02,0.68853
3465.33,0.689679
3467.65,0.690643
3469.97,0.69132
3472.29,0.691809
3474.62,0.692157
3476.95,0.69243
3479.29,0.692714
3481.62,0.693357
3483.96,0.693725
3486.3,0.694102
3488.65,0.694478
3491.0,0.694285
3493.35,0.693555
3495.71,0.692196
3498.07,0.690447
3500.43,0.688479
3502.79,0.687134
3505.16,0.687388
3507.53,0.689305
3509.91,0.69288
3512.29,0.696881
3514.67,0.701037
3517.05,0.704903
3519.44,0.708431
3521.83,0.711447
3524.22,0.713804
3526.62,0.716031
3529.02,0.71804
3531.43,0.719617
3533.83,0.721066
3536.24,0.722437
3538.66,0.723589
3541.08,0.724524
3543.5,0.725615
3545.92,0.726696
3548.35,0.727634
3550.78,0.728553
3553.21,0.729591
3555.65,0.730624
3558.09,0.731288
3560.53,0.73186
3562.98,0.732761
3565.43,0.733748
3567.88,0.73461
3570.34,0.735359
3572.8,0.736069
3575.27,0.736864
3577.73,0.737503
3580.2,0.738171
3582.68,0.739008
3585.16,0.739598
3587.64,0.740182
3590.12,0.740957
3592.61,0.74164
3595.1,0.742368
3597.6,0.74308
3600.09,0.743776
3602.6,0.74446
3605.1,0.744783
3607.61,0.745297
3610.12,0.746026
3612.64,0.746851
3615.16,0.747358
3617.68,0.747809
3620.21,0.748245
3622.74,0.748942
3625.27,0.749673
3627.81,0.750276
3630.35,0.750737
3632.89,0.751291
3635.44,0.751954
3637.99,0.752749
3640.54,0.753223
3643.1,0.753587
3645.66,0.753864
3648.23,0.754448
3650.8,0.755033
3653.37,0.755745
3655.95,0.756222
3658.53,0.756771
3661.11,0.75727
3663.7,0.757758
3666.29,0.758203
3668.89,0.758773
3671.48,0.759351
3674.09,0.759677
3676.69,0.759998
3679.3,0.7606
3681.91,0.761433
3684.53,0.762001
3687.15,0.762604
3689.78,0.7631
3692.4,0.763581
3695.04,0.763802
3697.67,0.764079
3700.31,0.764718
3702.95,0.765209
3705.6,0.765549
3708.25,0.766125
3710.91,0.766704
3713.56,0.76709
3716.23,0.767726
3718.89,0.768135
3721.56,0.768692
3724.23,0.769142
3726.91,0.769597
3729.59,0.769854
3732.28,0.770219
3734.97,0.770444
3737.66,0.770945
3740.36,0.771724
3743.06,0.772285
3745.76,0.77264
3748.47,0.772903
3751.18,0.773214
3753.9,0.773774
3756.62,0.774284
3759.34,0.774744
3762.07,0.775151
3764.8,0.775798
3767.54,0.77606
3770.28,0.776366
3773.02,0.776713
3775.77,0.777137
3778.52,0.777583
3781.28,0.778069
3784.04,0.77835
3786.8,0.778741
3789.57,0.778942
3792.34,0.77928
3795.12,0.779881
3797.9,0.780349
3800.69,0.780602
3803.47,0.780873
3806.27,0.781095
3809.06,0.78142
3811.86,0.7817
3814.67,0.782081
3817.48,0.782451
3820.29,0.782786
3823.11,0.783198
3825.93,0.783697
3828.76,0.784001
3831.59,0.784325
3834.42,0.78457
3837.26,0.784841
3840.1,0.785169
3842.95,0.785664
3845.8,0.785802
3848.65,0.786043
3851.51,0.786552
3854.38,0.786897
3857.24,0.786963
3860.12,0.787113
3862.99,0.787216
3865.87,0.787558
3868.76,0.787834
3871.65,0.788083
3874.54,0.788354
3877.44,0.788682
3880.34,0.78891
3883.25,0.78927
3886.16,0.789496
3889.07,0.789766
3891.99,0.79012
3894.92,0.790423
3897.85,0.790666
3900.78,0.790601
3903.72,0.790551
3906.66,0.790954
3909.6,0.791165
3912.55,0.791303
3915.51,0.791456
3918.47,0.791472
3921.43,0.791605
3924.4,0.79185
3927.37,0.791995
3930.35,0.7921
3933.33,0.79215
3936.32,0.792206
3939.31,0.792113
3942.31,0.792114
3945.31,0.792451
3948.31,0.792522
3951.32,0.792185
3954.34,0.792213
3957.35,0.792468
3960.38,0.792642
3963.41,0.792667
3966.44,0.792698
3969.48,0.792854
3972.52,0.793192
3975.56,0.793533
3978.61,0.793628
3981.67,0.793658
3984.73,0.793971
3987.8,0.794389
3990.87,0.794637
3993.94,0.794803
3997.02,0.795191
4000.1,0.795504
4003.19,0.79575
4006.29,0.7959
4009.39,0.796222
4012.49,0.796374
4015.6,0.79659
4018.71,0.796754
4021.83,0.796927
4024.95,0.796878
4028.08,0.797024
4031.21,0.797058
4034.35,0.79719
4037.49,0.797431
4040.64,0.797552
4043.79,0.797669
4046.94,0.797967
4050.11,0.798005
4053.27,0.798098
4056.44,0.798193
4059.62,0.798132
4062.8,0.797939
4065.99,0.797894
4069.18,0.797864
4072.38,0.797932
4075.58,0.797726
4078.78,0.797749
4082.0,0.797491
4085.21,0.797309
4088.43,0.797237
4091.66,0.797366
4094.89,0.797213
4098.13,0.797102
4101.37,0.797137
4104.62,0.797356
4107.87,0.797247
4111.13,0.797041
4114.39,0.79684
4117.66,0.796751
4120.93,0.796891
4124.21,0.796937
4127.5,0.796881
4130.78,0.796922
4134.08,0.796892
4137.38,0.796826
4140.68,0.796727
4143.99,0.796739
4147.31,0.796692
4150.63,0.796615
4153.95,0.796553
4157.29,0.796419
4160.62,0.796313
4163.96,0.796244
4167.31,0.796272
4170.66,0.796283
4174.02,0.796061
4177.39,0.796024
4180.75,0.795971
4184.13,0.796044
4187.51,0.795983
4190.89,0.795737
4194.28,0.795478
4197.68,0.795246
4201.08,0.795105
4204.49,0.794765
4207.9,0.794309
4211.32,0.793932
4214.74,0.793412
4218.17,0.793029
4221.61,0.792895
4225.05,0.792963
4228.5,0.792824
4231.95,0.792829
4235.4,0.792541
4238.87,0.792483
4242.34,0.79248
4245.81,0.792542
4249.29,0.792656
4252.78,0.792603
4256.27,0.792071
4259.77,0.790725
4263.27,0.788763
4266.78,0.787883
4270.29,0.787805
4273.81,0.787713
4277.34,0.787559
4280.87,0.787352
4284.41,0.786926
4287.95,0.786601
4291.5,0.786062
4295.06,0.78567
4298.62,0.785293
4302.19,0.784819
4305.76,0.784121
4309.34,0.783657
4312.92,0.783121
4316.52,0.782395
4320.11,0.781729
4323.72,0.781098
4327.32,0.780483
4330.94,0.779968
4334.56,0.779054
4338.19,0.778368
4341.82,0.777617
4345.46,0.77694
4349.11,0.776182
4352.76,0.775245
4356.42,0.774564
4360.08,0.773996
4363.75,0.773124
4367.43,0.772423
4371.11,0.771685
4374.8,0.770994
4378.49,0.770157
4382.19,0.76939
4385.9,0.768554
4389.61,0.767596
4393.33,0.766744
4397.06,0.766021
4400.79,0.765106
4404.53,0.764441
4408.28,0.763674
4412.03,0.762758
4415.79,0.761865
4419.55,0.76107
4423.32,0.760115
4427.1,0.759257
4430.88,0.758407
4434.67,0.757428
4438.47,0.756553
4442.27,0.755679
4446.08,0.754699
4449.9,0.753566
4453.72,0.75247
4457.55,0.751484
4461.39,0.750564
4465.23,0.749655
4469.08,0.748345
4472.94,0.746972
4476.8,0.745731
4480.67,0.744533
4484.55,0.74327
4488.43,0.742124
4492.32,0.740855
4496.21,0.739243
4500.12,0.737623
4504.03,0.736418
4507.94,0.734981
4511.87,0.733536
4515.8,0.732092
4519.73,0.730714
4523.68,0.729291
4527.63,0.727744
4531.59,0.725947
4535.55,0.724381
4539.52,0.722858
4543.5,0.721264
4547.49,0.719687
4551.48,0.718269
4555.48,0.716747
4559.49,0.715206
4563.5,0.713563
4567.52,0.711992
4571.55,0.710426
4575.58,0.708794
4579.62,0.707141
4583.67,0.705522
4587.73,0.703922
4591.79,0.702396
4595.86,0.700589
4599.94,0.698682
4604.03,0.696932
4608.12,0.695416
4612.22,0.693845
4616.33,0.692127
4620.44,0.690369
4624.56,0.688801
4628.69,0.687164
4632.83,0.68545
4636.97,0.683576
4641.12,0.681978
4645.28,0.680303
4649.45,0.678705
4653.62,0.677045
4657.8,0.675431
4661.99,0.673869
4666.19,0.672305
4670.39,0.670766
4674.6,0.669384
4678.82,0.668014
4683.05,0.666758
4687.28,0.665466
4691.52,0.664144
4695.77,0.662677
4700.03,0.661249
4704.3,0.659925
4708.57,0.65888
4712.85,0.657659
4717.14,0.656329
4721.43,0.655128
4725.74,0.654111
4730.05,0.652984
4734.37,0.652028
4738.7,0.651035
4743.03,0.649931
4747.38,0.648857
4751.73,0.647946
4756.09,0.647186
4760.45,0.6464
4764.83,0.645429
4769.21,0.644626
4773.6,0.643874
4778.0,0.643216
4782.41,0.642549
4786.83,0.642027
4791.25,0.641714
4795.68,0.641211
4800.13,0.640602
4804.57,0.639917
4809.03,0.639222
4813.5,0.638734
4817.97,0.638126
4822.45,0.637514
4826.94,0.636804
4831.44,0.636209
4835.95,0.635488
4840.46,0.634647
4844.99,0.633949
4849.52,0.633458
4854.06,0.632649
4858.61,0.63172
4863.17,0.630954
4867.73,0.630097
4872.31,0.629262
4876.89,0.628485
4881.48,0.627534
4886.08,0.626707
4890.69,0.625908
4895.31,0.625238
4899.94,0.624393
4904.57,0.623741
4909.22,0.623
4913.87,0.622202
4918.53,0.621337
4923.21,0.62058
4927.88,0.619868
4932.57,0.619218
4937.27,0.618467
4941.98,0.617563
4946.69,0.616675
4951.42,0.615814
4956.15,0.614717
4960.89,0.613698
4965.65,0.61265
4970.41,0.611205
4975.18,0.609663
4979.96,0.608289
4984.75,0.607064
4989.54,0.605719
4994.35,0.604181
4999.17,0.602653
5003.99,0.601072
5008.83,0.599384
5013.67,0.597724
5018.52,0.595921
5023.39,0.594125
5028.26,0.592764
5033.14,0.590684
5038.03,0.588606
5042.93,0.58651
5047.84,0.584511
5052.76,0.582389
5057.69,0.580221
5062.63,0.578074
5067.58,0.57587
5072.54,0.573499
5077.51,0.570955
5082.49,0.568502
5087.47,0.566342
5092.47,0.564213
5097.48,0.561526
5102.5,0.558901
5107.52,0.556363
5112.56,0.554044
5117.61,0.551588
5122.66,0.549128
5127.73,0.546718
5132.81,0.544534
5137.89,0.542248
5142.99,0.539958
5148.1,0.537525
5153.22,0.535643
5158.34,0.533882
5163.48,0.531376
5168.63,0.529114
5173.79,0.526922
5178.96,0.524916
5184.13,0.522757
5189.32,0.520594
5194.52,0.51839
5199.73,0.516128
5204.95,0.514278
5210.19,0.512424
5215.43,0.509808
5220.68,0.508863
5225.94,0.507251
5231.22,0.504925
5236.5,0.503044
5241.79,0.501574
5247.1,0.500307
5252.42,0.498758
5257.74,0.497287
5263.08,0.496002
5268.43,0.494783
5273.79,0.493519
5279.16,0.492407
5284.54,0.491619
5289.93,0.490273
5295.34,0.488975
5300.75,0.488806
5306.18,0.487554
5311.61,0.486238
5317.06,0.485127
5322.52,0.483895
5327.99,0.482627
5333.47,0.481385
5338.96,0.479995
5344.47,0.478444
5349.98,0.476406
5355.51,0.475473
5361.05,0.475181
5366.6,0.473175
5372.16,0.47103
5377.73,0.469189
5383.32,0.46757
5388.91,0.465679
5394.52,0.463678
5400.14,0.461433
5405.77,0.459413
5411.41,0.457176
5417.07,0.45491
5422.74,0.451853
5428.41,0.450771
5434.1,0.449782
5439.81,0.446348
5445.52,0.443527
5451.25,0.4411
5456.98,0.438659
5462.73,0.435704
5468.5,0.433501
5474.27,0.432264
5480.06,0.429027
5485.86,0.426593
5491.67,0.424521
5497.49,0.421785
5503.33,0.419487
5509.18,0.417044
5515.04,0.414818
5520.91,0.412193
5526.8,0.410094
5532.69,0.408041
5538.61,0.405773
5544.53,0.403188
5550.47,0.400757
5556.41,0.398669
5562.38,0.397168
5568.35,0.395003
5574.34,0.392658
5580.34,0.390231
5586.35,0.389843
5592.38,0.389087
5598.42,0.386833
5604.47,0.384812
5610.54,0.383779
5616.61,0.382333
5622.71,0.38151
5628.81,0.380663
5634.93,0.379269
5641.06,0.377529
5647.21,0.377322
5653.36,0.378132
5659.54,0.376611
5665.72,0.376263
5671.92,0.375068
5678.13,0.373757
5684.36,0.374278
5690.6,0.373629
5696.85,0.37273
5703.12,0.373153
5709.4,0.371938
5715.69,0.372
5722.0,0.373352
5728.33,0.373428
5734.66,0.373166
5741.01,0.372858
5747.38,0.372443
5753.76,0.372482
5760.15,0.372841
5766.56,0.370195
5772.98,0.371322
5779.41,0.372921
5785.86,0.371118
5792.33,0.370445
5798.81,0.369783
5805.3,0.369103
5811.81,0.368531
5818.33,0.366859
5824.87,0.365974
5831.42,0.367836
5837.99,0.367751
5844.57,0.366561
5851.17,0.365113
5857.78,0.364103
5864.41,0.363043
5871.05,0.362938
5877.7,0.361619
5884.38,0.359379
5891.06,0.362386
5897.76,0.360114
5904.48,0.360043
5911.21,0.360364
5917.96,0.357967
5924.73,0.35713
5931.5,0.355954
5938.3,0.353909
5945.11,0.356163
5951.93,0.35685
5958.78,0.354561
5965.63,0.353091
5972.51,0.351545
5979.39,0.352538
5986.3,0.350996
5993.22,0.349741
6000.16,0.350155
6007.11,0.349163
6014.08,0.346996
6021.06,0.346743
6028.06,0.346535
6035.08,0.345131
6042.12,0.343317
6049.17,0.340614
6056.23,0.342625
6063.32,0.344464
6070.42,0.340321
6077.53,0.338925
6084.67,0.339489
6091.82,0.338039
6098.98,0.335889
6106.17,0.334539
6113.37,0.332662
6120.58,0.333042
6127.82,0.333755
6135.07,0.33216
6142.34,0.331056
6149.63,0.331265
6156.93,0.331312
6164.25,0.331219
6171.59,0.332147
6178.94,0.331734
6186.32,0.330688
6193.71,0.332209
6201.12,0.332972
6208.54,0.331676
6215.99,0.331421
6223.45,0.33132
6230.93,0.331206
6238.43,0.33089
6245.95,0.330819
6253.48,0.330756
6261.03,0.330763
6268.6,0.330619
6276.19,0.330776
6283.8,0.330856
6291.43,0.331001
6299.07,0.331306
6306.73,0.331815
6314.42,0.331995
6322.12,0.332351
6329.83,0.332776
6337.57,0.333042
6345.33,0.332768
6353.11,0.335154
6360.9,0.336542
6368.72,0.335413
6376.55,0.335947
6384.4,0.337662
6392.27,0.337565
6400.17,0.337915
6408.08,0.337299
6416.01,0.336234
6423.96,0.340383
6431.93,0.341527
6439.92,0.340092
6447.93,0.340173
6455.96,0.339406
6464.01,0.339319
6472.08,0.338204
6480.17,0.337542
6488.28,0.336918
6496.41,0.336428
6504.56,0.337967
6512.73,0.337424
6520.92,0.334574
6529.14,0.334297
6537.37,0.334183
6545.63,0.332541
6553.9,0.331323
6562.2,0.330792
6570.51,0.329484
6578.85,0.328471
6587.21,0.328805
6595.59,0.327031
6603.99,0.326261
6612.42,0.325103
6620.86,0.323678
6629.33,0.322395
6637.82,0.32069
6646.33,0.321409
6654.86,0.321942
6663.41,0.319847
6671.99,0.318286
6680.59,0.317412
6689.21,0.317117
6697.85,0.316921
6706.51,0.315362
6715.2,0.314143
6723.91,0.313911
6732.64,0.313137
6741.4,0.311912
6750.18,0.310485
6758.98,0.309371
6767.8,0.308228
6776.65,0.306798
6785.52,0.305472
6794.41,0.304015
6803.33,0.303248
6812.27,0.301511
6821.23,0.299401
6830.22,0.297748
6839.23,0.296927
6848.26,0.295515
6857.32,0.293443
6866.4,0.291916
6875.51,0.291546
6884.64,0.289807
6893.8,0.287465
6902.98,0.285802
6912.18,0.28407
6921.41,0.282536
6930.66,0.280694
6939.94,0.27894
6949.24,0.277052
6958.57,0.275127
6967.92,0.273653
6977.3,0.272339
6986.7,0.269946
6996.13,0.267972
7005.59,0.266153
7015.07,0.264395
7024.57,0.262422
7034.1,0.260758
7043.66,0.258465
7053.24,0.256626
7062.85,0.254894
7072.49,0.252626
7082.15,0.25027
7091.84,0.248049
7101.55,0.245678
7111.3,0.24323
7121.06,0.24072
7130.86,0.238125
7140.68,0.235321
7150.53,0.232755
7160.41,0.230088
7170.31,0.227064
7180.24,0.223984
7190.2,0.220983
7200.19,0.217968
7210.2,0.214988
7220.24,0.211738
7230.31,0.208622
7240.41,0.205446
7250.54,0.202352
7260.69,0.198998
7270.88,0.195711
7281.09,0.192347
7291.33,0.189156
7301.6,0.185743
7311.9,0.182495
7322.22,0.179035
7332.58,0.175772
7342.97,0.172456
7353.38,0.169207
7363.83,0.165749
7374.3,0.162391
7384.81,0.15878
7395.34,0.155187
7405.91,0.151626
7416.5,0.148317
7427.13,0.144768
7437.78,0.141287
7448.47,0.137595
7459.19,0.133993
7469.94,0.130174
7480.71,0.12641
7491.52,0.122512
7502.37,0.118622
7513.24,0.114475
7524.14,0.110569
7535.08,0.106643
7546.05,0.102655
7557.05,0.098378
7568.08,0.094119
7579.14,0.089893
7590.24,0.085919
7601.37,0.081822
7612.53,0.07792
7623.73,0.073764
7634.96,0.069877
7646.22,0.065889
7657.51,0.06219
7668.84,0.058615
7680.2,0.055069
7691.59,0.051491
7703.02,0.048405
7714.49,0.045183
7725.98,0.042095
7737.51,0.038997
7749.08,0.03633
7760.68,0.033937
7772.32,0.031734
7783.99,0.029567
7795.69,0.027895
7807.43,0.026355
7819.21,0.02516
7831.02,0.024114
7842.87,0.023424
7854.75,0.022876
7866.67,0.023213
7878.62,0.02387
7890.62,0.024902
7902.64,0.02627
7914.71,0.028449
7926.81,0.031061
7938.95,0.034312
7951.13,0.038143
7963.34,0.042884
7975.59,0.048229
7987.88,0.054168
8000.21,0.060543
8012.57,0.067778
8024.98,0.075756
8037.42,0.084372
8049.9,0.093294
8062.42,0.102593
8074.98,0.111996
8087.57,0.121702
8100.21,0.131582
8112.89,0.141603
8125.6,0.151429
8138.36,0.161297
8151.16,0.170888
8163.99,0.180065
8176.87,0.188781
8189.79,0.196956
8202.75,0.204478
8215.74,0.211077
8228.79,0.216405
8241.87,0.220431
8254.99,0.222888
8268.16,0.223763
8281.37,0.22276
8294.62,0.220153
8307.91,0.216233
8321.24,0.211366
8334.62,0.205781
8348.04,0.200214
8361.51,0.194651
8375.02,0.18934
8388.57,0.184207
8402.16,0.179322
8415.8,0.174662
8429.49,0.17059
8443.22,0.166797
8456.99,0.163126
8470.81,0.159569
8484.67,0.156445
8498.58,0.153303
8512.54,0.150526
8526.54,0.147835
8540.58,0.145148
8554.68,0.142525
8568.82,0.140002
8583.0,0.137445
8597.24,0.135075
8611.52,0.132709
8625.85,0.130446
8640.22,0.128032
8654.65,0.125717
8669.12,0.12346
8683.64,0.12146
8698.21,0.119394
8712.83,0.117446
8727.5,0.115443
8742.22,0.113674
8756.98,0.111886
8771.8,0.110391
8786.67,0.108949
8801.59,0.10748
8816.56,0.106084
8831.58,0.105146
8846.65,0.103974
8861.77,0.102731
8876.94,0.101625
8892.17,0.100837
8907.45,0.099977
8922.78,0.099405
8938.16,0.098711
8953.6,0.097852
8969.09,0.097029
8984.64,0.096352
9000.23,0.095552
9015.89,0.094743
9031.59,0.093885
9047.36,0.093008
9063.17,0.091915
9079.04,0.090996
9094.97,0.090324
9110.96,0.089678
9127.0,0.088968
9143.09,0.088453
9159.25,0.087747
9175.46,0.087264
9191.73,0.086724
9208.05,0.086407
9224.44,0.086198
9240.88,0.086063
9257.38,0.085764
9273.94,0.085418
9290.56,0.085429
9307.24,0.085722
9323.98,0.086016
9340.78,0.086525
9357.64,0.086995
9374.57,0.087673
9391.55,0.088312
9408.59,0.089297
9425.7,0.090498
9442.87,0.091939
9460.1,0.093682
9477.39,0.095518
9494.75,0.097046
9512.17,0.098969
9529.66,0.101061
9547.21,0.102981
9564.82,0.104682
9582.5,0.106318
9600.25,0.107489
9618.06,0.108565
9635.94,0.109282
9653.88,0.109752
9671.89,0.109835
9689.97,0.110043
9708.12,0.109988
9726.33,0.109717
9744.61,0.109486
9762.97,0.109385
9781.39,0.109129
9799.88,0.10885
9818.44,0.108561
9837.07,0.108438
9855.77,0.108227
9874.54,0.107805
9893.39,0.107279
9912.3,0.107073
9931.29,0.106687
9950.35,0.105872
9969.49,0.104839
9988.7,0.104222
10007.98,0.103303
10027.34,0.102341
10046.77,0.101611
10066.28,0.100862
10085.87,0.099851
10105.53,0.099131
10125.26,0.098347
10145.08,0.097714
10164.97,0.097123
10184.94,0.096401
10204.99,0.095552
10225.12,0.094828
10245.33,0.094145
10265.61,0.093378
10285.98,0.092542
10306.43,0.092105
10326.96,0.091621
10347.57,0.090993
10368.27,0.090602
10389.05,0.090645
10409.91,0.090556
10430.85,0.090511
10451.88,0.09046
10473.0,0.090621
10494.2,0.090536
10515.49,0.090366
10536.86,0.09036
10558.32,0.090615
10579.87,0.090939
10601.5,0.091202
10623.23,0.091401
10645.04,0.091959
10666.94,0.092396
10688.94,0.093054
10711.02,0.093828
10733.2,0.094565
10755.47,0.095307
10777.83,0.09618
10800.28,0.097328
10822.83,0.098772
10845.47,0.100246
10868.21,0.101649
10891.04,0.103186
10913.97,0.105131
10936.99,0.1073
10960.12,0.109741
10983.34,0.112329
11006.66,0.115199
11030.07,0.118339
11053.59,0.121827
11077.21,0.125403
11100.93,0.129013
11124.75,0.132837
11148.68,0.136855
11172.7,0.140759
11196.84,0.144549
11221.07,0.148512
11245.41,0.152317
11269.86,0.155596
11294.41,0.158628
11319.07,0.161332
11343.84,0.163771
11368.72,0.165772
11393.7,0.167452
11418.8,0.168483
11444.01,0.168944
11469.33,0.169401
11494.76,0.169781
11520.3,0.169984
11545.96,0.170175
11571.73,0.170156
11597.62,0.170158
11623.62,0.170544
11649.74,0.171301
11675.98,0.172285
11702.34,0.173553
11728.81,0.174811
11755.41,0.176092
11782.13,0.177523
11808.96,0.179066
11835.92,0.180531
11863.01,0.182287
11890.22,0.184206
11917.55,0.185566
11945.01,0.186763
11972.6,0.187829
12000.31,0.188226
12028.16,0.188297
12056.13,0.187859
12084.23,0.186459
12112.46,0.184312
12140.83,0.181697
12169.33,0.177426
12197.96,0.171644
12226.73,0.164698
12255.64,0.157
12284.68,0.148768
12313.86,0.1403
12343.18,0.131818
12372.64,0.123706
12402.24,0.115682
12431.98,0.108089
12461.86,0.101228
12491.89,0.095287
12522.06,0.090301
12552.38,0.086139
12582.85,0.082448
12613.47,0.079418
12644.23,0.077117
12675.15,0.07542
12706.21,0.074102
12737.43,0.073058
12768.8,0.07216
12800.33,0.071346
12832.02,0.070433
12863.86,0.069752
12895.86,0.069224
12928.02,0.068916
12960.34,0.068498
12992.82,0.068133
13025.46,0.06795
13058.27,0.067879
13091.25,0.067972
13124.39,0.068044
13157.7,0.068185
13191.18,0.068932
13224.83,0.069261
13258.66,0.068977
13292.65,0.068937
13326.83,0.069321
13361.17,0.06953
13395.7,0.069521
13430.4,0.069424
13465.29,0.069432
13500.35,0.069544
13535.6,0.069701
13571.03,0.06961
13606.65,0.069507
13642.46,0.069613
13678.46,0.069704
13714.64,0.069371
13751.02,0.069335
13787.59,0.06948
13824.36,0.069527
13861.32,0.069805
13898.48,0.070068
13935.85,0.070272
13973.41,0.070813
14011.17,0.071088
14049.15,0.071474
14087.32,0.071927
14125.71,0.072525
14164.3,0.073011
14203.11,0.073311
14242.13,0.073041
14281.36,0.073034
14320.81,0.073121
14360.48,0.073087
14400.38,0.072708
14440.49,0.072143
14480.82,0.071496
14521.39,0.070924
14562.18,0.070158
14603.2,0.06959
14644.45,0.069141
14685.93,0.068911
14727.66,0.068804
14769.62,0.06849
14811.81,0.06783
14854.25,0.067485
14896.94,0.066805
14939.87,0.066453
14983.05,0.066108
15026.48,0.065718
15070.16,0.065853
15114.1,0.066349
15158.29,0.066868
15202.74,0.068332
15247.46,0.070225
15292.43,0.072516
15337.68,0.075029
15383.19,0.07709
15428.97,0.07855
15475.03,0.079894
15521.36,0.08048
15567.97,0.080544
15614.86,0.079961
15662.04,0.079338
15709.5,0.078937
15757.25,0.078519
15805.29,0.078702
15853.62,0.079526
15902.25,0.081044
15951.18,0.083383
16000.42,0.085949
16049.95,0.088572
16099.8,0.091234
16149.95,0.093683
16200.42,0.095802
16251.21,0.097407
16302.31,0.098319
16353.74,0.098966
16405.49,0.099154
16457.57,0.098927
16509.98,0.09841
16562.73,0.097822
16615.82,0.097736
16669.24,0.097912
16723.02,0.097718
16777.13,0.097629
16831.61,0.098109
16886.43,0.098724
16941.62,0.098972
16997.16,0.098974
17053.07,0.098955
17109.36,0.099118
17166.01,0.09873
17223.04,0.098305
17280.45,0.098198
17338.24,0.097493
17396.43,0.09684
17455.0,0.096524
17513.97,0.096157
17573.34,0.096095
17633.11,0.095466
17693.29,0.095343
17753.89,0.095085
17814.9,0.094737
17876.33,0.094323
17938.18,0.093982
18000.47,0.093928
18063.19,0.0941
18126.35,0.094315
18189.95,0.095492
18254.0,0.097487
18318.5,0.099789
18383.46,0.101524
18448.88,0.102988
18514.77,0.103835
18581.13,0.103677
18647.97,0.103421
18715.29,0.103227
18783.1,0.10131
18851.4,0.101041
18920.2,0.102024
18989.51,0.102458
19059.32,0.101892
19129.65,0.101594
19200.5,0.102109
19271.88,0.102657
19343.79,0.102175
19416.23,0.100661
19489.23,0.098865
19562.77,0.097358
19636.88,0.096254
19711.54,0.095125
19786.77,0.09402
19862.59,0.093243
19938.98,0.091929
20015.96,0.090321
20093.54,0.08945
20171.73,0.088447
20250.53,0.087296
20329.94,0.087037
20409.98,0.08625
20490.65,0.084976
20571.96,0.084312
20653.92,0.08546
20736.54,0.08607
20819.82,0.085749
20903.77,0.086976
20988.4,0.08842
21073.72,0.088965
21159.73,0.08938
21246.46,0.089513
21333.89,0.088541
21422.04,0.08603
21510.93,0.084902
21600.56,0.084245
21690.94,0.083274
21782.08,0.082183
21873.99,0.082121
21966.67,0.082114
22060.15,0.084365
22154.42,0.087709
22249.51,0.090332
22345.41,0.093226
22442.14,0.097144
22539.72,0.100142
22638.14,0.102971
22737.43,0.106711
22837.6,0.112488
22938.65,0.116122
23040.6,0.11867
23143.46,0.121032
23247.24,0.122428
23351.96,0.122489
23457.62,0.121866
23564.25,0.119621
23671.85,0.118545
23780.44,0.115637
23890.02,0.113446
24000.63,0.113762
24112.26,0.116851
24224.93,0.117744
24338.66,0.11534
24453.47,0.114127
24569.36,0.114146
24686.36,0.115989
24804.47,0.118933
24923.72,0.119625
25044.13,0.11942
25165.7,0.121706
25288.46,0.123017
25412.43,0.121596
25537.61,0.122305
25664.03,0.126305
25791.71,0.13095
25920.67,0.131334
