Database of Origin,University of Winnipeg Spectrophotometer Facility
Sample Description,Carbonaceous chondrites - RELAB archive 4. CR chondrites
Date Added,2018-07-23 23:44:51.521655

Data ID,RLA_MET_35_12       
Sample ID,MET00426
Mineral Name,CR Chondrite
Grain Size,<75 um
Viewing Geometry,30/0
Material Class,CR3

Wavelength
305.0,0.03182
310.0,0.02959
315.0,0.02951
320.0,0.03018
325.0,0.03075
330.0,0.03149
335.0,0.03226
340.0,0.03236
345.0,0.03323
350.0,0.03364
355.0,0.03423
360.0,0.03474
365.0,0.0355
370.0,0.0363
375.0,0.03741
380.0,0.03853
385.0,0.03959
390.0,0.04096
395.0,0.0425
400.0,0.04382
405.0,0.04489
410.0,0.0464
415.0,0.04778
420.0,0.04929
425.0,0.05109
430.0,0.05297
435.0,0.05492
440.0,0.05684
445.0,0.05857
450.0,0.06007
455.0,0.06136
460.0,0.06245
465.0,0.06344
470.0,0.06446
475.0,0.06547
480.0,0.06661
485.0,0.06792
490.0,0.06949
495.0,0.07125
500.0,0.07319
505.0,0.0752
510.0,0.07764
515.0,0.08008
520.0,0.08262
525.0,0.08528
530.0,0.08798
535.0,0.09061
540.0,0.09308
545.0,0.09559
550.0,0.09793
555.0,0.10014
560.0,0.10226
565.0,0.10426
570.0,0.10608
575.0,0.1078
580.0,0.10926
585.0,0.11074
590.0,0.11197
595.0,0.11315
600.0,0.11426
605.0,0.11546
610.0,0.11632
615.0,0.11711
620.0,0.11787
625.0,0.11865
630.0,0.11926
635.0,0.11982
640.0,0.12027
645.0,0.12079
650.0,0.12119
655.0,0.12162
660.0,0.12209
665.0,0.1224
670.0,0.12284
675.0,0.12317
680.0,0.12353
685.0,0.12385
690.0,0.12411
695.0,0.12439
700.0,0.12479
705.0,0.12498
710.0,0.12531
715.0,0.1255
720.0,0.12576
725.0,0.12561
730.0,0.12582
735.0,0.12595
740.0,0.12623
745.0,0.12632
750.0,0.12638
755.0,0.12656
760.0,0.12656
765.0,0.12661
770.0,0.12662
775.0,0.1268
780.0,0.12679
785.0,0.12682
790.0,0.12688
795.0,0.12688
800.0,0.12723
805.0,0.12703
810.0,0.127
815.0,0.12691
820.0,0.12682
825.0,0.12669
830.0,0.12665
835.0,0.12665
840.0,0.12648
845.0,0.1264
850.0,0.12632
855.0,0.12614
860.0,0.12588
865.0,0.12574
870.0,0.1256
875.0,0.12558
880.0,0.12552
885.0,0.12552
890.0,0.1255
895.0,0.12547
900.0,0.12533
905.0,0.1253
910.0,0.12529
915.0,0.12527
920.0,0.12532
925.0,0.12549
930.0,0.12555
935.0,0.12563
940.0,0.12586
945.0,0.12599
950.0,0.12613
955.0,0.12636
960.0,0.12652
965.0,0.12666
970.0,0.12687
975.0,0.12704
980.0,0.12719
985.0,0.1274
990.0,0.12753
995.0,0.12769
1000.0,0.12779
1005.0,0.12803
1010.0,0.12833
1015.0,0.12854
1020.0,0.12868
1025.0,0.12883
1030.0,0.12893
1035.0,0.12897
1040.0,0.12921
1045.0,0.12947
1050.0,0.12966
1055.0,0.1298
1060.0,0.13002
1065.0,0.13007
1070.0,0.13011
1075.0,0.13034
1080.0,0.13063
1085.0,0.13076
1090.0,0.13099
1095.0,0.13122
1100.0,0.13141
1105.0,0.13149
1110.0,0.13174
1115.0,0.13191
1120.0,0.13214
1125.0,0.13221
1130.0,0.13243
1135.0,0.13254
1140.0,0.13271
1145.0,0.13289
1150.0,0.13307
1155.0,0.13328
1160.0,0.13349
1165.0,0.13362
1170.0,0.1338
1175.0,0.13395
1180.0,0.13402
1185.0,0.1342
1190.0,0.13433
1195.0,0.1344
1200.0,0.13463
1205.0,0.13479
1210.0,0.13484
1215.0,0.13494
1220.0,0.13502
1225.0,0.13509
1230.0,0.13508
1235.0,0.13513
1240.0,0.13518
1245.0,0.13517
1250.0,0.13522
1255.0,0.13534
1260.0,0.13553
1265.0,0.13572
1270.0,0.13585
1275.0,0.13577
1280.0,0.13577
1285.0,0.13576
1290.0,0.13584
1295.0,0.136
1300.0,0.13618
1305.0,0.1363
1310.0,0.13642
1315.0,0.13649
1320.0,0.13657
1325.0,0.13676
1330.0,0.13691
1335.0,0.13694
1340.0,0.13694
1345.0,0.1369
1350.0,0.13687
1355.0,0.13694
1360.0,0.1371
1365.0,0.13734
1370.0,0.13754
1375.0,0.13771
1380.0,0.13779
1385.0,0.13788
1390.0,0.13787
1395.0,0.13783
1400.0,0.13778
1405.0,0.1378
1410.0,0.13782
1415.0,0.13788
1420.0,0.13801
1425.0,0.13812
1430.0,0.13826
1435.0,0.13833
1440.0,0.1384
1445.0,0.13849
1450.0,0.13856
1455.0,0.13865
1460.0,0.13882
1465.0,0.13887
1470.0,0.13889
1475.0,0.13897
1480.0,0.13903
1485.0,0.13902
1490.0,0.13916
1495.0,0.13923
1500.0,0.13929
1505.0,0.13939
1510.0,0.13956
1515.0,0.13964
1520.0,0.13974
1525.0,0.13973
1530.0,0.1398
1535.0,0.13991
1540.0,0.13993
1545.0,0.1399
1550.0,0.14002
1555.0,0.14007
1560.0,0.14013
1565.0,0.1401
1570.0,0.14029
1575.0,0.14029
1580.0,0.14028
1585.0,0.14019
1590.0,0.14026
1595.0,0.14032
1600.0,0.1404
1605.0,0.14045
1610.0,0.14054
1615.0,0.14068
1620.0,0.1408
1625.0,0.1408
1630.0,0.1408
1635.0,0.14081
1640.0,0.14088
1645.0,0.14082
1650.0,0.14089
1655.0,0.14104
1660.0,0.14125
1665.0,0.14142
1670.0,0.14166
1675.0,0.14188
1680.0,0.14187
1685.0,0.14189
1690.0,0.14193
1695.0,0.14198
1700.0,0.14216
1705.0,0.14219
1710.0,0.14223
1715.0,0.14222
1720.0,0.14233
1725.0,0.14244
1730.0,0.14249
1735.0,0.14254
1740.0,0.14261
1745.0,0.14258
1750.0,0.14264
1755.0,0.14265
1760.0,0.14265
1765.0,0.14275
1770.0,0.14276
1775.0,0.1428
1780.0,0.14296
1785.0,0.14312
1790.0,0.14302
1795.0,0.14303
1800.0,0.143
1805.0,0.14286
1810.0,0.14274
1815.0,0.14286
1820.0,0.14279
1825.0,0.14275
1830.0,0.14278
1835.0,0.14306
1840.0,0.14305
1845.0,0.14331
1850.0,0.14333
1855.0,0.14345
1860.0,0.14343
1865.0,0.14352
1870.0,0.14355
1875.0,0.14371
1880.0,0.14367
1885.0,0.14364
1890.0,0.14343
1895.0,0.14331
1900.0,0.14311
1905.0,0.14311
1910.0,0.1431
1915.0,0.14321
1920.0,0.14336
1925.0,0.14315
1930.0,0.14307
1935.0,0.14322
1940.0,0.14308
1945.0,0.14291
1950.0,0.14301
1955.0,0.14296
1960.0,0.14295
1965.0,0.14291
1970.0,0.14309
1975.0,0.14306
1980.0,0.14332
1985.0,0.14328
1990.0,0.14338
1995.0,0.14353
2000.0,0.14362
2005.0,0.1436
2010.0,0.14375
2015.0,0.14377
2020.0,0.14383
2025.0,0.14387
2030.0,0.1439
2035.0,0.14397
2040.0,0.1441
2045.0,0.1442
2050.0,0.14428
2055.0,0.14439
2060.0,0.14444
2065.0,0.1445
2070.0,0.14439
2075.0,0.14436
2080.0,0.14441
2085.0,0.14438
2090.0,0.14448
2095.0,0.14468
2100.0,0.14482
2105.0,0.14486
2110.0,0.14502
2115.0,0.14495
2120.0,0.14487
2125.0,0.14497
2130.0,0.14508
2135.0,0.14511
2140.0,0.1452
2145.0,0.1454
2150.0,0.14547
2155.0,0.14554
2160.0,0.14558
2165.0,0.1457
2170.0,0.14566
2175.0,0.14566
2180.0,0.1457
2185.0,0.14586
2190.0,0.14584
2195.0,0.14588
2200.0,0.14599
2205.0,0.14608
2210.0,0.14611
2215.0,0.14625
2220.0,0.14643
2225.0,0.14648
2230.0,0.14651
2235.0,0.14657
2240.0,0.14661
2245.0,0.14659
2250.0,0.1466
2255.0,0.14661
2260.0,0.14656
2265.0,0.1465
2270.0,0.1465
2275.0,0.14656
2280.0,0.14663
2285.0,0.14675
2290.0,0.14684
2295.0,0.14688
2300.0,0.14683
2305.0,0.14683
2310.0,0.1468
2315.0,0.14677
2320.0,0.1468
2325.0,0.1468
2330.0,0.14681
2335.0,0.14684
2340.0,0.14684
2345.0,0.14679
2350.0,0.14684
2355.0,0.14674
2360.0,0.14665
2365.0,0.14662
2370.0,0.14654
2375.0,0.14651
2380.0,0.14657
2385.0,0.14663
2390.0,0.14669
2395.0,0.14669
2400.0,0.14668
2405.0,0.14669
2410.0,0.14668
2415.0,0.14669
2420.0,0.14677
2425.0,0.14672
2430.0,0.14673
2435.0,0.14672
2440.0,0.14657
2445.0,0.14651
2450.0,0.1465
2455.0,0.14641
2460.0,0.1464
2465.0,0.14636
2470.0,0.14635
2475.0,0.14632
2480.0,0.1464
2485.0,0.14619
2490.0,0.14618
2495.0,0.14589
2500.0,0.14586
2505.0,0.14539
2510.0,0.14541
2515.0,0.14507
2520.0,0.14491
2525.0,0.1446
2530.0,0.14488
2535.0,0.14431
2540.0,0.14451
2545.0,0.14451
2550.0,0.14435
2555.0,0.14446
2560.0,0.14456
2565.0,0.14471
2570.0,0.14497
2575.0,0.14482
2580.0,0.14514
2585.0,0.14542
2590.0,0.14623
2595.0,0.14725
2600.0,0.14843
