Database of Origin,University of Winnipeg Spectrophotometer Facility
Sample Description,Carbonaceous chondrites - RELAB archive 6. CV chondrites
Other Information,heated to 600C
Date Added,2018-07-23 23:45:03.146058

Data ID,RLA_MET_37_18       
Sample ID,Allende
Mineral Name,Allende
Grain Size,<63 um
Viewing Geometry,30/0
Material Class,CV3.2-3.3/ OxA

Wavelength
305.0,0.039098
310.0,0.039973
315.0,0.041656
320.0,0.042764
325.0,0.045252
330.0,0.047555
335.0,0.048368
340.0,0.050854
345.0,0.052476
350.0,0.054664
355.0,0.057007
360.0,0.058026
365.0,0.059799
370.0,0.061225
375.0,0.062666
380.0,0.063754
385.0,0.064801
390.0,0.065938
395.0,0.06667
400.0,0.068174
405.0,0.068673
410.0,0.069325
415.0,0.070326
420.0,0.071038
425.0,0.071652
430.0,0.072503
435.0,0.072976
440.0,0.073513
445.0,0.074066
450.0,0.074465
455.0,0.074973
460.0,0.075391
465.0,0.075819
470.0,0.076867
475.0,0.077065
480.0,0.077339
485.0,0.077841
490.0,0.078084
495.0,0.078492
500.0,0.078952
505.0,0.079658
510.0,0.079877
515.0,0.080194
520.0,0.080446
525.0,0.080775
530.0,0.08128
535.0,0.081619
540.0,0.082092
545.0,0.082363
550.0,0.082503
555.0,0.082862
560.0,0.083128
565.0,0.083247
570.0,0.083584
575.0,0.083568
580.0,0.083843
585.0,0.0841
590.0,0.084211
595.0,0.084374
600.0,0.084576
605.0,0.084828
610.0,0.085113
615.0,0.085406
620.0,0.085578
625.0,0.085952
630.0,0.086118
635.0,0.086467
640.0,0.086635
645.0,0.086802
650.0,0.086807
655.0,0.087049
660.0,0.087178
665.0,0.087266
670.0,0.087287
675.0,0.087418
680.0,0.087295
685.0,0.087229
690.0,0.087462
695.0,0.08752
700.0,0.08777
705.0,0.087617
710.0,0.087826
715.0,0.088092
720.0,0.087814
725.0,0.08789
730.0,0.088111
735.0,0.088195
740.0,0.088279
745.0,0.088517
750.0,0.088435
755.0,0.088596
760.0,0.088518
765.0,0.08833
770.0,0.088207
775.0,0.088549
780.0,0.08848
785.0,0.08843
790.0,0.088591
795.0,0.088603
800.0,0.088921
805.0,0.088548
810.0,0.088693
815.0,0.088451
820.0,0.088783
825.0,0.08883
830.0,0.088468
835.0,0.088705
840.0,0.088225
845.0,0.08872
850.0,0.088742
855.0,0.089424
860.0,0.089196
865.0,0.089123
870.0,0.089715
875.0,0.089832
880.0,0.089575
885.0,0.088872
890.0,0.089976
895.0,0.088793
900.0,0.089684
905.0,0.089094
910.0,0.089384
915.0,0.089329
920.0,0.089595
925.0,0.089356
930.0,0.089268
935.0,0.089681
940.0,0.089663
945.0,0.089461
950.0,0.089753
955.0,0.089291
960.0,0.089406
965.0,0.089349
970.0,0.089448
975.0,0.089223
980.0,0.08937
985.0,0.089379
990.0,0.089375
995.0,0.089276
1000.0,0.08901
1005.0,0.08914
1010.0,0.088934
1015.0,0.088954
1020.0,0.089168
1025.0,0.088869
1030.0,0.089084
1035.0,0.088843
1040.0,0.08882
1045.0,0.088825
1050.0,0.088961
1055.0,0.088803
1060.0,0.089143
1065.0,0.08908
1070.0,0.089286
1075.0,0.089197
1080.0,0.089176
1085.0,0.089471
1090.0,0.089497
1095.0,0.089435
1100.0,0.089728
1105.0,0.089995
1110.0,0.089865
1115.0,0.09016
1120.0,0.090501
1125.0,0.09086
1130.0,0.0906
1135.0,0.090819
1140.0,0.091128
1145.0,0.091139
1150.0,0.091387
1155.0,0.091622
1160.0,0.091615
1165.0,0.091772
1170.0,0.092005
1175.0,0.092037
1180.0,0.092166
1185.0,0.092176
1190.0,0.092355
1195.0,0.092487
1200.0,0.09253
1205.0,0.092528
1210.0,0.092455
1215.0,0.092639
1220.0,0.092712
1225.0,0.092734
1230.0,0.092913
1235.0,0.092918
1240.0,0.092917
1245.0,0.093368
1250.0,0.093203
1255.0,0.093367
1260.0,0.09343
1265.0,0.09376
1270.0,0.093521
1275.0,0.093754
1280.0,0.09363
1285.0,0.094134
1290.0,0.09394
1295.0,0.094198
1300.0,0.0942
1305.0,0.094414
1310.0,0.094327
1315.0,0.094557
1320.0,0.094596
1325.0,0.094809
1330.0,0.094892
1335.0,0.094846
1340.0,0.095192
1345.0,0.0952
1350.0,0.095626
1355.0,0.095676
1360.0,0.09616
1365.0,0.095778
1370.0,0.096352
1375.0,0.096472
1380.0,0.097012
1385.0,0.09669
1390.0,0.096923
1395.0,0.096823
1400.0,0.096952
1405.0,0.097183
1410.0,0.097169
1415.0,0.097726
1420.0,0.097648
1425.0,0.097897
1430.0,0.097816
1435.0,0.097891
1440.0,0.098023
1445.0,0.098241
1450.0,0.098288
1455.0,0.098407
1460.0,0.098353
1465.0,0.098537
1470.0,0.098513
1475.0,0.098686
1480.0,0.098882
1485.0,0.09897
1490.0,0.098838
1495.0,0.099056
1500.0,0.099099
1505.0,0.099073
1510.0,0.099067
1515.0,0.099013
1520.0,0.099394
1525.0,0.09954
1530.0,0.099514
1535.0,0.099882
1540.0,0.099688
1545.0,0.100044
1550.0,0.099961
1555.0,0.100211
1560.0,0.100212
1565.0,0.10026
1570.0,0.100211
1575.0,0.100259
1580.0,0.100332
1585.0,0.100417
1590.0,0.100335
1595.0,0.100111
1600.0,0.100508
1605.0,0.100524
1610.0,0.100213
1615.0,0.10041
1620.0,0.10064
1625.0,0.100588
1630.0,0.100255
1635.0,0.100729
1640.0,0.100686
1645.0,0.100929
1650.0,0.100369
1655.0,0.101088
1660.0,0.100526
1665.0,0.100494
1670.0,0.100693
1675.0,0.100378
1680.0,0.100569
1685.0,0.100288
1690.0,0.100916
1695.0,0.100842
1700.0,0.100911
1705.0,0.100874
1710.0,0.100805
1715.0,0.100896
1720.0,0.100553
1725.0,0.100539
1730.0,0.100555
1735.0,0.100709
1740.0,0.100549
1745.0,0.10076
1750.0,0.100484
1755.0,0.100368
1760.0,0.100253
1765.0,0.100427
1770.0,0.100386
1775.0,0.100325
1780.0,0.100433
1785.0,0.100375
1790.0,0.100236
1795.0,0.100444
1800.0,0.099852
1805.0,0.099686
1810.0,0.099674
1815.0,0.09969
1820.0,0.099613
1825.0,0.099465
1830.0,0.099449
1835.0,0.099667
1840.0,0.100038
1845.0,0.099774
1850.0,0.099812
1855.0,0.099676
1860.0,0.099925
1865.0,0.100192
1870.0,0.098921
1875.0,0.099386
1880.0,0.099923
1885.0,0.100121
1890.0,0.09994
1895.0,0.100281
1900.0,0.099989
1905.0,0.099891
1910.0,0.100006
1915.0,0.100206
1920.0,0.099907
1925.0,0.100117
1930.0,0.100019
1935.0,0.100362
1940.0,0.100106
1945.0,0.100298
1950.0,0.100221
1955.0,0.10016
1960.0,0.100415
1965.0,0.100601
1970.0,0.100191
1975.0,0.100384
1980.0,0.100524
1985.0,0.10048
1990.0,0.100481
1995.0,0.100471
2000.0,0.100653
2005.0,0.100667
2010.0,0.100475
2015.0,0.100648
2020.0,0.100459
2025.0,0.100707
2030.0,0.100597
2035.0,0.100718
2040.0,0.100607
2045.0,0.100795
2050.0,0.10077
2055.0,0.100549
2060.0,0.100892
2065.0,0.100688
2070.0,0.100947
2075.0,0.101031
2080.0,0.100792
2085.0,0.10072
2090.0,0.100902
2095.0,0.100826
2100.0,0.101039
2105.0,0.100992
2110.0,0.10103
2115.0,0.100964
2120.0,0.101116
2125.0,0.101105
2130.0,0.101049
2135.0,0.101169
2140.0,0.100913
2145.0,0.100662
2150.0,0.100715
2155.0,0.100774
2160.0,0.100871
2165.0,0.100587
2170.0,0.100892
2175.0,0.100879
2180.0,0.100745
2185.0,0.100938
2190.0,0.101194
2195.0,0.101241
2200.0,0.101277
2205.0,0.101262
2210.0,0.101371
2215.0,0.101313
2220.0,0.101593
2225.0,0.101761
2230.0,0.101385
2235.0,0.101663
2240.0,0.101809
2245.0,0.101864
2250.0,0.101857
2255.0,0.101866
2260.0,0.102174
2265.0,0.102117
2270.0,0.102482
2275.0,0.102272
2280.0,0.102551
2285.0,0.102674
2290.0,0.102643
2295.0,0.102677
2300.0,0.102575
2305.0,0.102226
2310.0,0.102119
2315.0,0.102257
2320.0,0.102101
2325.0,0.102198
2330.0,0.102261
2335.0,0.102478
2340.0,0.102638
2345.0,0.102691
2350.0,0.102533
2355.0,0.10276
2360.0,0.102698
2365.0,0.102617
2370.0,0.102742
2375.0,0.102589
2380.0,0.102521
2385.0,0.102712
2390.0,0.102792
2395.0,0.102921
2400.0,0.103018
2405.0,0.102741
2410.0,0.10295
2415.0,0.102847
2420.0,0.10299
2425.0,0.103076
2430.0,0.10334
2435.0,0.10319
2440.0,0.103385
2445.0,0.103214
2450.0,0.103156
2455.0,0.103338
2460.0,0.10346
2465.0,0.103459
2470.0,0.103274
2475.0,0.103028
2480.0,0.102974
2485.0,0.103122
2490.0,0.103264
2495.0,0.103348
2500.0,0.10328
2505.0,0.103426
2510.0,0.103809
2515.0,0.10334
2520.0,0.103565
2525.0,0.103719
2530.0,0.103225
2535.0,0.103576
2540.0,0.103346
2545.0,0.102754
2550.0,0.102926
2555.0,0.104771
2560.0,0.102138
2565.0,0.102601
2570.0,0.101525
2575.0,0.102144
2580.0,0.103066
2585.0,0.101386
2590.0,0.101206
2595.0,0.100903
2600.0,0.102765
