Database of Origin,University of Winnipeg Spectrophotometer Facility
Sample Description,RELAB + Nicolet spectral data. See Master Chromites in HOSERLAB sample database for additional info
Date Added,2016-11-30 00:50:18.091356

Data ID,RLA_CHR_05          
Sample ID,CHR105
Mineral Name,Chromite
Grain Size,<45
Viewing Geometry,"30/0,30"
Resolution,1.2-129
Formula,FeCr2O4
Material Class,Oxide

Wavelength
305.0,0.049524
310.0,0.048467
315.0,0.048504
320.0,0.049417
325.0,0.051269
330.0,0.050385
335.0,0.050677
340.0,0.051081
345.0,0.051364
350.0,0.051042
355.0,0.051191
360.0,0.05174
365.0,0.05178
370.0,0.052182
375.0,0.052439
380.0,0.052725
385.0,0.053264
390.0,0.053693
395.0,0.05432
400.0,0.054477
405.0,0.054513
410.0,0.056091
415.0,0.05659
420.0,0.057309
425.0,0.058888
430.0,0.060189
435.0,0.061436
440.0,0.062375
445.0,0.063403
450.0,0.064068
455.0,0.064866
460.0,0.065682
465.0,0.066401
470.0,0.067276
475.0,0.067879
480.0,0.068762
485.0,0.069997
490.0,0.070928
495.0,0.071862
500.0,0.073038
505.0,0.074356
510.0,0.075619
515.0,0.077025
520.0,0.078619
525.0,0.080544
530.0,0.082273
535.0,0.083469
540.0,0.084399
545.0,0.085519
550.0,0.086339
555.0,0.087043
560.0,0.087798
565.0,0.088541
570.0,0.089746
575.0,0.090757
580.0,0.091889
585.0,0.093198
590.0,0.094737
595.0,0.096535
600.0,0.098472
605.0,0.100803
610.0,0.103336
615.0,0.106024
620.0,0.109006
625.0,0.111745
630.0,0.114327
635.0,0.11662
640.0,0.118399
645.0,0.119921
650.0,0.120605
655.0,0.121039
660.0,0.12194
665.0,0.122683
670.0,0.123662
675.0,0.124347
680.0,0.124962
685.0,0.125627
690.0,0.126114
695.0,0.126556
700.0,0.127295
705.0,0.127997
710.0,0.128986
715.0,0.130062
720.0,0.130343
725.0,0.130835
730.0,0.131856
735.0,0.132938
740.0,0.134022
745.0,0.134776
750.0,0.136271
755.0,0.137552
760.0,0.139083
765.0,0.140788
770.0,0.142302
775.0,0.1437
780.0,0.145341
785.0,0.147395
790.0,0.14923
795.0,0.150701
800.0,0.152287
805.0,0.154469
810.0,0.156926
815.0,0.158307
820.0,0.160623
825.0,0.162441
830.0,0.164791
835.0,0.166846
840.0,0.168427
845.0,0.171915
850.0,0.173523
855.0,0.17568
860.0,0.178429
865.0,0.18048
870.0,0.182513
875.0,0.185177
880.0,0.187575
885.0,0.189927
890.0,0.192228
895.0,0.195083
900.0,0.19741
905.0,0.199638
910.0,0.201868
915.0,0.203842
920.0,0.20641
925.0,0.208694
930.0,0.21151
935.0,0.213571
940.0,0.216173
945.0,0.218758
950.0,0.221468
955.0,0.224046
960.0,0.227044
965.0,0.229473
970.0,0.232099
975.0,0.234988
980.0,0.237527
985.0,0.240076
990.0,0.242885
995.0,0.246002
1000.0,0.248741
1005.0,0.251781
1010.0,0.254508
1015.0,0.257057
1020.0,0.260235
1025.0,0.262802
1030.0,0.265934
1035.0,0.268348
1040.0,0.270846
1045.0,0.273725
1050.0,0.276213
1055.0,0.278421
1060.0,0.281427
1065.0,0.283289
1070.0,0.285839
1075.0,0.287888
1080.0,0.290313
1085.0,0.292388
1090.0,0.29417
1095.0,0.295652
1100.0,0.297506
1105.0,0.299089
1110.0,0.30053
1115.0,0.302236
1120.0,0.303907
1125.0,0.305511
1130.0,0.306596
1135.0,0.307764
1140.0,0.308887
1145.0,0.309945
1150.0,0.311478
1155.0,0.311852
1160.0,0.312646
1165.0,0.313523
1170.0,0.314505
1175.0,0.315516
1180.0,0.316792
1185.0,0.317414
1190.0,0.318363
1195.0,0.318576
1200.0,0.319488
1205.0,0.320328
1210.0,0.321073
1215.0,0.322125
1220.0,0.322419
1225.0,0.32312
1230.0,0.324039
1235.0,0.324711
1240.0,0.32535
1245.0,0.326513
1250.0,0.32722
1255.0,0.3276
1260.0,0.328183
1265.0,0.32864
1270.0,0.329351
1275.0,0.329648
1280.0,0.330304
1285.0,0.330945
1290.0,0.331763
1295.0,0.332532
1300.0,0.333117
1305.0,0.334102
1310.0,0.334512
1315.0,0.335324
1320.0,0.335703
1325.0,0.336555
1330.0,0.336875
1335.0,0.337408
1340.0,0.337911
1345.0,0.338224
1350.0,0.338277
1355.0,0.338262
1360.0,0.338976
1365.0,0.337632
1370.0,0.338061
1375.0,0.33738
1380.0,0.337914
1385.0,0.335636
1390.0,0.334441
1395.0,0.334217
1400.0,0.334146
1405.0,0.333182
1410.0,0.331777
1415.0,0.330729
1420.0,0.329526
1425.0,0.327555
1430.0,0.326074
1435.0,0.323962
1440.0,0.322224
1445.0,0.320042
1450.0,0.317301
1455.0,0.314121
1460.0,0.311706
1465.0,0.309298
1470.0,0.305896
1475.0,0.302479
1480.0,0.299311
1485.0,0.295654
1490.0,0.292175
1495.0,0.28844
1500.0,0.284841
1505.0,0.281257
1510.0,0.2773
1515.0,0.273732
1520.0,0.269401
1525.0,0.265349
1530.0,0.261597
1535.0,0.257362
1540.0,0.252872
1545.0,0.248524
1550.0,0.24452
1555.0,0.240842
1560.0,0.236206
1565.0,0.232515
1570.0,0.228473
1575.0,0.224381
1580.0,0.220533
1585.0,0.216434
1590.0,0.212722
1595.0,0.208987
1600.0,0.205043
1605.0,0.201554
1610.0,0.197571
1615.0,0.193893
1620.0,0.190042
1625.0,0.186803
1630.0,0.183056
1635.0,0.179397
1640.0,0.176502
1645.0,0.17336
1650.0,0.170515
1655.0,0.167266
1660.0,0.164138
1665.0,0.161345
1670.0,0.158346
1675.0,0.1557
1680.0,0.152881
1685.0,0.149934
1690.0,0.147564
1695.0,0.144873
1700.0,0.142937
1705.0,0.139974
1710.0,0.137524
1715.0,0.135178
1720.0,0.132774
1725.0,0.130704
1730.0,0.128228
1735.0,0.126396
1740.0,0.124296
1745.0,0.122289
1750.0,0.120455
1755.0,0.118307
1760.0,0.116789
1765.0,0.114612
1770.0,0.113328
1775.0,0.111225
1780.0,0.10963
1785.0,0.10818
1790.0,0.106861
1795.0,0.105142
1800.0,0.103776
1805.0,0.102218
1810.0,0.100981
1815.0,0.099362
1820.0,0.097891
1825.0,0.096625
1830.0,0.095821
1835.0,0.094667
1840.0,0.09305
1845.0,0.091781
1850.0,0.090774
1855.0,0.089755
1860.0,0.088789
1865.0,0.08812
1870.0,0.087392
1875.0,0.085974
1880.0,0.084995
1885.0,0.084016
1890.0,0.083305
1895.0,0.0823
1900.0,0.08187
1905.0,0.080841
1910.0,0.080126
1915.0,0.079691
1920.0,0.078851
1925.0,0.07812
1930.0,0.077648
1935.0,0.07701
1940.0,0.07664
1945.0,0.075862
1950.0,0.075295
1955.0,0.074803
1960.0,0.074493
1965.0,0.073996
1970.0,0.073564
1975.0,0.073422
1980.0,0.072945
1985.0,0.072788
1990.0,0.072463
1995.0,0.07221
2000.0,0.071712
2005.0,0.071547
2010.0,0.071462
2015.0,0.071101
2020.0,0.070978
2025.0,0.070821
2030.0,0.070579
2035.0,0.070282
2040.0,0.070254
2045.0,0.070112
2050.0,0.069858
2055.0,0.06987
2060.0,0.069686
2065.0,0.069503
2070.0,0.06929
2075.0,0.068979
2080.0,0.068957
2085.0,0.068795
2090.0,0.068745
2095.0,0.068437
2100.0,0.068451
2105.0,0.068479
2110.0,0.068313
2115.0,0.068095
2120.0,0.068003
2125.0,0.0681
2130.0,0.067916
2135.0,0.06792
2140.0,0.067805
2145.0,0.067481
2150.0,0.067641
2155.0,0.067535
2160.0,0.067158
2165.0,0.067315
2170.0,0.067172
2175.0,0.067161
2180.0,0.067084
2185.0,0.067116
2190.0,0.066911
2195.0,0.067051
2200.0,0.066971
2205.0,0.066832
2210.0,0.066869
2215.0,0.066961
2220.0,0.067082
2225.0,0.066969
2230.0,0.0669
2235.0,0.067071
2240.0,0.066855
2245.0,0.067249
2250.0,0.06715
2255.0,0.06731
2260.0,0.067279
2265.0,0.067363
2270.0,0.067428
2275.0,0.067516
2280.0,0.067624
2285.0,0.067867
2290.0,0.067796
2295.0,0.06795
2300.0,0.068329
2305.0,0.068235
2310.0,0.068375
2315.0,0.068577
2320.0,0.068716
2325.0,0.068782
2330.0,0.069459
2335.0,0.069381
2340.0,0.069483
2345.0,0.069776
2350.0,0.069854
2355.0,0.070145
2360.0,0.070319
2365.0,0.070623
2370.0,0.07063
2375.0,0.070943
2380.0,0.071274
2385.0,0.071569
2390.0,0.071785
2395.0,0.072128
2400.0,0.072434
2405.0,0.072616
2410.0,0.073063
2415.0,0.073166
2420.0,0.073408
2425.0,0.073702
2430.0,0.073869
2435.0,0.074107
2440.0,0.074198
2445.0,0.074549
2450.0,0.07516
2455.0,0.075159
2460.0,0.075395
2465.0,0.075723
2470.0,0.075901
2475.0,0.076245
2480.0,0.076385
2485.0,0.076682
2490.0,0.076736
2495.0,0.077094
2500.0,0.077273
2502.0,0.07738
2503.2,0.077062
2504.41,0.077021
2505.62,0.077298
2506.83,0.077591
2508.05,0.078002
2509.26,0.07775
2510.48,0.077137
2511.69,0.076985
2512.91,0.077333
2514.13,0.077594
2515.35,0.077514
2516.57,0.077861
2517.79,0.077965
2519.02,0.078248
2520.24,0.078102
2521.47,0.077955
2522.69,0.07786
2523.92,0.077753
2525.15,0.077648
2526.38,0.077671
2527.61,0.077706
2528.85,0.07798
2530.08,0.078217
2531.32,0.078118
2532.55,0.078058
2533.79,0.078463
2535.03,0.078473
2536.27,0.078443
2537.51,0.078522
2538.75,0.078393
2540.0,0.078438
2541.24,0.078759
2542.49,0.078635
2543.74,0.078488
2544.99,0.07853
2546.24,0.078473
2547.49,0.078652
2548.74,0.078802
2549.99,0.078911
2551.25,0.079153
2552.5,0.079214
2553.76,0.079226
2555.02,0.079205
2556.28,0.079081
2557.54,0.079185
2558.8,0.079333
2560.07,0.079325
2561.33,0.078994
2562.6,0.078849
2563.86,0.079438
2565.13,0.079457
2566.4,0.079349
2567.67,0.079518
2568.95,0.07964
2570.22,0.07985
2571.5,0.080059
2572.77,0.079851
2574.05,0.079456
2575.33,0.079355
2576.61,0.079634
2577.89,0.079508
2579.17,0.079216
2580.46,0.079359
2581.74,0.07966
2583.03,0.07992
2584.31,0.079885
2585.6,0.07975
2586.89,0.079782
2588.19,0.080058
2589.48,0.080276
2590.77,0.080224
2592.07,0.079957
2593.36,0.079956
2594.66,0.080325
2595.96,0.080321
2597.26,0.080263
2598.56,0.080639
2599.87,0.08058
2601.17,0.080505
2602.48,0.080689
2603.78,0.080555
2605.09,0.080613
2606.4,0.080837
2607.71,0.080718
2609.03,0.080536
2610.34,0.080658
2611.66,0.08064
2612.97,0.080681
2614.29,0.080844
2615.61,0.080771
2616.93,0.080732
2618.25,0.081
2619.57,0.081087
2620.9,0.081264
2622.22,0.08102
2623.55,0.080722
2624.88,0.080948
2626.21,0.08093
2627.54,0.080903
2628.87,0.081001
2630.21,0.08095
2631.54,0.080853
2632.88,0.080887
2634.21,0.081096
2635.55,0.081053
2636.89,0.081128
2638.24,0.081278
2639.58,0.081403
2640.92,0.081413
2642.27,0.081477
2643.62,0.081323
2644.97,0.081003
2646.32,0.081006
2647.67,0.081197
2649.02,0.08114
2650.38,0.081267
2651.73,0.081422
2653.09,0.081321
2654.45,0.08125
2655.81,0.081373
2657.17,0.081139
2658.53,0.081258
2659.89,0.081399
2661.26,0.081246
2662.63,0.081397
2664.0,0.081617
2665.36,0.081731
2666.74,0.081688
2668.11,0.0816
2669.48,0.081397
2670.86,0.081174
2672.23,0.08096
2673.61,0.08134
2674.99,0.081551
2676.37,0.081371
2677.76,0.08134
2679.14,0.081262
2680.52,0.081262
2681.91,0.081184
2683.3,0.081047
2684.69,0.081069
2686.08,0.081075
2687.47,0.0809
2688.87,0.080836
2690.26,0.080805
2691.66,0.080801
2693.06,0.080952
2694.46,0.080914
2695.86,0.080639
2697.26,0.080446
2698.66,0.080079
2700.07,0.079869
2701.48,0.079821
2702.89,0.079784
2704.3,0.07948
2705.71,0.079253
2707.12,0.078909
2708.53,0.078042
2709.95,0.076777
2711.37,0.075546
2712.79,0.073916
2714.21,0.072321
2715.63,0.071064
2717.05,0.070561
2718.48,0.0702
2719.9,0.069817
2721.33,0.069407
2722.76,0.069106
2724.19,0.069179
2725.62,0.069518
2727.06,0.069791
2728.49,0.069515
2729.93,0.069489
2731.37,0.069713
2732.81,0.069272
2734.25,0.068977
2735.69,0.068938
2737.14,0.06892
2738.58,0.06885
2740.03,0.068524
2741.48,0.068203
2742.93,0.067924
2744.38,0.067673
2745.83,0.067741
2747.29,0.067416
2748.75,0.066988
2750.2,0.06694
2751.66,0.066682
2753.13,0.066312
2754.59,0.066024
2756.05,0.065502
2757.52,0.065321
2758.99,0.065362
2760.46,0.065543
2761.93,0.065455
2763.4,0.064914
2764.87,0.064745
2766.35,0.064517
2767.82,0.064048
2769.3,0.063647
2770.78,0.063232
2772.26,0.062716
2773.75,0.062212
2775.23,0.062057
2776.72,0.061605
2778.21,0.060888
2779.7,0.060295
2781.19,0.060115
2782.68,0.059747
2784.18,0.059238
2785.67,0.058685
2787.17,0.058415
2788.67,0.058039
2790.17,0.057408
2791.67,0.056882
2793.18,0.056662
2794.68,0.056608
2796.19,0.056533
2797.7,0.056155
2799.21,0.055819
2800.72,0.055479
2802.24,0.055151
2803.75,0.054908
2805.27,0.054855
2806.79,0.05489
2808.31,0.055014
2809.83,0.054977
2811.35,0.05506
2812.88,0.055198
2814.41,0.055013
2815.93,0.054883
2817.46,0.05503
2819.0,0.055083
2820.53,0.055497
2822.07,0.055851
2823.6,0.055845
2825.14,0.055813
2826.68,0.056067
2828.22,0.056346
2829.77,0.056275
2831.31,0.056349
2832.86,0.056639
2834.41,0.056921
2835.96,0.057245
2837.51,0.057634
2839.07,0.057616
2840.62,0.05771
2842.18,0.058176
2843.74,0.058498
2845.3,0.058728
2846.86,0.059168
2848.43,0.059623
2849.99,0.059577
2851.56,0.059494
2853.13,0.059756
2854.7,0.060119
2856.27,0.060211
2857.85,0.060396
2859.42,0.060635
2861.0,0.060834
2862.58,0.061038
2864.16,0.061152
2865.75,0.061304
2867.33,0.06141
2868.92,0.061418
2870.51,0.0618
2872.1,0.061695
2873.69,0.061712
2875.28,0.061802
2876.88,0.061598
2878.48,0.061627
2880.07,0.061762
2881.68,0.062055
2883.28,0.062107
2884.88,0.062018
2886.49,0.062218
2888.1,0.062169
2889.71,0.06205
2891.32,0.061829
2892.93,0.061641
2894.55,0.061557
2896.16,0.061691
2897.78,0.061835
2899.4,0.061852
2901.03,0.061564
2902.65,0.061331
2904.28,0.061262
2905.91,0.061216
2907.54,0.061094
2909.17,0.061224
2910.8,0.061137
2912.44,0.060959
2914.07,0.060759
2915.71,0.06077
2917.35,0.060563
2918.99,0.060364
2920.64,0.060335
2922.29,0.06056
2923.93,0.060455
2925.58,0.060202
2927.24,0.060091
2928.89,0.060288
2930.55,0.060735
2932.2,0.060899
2933.86,0.060805
2935.52,0.060652
2937.19,0.060314
2938.85,0.060433
2940.52,0.060992
2942.19,0.061159
2943.86,0.060936
2945.53,0.061087
2947.21,0.061172
2948.88,0.06137
2950.56,0.061377
2952.24,0.061309
2953.92,0.061329
2955.61,0.061491
2957.29,0.061696
2958.98,0.061809
2960.67,0.06207
2962.36,0.062228
2964.06,0.062163
2965.75,0.062356
2967.45,0.062828
2969.15,0.06326
2970.85,0.063371
2972.55,0.063518
2974.26,0.063441
2975.97,0.063702
2977.68,0.063854
2979.39,0.064002
2981.1,0.064255
2982.82,0.064496
2984.53,0.064803
2986.25,0.065045
2987.97,0.065297
2989.7,0.065661
2991.42,0.065837
2993.15,0.066118
2994.88,0.066417
2996.61,0.066746
2998.34,0.066833
3000.08,0.066911
3001.82,0.067076
3003.55,0.067498
3005.3,0.067743
3007.04,0.068139
3008.78,0.068574
3010.53,0.068748
3012.28,0.068828
3014.03,0.069096
3015.79,0.069349
3017.54,0.069502
3019.3,0.069717
3021.06,0.07013
3022.82,0.070317
3024.58,0.070663
3026.35,0.070933
3028.12,0.071051
3029.89,0.071341
3031.66,0.071677
3033.43,0.071916
3035.21,0.072315
3036.99,0.07252
3038.77,0.072663
3040.55,0.072872
3042.33,0.073135
3044.12,0.073125
3045.91,0.073274
3047.7,0.073612
3049.49,0.073912
3051.29,0.073987
3053.08,0.074436
3054.88,0.074826
3056.68,0.075203
3058.49,0.075469
3060.29,0.075459
3062.1,0.075548
3063.91,0.075781
3065.72,0.075913
3067.54,0.076141
3069.35,0.076263
3071.17,0.076479
3072.99,0.076786
3074.81,0.076945
3076.64,0.077091
3078.47,0.077642
3080.29,0.078074
3082.13,0.078242
3083.96,0.078085
3085.79,0.078176
3087.63,0.078451
3089.47,0.078813
3091.31,0.079096
3093.16,0.079271
3095.01,0.079488
3096.85,0.079706
3098.71,0.079907
3100.56,0.080147
3102.41,0.080238
3104.27,0.080465
3106.13,0.080707
3107.99,0.080926
3109.86,0.081096
3111.73,0.081265
3113.59,0.081606
3115.47,0.081858
3117.34,0.081911
3119.21,0.081994
3121.09,0.082301
3122.97,0.082661
3124.86,0.082798
3126.74,0.083005
3128.63,0.083232
3130.52,0.08345
3132.41,0.083603
3134.3,0.08378
3136.2,0.083983
3138.1,0.084174
3140.0,0.084482
3141.9,0.084866
3143.81,0.084943
3145.71,0.084966
3147.62,0.08519
3149.54,0.085522
3151.45,0.085735
3153.37,0.08594
3155.29,0.086195
3157.21,0.086355
3159.13,0.086608
3161.06,0.086957
3162.99,0.087089
3164.92,0.087199
3166.85,0.087387
3168.79,0.087703
3170.72,0.087952
3172.67,0.088261
3174.61,0.088557
3176.55,0.08863
3178.5,0.088763
3180.45,0.088933
3182.4,0.089138
3184.36,0.08951
3186.32,0.089903
3188.27,0.0903
3190.24,0.09045
3192.2,0.090672
3194.17,0.090942
3196.14,0.091124
3198.11,0.091339
3200.08,0.091518
3202.06,0.091741
3204.04,0.092287
3206.02,0.092546
3208.0,0.092664
3209.99,0.092871
3211.98,0.093188
3213.97,0.093374
3215.96,0.093686
3217.96,0.094032
3219.96,0.094255
3221.96,0.094258
3223.96,0.094486
3225.97,0.094867
3227.98,0.09507
3229.99,0.095226
3232.0,0.095594
3234.02,0.095976
3236.04,0.096228
3238.06,0.096358
3240.08,0.096592
3242.11,0.096929
3244.14,0.097382
3246.17,0.097707
3248.2,0.097922
3250.24,0.098237
3252.28,0.098549
3254.32,0.098621
3256.37,0.098845
3258.41,0.099085
3260.46,0.099352
3262.51,0.09966
3264.57,0.100114
3266.63,0.100422
3268.69,0.100614
3270.75,0.100726
3272.81,0.101068
3274.88,0.101482
3276.95,0.101882
3279.02,0.102224
3281.1,0.102497
3283.18,0.102606
3285.26,0.102866
3287.34,0.10324
3289.43,0.103533
3291.51,0.103791
3293.61,0.104027
3295.7,0.104333
3297.8,0.104726
3299.9,0.105018
3302.0,0.105211
3304.1,0.105422
3306.21,0.105905
3308.32,0.106265
3310.43,0.106517
3312.55,0.106765
3314.66,0.107109
3316.79,0.107405
3318.91,0.107764
3321.03,0.108119
3323.16,0.108403
3325.29,0.108746
3327.43,0.108888
3329.57,0.109029
3331.71,0.109481
3333.85,0.109785
3335.99,0.110169
3338.14,0.110621
3340.29,0.110966
3342.45,0.111298
3344.6,0.111582
3346.76,0.111851
3348.92,0.112006
3351.09,0.112365
3353.26,0.112853
3355.43,0.113106
3357.6,0.113279
3359.78,0.113555
3361.96,0.11388
3364.14,0.114155
3366.32,0.114702
3368.51,0.115164
3370.7,0.115539
3372.89,0.115742
3375.09,0.116042
3377.29,0.116402
3379.49,0.116754
3381.69,0.11705
3383.9,0.117448
3386.11,0.1179
3388.32,0.118375
3390.54,0.118629
3392.76,0.118988
3394.98,0.119454
3397.21,0.119751
3399.43,0.119914
3401.66,0.120166
3403.9,0.120449
3406.13,0.120681
3408.37,0.120997
3410.61,0.12152
3412.86,0.12199
3415.11,0.122201
3417.36,0.12263
3419.61,0.12306
3421.87,0.123342
3424.13,0.123653
3426.39,0.124139
3428.66,0.124767
3430.93,0.125242
3433.2,0.125697
3435.48,0.12605
3437.76,0.126325
3440.04,0.126759
3442.32,0.127293
3444.61,0.12775
3446.9,0.128231
3449.19,0.12874
3451.49,0.129153
3453.79,0.129494
3456.09,0.129887
3458.4,0.130387
3460.7,0.130853
3463.02,0.131038
3465.33,0.131377
3467.65,0.132041
3469.97,0.132549
3472.29,0.132924
3474.62,0.133338
3476.95,0.133657
3479.29,0.134211
3481.62,0.134814
3483.96,0.135141
3486.3,0.135452
3488.65,0.135874
3491.0,0.136262
3493.35,0.136759
3495.71,0.137233
3498.07,0.137695
3500.43,0.138098
3502.79,0.138562
3505.16,0.13898
3507.53,0.139359
3509.91,0.139897
3512.29,0.14055
3514.67,0.140982
3517.05,0.141427
3519.44,0.141996
3521.83,0.142474
3524.23,0.14284
3526.62,0.143352
3529.02,0.14387
3531.43,0.144517
3533.83,0.14508
3536.24,0.145574
3538.66,0.146136
3541.08,0.146604
3543.5,0.147134
3545.92,0.147705
3548.35,0.14817
3550.78,0.148636
3553.21,0.149137
3555.65,0.149645
3558.09,0.1501
3560.53,0.150625
3562.98,0.151139
3565.43,0.151641
3567.88,0.152129
3570.34,0.152713
3572.8,0.153277
3575.27,0.153886
3577.73,0.154359
3580.2,0.154833
3582.68,0.155346
3585.16,0.155966
3587.64,0.156498
3590.12,0.156976
3592.61,0.157561
3595.1,0.158205
3597.6,0.158649
3600.09,0.159047
3602.6,0.159627
3605.1,0.160304
3607.61,0.160836
3610.12,0.161453
3612.64,0.162073
3615.16,0.162535
3617.68,0.163093
3620.21,0.163677
3622.74,0.164252
3625.27,0.164868
3627.81,0.165479
3630.35,0.166042
3632.89,0.166533
3635.44,0.167049
3637.99,0.167682
3640.54,0.168196
3643.1,0.168687
3645.66,0.169272
3648.23,0.169967
3650.8,0.170572
3653.37,0.171068
3655.95,0.171698
3658.53,0.172308
3661.11,0.172833
3663.7,0.173422
3666.29,0.17416
3668.89,0.174756
3671.48,0.175322
3674.09,0.176005
3676.69,0.176542
3679.3,0.177086
3681.91,0.177841
3684.53,0.178533
3687.15,0.179139
3689.78,0.179798
3692.4,0.180486
3695.04,0.180929
3697.67,0.181493
3700.31,0.182242
3702.95,0.182981
3705.6,0.183622
3708.25,0.1842
3710.91,0.184589
3713.56,0.185247
3716.23,0.185944
3718.89,0.186517
3721.56,0.187204
3724.23,0.187857
3726.91,0.188382
3729.59,0.18908
3732.28,0.189765
3734.97,0.190393
3737.66,0.19108
3740.36,0.191822
3743.06,0.192483
3745.76,0.193099
3748.47,0.193796
3751.18,0.194485
3753.9,0.195121
3756.62,0.195833
3759.34,0.196496
3762.07,0.197164
3764.8,0.197892
3767.54,0.198494
3770.28,0.199082
3773.02,0.199841
3775.77,0.200599
3778.52,0.201197
3781.28,0.201738
3784.04,0.202498
3786.8,0.203279
3789.57,0.203843
3792.34,0.204521
3795.12,0.205329
3797.9,0.206022
3800.69,0.206813
3803.47,0.207475
3806.27,0.208134
3809.06,0.208856
3811.86,0.209482
3814.67,0.210114
3817.48,0.210827
3820.29,0.211573
3823.11,0.212315
3825.93,0.213002
3828.76,0.213773
3831.59,0.214462
3834.42,0.215198
3837.26,0.21604
3840.1,0.216734
3842.95,0.217327
3845.8,0.218093
3848.65,0.218867
3851.51,0.219655
3854.38,0.220347
3857.24,0.221048
3860.12,0.22173
3862.99,0.222443
3865.87,0.223293
3868.76,0.224072
3871.65,0.224685
3874.54,0.225367
3877.44,0.22611
3880.34,0.226928
3883.25,0.227615
3886.16,0.228373
3889.07,0.229239
3891.99,0.230008
3894.92,0.230692
3897.85,0.231413
3900.78,0.232108
3903.72,0.232827
3906.66,0.233524
3909.6,0.23429
3912.55,0.235006
3915.51,0.235692
3918.47,0.236473
3921.43,0.237157
3924.4,0.237819
3927.38,0.238583
3930.35,0.239434
3933.33,0.240182
3936.32,0.240838
3939.31,0.241509
3942.31,0.242257
3945.31,0.242949
3948.31,0.243642
3951.32,0.244371
3954.34,0.245074
3957.35,0.24578
3960.38,0.246453
3963.41,0.247159
3966.44,0.247867
3969.48,0.248515
3972.52,0.249162
3975.56,0.249888
3978.61,0.250711
3981.67,0.251577
3984.73,0.252242
3987.8,0.25284
3990.87,0.253512
3993.94,0.254131
3997.02,0.254853
4000.1,0.255659
4003.19,0.256385
4006.29,0.257063
4009.39,0.257775
4012.49,0.258443
4015.6,0.259136
4018.71,0.259871
4021.83,0.260567
4024.95,0.26123
4028.08,0.261992
4031.21,0.262605
4034.35,0.263241
4037.49,0.264029
4040.64,0.264749
4043.79,0.265408
4046.94,0.265999
4050.11,0.266635
4053.27,0.267384
4056.44,0.268036
4059.62,0.268723
4062.8,0.269463
4065.99,0.2701
4069.18,0.270844
4072.38,0.2715
4075.58,0.272096
4078.78,0.272849
4082.0,0.273523
4085.21,0.274082
4088.43,0.274768
4091.66,0.275445
4094.89,0.27603
4098.13,0.276727
4101.37,0.27736
4104.62,0.27793
4107.87,0.278669
4111.13,0.27944
4114.39,0.280128
4117.66,0.28077
4120.93,0.28145
4124.21,0.282071
4127.5,0.282643
4130.79,0.283297
4134.08,0.284002
4137.38,0.284673
4140.68,0.285319
4143.99,0.286039
4147.31,0.286717
4150.63,0.287315
4153.95,0.287953
4157.29,0.288656
4160.62,0.28935
4163.96,0.289949
4167.31,0.290539
4170.66,0.291212
4174.02,0.291827
4177.39,0.292458
4180.75,0.293086
4184.13,0.293726
4187.51,0.294355
4190.89,0.294996
4194.28,0.295702
4197.68,0.296374
4201.08,0.296954
4204.49,0.297549
4207.9,0.298174
4211.32,0.298879
4214.74,0.299556
4218.17,0.300136
4221.61,0.30068
4225.05,0.301267
4228.5,0.301863
4231.95,0.302451
4235.4,0.303123
4238.87,0.303851
4242.34,0.304504
4245.81,0.305041
4249.29,0.305547
4252.78,0.306152
4256.27,0.306744
4259.77,0.307226
4263.27,0.307625
4266.78,0.308182
4270.29,0.308756
4273.81,0.309424
4277.34,0.31021
4280.87,0.311097
4284.41,0.311761
4287.95,0.312345
4291.5,0.312913
4295.06,0.313562
4298.62,0.314137
4302.19,0.31476
4305.76,0.315337
4309.34,0.315996
4312.92,0.316656
4316.52,0.31725
4320.11,0.317807
4323.72,0.318425
4327.32,0.318947
4330.94,0.319412
4334.56,0.319969
4338.19,0.32062
4341.82,0.321232
4345.46,0.32178
4349.11,0.322289
4352.76,0.322851
4356.42,0.323264
4360.08,0.323772
4363.75,0.324378
4367.43,0.324952
4371.11,0.325416
4374.8,0.325891
4378.49,0.326421
4382.19,0.327004
4385.9,0.327502
4389.61,0.327957
4393.33,0.328378
4397.06,0.328882
4400.79,0.329402
4404.53,0.329883
4408.28,0.330354
4412.03,0.33079
4415.79,0.331219
4419.55,0.331695
4423.32,0.33212
4427.1,0.332681
4430.88,0.333139
4434.68,0.333567
4438.47,0.334015
4442.28,0.33447
4446.08,0.334816
4449.9,0.335257
4453.72,0.335655
4457.55,0.336109
4461.39,0.336567
4465.23,0.336968
4469.08,0.337277
4472.94,0.337731
4476.8,0.338172
4480.67,0.338534
4484.55,0.338794
4488.43,0.33919
4492.32,0.339596
4496.21,0.33999
4500.12,0.340384
4504.03,0.340803
4507.94,0.341137
4511.87,0.341435
4515.8,0.341719
4519.73,0.342041
4523.68,0.34239
4527.63,0.342818
4531.59,0.343153
4535.55,0.343327
4539.52,0.343453
4543.5,0.343716
4547.49,0.344061
4551.48,0.344412
4555.48,0.344623
4559.49,0.344851
4563.5,0.34508
4567.52,0.345287
4571.55,0.345499
4575.58,0.345668
4579.63,0.345807
4583.67,0.346027
4587.73,0.346207
4591.79,0.346266
4595.86,0.346305
4599.94,0.346523
4604.03,0.346685
4608.12,0.346858
4612.22,0.34689
4616.33,0.34696
4620.44,0.347079
4624.56,0.347203
4628.69,0.347173
4632.83,0.347234
4636.97,0.347348
4641.12,0.347447
4645.28,0.347526
4649.45,0.347588
4653.62,0.34762
4657.8,0.347708
4661.99,0.347751
4666.19,0.347758
4670.39,0.347759
4674.6,0.347833
4678.82,0.347814
4683.05,0.347724
4687.28,0.347685
4691.52,0.347695
4695.77,0.347669
4700.03,0.347669
4704.3,0.347513
4708.57,0.347402
4712.85,0.347297
4717.14,0.347251
4721.43,0.347185
4725.74,0.34709
4730.05,0.347033
4734.37,0.347049
4738.7,0.346916
4743.03,0.346824
4747.38,0.346676
4751.73,0.346513
4756.09,0.346285
4760.45,0.346171
4764.83,0.346016
4769.21,0.34584
4773.6,0.345753
4778.0,0.345722
4782.41,0.34551
4786.83,0.345319
4791.25,0.345033
4795.68,0.344884
4800.13,0.344814
4804.57,0.344676
4809.03,0.34439
4813.5,0.344293
4817.97,0.344146
4822.45,0.34399
4826.94,0.343799
4831.44,0.343654
4835.95,0.343488
4840.46,0.343294
4844.99,0.343042
4849.52,0.342905
4854.06,0.342735
4858.61,0.342566
4863.17,0.342374
4867.73,0.342202
4872.31,0.342053
4876.89,0.341798
4881.48,0.341538
4886.08,0.341374
4890.69,0.341121
4895.31,0.340907
4899.94,0.340678
4904.57,0.340568
4909.22,0.340388
4913.87,0.34014
4918.53,0.339879
4923.21,0.339695
4927.88,0.339422
4932.57,0.339166
4937.27,0.338902
4941.98,0.338634
4946.69,0.338332
4951.42,0.337991
4956.15,0.337719
4960.9,0.337483
4965.65,0.337137
4970.41,0.336819
4975.18,0.336498
4979.96,0.336156
4984.75,0.335798
4989.54,0.335551
4994.35,0.335304
4999.17,0.335024
5003.99,0.33468
5008.83,0.334443
5013.67,0.334076
5018.52,0.333748
5023.39,0.333479
5028.26,0.33322
5033.14,0.332965
5038.03,0.332693
5042.93,0.332367
5047.84,0.332122
5052.76,0.331841
5057.69,0.33156
5062.63,0.331272
5067.58,0.331035
5072.54,0.330698
5077.51,0.330366
5082.49,0.330111
5087.47,0.32996
5092.47,0.329773
5097.48,0.329538
5102.5,0.329301
5107.52,0.329099
5112.56,0.328868
5117.61,0.328712
5122.66,0.328502
5127.73,0.328383
5132.81,0.328203
5137.89,0.328007
5142.99,0.327881
5148.1,0.327769
5153.22,0.327542
5158.34,0.32744
5163.48,0.327377
5168.63,0.327325
5173.79,0.327233
5178.96,0.327109
5184.13,0.326953
5189.32,0.326833
5194.52,0.326754
5199.73,0.326815
5204.96,0.326692
5210.19,0.326455
5215.43,0.326317
5220.68,0.326333
5225.94,0.326211
5231.22,0.326147
5236.5,0.326155
5241.79,0.326164
5247.1,0.3261
5252.42,0.326058
5257.74,0.325934
5263.08,0.325834
5268.43,0.325787
5273.79,0.325719
5279.16,0.325587
5284.54,0.325541
5289.93,0.32545
5295.34,0.325367
5300.75,0.325254
5306.18,0.32519
5311.61,0.325007
5317.06,0.324839
5322.52,0.324713
5327.99,0.324602
5333.47,0.324401
5338.96,0.324238
5344.47,0.323958
5349.98,0.323689
5355.51,0.323434
5361.05,0.323223
5366.6,0.323083
5372.16,0.322901
5377.73,0.322601
5383.32,0.322389
5388.91,0.322144
5394.52,0.321885
5400.14,0.321589
5405.77,0.321373
5411.41,0.321018
5417.07,0.320596
5422.74,0.320275
5428.41,0.320027
5434.1,0.319666
5439.81,0.319292
5445.52,0.318915
5451.25,0.318705
5456.98,0.318464
5462.73,0.318105
5468.5,0.317688
5474.27,0.317409
5480.06,0.317079
5485.86,0.316772
5491.67,0.316469
5497.49,0.316234
5503.33,0.315952
5509.18,0.315655
5515.04,0.315364
5520.91,0.315078
5526.8,0.314791
5532.69,0.314624
5538.61,0.314396
5544.53,0.314155
5550.47,0.313885
5556.41,0.31358
5562.38,0.31329
5568.35,0.313158
5574.34,0.312964
5580.34,0.312767
5586.35,0.312534
5592.38,0.312462
5598.42,0.312275
5604.47,0.312023
5610.54,0.311827
5616.61,0.311795
5622.71,0.31161
5628.81,0.311414
5634.93,0.311196
5641.06,0.311021
5647.21,0.310864
5653.36,0.310743
5659.54,0.31057
5665.72,0.310466
5671.92,0.310393
5678.13,0.310237
5684.36,0.310037
5690.6,0.309915
5696.85,0.309699
5703.12,0.30956
5709.4,0.309369
5715.69,0.30911
5722.0,0.308988
5728.33,0.308876
5734.66,0.308583
5741.01,0.308352
5747.38,0.308004
5753.76,0.307792
5760.15,0.307475
5766.56,0.307064
5772.98,0.306459
5779.41,0.306079
5785.86,0.305675
5792.33,0.305337
5798.81,0.304885
5805.3,0.304279
5811.81,0.303554
5818.33,0.302923
5824.87,0.302165
5831.42,0.301526
5837.99,0.300932
5844.57,0.300235
5851.17,0.299447
5857.78,0.298704
5864.41,0.297913
5871.05,0.297127
5877.7,0.29626
5884.38,0.295421
5891.06,0.29454
5897.76,0.294037
5904.48,0.293227
5911.21,0.292634
5917.96,0.291942
5924.73,0.291111
5931.5,0.290364
5938.3,0.289727
5945.11,0.288877
5951.93,0.288215
5958.78,0.2876
5965.63,0.286883
5972.51,0.286183
5979.39,0.285567
5986.3,0.284926
5993.22,0.284214
6000.16,0.283577
6007.11,0.283087
6014.08,0.28253
6021.06,0.281917
6028.06,0.281302
6035.08,0.280893
6042.12,0.280342
6049.17,0.279814
6056.23,0.27924
6063.32,0.278999
6070.42,0.278695
6077.53,0.27824
6084.67,0.277998
6091.82,0.277841
6098.98,0.277642
6106.17,0.277433
6113.37,0.277203
6120.58,0.277067
6127.82,0.277011
6135.07,0.277034
6142.34,0.276978
6149.63,0.276951
6156.93,0.276892
6164.25,0.276887
6171.59,0.276876
6178.95,0.276762
6186.32,0.276628
6193.71,0.276571
6201.12,0.276528
6208.54,0.276442
6215.99,0.276228
6223.45,0.276127
6230.93,0.276066
6238.43,0.275958
6245.95,0.275815
6253.48,0.275757
6261.03,0.275614
6268.6,0.275499
6276.19,0.275409
6283.8,0.27528
6291.43,0.275147
6299.07,0.275036
6306.73,0.274892
6314.42,0.274797
6322.12,0.274643
6329.84,0.274557
6337.57,0.274463
6345.33,0.274453
6353.11,0.27455
6360.9,0.274855
6368.72,0.275183
6376.55,0.275575
6384.4,0.276036
6392.27,0.276514
6400.17,0.277004
6408.08,0.277374
6416.01,0.277622
6423.96,0.277964
6431.93,0.278378
6439.92,0.278711
6447.93,0.278994
6455.96,0.27919
6464.01,0.279261
6472.08,0.279457
6480.17,0.279556
6488.28,0.279655
6496.41,0.279793
6504.56,0.280023
6512.73,0.280235
6520.92,0.280403
6529.14,0.28043
6537.37,0.280534
6545.63,0.28058
6553.9,0.280528
6562.2,0.280533
6570.51,0.280451
6578.85,0.280306
6587.21,0.280191
6595.59,0.280055
6603.99,0.279886
6612.42,0.279734
6620.86,0.279583
6629.33,0.279242
6637.82,0.27885
6646.33,0.278601
6654.86,0.278474
6663.41,0.27827
6671.99,0.277964
6680.59,0.277626
6689.21,0.277377
6697.85,0.277164
6706.51,0.276917
6715.2,0.276516
6723.91,0.276167
6732.64,0.275927
6741.4,0.27564
6750.18,0.275391
6758.98,0.275033
6767.8,0.274573
6776.65,0.274187
6785.52,0.273699
6794.41,0.273176
6803.33,0.272557
6812.27,0.272127
6821.23,0.271653
6830.22,0.271187
6839.23,0.270737
6848.26,0.270475
6857.32,0.270079
6866.4,0.26963
6875.51,0.269272
6884.64,0.269014
6893.8,0.268689
6902.98,0.26833
6912.18,0.267922
6921.41,0.267549
6930.66,0.267228
6939.94,0.266927
6949.24,0.266565
6958.57,0.266242
6967.92,0.26586
6977.3,0.265525
6986.7,0.265134
6996.13,0.264646
7005.59,0.264286
7015.07,0.263951
7024.57,0.263595
7034.1,0.263283
7043.66,0.262982
7053.25,0.262608
7062.85,0.262224
7072.49,0.261906
7082.15,0.261414
7091.84,0.260939
7101.55,0.260593
7111.3,0.260331
7121.06,0.259983
7130.86,0.259683
7140.68,0.259366
7150.53,0.259075
7160.41,0.258823
7170.31,0.258695
7180.24,0.258525
7190.2,0.258378
7200.19,0.258183
7210.2,0.258007
7220.24,0.257771
7230.31,0.257414
7240.41,0.257007
7250.54,0.256608
7260.69,0.256068
7270.88,0.255473
7281.09,0.254783
7291.33,0.254191
7301.6,0.253555
7311.9,0.252759
7322.22,0.251935
7332.58,0.251174
7342.97,0.250462
7353.38,0.249751
7363.83,0.249013
7374.3,0.24822
7384.81,0.247318
7395.34,0.24636
7405.91,0.245365
7416.5,0.244563
7427.13,0.243859
7437.78,0.243094
7448.47,0.242319
7459.19,0.241666
7469.94,0.240933
7480.71,0.240219
7491.52,0.239449
7502.37,0.238739
7513.24,0.238009
7524.14,0.23726
7535.08,0.236421
7546.05,0.235666
7557.05,0.234921
7568.08,0.234275
7579.15,0.233549
7590.24,0.232839
7601.37,0.232122
7612.53,0.231411
7623.73,0.230652
7634.96,0.229967
7646.22,0.229227
7657.51,0.228553
7668.84,0.227867
7680.2,0.22738
7691.59,0.226924
7703.02,0.226423
7714.49,0.225861
7725.98,0.225387
7737.52,0.224891
7749.08,0.224501
7760.68,0.223997
7772.32,0.223496
7783.99,0.222993
7795.69,0.222536
7807.43,0.222119
7819.21,0.221773
7831.02,0.221417
7842.87,0.221084
7854.75,0.220769
7866.67,0.220636
7878.62,0.22047
7890.62,0.220274
7902.64,0.220081
7914.71,0.220021
7926.81,0.219858
7938.95,0.219584
7951.13,0.219211
7963.34,0.219011
7975.59,0.218729
7987.88,0.218404
8000.21,0.217895
8012.57,0.217425
8024.98,0.217007
8037.42,0.216478
8049.9,0.215754
8062.42,0.215054
8074.98,0.214265
8087.57,0.213464
8100.21,0.212468
8112.89,0.21142
8125.6,0.210273
8138.36,0.209128
8151.16,0.207827
8163.99,0.2066
8176.87,0.205254
8189.79,0.20372
8202.75,0.202278
8215.75,0.201005
8228.79,0.199575
8241.87,0.198144
8254.99,0.196664
8268.16,0.195261
8281.37,0.193863
8294.62,0.192426
8307.91,0.19093
8321.24,0.18953
8334.62,0.188071
8348.04,0.186658
8361.51,0.185182
8375.02,0.183837
8388.57,0.182482
8402.16,0.181202
8415.8,0.179782
8429.49,0.178538
8443.22,0.177343
8456.99,0.176114
8470.81,0.174761
8484.67,0.17367
8498.58,0.172514
8512.54,0.171361
8526.54,0.170212
8540.58,0.169215
8554.68,0.168075
8568.82,0.167019
8583.0,0.165938
8597.24,0.164981
8611.52,0.164014
8625.85,0.163047
8640.23,0.162063
8654.65,0.16119
8669.12,0.160233
8683.64,0.159284
8698.21,0.158198
8712.83,0.157219
8727.5,0.156207
8742.22,0.155121
8756.99,0.153927
8771.8,0.152821
8786.67,0.151606
8801.59,0.150377
8816.56,0.149084
8831.58,0.147822
8846.65,0.146377
8861.77,0.144931
8876.94,0.143265
8892.17,0.141619
8907.45,0.139907
8922.78,0.138162
8938.16,0.136145
8953.6,0.134151
8969.09,0.132045
8984.64,0.129957
9000.23,0.127579
9015.89,0.125142
9031.59,0.122481
9047.36,0.119679
9063.17,0.116494
9079.05,0.113201
9094.97,0.109621
9110.96,0.105833
9127.0,0.101484
9143.1,0.096854
9159.25,0.092034
9175.46,0.087283
9191.73,0.082393
9208.06,0.078113
9224.44,0.074222
9240.88,0.071225
9257.38,0.068993
9273.94,0.067472
9290.56,0.066303
9307.24,0.0656
9323.98,0.064882
9340.78,0.064226
9357.64,0.063206
9374.57,0.062164
9391.55,0.060999
9408.59,0.059755
9425.7,0.058112
9442.87,0.056924
9460.1,0.055673
9477.4,0.0546
9494.75,0.053704
9512.17,0.053043
9529.66,0.052352
9547.21,0.051962
9564.83,0.051512
9582.5,0.051376
9600.25,0.051089
9618.06,0.050942
9635.94,0.050835
9653.88,0.051025
9671.89,0.051205
9689.97,0.051376
9708.12,0.051326
9726.33,0.051388
9744.62,0.051019
9762.97,0.050511
9781.39,0.049662
9799.88,0.048794
9818.44,0.047742
9837.07,0.046675
9855.77,0.045319
9874.54,0.044118
9893.39,0.042801
9912.3,0.041765
9931.29,0.040589
9950.36,0.0394
9969.49,0.038249
9988.7,0.037479
10007.98,0.036694
10027.34,0.036028
10046.77,0.035297
10066.28,0.034756
10085.87,0.034244
10105.53,0.033967
10125.26,0.033498
10145.08,0.033163
10164.97,0.032835
10184.94,0.032728
10204.99,0.032547
10225.12,0.032363
10245.33,0.032105
10265.61,0.032036
10285.98,0.031887
10306.43,0.031858
10326.96,0.031696
10347.57,0.03165
10368.27,0.031457
10389.05,0.031491
10409.91,0.03134
10430.86,0.0314
10451.88,0.031287
10473.0,0.031266
10494.2,0.031236
10515.49,0.03145
10536.86,0.031437
10558.32,0.031645
10579.87,0.031943
10601.5,0.032396
10623.23,0.032638
10645.04,0.033129
10666.94,0.033661
10688.94,0.034329
10711.02,0.034768
10733.2,0.035413
10755.47,0.03587
10777.83,0.036232
10800.28,0.036407
10822.83,0.03671
10845.47,0.036797
10868.21,0.036861
10891.04,0.03687
10913.97,0.036821
10936.99,0.036453
10960.12,0.036288
10983.34,0.036051
11006.66,0.035794
11030.07,0.035405
11053.59,0.035177
11077.21,0.034834
11100.93,0.034637
11124.75,0.034229
11148.68,0.033729
11172.71,0.033262
11196.84,0.032913
11221.07,0.032306
11245.41,0.031855
11269.86,0.031194
11294.41,0.030589
11319.07,0.029796
11343.84,0.029241
11368.72,0.028572
11393.7,0.028005
11418.8,0.027275
11444.01,0.026572
11469.33,0.025788
11494.76,0.025099
11520.3,0.024308
11545.96,0.023839
11571.73,0.023254
11597.62,0.022803
11623.62,0.022204
11649.74,0.021622
11675.98,0.02096
11702.34,0.020435
11728.81,0.019882
11755.41,0.01966
11782.13,0.018976
11808.96,0.018258
11835.92,0.01759
11863.01,0.016992
11890.22,0.016176
11917.55,0.015625
11945.01,0.014912
11972.6,0.014288
12000.31,0.013558
12028.16,0.01299
12056.13,0.01233
12084.23,0.011842
12112.46,0.011186
12140.83,0.010718
12169.33,0.010189
12197.96,0.009947
12226.73,0.009733
12255.64,0.009417
12284.68,0.008939
12313.86,0.008777
12343.18,0.008551
12372.64,0.008478
12402.24,0.008316
12431.98,0.008341
12461.86,0.00819
12491.89,0.008091
12522.07,0.008152
12552.38,0.008545
12582.85,0.008702
12613.47,0.00903
12644.23,0.00948
12675.15,0.010097
12706.21,0.010781
12737.43,0.011702
12768.81,0.012537
12800.33,0.013852
12832.02,0.015181
12863.86,0.016701
12895.86,0.018299
12928.02,0.020383
12960.34,0.022511
12992.82,0.024799
13025.46,0.027062
13058.27,0.029625
13091.25,0.03213
13124.39,0.034823
13157.7,0.037275
13191.18,0.039592
13224.83,0.041548
13258.66,0.043414
13292.65,0.04495
13326.83,0.046517
13361.17,0.047627
13395.7,0.048852
13430.4,0.049976
13465.29,0.050998
13500.35,0.051729
13535.6,0.052437
13571.03,0.053147
13606.65,0.053977
13642.46,0.054571
13678.46,0.055254
13714.64,0.055825
13751.02,0.05662
13787.59,0.057109
13824.36,0.057568
13861.32,0.05801
13898.49,0.05861
13935.85,0.059067
13973.41,0.059713
14011.17,0.060322
14049.15,0.061184
14087.32,0.061801
14125.71,0.062566
14164.3,0.063266
14203.11,0.064098
14242.13,0.064847
14281.36,0.065726
14320.81,0.066404
14360.49,0.06692
14400.38,0.067222
14440.49,0.067661
14480.82,0.06799
14521.39,0.068593
14562.18,0.069191
14603.2,0.069792
14644.45,0.070053
14685.93,0.070382
14727.66,0.070635
14769.62,0.071241
14811.81,0.07151
14854.25,0.071489
14896.94,0.071384
14939.87,0.071495
14983.05,0.071626
15026.48,0.071833
15070.16,0.071845
15114.1,0.071901
15158.29,0.071692
15202.74,0.071892
15247.46,0.071903
15292.43,0.071825
15337.68,0.071684
15383.19,0.071726
15428.97,0.071591
15475.03,0.071652
15521.36,0.071678
15567.97,0.071752
15614.87,0.071609
15662.04,0.07161
15709.5,0.071439
15757.25,0.071144
15805.29,0.070128
15853.62,0.068822
15902.26,0.067118
15951.19,0.065057
16000.42,0.062369
16049.95,0.059666
16099.8,0.057191
16149.95,0.054931
16200.42,0.052557
16251.21,0.050621
16302.31,0.048705
16353.74,0.047133
16405.49,0.045444
16457.57,0.043667
16509.98,0.041794
16562.73,0.040274
16615.82,0.038918
16669.24,0.037544
16723.02,0.035978
16777.14,0.034502
16831.61,0.032736
16886.43,0.03111
16941.62,0.029575
16997.16,0.028195
17053.08,0.026647
17109.36,0.025237
17166.01,0.02364
17223.04,0.022838
17280.45,0.021631
17338.24,0.020724
17396.43,0.020879
17455.0,0.022306
17513.97,0.024149
17573.34,0.027532
17633.11,0.031857
17693.29,0.036849
17753.89,0.041849
17814.9,0.04746
17876.33,0.052653
17938.18,0.057744
18000.47,0.062483
18063.19,0.066916
18126.35,0.07035
18189.95,0.073693
18254.0,0.076813
18318.5,0.079335
18383.46,0.081279
18448.88,0.08311
18514.77,0.084294
18581.13,0.08529
18647.97,0.08606
18715.29,0.08667
18783.1,0.086898
18851.4,0.087061
18920.2,0.086978
18989.51,0.086551
19059.32,0.086381
19129.65,0.086475
19200.5,0.086094
19271.88,0.086494
19343.79,0.087466
19416.24,0.08843
19489.23,0.089314
19562.77,0.09015
19636.88,0.090852
19711.54,0.091865
19786.78,0.09243
19862.59,0.092751
19938.98,0.092573
20015.96,0.093087
20093.55,0.093183
20171.73,0.093199
20250.53,0.092864
20329.94,0.092366
20409.98,0.091449
20490.65,0.091308
20571.96,0.090915
20653.92,0.089402
20736.54,0.087472
20819.82,0.086177
20903.77,0.084294
20988.4,0.083036
21073.72,0.081071
21159.73,0.079036
21246.46,0.07695
21333.89,0.075814
21422.04,0.074274
21510.93,0.072926
21600.56,0.07194
21690.94,0.071437
21782.08,0.070128
21873.99,0.069364
21966.67,0.069319
22060.15,0.069245
22154.42,0.068112
22249.51,0.068513
22345.41,0.068699
22442.14,0.0677
22539.72,0.067762
22638.14,0.067769
22737.43,0.066031
22837.6,0.064774
22938.65,0.063931
23040.6,0.063978
23143.46,0.06375
23247.24,0.063803
23351.96,0.06281
23457.63,0.062556
23564.25,0.062542
23671.85,0.063443
23780.44,0.062826
23890.02,0.062852
24000.63,0.06307
24112.26,0.062086
24224.93,0.061848
24338.66,0.062924
24453.47,0.062187
24569.36,0.061756
24686.36,0.060489
24804.47,0.059079
24923.73,0.059274
25044.13,0.061765
25165.71,0.061066
25288.46,0.060006
25412.43,0.060144
25537.61,0.061886
25664.04,0.062786
25791.72,0.062631
25920.68,0.061529
