Database of Origin,University of Winnipeg Spectrophotometer Facility
Sample Description,"RELAB + Nicolet merged data for spinels. Merged @2500nm, different viewing geometries. See Master Spinels in the PSF database for additional information."
Date Added,2016-11-08 17:54:00.168749

Data ID,RLA_SPI_01          
Sample ID,HER101
Mineral Name,Spinel
Grain Size,<45
Viewing Geometry,"30/0,30/30"
Resolution,5/1.2-129
Composition,"Fe,Mg"
Material Class,Oxide

Wavelength
300.0,0.041413
305.0,0.041009
310.0,0.040305
315.0,0.042186
320.0,0.04324
325.0,0.04472
330.0,0.045292
335.0,0.046903
340.0,0.047262
345.0,0.048655
350.0,0.05011
355.0,0.051995
360.0,0.053648
365.0,0.055823
370.0,0.057732
375.0,0.058417
380.0,0.059333
385.0,0.060168
390.0,0.061053
395.0,0.062308
400.0,0.06375
405.0,0.065741
410.0,0.068085
415.0,0.070566
420.0,0.073256
425.0,0.075817
430.0,0.07826
435.0,0.080515
440.0,0.082343
445.0,0.083134
450.0,0.083708
455.0,0.083191
460.0,0.082644
465.0,0.082264
470.0,0.082111
475.0,0.082419
480.0,0.082855
485.0,0.083823
490.0,0.084783
495.0,0.085592
500.0,0.086448
505.0,0.086871
510.0,0.086999
515.0,0.087535
520.0,0.087378
525.0,0.087503
530.0,0.087675
535.0,0.087798
540.0,0.087915
545.0,0.088072
550.0,0.088
555.0,0.088256
560.0,0.08863
565.0,0.08895
570.0,0.088971
575.0,0.089107
580.0,0.089369
585.0,0.089341
590.0,0.089659
595.0,0.089845
600.0,0.089961
605.0,0.090139
610.0,0.090372
615.0,0.090481
620.0,0.090587
625.0,0.090655
630.0,0.090731
635.0,0.090588
640.0,0.090594
645.0,0.090613
650.0,0.090511
655.0,0.090529
660.0,0.090542
665.0,0.090593
670.0,0.090733
675.0,0.090871
680.0,0.090748
685.0,0.090936
690.0,0.091162
695.0,0.091386
700.0,0.091635
705.0,0.092041
710.0,0.09265
715.0,0.092776
720.0,0.092826
725.0,0.093357
730.0,0.093604
735.0,0.093981
740.0,0.094414
745.0,0.094629
750.0,0.094906
755.0,0.095291
760.0,0.095508
765.0,0.095633
770.0,0.095805
775.0,0.096142
780.0,0.096289
785.0,0.096534
790.0,0.096617
795.0,0.09683
800.0,0.096468
805.0,0.096529
810.0,0.097127
815.0,0.09713
820.0,0.096719
825.0,0.097256
830.0,0.097113
835.0,0.096765
840.0,0.096731
845.0,0.096807
850.0,0.096805
855.0,0.096452
860.0,0.09668
865.0,0.096447
870.0,0.096308
875.0,0.095545
880.0,0.095669
885.0,0.095888
890.0,0.095736
895.0,0.096174
900.0,0.09538
905.0,0.095737
910.0,0.095466
915.0,0.095551
920.0,0.095345
925.0,0.095224
930.0,0.095244
935.0,0.095465
940.0,0.095351
945.0,0.095588
950.0,0.095969
955.0,0.095764
960.0,0.096212
965.0,0.096467
970.0,0.096856
975.0,0.096809
980.0,0.097213
985.0,0.097475
990.0,0.098046
995.0,0.098723
1000.0,0.098836
1005.0,0.099635
1010.0,0.100257
1015.0,0.100682
1020.0,0.101405
1025.0,0.10199
1030.0,0.102836
1035.0,0.103345
1040.0,0.103946
1045.0,0.104823
1050.0,0.105479
1055.0,0.106215
1060.0,0.106835
1065.0,0.107293
1070.0,0.108603
1075.0,0.10881
1080.0,0.109787
1085.0,0.110505
1090.0,0.111499
1095.0,0.112261
1100.0,0.113237
1105.0,0.113917
1110.0,0.114631
1115.0,0.11575
1120.0,0.116531
1125.0,0.117546
1130.0,0.118128
1135.0,0.119313
1140.0,0.120245
1145.0,0.121134
1150.0,0.122022
1155.0,0.123073
1160.0,0.12419
1165.0,0.124993
1170.0,0.125887
1175.0,0.126949
1180.0,0.127997
1185.0,0.129114
1190.0,0.130207
1195.0,0.131023
1200.0,0.13217
1205.0,0.133207
1210.0,0.134406
1215.0,0.135261
1220.0,0.136431
1225.0,0.137452
1230.0,0.138436
1235.0,0.139317
1240.0,0.140588
1245.0,0.141588
1250.0,0.142544
1255.0,0.143505
1260.0,0.144704
1265.0,0.146003
1270.0,0.14704
1275.0,0.147901
1280.0,0.148931
1285.0,0.149951
1290.0,0.150769
1295.0,0.152119
1300.0,0.152978
1305.0,0.154402
1310.0,0.155203
1315.0,0.156409
1320.0,0.157181
1325.0,0.157975
1330.0,0.159111
1335.0,0.159938
1340.0,0.161066
1345.0,0.162106
1350.0,0.162908
1355.0,0.163258
1360.0,0.164602
1365.0,0.164858
1370.0,0.165748
1375.0,0.166196
1380.0,0.167347
1385.0,0.167258
1390.0,0.168117
1395.0,0.16834
1400.0,0.168669
1405.0,0.168964
1410.0,0.169097
1415.0,0.169448
1420.0,0.169394
1425.0,0.169128
1430.0,0.1693
1435.0,0.169433
1440.0,0.16926
1445.0,0.16875
1450.0,0.168328
1455.0,0.167846
1460.0,0.167361
1465.0,0.16644
1470.0,0.166402
1475.0,0.165283
1480.0,0.164425
1485.0,0.163832
1490.0,0.162723
1495.0,0.161549
1500.0,0.160368
1505.0,0.159736
1510.0,0.158572
1515.0,0.157339
1520.0,0.155732
1525.0,0.154399
1530.0,0.15319
1535.0,0.151849
1540.0,0.150117
1545.0,0.148498
1550.0,0.147276
1555.0,0.145706
1560.0,0.144088
1565.0,0.142634
1570.0,0.141077
1575.0,0.139266
1580.0,0.138132
1585.0,0.136548
1590.0,0.134793
1595.0,0.133457
1600.0,0.131661
1605.0,0.1305
1610.0,0.12881
1615.0,0.127152
1620.0,0.125818
1625.0,0.124029
1630.0,0.122384
1635.0,0.121109
1640.0,0.11947
1645.0,0.118073
1650.0,0.116602
1655.0,0.115148
1660.0,0.113477
1665.0,0.1123
1670.0,0.111034
1675.0,0.109581
1680.0,0.1084
1685.0,0.107277
1690.0,0.105894
1695.0,0.104654
1700.0,0.103984
1705.0,0.102289
1710.0,0.10133
1715.0,0.100494
1720.0,0.099401
1725.0,0.098316
1730.0,0.097492
1735.0,0.096469
1740.0,0.095423
1745.0,0.094497
1750.0,0.09349
1755.0,0.092727
1760.0,0.09167
1765.0,0.09091
1770.0,0.089794
1775.0,0.089387
1780.0,0.088629
1785.0,0.087739
1790.0,0.087544
1795.0,0.086956
1800.0,0.086308
1805.0,0.08579
1810.0,0.085137
1815.0,0.084819
1820.0,0.084295
1825.0,0.083858
1830.0,0.083582
1835.0,0.083378
1840.0,0.083412
1845.0,0.083066
1850.0,0.082922
1855.0,0.082639
1860.0,0.082477
1865.0,0.082208
1870.0,0.082224
1875.0,0.081976
1880.0,0.081703
1885.0,0.081714
1890.0,0.081717
1895.0,0.081515
1900.0,0.081544
1905.0,0.081539
1910.0,0.081698
1915.0,0.081415
1920.0,0.08142
1925.0,0.081505
1930.0,0.081495
1935.0,0.081287
1940.0,0.081328
1945.0,0.081628
1950.0,0.081629
1955.0,0.081853
1960.0,0.081727
1965.0,0.081831
1970.0,0.08202
1975.0,0.082154
1980.0,0.082075
1985.0,0.082168
1990.0,0.082157
1995.0,0.08233
2000.0,0.082501
2005.0,0.082636
2010.0,0.08266
2015.0,0.082929
2020.0,0.082939
2025.0,0.083015
2030.0,0.083104
2035.0,0.083358
2040.0,0.083325
2045.0,0.083368
2050.0,0.083499
2055.0,0.083645
2060.0,0.083752
2065.0,0.084004
2070.0,0.084076
2075.0,0.084286
2080.0,0.084551
2085.0,0.084678
2090.0,0.084841
2095.0,0.085164
2100.0,0.085284
2105.0,0.085513
2110.0,0.0856
2115.0,0.086018
2120.0,0.0863
2125.0,0.086595
2130.0,0.086958
2135.0,0.087021
2140.0,0.087317
2145.0,0.087459
2150.0,0.087783
2155.0,0.088181
2160.0,0.088331
2165.0,0.088641
2170.0,0.088946
2175.0,0.089274
2180.0,0.0897
2185.0,0.09
2190.0,0.090541
2195.0,0.090776
2200.0,0.091433
2205.0,0.091832
2210.0,0.092233
2215.0,0.092805
2220.0,0.093202
2225.0,0.093521
2230.0,0.093986
2235.0,0.09467
2240.0,0.095185
2245.0,0.095724
2250.0,0.096544
2255.0,0.096912
2260.0,0.097562
2265.0,0.098124
2270.0,0.098805
2275.0,0.09942
2280.0,0.100104
2285.0,0.100684
2290.0,0.101467
2295.0,0.102269
2300.0,0.102653
2305.0,0.103081
2310.0,0.104028
2315.0,0.104867
2320.0,0.105165
2325.0,0.105883
2330.0,0.106164
2335.0,0.106921
2340.0,0.107559
2345.0,0.108117
2350.0,0.108901
2355.0,0.109331
2360.0,0.109852
2365.0,0.110426
2370.0,0.111173
2375.0,0.111554
2380.0,0.111977
2385.0,0.112321
2390.0,0.112919
2395.0,0.113462
2400.0,0.1137
2405.0,0.114066
2410.0,0.114465
2415.0,0.115059
2420.0,0.115403
2425.0,0.115934
2430.0,0.116337
2435.0,0.116643
2440.0,0.116813
2445.0,0.117327
2450.0,0.11731
2455.0,0.117689
2460.0,0.117753
2465.0,0.118131
2470.0,0.118597
2475.0,0.118377
2480.0,0.118822
2485.0,0.11885
2490.0,0.11919
2495.0,0.119076
2500.0,0.11966
2502.0,0.119489
2503.2,0.119507
2504.41,0.119683
2505.62,0.119841
2506.83,0.120058
2508.05,0.119907
2509.26,0.119994
2510.48,0.119793
2511.69,0.119378
2512.91,0.119407
2514.13,0.119651
2515.35,0.119601
2516.57,0.11978
2517.79,0.120014
2519.02,0.119886
2520.24,0.119891
2521.47,0.120263
2522.69,0.120335
2523.92,0.12042
2525.15,0.120281
2526.38,0.119824
2527.61,0.119761
2528.85,0.120201
2530.08,0.120416
2531.32,0.120141
2532.55,0.119934
2533.79,0.120016
2535.03,0.12001
2536.27,0.120139
2537.51,0.120332
2538.75,0.120538
2540.0,0.12034
2541.24,0.119894
2542.49,0.119619
2543.74,0.120063
2544.99,0.120051
2546.24,0.120305
2547.49,0.120649
2548.74,0.12046
2549.99,0.119989
2551.25,0.120198
2552.5,0.120215
2553.76,0.120282
2555.02,0.120722
2556.28,0.121042
2557.54,0.12065
2558.8,0.120283
2560.07,0.120375
2561.33,0.120571
2562.6,0.120646
2563.86,0.120041
2565.13,0.119949
2566.4,0.120378
2567.67,0.120227
2568.95,0.120185
2570.22,0.120525
2571.5,0.120819
2572.77,0.120463
2574.05,0.12061
2575.33,0.120641
2576.61,0.120544
2577.89,0.120752
2579.17,0.120873
2580.46,0.120587
2581.74,0.120531
2583.03,0.120685
2584.31,0.120969
2585.6,0.12095
2586.89,0.120802
2588.19,0.120805
2589.48,0.120741
2590.77,0.120405
2592.07,0.120531
2593.36,0.120383
2594.66,0.120082
2595.96,0.120665
2597.26,0.120998
2598.56,0.120899
2599.87,0.121086
2601.17,0.121036
2602.48,0.121043
2603.78,0.121063
2605.09,0.121237
2606.4,0.121175
2607.71,0.121095
2609.03,0.120988
2610.34,0.120643
2611.66,0.120463
2612.97,0.120903
2614.29,0.121278
2615.61,0.121138
2616.93,0.1211
2618.25,0.121369
2619.57,0.121034
2620.9,0.121046
2622.22,0.121059
2623.55,0.121298
2624.88,0.121445
2626.21,0.121322
2627.54,0.121149
2628.87,0.121016
2630.21,0.120669
2631.54,0.12078
2632.88,0.121025
2634.21,0.121049
2635.55,0.120913
2636.89,0.120779
2638.24,0.120812
2639.58,0.120873
2640.92,0.120925
2642.27,0.12106
2643.62,0.121211
2644.97,0.121092
2646.32,0.120997
2647.67,0.12083
2649.02,0.120965
2650.38,0.121351
2651.73,0.121526
2653.09,0.12144
2654.45,0.121228
2655.81,0.121125
2657.17,0.121175
2658.53,0.121465
2659.89,0.121469
2661.26,0.121712
2662.63,0.121798
2664.0,0.121409
2665.36,0.121138
2666.74,0.121113
2668.11,0.121367
2669.48,0.12109
2670.86,0.121387
2672.23,0.121736
2673.61,0.121218
2674.99,0.121321
2676.37,0.121309
2677.76,0.121331
2679.14,0.121229
2680.52,0.121308
2681.91,0.121478
2683.3,0.121207
2684.69,0.120832
2686.08,0.121254
2687.47,0.121282
2688.87,0.120854
2690.26,0.120672
2691.66,0.121001
2693.06,0.121
2694.46,0.120749
2695.86,0.120516
2697.26,0.120545
2698.66,0.120535
2700.07,0.12023
2701.48,0.119918
2702.89,0.119976
2704.3,0.120141
2705.71,0.120441
2707.12,0.12027
2708.53,0.120029
2709.95,0.119975
2711.37,0.120078
2712.79,0.120307
2714.21,0.120318
2715.63,0.120362
2717.05,0.120507
2718.48,0.120455
2719.9,0.120314
2721.33,0.119918
2722.76,0.12021
2724.19,0.120152
2725.62,0.120034
2727.06,0.120105
2728.49,0.12016
2729.93,0.119883
2731.37,0.119833
2732.81,0.119913
2734.25,0.119962
2735.69,0.12009
2737.14,0.120082
2738.58,0.119607
2740.03,0.119681
2741.48,0.119632
2742.93,0.119571
2744.38,0.119521
2745.83,0.119549
2747.29,0.119615
2748.75,0.119522
2750.2,0.119387
2751.66,0.119638
2753.13,0.119997
2754.59,0.119832
2756.05,0.119489
2757.52,0.119319
2758.99,0.119406
2760.46,0.119534
2761.93,0.119531
2763.4,0.119705
2764.87,0.119965
2766.35,0.120238
2767.82,0.120116
2769.3,0.119861
2770.78,0.119491
2772.26,0.119563
2773.75,0.119709
2775.23,0.120027
2776.72,0.120024
2778.21,0.120018
2779.7,0.119882
2781.19,0.119707
2782.68,0.119882
2784.18,0.120118
2785.67,0.120101
2787.17,0.120194
2788.67,0.120314
2790.17,0.120152
2791.67,0.11999
2793.18,0.120094
2794.68,0.120045
2796.19,0.120147
2797.7,0.12013
2799.21,0.120356
2800.72,0.120503
2802.24,0.120437
2803.75,0.12017
2805.27,0.120139
2806.79,0.120243
2808.31,0.120393
2809.83,0.120645
2811.35,0.120646
2812.88,0.12041
2814.41,0.120503
2815.93,0.120489
2817.46,0.120616
2819.0,0.120663
2820.53,0.120652
2822.07,0.120708
2823.6,0.120889
2825.14,0.120868
2826.68,0.120834
2828.22,0.12098
2829.77,0.121067
2831.31,0.121041
2832.86,0.120979
2834.41,0.120752
2835.96,0.120771
2837.51,0.121215
2839.07,0.121642
2840.62,0.121551
2842.18,0.121526
2843.74,0.12128
2845.3,0.121611
2846.86,0.121807
2848.43,0.121509
2849.99,0.121585
2851.56,0.121914
2853.13,0.12188
2854.7,0.122269
2856.27,0.122521
2857.85,0.122405
2859.42,0.122366
2861.0,0.122268
2862.58,0.122285
2864.16,0.122468
2865.75,0.122634
2867.33,0.122634
2868.92,0.122674
2870.51,0.122819
2872.1,0.123031
2873.69,0.123321
2875.28,0.123462
2876.88,0.123375
2878.48,0.123465
2880.07,0.123603
2881.68,0.123683
2883.28,0.124091
2884.88,0.124378
2886.49,0.124553
2888.1,0.124197
2889.71,0.124104
2891.32,0.124276
2892.93,0.124469
2894.55,0.124637
2896.16,0.124776
2897.78,0.124862
2899.4,0.125102
2901.03,0.125213
2902.65,0.125309
2904.28,0.125291
2905.91,0.125383
2907.54,0.125367
2909.17,0.125807
2910.8,0.126197
2912.44,0.12642
2914.07,0.126447
2915.71,0.126833
2917.35,0.12701
2918.99,0.126974
2920.64,0.126975
2922.29,0.127339
2923.93,0.12746
2925.58,0.127393
2927.24,0.127416
2928.89,0.127744
2930.55,0.128037
2932.2,0.128138
2933.86,0.128129
2935.52,0.128449
2937.19,0.128609
2938.85,0.128872
2940.52,0.129598
2942.19,0.130156
2943.86,0.129766
2945.53,0.12958
2947.21,0.129983
2948.88,0.130702
2950.56,0.130647
2952.24,0.13066
2953.92,0.130847
2955.61,0.130823
2957.29,0.130891
2958.98,0.131136
2960.67,0.131266
2962.36,0.131623
2964.06,0.131867
2965.75,0.132037
2967.45,0.132499
2969.15,0.133102
2970.85,0.13354
2972.55,0.133487
2974.26,0.133285
2975.97,0.133451
2977.68,0.13404
2979.39,0.13446
2981.1,0.134538
2982.82,0.134769
2984.53,0.135189
2986.25,0.135467
2987.97,0.135507
2989.7,0.135666
2991.42,0.13597
2993.15,0.136273
2994.88,0.136524
2996.61,0.137002
2998.34,0.137014
3000.08,0.137079
3001.82,0.137246
3003.55,0.13766
3005.3,0.138042
3007.04,0.138601
3008.78,0.138823
3010.53,0.138943
3012.28,0.139325
3014.03,0.139485
3015.79,0.139605
3017.54,0.140027
3019.3,0.140504
3021.06,0.140815
3022.82,0.141161
3024.58,0.141805
3026.35,0.142179
3028.12,0.142286
3029.89,0.142317
3031.66,0.142604
3033.43,0.142848
3035.21,0.143379
3036.99,0.143988
3038.77,0.14432
3040.55,0.144241
3042.33,0.144369
3044.12,0.144668
3045.91,0.144943
3047.7,0.145208
3049.49,0.14581
3051.29,0.146157
3053.08,0.146444
3054.88,0.146703
3056.68,0.147196
3058.49,0.147903
3060.29,0.148159
3062.1,0.148316
3063.91,0.148652
3065.72,0.148879
3067.54,0.149152
3069.35,0.149485
3071.17,0.149892
3072.99,0.15029
3074.81,0.150698
3076.64,0.151101
3078.47,0.15175
3080.29,0.152103
3082.13,0.152307
3083.96,0.152604
3085.79,0.153096
3087.63,0.153416
3089.47,0.153814
3091.31,0.154321
3093.16,0.154978
3095.01,0.155327
3096.85,0.155479
3098.71,0.155919
3100.56,0.156267
3102.41,0.156603
3104.27,0.157041
3106.13,0.157569
3107.99,0.158238
3109.86,0.158707
3111.73,0.159066
3113.59,0.159328
3115.47,0.159869
3117.34,0.160305
3119.21,0.160741
3121.09,0.161192
3122.97,0.161707
3124.86,0.162042
3126.74,0.162527
3128.63,0.163158
3130.52,0.163544
3132.41,0.163762
3134.3,0.164264
3136.2,0.164927
3138.1,0.165542
3140.0,0.166071
3141.9,0.166483
3143.81,0.16692
3145.71,0.167513
3147.62,0.167938
3149.54,0.168391
3151.45,0.168958
3153.37,0.169691
3155.29,0.170117
3157.21,0.170557
3159.13,0.171026
3161.06,0.171555
3162.99,0.17208
3164.92,0.172745
3166.85,0.173173
3168.79,0.173766
3170.72,0.174444
3172.67,0.175282
3174.61,0.175651
3176.55,0.175946
3178.5,0.176491
3180.45,0.177154
3182.4,0.177675
3184.36,0.178242
3186.32,0.178905
3188.27,0.179446
3190.24,0.179763
3192.2,0.180384
3194.17,0.181164
3196.14,0.18186
3198.11,0.182136
3200.08,0.182746
3202.06,0.183478
3204.04,0.184235
3206.02,0.184943
3208.0,0.185445
3209.99,0.186057
3211.98,0.186579
3213.97,0.186912
3215.96,0.187402
3217.96,0.188136
3219.96,0.188708
3221.96,0.189135
3223.96,0.189752
3225.97,0.190361
3227.98,0.190947
3229.99,0.19149
3232.0,0.192144
3234.02,0.192691
3236.04,0.193378
3238.06,0.194114
3240.08,0.194834
3242.11,0.19556
3244.14,0.196258
3246.17,0.196886
3248.2,0.197655
3250.24,0.198269
3252.28,0.198722
3254.32,0.199076
3256.37,0.19974
3258.41,0.200392
3260.46,0.201184
3262.51,0.201874
3264.57,0.202493
3266.63,0.20318
3268.69,0.203631
3270.75,0.204169
3272.81,0.205235
3274.88,0.206069
3276.95,0.206716
3279.02,0.207388
3281.1,0.207851
3283.18,0.208481
3285.26,0.209303
3287.34,0.210051
3289.43,0.210995
3291.51,0.21154
3293.61,0.212187
3295.7,0.212877
3297.8,0.213604
3299.9,0.214097
3302.0,0.214664
3304.1,0.215254
3306.21,0.216049
3308.32,0.216822
3310.43,0.217467
3312.55,0.218125
3314.66,0.218908
3316.79,0.21971
3318.91,0.220476
3321.03,0.221169
3323.16,0.221757
3325.29,0.222383
3327.43,0.223208
3329.57,0.223734
3331.71,0.224437
3333.85,0.225106
3335.99,0.225871
3338.14,0.226536
3340.29,0.227223
3342.45,0.228005
3344.6,0.228698
3346.76,0.229298
3348.92,0.22984
3351.09,0.230489
3353.26,0.231323
3355.43,0.232084
3357.6,0.232604
3359.78,0.233164
3361.96,0.233798
3364.14,0.234487
3366.32,0.235065
3368.51,0.235589
3370.7,0.236191
3372.89,0.236707
3375.09,0.237155
3377.29,0.237664
3379.49,0.238549
3381.69,0.239251
3383.9,0.240048
3386.11,0.240893
3388.32,0.241718
3390.54,0.242375
3392.76,0.243092
3394.98,0.243691
3397.21,0.244387
3399.43,0.24484
3401.66,0.245108
3403.9,0.245283
3406.13,0.245633
3408.37,0.246043
3410.61,0.246371
3412.86,0.246865
3415.11,0.24739
3417.36,0.247843
3419.61,0.248674
3421.87,0.249639
3424.13,0.250893
3426.39,0.252202
3428.66,0.253524
3430.93,0.254901
3433.2,0.256146
3435.48,0.257078
3437.76,0.257873
3440.04,0.258737
3442.32,0.259839
3444.61,0.260854
3446.9,0.261596
3449.19,0.262336
3451.49,0.263313
3453.79,0.264332
3456.09,0.265317
3458.4,0.266181
3460.7,0.267068
3463.02,0.267845
3465.33,0.268766
3467.65,0.269491
3469.97,0.270148
3472.29,0.270842
3474.62,0.271594
3476.95,0.272254
3479.29,0.27298
3481.62,0.273805
3483.96,0.274561
3486.3,0.2751
3488.65,0.275815
3491.0,0.276524
3493.35,0.277127
3495.71,0.277565
3498.07,0.278071
3500.43,0.278615
3502.79,0.279277
3505.16,0.280155
3507.53,0.281271
3509.91,0.282525
3512.29,0.283796
3514.67,0.284911
3517.05,0.286108
3519.44,0.287253
3521.83,0.288321
3524.23,0.289391
3526.62,0.290298
3529.02,0.291187
3531.43,0.292128
3533.83,0.292983
3536.24,0.294012
3538.66,0.294791
3541.08,0.295497
3543.5,0.296489
3545.92,0.2974
3548.35,0.298084
3550.78,0.29889
3553.21,0.299804
3555.65,0.300708
3558.09,0.301413
3560.53,0.302196
3562.98,0.303049
3565.43,0.303897
3567.88,0.304706
3570.34,0.305701
3572.8,0.306489
3575.27,0.30722
3577.73,0.308128
3580.2,0.308983
3582.68,0.30978
3585.16,0.310613
3587.64,0.311443
3590.12,0.312186
3592.61,0.312977
3595.1,0.313778
3597.6,0.314554
3600.09,0.315443
3602.6,0.316275
3605.1,0.317128
3607.61,0.31792
3610.12,0.318705
3612.64,0.319439
3615.16,0.320191
3617.68,0.321049
3620.21,0.321922
3622.74,0.322766
3625.27,0.323603
3627.81,0.324284
3630.35,0.32511
3632.89,0.325999
3635.44,0.326784
3637.99,0.327619
3640.54,0.328488
3643.1,0.329309
3645.66,0.330051
3648.23,0.330772
3650.8,0.331607
3653.37,0.332399
3655.95,0.33313
3658.53,0.333925
3661.11,0.334856
3663.7,0.335718
3666.29,0.336574
3668.89,0.337297
3671.48,0.338104
3674.09,0.338843
3676.69,0.339649
3679.3,0.340389
3681.91,0.341246
3684.53,0.342135
3687.15,0.342904
3689.78,0.343694
3692.4,0.344469
3695.04,0.345228
3697.67,0.346111
3700.31,0.346929
3702.95,0.347619
3705.6,0.348384
3708.25,0.349293
3710.91,0.350124
3713.56,0.350863
3716.23,0.351659
3718.89,0.352504
3721.56,0.353256
3724.23,0.354044
3726.91,0.354911
3729.59,0.35572
3732.28,0.356373
3734.97,0.357155
3737.66,0.358064
3740.36,0.358984
3743.06,0.359719
3745.76,0.360316
3748.47,0.360959
3751.18,0.361898
3753.9,0.362755
3756.62,0.363484
3759.34,0.364304
3762.07,0.365164
3764.8,0.365978
3767.54,0.366666
3770.28,0.367396
3773.02,0.368221
3775.77,0.369008
3778.52,0.369748
3781.28,0.370515
3784.04,0.371206
3786.8,0.371883
3789.57,0.37275
3792.34,0.37357
3795.12,0.374241
3797.9,0.375009
3800.69,0.375834
3803.47,0.376554
3806.27,0.377239
3809.06,0.378025
3811.86,0.378841
3814.67,0.379567
3817.48,0.380271
3820.29,0.381083
3823.11,0.38188
3825.93,0.382576
3828.76,0.383284
3831.59,0.383861
3834.42,0.38467
3837.26,0.385605
3840.1,0.386264
3842.95,0.386907
3845.8,0.387544
3848.65,0.388214
3851.51,0.388935
3854.38,0.389673
3857.24,0.390568
3860.12,0.391408
3862.99,0.392048
3865.87,0.392674
3868.76,0.393278
3871.65,0.393993
3874.54,0.394744
3877.44,0.395447
3880.34,0.396104
3883.25,0.396859
3886.16,0.397594
3889.07,0.39816
3891.99,0.398892
3894.92,0.399717
3897.85,0.400308
3900.78,0.40086
3903.72,0.401659
3906.66,0.402384
3909.6,0.40298
3912.55,0.40362
3915.51,0.404185
3918.47,0.404737
3921.43,0.405411
3924.4,0.406149
3927.38,0.406851
3930.35,0.407457
3933.33,0.408199
3936.32,0.408734
3939.31,0.409285
3942.31,0.410008
3945.31,0.410807
3948.31,0.411318
3951.32,0.411814
3954.34,0.412463
3957.35,0.413117
3960.38,0.413701
3963.41,0.414362
3966.44,0.415007
3969.48,0.41558
3972.52,0.416205
3975.56,0.416823
3978.61,0.417492
3981.67,0.418134
3984.73,0.418571
3987.8,0.41909
3990.87,0.4197
3993.94,0.420245
3997.02,0.420828
4000.1,0.421464
4003.19,0.422102
4006.29,0.422615
4009.39,0.423158
4012.49,0.423747
4015.6,0.424322
4018.71,0.424762
4021.83,0.425353
4024.95,0.425965
4028.08,0.426496
4031.21,0.427001
4034.35,0.427579
4037.49,0.42808
4040.64,0.428592
4043.79,0.429177
4046.94,0.42977
4050.11,0.430237
4053.27,0.43065
4056.44,0.431164
4059.62,0.431686
4062.8,0.432134
4065.99,0.432511
4069.18,0.433066
4072.38,0.433663
4075.58,0.434094
4078.78,0.434578
4082.0,0.435186
4085.21,0.435755
4088.43,0.436219
4091.66,0.436704
4094.89,0.437175
4098.13,0.437524
4101.37,0.437935
4104.62,0.438516
4107.87,0.438983
4111.13,0.439556
4114.39,0.440015
4117.66,0.440446
4120.93,0.440916
4124.21,0.441397
4127.5,0.441766
4130.79,0.442093
4134.08,0.442601
4137.38,0.443197
4140.68,0.443659
4143.99,0.444117
4147.31,0.444529
4150.63,0.445003
4153.95,0.445462
4157.29,0.445894
4160.62,0.446332
4163.96,0.44685
4167.31,0.447354
4170.66,0.447791
4174.02,0.448169
4177.39,0.448659
4180.75,0.449141
4184.13,0.449598
4187.51,0.449982
4190.89,0.450399
4194.28,0.45077
4197.68,0.451227
4201.08,0.451702
4204.49,0.45221
4207.9,0.45257
4211.32,0.452963
4214.74,0.453374
4218.17,0.453903
4221.61,0.454368
4225.05,0.454814
4228.5,0.455297
4231.95,0.455747
4235.4,0.456145
4238.87,0.456528
4242.34,0.456772
4245.81,0.457145
4249.29,0.457462
4252.78,0.457658
4256.27,0.457946
4259.77,0.45819
4263.27,0.458462
4266.78,0.458809
4270.29,0.459191
4273.81,0.459653
4277.34,0.460102
4280.87,0.460547
4284.41,0.460995
4287.95,0.4614
4291.5,0.461711
4295.06,0.461998
4298.62,0.462349
4302.19,0.462688
4305.76,0.462944
4309.34,0.463293
4312.92,0.46363
4316.52,0.464043
4320.11,0.464362
4323.72,0.464652
4327.32,0.465029
4330.94,0.465304
4334.56,0.465567
4338.19,0.465815
4341.82,0.466107
4345.46,0.466307
4349.11,0.46655
4352.76,0.466926
4356.42,0.467225
4360.08,0.467611
4363.75,0.467821
4367.43,0.468058
4371.11,0.468293
4374.8,0.468571
4378.49,0.468848
4382.19,0.469141
4385.9,0.469413
4389.61,0.46983
4393.33,0.470175
4397.06,0.470474
4400.79,0.470621
4404.53,0.470847
4408.28,0.471059
4412.03,0.471271
4415.79,0.471519
4419.55,0.471736
4423.32,0.471959
4427.1,0.472277
4430.88,0.472541
4434.68,0.472786
4438.47,0.472979
4442.28,0.473184
4446.08,0.473428
4449.9,0.473558
4453.72,0.473828
4457.55,0.474177
4461.39,0.474346
4465.23,0.474531
4469.08,0.474634
4472.94,0.474834
4476.8,0.475024
4480.67,0.475238
4484.55,0.475367
4488.43,0.475515
4492.32,0.475719
4496.21,0.475971
4500.12,0.476158
4504.03,0.476472
4507.94,0.476604
4511.87,0.476633
4515.8,0.476795
4519.73,0.477087
4523.68,0.477163
4527.63,0.477284
4531.59,0.477394
4535.55,0.477517
4539.52,0.477602
4543.5,0.477901
4547.49,0.478092
4551.48,0.47823
4555.48,0.478301
4559.49,0.478522
4563.5,0.478599
4567.52,0.47878
4571.55,0.47891
4575.58,0.479035
4579.63,0.479109
4583.67,0.479229
4587.73,0.47941
4591.79,0.479588
4595.86,0.479705
4599.94,0.47979
4604.03,0.479842
4608.12,0.479884
4612.22,0.479952
4616.33,0.48013
4620.44,0.480308
4624.56,0.480482
4628.69,0.480468
4632.83,0.480534
4636.97,0.480583
4641.12,0.480656
4645.28,0.48069
4649.45,0.48078
4653.62,0.480846
4657.8,0.481075
4661.99,0.481208
4666.19,0.481208
4670.39,0.481211
4674.6,0.481394
4678.82,0.481566
4683.05,0.481642
4687.28,0.481642
4691.52,0.481744
4695.77,0.481799
4700.03,0.481939
4704.3,0.48202
4708.57,0.482117
4712.85,0.482148
4717.14,0.482176
4721.43,0.482299
4725.74,0.48237
4730.05,0.482347
4734.37,0.482501
4738.7,0.482496
4743.03,0.482557
4747.38,0.482632
4751.73,0.482728
4756.09,0.48278
4760.45,0.482852
4764.83,0.482906
4769.21,0.483048
4773.6,0.483028
4778.0,0.483007
4782.41,0.483034
4786.83,0.483107
4791.25,0.48311
4795.68,0.483216
4800.13,0.483328
4804.57,0.483385
4809.03,0.483403
4813.5,0.483374
4817.97,0.483345
4822.45,0.483507
4826.94,0.483548
4831.44,0.483581
4835.95,0.48357
4840.46,0.483558
4844.99,0.483495
4849.52,0.483504
4854.06,0.483513
4858.61,0.48355
4863.17,0.483491
4867.73,0.483575
4872.31,0.483581
4876.89,0.483602
4881.48,0.48362
4886.08,0.48354
4890.69,0.483457
4895.31,0.483491
4899.94,0.483525
4904.57,0.483483
4909.22,0.483408
4913.87,0.483472
4918.53,0.483459
4923.21,0.483443
4927.88,0.483314
4932.57,0.48329
4937.27,0.483232
4941.98,0.48323
4946.69,0.483236
4951.42,0.483264
4956.15,0.48321
4960.9,0.483237
4965.65,0.483196
4970.41,0.483086
4975.18,0.482988
4979.96,0.482941
4984.75,0.482865
4989.54,0.482874
4994.35,0.482811
4999.17,0.482833
5003.99,0.482812
5008.83,0.482766
5013.67,0.48267
5018.52,0.482634
5023.39,0.482596
5028.26,0.482504
5033.14,0.482424
5038.03,0.482309
5042.93,0.482219
5047.84,0.482297
5052.76,0.482216
5057.69,0.482083
5062.63,0.482003
5067.58,0.482017
5072.54,0.481877
5077.51,0.481848
5082.49,0.481783
5087.47,0.481857
5092.47,0.481797
5097.48,0.481672
5102.5,0.481553
5107.52,0.481486
5112.56,0.481405
5117.61,0.481375
5122.66,0.481383
5127.73,0.481318
5132.81,0.481196
5137.89,0.481119
5142.99,0.480983
5148.1,0.480886
5153.22,0.480829
5158.34,0.480802
5163.48,0.480672
5168.63,0.480656
5173.79,0.480521
5178.96,0.48038
5184.13,0.48033
5189.32,0.480285
5194.52,0.480171
5199.73,0.480106
5204.96,0.479993
5210.19,0.479868
5215.43,0.479715
5220.68,0.479683
5225.94,0.479484
5231.22,0.479374
5236.5,0.479257
5241.79,0.479161
5247.1,0.479048
5252.42,0.479046
5257.74,0.478887
5263.08,0.478746
5268.43,0.478562
5273.79,0.478532
5279.16,0.478443
5284.54,0.478388
5289.93,0.478064
5295.34,0.47797
5300.75,0.477917
5306.18,0.477789
5311.61,0.477625
5317.06,0.477455
5322.52,0.477186
5327.99,0.476999
5333.47,0.476781
5338.96,0.476701
5344.47,0.47657
5349.98,0.476504
5355.51,0.476493
5361.05,0.476327
5366.6,0.475994
5372.16,0.475853
5377.73,0.475683
5383.32,0.475575
5388.91,0.475363
5394.52,0.475208
5400.14,0.475001
5405.77,0.47475
5411.41,0.474512
5417.07,0.474363
5422.74,0.474075
5428.41,0.474127
5434.1,0.473927
5439.81,0.473688
5445.52,0.473514
5451.25,0.473452
5456.98,0.473148
5462.73,0.472931
5468.5,0.472727
5474.27,0.472562
5480.06,0.472353
5485.86,0.472224
5491.67,0.471914
5497.49,0.47171
5503.33,0.47151
5509.18,0.471428
5515.04,0.471075
5520.91,0.470846
5526.8,0.470611
5532.69,0.470495
5538.61,0.470341
5544.53,0.470212
5550.47,0.470008
5556.41,0.469744
5562.38,0.469291
5568.35,0.469106
5574.34,0.468871
5580.34,0.468675
5586.35,0.468579
5592.38,0.468447
5598.42,0.468096
5604.47,0.467911
5610.54,0.467629
5616.61,0.46738
5622.71,0.467106
5628.81,0.466857
5634.93,0.466531
5641.06,0.466163
5647.21,0.465958
5653.36,0.465936
5659.54,0.465667
5665.72,0.46539
5671.92,0.464891
5678.13,0.464624
5684.36,0.464451
5690.6,0.464221
5696.85,0.463873
5703.12,0.463563
5709.4,0.462928
5715.69,0.462732
5722.0,0.462398
5728.33,0.461898
5734.66,0.461307
5741.01,0.460898
5747.38,0.460267
5753.76,0.459843
5760.15,0.45908
5766.56,0.458354
5772.98,0.457949
5779.41,0.457376
5785.86,0.456447
5792.33,0.455582
5798.81,0.454512
5805.3,0.453525
5811.81,0.452569
5818.33,0.451604
5824.87,0.450563
5831.42,0.44968
5837.99,0.448523
5844.57,0.447414
5851.17,0.446259
5857.78,0.445176
5864.41,0.444041
5871.05,0.44307
5877.7,0.441754
5884.38,0.440862
5891.06,0.440081
5897.76,0.439252
5904.48,0.438424
5911.21,0.437524
5917.96,0.436475
5924.73,0.435655
5931.5,0.43456
5938.3,0.433435
5945.11,0.432543
5951.93,0.431622
5958.78,0.430477
5965.63,0.429331
5972.51,0.428299
5979.39,0.427352
5986.3,0.426126
5993.22,0.425055
6000.16,0.42413
6007.11,0.423316
6014.08,0.422345
6021.06,0.421762
6028.06,0.421071
6035.08,0.420462
6042.12,0.419774
6049.17,0.41917
6056.23,0.41893
6063.32,0.418605
6070.42,0.417792
6077.53,0.417454
6084.67,0.417176
6091.82,0.416636
6098.98,0.416052
6106.17,0.415611
6113.37,0.415028
6120.58,0.414837
6127.82,0.414423
6135.07,0.413772
6142.34,0.413032
6149.63,0.412575
6156.93,0.411998
6164.25,0.41149
6171.59,0.410766
6178.95,0.409914
6186.32,0.409097
6193.71,0.408796
6201.12,0.408192
6208.54,0.407597
6215.99,0.406875
6223.45,0.406286
6230.93,0.405624
6238.43,0.404975
6245.95,0.404164
6253.48,0.403383
6261.03,0.402557
6268.6,0.401884
6276.19,0.401048
6283.8,0.40034
6291.43,0.399643
6299.07,0.399088
6306.73,0.398428
6314.42,0.397927
6322.12,0.397411
6329.84,0.397052
6337.57,0.396506
6345.33,0.39603
6353.11,0.395896
6360.9,0.395697
6368.72,0.395339
6376.55,0.395462
6384.4,0.395519
6392.27,0.395368
6400.17,0.395305
6408.08,0.395247
6416.01,0.395104
6423.96,0.395425
6431.93,0.395249
6439.92,0.395087
6447.93,0.394804
6455.96,0.394606
6464.01,0.394333
6472.08,0.393985
6480.17,0.393606
6488.28,0.393213
6496.41,0.392731
6504.56,0.392585
6512.73,0.392053
6520.92,0.391502
6529.14,0.391101
6537.37,0.390603
6545.63,0.389824
6553.9,0.389195
6562.2,0.388478
6570.51,0.387755
6578.85,0.387029
6587.21,0.386323
6595.59,0.385287
6603.99,0.384381
6612.42,0.3833
6620.86,0.382364
6629.33,0.381298
6637.82,0.380389
6646.33,0.379284
6654.86,0.378187
6663.41,0.376936
6671.99,0.375843
6680.59,0.374601
6689.21,0.373337
6697.85,0.371779
6706.51,0.370412
6715.2,0.369036
6723.91,0.367716
6732.64,0.366077
6741.4,0.364493
6750.18,0.362779
6758.98,0.36121
6767.8,0.359399
6776.65,0.357654
6785.52,0.355691
6794.41,0.353725
6803.33,0.351367
6812.27,0.349316
6821.23,0.347442
6830.22,0.345923
6839.23,0.344344
6848.26,0.342927
6857.32,0.34158
6866.4,0.340535
6875.51,0.339238
6884.64,0.337957
6893.8,0.336539
6902.98,0.335237
6912.18,0.334038
6921.41,0.333026
6930.66,0.331848
6939.94,0.330713
6949.24,0.329386
6958.57,0.328202
6967.92,0.327003
6977.3,0.325841
6986.7,0.324535
6996.13,0.323408
7005.59,0.322197
7015.07,0.321141
7024.57,0.320146
7034.1,0.319514
7043.66,0.318826
7053.25,0.318307
7062.85,0.31756
7072.49,0.317051
7082.15,0.316602
7091.84,0.316351
7101.55,0.316209
7111.3,0.316239
7121.06,0.316211
7130.86,0.3163
7140.68,0.316199
7150.53,0.316487
7160.41,0.316701
7170.31,0.316844
7180.24,0.316927
7190.2,0.317115
7200.19,0.317238
7210.2,0.317453
7220.24,0.317376
7230.31,0.317284
7240.41,0.317182
7250.54,0.317153
7260.69,0.316976
7270.88,0.316938
7281.09,0.316869
7291.33,0.316751
7301.6,0.316434
7311.9,0.316404
7322.22,0.316413
7332.58,0.316304
7342.97,0.316097
7353.38,0.315995
7363.83,0.315595
7374.3,0.315186
7384.81,0.314629
7395.34,0.314119
7405.91,0.31352
7416.5,0.313008
7427.13,0.312356
7437.78,0.311651
7448.47,0.310736
7459.19,0.309907
7469.94,0.309056
7480.71,0.308198
7491.52,0.307217
7502.37,0.306201
7513.24,0.305009
7524.14,0.303856
7535.08,0.302542
7546.05,0.301238
7557.05,0.299778
7568.08,0.298369
7579.15,0.296791
7590.24,0.29532
7601.37,0.293648
7612.53,0.292055
7623.73,0.290525
7634.96,0.289053
7646.22,0.287391
7657.51,0.285913
7668.84,0.284361
7680.2,0.282739
7691.59,0.280966
7703.02,0.279389
7714.49,0.27768
7725.98,0.276016
7737.52,0.274192
7749.08,0.272489
7760.68,0.270606
7772.32,0.268708
7783.99,0.266799
7795.69,0.265038
7807.43,0.263183
7819.21,0.261442
7831.02,0.259535
7842.87,0.25777
7854.75,0.255912
7866.67,0.254199
7878.62,0.252452
7890.62,0.250887
7902.64,0.249247
7914.71,0.247674
7926.81,0.24592
7938.95,0.244199
7951.13,0.242404
7963.34,0.240656
7975.59,0.238719
7987.88,0.237054
8000.21,0.235347
8012.57,0.23374
8024.98,0.231914
8037.42,0.23017
8049.9,0.228392
8062.42,0.226878
8074.98,0.225084
8087.57,0.22341
8100.21,0.221723
8112.89,0.220081
8125.6,0.218155
8138.36,0.216409
8151.16,0.214626
8163.99,0.21303
8176.87,0.211253
8189.79,0.209588
8202.75,0.207746
8215.75,0.206
8228.79,0.204138
8241.87,0.202499
8254.99,0.200616
8268.16,0.198758
8281.37,0.196734
8294.62,0.194881
8307.91,0.192926
8321.24,0.191015
8334.62,0.188975
8348.04,0.187229
8361.51,0.185112
8375.02,0.183164
8388.57,0.181197
8402.16,0.17934
8415.8,0.177226
8429.49,0.17528
8443.22,0.173149
8456.99,0.171079
8470.81,0.168866
8484.67,0.166889
8498.58,0.164705
8512.54,0.162676
8526.54,0.160592
8540.58,0.158743
8554.68,0.156621
8568.82,0.154657
8583.0,0.152503
8597.24,0.150587
8611.52,0.148559
8625.85,0.146741
8640.23,0.144782
8654.65,0.142973
8669.12,0.141002
8683.64,0.139245
8698.21,0.137334
8712.83,0.135613
8727.5,0.133682
8742.22,0.131957
8756.99,0.130024
8771.8,0.128287
8786.67,0.126472
8801.59,0.124802
8816.56,0.122881
8831.58,0.121219
8846.65,0.119433
8861.77,0.11789
8876.94,0.115947
8892.17,0.114283
8907.45,0.112579
8922.78,0.111078
8938.16,0.109385
8953.6,0.107949
8969.09,0.106233
8984.64,0.104835
9000.23,0.103151
9015.89,0.101727
9031.59,0.100212
9047.36,0.09888
9063.17,0.097114
9079.05,0.095747
9094.97,0.094222
9110.96,0.092857
9127.0,0.091262
9143.1,0.090009
9159.25,0.088412
9175.46,0.08706
9191.73,0.085457
9208.06,0.084078
9224.44,0.082378
9240.88,0.08087
9257.38,0.079183
9273.94,0.077879
9290.56,0.076275
9307.24,0.074834
9323.98,0.073032
9340.78,0.071559
9357.64,0.069995
9374.57,0.068548
9391.55,0.06681
9408.59,0.065405
9425.7,0.063657
9442.87,0.062134
9460.1,0.060428
9477.4,0.059069
9494.75,0.057327
9512.17,0.055824
9529.66,0.054134
9547.21,0.052846
9564.83,0.051326
9582.5,0.050002
9600.25,0.048491
9618.06,0.047251
9635.94,0.045771
9653.88,0.04457
9671.89,0.043104
9689.97,0.042018
9708.12,0.040745
9726.33,0.039681
9744.62,0.038367
9762.97,0.037335
9781.39,0.036003
9799.88,0.034966
9818.44,0.033853
9837.07,0.032886
9855.77,0.031586
9874.54,0.030468
9893.39,0.029222
9912.3,0.028465
9931.29,0.027336
9950.36,0.026397
9969.49,0.025273
9988.7,0.024451
10007.98,0.023403
10027.34,0.022661
10046.77,0.02159
10066.28,0.020696
10085.87,0.019665
10105.53,0.018936
10125.26,0.018038
10145.08,0.017275
10164.97,0.016334
10184.94,0.015756
10204.99,0.01492
10225.12,0.014353
10245.33,0.013425
10265.61,0.01274
10285.98,0.011856
10306.43,0.011278
10326.96,0.010511
10347.57,0.009974
10368.27,0.009231
10389.05,0.008736
10409.91,0.008125
10430.86,0.007724
10451.88,0.007143
10473.0,0.006844
10494.2,0.006294
10515.49,0.006063
10536.86,0.005536
10558.32,0.005417
10579.87,0.005212
10601.5,0.005062
10623.23,0.00475
10645.04,0.004874
10666.94,0.00479
10688.94,0.005103
10711.02,0.005271
10733.2,0.005727
10755.47,0.006026
10777.83,0.006639
10800.28,0.007208
10822.83,0.0082
10845.47,0.009107
10868.21,0.010394
10891.04,0.011521
10913.97,0.013027
10936.99,0.014559
10960.12,0.016506
10983.34,0.018413
11006.66,0.020782
11030.07,0.02302
11053.59,0.025621
11077.21,0.028319
11100.93,0.031384
11124.75,0.034332
11148.68,0.037685
11172.71,0.040901
11196.84,0.044507
11221.07,0.048138
11245.41,0.052102
11269.86,0.05581
11294.41,0.059814
11319.07,0.063699
11343.84,0.067797
11368.72,0.071787
11393.7,0.076141
11418.8,0.080087
11444.01,0.084041
11469.33,0.087956
11494.76,0.092291
11520.3,0.09619
11545.96,0.100026
11571.73,0.103559
11597.62,0.107158
11623.62,0.110429
11649.74,0.11371
11675.98,0.116522
11702.34,0.119389
11728.81,0.12181
11755.41,0.123963
11782.13,0.125605
11808.96,0.127134
11835.92,0.128143
11863.01,0.128885
11890.22,0.12913
11917.55,0.129096
11945.01,0.128647
11972.6,0.128213
12000.31,0.127369
12028.16,0.126579
12056.13,0.125403
12084.23,0.124157
12112.46,0.12272
12140.83,0.121461
12169.33,0.119802
12197.96,0.11829
12226.73,0.116716
12255.64,0.115322
12284.68,0.113934
12313.86,0.112956
12343.18,0.111583
12372.64,0.110376
12402.24,0.109292
12431.98,0.108519
12461.86,0.107537
12491.89,0.10694
12522.07,0.106442
12552.38,0.106256
12582.85,0.106019
12613.47,0.106114
12644.23,0.106203
12675.15,0.106526
12706.21,0.106701
12737.43,0.107135
12768.81,0.107392
12800.33,0.107974
12832.02,0.108439
12863.86,0.109015
12895.86,0.109532
12928.02,0.11035
12960.34,0.111012
12992.82,0.111792
13025.46,0.112303
13058.27,0.113024
13091.25,0.113814
13124.39,0.115042
13157.7,0.115912
13191.18,0.116998
13224.83,0.117944
13258.66,0.118981
13292.65,0.1198
13326.83,0.120597
13361.17,0.121344
13395.7,0.122259
13430.4,0.122907
13465.29,0.12369
13500.35,0.124056
13535.6,0.124618
13571.03,0.125156
13606.65,0.125784
13642.46,0.126228
13678.46,0.126712
13714.64,0.127033
13751.02,0.127513
13787.59,0.127636
13824.36,0.127677
13861.32,0.127509
13898.49,0.127623
13935.85,0.127517
13973.41,0.127202
14011.17,0.126613
14049.15,0.126154
14087.32,0.1255
14125.71,0.125041
14164.3,0.124429
14203.11,0.1238
14242.13,0.123015
14281.36,0.122636
14320.81,0.121851
14360.49,0.121299
14400.38,0.120754
14440.49,0.120242
14480.82,0.119305
14521.39,0.118633
14562.18,0.117637
14603.2,0.116423
14644.45,0.114793
14685.93,0.113349
14727.66,0.111895
14769.62,0.110601
14811.81,0.108869
14854.25,0.107033
14896.94,0.105028
14939.87,0.103158
14983.05,0.100933
15026.48,0.098662
15070.16,0.09642
15114.1,0.094571
15158.29,0.092657
15202.74,0.091064
15247.46,0.088879
15292.43,0.087134
15337.68,0.085602
15383.19,0.083945
15428.97,0.081821
15475.03,0.079893
15521.36,0.077403
15567.97,0.075159
15614.87,0.072884
15662.04,0.070534
15709.5,0.067972
15757.25,0.065824
15805.29,0.063681
15853.62,0.061789
15902.26,0.059886
15951.19,0.05852
16000.42,0.05684
16049.95,0.055642
16099.8,0.054614
16149.95,0.053922
16200.42,0.052798
16251.21,0.052354
16302.31,0.052023
16353.74,0.051975
16405.49,0.051893
16457.57,0.052219
16509.98,0.052563
16562.73,0.053753
16615.82,0.054578
16669.24,0.055322
16723.02,0.055985
16777.14,0.057344
16831.61,0.058232
16886.43,0.059555
16941.62,0.060977
16997.16,0.0626
17053.08,0.063779
17109.36,0.065646
17166.01,0.067497
17223.04,0.06977
17280.45,0.071866
17338.24,0.074254
17396.43,0.076298
17455.0,0.078459
17513.97,0.080288
17573.34,0.082546
17633.11,0.084031
17693.29,0.085651
17753.89,0.086697
17814.9,0.08756
17876.33,0.088288
17938.18,0.089391
18000.47,0.089878
18063.19,0.090626
18126.35,0.091355
18189.95,0.092648
18254.0,0.093621
18318.5,0.095181
18383.46,0.096695
18448.88,0.098829
18514.77,0.101006
18581.13,0.103262
18647.97,0.105173
18715.29,0.107497
18783.1,0.109308
18851.4,0.111183
18920.2,0.112621
18989.51,0.114452
19059.32,0.115685
19129.65,0.116513
19200.5,0.117441
19271.88,0.118465
19343.79,0.118295
19416.24,0.118669
19489.23,0.118837
19562.77,0.119051
19636.88,0.118663
19711.54,0.118665
19786.78,0.118513
19862.59,0.118239
19938.98,0.117874
20015.96,0.118078
20093.55,0.117686
20171.73,0.117277
20250.53,0.11671
20329.94,0.116512
20409.98,0.115759
20490.65,0.115385
20571.96,0.114922
20653.92,0.114841
20736.54,0.114441
20819.82,0.11445
20903.77,0.11254
20988.4,0.111149
21073.72,0.110176
21159.73,0.110019
21246.46,0.108579
21333.89,0.106736
21422.04,0.105555
21510.93,0.105309
21600.56,0.103899
21690.94,0.102195
21782.08,0.099991
21873.99,0.099408
21966.67,0.097704
22060.15,0.096904
22154.42,0.095755
22249.51,0.095002
22345.41,0.094238
22442.14,0.094461
22539.72,0.093043
22638.14,0.091925
22737.43,0.090993
22837.6,0.090934
22938.65,0.090313
23040.6,0.089731
23143.46,0.088574
23247.24,0.088079
23351.96,0.087022
23457.63,0.087112
23564.25,0.085852
23671.85,0.085443
23780.44,0.083852
23890.02,0.084054
24000.63,0.082252
24112.26,0.08167
24224.93,0.081782
24338.66,0.083573
24453.47,0.083129
24569.36,0.083476
24686.36,0.08037
24804.47,0.078813
24923.73,0.078025
25044.13,0.079245
25165.71,0.080528
25288.46,0.08024
25412.43,0.078607
25537.61,0.081781
25664.04,0.08247
25791.72,0.081814
25920.68,0.078096
