Database of Origin,University of Winnipeg Spectrophotometer Facility
Sample Description,RELAB plus Nicolet data. See HOSERLab website for further details
Date Added,2016-11-01 21:25:23.481720

Data ID,RLA_PER_08          
Sample ID,PER124
Mineral Name,perovskite
Grain Size,<45
Viewing Geometry,30/0;30
Resolution,5nm

Wavelength
300.0,0.066933
305.0,0.062585
310.0,0.062184
315.0,0.062503
320.0,0.064523
325.0,0.065587
330.0,0.067535
335.0,0.071085
340.0,0.07441
345.0,0.077787
350.0,0.081844
355.0,0.086135
360.0,0.091219
365.0,0.096038
370.0,0.101453
375.0,0.105386
380.0,0.109998
385.0,0.113778
390.0,0.116991
395.0,0.118876
400.0,0.121397
405.0,0.123318
410.0,0.123081
415.0,0.124749
420.0,0.125707
425.0,0.12592
430.0,0.126475
435.0,0.126582
440.0,0.127028
445.0,0.127569
450.0,0.127212
455.0,0.127521
460.0,0.127932
465.0,0.127971
470.0,0.12852
475.0,0.128871
480.0,0.129219
485.0,0.129688
490.0,0.130038
495.0,0.130268
500.0,0.130691
505.0,0.131163
510.0,0.131367
515.0,0.131796
520.0,0.132697
525.0,0.133704
530.0,0.134013
535.0,0.134671
540.0,0.135364
545.0,0.135926
550.0,0.136796
555.0,0.136798
560.0,0.137462
565.0,0.137907
570.0,0.138483
575.0,0.139061
580.0,0.139533
585.0,0.140283
590.0,0.141075
595.0,0.142045
600.0,0.143238
605.0,0.14434
610.0,0.145553
615.0,0.146752
620.0,0.147728
625.0,0.149026
630.0,0.150543
635.0,0.151856
640.0,0.152993
645.0,0.154396
650.0,0.155773
655.0,0.157142
660.0,0.158516
665.0,0.159891
670.0,0.161122
675.0,0.16246
680.0,0.16386
685.0,0.165071
690.0,0.166751
695.0,0.168184
700.0,0.169668
705.0,0.171376
710.0,0.172754
715.0,0.173809
720.0,0.175594
725.0,0.17719
730.0,0.178825
735.0,0.180344
740.0,0.181841
745.0,0.183301
750.0,0.185528
755.0,0.18758
760.0,0.189807
765.0,0.191912
770.0,0.193903
775.0,0.195961
780.0,0.198095
785.0,0.200466
790.0,0.202443
795.0,0.204442
800.0,0.206463
805.0,0.208224
810.0,0.210447
815.0,0.213269
820.0,0.216066
825.0,0.218657
830.0,0.220698
835.0,0.223149
840.0,0.225493
845.0,0.227739
850.0,0.230075
855.0,0.232406
860.0,0.23432
865.0,0.236318
870.0,0.23822
875.0,0.240385
880.0,0.243407
885.0,0.244614
890.0,0.247899
895.0,0.250721
900.0,0.252648
905.0,0.254842
910.0,0.256474
915.0,0.259526
920.0,0.262075
925.0,0.26484
930.0,0.267398
935.0,0.270131
940.0,0.273631
945.0,0.276113
950.0,0.278042
955.0,0.279751
960.0,0.283212
965.0,0.285654
970.0,0.288182
975.0,0.290827
980.0,0.293411
985.0,0.296156
990.0,0.298833
995.0,0.30066
1000.0,0.303725
1005.0,0.306364
1010.0,0.308557
1015.0,0.311089
1020.0,0.313812
1025.0,0.316092
1030.0,0.319292
1035.0,0.322005
1040.0,0.32337
1045.0,0.324746
1050.0,0.327757
1055.0,0.329523
1060.0,0.33301
1065.0,0.335256
1070.0,0.338136
1075.0,0.340599
1080.0,0.346635
1085.0,0.34719
1090.0,0.349714
1095.0,0.351048
1100.0,0.355998
1105.0,0.358246
1110.0,0.360552
1115.0,0.365808
1120.0,0.365896
1125.0,0.368047
1130.0,0.370739
1135.0,0.374222
1140.0,0.375747
1145.0,0.378133
1150.0,0.379696
1155.0,0.383571
1160.0,0.387356
1165.0,0.389025
1170.0,0.392387
1175.0,0.394738
1180.0,0.396713
1185.0,0.398264
1190.0,0.39984
1195.0,0.400869
1200.0,0.402248
1205.0,0.403232
1210.0,0.40433
1215.0,0.404959
1220.0,0.407534
1225.0,0.408402
1230.0,0.409538
1235.0,0.410163
1240.0,0.412079
1245.0,0.412782
1250.0,0.413701
1255.0,0.415017
1260.0,0.415593
1265.0,0.417356
1270.0,0.417401
1275.0,0.418965
1280.0,0.419638
1285.0,0.420641
1290.0,0.422202
1295.0,0.421284
1300.0,0.421355
1305.0,0.42158
1310.0,0.422521
1315.0,0.423053
1320.0,0.424269
1325.0,0.424616
1330.0,0.424706
1335.0,0.426221
1340.0,0.427328
1345.0,0.427223
1350.0,0.42765
1355.0,0.427721
1360.0,0.427256
1365.0,0.428362
1370.0,0.429076
1375.0,0.430348
1380.0,0.430205
1385.0,0.430622
1390.0,0.431445
1395.0,0.433582
1400.0,0.434669
1405.0,0.434958
1410.0,0.437454
1415.0,0.438389
1420.0,0.439856
1425.0,0.441384
1430.0,0.441377
1435.0,0.441444
1440.0,0.441572
1445.0,0.44361
1450.0,0.445539
1455.0,0.446531
1460.0,0.447344
1465.0,0.447471
1470.0,0.448982
1475.0,0.450699
1480.0,0.451027
1485.0,0.452992
1490.0,0.454617
1495.0,0.457512
1500.0,0.459414
1505.0,0.461165
1510.0,0.46314
1515.0,0.465255
1520.0,0.466377
1525.0,0.464691
1530.0,0.466095
1535.0,0.466502
1540.0,0.46749
1545.0,0.467363
1550.0,0.466688
1555.0,0.469208
1560.0,0.472074
1565.0,0.475267
1570.0,0.476205
1575.0,0.478464
1580.0,0.480881
1585.0,0.481588
1590.0,0.483121
1595.0,0.484847
1600.0,0.486369
1605.0,0.488506
1610.0,0.489434
1615.0,0.49258
1620.0,0.495645
1625.0,0.496131
1630.0,0.498375
1635.0,0.499694
1640.0,0.50185
1645.0,0.502282
1650.0,0.505199
1655.0,0.505702
1660.0,0.506764
1665.0,0.510211
1670.0,0.509728
1675.0,0.511211
1680.0,0.513224
1685.0,0.514764
1690.0,0.513895
1695.0,0.516461
1700.0,0.517735
1705.0,0.519854
1710.0,0.520078
1715.0,0.522195
1720.0,0.523116
1725.0,0.524417
1730.0,0.525025
1735.0,0.525967
1740.0,0.526763
1745.0,0.528141
1750.0,0.528907
1755.0,0.530201
1760.0,0.531117
1765.0,0.532261
1770.0,0.532862
1775.0,0.535111
1780.0,0.53542
1785.0,0.53571
1790.0,0.53641
1795.0,0.538078
1800.0,0.53804
1805.0,0.538614
1810.0,0.540113
1815.0,0.541105
1820.0,0.542038
1825.0,0.542733
1830.0,0.543429
1835.0,0.544116
1840.0,0.544781
1845.0,0.545084
1850.0,0.545599
1855.0,0.546054
1860.0,0.547028
1865.0,0.547621
1870.0,0.548205
1875.0,0.547416
1880.0,0.547981
1885.0,0.548764
1890.0,0.548442
1895.0,0.548901
1900.0,0.549206
1905.0,0.549626
1910.0,0.549448
1915.0,0.549993
1920.0,0.55052
1925.0,0.550568
1930.0,0.551192
1935.0,0.551377
1940.0,0.5514
1945.0,0.551712
1950.0,0.552371
1955.0,0.552785
1960.0,0.553598
1965.0,0.554611
1970.0,0.55553
1975.0,0.556306
1980.0,0.556751
1985.0,0.557774
1990.0,0.557755
1995.0,0.559383
2000.0,0.559886
2005.0,0.561348
2010.0,0.562717
2015.0,0.562767
2020.0,0.563236
2025.0,0.564485
2030.0,0.564779
2035.0,0.565618
2040.0,0.566442
2045.0,0.566936
2050.0,0.567707
2055.0,0.567618
2060.0,0.568539
2065.0,0.568929
2070.0,0.569702
2075.0,0.570642
2080.0,0.571337
2085.0,0.571562
2090.0,0.572633
2095.0,0.573377
2100.0,0.57448
2105.0,0.575067
2110.0,0.576195
2115.0,0.576931
2120.0,0.577862
2125.0,0.578284
2130.0,0.578821
2135.0,0.57953
2140.0,0.579577
2145.0,0.580092
2150.0,0.579833
2155.0,0.580491
2160.0,0.581053
2165.0,0.580845
2170.0,0.580566
2175.0,0.580761
2180.0,0.581043
2185.0,0.581484
2190.0,0.58192
2195.0,0.581761
2200.0,0.582163
2205.0,0.583047
2210.0,0.583551
2215.0,0.584096
2220.0,0.58463
2225.0,0.584893
2230.0,0.584913
2235.0,0.585934
2240.0,0.586512
2245.0,0.586803
2250.0,0.587247
2255.0,0.586768
2260.0,0.586549
2265.0,0.587019
2270.0,0.587943
2275.0,0.588642
2280.0,0.59
2285.0,0.589965
2290.0,0.590377
2295.0,0.59102
2300.0,0.591363
2305.0,0.591805
2310.0,0.59175
2315.0,0.591345
2320.0,0.591079
2325.0,0.592221
2330.0,0.591962
2335.0,0.591363
2340.0,0.591095
2345.0,0.59132
2350.0,0.591058
2355.0,0.590684
2360.0,0.590217
2365.0,0.590192
2370.0,0.589585
2375.0,0.590064
2380.0,0.590305
2385.0,0.58982
2390.0,0.588988
2395.0,0.588951
2400.0,0.589422
2405.0,0.588904
2410.0,0.589306
2415.0,0.588939
2420.0,0.590038
2425.0,0.590997
2430.0,0.592234
2435.0,0.592835
2440.0,0.594317
2445.0,0.594196
2450.0,0.594886
2455.0,0.594364
2460.0,0.594979
2465.0,0.594866
2470.0,0.595552
2475.0,0.59554
2480.0,0.595538
2485.0,0.596584
2490.0,0.596288
2495.0,0.59631
2500.0,0.596164
2502.0,0.596117
2503.2,0.59637
2504.41,0.596776
2505.62,0.596337
2506.83,0.596219
2508.05,0.59648
2509.26,0.596695
2510.48,0.596518
2511.69,0.597084
2512.91,0.597472
2514.13,0.597619
2515.35,0.597459
2516.57,0.597982
2517.79,0.598725
2519.02,0.599172
2520.24,0.598885
2521.47,0.598366
2522.69,0.598666
2523.92,0.598581
2525.15,0.598527
2526.38,0.598092
2527.61,0.597885
2528.85,0.597801
2530.08,0.597695
2531.32,0.597687
2532.55,0.59721
2533.79,0.596961
2535.03,0.59621
2536.27,0.595501
2537.51,0.595611
2538.75,0.59578
2540.0,0.596404
2541.24,0.597062
2542.49,0.597257
2543.74,0.597645
2544.99,0.598446
2546.24,0.59924
2547.49,0.599733
2548.74,0.60051
2549.99,0.600628
2551.25,0.600881
2552.5,0.601522
2553.76,0.602024
2555.02,0.603278
2556.28,0.603649
2557.54,0.603784
2558.8,0.604121
2560.07,0.604269
2561.33,0.604628
2562.6,0.605396
2563.86,0.606121
2565.13,0.606383
2566.4,0.606704
2567.67,0.60732
2568.95,0.607214
2570.22,0.607067
2571.5,0.608294
2572.77,0.608953
2574.05,0.608206
2575.33,0.6091
2576.61,0.609628
2577.89,0.609121
2579.17,0.609729
2580.46,0.610729
2581.74,0.61059
2583.03,0.61064
2584.31,0.610079
2585.6,0.610628
2586.89,0.611535
2588.19,0.611446
2589.48,0.612134
2590.77,0.61305
2592.07,0.613231
2593.36,0.612885
2594.66,0.611628
2595.96,0.611737
2597.26,0.614813
2598.56,0.615286
2599.87,0.614442
2601.17,0.613742
2602.48,0.61399
2603.78,0.614552
2605.09,0.614299
2606.4,0.614303
2607.71,0.615775
2609.03,0.616189
2610.34,0.615691
2611.66,0.615716
2612.97,0.616168
2614.29,0.616438
2615.61,0.61648
2616.93,0.615944
2618.25,0.616336
2619.57,0.617446
2620.9,0.617134
2622.22,0.617771
2623.55,0.619184
2624.88,0.61883
2626.21,0.618003
2627.54,0.617775
2628.87,0.618927
2630.21,0.619037
2631.54,0.61902
2632.88,0.620298
2634.21,0.620552
2635.55,0.620332
2636.89,0.620265
2638.24,0.619779
2639.58,0.619948
2640.92,0.620501
2642.27,0.620332
2643.62,0.620341
2644.97,0.62075
2646.32,0.620876
2647.67,0.620935
2649.02,0.621071
2650.38,0.620898
2651.73,0.620935
2653.09,0.620906
2654.45,0.621033
2655.81,0.621079
2657.17,0.621189
2658.53,0.621189
2659.89,0.62099
2661.26,0.620923
2662.63,0.62126
2664.0,0.621446
2665.36,0.62059
2666.74,0.619927
2668.11,0.620973
2669.48,0.621792
2670.86,0.620568
2672.23,0.620885
2673.61,0.622627
2674.99,0.62194
2676.37,0.620784
2677.76,0.620096
2679.14,0.620024
2680.52,0.620328
2681.91,0.620206
2683.3,0.619189
2684.69,0.618311
2686.08,0.618239
2687.47,0.617801
2688.87,0.617197
2690.26,0.617079
2691.66,0.616682
2693.06,0.615893
2694.46,0.615248
2695.86,0.615442
2697.26,0.615737
2698.66,0.615569
2700.07,0.614501
2701.48,0.613408
2702.89,0.61245
2704.3,0.612054
2705.71,0.6111
2707.12,0.610054
2708.53,0.60832
2709.95,0.606189
2711.37,0.603885
2712.79,0.602535
2714.21,0.601902
2715.63,0.600033
2717.05,0.598096
2718.48,0.596864
2719.9,0.595552
2721.33,0.593919
2722.76,0.593763
2724.19,0.593143
2725.62,0.591657
2727.06,0.591759
2728.49,0.591105
2729.93,0.589881
2731.37,0.588544
2732.81,0.587388
2734.25,0.586307
2735.69,0.584826
2737.14,0.584012
2738.58,0.582822
2740.03,0.580696
2741.48,0.579767
2742.93,0.579071
2744.38,0.577683
2745.83,0.576004
2747.29,0.574654
2748.75,0.572932
2750.2,0.571071
2751.66,0.569544
2753.13,0.567755
2754.59,0.565869
2756.05,0.56397
2757.52,0.563417
2758.99,0.562696
2760.46,0.560806
2761.93,0.558582
2763.4,0.55632
2764.87,0.555278
2766.35,0.553806
2767.82,0.55219
2769.3,0.550122
2770.78,0.548266
2772.26,0.546633
2773.75,0.545426
2775.23,0.544
2776.72,0.541992
2778.21,0.540059
2779.7,0.538734
2781.19,0.537152
2782.68,0.535511
2784.18,0.533625
2785.67,0.531966
2787.17,0.530064
2788.67,0.528388
2790.17,0.52676
2791.67,0.524962
2793.18,0.522882
2794.68,0.521064
2796.19,0.519481
2797.7,0.518106
2799.21,0.516473
2800.72,0.51468
2802.24,0.51311
2803.75,0.511009
2805.27,0.509469
2806.79,0.5083
2808.31,0.506123
2809.83,0.504292
2811.35,0.502823
2812.88,0.500448
2814.41,0.498072
2815.93,0.495832
2817.46,0.493334
2819.0,0.490499
2820.53,0.487672
2822.07,0.48506
2823.6,0.481777
2825.14,0.477668
2826.68,0.473031
2828.22,0.468773
2829.77,0.464077
2831.31,0.459069
2832.86,0.453989
2834.41,0.448951
2835.96,0.444111
2837.51,0.4399
2839.07,0.436339
2840.62,0.433107
2842.18,0.430137
2843.74,0.427495
2845.3,0.425799
2846.86,0.424647
2848.43,0.424031
2849.99,0.424082
2851.56,0.424521
2853.13,0.425036
2854.7,0.425538
2856.27,0.426605
2857.85,0.427352
2859.42,0.427761
2861.0,0.427803
2862.58,0.42747
2864.16,0.42723
2865.75,0.426837
2867.33,0.42596
2868.92,0.424791
2870.51,0.423761
2872.1,0.422837
2873.69,0.422175
2875.28,0.421618
2876.88,0.420778
2878.48,0.419783
2880.07,0.419188
2881.68,0.418808
2883.28,0.418555
2884.88,0.418491
2886.49,0.418293
2888.1,0.417766
2889.71,0.417314
2891.32,0.416918
2892.93,0.416432
2894.55,0.415791
2896.16,0.415348
2897.78,0.414829
2899.4,0.413863
2901.03,0.412922
2902.65,0.412108
2904.28,0.411306
2905.91,0.41007
2907.54,0.408918
2909.17,0.408103
2910.8,0.406854
2912.44,0.405728
2914.07,0.404492
2915.71,0.402724
2917.35,0.401521
2918.99,0.400635
2920.64,0.399276
2922.29,0.397922
2923.93,0.396534
2925.58,0.395551
2927.24,0.394302
2928.89,0.393171
2930.55,0.392196
2932.2,0.391293
2933.86,0.390264
2935.52,0.389129
2937.19,0.388323
2938.85,0.387319
2940.52,0.386547
2942.19,0.386036
2943.86,0.385306
2945.53,0.384644
2947.21,0.384104
2948.88,0.383585
2950.56,0.383471
2952.24,0.383386
2953.92,0.3831
2955.61,0.382792
2957.29,0.382998
2958.98,0.383492
2960.67,0.383876
2962.36,0.384374
2964.06,0.385036
2965.75,0.385745
2967.45,0.386952
2969.15,0.388057
2970.85,0.388943
2972.55,0.389939
2974.26,0.391454
2975.97,0.3928
2977.68,0.393749
2979.39,0.394981
2981.1,0.396319
2982.82,0.397973
2984.53,0.399825
2986.25,0.40153
2987.97,0.402897
2989.7,0.404171
2991.42,0.405665
2993.15,0.40753
2994.88,0.408951
2996.61,0.410766
2998.34,0.412314
3000.08,0.413981
3001.82,0.41558
3003.55,0.417179
3005.3,0.418909
3007.04,0.420546
3008.78,0.421964
3010.53,0.423534
3012.28,0.425209
3014.03,0.426622
3015.79,0.427846
3017.54,0.429031
3019.3,0.430597
3021.06,0.432255
3022.82,0.433554
3024.58,0.434639
3026.35,0.436141
3028.12,0.437343
3029.89,0.438538
3031.66,0.439529
3033.43,0.440677
3035.21,0.441926
3036.99,0.443183
3038.77,0.444415
3040.55,0.445622
3042.33,0.446626
3044.12,0.447596
3045.91,0.448672
3047.7,0.449672
3049.49,0.450723
3051.29,0.45166
3053.08,0.452406
3054.88,0.453369
3056.68,0.454339
3058.49,0.454993
3060.29,0.455828
3062.1,0.456672
3063.91,0.457634
3065.72,0.458605
3067.54,0.459482
3069.35,0.460254
3071.17,0.461018
3072.99,0.461588
3074.81,0.462271
3076.64,0.462951
3078.47,0.463554
3080.29,0.464402
3082.13,0.465368
3083.96,0.465837
3085.79,0.466368
3087.63,0.467102
3089.47,0.467917
3091.31,0.468567
3093.16,0.468875
3095.01,0.469073
3096.85,0.469938
3098.71,0.470849
3100.56,0.471364
3102.41,0.471828
3104.27,0.472385
3106.13,0.472803
3107.99,0.473393
3109.86,0.47395
3111.73,0.474453
3113.59,0.475187
3115.47,0.475811
3117.34,0.476343
3119.21,0.476799
3121.09,0.477347
3122.97,0.477841
3124.86,0.478419
3126.74,0.478959
3128.63,0.479452
3130.52,0.480182
3132.41,0.480566
3134.3,0.48082
3136.2,0.481296
3138.1,0.481917
3140.0,0.482182
3141.9,0.482436
3143.81,0.482967
3145.71,0.48363
3147.62,0.484233
3149.54,0.484832
3151.45,0.485301
3153.37,0.485672
3155.29,0.486026
3157.21,0.486288
3159.13,0.486592
3161.06,0.487254
3162.99,0.487857
3164.92,0.488127
3166.85,0.488499
3168.79,0.489047
3170.72,0.489537
3172.67,0.489938
3174.61,0.490385
3176.55,0.490891
3178.5,0.491199
3180.45,0.491718
3182.4,0.492271
3184.36,0.492634
3186.32,0.492975
3188.27,0.493397
3190.24,0.493697
3192.2,0.494165
3194.17,0.494549
3196.14,0.494731
3198.11,0.495018
3200.08,0.49541
3202.06,0.49587
3204.04,0.496178
3206.02,0.496465
3208.0,0.496819
3209.99,0.497043
3211.98,0.497296
3213.97,0.497718
3215.96,0.498245
3217.96,0.498435
3219.96,0.498591
3221.96,0.499132
3223.96,0.499499
3225.97,0.499878
3227.98,0.500127
3229.99,0.500418
3232.0,0.500688
3234.02,0.501182
3236.04,0.50141
3238.06,0.501672
3240.08,0.50195
3242.11,0.502266
3244.14,0.502646
3246.17,0.502845
3248.2,0.50303
3250.24,0.503469
3252.28,0.503802
3254.32,0.503895
3256.37,0.504123
3258.41,0.504309
3260.46,0.504296
3262.51,0.504646
3264.57,0.505325
3266.63,0.505693
3268.69,0.505992
3270.75,0.506064
3272.81,0.506275
3274.88,0.506671
3276.95,0.506735
3279.02,0.506811
3281.1,0.507271
3283.18,0.507604
3285.26,0.507558
3287.34,0.507566
3289.43,0.507693
3291.51,0.508022
3293.61,0.508157
3295.7,0.50825
3297.8,0.508642
3299.9,0.508806
3302.0,0.508916
3304.1,0.509115
3306.21,0.509228
3308.32,0.509401
3310.43,0.509477
3312.55,0.509726
3314.66,0.509781
3316.79,0.509655
3318.91,0.509266
3321.03,0.509144
3323.16,0.509296
3325.29,0.509435
3327.43,0.509241
3329.57,0.509001
3331.71,0.508532
3333.85,0.50795
3335.99,0.507157
3338.14,0.506237
3340.29,0.505102
3342.45,0.503165
3344.6,0.501169
3346.76,0.499022
3348.92,0.496895
3351.09,0.49506
3353.26,0.49352
3355.43,0.492419
3357.6,0.492018
3359.78,0.492199
3361.96,0.492469
3364.14,0.492642
3366.32,0.492857
3368.51,0.493094
3370.7,0.493165
3372.89,0.493001
3375.09,0.49303
3377.29,0.493153
3379.49,0.493351
3381.69,0.493798
3383.9,0.494233
3386.11,0.494596
3388.32,0.494878
3390.54,0.495279
3392.76,0.495549
3394.98,0.495579
3397.21,0.495368
3399.43,0.495056
3401.66,0.495001
3403.9,0.494566
3406.13,0.493878
3408.37,0.493376
3410.61,0.493039
3412.86,0.49276
3415.11,0.492625
3417.36,0.49287
3419.61,0.493338
3421.87,0.493874
3424.13,0.494642
3426.39,0.495516
3428.66,0.496347
3430.93,0.497018
3433.2,0.497465
3435.48,0.498119
3437.76,0.498904
3440.04,0.499258
3442.32,0.499596
3444.61,0.499828
3446.9,0.499959
3449.19,0.50011
3451.49,0.500237
3453.79,0.500077
3456.09,0.500085
3458.4,0.499937
3460.7,0.499579
3463.02,0.499005
3465.33,0.49814
3467.65,0.496904
3469.97,0.495043
3472.29,0.492718
3474.62,0.490499
3476.95,0.488798
3479.29,0.487229
3481.62,0.486313
3483.96,0.486473
3486.3,0.486938
3488.65,0.48749
3491.0,0.488102
3493.35,0.488832
3495.71,0.489503
3498.07,0.490199
3500.43,0.490891
3502.79,0.491836
3505.16,0.493051
3507.53,0.494267
3509.91,0.495583
3512.29,0.497022
3514.67,0.498452
3517.05,0.499912
3519.44,0.501401
3521.83,0.502828
3524.23,0.50452
3526.62,0.506507
3529.02,0.508376
3531.43,0.509908
3533.83,0.511397
3536.24,0.51265
3538.66,0.513519
3541.08,0.514237
3543.5,0.514819
3545.92,0.515346
3548.35,0.515789
3550.78,0.516211
3553.21,0.516359
3555.65,0.5166
3558.09,0.516878
3560.53,0.516979
3562.98,0.517144
3565.43,0.517372
3567.88,0.517401
3570.34,0.517325
3572.8,0.517266
3575.27,0.517279
3577.73,0.517549
3580.2,0.517764
3582.68,0.517722
3585.16,0.517646
3587.64,0.517815
3590.12,0.517861
3592.61,0.51787
3595.1,0.517975
3597.6,0.517903
3600.09,0.51792
3602.6,0.517946
3605.1,0.517739
3607.61,0.517545
3610.12,0.51741
3612.64,0.517363
3615.16,0.517359
3617.68,0.517308
3620.21,0.517051
3622.74,0.51673
3625.27,0.51649
3627.81,0.516384
3630.35,0.516152
3632.89,0.515891
3635.44,0.515925
3637.99,0.51565
3640.54,0.515414
3643.1,0.515389
3645.66,0.515283
3648.23,0.515026
3650.8,0.514861
3653.37,0.514566
3655.95,0.514342
3658.53,0.514304
3661.11,0.514131
3663.7,0.513836
3666.29,0.513604
3668.89,0.513249
3671.48,0.51284
3674.09,0.5126
3676.69,0.51238
3679.3,0.512144
3681.91,0.511739
3684.53,0.511452
3687.15,0.51119
3689.78,0.510887
3692.4,0.510427
3695.04,0.510072
3697.67,0.509861
3700.31,0.509638
3702.95,0.509368
3705.6,0.509102
3708.25,0.508718
3710.91,0.508287
3713.56,0.507975
3716.23,0.507629
3718.89,0.507304
3721.56,0.506874
3724.23,0.506389
3726.91,0.506199
3729.59,0.506005
3732.28,0.505579
3734.97,0.505161
3737.66,0.504866
3740.36,0.5046
3743.06,0.504136
3745.76,0.503574
3748.47,0.503241
3751.18,0.502769
3753.9,0.502338
3756.62,0.502077
3759.34,0.501769
3762.07,0.501364
3764.8,0.50111
3767.54,0.500688
3770.28,0.500203
3773.02,0.499836
3775.77,0.499507
3778.52,0.499191
3781.28,0.498781
3784.04,0.498224
3786.8,0.49779
3789.57,0.497355
3792.34,0.496731
3795.12,0.496115
3797.9,0.495355
3800.69,0.494511
3803.47,0.493608
3806.27,0.492503
3809.06,0.491537
3811.86,0.49052
3814.67,0.489638
3817.48,0.488807
3820.29,0.487773
3823.11,0.486659
3825.93,0.485558
3828.76,0.484402
3831.59,0.483376
3834.42,0.482385
3837.26,0.48114
3840.1,0.480077
3842.95,0.479208
3845.8,0.478225
3848.65,0.477482
3851.51,0.476849
3854.38,0.476284
3857.24,0.475832
3860.12,0.475212
3862.99,0.474626
3865.87,0.474356
3868.76,0.474035
3871.65,0.473777
3874.54,0.473457
3877.44,0.473043
3880.34,0.472731
3883.25,0.472524
3886.16,0.47209
3889.07,0.471731
3891.99,0.471567
3894.92,0.471309
3897.85,0.470967
3900.78,0.470811
3903.72,0.470605
3906.66,0.470056
3909.6,0.469642
3912.55,0.469322
3915.51,0.4689
3918.47,0.468415
3921.43,0.467913
3924.4,0.467499
3927.38,0.466887
3930.35,0.466132
3933.33,0.465377
3936.32,0.464702
3939.31,0.46401
3942.31,0.462875
3945.31,0.460951
3948.31,0.45847
3951.32,0.455605
3954.34,0.452807
3957.35,0.450086
3960.38,0.44744
3963.41,0.444959
3966.44,0.442816
3969.48,0.440976
3972.52,0.43944
3975.56,0.43839
3978.61,0.437445
3981.67,0.436757
3984.73,0.436339
3987.8,0.436327
3990.87,0.437158
3993.94,0.438651
3997.02,0.440571
4000.1,0.443132
4003.19,0.445993
4006.29,0.449023
4009.39,0.452234
4012.49,0.45563
4015.6,0.45893
4018.71,0.461807
4021.83,0.464077
4024.95,0.465824
4028.08,0.467064
4031.21,0.468115
4034.35,0.469191
4037.49,0.470229
4040.64,0.471199
4043.79,0.47206
4046.94,0.472828
4050.11,0.473579
4053.27,0.474318
4056.44,0.474837
4059.62,0.47525
4062.8,0.475491
4065.99,0.475786
4069.18,0.476018
4072.38,0.476212
4075.58,0.47625
4078.78,0.476322
4082.0,0.476461
4085.21,0.476571
4088.43,0.4766
4091.66,0.476528
4094.89,0.476571
4098.13,0.476659
4101.37,0.47655
4104.62,0.476474
4107.87,0.476528
4111.13,0.476558
4114.39,0.476512
4117.66,0.476381
4120.93,0.476322
4124.21,0.476284
4127.5,0.47625
4130.79,0.476166
4134.08,0.475984
4137.38,0.475811
4140.68,0.475815
4143.99,0.475946
4147.31,0.475938
4150.63,0.475739
4153.95,0.475541
4157.29,0.47563
4160.62,0.475718
4163.96,0.475579
4167.31,0.475423
4170.66,0.475309
4174.02,0.475288
4177.39,0.475364
4180.75,0.475318
4184.13,0.475233
4187.51,0.475064
4190.89,0.474925
4194.28,0.474811
4197.68,0.474773
4201.08,0.474689
4204.49,0.474512
4207.9,0.474571
4211.32,0.474558
4214.74,0.474436
4218.17,0.474309
4221.61,0.474334
4225.05,0.474364
4228.5,0.474339
4231.95,0.474393
4235.4,0.47441
4238.87,0.474431
4242.34,0.474292
4245.81,0.47436
4249.29,0.474415
4252.78,0.47428
4256.27,0.474005
4259.77,0.473765
4263.27,0.473664
4266.78,0.473807
4270.29,0.473815
4273.81,0.473929
4277.34,0.474102
4280.87,0.47406
4284.41,0.474145
4287.95,0.474301
4291.5,0.474237
4295.06,0.474233
4298.62,0.474334
4302.19,0.474427
4305.76,0.474431
4309.34,0.474453
4312.92,0.474634
4316.52,0.474735
4320.11,0.474782
4323.72,0.474891
4327.32,0.475149
4330.94,0.475334
4334.56,0.475528
4338.19,0.475739
4341.82,0.475862
4345.46,0.476119
4349.11,0.476326
4352.76,0.47668
4356.42,0.4769
4360.08,0.477026
4363.75,0.477208
4367.43,0.477503
4371.11,0.477588
4374.8,0.477811
4378.49,0.478094
4382.19,0.478339
4385.9,0.478592
4389.61,0.478853
4393.33,0.478955
4397.06,0.479047
4400.79,0.479212
4404.53,0.479402
4408.28,0.479609
4412.03,0.479849
4415.79,0.4799
4419.55,0.479942
4423.32,0.480022
4427.1,0.480216
4430.88,0.480343
4434.68,0.480406
4438.47,0.480414
4442.28,0.480457
4446.08,0.480659
4449.9,0.48095
4453.72,0.481009
4457.55,0.481195
4461.39,0.481322
4465.23,0.481457
4469.08,0.481461
4472.94,0.4816
4476.8,0.481731
4480.67,0.481693
4484.55,0.481587
4488.43,0.481718
4492.32,0.4819
4496.21,0.482022
4500.12,0.482039
4504.03,0.482018
4507.94,0.482035
4511.87,0.482094
4515.8,0.482216
4519.73,0.482343
4523.68,0.48241
4527.63,0.482562
4531.59,0.482744
4535.55,0.482828
4539.52,0.482811
4543.5,0.482845
4547.49,0.483005
4551.48,0.483052
4555.48,0.483111
4559.49,0.483225
4563.5,0.483199
4567.52,0.483199
4571.55,0.483128
4575.58,0.482849
4579.63,0.482773
4583.67,0.482701
4587.73,0.482503
4591.79,0.482237
4595.86,0.482077
4599.94,0.481811
4604.03,0.481512
4608.12,0.481153
4612.22,0.480617
4616.33,0.480047
4620.44,0.479368
4624.56,0.47871
4628.69,0.478043
4632.83,0.477385
4636.97,0.476516
4641.12,0.475655
4645.28,0.474626
4649.45,0.473516
4653.62,0.472469
4657.8,0.471482
4661.99,0.470444
4666.19,0.469503
4670.39,0.468731
4674.6,0.468094
4678.82,0.467495
4683.05,0.467077
4687.28,0.46655
4691.52,0.466204
4695.77,0.466208
4700.03,0.466292
4704.3,0.466423
4708.57,0.466917
4712.85,0.467571
4717.14,0.468436
4721.43,0.469326
4725.74,0.470394
4730.05,0.471697
4734.37,0.473069
4738.7,0.474583
4743.03,0.476296
4747.38,0.478026
4751.73,0.479811
4756.09,0.481533
4760.45,0.483338
4764.83,0.485178
4769.21,0.487009
4773.6,0.488824
4778.0,0.4906
4782.41,0.49233
4786.83,0.493916
4791.25,0.495478
4795.68,0.496853
4800.13,0.498056
4804.57,0.499262
4809.03,0.500469
4813.5,0.501545
4817.97,0.502629
4822.45,0.503794
4826.94,0.504663
4831.44,0.505562
4835.95,0.506427
4840.46,0.507254
4844.99,0.508178
4849.52,0.50919
4854.06,0.510195
4858.61,0.511068
4863.17,0.51195
4867.73,0.512941
4872.31,0.513836
4876.89,0.514532
4881.48,0.515186
4886.08,0.515777
4890.69,0.516405
4895.31,0.517051
4899.94,0.517587
4904.57,0.518127
4909.22,0.518739
4913.87,0.519254
4918.53,0.519621
4923.21,0.520165
4927.88,0.520587
4932.57,0.520832
4937.27,0.521043
4941.98,0.521338
4946.69,0.521574
4951.42,0.52176
4956.15,0.521815
4960.9,0.521945
4965.65,0.521971
4970.41,0.522064
4975.18,0.522313
4979.96,0.52257
4984.75,0.522823
4989.54,0.523216
4994.35,0.523621
4999.17,0.524009
5003.99,0.524363
5008.83,0.524899
5013.67,0.525194
5018.52,0.525435
5023.39,0.525751
5028.26,0.526215
5033.14,0.526718
5038.03,0.527228
5042.93,0.527637
5047.84,0.528102
5052.76,0.528557
5057.69,0.528945
5062.63,0.529177
5067.58,0.529595
5072.54,0.529979
5077.51,0.530329
5082.49,0.530591
5087.47,0.530899
5092.47,0.530937
5097.48,0.53076
5102.5,0.530528
5107.52,0.53073
5112.56,0.531464
5117.61,0.532249
5122.66,0.532869
5127.73,0.533283
5132.81,0.533414
5137.89,0.533646
5142.99,0.533907
5148.1,0.534203
5153.22,0.534511
5158.34,0.534793
5163.48,0.535051
5168.63,0.535182
5173.79,0.535245
5178.96,0.535414
5184.13,0.535342
5189.32,0.535203
5194.52,0.535165
5199.73,0.535009
5204.96,0.534844
5210.19,0.534768
5215.43,0.534549
5220.68,0.534557
5225.94,0.534422
5231.22,0.53422
5236.5,0.534101
5241.79,0.534101
5247.1,0.533975
5252.42,0.533802
5257.74,0.533679
5263.08,0.533582
5268.43,0.533511
5273.79,0.53349
5279.16,0.533376
5284.54,0.533287
5289.93,0.533207
5295.34,0.533207
5300.75,0.533232
5306.18,0.533329
5311.61,0.533397
5317.06,0.533367
5322.52,0.5333
5327.99,0.533287
5333.47,0.533258
5338.96,0.533228
5344.47,0.533101
5349.98,0.532916
5355.51,0.532599
5361.05,0.532456
5366.6,0.532283
5372.16,0.532114
5377.73,0.531865
5383.32,0.53168
5388.91,0.531519
5394.52,0.53146
5400.14,0.531274
5405.77,0.531101
5411.41,0.530886
5417.07,0.530701
5422.74,0.530376
5428.41,0.530215
5434.1,0.529912
5439.81,0.529667
5445.52,0.529435
5451.25,0.529334
5456.98,0.529047
5462.73,0.528663
5468.5,0.528291
5474.27,0.528017
5480.06,0.527435
5485.86,0.526967
5491.67,0.526308
5497.49,0.525621
5503.33,0.52473
5509.18,0.523692
5515.04,0.522262
5520.91,0.520616
5526.8,0.518435
5532.69,0.515355
5538.61,0.51087
5544.53,0.504376
5550.47,0.494608
5556.41,0.481427
5562.38,0.467681
5568.35,0.45874
5574.34,0.455415
5580.34,0.454487
5586.35,0.457276
5592.38,0.466891
5598.42,0.48044
5604.47,0.492326
5610.54,0.500811
5616.61,0.506114
5622.71,0.509541
5628.81,0.511773
5634.93,0.513178
5641.06,0.513996
5647.21,0.514684
5653.36,0.515055
5659.54,0.51487
5665.72,0.514511
5671.92,0.51392
5678.13,0.513443
5684.36,0.512827
5690.6,0.512106
5696.85,0.511444
5703.12,0.510979
5709.4,0.510347
5715.69,0.509642
5722.0,0.508861
5728.33,0.508258
5734.66,0.507482
5741.01,0.506912
5747.38,0.506131
5753.76,0.505435
5760.15,0.504672
5766.56,0.503861
5772.98,0.503064
5779.41,0.502541
5785.86,0.502102
5792.33,0.501524
5798.81,0.501072
5805.3,0.500655
5811.81,0.500182
5818.33,0.499718
5824.87,0.499207
5831.42,0.498836
5837.99,0.498288
5844.57,0.4976
5851.17,0.496807
5857.78,0.49625
5864.41,0.495343
5871.05,0.494583
5877.7,0.493562
5884.38,0.49249
5891.06,0.491208
5897.76,0.490296
5904.48,0.48922
5911.21,0.487967
5917.96,0.486659
5924.73,0.485187
5931.5,0.483803
5938.3,0.482414
5945.11,0.480735
5951.93,0.479275
5958.78,0.477832
5965.63,0.476216
5972.51,0.4746
5979.39,0.472896
5986.3,0.471427
5993.22,0.470069
6000.16,0.468664
6007.11,0.467583
6014.08,0.466394
6021.06,0.465305
6028.06,0.464115
6035.08,0.463027
6042.12,0.461866
6049.17,0.460837
6056.23,0.459727
6063.32,0.458622
6070.42,0.457529
6077.53,0.456347
6084.67,0.45512
6091.82,0.454052
6098.98,0.452828
6106.17,0.451668
6113.37,0.450369
6120.58,0.449035
6127.82,0.447512
6135.07,0.446208
6142.34,0.444702
6149.63,0.443314
6156.93,0.441871
6164.25,0.440487
6171.59,0.439103
6178.95,0.437803
6186.32,0.436432
6193.71,0.435073
6201.12,0.433757
6208.54,0.432588
6215.99,0.431154
6223.45,0.429652
6230.93,0.428103
6238.43,0.426867
6245.95,0.425609
6253.48,0.424474
6261.03,0.42315
6268.6,0.421896
6276.19,0.42055
6283.8,0.419238
6291.43,0.417715
6299.07,0.416276
6306.73,0.415255
6314.42,0.414968
6322.12,0.414918
6329.84,0.414905
6337.57,0.415015
6345.33,0.415555
6353.11,0.416044
6360.9,0.416179
6368.72,0.416023
6376.55,0.415588
6384.4,0.414888
6392.27,0.414044
6400.17,0.412913
6408.08,0.411724
6416.01,0.410373
6423.96,0.40847
6431.93,0.406344
6439.92,0.404281
6447.93,0.401471
6455.96,0.398344
6464.01,0.394407
6472.08,0.390243
6480.17,0.385538
6488.28,0.380855
6496.41,0.375876
6504.56,0.37045
6512.73,0.365079
6520.92,0.360332
6529.14,0.354961
6537.37,0.349687
6545.63,0.344531
6553.9,0.339345
6562.2,0.333898
6570.51,0.328729
6578.85,0.32343
6587.21,0.317885
6595.59,0.312712
6603.99,0.307599
6612.42,0.302451
6620.86,0.297713
6629.33,0.292856
6637.82,0.288447
6646.33,0.28373
6654.86,0.279439
6663.41,0.275586
6671.99,0.271886
6680.59,0.268236
6689.21,0.264886
6697.85,0.261477
6706.51,0.258578
6715.2,0.255616
6723.91,0.252823
6732.64,0.250135
6741.4,0.247697
6750.18,0.245296
6758.98,0.243102
6767.8,0.240832
6776.65,0.238815
6785.52,0.236735
6794.41,0.234853
6803.33,0.232735
6812.27,0.231001
6821.23,0.229444
6830.22,0.228026
6839.23,0.22652
6848.26,0.225241
6857.32,0.224018
6866.4,0.223022
6875.51,0.221731
6884.64,0.220697
6893.8,0.21984
6902.98,0.219203
6912.18,0.218608
6921.41,0.218144
6930.66,0.217828
6939.94,0.217756
6949.24,0.217634
6958.57,0.217655
6967.92,0.217705
6977.3,0.217883
6986.7,0.218174
6996.13,0.218651
7005.59,0.219203
7015.07,0.220111
7024.57,0.221208
7034.1,0.222435
7043.66,0.22368
7053.25,0.225254
7062.85,0.227051
7072.49,0.229191
7082.15,0.231469
7091.84,0.234152
7101.55,0.237127
7111.3,0.240262
7121.06,0.243089
7130.86,0.245494
7140.68,0.247452
7150.53,0.249524
7160.41,0.251924
7170.31,0.254903
7180.24,0.258507
7190.2,0.262325
7200.19,0.266266
7210.2,0.270304
7220.24,0.274122
7230.31,0.277658
7240.41,0.281029
7250.54,0.284219
7260.69,0.287046
7270.88,0.289683
7281.09,0.292152
7291.33,0.294468
7301.6,0.296835
7311.9,0.299291
7322.22,0.301767
7332.58,0.303991
7342.97,0.306177
7353.38,0.30813
7363.83,0.309818
7374.3,0.311286
7384.81,0.312561
7395.34,0.31367
7405.91,0.314556
7416.5,0.315286
7427.13,0.315982
7437.78,0.316674
7448.47,0.31735
7459.19,0.317949
7469.94,0.318531
7480.71,0.319054
7491.52,0.319522
7502.37,0.319949
7513.24,0.320219
7524.14,0.320539
7535.08,0.32089
7546.05,0.321155
7557.05,0.32148
7568.08,0.321839
7579.15,0.322138
7590.24,0.32251
7601.37,0.32294
7612.53,0.323446
7623.73,0.324092
7634.96,0.324767
7646.22,0.325493
7657.51,0.326299
7668.84,0.327147
7680.2,0.327999
7691.59,0.328889
7703.02,0.32964
7714.49,0.330332
7725.98,0.330919
7737.52,0.331429
7749.08,0.33183
7760.68,0.332071
7772.32,0.332223
7783.99,0.33221
7795.69,0.332273
7807.43,0.332256
7819.21,0.332202
7831.02,0.332273
7842.87,0.332421
7854.75,0.33251
7866.67,0.332463
7878.62,0.332396
7890.62,0.332282
7902.64,0.332088
7914.71,0.331784
7926.81,0.331256
7938.95,0.330666
7951.13,0.330088
7963.34,0.329446
7975.59,0.328683
7987.88,0.327864
8000.21,0.3271
8012.57,0.326379
8024.98,0.325501
8037.42,0.324484
8049.9,0.323501
8062.42,0.322531
8074.98,0.321514
8087.57,0.320565
8100.21,0.319797
8112.89,0.31905
8125.6,0.318265
8138.36,0.317493
8151.16,0.316645
8163.99,0.315771
8176.87,0.31486
8189.79,0.313978
8202.75,0.313118
8215.75,0.312185
8228.79,0.311193
8241.87,0.31013
8254.99,0.309008
8268.16,0.308037
8281.37,0.306953
8294.62,0.30578
8307.91,0.304675
8321.24,0.30362
8334.62,0.302447
8348.04,0.301333
8361.51,0.300139
8375.02,0.298793
8388.57,0.29743
8402.16,0.296147
8415.8,0.29473
8429.49,0.293164
8443.22,0.291586
8456.99,0.290076
8470.81,0.288498
8484.67,0.286987
8498.58,0.285375
8512.54,0.283861
8526.54,0.282418
8540.58,0.281122
8554.68,0.279743
8568.82,0.278232
8583.0,0.276599
8597.24,0.274962
8611.52,0.273316
8625.85,0.271806
8640.23,0.270439
8654.65,0.269232
8669.12,0.26816
8683.64,0.266933
8698.21,0.265376
8712.83,0.263717
8727.5,0.262068
8742.22,0.260359
8756.99,0.258599
8771.8,0.256768
8786.67,0.25481
8801.59,0.252869
8816.56,0.25084
8831.58,0.248802
8846.65,0.246726
8861.77,0.244684
8876.94,0.242372
8892.17,0.240009
8907.45,0.23776
8922.78,0.23552
8938.16,0.233169
8953.6,0.230739
8969.09,0.228131
8984.64,0.225608
9000.23,0.222933
9015.89,0.220153
9031.59,0.217343
9047.36,0.214693
9063.17,0.211883
9079.05,0.209195
9094.97,0.206575
9110.96,0.203929
9127.0,0.201296
9143.1,0.198883
9159.25,0.196377
9175.46,0.193845
9191.73,0.191238
9208.06,0.188875
9224.44,0.186782
9240.88,0.184841
9257.38,0.182799
9273.94,0.180947
9290.56,0.179204
9307.24,0.17744
9323.98,0.175369
9340.78,0.173428
9357.64,0.171571
9374.57,0.169643
9391.55,0.167525
9408.59,0.165753
9425.7,0.164027
9442.87,0.16228
9460.1,0.160314
9477.4,0.158382
9494.75,0.156517
9512.17,0.154804
9529.66,0.153052
9547.21,0.151339
9564.83,0.14961
9582.5,0.147918
9600.25,0.146255
9618.06,0.144732
9635.94,0.143065
9653.88,0.14139
9671.89,0.139686
9689.97,0.137918
9708.12,0.135871
9726.33,0.133884
9744.62,0.131854
9762.97,0.12988
9781.39,0.128082
9799.88,0.126487
9818.44,0.124618
9837.07,0.122652
9855.77,0.120783
9874.54,0.119007
9893.39,0.117087
9912.3,0.11523
9931.29,0.113348
9950.36,0.111576
9969.49,0.109711
9988.7,0.107973
10007.98,0.106062
10027.34,0.104298
10046.77,0.102412
10066.28,0.100526
10085.87,0.098598
10105.53,0.096724
10125.26,0.094838
10145.08,0.093062
10164.97,0.091286
10184.94,0.089522
10204.99,0.087488
10225.12,0.085682
10245.33,0.083965
10265.61,0.082273
10285.98,0.080556
10306.43,0.078944
10326.96,0.077269
10347.57,0.075771
10368.27,0.07421
10389.05,0.072813
10409.91,0.071564
10430.86,0.070421
10451.88,0.069007
10473.0,0.067687
10494.2,0.066303
10515.49,0.065079
10536.86,0.063822
10558.32,0.062573
10579.87,0.061269
10601.5,0.060083
10623.23,0.058915
10645.04,0.057982
10666.94,0.056999
10688.94,0.055868
10711.02,0.054754
10733.2,0.053873
10755.47,0.052847
10777.83,0.051763
10800.28,0.050754
10822.83,0.049822
10845.47,0.048776
10868.21,0.047864
10891.04,0.04694
10913.97,0.046164
10936.99,0.04529
10960.12,0.044506
10983.34,0.04359
11006.66,0.042907
11030.07,0.042206
11053.59,0.041426
11077.21,0.040615
11100.93,0.040037
11124.75,0.039472
11148.68,0.038814
11172.71,0.038092
11196.84,0.037531
11221.07,0.037012
11245.41,0.036624
11269.86,0.036286
11294.41,0.03586
11319.07,0.034995
11343.84,0.034421
11368.72,0.034388
11393.7,0.034645
11418.8,0.034831
11444.01,0.035168
11469.33,0.035843
11494.76,0.037139
11520.3,0.038691
11545.96,0.040324
11571.73,0.041725
11597.62,0.042995
11623.62,0.044101
11649.74,0.045337
11675.98,0.046455
11702.34,0.047721
11728.81,0.048911
11755.41,0.050117
11782.13,0.050864
11808.96,0.051375
11835.92,0.05275
11863.01,0.055058
11890.22,0.056691
11917.55,0.05783
11945.01,0.058965
11972.6,0.060341
12000.31,0.061497
12028.16,0.062691
12056.13,0.063809
12084.23,0.064974
12112.46,0.066062
12140.83,0.067345
12169.33,0.068476
12197.96,0.069531
12226.73,0.070678
12255.64,0.072096
12284.68,0.073332
12313.86,0.074725
12343.18,0.076058
12372.64,0.077526
12402.24,0.07891
12431.98,0.080501
12461.86,0.081961
12491.89,0.083463
12522.07,0.084978
12552.38,0.086632
12582.85,0.08826
12613.47,0.089973
12644.23,0.091458
12675.15,0.093146
12706.21,0.094931
12737.43,0.09648
12768.81,0.097906
12800.33,0.099522
12832.02,0.101045
12863.86,0.102425
12895.86,0.103884
12928.02,0.105568
12960.34,0.107045
12992.82,0.108471
13025.46,0.10988
13058.27,0.111365
13091.25,0.112661
13124.39,0.114192
13157.7,0.115623
13191.18,0.117209
13224.83,0.118648
13258.66,0.119994
13292.65,0.121445
13326.83,0.123045
13361.17,0.124521
13395.7,0.12599
13430.4,0.127416
13465.29,0.128998
13500.35,0.130479
13535.6,0.132002
13571.03,0.133255
13606.65,0.134496
13642.46,0.135956
13678.46,0.137458
13714.64,0.13861
13751.02,0.13988
13787.59,0.141162
13824.36,0.142137
13861.32,0.142888
13898.49,0.14369
13935.85,0.144247
13973.41,0.144563
14011.17,0.144386
14049.15,0.144306
14087.32,0.144715
14125.71,0.145686
14164.3,0.14666
14203.11,0.14761
14242.13,0.148133
14281.36,0.148399
14320.81,0.148681
14360.49,0.148922
14400.38,0.148766
14440.49,0.148707
14480.82,0.148356
14521.39,0.147757
14562.18,0.147145
14603.2,0.146673
14644.45,0.146112
14685.93,0.145702
14727.66,0.145226
14769.62,0.144711
14811.81,0.144285
14854.25,0.143669
14896.94,0.143133
14939.87,0.142842
14983.05,0.142259
15026.48,0.141196
15070.16,0.140141
15114.1,0.139534
15158.29,0.138956
15202.74,0.138437
15247.46,0.137816
15292.43,0.137167
15337.68,0.13647
15383.19,0.136171
15428.97,0.136044
15475.03,0.135462
15521.36,0.13507
15567.97,0.135032
15614.87,0.134749
15662.04,0.134576
15709.5,0.134091
15757.25,0.134125
15805.29,0.134247
15853.62,0.134428
15902.26,0.134559
15951.19,0.134871
16000.42,0.134952
16049.95,0.135179
16099.8,0.13553
16149.95,0.13569
16200.42,0.135719
16251.21,0.136065
16302.31,0.136454
16353.74,0.13666
16405.49,0.136778
16457.57,0.13707
16509.98,0.137234
16562.73,0.137331
16615.82,0.137179
16669.24,0.137323
16723.02,0.137319
16777.14,0.137584
16831.61,0.137546
16886.43,0.137369
16941.62,0.137065
16997.16,0.137285
17053.08,0.137289
17109.36,0.137175
17166.01,0.13693
17223.04,0.136681
17280.45,0.136753
17338.24,0.136483
17396.43,0.135694
17455.0,0.135133
17513.97,0.134812
17573.34,0.13434
17633.11,0.133365
17693.29,0.132534
17753.89,0.132171
17814.9,0.131437
17876.33,0.129964
17938.18,0.12872
18000.47,0.127555
18063.19,0.126226
18126.35,0.124922
18189.95,0.123728
18254.0,0.122184
18318.5,0.119931
18383.46,0.117859
18448.88,0.116066
18514.77,0.114057
18581.13,0.112391
18647.97,0.109699
18715.29,0.106948
18783.1,0.104268
18851.4,0.10196
18920.2,0.100053
18989.51,0.097344
19059.32,0.094214
19129.65,0.091864
19200.5,0.089087
19271.88,0.086492
19343.79,0.084235
19416.24,0.082551
19489.23,0.080758
19562.77,0.078885
19636.88,0.077336
19711.54,0.076028
19786.78,0.074885
19862.59,0.074201
19938.98,0.073244
20015.96,0.072716
20093.55,0.07286
20171.73,0.073366
20250.53,0.073944
20329.94,0.075049
20409.98,0.0761
20490.65,0.076868
20571.96,0.077421
20653.92,0.078919
20736.54,0.081345
20819.82,0.085083
20903.77,0.088383
20988.4,0.092716
21073.72,0.096572
21159.73,0.100374
21246.46,0.104872
21333.89,0.11053
21422.04,0.115716
21510.93,0.120437
21600.56,0.124395
21690.94,0.12807
21782.08,0.132091
21873.99,0.136057
21966.67,0.138783
22060.15,0.141095
22154.42,0.143698
22249.51,0.145778
22345.41,0.147474
22442.14,0.15009
22539.72,0.151285
22638.14,0.152909
22737.43,0.154529
22837.6,0.155116
22938.65,0.155749
23040.6,0.156938
23143.46,0.157099
23247.24,0.157247
23351.96,0.157187
23457.63,0.157331
23564.25,0.157432
23671.85,0.157538
23780.44,0.156187
23890.02,0.155335
24000.63,0.156086
24112.26,0.156272
24224.93,0.155812
24338.66,0.15574
24453.47,0.154744
24569.36,0.152702
24686.36,0.152901
24804.47,0.155044
24923.73,0.157622
25044.13,0.158833
25165.71,0.158917
25288.46,0.157356
25412.43,0.157432
25537.61,0.160791
25664.04,0.161727
25791.72,0.160381
25920.68,0.159352
