Database of Origin,University of Winnipeg Spectrophotometer Facility
Sample Description,"RELAB plus Nicolet merged plagioclase data. Merged @2500nm, different viewing geometries. See Master Plagioclase in PSF sample database for more information"
Date Added,2016-11-22 03:59:29.592059

Data ID,RLA_PLG_01          
Sample ID,PLG101
Mineral Name,Andesine
Grain Size,<45
Viewing Geometry,"30/0,30"
Resolution,"5,0.6-129"
Composition,An53
Material Class,Tectosilicate

Wavelength
300.0,0.415973
305.0,0.435944
310.0,0.446518
315.0,0.463876
320.0,0.477533
325.0,0.487452
330.0,0.495128
335.0,0.504085
340.0,0.509751
345.0,0.516721
350.0,0.521969
355.0,0.527636
360.0,0.534591
365.0,0.540537
370.0,0.545479
375.0,0.551577
380.0,0.555561
385.0,0.561307
390.0,0.56604
395.0,0.572115
400.0,0.575961
405.0,0.577576
410.0,0.581715
415.0,0.582869
420.0,0.587324
425.0,0.588473
430.0,0.592945
435.0,0.59437
440.0,0.597232
445.0,0.598881
450.0,0.601384
455.0,0.60283
460.0,0.605039
465.0,0.606318
470.0,0.607952
475.0,0.608727
480.0,0.610073
485.0,0.609661
490.0,0.612678
495.0,0.613901
500.0,0.615475
505.0,0.615953
510.0,0.617491
515.0,0.618608
520.0,0.620347
525.0,0.620638
530.0,0.622615
535.0,0.623145
540.0,0.624832
545.0,0.624877
550.0,0.626842
555.0,0.62651
560.0,0.628544
565.0,0.628772
570.0,0.63027
575.0,0.63115
580.0,0.632095
585.0,0.633287
590.0,0.634446
595.0,0.635508
600.0,0.636006
605.0,0.635976
610.0,0.637239
615.0,0.638209
620.0,0.638967
625.0,0.63941
630.0,0.640217
635.0,0.640664
640.0,0.640978
645.0,0.64158
650.0,0.641589
655.0,0.641984
660.0,0.642373
665.0,0.642339
670.0,0.642941
675.0,0.643476
680.0,0.643682
685.0,0.644254
690.0,0.644357
695.0,0.645002
700.0,0.645156
705.0,0.645446
710.0,0.646019
715.0,0.646064
720.0,0.648039
725.0,0.646941
730.0,0.642774
735.0,0.645875
740.0,0.643893
745.0,0.646081
750.0,0.644917
755.0,0.647128
760.0,0.646801
765.0,0.646761
770.0,0.647627
775.0,0.647355
780.0,0.647988
785.0,0.648735
790.0,0.649125
795.0,0.648999
800.0,0.649122
805.0,0.648897
810.0,0.649606
815.0,0.649405
820.0,0.649162
825.0,0.649069
830.0,0.649562
835.0,0.649213
840.0,0.649525
845.0,0.649422
850.0,0.648856
855.0,0.649017
860.0,0.648996
865.0,0.648694
870.0,0.650168
875.0,0.64968
880.0,0.649586
885.0,0.649654
890.0,0.650108
895.0,0.648969
900.0,0.649854
905.0,0.650201
910.0,0.649763
915.0,0.64734
920.0,0.64717
925.0,0.646342
930.0,0.645054
935.0,0.644853
940.0,0.646932
945.0,0.646618
950.0,0.64727
955.0,0.647233
960.0,0.646999
965.0,0.646067
970.0,0.645385
975.0,0.645303
980.0,0.645162
985.0,0.643732
990.0,0.643032
995.0,0.643131
1000.0,0.641534
1005.0,0.641467
1010.0,0.640676
1015.0,0.641383
1020.0,0.639963
1025.0,0.638404
1030.0,0.637443
1035.0,0.637496
1040.0,0.636287
1045.0,0.634452
1050.0,0.633445
1055.0,0.633306
1060.0,0.632862
1065.0,0.632567
1070.0,0.633492
1075.0,0.634331
1080.0,0.633137
1085.0,0.632681
1090.0,0.631587
1095.0,0.632491
1100.0,0.633407
1105.0,0.633285
1110.0,0.632666
1115.0,0.632482
1120.0,0.630499
1125.0,0.628194
1130.0,0.626567
1135.0,0.62616
1140.0,0.624889
1145.0,0.624155
1150.0,0.624223
1155.0,0.623495
1160.0,0.621338
1165.0,0.619906
1170.0,0.619992
1175.0,0.618739
1180.0,0.618073
1185.0,0.619004
1190.0,0.618966
1195.0,0.617642
1200.0,0.616685
1205.0,0.616963
1210.0,0.616475
1215.0,0.616533
1220.0,0.615869
1225.0,0.614794
1230.0,0.61444
1235.0,0.613658
1240.0,0.613
1245.0,0.612627
1250.0,0.612907
1255.0,0.612111
1260.0,0.611733
1265.0,0.611292
1270.0,0.61117
1275.0,0.610282
1280.0,0.609854
1285.0,0.610209
1290.0,0.60991
1295.0,0.609585
1300.0,0.609394
1305.0,0.609103
1310.0,0.609002
1315.0,0.609147
1320.0,0.608776
1325.0,0.608586
1330.0,0.608422
1335.0,0.608127
1340.0,0.60867
1345.0,0.61027
1350.0,0.610289
1355.0,0.610364
1360.0,0.610804
1365.0,0.60973
1370.0,0.608809
1375.0,0.608605
1380.0,0.609003
1385.0,0.609715
1390.0,0.610921
1395.0,0.610451
1400.0,0.610306
1405.0,0.609795
1410.0,0.610224
1415.0,0.609773
1420.0,0.609888
1425.0,0.610147
1430.0,0.610605
1435.0,0.611411
1440.0,0.611939
1445.0,0.612691
1450.0,0.613419
1455.0,0.61417
1460.0,0.614398
1465.0,0.614601
1470.0,0.614572
1475.0,0.61469
1480.0,0.615831
1485.0,0.616668
1490.0,0.617768
1495.0,0.618237
1500.0,0.618696
1505.0,0.618469
1510.0,0.618958
1515.0,0.619795
1520.0,0.620209
1525.0,0.620604
1530.0,0.62055
1535.0,0.620733
1540.0,0.620625
1545.0,0.621017
1550.0,0.621401
1555.0,0.622011
1560.0,0.622523
1565.0,0.622949
1570.0,0.62356
1575.0,0.623566
1580.0,0.623723
1585.0,0.623906
1590.0,0.624224
1595.0,0.624253
1600.0,0.624597
1605.0,0.62551
1610.0,0.6252
1615.0,0.624996
1620.0,0.625628
1625.0,0.625779
1630.0,0.62571
1635.0,0.626829
1640.0,0.627647
1645.0,0.627495
1650.0,0.628113
1655.0,0.629061
1660.0,0.629153
1665.0,0.629146
1670.0,0.629183
1675.0,0.629123
1680.0,0.628503
1685.0,0.628667
1690.0,0.628234
1695.0,0.628183
1700.0,0.62783
1705.0,0.627811
1710.0,0.62754
1715.0,0.628418
1720.0,0.628809
1725.0,0.629469
1730.0,0.629351
1735.0,0.629295
1740.0,0.628848
1745.0,0.628933
1750.0,0.628903
1755.0,0.629876
1760.0,0.628786
1765.0,0.628905
1770.0,0.628624
1775.0,0.628395
1780.0,0.628239
1785.0,0.6291
1790.0,0.628862
1795.0,0.628643
1800.0,0.629
1805.0,0.628381
1810.0,0.628621
1815.0,0.628692
1820.0,0.629235
1825.0,0.628597
1830.0,0.628823
1835.0,0.628824
1840.0,0.631467
1845.0,0.631518
1850.0,0.631348
1855.0,0.631317
1860.0,0.631337
1865.0,0.631424
1870.0,0.630596
1875.0,0.630743
1880.0,0.629853
1885.0,0.629265
1890.0,0.628835
1895.0,0.628688
1900.0,0.627619
1905.0,0.627322
1910.0,0.626715
1915.0,0.626403
1920.0,0.62617
1925.0,0.626746
1930.0,0.626733
1935.0,0.627118
1940.0,0.627333
1945.0,0.627516
1950.0,0.628154
1955.0,0.628577
1960.0,0.629353
1965.0,0.629353
1970.0,0.629692
1975.0,0.63028
1980.0,0.631167
1985.0,0.631692
1990.0,0.631841
1995.0,0.632197
2000.0,0.631505
2005.0,0.631467
2010.0,0.63193
2015.0,0.632668
2020.0,0.632211
2025.0,0.632619
2030.0,0.633716
2035.0,0.633405
2040.0,0.633554
2045.0,0.634111
2050.0,0.634175
2055.0,0.633779
2060.0,0.632898
2065.0,0.632627
2070.0,0.63286
2075.0,0.633004
2080.0,0.633238
2085.0,0.634103
2090.0,0.63395
2095.0,0.63445
2100.0,0.635215
2105.0,0.634245
2110.0,0.633519
2115.0,0.634341
2120.0,0.633592
2125.0,0.633089
2130.0,0.633618
2135.0,0.63385
2140.0,0.633115
2145.0,0.632628
2150.0,0.632519
2155.0,0.63207
2160.0,0.631936
2165.0,0.631218
2170.0,0.631621
2175.0,0.632344
2180.0,0.632792
2185.0,0.632511
2190.0,0.632935
2195.0,0.63239
2200.0,0.630609
2205.0,0.629669
2210.0,0.630713
2215.0,0.630658
2220.0,0.631159
2225.0,0.630725
2230.0,0.630791
2235.0,0.630316
2240.0,0.630994
2245.0,0.630611
2250.0,0.631587
2255.0,0.632804
2260.0,0.633002
2265.0,0.632884
2270.0,0.632394
2275.0,0.632639
2280.0,0.631382
2285.0,0.632748
2290.0,0.633199
2295.0,0.634378
2300.0,0.635458
2305.0,0.63673
2310.0,0.63388
2315.0,0.632389
2320.0,0.631983
2325.0,0.630803
2330.0,0.630425
2335.0,0.631119
2340.0,0.631762
2345.0,0.63154
2350.0,0.631542
2355.0,0.631353
2360.0,0.630681
2365.0,0.630717
2370.0,0.630305
2375.0,0.630229
2380.0,0.630021
2385.0,0.630643
2390.0,0.629939
2395.0,0.630078
2400.0,0.629053
2405.0,0.628042
2410.0,0.628046
2415.0,0.62953
2420.0,0.629791
2425.0,0.631627
2430.0,0.631632
2435.0,0.632589
2440.0,0.631141
2445.0,0.630697
2450.0,0.629142
2455.0,0.630598
2460.0,0.629591
2465.0,0.630083
2470.0,0.63007
2475.0,0.631043
2480.0,0.630297
2485.0,0.627961
2490.0,0.627254
2495.0,0.626199
2500.0,0.623866
2505.0,0.624227
2510.0,0.626315
2515.0,0.62465
2520.0,0.62652
2525.0,0.627349
2530.08,0.627185
2535.03,0.627075
2540.0,0.626533
2544.99,0.627039
2549.99,0.626617
2552.5,0.625487
2553.76,0.625567
2555.02,0.626595
2556.28,0.627379
2557.54,0.627578
2558.8,0.627299
2560.07,0.625711
2561.33,0.624043
2562.6,0.624308
2563.86,0.626051
2565.13,0.626998
2566.4,0.628556
2567.67,0.628889
2568.95,0.626808
2570.22,0.624928
2571.5,0.627248
2572.77,0.627964
2574.05,0.624326
2575.33,0.626517
2576.61,0.627503
2577.89,0.625966
2579.17,0.628334
2580.46,0.628796
2581.74,0.626019
2583.03,0.626073
2584.31,0.62478
2585.6,0.627124
2586.89,0.62977
2588.19,0.627356
2589.48,0.62742
2590.77,0.628227
2592.07,0.628065
2593.36,0.626154
2594.66,0.620726
2595.96,0.62002
2597.26,0.630756
2598.56,0.633627
2599.87,0.630693
2601.17,0.62842
2602.48,0.626941
2603.78,0.626772
2605.09,0.625534
2606.4,0.624681
2607.71,0.627582
2609.03,0.629002
2610.34,0.627996
2611.65,0.62871
2612.97,0.62878
2614.29,0.627326
2615.61,0.627105
2616.93,0.623955
2618.25,0.624506
2619.57,0.629119
2620.9,0.626567
2622.22,0.627847
2623.55,0.631088
2624.88,0.62953
2626.21,0.62687
2627.54,0.625245
2628.87,0.628549
2630.21,0.627283
2631.54,0.62477
2632.88,0.629782
2634.21,0.629835
2635.55,0.628938
2636.89,0.630342
2638.24,0.629405
2639.58,0.628386
2640.92,0.628255
2642.27,0.628187
2643.62,0.628669
2644.97,0.628942
2646.32,0.627096
2647.67,0.627645
2649.02,0.629009
2650.38,0.628378
2651.73,0.627077
2653.09,0.626213
2654.45,0.627532
2655.81,0.628094
2657.17,0.628015
2658.53,0.62835
2659.89,0.6265
2661.26,0.626459
2662.63,0.627405
2664.0,0.626505
2665.36,0.621658
2666.74,0.620551
2668.11,0.624864
2669.48,0.627866
2670.86,0.622264
2672.23,0.623765
2673.61,0.629368
2674.99,0.6259
2676.37,0.622053
2677.76,0.62095
2679.14,0.6232
2680.52,0.623804
2681.91,0.624699
2683.3,0.62251
2684.69,0.620755
2686.08,0.620786
2687.47,0.620522
2688.87,0.62018
2690.26,0.61954
2691.66,0.617834
2693.06,0.614659
2694.46,0.610733
2695.86,0.610531
2697.26,0.611308
2698.66,0.60986
2700.07,0.605189
2701.48,0.600109
2702.89,0.596947
2704.3,0.594648
2705.71,0.590466
2707.12,0.586269
2708.53,0.582599
2709.95,0.578702
2711.37,0.576738
2712.79,0.579365
2714.21,0.581419
2715.63,0.57937
2717.05,0.576548
2718.48,0.573378
2719.9,0.570337
2721.33,0.56606
2722.76,0.568029
2724.19,0.566512
2725.62,0.560564
2727.06,0.561188
2728.49,0.56051
2729.93,0.556591
2731.37,0.553438
2732.81,0.551316
2734.25,0.548107
2735.69,0.544833
2737.14,0.544654
2738.58,0.542385
2740.03,0.536545
2741.48,0.53452
2742.93,0.535659
2744.38,0.534485
2745.83,0.530972
2747.29,0.527896
2748.75,0.524923
2750.2,0.52203
2751.66,0.519039
2753.13,0.516562
2754.59,0.513523
2756.05,0.508499
2757.52,0.509239
2758.99,0.510352
2760.46,0.506544
2761.93,0.502997
2763.4,0.501004
2764.87,0.503376
2766.35,0.506119
2767.82,0.506186
2769.3,0.506943
2770.78,0.507917
2772.26,0.508537
2773.75,0.511336
2775.23,0.512792
2776.72,0.512689
2778.21,0.512853
2779.7,0.514302
2781.19,0.51519
2782.68,0.51567
2784.18,0.517499
2785.67,0.518458
2787.17,0.517329
2788.67,0.518027
2790.17,0.520774
2791.67,0.521881
2793.18,0.522033
2794.68,0.522164
2796.19,0.5229
2797.7,0.523221
2799.21,0.523006
2800.72,0.523206
2802.24,0.522152
2803.75,0.520715
2805.27,0.521964
2806.79,0.523501
2808.31,0.522739
2809.83,0.521565
2811.35,0.521725
2812.88,0.521867
2814.41,0.521107
2815.93,0.520471
2817.46,0.521063
2819.0,0.521035
2820.53,0.520753
2822.07,0.521354
2823.6,0.522066
2825.14,0.522636
2826.68,0.522866
2828.22,0.522651
2829.77,0.522926
2831.31,0.523519
2832.86,0.523674
2834.41,0.524171
2835.96,0.524613
2837.51,0.525086
2839.07,0.525374
2840.62,0.52634
2842.18,0.526971
2843.74,0.527349
2845.3,0.527838
2846.86,0.528581
2848.43,0.528877
2849.99,0.528485
2851.56,0.528653
2853.13,0.529373
2854.7,0.529329
2856.27,0.529983
2857.85,0.53104
2859.42,0.531404
2861.0,0.531082
2862.58,0.53131
2864.16,0.531561
2865.75,0.531805
2867.33,0.531848
2868.92,0.532261
2870.51,0.532568
2872.1,0.5329
2873.69,0.533431
2875.28,0.53368
2876.88,0.534052
2878.48,0.534438
2880.07,0.534585
2881.68,0.534845
2883.28,0.535124
2884.88,0.535002
2886.49,0.535503
2888.1,0.535882
2889.71,0.535766
2891.32,0.535808
2892.93,0.536307
2894.55,0.536483
2896.16,0.536315
2897.78,0.536707
2899.4,0.536564
2901.03,0.536712
2902.65,0.537035
2904.28,0.537361
2905.91,0.537432
2907.53,0.537025
2909.17,0.536969
2910.8,0.537308
2912.44,0.537711
2914.07,0.537472
2915.71,0.537468
2917.35,0.537705
2918.99,0.537682
2920.64,0.537838
2922.29,0.537755
2923.93,0.538144
2925.58,0.538456
2927.24,0.538546
2928.89,0.538593
2930.55,0.538551
2932.2,0.538467
2933.86,0.53896
2935.52,0.539691
2937.19,0.539673
2938.85,0.539831
2940.52,0.540322
2942.19,0.540329
2943.86,0.540355
2945.53,0.540374
2947.21,0.54087
2948.88,0.541258
2950.56,0.541488
2952.24,0.541804
2953.92,0.542078
2955.61,0.542358
2957.29,0.543284
2958.98,0.543733
2960.67,0.543664
2962.36,0.543524
2964.06,0.543942
2965.75,0.544455
2967.45,0.544824
2969.15,0.544908
2970.85,0.545271
2972.55,0.545777
2974.26,0.546343
2975.97,0.54675
2977.68,0.546884
2979.39,0.547089
2981.1,0.547539
2982.82,0.547882
2984.53,0.548495
2986.25,0.549059
2987.97,0.549736
2989.7,0.550227
2991.42,0.550799
2993.15,0.551085
2994.88,0.551159
2996.61,0.551416
2998.34,0.551993
3000.08,0.552648
3001.82,0.553144
3003.55,0.553422
3005.3,0.553625
3007.04,0.554063
3008.78,0.554821
3010.53,0.555247
3012.28,0.555525
3014.03,0.556081
3015.79,0.556766
3017.54,0.557247
3019.3,0.557472
3021.06,0.55764
3022.82,0.557833
3024.58,0.558432
3026.35,0.558706
3028.12,0.559007
3029.89,0.559429
3031.66,0.559755
3033.43,0.560202
3035.21,0.560455
3036.99,0.560866
3038.77,0.561301
3040.55,0.561827
3042.33,0.561961
3044.12,0.562144
3045.91,0.562591
3047.7,0.562893
3049.49,0.56323
3051.29,0.563489
3053.08,0.563489
3054.88,0.563767
3056.68,0.564576
3058.49,0.56515
3060.29,0.565232
3062.1,0.565397
3063.91,0.565789
3065.72,0.56617
3067.54,0.566376
3069.35,0.56669
3071.17,0.566901
3072.99,0.567491
3074.81,0.567993
3076.64,0.568334
3078.46,0.568534
3080.29,0.568904
3082.13,0.568823
3083.96,0.569263
3085.79,0.569642
3087.63,0.570052
3089.47,0.570194
3091.31,0.570409
3093.16,0.57091
3095.01,0.571395
3096.85,0.571825
3098.71,0.572144
3100.56,0.572447
3102.41,0.572816
3104.27,0.573094
3106.13,0.573704
3107.99,0.573824
3109.86,0.574258
3111.73,0.574964
3113.59,0.575672
3115.47,0.575978
3117.34,0.576146
3119.21,0.576564
3121.09,0.576868
3122.97,0.577373
3124.86,0.578048
3126.74,0.578687
3128.63,0.578877
3130.52,0.579112
3132.41,0.579633
3134.3,0.57988
3136.2,0.580171
3138.1,0.580237
3140.0,0.580765
3141.9,0.58139
3143.81,0.581864
3145.71,0.582438
3147.62,0.582804
3149.54,0.583125
3151.45,0.583388
3153.37,0.583565
3155.29,0.584128
3157.21,0.584784
3159.13,0.585194
3161.06,0.585356
3162.99,0.585876
3164.92,0.58648
3166.85,0.586887
3168.79,0.587212
3170.72,0.58781
3172.67,0.588314
3174.61,0.588679
3176.55,0.588912
3178.5,0.589388
3180.45,0.589935
3182.4,0.590333
3184.36,0.590609
3186.32,0.591151
3188.27,0.591525
3190.24,0.591841
3192.2,0.592259
3194.17,0.592862
3196.14,0.593443
3198.11,0.59396
3200.08,0.594251
3202.06,0.594483
3204.04,0.594559
3206.02,0.594963
3208.0,0.595375
3209.99,0.595829
3211.98,0.596261
3213.97,0.59678
3215.96,0.597098
3217.96,0.597543
3219.96,0.597919
3221.96,0.598202
3223.96,0.59844
3225.97,0.598877
3227.98,0.599393
3229.99,0.599619
3232.0,0.599722
3234.02,0.600246
3236.04,0.600752
3238.06,0.601305
3240.08,0.60178
3242.11,0.602157
3244.14,0.602314
3246.17,0.602519
3248.2,0.602892
3250.24,0.603334
3252.28,0.603663
3254.32,0.603986
3256.37,0.604269
3258.41,0.604766
3260.46,0.605067
3262.51,0.60521
3264.57,0.605685
3266.63,0.606059
3268.69,0.606268
3270.75,0.606646
3272.81,0.606891
3274.88,0.607404
3276.95,0.607985
3279.02,0.60825
3281.1,0.608481
3283.18,0.609018
3285.26,0.609383
3287.34,0.60975
3289.43,0.609995
3291.51,0.610397
3293.61,0.610437
3295.7,0.610732
3297.8,0.610867
3299.89,0.611274
3302.0,0.61164
3304.1,0.612041
3306.21,0.612524
3308.32,0.613001
3310.43,0.613206
3312.55,0.613616
3314.66,0.61398
3316.78,0.614396
3318.91,0.614636
3321.03,0.614886
3323.16,0.615121
3325.29,0.615511
3327.43,0.615789
3329.57,0.616202
3331.71,0.616369
3333.85,0.616458
3335.99,0.616687
3338.14,0.616841
3340.29,0.616619
3342.45,0.616736
3344.6,0.616817
3346.76,0.616891
3348.92,0.616807
3351.09,0.616793
3353.26,0.616708
3355.43,0.616682
3357.6,0.616736
3359.78,0.616686
3361.96,0.61652
3364.14,0.616479
3366.32,0.616301
3368.51,0.615961
3370.7,0.615535
3372.89,0.6156
3375.09,0.615382
3377.29,0.615283
3379.49,0.615533
3381.69,0.616045
3383.9,0.616651
3386.11,0.617366
3388.32,0.617765
3390.54,0.618022
3392.76,0.618031
3394.98,0.61803
3397.21,0.617792
3399.43,0.617288
3401.66,0.616981
3403.9,0.616736
3406.13,0.616352
3408.37,0.615664
3410.61,0.614937
3412.86,0.61468
3415.11,0.614664
3417.36,0.614852
3419.61,0.615387
3421.87,0.616329
3424.13,0.617766
3426.39,0.619368
3428.66,0.620732
3430.93,0.622202
3433.2,0.623521
3435.48,0.624363
3437.76,0.625039
3440.04,0.625891
3442.32,0.626659
3444.61,0.627349
3446.9,0.62807
3449.19,0.62878
3451.49,0.629396
3453.79,0.630063
3456.09,0.630587
3458.4,0.631134
3460.7,0.631543
3463.02,0.631921
3465.33,0.632337
3467.65,0.632673
3469.97,0.632713
3472.29,0.632759
3474.62,0.632865
3476.95,0.63317
3479.29,0.633383
3481.62,0.633475
3483.96,0.633506
3486.3,0.633733
3488.65,0.634034
3491.0,0.634262
3493.35,0.634293
3495.71,0.634224
3498.07,0.634083
3500.43,0.634255
3502.79,0.634758
3505.16,0.635644
3507.53,0.636994
3509.91,0.638355
3512.29,0.639639
3514.67,0.640672
3517.05,0.641556
3519.44,0.642469
3521.83,0.643094
3524.22,0.643789
3526.62,0.644372
3529.02,0.645014
3531.43,0.645673
3533.83,0.646247
3536.24,0.64657
3538.66,0.647155
3541.08,0.647495
3543.5,0.647799
3545.92,0.648344
3548.35,0.648798
3550.78,0.649052
3553.21,0.649692
3555.65,0.650241
3558.09,0.65062
3560.53,0.650579
3562.98,0.650962
3565.43,0.651231
3567.88,0.651583
3570.34,0.65209
3572.8,0.652686
3575.27,0.652873
3577.73,0.65305
3580.2,0.653279
3582.68,0.653616
3585.16,0.653938
3587.64,0.654352
3590.12,0.654602
3592.61,0.654999
3595.1,0.655248
3597.6,0.65547
3600.09,0.655757
3602.6,0.656278
3605.1,0.656623
3607.61,0.656781
3610.12,0.657018
3612.64,0.657054
3615.16,0.657227
3617.68,0.657668
3620.21,0.658093
3622.74,0.658454
3625.27,0.658455
3627.81,0.658611
3630.35,0.658893
3632.89,0.659312
3635.44,0.659415
3637.99,0.659628
3640.54,0.6598
3643.1,0.660178
3645.66,0.660423
3648.23,0.660728
3650.8,0.660761
3653.37,0.660851
3655.95,0.660913
3658.53,0.661148
3661.11,0.661505
3663.7,0.661752
3666.29,0.661866
3668.89,0.662191
3671.48,0.662497
3674.09,0.662544
3676.69,0.662799
3679.3,0.66321
3681.91,0.66328
3684.53,0.663376
3687.15,0.663562
3689.78,0.663808
3692.4,0.664127
3695.04,0.6644
3697.67,0.664466
3700.31,0.664646
3702.95,0.664772
3705.6,0.66503
3708.25,0.665177
3710.91,0.665427
3713.56,0.665607
3716.23,0.665616
3718.89,0.665914
3721.56,0.666347
3724.23,0.666493
3726.91,0.666705
3729.59,0.666866
3732.28,0.667254
3734.97,0.667329
3737.66,0.667238
3740.36,0.667416
3743.06,0.667779
3745.76,0.668012
3748.47,0.668233
3751.18,0.668358
3753.9,0.668571
3756.62,0.668788
3759.34,0.669002
3762.07,0.669208
3764.8,0.669492
3767.54,0.669715
3770.28,0.669921
3773.02,0.670023
3775.77,0.669986
3778.52,0.670258
3781.28,0.670473
3784.04,0.670459
3786.8,0.670699
3789.57,0.670798
3792.34,0.671082
3795.12,0.671223
3797.9,0.671384
3800.69,0.671368
3803.47,0.67134
3806.27,0.671391
3809.06,0.671543
3811.86,0.671744
3814.67,0.672023
3817.48,0.671982
3820.29,0.672159
3823.11,0.672307
3825.93,0.6722
3828.76,0.672275
3831.59,0.672373
3834.42,0.672524
3837.26,0.67268
3840.1,0.672509
3842.95,0.672769
3845.8,0.672985
3848.65,0.673025
3851.51,0.673021
3854.38,0.673147
3857.24,0.673376
3860.12,0.673533
3862.99,0.673424
3865.87,0.673408
3868.76,0.673331
3871.65,0.673416
3874.54,0.67361
3877.44,0.673741
3880.34,0.673563
3883.25,0.673529
3886.16,0.67368
3889.07,0.673793
3891.99,0.673784
3894.92,0.673725
3897.85,0.673672
3900.78,0.673667
3903.72,0.673674
3906.66,0.673971
3909.6,0.674237
3912.55,0.674117
3915.51,0.673795
3918.47,0.673599
3921.43,0.673673
3924.4,0.673759
3927.37,0.673558
3930.35,0.67356
3933.33,0.673557
3936.32,0.673605
3939.31,0.673441
3942.31,0.673301
3945.31,0.672977
3948.31,0.673014
3951.32,0.673032
3954.34,0.6728
3957.35,0.672351
3960.38,0.672257
3963.41,0.672269
3966.44,0.672183
3969.48,0.67187
3972.52,0.671796
3975.56,0.67185
3978.61,0.671826
3981.67,0.671878
3984.73,0.671838
3987.8,0.671769
3990.87,0.671841
3993.94,0.672127
3997.02,0.672337
4000.1,0.672479
4003.19,0.672594
4006.29,0.672652
4009.39,0.672801
4012.49,0.673
4015.6,0.673203
4018.71,0.673283
4021.83,0.673474
4024.95,0.67337
4028.08,0.67346
4031.21,0.673573
4034.35,0.673663
4037.49,0.673492
4040.64,0.673433
4043.79,0.673591
4046.94,0.673669
4050.11,0.673631
4053.27,0.673627
4056.44,0.673579
4059.62,0.673577
4062.8,0.673465
4065.99,0.673428
4069.18,0.673367
4072.38,0.673348
4075.58,0.673237
4078.78,0.673212
4082.0,0.673177
4085.21,0.67313
4088.43,0.67289
4091.66,0.67292
4094.89,0.67297
4098.13,0.672865
4101.37,0.672659
4104.62,0.672526
4107.87,0.672363
4111.13,0.672274
4114.39,0.672134
4117.66,0.672097
4120.93,0.671908
4124.21,0.671829
4127.5,0.671757
4130.78,0.671531
4134.08,0.671448
4137.38,0.671585
4140.68,0.671354
4143.99,0.671229
4147.31,0.67113
4150.63,0.670995
4153.95,0.670653
4157.29,0.67048
4160.62,0.670313
4163.96,0.670283
4167.31,0.670125
4170.66,0.670104
4174.02,0.670049
4177.39,0.66996
4180.75,0.669793
4184.13,0.669522
4187.51,0.66904
4190.89,0.668857
4194.28,0.668794
4197.68,0.668633
4201.08,0.668371
4204.49,0.667915
4207.9,0.667388
4211.32,0.666904
4214.74,0.666259
4218.17,0.665795
4221.61,0.665297
4225.05,0.664989
4228.5,0.664729
4231.95,0.664588
4235.4,0.664369
4238.87,0.664242
4242.34,0.664047
4245.81,0.664122
4249.29,0.6642
4252.78,0.664514
4256.27,0.664667
4259.77,0.66407
4263.27,0.662753
4266.78,0.66185
4270.29,0.661414
4273.81,0.661139
4277.34,0.660847
4280.87,0.660569
4284.41,0.660276
4287.95,0.660019
4291.5,0.659586
4295.06,0.659461
4298.62,0.659162
4302.19,0.658711
4305.76,0.658365
4309.34,0.658031
4312.92,0.657587
4316.52,0.657308
4320.11,0.656954
4323.72,0.656546
4327.32,0.655994
4330.94,0.655559
4334.56,0.655129
4338.19,0.654753
4341.82,0.654221
4345.46,0.653693
4349.11,0.65312
4352.76,0.652664
4356.42,0.652064
4360.08,0.651457
4363.75,0.650998
4367.43,0.650441
4371.11,0.649722
4374.8,0.649156
4378.49,0.648816
4382.19,0.648426
4385.9,0.647764
4389.61,0.647097
4393.33,0.646456
4397.06,0.645916
4400.79,0.645206
4404.53,0.64467
4408.28,0.644132
4412.03,0.643516
4415.79,0.642902
4419.55,0.642481
4423.32,0.641925
4427.1,0.641135
4430.88,0.64041
4434.67,0.639923
4438.47,0.639424
4442.27,0.639059
4446.08,0.63859
4449.9,0.637892
4453.72,0.637328
4457.55,0.636932
4461.39,0.636272
4465.23,0.635601
4469.08,0.635027
4472.94,0.634449
4476.8,0.633781
4480.67,0.633116
4484.55,0.632391
4488.43,0.63178
4492.32,0.631079
4496.21,0.6303
4500.12,0.62969
4504.03,0.629162
4507.94,0.62833
4511.87,0.627729
4515.8,0.627043
4519.73,0.626443
4523.68,0.625712
4527.63,0.624888
4531.59,0.62389
4535.55,0.623037
4539.52,0.622121
4543.5,0.621329
4547.49,0.620455
4551.48,0.619712
4555.48,0.618793
4559.49,0.618066
4563.5,0.617096
4567.52,0.616051
4571.55,0.615127
4575.58,0.614272
4579.62,0.613382
4583.67,0.61266
4587.73,0.611691
4591.79,0.610737
4595.86,0.609791
4599.94,0.608951
4604.03,0.607927
4608.12,0.606926
4612.22,0.605902
4616.33,0.604923
4620.44,0.60412
4624.56,0.603323
4628.69,0.602392
4632.83,0.601521
4636.97,0.600574
4641.12,0.599763
4645.28,0.598885
4649.45,0.598049
4653.62,0.597135
4657.8,0.596209
4661.99,0.595294
4666.19,0.5946
4670.39,0.593772
4674.6,0.592849
4678.82,0.591835
4683.05,0.591161
4687.28,0.590469
4691.52,0.589682
4695.77,0.588952
4700.03,0.58831
4704.3,0.587642
4708.57,0.586913
4712.85,0.586065
4717.14,0.585441
4721.43,0.584912
4725.74,0.584432
4730.05,0.583624
4734.37,0.582911
4738.7,0.582291
4743.03,0.581792
4747.38,0.581043
4751.73,0.580505
4756.09,0.579927
4760.45,0.579271
4764.83,0.578626
4769.21,0.578172
4773.6,0.577634
4778.0,0.577055
4782.41,0.576309
4786.83,0.575712
4791.25,0.575321
4795.68,0.574869
4800.13,0.574264
4804.57,0.573762
4809.03,0.573164
4813.5,0.5726
4817.97,0.571941
4822.45,0.571406
4826.94,0.570973
4831.44,0.570508
4835.95,0.56987
4840.46,0.569323
4844.99,0.568793
4849.52,0.568351
4854.06,0.56778
4858.61,0.567345
4863.17,0.566698
4867.73,0.566008
4872.31,0.565549
4876.89,0.565032
4881.48,0.564343
4886.08,0.563813
4890.69,0.563277
4895.31,0.56289
4899.94,0.562303
4904.57,0.56183
4909.22,0.561312
4913.87,0.560607
4918.53,0.559884
4923.21,0.559328
4927.88,0.558605
4932.57,0.558104
4937.27,0.557692
4941.98,0.556981
4946.69,0.556058
4951.42,0.555371
4956.15,0.554713
4960.89,0.553919
4965.65,0.5533
4970.41,0.552597
4975.18,0.551698
4979.96,0.550777
4984.75,0.549801
4989.54,0.548859
4994.35,0.547803
4999.17,0.546954
5003.99,0.546007
5008.83,0.544895
5013.67,0.543586
5018.52,0.542172
5023.39,0.54074
5028.26,0.539726
5033.14,0.538474
5038.03,0.537227
5042.93,0.535753
5047.84,0.534335
5052.76,0.532793
5057.69,0.531151
5062.63,0.529464
5067.58,0.527778
5072.54,0.525931
5077.51,0.524223
5082.49,0.522403
5087.47,0.520572
5092.47,0.519065
5097.48,0.517184
5102.5,0.515141
5107.52,0.513443
5112.56,0.511725
5117.61,0.50987
5122.66,0.508094
5127.73,0.506305
5132.81,0.504434
5137.89,0.502613
5142.99,0.500782
5148.1,0.498697
5153.22,0.497009
5158.34,0.495829
5163.48,0.493843
5168.63,0.492065
5173.79,0.49028
5178.96,0.488525
5184.13,0.486827
5189.32,0.485171
5194.52,0.483519
5199.73,0.481799
5204.95,0.480189
5210.19,0.478899
5215.43,0.476636
5220.68,0.475807
5225.94,0.474878
5231.22,0.473147
5236.5,0.471393
5241.79,0.469952
5247.1,0.468795
5252.42,0.467521
5257.74,0.466286
5263.08,0.46518
5268.43,0.464148
5273.79,0.462906
5279.16,0.461558
5284.54,0.460658
5289.93,0.459406
5295.34,0.458019
5300.75,0.457587
5306.18,0.456667
5311.61,0.455469
5317.06,0.45453
5322.52,0.453462
5327.99,0.452371
5333.47,0.45127
5338.96,0.450203
5344.47,0.448968
5349.98,0.447177
5355.51,0.446075
5361.05,0.44611
5366.6,0.445105
5372.16,0.443628
5377.73,0.442205
5383.32,0.441089
5388.91,0.439836
5394.52,0.438697
5400.14,0.437539
5405.77,0.436334
5411.41,0.434792
5417.07,0.433273
5422.74,0.430942
5428.41,0.430388
5434.1,0.430583
5439.81,0.428549
5445.52,0.426867
5451.25,0.425632
5456.98,0.42443
5462.73,0.422552
5468.5,0.420999
5474.27,0.42081
5480.06,0.419162
5485.86,0.417836
5491.67,0.417111
5497.49,0.415682
5503.33,0.4145
5509.18,0.413379
5515.04,0.41234
5520.91,0.410647
5526.8,0.409457
5532.69,0.408741
5538.61,0.407773
5544.53,0.406436
5550.47,0.404937
5556.41,0.403396
5562.38,0.40268
5568.35,0.401628
5574.34,0.400069
5580.34,0.397902
5586.35,0.397707
5592.38,0.398039
5598.42,0.39668
5604.47,0.395118
5610.54,0.394561
5616.61,0.393579
5622.71,0.392694
5628.81,0.392084
5634.93,0.390733
5641.06,0.388875
5647.21,0.387907
5653.36,0.388887
5659.54,0.38776
5665.72,0.387376
5671.92,0.386378
5678.13,0.384792
5684.36,0.384841
5690.6,0.384226
5696.85,0.383034
5703.12,0.383295
5709.4,0.381837
5715.69,0.38087
5722.0,0.381305
5728.33,0.381063
5734.66,0.380677
5741.01,0.379943
5747.38,0.378925
5753.76,0.378293
5760.15,0.378231
5766.56,0.374986
5772.98,0.374253
5779.41,0.375615
5785.86,0.373723
5792.33,0.372546
5798.81,0.371244
5805.3,0.36978
5811.81,0.368618
5818.33,0.366384
5824.87,0.363949
5831.42,0.364388
5837.99,0.363847
5844.57,0.362529
5851.17,0.360769
5857.78,0.359211
5864.41,0.357299
5871.05,0.356025
5877.7,0.354392
5884.38,0.350886
5891.06,0.35192
5897.76,0.349987
5904.48,0.349094
5911.21,0.349326
5917.96,0.346923
5924.73,0.345292
5931.5,0.34368
5938.3,0.340573
5945.11,0.340402
5951.93,0.341175
5958.78,0.339438
5965.63,0.337993
5972.51,0.335745
5979.39,0.335806
5986.3,0.33417
5993.22,0.332305
6000.16,0.332418
6007.11,0.331969
6014.08,0.329976
6021.06,0.329152
6028.06,0.328894
6035.08,0.32766
6042.12,0.325817
6049.17,0.322312
6056.23,0.322051
6063.32,0.324591
6070.42,0.321583
6077.53,0.319538
6084.67,0.320104
6091.82,0.31931
6098.98,0.317295
6106.17,0.315591
6113.37,0.313012
6120.58,0.312248
6127.82,0.313397
6135.07,0.312662
6142.34,0.311897
6149.63,0.312259
6156.93,0.312712
6164.25,0.312841
6171.59,0.31437
6178.94,0.315
6186.32,0.314216
6193.71,0.315473
6201.12,0.316991
6208.54,0.316413
6215.99,0.31617
6223.45,0.316032
6230.93,0.316117
6238.43,0.3158
6245.95,0.315415
6253.48,0.315091
6261.03,0.31487
6268.6,0.314548
6276.19,0.314365
6283.8,0.314087
6291.43,0.31394
6299.07,0.313836
6306.73,0.31386
6314.42,0.313758
6322.12,0.313843
6329.83,0.313779
6337.57,0.3136
6345.33,0.312591
6353.11,0.313644
6360.9,0.315083
6368.72,0.314299
6376.55,0.314052
6384.4,0.315471
6392.27,0.315537
6400.17,0.315684
6408.08,0.314905
6416.01,0.312523
6423.96,0.314485
6431.93,0.31657
6439.92,0.316095
6447.93,0.316605
6455.96,0.316199
6464.01,0.316375
6472.08,0.315677
6480.17,0.314717
6488.28,0.313806
6496.41,0.312869
6504.56,0.314223
6512.73,0.315101
6520.92,0.31345
6529.14,0.312958
6537.37,0.313437
6545.63,0.312514
6553.9,0.311263
6562.2,0.310574
6570.51,0.309494
6578.85,0.308316
6587.21,0.309048
6595.59,0.307817
6603.99,0.307278
6612.42,0.306705
6620.86,0.305683
6629.33,0.304409
6637.82,0.302147
6646.33,0.302072
6654.86,0.303333
6663.41,0.302286
6671.99,0.301024
6680.59,0.299927
6689.21,0.299296
6697.85,0.299505
6706.51,0.29841
6715.2,0.296993
6723.91,0.296607
6732.64,0.296304
6741.4,0.295923
6750.18,0.295199
6758.98,0.294459
6767.8,0.293607
6776.65,0.292277
6785.52,0.291024
6794.41,0.289639
6803.33,0.28943
6812.27,0.289126
6821.23,0.287881
6830.22,0.286477
6839.23,0.285896
6848.26,0.285004
6857.32,0.283258
6866.4,0.281391
6875.51,0.281466
6884.64,0.281143
6893.8,0.279727
6902.98,0.278467
6912.18,0.277176
6921.41,0.276444
6930.66,0.275432
6939.94,0.27435
6949.24,0.272939
6958.57,0.271241
6967.92,0.269716
6977.3,0.269128
6986.7,0.267703
6996.13,0.266272
7005.59,0.265026
7015.07,0.264029
7024.57,0.262583
7034.1,0.261444
7043.66,0.259845
7053.24,0.25849
7062.85,0.257827
7072.49,0.256618
7082.15,0.255229
7091.84,0.253796
7101.55,0.252274
7111.3,0.250684
7121.06,0.248841
7130.86,0.24721
7140.68,0.245656
7150.53,0.243729
7160.41,0.241854
7170.31,0.239966
7180.24,0.238034
7190.2,0.236381
7200.19,0.234372
7210.2,0.232306
7220.24,0.230248
7230.31,0.228261
7240.41,0.226005
7250.54,0.223783
7260.69,0.221396
7270.88,0.21904
7281.09,0.216401
7291.33,0.214003
7301.6,0.211625
7311.9,0.209252
7322.22,0.206752
7332.58,0.204213
7342.97,0.201431
7353.38,0.198818
7363.83,0.196095
7374.3,0.193391
7384.81,0.190521
7395.34,0.187778
7405.91,0.184905
7416.5,0.182002
7427.13,0.179004
7437.78,0.176155
7448.47,0.173083
7459.19,0.169913
7469.94,0.166547
7480.71,0.163323
7491.52,0.160096
7502.37,0.156831
7513.24,0.15334
7524.14,0.1499
7535.08,0.146348
7546.05,0.142796
7557.05,0.139058
7568.08,0.135336
7579.14,0.131436
7590.24,0.127707
7601.37,0.123841
7612.53,0.119972
7623.73,0.116011
7634.96,0.11221
7646.22,0.108246
7657.51,0.104288
7668.84,0.100208
7680.2,0.096359
7691.59,0.092397
7703.02,0.088475
7714.49,0.084543
7725.98,0.080729
7737.51,0.076733
7749.08,0.072996
7760.68,0.069222
7772.32,0.06564
7783.99,0.062051
7795.69,0.058686
7807.43,0.055354
7819.21,0.05223
7831.02,0.049132
7842.87,0.0464
7854.75,0.043665
7866.67,0.041142
7878.62,0.038681
7890.62,0.036717
7902.64,0.034801
7914.71,0.033293
7926.81,0.032052
7938.95,0.031251
7951.13,0.03061
7963.34,0.0304
7975.59,0.030505
7987.88,0.031204
8000.21,0.032276
8012.57,0.033933
8024.98,0.036059
8037.42,0.038863
8049.9,0.042073
8062.42,0.046024
8074.98,0.05061
8087.57,0.056023
8100.21,0.061945
8112.89,0.068495
8125.6,0.075521
8138.36,0.083212
8151.16,0.091195
8163.99,0.099657
8176.87,0.108463
8189.79,0.117393
8202.75,0.12607
8215.74,0.134681
8228.79,0.142697
8241.87,0.150057
8254.99,0.15647
8268.16,0.161829
8281.37,0.165917
8294.62,0.16871
8307.91,0.17005
8321.24,0.170368
8334.62,0.169465
8348.04,0.167832
8361.51,0.16559
8375.02,0.162703
8388.57,0.159474
8402.16,0.156388
8415.8,0.153239
8429.49,0.150315
8443.22,0.14736
8456.99,0.144644
8470.81,0.14233
8484.67,0.140188
8498.58,0.137952
8512.54,0.135996
8526.54,0.134236
8540.58,0.132557
8554.68,0.130756
8568.82,0.129255
8583.0,0.127679
8597.24,0.126067
8611.52,0.124669
8625.85,0.123388
8640.22,0.121848
8654.65,0.120662
8669.12,0.119396
8683.64,0.117989
8698.21,0.11659
8712.83,0.115331
8727.5,0.113913
8742.22,0.112529
8756.98,0.111173
8771.8,0.109804
8786.67,0.108324
8801.59,0.106993
8816.56,0.105504
8831.58,0.104202
8846.65,0.103042
8861.77,0.101798
8876.94,0.100377
8892.17,0.09912
8907.45,0.097894
8922.78,0.096944
8938.16,0.095735
8953.6,0.094634
8969.09,0.093576
8984.64,0.092563
9000.23,0.091497
9015.89,0.090595
9031.59,0.089598
9047.36,0.088708
9063.17,0.087733
9079.04,0.086926
9094.97,0.086014
9110.96,0.085255
9127.0,0.084347
9143.09,0.083567
9159.25,0.082748
9175.46,0.082177
9191.73,0.081412
9208.05,0.08095
9224.44,0.080662
9240.88,0.080472
9257.38,0.080259
9273.94,0.080405
9290.56,0.080594
9307.24,0.080867
9323.98,0.081226
9340.78,0.081957
9357.64,0.08272
9374.57,0.083567
9391.55,0.084524
9408.59,0.085488
9425.7,0.086389
9442.87,0.087495
9460.1,0.088426
9477.39,0.089363
9494.75,0.09012
9512.17,0.091101
9529.66,0.091949
9547.21,0.092664
9564.82,0.093551
9582.5,0.094559
9600.25,0.095078
9618.06,0.095611
9635.94,0.095944
9653.88,0.096326
9671.89,0.096769
9689.97,0.097057
9708.12,0.097187
9726.33,0.097525
9744.61,0.097736
9762.97,0.09792
9781.39,0.097854
9799.88,0.097904
9818.44,0.09804
9837.07,0.098348
9855.77,0.098538
9874.54,0.098671
9893.39,0.098873
9912.3,0.098891
9931.29,0.098839
9950.35,0.098846
9969.49,0.098452
9988.7,0.098211
10007.98,0.097978
10027.34,0.097666
10046.77,0.09708
10066.28,0.096347
10085.87,0.095565
10105.53,0.094874
10125.26,0.094267
10145.08,0.093796
10164.97,0.09339
10184.94,0.093
10204.99,0.092312
10225.12,0.091843
10245.33,0.09146
10265.61,0.091535
10285.98,0.091635
10306.43,0.091598
10326.96,0.09173
10347.57,0.09199
10368.27,0.092049
10389.05,0.092289
10409.91,0.092634
10430.85,0.09308
10451.88,0.093324
10473.0,0.093871
10494.2,0.094404
10515.49,0.094567
10536.86,0.094435
10558.32,0.09459
10579.87,0.09483
10601.5,0.095
10623.23,0.094992
10645.04,0.094994
10666.94,0.094967
10688.94,0.095045
10711.02,0.095144
10733.2,0.095226
10755.47,0.0954
10777.83,0.095662
10800.28,0.095732
10822.83,0.095933
10845.47,0.096264
10868.21,0.096665
10891.04,0.097028
10913.97,0.097363
10936.99,0.097593
10960.12,0.098009
10983.34,0.098574
11006.66,0.099165
11030.07,0.099734
11053.59,0.100533
11077.21,0.10137
11100.93,0.102491
11124.75,0.103877
11148.68,0.105754
11172.7,0.107651
11196.84,0.109874
11221.07,0.112322
11245.41,0.115055
11269.86,0.118041
11294.41,0.121252
11319.07,0.124465
11343.84,0.127836
11368.72,0.130858
11393.7,0.133394
11418.8,0.135705
11444.01,0.137729
11469.33,0.139546
11494.76,0.141165
11520.3,0.142423
11545.96,0.143469
11571.73,0.144358
11597.62,0.145271
11623.62,0.145982
11649.74,0.146874
11675.98,0.147638
11702.34,0.148645
11728.81,0.149863
11755.41,0.151167
11782.13,0.152318
11808.96,0.153704
11835.92,0.15549
11863.01,0.15739
11890.22,0.15897
11917.55,0.160388
11945.01,0.161741
11972.6,0.163193
12000.31,0.164632
12028.16,0.165826
12056.13,0.166705
12084.23,0.167341
12112.46,0.167882
12140.83,0.167847
12169.33,0.166607
12197.96,0.164637
12226.73,0.161656
12255.64,0.157679
12284.68,0.153073
12313.86,0.147741
12343.18,0.141556
12372.64,0.134893
12402.24,0.128473
12431.98,0.122088
12461.86,0.115711
12491.89,0.110177
12522.06,0.105061
12552.38,0.100312
12582.85,0.09587
12613.47,0.091749
12644.23,0.087738
12675.15,0.084372
12706.21,0.081533
12737.43,0.078989
12768.8,0.076727
12800.33,0.075212
12832.02,0.073665
12863.86,0.072516
12895.86,0.071712
12928.02,0.070843
12960.34,0.070242
12992.82,0.069814
13025.46,0.069063
13058.27,0.068396
13091.25,0.067822
13124.39,0.067589
13157.7,0.067057
13191.18,0.066552
13224.83,0.066359
13258.66,0.066496
13292.65,0.066657
13326.83,0.066986
13361.17,0.067552
13395.7,0.06832
13430.4,0.06903
13465.29,0.069706
13500.35,0.070164
13535.6,0.070238
13571.03,0.070076
13606.65,0.070082
13642.46,0.070295
13678.46,0.070528
13714.64,0.070345
13751.02,0.070202
13787.59,0.070317
13824.36,0.070619
13861.32,0.070575
13898.48,0.070676
13935.85,0.070601
13973.41,0.070557
14011.17,0.070556
14049.15,0.070341
14087.32,0.069731
14125.71,0.06958
14164.3,0.069645
14203.11,0.069037
14242.13,0.068117
14281.36,0.067624
14320.81,0.067172
14360.48,0.066486
14400.38,0.065611
14440.49,0.064668
14480.82,0.063733
14521.39,0.063017
14562.18,0.062469
14603.2,0.062138
14644.45,0.061293
14685.93,0.06049
14727.66,0.060679
14769.62,0.060957
14811.81,0.061048
14854.25,0.061203
14896.94,0.061061
14939.87,0.060936
14983.05,0.061091
15026.48,0.061419
15070.16,0.061379
15114.1,0.061924
15158.29,0.063294
15202.74,0.065477
15247.46,0.067832
15292.43,0.070892
15337.68,0.074481
15383.19,0.0781
15428.97,0.081409
15475.03,0.084155
15521.36,0.086372
15567.97,0.087907
15614.86,0.089063
15662.04,0.090014
15709.5,0.090549
15757.25,0.090924
15805.29,0.091058
15853.62,0.090961
15902.25,0.091082
15951.18,0.091206
16000.42,0.090805
16049.95,0.090736
16099.8,0.090516
16149.95,0.090641
16200.42,0.0915
16251.21,0.093151
16302.31,0.095236
16353.74,0.097859
16405.49,0.100698
16457.57,0.103086
16509.98,0.105017
16562.73,0.106357
16615.82,0.106885
16669.24,0.107013
16723.02,0.106965
16777.13,0.106955
16831.61,0.10681
16886.43,0.10669
16941.62,0.106448
16997.16,0.106345
17053.07,0.106395
17109.36,0.106611
17166.01,0.106924
17223.04,0.107211
17280.45,0.106985
17338.24,0.106679
17396.43,0.106263
17455.0,0.105806
17513.97,0.105
17573.34,0.104153
17633.11,0.103307
17693.29,0.102293
17753.89,0.101296
17814.9,0.100753
17876.33,0.100265
17938.18,0.099834
18000.47,0.09977
18063.19,0.100003
18126.35,0.100625
18189.95,0.101986
18254.0,0.104107
18318.5,0.10674
18383.46,0.109311
18448.88,0.111678
18514.77,0.113333
18581.13,0.114239
18647.97,0.114678
18715.29,0.11449
18783.1,0.11287
18851.4,0.110687
18920.2,0.108985
18989.51,0.108124
19059.32,0.107313
19129.65,0.107005
19200.5,0.106165
19271.88,0.105858
19343.79,0.105878
19416.23,0.106306
19489.23,0.106329
19562.77,0.105582
19636.88,0.104624
19711.54,0.104526
19786.77,0.104591
19862.59,0.103987
19938.98,0.10325
20015.96,0.102945
20093.54,0.102153
20171.73,0.100344
20250.53,0.097998
20329.94,0.095982
20409.98,0.093937
20490.65,0.091712
20571.96,0.088914
20653.92,0.088542
20736.54,0.088477
20819.82,0.088923
20903.77,0.089936
20988.4,0.090612
21073.72,0.091275
21159.73,0.091273
21246.46,0.09165
21333.89,0.093375
21422.04,0.094687
21510.93,0.094518
21600.56,0.093652
21690.94,0.092554
21782.08,0.091393
21873.99,0.089957
21966.67,0.089375
22060.15,0.090053
22154.42,0.090742
22249.51,0.091289
22345.41,0.09255
22442.14,0.09526
22539.72,0.097836
22638.14,0.099111
22737.43,0.101099
22837.6,0.103976
22938.65,0.105628
23040.6,0.107916
23143.46,0.110433
23247.24,0.11276
23351.96,0.113979
23457.62,0.113688
23564.25,0.113544
23671.85,0.113961
23780.44,0.11374
23890.02,0.114072
24000.63,0.11486
24112.26,0.115693
24224.93,0.116742
24338.66,0.11841
24453.47,0.118277
24569.36,0.119504
24686.36,0.121798
24804.47,0.123487
24923.72,0.126124
25044.13,0.125957
25165.7,0.127172
25288.46,0.132484
25412.43,0.134053
25537.61,0.135473
25664.03,0.137021
25791.71,0.137826
25920.67,0.136442
