Database of Origin,University of Winnipeg Spectrophotometer Facility
Sample Description,8. Sulfates - RELAB sulfate spectra from their data base | RELAB Archived sulfate spectra (as of Sept. 2004  more coming out later)
Date Added,2016-07-15 22:05:15.692486

Data ID,RLA_SUL_29          
Sample ID,cc-jfm-033
Mineral Name,Gypsum (syn)
Grain Size,<25
Viewing Geometry,30 / 0
Resolution,5
Material Class,Sulfate

Wavelength
305.0,0.908433
310.0,0.910029
315.0,0.907179
320.0,0.914267
325.0,0.914271
330.0,0.917151
335.0,0.916375
340.0,0.918433
345.0,0.918892
350.0,0.92034
355.0,0.922538
360.0,0.923759
365.0,0.924762
370.0,0.92479
375.0,0.926974
380.0,0.928028
385.0,0.929414
390.0,0.931458
395.0,0.931607
400.0,0.926492
405.0,0.929816
410.0,0.928997
415.0,0.92995
420.0,0.930813
425.0,0.933973
430.0,0.935633
435.0,0.938168
440.0,0.93967
445.0,0.943041
450.0,0.943737
455.0,0.945119
460.0,0.946406
465.0,0.947761
470.0,0.947782
475.0,0.948425
480.0,0.950224
485.0,0.950661
490.0,0.950723
495.0,0.951517
500.0,0.951349
505.0,0.953325
510.0,0.952616
515.0,0.954507
520.0,0.954085
525.0,0.955343
530.0,0.954938
535.0,0.956097
540.0,0.95605
545.0,0.95827
550.0,0.957318
555.0,0.958197
560.0,0.957853
565.0,0.958897
570.0,0.958869
575.0,0.958744
580.0,0.958469
585.0,0.9597
590.0,0.959616
595.0,0.959666
600.0,0.959806
605.0,0.958682
610.0,0.958594
615.0,0.961216
620.0,0.959591
625.0,0.961633
630.0,0.960921
635.0,0.962166
640.0,0.96213
645.0,0.963318
650.0,0.963245
655.0,0.964365
660.0,0.964299
665.0,0.964136
670.0,0.963804
675.0,0.964214
680.0,0.965254
685.0,0.965481
690.0,0.965834
695.0,0.965701
700.0,0.966366
705.0,0.965711
710.0,0.966812
715.0,0.966226
720.0,0.966817
725.0,0.963803
730.0,0.963131
735.0,0.964334
740.0,0.96444
745.0,0.96469
750.0,0.964104
755.0,0.964246
760.0,0.965415
765.0,0.963461
770.0,0.964297
775.0,0.964335
780.0,0.964753
785.0,0.963825
790.0,0.964138
795.0,0.962791
800.0,0.965603
805.0,0.963864
810.0,0.964977
815.0,0.965208
820.0,0.964041
825.0,0.964331
830.0,0.96286
835.0,0.963715
840.0,0.964813
845.0,0.96272
850.0,0.963036
855.0,0.964615
860.0,0.962823
865.0,0.963814
870.0,0.963618
875.0,0.961578
880.0,0.962786
885.0,0.962705
890.0,0.963573
895.0,0.963485
900.0,0.962614
905.0,0.96375
910.0,0.962777
915.0,0.96286
920.0,0.962277
925.0,0.962997
930.0,0.962922
935.0,0.960972
940.0,0.96093
945.0,0.959899
950.0,0.959105
955.0,0.957901
960.0,0.956453
965.0,0.954303
970.0,0.952618
975.0,0.951988
980.0,0.951693
985.0,0.950674
990.0,0.951027
995.0,0.950888
1000.0,0.951115
1005.0,0.953815
1010.0,0.955061
1015.0,0.956441
1020.0,0.957951
1025.0,0.959118
1030.0,0.960623
1035.0,0.962213
1040.0,0.963163
1045.0,0.963777
1050.0,0.964183
1055.0,0.964122
1060.0,0.965177
1065.0,0.96492
1070.0,0.965967
1075.0,0.965421
1080.0,0.964957
1085.0,0.965602
1090.0,0.965162
1095.0,0.963769
1100.0,0.964022
1105.0,0.962913
1110.0,0.961467
1115.0,0.961927
1120.0,0.961272
1125.0,0.960199
1130.0,0.958731
1135.0,0.958316
1140.0,0.956391
1145.0,0.953178
1150.0,0.948977
1155.0,0.944076
1160.0,0.937465
1165.0,0.928863
1170.0,0.926719
1175.0,0.927726
1180.0,0.928328
1185.0,0.930005
1190.0,0.930722
1195.0,0.930974
1200.0,0.930602
1205.0,0.930903
1210.0,0.932989
1215.0,0.934689
1220.0,0.937611
1225.0,0.938133
1230.0,0.939338
1235.0,0.939774
1240.0,0.942583
1245.0,0.944284
1250.0,0.945926
1255.0,0.946323
1260.0,0.946475
1265.0,0.946894
1270.0,0.94673
1275.0,0.946492
1280.0,0.945969
1285.0,0.945618
1290.0,0.944671
1295.0,0.943785
1300.0,0.942239
1305.0,0.940719
1310.0,0.939089
1315.0,0.936927
1320.0,0.934228
1325.0,0.930183
1330.0,0.927242
1335.0,0.922954
1340.0,0.917023
1345.0,0.913029
1350.0,0.910885
1355.0,0.909428
1360.0,0.906655
1365.0,0.898031
1370.0,0.897469
1375.0,0.891889
1380.0,0.893893
1385.0,0.879001
1390.0,0.874535
1395.0,0.871322
1400.0,0.863137
1405.0,0.852463
1410.0,0.839185
1415.0,0.826474
1420.0,0.808869
1425.0,0.794107
1430.0,0.786744
1435.0,0.781356
1440.0,0.771382
1445.0,0.756651
1450.0,0.759842
1455.0,0.781269
1460.0,0.795649
1465.0,0.802881
1470.0,0.804715
1475.0,0.803124
1480.0,0.807135
1485.0,0.809784
1490.0,0.806096
1495.0,0.807949
1500.0,0.819501
1505.0,0.831023
1510.0,0.83851
1515.0,0.843145
1520.0,0.84351
1525.0,0.844118
1530.0,0.841046
1535.0,0.838135
1540.0,0.83817
1545.0,0.841386
1550.0,0.849
1555.0,0.859532
1560.0,0.866921
1565.0,0.872447
1570.0,0.876238
1575.0,0.881175
1580.0,0.883809
1585.0,0.886761
1590.0,0.889797
1595.0,0.89428
1600.0,0.897333
1605.0,0.901455
1610.0,0.904081
1615.0,0.907013
1620.0,0.909951
1625.0,0.911197
1630.0,0.914488
1635.0,0.915771
1640.0,0.917086
1645.0,0.920536
1650.0,0.92065
1655.0,0.921977
1660.0,0.92478
1665.0,0.925726
1670.0,0.926856
1675.0,0.926027
1680.0,0.925362
1685.0,0.923116
1690.0,0.921689
1695.0,0.917623
1700.0,0.914929
1705.0,0.908875
1710.0,0.901851
1715.0,0.894259
1720.0,0.885252
1725.0,0.876203
1730.0,0.865136
1735.0,0.854827
1740.0,0.845589
1745.0,0.836889
1750.0,0.832617
1755.0,0.832495
1760.0,0.834458
1765.0,0.836718
1770.0,0.837606
1775.0,0.838315
1780.0,0.839261
1785.0,0.842819
1790.0,0.847805
1795.0,0.853823
1800.0,0.859939
1805.0,0.86317
1810.0,0.867081
1815.0,0.869438
1820.0,0.872147
1825.0,0.871873
1830.0,0.874014
1835.0,0.874193
1840.0,0.868648
1845.0,0.864096
1850.0,0.860686
1855.0,0.8557
1860.0,0.84727
1865.0,0.840335
1870.0,0.836096
1875.0,0.802551
1880.0,0.783496
1885.0,0.769648
1890.0,0.748976
1895.0,0.722682
1900.0,0.69759
1905.0,0.655149
1910.0,0.606701
1915.0,0.552586
1920.0,0.504502
1925.0,0.48925
1930.0,0.494951
1935.0,0.492326
1940.0,0.482905
1945.0,0.480731
1950.0,0.489387
1955.0,0.51243
1960.0,0.547784
1965.0,0.571224
1970.0,0.580118
1975.0,0.587864
1980.0,0.599762
1985.0,0.612166
1990.0,0.627199
1995.0,0.653952
2000.0,0.688008
2005.0,0.718851
2010.0,0.741675
2015.0,0.757325
2020.0,0.768984
2025.0,0.777923
2030.0,0.783934
2035.0,0.790172
2040.0,0.79383
2045.0,0.797387
2050.0,0.798713
2055.0,0.799687
2060.0,0.798733
2065.0,0.79717
2070.0,0.796241
2075.0,0.795604
2080.0,0.795157
2085.0,0.79318
2090.0,0.790999
2095.0,0.786636
2100.0,0.781864
2105.0,0.7777
2110.0,0.774531
2115.0,0.771396
2120.0,0.768413
2125.0,0.76613
2130.0,0.763741
2135.0,0.761632
2140.0,0.759445
2145.0,0.756962
2150.0,0.75422
2155.0,0.750996
2160.0,0.747135
2165.0,0.742439
2170.0,0.738479
2175.0,0.735519
2180.0,0.733791
2185.0,0.733136
2190.0,0.732153
2195.0,0.729075
2200.0,0.726494
2205.0,0.720854
2210.0,0.716917
2215.0,0.710898
2220.0,0.708673
2225.0,0.712368
2230.0,0.720739
2235.0,0.726161
2240.0,0.7303
2245.0,0.732293
2250.0,0.731993
2255.0,0.731648
2260.0,0.729213
2265.0,0.724384
2270.0,0.721922
2275.0,0.72527
2280.0,0.731085
2285.0,0.736202
2290.0,0.739117
2295.0,0.740871
2300.0,0.742594
2305.0,0.743185
2310.0,0.743148
2315.0,0.74208
2320.0,0.74041
2325.0,0.73889
2330.0,0.735805
2335.0,0.732843
2340.0,0.727701
2345.0,0.722653
2350.0,0.716457
2355.0,0.708212
2360.0,0.700412
2365.0,0.691036
2370.0,0.68248
2375.0,0.672329
2380.0,0.661448
2385.0,0.647805
2390.0,0.632247
2395.0,0.615359
2400.0,0.596927
2405.0,0.579725
2410.0,0.56387
2415.0,0.550645
2420.0,0.538244
2425.0,0.529039
2430.0,0.521285
2435.0,0.514386
2440.0,0.506606
2445.0,0.501599
2450.0,0.495712
2455.0,0.490025
2460.0,0.483934
2465.0,0.478885
2470.0,0.473878
2475.0,0.467994
2480.0,0.468518
2485.0,0.46268
2490.0,0.46231
2495.0,0.4629
2500.0,0.464712
2505.0,0.46851
2510.0,0.471466
2515.0,0.47756
2520.0,0.480485
2525.0,0.485604
2530.0,0.489925
2535.0,0.490433
2540.0,0.490427
2545.0,0.49502
2550.0,0.489712
2555.0,0.482561
2560.0,0.496912
2565.0,0.487337
2570.0,0.483219
2575.0,0.486651
2580.0,0.483489
2585.0,0.491155
2590.0,0.478279
2595.0,0.487705
2600.0,0.470009
