Database of Origin,University of Winnipeg Spectrophotometer Facility
Sample Description,See Master Clays in HOSERLab database
Date Added,2016-12-11 20:58:35.019504

Data ID,RLA_CLAY_130        
Sample ID,GRE001
Mineral Name,greenalite
Grain Size,30/0
Viewing Geometry,0.3-2.6
Resolution,<45um
Composition,5
Material Class,Phyllosilicate

Wavelength
305.0,0.03772
310.0,0.04001
315.0,0.03729
320.0,0.03885
325.0,0.03671
330.0,0.03732
335.0,0.04006
340.0,0.04044
345.0,0.04124
350.0,0.04231
355.0,0.04377
360.0,0.04534
365.0,0.04687
370.0,0.0481
375.0,0.04947
380.0,0.05149
385.0,0.05372
390.0,0.0558
395.0,0.05848
400.0,0.05906
405.0,0.06094
410.0,0.06281
415.0,0.06478
420.0,0.06695
425.0,0.06939
430.0,0.07158
435.0,0.07397
440.0,0.07606
445.0,0.07807
450.0,0.07985
455.0,0.0815
460.0,0.08301
465.0,0.0846
470.0,0.08616
475.0,0.08789
480.0,0.08959
485.0,0.09125
490.0,0.09276
495.0,0.09454
500.0,0.09646
505.0,0.09828
510.0,0.10012
515.0,0.10184
520.0,0.10336
525.0,0.10492
530.0,0.10637
535.0,0.10797
540.0,0.10927
545.0,0.11057
550.0,0.11162
555.0,0.11276
560.0,0.11364
565.0,0.11446
570.0,0.11508
575.0,0.11572
580.0,0.11621
585.0,0.11658
590.0,0.11698
595.0,0.11711
600.0,0.1172
605.0,0.11734
610.0,0.1175
615.0,0.11765
620.0,0.11765
625.0,0.11774
630.0,0.11771
635.0,0.1177
640.0,0.11751
645.0,0.11738
650.0,0.1173
655.0,0.11712
660.0,0.117
665.0,0.1169
670.0,0.11675
675.0,0.11657
680.0,0.11645
685.0,0.11636
690.0,0.11623
695.0,0.11623
700.0,0.11617
705.0,0.11617
710.0,0.11627
715.0,0.11635
720.0,0.11643
725.0,0.11671
730.0,0.11695
735.0,0.11719
740.0,0.11735
745.0,0.11797
750.0,0.11821
755.0,0.11867
760.0,0.1191
765.0,0.11949
770.0,0.12001
775.0,0.12059
780.0,0.12108
785.0,0.12145
790.0,0.12201
795.0,0.1225
800.0,0.12346
805.0,0.12376
810.0,0.12406
815.0,0.12406
820.0,0.12474
825.0,0.12436
830.0,0.12431
835.0,0.12447
840.0,0.12413
845.0,0.124
850.0,0.12427
855.0,0.12347
860.0,0.12321
865.0,0.12262
870.0,0.12265
875.0,0.12216
880.0,0.12212
885.0,0.1212
890.0,0.12086
895.0,0.12027
900.0,0.12023
905.0,0.12002
910.0,0.11997
915.0,0.11997
920.0,0.11996
925.0,0.12015
930.0,0.12029
935.0,0.12007
940.0,0.12021
945.0,0.12053
950.0,0.12008
955.0,0.12064
960.0,0.1208
965.0,0.12137
970.0,0.12161
975.0,0.1224
980.0,0.12255
985.0,0.12328
990.0,0.12376
995.0,0.12398
1000.0,0.12435
1005.0,0.12481
1010.0,0.12541
1015.0,0.12573
1020.0,0.12615
1025.0,0.12622
1030.0,0.12709
1035.0,0.12697
1040.0,0.12778
1045.0,0.12827
1050.0,0.12848
1055.0,0.12842
1060.0,0.12916
1065.0,0.12931
1070.0,0.12952
1075.0,0.12968
1080.0,0.12975
1085.0,0.13002
1090.0,0.13022
1095.0,0.13006
1100.0,0.13017
1105.0,0.13029
1110.0,0.13021
1115.0,0.13132
1120.0,0.13144
1125.0,0.13136
1130.0,0.13179
1135.0,0.13185
1140.0,0.13221
1145.0,0.13237
1150.0,0.13241
1155.0,0.133
1160.0,0.13297
1165.0,0.13312
1170.0,0.13372
1175.0,0.13396
1180.0,0.13388
1185.0,0.1348
1190.0,0.13488
1195.0,0.13487
1200.0,0.13566
1205.0,0.13597
1210.0,0.13635
1215.0,0.13669
1220.0,0.13723
1225.0,0.13722
1230.0,0.1373
1235.0,0.13791
1240.0,0.13839
1245.0,0.13848
1250.0,0.13892
1255.0,0.13949
1260.0,0.13995
1265.0,0.14039
1270.0,0.14109
1275.0,0.14075
1280.0,0.14111
1285.0,0.14178
1290.0,0.14241
1295.0,0.1429
1300.0,0.14316
1305.0,0.14367
1310.0,0.14401
1315.0,0.14466
1320.0,0.14536
1325.0,0.14543
1330.0,0.14633
1335.0,0.14635
1340.0,0.14723
1345.0,0.14782
1350.0,0.14797
1355.0,0.14829
1360.0,0.14885
1365.0,0.14905
1370.0,0.14994
1375.0,0.14978
1380.0,0.15073
1385.0,0.15027
1390.0,0.15099
1395.0,0.1508
1400.0,0.15027
1405.0,0.14879
1410.0,0.14969
1415.0,0.1501
1420.0,0.1507
1425.0,0.15224
1430.0,0.15308
1435.0,0.15383
1440.0,0.15484
1445.0,0.15527
1450.0,0.15565
1455.0,0.15632
1460.0,0.15677
1465.0,0.15745
1470.0,0.15716
1475.0,0.1587
1480.0,0.15814
1485.0,0.1589
1490.0,0.15897
1495.0,0.15918
1500.0,0.16012
1505.0,0.16025
1510.0,0.16028
1515.0,0.16079
1520.0,0.16112
1525.0,0.16173
1530.0,0.16191
1535.0,0.16182
1540.0,0.1623
1545.0,0.16292
1550.0,0.16339
1555.0,0.16301
1560.0,0.1635
1565.0,0.16364
1570.0,0.16385
1575.0,0.16399
1580.0,0.16436
1585.0,0.16444
1590.0,0.16437
1595.0,0.16483
1600.0,0.16554
1605.0,0.1656
1610.0,0.16533
1615.0,0.16563
1620.0,0.1662
1625.0,0.1661
1630.0,0.16565
1635.0,0.16587
1640.0,0.16636
1645.0,0.16644
1650.0,0.16662
1655.0,0.16666
1660.0,0.16678
1665.0,0.16721
1670.0,0.16758
1675.0,0.16744
1680.0,0.1677
1685.0,0.16766
1690.0,0.16806
1695.0,0.1677
1700.0,0.1681
1705.0,0.1683
1710.0,0.1683
1715.0,0.16851
1720.0,0.16856
1725.0,0.16866
1730.0,0.16906
1735.0,0.16876
1740.0,0.16865
1745.0,0.16845
1750.0,0.16869
1755.0,0.16896
1760.0,0.16949
1765.0,0.1684
1770.0,0.16917
1775.0,0.16909
1780.0,0.16891
1785.0,0.16921
1790.0,0.16947
1795.0,0.169
1800.0,0.16948
1805.0,0.16928
1810.0,0.16946
1815.0,0.16934
1820.0,0.16942
1825.0,0.16954
1830.0,0.16967
1835.0,0.16945
1840.0,0.16929
1845.0,0.16924
1850.0,0.16956
1855.0,0.1696
1860.0,0.169
1865.0,0.16977
1870.0,0.17008
1875.0,0.1683
1880.0,0.16886
1885.0,0.16905
1890.0,0.16861
1895.0,0.16878
1900.0,0.168
1905.0,0.16789
1910.0,0.16782
1915.0,0.16752
1920.0,0.16786
1925.0,0.1677
1930.0,0.16694
1935.0,0.16708
1940.0,0.1672
1945.0,0.16725
1950.0,0.16676
1955.0,0.16675
1960.0,0.16669
1965.0,0.16658
1970.0,0.16664
1975.0,0.16658
1980.0,0.16659
1985.0,0.16654
1990.0,0.16669
1995.0,0.16659
2000.0,0.16629
2005.0,0.16655
2010.0,0.16697
2015.0,0.16724
2020.0,0.16661
2025.0,0.16712
2030.0,0.16692
2035.0,0.16705
2040.0,0.16721
2045.0,0.16679
2050.0,0.16694
2055.0,0.16723
2060.0,0.16701
2065.0,0.16684
2070.0,0.16702
2075.0,0.1669
2080.0,0.16669
2085.0,0.1672
2090.0,0.16682
2095.0,0.16684
2100.0,0.16644
2105.0,0.16647
2110.0,0.16609
2115.0,0.16613
2120.0,0.16542
2125.0,0.16578
2130.0,0.16563
2135.0,0.16603
2140.0,0.16544
2145.0,0.16547
2150.0,0.16505
2155.0,0.16496
2160.0,0.16513
2165.0,0.16446
2170.0,0.16517
2175.0,0.1648
2180.0,0.16464
2185.0,0.16477
2190.0,0.16492
2195.0,0.16444
2200.0,0.16453
2205.0,0.16413
2210.0,0.16387
2215.0,0.16397
2220.0,0.16346
2225.0,0.16357
2230.0,0.163
2235.0,0.16317
2240.0,0.16239
2245.0,0.16251
2250.0,0.16148
2255.0,0.16124
2260.0,0.16058
2265.0,0.16049
2270.0,0.1599
2275.0,0.1593
2280.0,0.15907
2285.0,0.15887
2290.0,0.1578
2295.0,0.15721
2300.0,0.15667
2305.0,0.15616
2310.0,0.15505
2315.0,0.15469
2320.0,0.15393
2325.0,0.15344
2330.0,0.15264
2335.0,0.15194
2340.0,0.15076
2345.0,0.15055
2350.0,0.15008
2355.0,0.15037
2360.0,0.15127
2365.0,0.15265
2370.0,0.15387
2375.0,0.15461
2380.0,0.15503
2385.0,0.15609
2390.0,0.1559
2395.0,0.15684
2400.0,0.15679
2405.0,0.15612
2410.0,0.15643
2415.0,0.15565
2420.0,0.15574
2425.0,0.155
2430.0,0.15483
2435.0,0.15437
2440.0,0.15442
2445.0,0.15403
2450.0,0.15385
2455.0,0.15221
2460.0,0.15244
2465.0,0.15116
2470.0,0.15106
2475.0,0.1505
2480.0,0.15072
2485.0,0.14968
2490.0,0.1495
2495.0,0.14964
2500.0,0.1486
2505.0,0.1481
2510.0,0.14859
2515.0,0.14849
2520.0,0.1482
2525.0,0.14846
2530.0,0.14859
2535.0,0.14908
2540.0,0.14874
2545.0,0.14888
2550.0,0.14886
2555.0,0.14852
2560.0,0.14969
2565.0,0.14784
2570.0,0.14824
2575.0,0.14756
2580.0,0.14852
2585.0,0.14828
2590.0,0.14702
2595.0,0.14729
2600.0,0.14671
