Database of Origin,University of Winnipeg Spectrophotometer Facility
Sample Description,See Master Clays in HOSERLab database
Date Added,2016-12-11 20:57:05.851536

Data ID,RLA_CLAY_02         
Sample ID,BER102
Mineral Name,berthierine
Grain Size,<45um
Viewing Geometry,"30/0,30"
Resolution,"5,0.6-129"
Material Class,Phyllosilicate

Wavelength
305.0,0.035575
310.0,0.035788
315.0,0.033854
320.0,0.033026
325.0,0.033157
330.0,0.033739
335.0,0.033883
340.0,0.03349
345.0,0.033531
350.0,0.033933
355.0,0.034793
360.0,0.035477
365.0,0.03627
370.0,0.038069
375.0,0.039617
380.0,0.041411
385.0,0.043762
390.0,0.046119
395.0,0.048799
400.0,0.051217
405.0,0.053372
410.0,0.05579
415.0,0.058261
420.0,0.061144
425.0,0.064352
430.0,0.068367
435.0,0.072184
440.0,0.07587
445.0,0.08018
450.0,0.083279
455.0,0.086305
460.0,0.088536
465.0,0.090755
470.0,0.092897
475.0,0.095408
480.0,0.098329
485.0,0.101235
490.0,0.104307
495.0,0.107808
500.0,0.111506
505.0,0.116022
510.0,0.120215
515.0,0.124763
520.0,0.128888
525.0,0.133062
530.0,0.137057
535.0,0.141121
540.0,0.144909
545.0,0.14813
550.0,0.150625
555.0,0.1536
560.0,0.155388
565.0,0.158181
570.0,0.158797
575.0,0.160435
580.0,0.161567
585.0,0.162591
590.0,0.163674
595.0,0.163989
600.0,0.164807
605.0,0.165577
610.0,0.165863
615.0,0.165976
620.0,0.166366
625.0,0.166483
630.0,0.166441
635.0,0.166589
640.0,0.166923
645.0,0.166714
650.0,0.167029
655.0,0.166703
660.0,0.1668
665.0,0.166793
670.0,0.166652
675.0,0.16724
680.0,0.167025
685.0,0.166372
690.0,0.16784
695.0,0.167332
700.0,0.167349
705.0,0.168394
710.0,0.168324
715.0,0.169758
720.0,0.170346
725.0,0.171059
730.0,0.1719
735.0,0.173594
740.0,0.174772
745.0,0.175685
750.0,0.177456
755.0,0.178562
760.0,0.181201
765.0,0.183308
770.0,0.185268
775.0,0.187145
780.0,0.189105
785.0,0.191578
790.0,0.193593
795.0,0.194789
800.0,0.197073
805.0,0.197836
810.0,0.198796
815.0,0.200439
820.0,0.201579
825.0,0.201509
830.0,0.200931
835.0,0.202296
840.0,0.202098
845.0,0.201495
850.0,0.202723
855.0,0.201996
860.0,0.202648
865.0,0.201603
870.0,0.20101
875.0,0.2015
880.0,0.201596
885.0,0.20224
890.0,0.19967
895.0,0.200396
900.0,0.201657
905.0,0.202136
910.0,0.20069
915.0,0.202882
920.0,0.202918
925.0,0.202684
930.0,0.204693
935.0,0.204631
940.0,0.205965
945.0,0.206631
950.0,0.208611
955.0,0.209358
960.0,0.210883
965.0,0.212347
970.0,0.213927
975.0,0.215431
980.0,0.216368
985.0,0.21795
990.0,0.219143
995.0,0.220892
1000.0,0.22166
1005.0,0.22233
1010.0,0.223819
1015.0,0.225376
1020.0,0.226204
1025.0,0.226586
1030.0,0.228487
1035.0,0.229006
1040.0,0.229776
1045.0,0.231059
1050.0,0.232023
1055.0,0.232509
1060.0,0.233952
1065.0,0.235214
1070.0,0.237526
1075.0,0.236375
1080.0,0.238513
1085.0,0.239573
1090.0,0.239579
1095.0,0.241186
1100.0,0.241838
1105.0,0.242684
1110.0,0.243895
1115.0,0.245254
1120.0,0.24689
1125.0,0.2478
1130.0,0.248339
1135.0,0.249448
1140.0,0.2511
1145.0,0.253396
1150.0,0.253628
1155.0,0.256424
1160.0,0.257584
1165.0,0.258603
1170.0,0.261573
1175.0,0.262443
1180.0,0.264601
1185.0,0.266546
1190.0,0.268852
1195.0,0.270302
1200.0,0.273337
1205.0,0.276608
1210.0,0.280115
1215.0,0.282493
1220.0,0.284693
1225.0,0.28727
1230.0,0.288872
1235.0,0.291903
1240.0,0.294271
1245.0,0.296423
1250.0,0.299151
1255.0,0.301854
1260.0,0.304813
1265.0,0.307055
1270.0,0.309273
1275.0,0.313345
1280.0,0.316421
1285.0,0.318218
1290.0,0.32088
1295.0,0.323564
1300.0,0.327229
1305.0,0.329492
1310.0,0.332792
1315.0,0.336935
1320.0,0.338207
1325.0,0.341913
1330.0,0.345356
1335.0,0.348085
1340.0,0.350501
1345.0,0.354175
1350.0,0.356554
1355.0,0.359196
1360.0,0.362576
1365.0,0.367812
1370.0,0.370191
1375.0,0.373456
1380.0,0.373892
1385.0,0.379074
1390.0,0.382216
1395.0,0.383164
1400.0,0.384353
1405.0,0.38565
1410.0,0.389197
1415.0,0.390574
1420.0,0.394714
1425.0,0.398139
1430.0,0.400322
1435.0,0.404681
1440.0,0.409768
1445.0,0.41122
1450.0,0.415883
1455.0,0.420177
1460.0,0.423012
1465.0,0.427543
1470.0,0.429828
1475.0,0.433865
1480.0,0.4363
1485.0,0.440094
1490.0,0.442494
1495.0,0.447012
1500.0,0.450181
1505.0,0.453041
1510.0,0.456385
1515.0,0.459836
1520.0,0.462119
1525.0,0.464668
1530.0,0.467955
1535.0,0.47103
1540.0,0.474077
1545.0,0.476578
1550.0,0.479839
1555.0,0.483363
1560.0,0.486761
1565.0,0.489569
1570.0,0.492434
1575.0,0.493706
1580.0,0.497351
1585.0,0.501207
1590.0,0.502511
1595.0,0.505229
1600.0,0.508231
1605.0,0.510177
1610.0,0.513243
1615.0,0.516574
1620.0,0.519339
1625.0,0.521032
1630.0,0.523187
1635.0,0.525825
1640.0,0.52838
1645.0,0.531158
1650.0,0.535006
1655.0,0.535978
1660.0,0.537805
1665.0,0.541884
1670.0,0.548236
1675.0,0.549335
1680.0,0.553063
1685.0,0.554015
1690.0,0.557911
1695.0,0.558968
1700.0,0.562795
1705.0,0.563976
1710.0,0.567275
1715.0,0.569348
1720.0,0.571397
1725.0,0.57333
1730.0,0.576058
1735.0,0.57784
1740.0,0.579156
1745.0,0.582389
1750.0,0.583897
1755.0,0.585543
1760.0,0.588493
1765.0,0.589442
1770.0,0.590687
1775.0,0.592494
1780.0,0.594375
1785.0,0.596744
1790.0,0.598589
1795.0,0.59992
1800.0,0.601969
1805.0,0.60402
1810.0,0.605121
1815.0,0.606757
1820.0,0.608825
1825.0,0.611594
1830.0,0.612981
1835.0,0.612845
1840.0,0.616616
1845.0,0.61837
1850.0,0.619973
1855.0,0.620895
1860.0,0.622361
1865.0,0.622505
1870.0,0.619564
1875.0,0.625537
1880.0,0.625119
1885.0,0.619631
1890.0,0.615434
1895.0,0.611711
1900.0,0.602516
1905.0,0.596516
1910.0,0.590825
1915.0,0.587426
1920.0,0.585817
1925.0,0.589144
1930.0,0.588708
1935.0,0.590611
1940.0,0.593154
1945.0,0.596038
1950.0,0.598887
1955.0,0.60134
1960.0,0.603945
1965.0,0.607194
1970.0,0.609233
1975.0,0.611791
1980.0,0.615326
1985.0,0.61785
1990.0,0.620508
1995.0,0.621767
2000.0,0.625044
2005.0,0.628159
2010.0,0.631327
2015.0,0.633363
2020.0,0.636696
2025.0,0.638228
2030.0,0.641204
2035.0,0.642086
2040.0,0.645275
2045.0,0.64823
2050.0,0.649981
2055.0,0.651018
2060.0,0.652655
2065.0,0.655296
2070.0,0.655767
2075.0,0.657825
2080.0,0.65982
2085.0,0.66151
2090.0,0.66227
2095.0,0.665228
2100.0,0.665644
2105.0,0.666729
2110.0,0.668291
2115.0,0.668285
2120.0,0.670888
2125.0,0.670885
2130.0,0.671677
2135.0,0.670788
2140.0,0.671837
2145.0,0.672738
2150.0,0.673776
2155.0,0.67306
2160.0,0.673699
2165.0,0.672886
2170.0,0.673458
2175.0,0.672566
2180.0,0.672854
2185.0,0.67057
2190.0,0.671399
2195.0,0.670285
2200.0,0.668988
2205.0,0.667072
2210.0,0.666465
2215.0,0.664998
2220.0,0.663109
2225.0,0.660941
2230.0,0.659161
2235.0,0.656135
2240.0,0.652155
2245.0,0.64786
2250.0,0.64246
2255.0,0.637378
2260.0,0.634965
2265.0,0.63061
2270.0,0.630049
2275.0,0.624186
2280.0,0.621844
2285.0,0.618345
2290.0,0.616537
2295.0,0.612564
2300.0,0.613041
2305.0,0.612536
2310.0,0.610353
2315.0,0.608337
2320.0,0.6077
2325.0,0.604795
2330.0,0.601962
2335.0,0.600235
2340.0,0.59816
2345.0,0.595418
2350.0,0.592073
2355.0,0.589344
2360.0,0.588562
2365.0,0.588236
2370.0,0.590101
2375.0,0.591545
2380.0,0.58935
2385.0,0.591138
2390.0,0.592874
2395.0,0.595155
2400.0,0.593972
2405.0,0.594048
2410.0,0.592901
2415.0,0.592143
2420.0,0.592592
2425.0,0.590843
2430.0,0.5907
2435.0,0.587881
2440.0,0.588341
2445.0,0.584338
2450.0,0.583158
2455.0,0.579695
2460.0,0.578518
2465.0,0.575012
2470.0,0.570961
2475.0,0.56956
2480.0,0.567353
2485.0,0.564331
2490.0,0.561422
2495.0,0.558578
2500.0,0.556673
2505.0,0.552893
2510.0,0.551328
2515.0,0.548358
2520.0,0.549947
2525.15,0.546946
2530.08,0.54349
2535.03,0.544152
2540.0,0.543186
2544.99,0.542829
2549.99,0.542432
2552.5,0.542024
2553.76,0.541785
2556.28,0.543183
2558.8,0.541371
2561.33,0.539125
2563.86,0.540182
2565.13,0.540541
2566.4,0.541882
2567.67,0.542328
2568.95,0.540125
2570.22,0.538387
2571.5,0.539482
2572.77,0.540107
2574.05,0.537637
2575.33,0.539513
2576.61,0.540331
2577.89,0.538037
2579.17,0.53933
2580.46,0.539872
2581.74,0.537682
2583.03,0.537558
2584.31,0.535805
2585.6,0.537228
2586.89,0.539086
2588.19,0.536721
2589.48,0.536758
2590.77,0.537666
2592.07,0.537273
2593.36,0.535482
2594.66,0.530647
2595.96,0.530186
2597.26,0.539678
2598.56,0.541252
2599.87,0.537635
2601.17,0.534802
2602.48,0.533536
2603.78,0.533328
2605.09,0.53196
2606.4,0.530968
2607.71,0.533506
2609.03,0.534284
2610.34,0.532522
2611.66,0.532988
2612.97,0.533138
2614.29,0.531685
2615.61,0.531186
2616.93,0.528375
2618.25,0.528166
2619.57,0.531517
2620.9,0.528463
2622.22,0.529143
2623.55,0.531791
2624.88,0.529595
2626.21,0.52681
2627.54,0.525005
2628.87,0.527658
2630.21,0.526204
2631.54,0.52351
2632.88,0.52693
2634.21,0.526328
2635.55,0.52483
2636.89,0.525323
2638.24,0.524262
2639.58,0.522882
2640.92,0.521919
2642.27,0.52103
2643.62,0.520817
2644.97,0.520061
2646.32,0.518005
2647.67,0.517975
2649.02,0.518261
2650.38,0.517254
2651.73,0.515297
2653.09,0.51307
2654.45,0.513419
2655.81,0.513405
2657.17,0.511949
2658.53,0.510536
2659.89,0.508024
2661.26,0.507224
2662.63,0.50708
2664.0,0.505423
2665.36,0.500945
2666.74,0.498365
2668.11,0.499793
2669.48,0.5006
2670.86,0.494342
2672.23,0.492649
2673.61,0.494643
2674.99,0.488804
2676.37,0.482283
2677.76,0.477676
2679.14,0.476697
2680.52,0.474653
2681.91,0.472513
2683.3,0.467343
2684.69,0.462214
2686.08,0.458416
2687.47,0.454899
2688.87,0.451612
2690.26,0.44792
2691.66,0.443128
2693.06,0.437707
2694.46,0.4314
2695.86,0.42775
2697.26,0.423679
2698.66,0.417981
2700.07,0.411097
2701.48,0.40445
2702.89,0.399178
2704.3,0.394861
2705.71,0.388774
2707.12,0.383019
2708.53,0.376909
2709.95,0.370222
2711.37,0.363723
2712.79,0.359356
2714.21,0.355144
2715.63,0.348612
2717.05,0.342237
2718.48,0.335996
2719.9,0.329345
2721.33,0.322094
2722.76,0.316651
2724.19,0.309854
2725.62,0.300523
2727.06,0.293398
2728.49,0.285769
2729.93,0.276741
2731.37,0.267189
2732.81,0.257432
2734.25,0.247705
2735.69,0.238012
2737.14,0.228369
2738.58,0.219326
2740.03,0.209468
2741.48,0.200436
2742.93,0.191726
2744.38,0.18306
2745.83,0.173905
2747.29,0.165363
2748.75,0.157355
2750.2,0.149682
2751.66,0.142405
2753.13,0.135673
2754.59,0.12962
2756.05,0.124455
2757.52,0.120084
2758.99,0.116254
2760.46,0.112552
2761.93,0.109307
2763.4,0.105892
2764.87,0.103484
2766.35,0.101476
2767.82,0.099285
2769.3,0.097498
2770.78,0.096397
2772.26,0.094924
2773.75,0.093593
2775.23,0.092668
2776.72,0.091896
2778.21,0.091092
2779.7,0.090406
2781.19,0.089701
2782.68,0.089354
2784.18,0.089171
2785.67,0.088991
2787.17,0.08857
2788.67,0.088666
2790.17,0.08896
2791.67,0.088892
2793.18,0.088999
2794.68,0.089608
2796.19,0.089628
2797.7,0.089817
2799.21,0.09009
2800.72,0.090633
2802.24,0.090797
2803.75,0.090664
2805.27,0.091224
2806.79,0.092132
2808.31,0.092905
2809.83,0.093542
2811.35,0.094234
2812.88,0.094945
2814.41,0.095631
2815.93,0.095982
2817.46,0.096687
2819.0,0.09736
2820.53,0.097932
2822.07,0.098933
2823.6,0.100069
2825.14,0.100998
2826.68,0.101859
2828.22,0.102604
2829.77,0.103476
2831.31,0.104049
2832.86,0.104854
2834.41,0.105898
2835.96,0.106664
2837.51,0.107469
2839.07,0.10848
2840.62,0.109496
2842.18,0.110169
2843.74,0.110841
2845.3,0.111833
2846.86,0.112708
2848.43,0.113228
2849.99,0.113723
2851.56,0.11452
2853.13,0.11544
2854.7,0.116089
2856.27,0.11649
2857.85,0.116924
2859.42,0.117617
2861.0,0.118396
2862.58,0.118948
2864.16,0.119212
2865.75,0.119813
2867.33,0.120394
2868.92,0.120822
2870.51,0.121282
2872.1,0.122271
2873.69,0.122978
2875.28,0.123289
2876.88,0.123573
2878.48,0.124109
2880.07,0.124767
2881.68,0.125162
2883.28,0.125375
2884.88,0.125827
2886.49,0.126638
2888.1,0.127267
2889.71,0.127538
2891.32,0.128089
2892.93,0.12853
2894.55,0.128952
2896.16,0.129395
2897.78,0.12996
2899.4,0.130256
2901.03,0.130612
2902.65,0.131125
2904.28,0.131654
2905.91,0.13214
2907.54,0.132441
2909.17,0.132797
2910.8,0.133558
2912.44,0.134111
2914.07,0.134404
2915.71,0.134747
2917.35,0.13491
2918.99,0.135301
2920.64,0.135694
2922.29,0.136166
2923.93,0.136659
2925.58,0.137125
2927.24,0.137588
2928.89,0.138077
2930.55,0.138562
2932.2,0.138909
2933.86,0.139579
2935.52,0.140077
2937.19,0.140486
2938.85,0.140879
2940.52,0.141509
2942.19,0.142217
2943.86,0.142612
2945.53,0.142968
2947.21,0.143466
2948.88,0.144081
2950.56,0.144686
2952.24,0.145533
2953.92,0.14624
2955.61,0.146874
2957.29,0.147473
2958.98,0.148003
2960.67,0.148441
2962.36,0.149035
2964.06,0.149856
2965.75,0.150802
2967.45,0.151367
2969.15,0.151751
2970.85,0.15235
2972.55,0.152973
2974.26,0.153452
2975.97,0.154112
2977.68,0.154723
2979.39,0.155217
2981.1,0.156106
2982.82,0.156889
2984.53,0.157459
2986.25,0.15792
2987.97,0.158661
2989.7,0.159513
2991.42,0.160096
2993.15,0.160513
2994.88,0.161038
2996.61,0.161637
2998.34,0.162153
3000.08,0.16295
3001.82,0.163702
3003.55,0.164352
3005.3,0.164937
3007.04,0.165357
3008.78,0.165875
3010.53,0.166663
3012.28,0.167191
3014.03,0.167801
3015.79,0.168418
3017.54,0.169078
3019.3,0.169781
3021.06,0.170256
3022.82,0.170734
3024.58,0.171452
3026.35,0.172234
3028.12,0.172873
3029.89,0.173468
3031.66,0.174067
3033.43,0.174609
3035.21,0.174936
3036.99,0.175306
3038.77,0.176033
3040.55,0.176652
3042.33,0.177248
3044.12,0.177729
3045.91,0.178172
3047.7,0.178777
3049.49,0.179358
3051.29,0.17984
3053.08,0.180331
3054.88,0.180838
3056.68,0.181193
3058.49,0.181764
3060.29,0.182331
3062.1,0.182564
3063.91,0.183144
3065.72,0.183754
3067.54,0.184216
3069.35,0.184669
3071.17,0.1851
3072.99,0.18563
3074.81,0.186245
3076.64,0.186635
3078.47,0.18687
3080.29,0.187328
3082.13,0.187886
3083.96,0.188743
3085.79,0.189462
3087.63,0.189843
3089.47,0.190107
3091.31,0.190635
3093.16,0.191363
3095.01,0.191639
3096.85,0.191784
3098.71,0.192158
3100.56,0.192815
3102.41,0.193605
3104.27,0.194166
3106.13,0.194688
3107.99,0.195204
3109.86,0.195762
3111.73,0.196385
3113.59,0.196837
3115.47,0.197306
3117.34,0.198032
3119.21,0.198594
3121.09,0.199272
3122.97,0.199699
3124.86,0.200172
3126.74,0.200763
3128.63,0.20136
3130.52,0.20218
3132.41,0.202754
3134.3,0.203185
3136.2,0.203904
3138.1,0.204698
3140.0,0.205252
3141.9,0.205865
3143.81,0.206387
3145.71,0.206929
3147.62,0.207629
3149.54,0.208346
3151.45,0.209006
3153.37,0.209666
3155.29,0.210418
3157.21,0.211374
3159.13,0.212148
3161.06,0.21272
3162.99,0.213353
3164.92,0.214055
3166.85,0.214751
3168.79,0.215617
3170.72,0.216422
3172.67,0.217201
3174.61,0.217998
3176.55,0.218622
3178.5,0.219244
3180.45,0.220188
3182.4,0.221258
3184.36,0.222084
3186.32,0.222703
3188.27,0.22353
3190.24,0.22444
3192.2,0.225216
3194.17,0.226187
3196.14,0.227104
3198.11,0.227994
3200.08,0.229034
3202.06,0.229982
3204.04,0.230993
3206.02,0.231808
3208.0,0.232556
3209.99,0.233525
3211.98,0.234721
3213.97,0.235868
3215.96,0.236843
3217.96,0.237766
3219.96,0.238841
3221.96,0.239937
3223.96,0.241159
3225.97,0.242336
3227.98,0.243141
3229.99,0.244095
3232.0,0.245217
3234.02,0.246232
3236.04,0.247281
3238.06,0.248565
3240.08,0.249843
3242.11,0.250995
3244.14,0.252117
3246.17,0.253092
3248.2,0.253923
3250.24,0.254914
3252.28,0.256074
3254.32,0.257131
3256.37,0.258171
3258.41,0.25925
3260.46,0.260056
3262.51,0.261131
3264.57,0.262222
3266.63,0.263292
3268.69,0.264511
3270.75,0.265722
3272.81,0.266665
3274.88,0.267708
3276.95,0.268716
3279.02,0.269479
3281.1,0.270308
3283.18,0.271372
3285.26,0.272297
3287.34,0.273309
3289.43,0.274419
3291.51,0.27536
3293.61,0.275948
3295.7,0.276847
3297.8,0.277947
3299.9,0.278881
3302.0,0.279684
3304.1,0.280586
3306.21,0.281464
3308.32,0.282402
3310.43,0.283195
3312.55,0.28404
3314.66,0.284866
3316.79,0.285673
3318.91,0.286548
3321.03,0.287219
3323.16,0.287747
3325.29,0.288481
3327.43,0.289163
3329.57,0.289869
3331.71,0.290503
3333.85,0.290922
3335.99,0.291216
3338.14,0.291736
3340.29,0.292219
3342.45,0.292458
3344.6,0.292804
3346.76,0.293148
3348.92,0.293164
3351.09,0.293201
3353.26,0.293283
3355.43,0.293372
3357.6,0.293694
3359.78,0.294029
3361.96,0.294246
3364.14,0.294134
3366.32,0.29392
3368.51,0.293965
3370.7,0.293884
3372.89,0.293825
3375.09,0.293802
3377.29,0.294043
3379.49,0.294652
3381.69,0.295314
3383.9,0.295947
3386.11,0.296653
3388.32,0.297483
3390.54,0.298374
3392.76,0.298811
3394.98,0.298872
3397.21,0.29888
3399.43,0.298898
3401.66,0.298707
3403.9,0.298287
3406.13,0.298006
3408.37,0.297882
3410.61,0.297681
3412.86,0.297482
3415.11,0.297741
3417.36,0.298513
3419.61,0.299545
3421.87,0.300772
3424.13,0.302401
3426.39,0.304137
3428.66,0.306116
3430.93,0.308197
3433.2,0.309996
3435.48,0.311599
3437.76,0.312962
3440.04,0.314301
3442.32,0.315564
3444.61,0.316893
3446.9,0.318225
3449.19,0.31926
3451.49,0.320274
3453.79,0.321408
3456.09,0.322199
3458.4,0.322935
3460.7,0.323845
3463.02,0.324598
3465.33,0.325009
3467.65,0.325326
3469.97,0.325475
3472.29,0.325619
3474.62,0.325598
3476.95,0.325719
3479.29,0.325798
3481.62,0.326067
3483.96,0.326663
3486.3,0.327268
3488.65,0.327561
3491.0,0.327716
3493.35,0.328125
3495.71,0.328803
3498.07,0.329421
3500.43,0.330002
3502.79,0.330884
3505.16,0.332048
3507.53,0.333606
3509.91,0.335519
3512.29,0.33763
3514.67,0.339644
3517.05,0.341483
3519.44,0.343382
3521.83,0.345378
3524.23,0.347457
3526.62,0.349444
3529.02,0.351307
3531.43,0.352985
3533.83,0.354515
3536.24,0.355933
3538.66,0.357362
3541.08,0.358822
3543.5,0.360074
3545.92,0.361168
3548.35,0.36237
3550.78,0.363592
3553.21,0.364774
3555.65,0.36581
3558.09,0.366812
3560.53,0.367723
3562.98,0.368657
3565.43,0.369694
3567.88,0.370775
3570.34,0.37172
3572.8,0.372591
3575.27,0.373441
3577.73,0.374426
3580.2,0.375369
3582.68,0.376332
3585.16,0.377056
3587.64,0.377842
3590.12,0.378719
3592.61,0.379551
3595.1,0.380398
3597.6,0.38127
3600.09,0.381971
3602.6,0.382768
3605.1,0.383498
3607.61,0.384353
3610.12,0.385224
3612.64,0.386083
3615.16,0.38684
3617.68,0.387475
3620.21,0.388232
3622.74,0.389104
3625.27,0.389827
3627.81,0.390521
3630.35,0.391324
3632.89,0.391998
3635.44,0.392568
3637.99,0.393275
3640.54,0.39403
3643.1,0.394714
3645.66,0.395383
3648.23,0.396269
3650.8,0.396883
3653.37,0.397415
3655.95,0.398251
3658.53,0.399166
3661.11,0.399786
3663.7,0.400464
3666.29,0.401079
3668.89,0.40192
3671.48,0.402671
3674.09,0.403513
3676.69,0.404313
3679.3,0.405052
3681.91,0.405667
3684.53,0.406317
3687.15,0.407072
3689.78,0.407863
3692.4,0.408687
3695.04,0.409333
3697.67,0.41001
3700.31,0.410831
3702.95,0.411489
3705.6,0.412215
3708.25,0.412878
3710.91,0.413466
3713.56,0.414145
3716.23,0.414882
3718.89,0.41556
3721.56,0.416168
3724.23,0.416767
3726.91,0.41756
3729.59,0.418235
3732.28,0.418889
3734.97,0.419454
3737.66,0.420108
3740.36,0.420764
3743.06,0.421428
3745.76,0.422034
3748.47,0.422691
3751.18,0.42327
3753.9,0.42377
3756.62,0.424475
3759.34,0.425359
3762.07,0.425827
3764.8,0.426269
3767.54,0.426819
3770.28,0.427322
3773.02,0.427862
3775.77,0.428311
3778.52,0.428764
3781.28,0.429252
3784.04,0.429488
3786.8,0.429831
3789.57,0.430195
3792.34,0.430498
3795.12,0.430753
3797.9,0.430983
3800.69,0.431118
3803.47,0.431293
3806.27,0.431397
3809.06,0.431485
3811.86,0.431607
3814.67,0.431765
3817.48,0.431895
3820.29,0.431974
3823.11,0.432074
3825.93,0.432291
3828.76,0.432436
3831.59,0.432479
3834.42,0.43265
3837.26,0.432644
3840.1,0.432659
3842.95,0.432836
3845.8,0.432999
3848.65,0.433267
3851.51,0.433335
3854.38,0.43361
3857.24,0.433967
3860.12,0.434252
3862.99,0.434452
3865.87,0.434742
3868.76,0.434909
3871.65,0.435084
3874.54,0.435349
3877.44,0.435521
3880.34,0.435701
3883.25,0.435919
3886.16,0.436198
3889.07,0.436457
3891.99,0.436505
3894.92,0.436579
3897.85,0.43669
3900.78,0.436843
3903.72,0.437069
3906.66,0.437093
3909.6,0.437214
3912.55,0.437407
3915.51,0.437327
3918.47,0.437213
3921.43,0.437131
3924.4,0.437029
3927.38,0.436835
3930.35,0.436687
3933.33,0.436513
3936.32,0.436201
3939.31,0.435704
3942.31,0.435393
3945.31,0.434911
3948.31,0.434157
3951.32,0.43327
3954.34,0.43237
3957.35,0.431481
3960.38,0.430606
3963.41,0.42961
3966.44,0.428556
3969.48,0.427701
3972.52,0.427168
3975.56,0.426677
3978.61,0.426335
3981.67,0.426151
3984.73,0.426085
3987.8,0.426129
3990.87,0.426478
3993.94,0.427208
3997.02,0.428114
4000.1,0.429297
4003.19,0.4306
4006.29,0.431892
4009.39,0.433279
4012.49,0.434867
4015.6,0.436491
4018.71,0.437933
4021.83,0.439332
4024.95,0.440731
4028.08,0.442253
4031.21,0.443723
4034.35,0.445295
4037.49,0.446816
4040.64,0.448285
4043.79,0.449846
4046.94,0.451314
4050.11,0.452803
4053.27,0.454331
4056.44,0.455777
4059.62,0.457092
4062.8,0.458158
4065.99,0.459259
4069.18,0.460357
4072.38,0.461482
4075.58,0.462526
4078.78,0.46357
4082.0,0.464483
4085.21,0.46531
4088.43,0.466017
4091.66,0.466704
4094.89,0.467396
4098.13,0.468073
4101.37,0.468625
4104.62,0.469276
4107.87,0.469957
4111.13,0.470473
4114.39,0.470939
4117.66,0.471413
4120.93,0.471715
4124.21,0.472204
4127.5,0.47262
4130.79,0.472965
4134.08,0.473174
4137.38,0.473511
4140.68,0.473877
4143.99,0.474183
4147.31,0.47448
4150.63,0.474742
4153.95,0.474932
4157.29,0.475171
4160.62,0.475308
4163.96,0.475399
4167.31,0.475689
4170.66,0.476029
4174.02,0.476054
4177.39,0.476306
4180.75,0.476608
4184.13,0.476759
4187.51,0.476692
4190.89,0.47679
4194.28,0.476963
4197.68,0.476975
4201.08,0.476915
4204.49,0.477051
4207.9,0.477177
4211.32,0.477419
4214.74,0.477532
4218.17,0.477749
4221.61,0.477917
4225.05,0.478348
4228.5,0.478489
4231.95,0.478622
4235.4,0.478778
4238.87,0.478996
4242.34,0.479209
4245.81,0.479379
4249.29,0.479623
4252.78,0.479666
4256.27,0.479323
4259.77,0.478573
4263.27,0.477822
4266.78,0.47788
4270.29,0.478101
4273.81,0.478469
4277.34,0.478838
4280.87,0.479258
4284.41,0.479331
4287.95,0.479386
4291.5,0.479445
4295.06,0.479659
4298.62,0.47985
4302.19,0.479907
4305.76,0.479901
4309.34,0.480002
4312.92,0.479999
4316.52,0.480019
4320.11,0.479917
4323.72,0.479951
4327.32,0.480001
4330.94,0.479938
4334.56,0.479829
4338.19,0.479913
4341.82,0.479867
4345.46,0.479774
4349.11,0.479774
4352.76,0.479831
4356.42,0.479659
4360.08,0.479705
4363.75,0.47973
4367.43,0.479723
4371.11,0.479641
4374.8,0.479605
4378.49,0.479594
4382.19,0.479567
4385.9,0.479507
4389.61,0.479568
4393.33,0.479432
4397.06,0.479353
4400.79,0.479313
4404.53,0.479288
4408.28,0.479216
4412.03,0.479221
4415.79,0.479118
4419.55,0.478982
4423.32,0.478856
4427.1,0.478692
4430.88,0.478552
4434.68,0.478353
4438.47,0.478211
4442.28,0.478096
4446.08,0.477824
4449.9,0.477753
4453.72,0.477597
4457.55,0.477374
4461.39,0.477043
4465.23,0.476853
4469.08,0.476872
4472.94,0.476805
4476.8,0.476504
4480.67,0.476262
4484.55,0.47609
4488.43,0.475949
4492.32,0.475823
4496.21,0.475664
4500.12,0.475308
4504.03,0.475122
4507.94,0.474814
4511.87,0.474567
4515.8,0.474331
4519.73,0.474156
4523.68,0.473838
4527.63,0.473628
4531.59,0.473316
4535.55,0.473013
4539.52,0.472728
4543.5,0.472522
4547.49,0.472196
4551.48,0.471988
4555.48,0.471685
4559.49,0.471328
4563.5,0.47092
4567.52,0.47066
4571.55,0.470245
4575.58,0.469932
4579.63,0.469598
4583.67,0.469153
4587.73,0.468586
4591.79,0.468234
4595.86,0.467779
4599.94,0.467369
4604.03,0.466847
4608.12,0.466422
4612.22,0.465891
4616.33,0.465458
4620.44,0.464967
4624.56,0.464431
4628.69,0.463875
4632.83,0.463368
4636.97,0.462951
4641.12,0.462494
4645.28,0.461839
4649.45,0.461239
4653.62,0.460649
4657.8,0.460176
4661.99,0.459719
4666.19,0.459386
4670.39,0.45894
4674.6,0.45854
4678.82,0.458163
4683.05,0.457806
4687.28,0.457484
4691.52,0.457213
4695.77,0.456942
4700.03,0.456572
4704.3,0.45633
4708.57,0.456122
4712.85,0.455771
4717.14,0.455526
4721.43,0.455287
4725.74,0.455125
4730.05,0.454761
4734.37,0.454348
4738.7,0.453977
4743.03,0.45366
4747.38,0.453272
4751.73,0.452882
4756.09,0.452392
4760.45,0.451852
4764.83,0.451256
4769.21,0.450711
4773.6,0.450027
4778.0,0.449386
4782.41,0.448787
4786.83,0.448234
4791.25,0.447566
4795.68,0.44688
4800.13,0.446204
4804.57,0.445573
4809.03,0.444982
4813.5,0.444331
4817.97,0.443784
4822.45,0.443338
4826.94,0.442696
4831.44,0.442136
4835.95,0.441599
4840.46,0.441122
4844.99,0.440662
4849.52,0.440223
4854.06,0.439674
4858.61,0.439162
4863.17,0.438583
4867.73,0.437999
4872.31,0.43744
4876.89,0.436825
4881.48,0.436131
4886.08,0.435595
4890.69,0.434997
4895.31,0.434497
4899.94,0.433947
4904.57,0.433482
4909.22,0.432836
4913.87,0.432178
4918.53,0.431581
4923.21,0.430937
4927.88,0.430215
4932.57,0.429603
4937.27,0.428917
4941.98,0.428191
4946.69,0.427436
4951.42,0.426723
4956.15,0.425954
4960.9,0.425226
4965.65,0.424559
4970.41,0.423866
4975.18,0.422981
4979.96,0.422043
4984.75,0.421111
4989.54,0.420437
4994.35,0.419723
4999.17,0.418919
5003.99,0.418063
5008.83,0.417429
5013.67,0.416788
5018.52,0.415999
5023.39,0.415303
5028.26,0.415043
5033.14,0.414551
5038.03,0.41403
5042.93,0.413516
5047.84,0.413181
5052.76,0.412949
5057.69,0.412771
5062.63,0.41252
5067.58,0.412247
5072.54,0.411783
5077.51,0.411359
5082.49,0.410808
5087.47,0.410398
5092.47,0.410016
5097.48,0.409444
5102.5,0.408832
5107.52,0.408299
5112.56,0.407883
5117.61,0.407231
5122.66,0.406522
5127.73,0.405898
5132.81,0.405182
5137.89,0.404449
5142.99,0.403682
5148.1,0.40298
5153.22,0.402476
5158.34,0.402125
5163.48,0.4013
5168.63,0.400579
5173.79,0.399864
5178.96,0.399196
5184.13,0.39853
5189.32,0.397846
5194.52,0.39702
5199.73,0.396158
5204.96,0.395398
5210.19,0.394911
5215.43,0.393759
5220.68,0.393399
5225.94,0.39281
5231.22,0.391805
5236.5,0.390853
5241.79,0.390071
5247.1,0.389347
5252.42,0.388526
5257.74,0.387634
5263.08,0.386875
5268.43,0.386105
5273.79,0.385293
5279.16,0.384467
5284.54,0.383756
5289.93,0.382695
5295.34,0.381776
5300.75,0.381404
5306.18,0.380553
5311.61,0.379579
5317.06,0.378728
5322.52,0.377851
5327.99,0.377114
5333.47,0.376351
5338.96,0.375604
5344.47,0.374656
5349.98,0.373296
5355.51,0.372583
5361.05,0.372465
5366.6,0.371354
5372.16,0.370229
5377.73,0.369351
5383.32,0.368568
5388.91,0.367641
5394.52,0.366853
5400.14,0.365814
5405.77,0.364844
5411.41,0.363617
5417.07,0.362406
5422.74,0.360536
5428.41,0.359852
5434.1,0.359294
5439.81,0.357151
5445.52,0.355355
5451.25,0.353779
5456.98,0.351978
5462.73,0.34966
5468.5,0.347394
5474.27,0.345678
5480.06,0.343146
5485.86,0.340961
5491.67,0.339023
5497.49,0.336724
5503.33,0.334591
5509.18,0.332578
5515.04,0.330875
5520.91,0.329031
5526.8,0.327664
5532.69,0.326509
5538.61,0.325156
5544.53,0.323506
5550.47,0.321551
5556.41,0.319484
5562.38,0.318048
5568.35,0.317235
5574.34,0.316875
5580.34,0.316589
5586.35,0.318163
5592.38,0.320428
5598.42,0.321667
5604.47,0.32278
5610.54,0.324125
5616.61,0.324656
5622.71,0.325034
5628.81,0.32531
5634.93,0.324824
5641.06,0.323976
5647.21,0.324038
5653.36,0.324819
5659.54,0.323894
5665.72,0.323736
5671.92,0.322874
5678.13,0.321723
5684.36,0.321648
5690.6,0.321139
5696.85,0.320344
5703.12,0.320361
5709.4,0.319046
5715.69,0.31866
5722.0,0.319005
5728.33,0.318674
5734.66,0.317901
5741.01,0.316967
5747.38,0.315824
5753.76,0.314863
5760.15,0.313976
5766.56,0.311095
5772.98,0.310308
5779.41,0.310333
5785.86,0.307957
5792.33,0.306179
5798.81,0.30441
5805.3,0.302428
5811.81,0.300382
5818.33,0.297916
5824.87,0.295397
5831.42,0.294705
5837.99,0.293024
5844.57,0.290735
5851.17,0.288222
5857.78,0.28587
5864.41,0.283329
5871.05,0.281344
5877.7,0.278736
5884.38,0.275451
5891.06,0.27451
5897.76,0.271352
5904.48,0.268992
5911.21,0.267104
5917.96,0.26365
5924.73,0.2607
5931.5,0.257412
5938.3,0.253763
5945.11,0.251884
5951.93,0.249882
5958.78,0.24648
5965.63,0.243536
5972.51,0.24024
5979.39,0.238064
5986.3,0.234831
5993.22,0.23156
6000.16,0.228926
6007.11,0.226166
6014.08,0.22268
6021.06,0.21994
6028.06,0.217219
6035.08,0.214241
6042.12,0.210981
6049.17,0.207211
6056.23,0.205071
6063.32,0.20393
6070.42,0.200367
6077.53,0.197705
6084.67,0.196044
6091.82,0.194
6098.98,0.191661
6106.17,0.189768
6113.37,0.187539
6120.58,0.186345
6127.82,0.185538
6135.07,0.183915
6142.34,0.182375
6149.63,0.181312
6156.93,0.180082
6164.25,0.178951
6171.59,0.178582
6178.95,0.178045
6186.32,0.17722
6193.71,0.177855
6201.12,0.178577
6208.54,0.178452
6215.99,0.178632
6223.45,0.178855
6230.93,0.179096
6238.43,0.179109
6245.95,0.179139
6253.48,0.179205
6261.03,0.179297
6268.6,0.179428
6276.19,0.17962
6283.8,0.179921
6291.43,0.180242
6299.07,0.180624
6306.73,0.181072
6314.42,0.18159
6322.12,0.18233
6329.84,0.183171
6337.57,0.184037
6345.33,0.184625
6353.11,0.186672
6360.9,0.188648
6368.72,0.189317
6376.55,0.19058
6384.4,0.192482
6392.27,0.193481
6400.17,0.194589
6408.08,0.194992
6416.01,0.194847
6423.96,0.1972
6431.93,0.198558
6439.92,0.19844
6447.93,0.1989
6455.96,0.198678
6464.01,0.19868
6472.08,0.198279
6480.17,0.197901
6488.28,0.197471
6496.41,0.196916
6504.56,0.197535
6512.73,0.197551
6520.92,0.196145
6529.14,0.195592
6537.37,0.195353
6545.63,0.19447
6553.9,0.19352
6562.2,0.192618
6570.51,0.191423
6578.85,0.190174
6587.21,0.189613
6595.59,0.188227
6603.99,0.187102
6612.42,0.185818
6620.86,0.184197
6629.33,0.182429
6637.82,0.180466
6646.33,0.179329
6654.86,0.178421
6663.41,0.176504
6671.99,0.174697
6680.59,0.1731
6689.21,0.171832
6697.85,0.170576
6706.51,0.168864
6715.2,0.167134
6723.91,0.165779
6732.64,0.164327
6741.4,0.162778
6750.18,0.161018
6758.98,0.159228
6767.8,0.157212
6776.65,0.155234
6785.52,0.153122
6794.41,0.150995
6803.33,0.149308
6812.27,0.147471
6821.23,0.145327
6830.22,0.143454
6839.23,0.141993
6848.26,0.140578
6857.32,0.138822
6866.4,0.137148
6875.51,0.136088
6884.64,0.134989
6893.8,0.133654
6902.98,0.132716
6912.18,0.131813
6921.41,0.131256
6930.66,0.130537
6939.94,0.129913
6949.24,0.129199
6958.57,0.128476
6967.92,0.127867
6977.3,0.12762
6986.7,0.127097
6996.13,0.126752
7005.59,0.126585
7015.07,0.12667
7024.57,0.12688
7034.1,0.127371
7043.66,0.127667
7053.25,0.128319
7062.85,0.129494
7072.49,0.130458
7082.15,0.131339
7091.84,0.132516
7101.55,0.133821
7111.3,0.135002
7121.06,0.136043
7130.86,0.137317
7140.68,0.138541
7150.53,0.139706
7160.41,0.141187
7170.31,0.142626
7180.24,0.144194
7190.2,0.14579
7200.19,0.146893
7210.2,0.147999
7220.24,0.149359
7230.31,0.150676
7240.41,0.151811
7250.54,0.153129
7260.69,0.154582
7270.88,0.156073
7281.09,0.157484
7291.33,0.159033
7301.6,0.160463
7311.9,0.161665
7322.22,0.162739
7332.58,0.163604
7342.97,0.164271
7353.38,0.165044
7363.83,0.165533
7374.3,0.165771
7384.81,0.165844
7395.34,0.165742
7405.91,0.16557
7416.5,0.165504
7427.13,0.165743
7437.78,0.166126
7448.47,0.166465
7459.19,0.166936
7469.94,0.167518
7480.71,0.168153
7491.52,0.16868
7502.37,0.169083
7513.24,0.169441
7524.14,0.169562
7535.08,0.169556
7546.05,0.169663
7557.05,0.169486
7568.08,0.169109
7579.15,0.168812
7590.24,0.168706
7601.37,0.168787
7612.53,0.16892
7623.73,0.16905
7634.96,0.169234
7646.22,0.169446
7657.51,0.169669
7668.84,0.169844
7680.2,0.169973
7691.59,0.170055
7703.02,0.170064
7714.49,0.170039
7725.98,0.169839
7737.52,0.169587
7749.08,0.169312
7760.68,0.168899
7772.32,0.168404
7783.99,0.167888
7795.69,0.167342
7807.43,0.166674
7819.21,0.166093
7831.02,0.165388
7842.87,0.164642
7854.75,0.16383
7866.67,0.162904
7878.62,0.161923
7890.62,0.16098
7902.64,0.159907
7914.71,0.158832
7926.81,0.157574
7938.95,0.15619
7951.13,0.154766
7963.34,0.153198
7975.59,0.151683
7987.88,0.15031
8000.21,0.148655
8012.57,0.146838
8024.98,0.144841
8037.42,0.142805
8049.9,0.140688
8062.42,0.138365
8074.98,0.135992
8087.57,0.133684
8100.21,0.131171
8112.89,0.128616
8125.6,0.126049
8138.36,0.12345
8151.16,0.120846
8163.99,0.118243
8176.87,0.115629
8189.79,0.112968
8202.75,0.110128
8215.75,0.107309
8228.79,0.104724
8241.87,0.1022
8254.99,0.099578
8268.16,0.096915
8281.37,0.094281
8294.62,0.09183
8307.91,0.0893
8321.24,0.086833
8334.62,0.084512
8348.04,0.082155
8361.51,0.079742
8375.02,0.077381
8388.57,0.075049
8402.16,0.07287
8415.8,0.070728
8429.49,0.068663
8443.22,0.066586
8456.99,0.064498
8470.81,0.062499
8484.67,0.060563
8498.58,0.058565
8512.54,0.056775
8526.54,0.055054
8540.58,0.053374
8554.68,0.051668
8568.82,0.05005
8583.0,0.048535
8597.24,0.047137
8611.52,0.045731
8625.85,0.044375
8640.23,0.043178
8654.65,0.042228
8669.12,0.041194
8683.64,0.04023
8698.21,0.039307
8712.83,0.038587
8727.5,0.037967
8742.22,0.037357
8756.99,0.036839
8771.8,0.036395
8786.67,0.035881
8801.59,0.035703
8816.56,0.035632
8831.58,0.035279
8846.65,0.034713
8861.77,0.03446
8876.94,0.034368
8892.17,0.034412
8907.45,0.034298
8922.78,0.034209
8938.16,0.034119
8953.6,0.034015
8969.09,0.034037
8984.64,0.034172
9000.23,0.033922
9015.89,0.033716
9031.59,0.033867
9047.36,0.034153
9063.17,0.034321
9079.05,0.034406
9094.97,0.034519
9110.96,0.034726
9127.0,0.034912
9143.1,0.035269
9159.25,0.03555
9175.46,0.035948
9191.73,0.03625
9208.06,0.036552
9224.44,0.036932
9240.88,0.037637
9257.38,0.038065
9273.94,0.038466
9290.56,0.038959
9307.24,0.03961
9323.98,0.04036
9340.78,0.041175
9357.64,0.04181
9374.57,0.042496
9391.55,0.043176
9408.59,0.043989
9425.7,0.044559
9442.87,0.045126
9460.1,0.045727
9477.4,0.046525
9494.75,0.047255
9512.17,0.047817
9529.66,0.048465
9547.21,0.0492
9564.83,0.049823
9582.5,0.050376
9600.25,0.050571
9618.06,0.050676
9635.94,0.050936
9653.88,0.051288
9671.89,0.051348
9689.97,0.051266
9708.12,0.051277
9726.33,0.05137
9744.62,0.051413
9762.97,0.05135
9781.39,0.051251
9799.88,0.05114
9818.44,0.051101
9837.07,0.050963
9855.77,0.050788
9874.54,0.050868
9893.39,0.050706
9912.3,0.050624
9931.29,0.050569
9950.36,0.050423
9969.49,0.050252
9988.7,0.050048
10007.98,0.049682
10027.34,0.049537
10046.77,0.049436
10066.28,0.049262
10085.87,0.049199
10105.53,0.049198
10125.26,0.048956
10145.08,0.048889
10164.97,0.04881
10184.94,0.048665
10204.99,0.0485
10225.12,0.048432
10245.33,0.04833
10265.61,0.048312
10285.98,0.048247
10306.43,0.048175
10326.96,0.048107
10347.57,0.048132
10368.27,0.048097
10389.05,0.048077
10409.91,0.04809
10430.86,0.04838
10451.88,0.048678
10473.0,0.048797
10494.2,0.048884
10515.49,0.049157
10536.86,0.049577
10558.32,0.049951
10579.87,0.050282
10601.5,0.050666
10623.23,0.050875
10645.04,0.051251
10666.94,0.051807
10688.94,0.052218
10711.02,0.052573
10733.2,0.053139
10755.47,0.053703
10777.83,0.054524
10800.28,0.05487
10822.83,0.055089
10845.47,0.055533
10868.21,0.056107
10891.04,0.056722
10913.97,0.057337
10936.99,0.057759
10960.12,0.058333
10983.34,0.058691
11006.66,0.05881
11030.07,0.058942
11053.59,0.059285
11077.21,0.059632
11100.93,0.059981
11124.75,0.060163
11148.68,0.060381
11172.71,0.060601
11196.84,0.060879
11221.07,0.061126
11245.41,0.061388
11269.86,0.061563
11294.41,0.061681
11319.07,0.061798
11343.84,0.061708
11368.72,0.061288
11393.7,0.060796
11418.8,0.060541
11444.01,0.060312
11469.33,0.059842
11494.76,0.059459
11520.3,0.059211
11545.96,0.059144
11571.73,0.059167
11597.62,0.059363
11623.62,0.059534
11649.74,0.059697
11675.98,0.0599
11702.34,0.060067
11728.81,0.060237
11755.41,0.060458
11782.13,0.060179
11808.96,0.059627
11835.92,0.059219
11863.01,0.058959
11890.22,0.058429
11917.55,0.057828
11945.01,0.057401
11972.6,0.05704
12000.31,0.056615
12028.16,0.056172
12056.13,0.055864
12084.23,0.055655
12112.46,0.055066
12140.83,0.054547
12169.33,0.0541
12197.96,0.053615
12226.73,0.053126
12255.64,0.05288
12284.68,0.052397
12313.86,0.052042
12343.18,0.051596
12372.64,0.051073
12402.24,0.050671
12431.98,0.050294
12461.86,0.049891
12491.89,0.04957
12522.07,0.049214
12552.38,0.048814
12582.85,0.048384
12613.47,0.047948
12644.23,0.047613
12675.15,0.04725
12706.21,0.04681
12737.43,0.046389
12768.81,0.046071
12800.33,0.045936
12832.02,0.045612
12863.86,0.045136
12895.86,0.044531
12928.02,0.044032
12960.34,0.04366
12992.82,0.043163
13025.46,0.042763
13058.27,0.042372
13091.25,0.041895
13124.39,0.041599
13157.7,0.041319
13191.18,0.040741
13224.83,0.038971
13258.66,0.038544
13292.65,0.039446
13326.83,0.039325
13361.17,0.038808
13395.7,0.038144
13430.4,0.037415
13465.29,0.03671
13500.35,0.036047
13535.6,0.035818
13571.03,0.03586
13606.65,0.035971
13642.46,0.036269
13678.46,0.036595
13714.64,0.036608
13751.02,0.036267
13787.59,0.035885
13824.36,0.035692
13861.32,0.035548
13898.49,0.035376
13935.85,0.035123
13973.41,0.034813
14011.17,0.034558
14049.15,0.034501
14087.32,0.034656
14125.71,0.034599
14164.3,0.034317
14203.11,0.034337
14242.13,0.034273
14281.36,0.0339
14320.81,0.033764
14360.49,0.033638
14400.38,0.033327
14440.49,0.033151
14480.82,0.033216
14521.39,0.03321
14562.18,0.032937
14603.2,0.032927
14644.45,0.03287
14685.93,0.033202
14727.66,0.033392
14769.62,0.033506
14811.81,0.033808
14854.25,0.034298
14896.94,0.034553
14939.87,0.034769
14983.05,0.035209
15026.48,0.035649
15070.16,0.035853
15114.1,0.036158
15158.29,0.036243
15202.74,0.036184
15247.46,0.036398
15292.43,0.036663
15337.68,0.036826
15383.19,0.037054
15428.97,0.037194
15475.03,0.037459
15521.36,0.037374
15567.97,0.037099
15614.87,0.03709
15662.04,0.037366
15709.5,0.037389
15757.25,0.037323
15805.29,0.03735
15853.62,0.037389
15902.26,0.037259
15951.19,0.037192
16000.42,0.037303
16049.95,0.037371
16099.8,0.03741
16149.95,0.037507
16200.42,0.037282
16251.21,0.037244
16302.31,0.037462
16353.74,0.037561
16405.49,0.037714
16457.57,0.037945
16509.98,0.037953
16562.73,0.037582
16615.82,0.03722
16669.24,0.037273
16723.02,0.036888
16777.14,0.036394
16831.61,0.036008
16886.43,0.035423
16941.62,0.034928
16997.16,0.034979
17053.08,0.034959
17109.36,0.034793
17166.01,0.034807
17223.04,0.034923
17280.45,0.034607
17338.24,0.034486
17396.43,0.034746
17455.0,0.035008
17513.97,0.034828
17573.34,0.034975
17633.11,0.035448
17693.29,0.035449
17753.89,0.035506
17814.9,0.036057
17876.33,0.036631
17938.18,0.036665
18000.47,0.036597
18063.19,0.037234
18126.35,0.037874
18189.95,0.038138
18254.0,0.038632
18318.5,0.039112
18383.46,0.03934
18448.88,0.040365
18514.77,0.04162
18581.13,0.042775
18647.97,0.043376
18715.29,0.043706
18783.1,0.045095
18851.4,0.046801
18920.2,0.048151
18989.51,0.049421
19059.32,0.050953
19129.65,0.052278
19200.5,0.054588
19271.88,0.056231
19343.79,0.057231
19416.24,0.059126
19489.23,0.060953
19562.77,0.062964
19636.88,0.065108
19711.54,0.067324
19786.78,0.069456
19862.59,0.07183
19938.98,0.074245
20015.96,0.07733
20093.55,0.080671
20171.73,0.08303
20250.53,0.085024
20329.94,0.087021
20409.98,0.088612
20490.65,0.090885
20571.96,0.093428
20653.92,0.095399
20736.54,0.096543
20819.82,0.097659
20903.77,0.09902
20988.4,0.10039
21073.72,0.101069
21159.73,0.101785
21246.46,0.102752
21333.89,0.1032
21422.04,0.103604
21510.93,0.103999
21600.56,0.104309
21690.94,0.104127
21782.08,0.103219
21873.99,0.103436
21966.67,0.105569
22060.15,0.106406
22154.42,0.105385
22249.51,0.104757
22345.41,0.103992
22442.14,0.103037
22539.72,0.102427
22638.14,0.101995
22737.43,0.099846
22837.6,0.098563
22938.65,0.098608
23040.6,0.097601
23143.46,0.095513
23247.24,0.093508
23351.96,0.091626
23457.63,0.089911
23564.25,0.089347
23671.85,0.089467
23780.44,0.08926
23890.02,0.089149
24000.63,0.087533
24112.26,0.087008
24224.93,0.08548
24338.66,0.084541
24453.47,0.085725
24569.36,0.087231
24686.36,0.086701
24804.47,0.08511
24923.73,0.085417
25044.13,0.085744
25165.71,0.085935
25288.46,0.085903
25412.43,0.086567
25537.61,0.085837
25664.04,0.085162
25791.72,0.086676
25920.68,0.08795
