Database of Origin,University of Winnipeg Spectrophotometer Facility
Sample Description,RELAB + Nicolet spectral data. See Master Chromites in HOSERLAB sample database for additional info
Date Added,2016-11-30 00:50:18.047756

Data ID,RLA_CHR_03          
Sample ID,CHR103
Mineral Name,Chromite
Grain Size,<45
Viewing Geometry,"30/0,30"
Resolution,1.2-129
Formula,FeCr2O4
Material Class,Oxide

Wavelength
305.0,0.050686
310.0,0.054082
315.0,0.05557
320.0,0.059003
325.0,0.060352
330.0,0.06219
335.0,0.06445
340.0,0.066208
345.0,0.06807
350.0,0.070514
355.0,0.072766
360.0,0.074955
365.0,0.076815
370.0,0.078395
375.0,0.078945
380.0,0.080794
385.0,0.082256
390.0,0.083598
395.0,0.0854
400.0,0.086744
405.0,0.087537
410.0,0.089551
415.0,0.090079
420.0,0.091255
425.0,0.092399
430.0,0.093515
435.0,0.095144
440.0,0.096607
445.0,0.098403
450.0,0.10197
455.0,0.103778
460.0,0.105298
465.0,0.107031
470.0,0.108587
475.0,0.110003
480.0,0.111583
485.0,0.113525
490.0,0.115501
495.0,0.117552
500.0,0.11991
505.0,0.122406
510.0,0.125063
515.0,0.128163
520.0,0.131632
525.0,0.136424
530.0,0.139501
535.0,0.142659
540.0,0.145192
545.0,0.147007
550.0,0.148036
555.0,0.148645
560.0,0.148803
565.0,0.148668
570.0,0.149103
575.0,0.149247
580.0,0.149708
585.0,0.15046
590.0,0.151385
595.0,0.152925
600.0,0.155034
605.0,0.157884
610.0,0.161562
615.0,0.165922
620.0,0.170786
625.0,0.17662
630.0,0.181865
635.0,0.186575
640.0,0.190069
645.0,0.192184
650.0,0.192814
655.0,0.192165
660.0,0.191786
665.0,0.192795
670.0,0.194556
675.0,0.196511
680.0,0.198556
685.0,0.199949
690.0,0.201451
695.0,0.203835
700.0,0.206464
705.0,0.209421
710.0,0.212725
715.0,0.215975
720.0,0.219073
725.0,0.221618
730.0,0.224262
735.0,0.227429
740.0,0.230067
745.0,0.232592
750.0,0.234984
755.0,0.236733
760.0,0.239016
765.0,0.240785
770.0,0.242732
775.0,0.243897
780.0,0.245491
785.0,0.247155
790.0,0.248677
795.0,0.250298
800.0,0.251082
805.0,0.252427
810.0,0.253732
815.0,0.2547
820.0,0.255994
825.0,0.257867
830.0,0.258023
835.0,0.259133
840.0,0.260144
845.0,0.260469
850.0,0.26193
855.0,0.261946
860.0,0.262698
865.0,0.26311
870.0,0.262969
875.0,0.264107
880.0,0.264389
885.0,0.264502
890.0,0.263897
895.0,0.263783
900.0,0.264296
905.0,0.264901
910.0,0.265502
915.0,0.26497
920.0,0.266421
925.0,0.266697
930.0,0.26787
935.0,0.268783
940.0,0.269515
945.0,0.271126
950.0,0.272849
955.0,0.273981
960.0,0.276041
965.0,0.277839
970.0,0.280183
975.0,0.282647
980.0,0.285197
985.0,0.287254
990.0,0.290139
995.0,0.292544
1000.0,0.294947
1005.0,0.297925
1010.0,0.300429
1015.0,0.303429
1020.0,0.305656
1025.0,0.308466
1030.0,0.311408
1035.0,0.313652
1040.0,0.316223
1045.0,0.318918
1050.0,0.321224
1055.0,0.323224
1060.0,0.325217
1065.0,0.3271
1070.0,0.328849
1075.0,0.330629
1080.0,0.331884
1085.0,0.333422
1090.0,0.335219
1095.0,0.335955
1100.0,0.336447
1105.0,0.337658
1110.0,0.338444
1115.0,0.338586
1120.0,0.338894
1125.0,0.339574
1130.0,0.340112
1135.0,0.340136
1140.0,0.341001
1145.0,0.340928
1150.0,0.341352
1155.0,0.341033
1160.0,0.341605
1165.0,0.341673
1170.0,0.341981
1175.0,0.341848
1180.0,0.341956
1185.0,0.342053
1190.0,0.342096
1195.0,0.342218
1200.0,0.342437
1205.0,0.343135
1210.0,0.342999
1215.0,0.343023
1220.0,0.343446
1225.0,0.344062
1230.0,0.344515
1235.0,0.344633
1240.0,0.345237
1245.0,0.345697
1250.0,0.346654
1255.0,0.347129
1260.0,0.347519
1265.0,0.348512
1270.0,0.349371
1275.0,0.35014
1280.0,0.350857
1285.0,0.351884
1290.0,0.352995
1295.0,0.354086
1300.0,0.354936
1305.0,0.356356
1310.0,0.35763
1315.0,0.359172
1320.0,0.360886
1325.0,0.362483
1330.0,0.363565
1335.0,0.365131
1340.0,0.366856
1345.0,0.368011
1350.0,0.369377
1355.0,0.370597
1360.0,0.372335
1365.0,0.373955
1370.0,0.375156
1375.0,0.376388
1380.0,0.375747
1385.0,0.377293
1390.0,0.37854
1395.0,0.378287
1400.0,0.380628
1405.0,0.383309
1410.0,0.384731
1415.0,0.385586
1420.0,0.386111
1425.0,0.386787
1430.0,0.387081
1435.0,0.387642
1440.0,0.387358
1445.0,0.387175
1450.0,0.386732
1455.0,0.386135
1460.0,0.385591
1465.0,0.384104
1470.0,0.381933
1475.0,0.381039
1480.0,0.379133
1485.0,0.377534
1490.0,0.375057
1495.0,0.372776
1500.0,0.370034
1505.0,0.366582
1510.0,0.363644
1515.0,0.361392
1520.0,0.357867
1525.0,0.353498
1530.0,0.349858
1535.0,0.345992
1540.0,0.342022
1545.0,0.337064
1550.0,0.33293
1555.0,0.329006
1560.0,0.325103
1565.0,0.320497
1570.0,0.316269
1575.0,0.311702
1580.0,0.307277
1585.0,0.30178
1590.0,0.297246
1595.0,0.292548
1600.0,0.287865
1605.0,0.283681
1610.0,0.279218
1615.0,0.274263
1620.0,0.26955
1625.0,0.265419
1630.0,0.260667
1635.0,0.256747
1640.0,0.252922
1645.0,0.248329
1650.0,0.244216
1655.0,0.240248
1660.0,0.236461
1665.0,0.233083
1670.0,0.229119
1675.0,0.225242
1680.0,0.22171
1685.0,0.217663
1690.0,0.213932
1695.0,0.210631
1700.0,0.207892
1705.0,0.203829
1710.0,0.200325
1715.0,0.197118
1720.0,0.193875
1725.0,0.190664
1730.0,0.187734
1735.0,0.184593
1740.0,0.181899
1745.0,0.178796
1750.0,0.175653
1755.0,0.173043
1760.0,0.170472
1765.0,0.167903
1770.0,0.165383
1775.0,0.162659
1780.0,0.160126
1785.0,0.158049
1790.0,0.155981
1795.0,0.153714
1800.0,0.15164
1805.0,0.149587
1810.0,0.14738
1815.0,0.145809
1820.0,0.144049
1825.0,0.142097
1830.0,0.140374
1835.0,0.138705
1840.0,0.136652
1845.0,0.134749
1850.0,0.133023
1855.0,0.131479
1860.0,0.129741
1865.0,0.128587
1870.0,0.127271
1875.0,0.124999
1880.0,0.12363
1885.0,0.122612
1890.0,0.1211
1895.0,0.119719
1900.0,0.118771
1905.0,0.117201
1910.0,0.116301
1915.0,0.115008
1920.0,0.114059
1925.0,0.112877
1930.0,0.111818
1935.0,0.110818
1940.0,0.10986
1945.0,0.108692
1950.0,0.107771
1955.0,0.106959
1960.0,0.10605
1965.0,0.105222
1970.0,0.104465
1975.0,0.103826
1980.0,0.103122
1985.0,0.102418
1990.0,0.102032
1995.0,0.101316
2000.0,0.100774
2005.0,0.100121
2010.0,0.099717
2015.0,0.099237
2020.0,0.0988
2025.0,0.098305
2030.0,0.097901
2035.0,0.097484
2040.0,0.097125
2045.0,0.096441
2050.0,0.096403
2055.0,0.09609
2060.0,0.095798
2065.0,0.095567
2070.0,0.095251
2075.0,0.094949
2080.0,0.094859
2085.0,0.094518
2090.0,0.094266
2095.0,0.093894
2100.0,0.093792
2105.0,0.093659
2110.0,0.093265
2115.0,0.093184
2120.0,0.092761
2125.0,0.092885
2130.0,0.092527
2135.0,0.092258
2140.0,0.09212
2145.0,0.091901
2150.0,0.091735
2155.0,0.09159
2160.0,0.091584
2165.0,0.091017
2170.0,0.091032
2175.0,0.090758
2180.0,0.090513
2185.0,0.090449
2190.0,0.090321
2195.0,0.090363
2200.0,0.090171
2205.0,0.089859
2210.0,0.089879
2215.0,0.089849
2220.0,0.089674
2225.0,0.089674
2230.0,0.089441
2235.0,0.089395
2240.0,0.08948
2245.0,0.089333
2250.0,0.089227
2255.0,0.089265
2260.0,0.089542
2265.0,0.089239
2270.0,0.089275
2275.0,0.089223
2280.0,0.089241
2285.0,0.089478
2290.0,0.089344
2295.0,0.089565
2300.0,0.089487
2305.0,0.089718
2310.0,0.089657
2315.0,0.089519
2320.0,0.089493
2325.0,0.089494
2330.0,0.089535
2335.0,0.089713
2340.0,0.09001
2345.0,0.090206
2350.0,0.090478
2355.0,0.090747
2360.0,0.090688
2365.0,0.090257
2370.0,0.090714
2375.0,0.09086
2380.0,0.090434
2385.0,0.09103
2390.0,0.091344
2395.0,0.091442
2400.0,0.091522
2405.0,0.09191
2410.0,0.092021
2415.0,0.092307
2420.0,0.092623
2425.0,0.0927
2430.0,0.093023
2435.0,0.093012
2440.0,0.093184
2445.0,0.093249
2450.0,0.093714
2455.0,0.093929
2460.0,0.093938
2465.0,0.094262
2470.0,0.094499
2475.0,0.095427
2480.0,0.095389
2485.0,0.095583
2490.0,0.095767
2495.0,0.096078
2500.0,0.096471
2502.0,0.096933
2503.2,0.096925
2504.41,0.096689
2505.62,0.097083
2506.83,0.097517
2508.05,0.097154
2509.26,0.097148
2510.48,0.097342
2511.69,0.097362
2512.91,0.09761
2514.13,0.097846
2515.35,0.097849
2516.57,0.098046
2517.79,0.098073
2519.02,0.097948
2520.24,0.097954
2521.47,0.097971
2522.69,0.098408
2523.92,0.098461
2525.15,0.098258
2526.38,0.098109
2527.61,0.098281
2528.85,0.09837
2530.08,0.098444
2531.32,0.098482
2532.55,0.098765
2533.79,0.099214
2535.03,0.098964
2536.27,0.098663
2537.51,0.098893
2538.75,0.099095
2540.0,0.098943
2541.24,0.098835
2542.49,0.099019
2543.74,0.099607
2544.99,0.099263
2546.24,0.098947
2547.49,0.098954
2548.74,0.099314
2549.99,0.099376
2551.25,0.099272
2552.5,0.099186
2553.76,0.099507
2555.02,0.099523
2556.28,0.099282
2557.54,0.099142
2558.8,0.099278
2560.07,0.099775
2561.33,0.099729
2562.6,0.099574
2563.86,0.09956
2565.13,0.099654
2566.4,0.100104
2567.67,0.100089
2568.95,0.099646
2570.22,0.09946
2571.5,0.099626
2572.77,0.099878
2574.05,0.100415
2575.33,0.100672
2576.61,0.100673
2577.89,0.100456
2579.17,0.100343
2580.46,0.099958
2581.74,0.099983
2583.03,0.100523
2584.31,0.1008
2585.6,0.100503
2586.89,0.100548
2588.19,0.10088
2589.48,0.10094
2590.77,0.100617
2592.07,0.100428
2593.36,0.100578
2594.66,0.101173
2595.96,0.101417
2597.26,0.10111
2598.56,0.101019
2599.87,0.100977
2601.17,0.101187
2602.48,0.101491
2603.78,0.10103
2605.09,0.100916
2606.4,0.100987
2607.71,0.101193
2609.03,0.101571
2610.34,0.101641
2611.66,0.101639
2612.97,0.101718
2614.29,0.10202
2615.61,0.10199
2616.93,0.101553
2618.25,0.101198
2619.57,0.101342
2620.9,0.101835
2622.22,0.101794
2623.55,0.101693
2624.88,0.101617
2626.21,0.101691
2627.54,0.101683
2628.87,0.101818
2630.21,0.10187
2631.54,0.101633
2632.88,0.101785
2634.21,0.101896
2635.55,0.101713
2636.89,0.102142
2638.24,0.102687
2639.58,0.102781
2640.92,0.102643
2642.27,0.10217
2643.62,0.101992
2644.97,0.101852
2646.32,0.101965
2647.67,0.102422
2649.02,0.102776
2650.38,0.102681
2651.73,0.102414
2653.09,0.102508
2654.45,0.102311
2655.81,0.102464
2657.17,0.102463
2658.53,0.102275
2659.89,0.102089
2661.26,0.10236
2662.63,0.102339
2664.0,0.102222
2665.36,0.10197
2666.74,0.101929
2668.11,0.102466
2669.48,0.10266
2670.86,0.102598
2672.23,0.102278
2673.61,0.10246
2674.99,0.10251
2676.37,0.102109
2677.76,0.101563
2679.14,0.101256
2680.52,0.10125
2681.91,0.10135
2683.3,0.101254
2684.69,0.101062
2686.08,0.101143
2687.47,0.100703
2688.87,0.100193
2690.26,0.099861
2691.66,0.099423
2693.06,0.098756
2694.46,0.09792
2695.86,0.096626
2697.26,0.094262
2698.66,0.089988
2700.07,0.08502
2701.48,0.081916
2702.89,0.080861
2704.3,0.07945
2705.71,0.0765
2707.12,0.072471
2708.53,0.069156
2709.95,0.066689
2711.37,0.064984
2712.79,0.063965
2714.21,0.063997
2715.63,0.065035
2717.05,0.066506
2718.48,0.06865
2719.9,0.071004
2721.33,0.073195
2722.76,0.07495
2724.19,0.076162
2725.62,0.077051
2727.06,0.077676
2728.49,0.078024
2729.93,0.078182
2731.37,0.078844
2732.81,0.079652
2734.25,0.08027
2735.69,0.080425
2737.14,0.080721
2738.58,0.081158
2740.03,0.081103
2741.48,0.081081
2742.93,0.081337
2744.38,0.081695
2745.83,0.082345
2747.29,0.083126
2748.75,0.08386
2750.2,0.08466
2751.66,0.085689
2753.13,0.08598
2754.59,0.086187
2756.05,0.086675
2757.52,0.087211
2758.99,0.087334
2760.46,0.087117
2761.93,0.087004
2763.4,0.087142
2764.87,0.086671
2766.35,0.086301
2767.82,0.086069
2769.3,0.085891
2770.78,0.085719
2772.26,0.086001
2773.75,0.085852
2775.23,0.085733
2776.72,0.085996
2778.21,0.086198
2779.7,0.085963
2781.19,0.085747
2782.68,0.085656
2784.18,0.085659
2785.67,0.0856
2787.17,0.085061
2788.67,0.084307
2790.17,0.084383
2791.67,0.084195
2793.18,0.083788
2794.68,0.083067
2796.19,0.082335
2797.7,0.081664
2799.21,0.080785
2800.72,0.079813
2802.24,0.079101
2803.75,0.078631
2805.27,0.078431
2806.79,0.078611
2808.31,0.079123
2809.83,0.079812
2811.35,0.080685
2812.88,0.081412
2814.41,0.082116
2815.93,0.082876
2817.46,0.083497
2819.0,0.084073
2820.53,0.084537
2822.07,0.084975
2823.6,0.085536
2825.14,0.085698
2826.68,0.086073
2828.22,0.086913
2829.77,0.087798
2831.31,0.088347
2832.86,0.088884
2834.41,0.089457
2835.96,0.089879
2837.51,0.090369
2839.07,0.090799
2840.62,0.090859
2842.18,0.091103
2843.74,0.091042
2845.3,0.091535
2846.86,0.092053
2848.43,0.09231
2849.99,0.09256
2851.56,0.09272
2853.13,0.092921
2854.7,0.093403
2856.27,0.093447
2857.85,0.09336
2859.42,0.093564
2861.0,0.093774
2862.58,0.094032
2864.16,0.094115
2865.75,0.094267
2867.33,0.094359
2868.92,0.094433
2870.51,0.094511
2872.1,0.094449
2873.69,0.094652
2875.28,0.094976
2876.88,0.095324
2878.48,0.095255
2880.07,0.09528
2881.68,0.095524
2883.28,0.095651
2884.88,0.095696
2886.49,0.095765
2888.1,0.095861
2889.71,0.095977
2891.32,0.096139
2892.93,0.096229
2894.55,0.096238
2896.16,0.096351
2897.78,0.096326
2899.4,0.09633
2901.03,0.096377
2902.65,0.096473
2904.28,0.096567
2905.91,0.096692
2907.54,0.096727
2909.17,0.096896
2910.8,0.097037
2912.44,0.097304
2914.07,0.097376
2915.71,0.097276
2917.35,0.0973
2918.99,0.097484
2920.64,0.097494
2922.29,0.09753
2923.93,0.097761
2925.58,0.097777
2927.24,0.09747
2928.89,0.097577
2930.55,0.097807
2932.2,0.097905
2933.86,0.098053
2935.52,0.098109
2937.19,0.09802
2938.85,0.098093
2940.52,0.098312
2942.19,0.09845
2943.86,0.098366
2945.53,0.098582
2947.21,0.098694
2948.88,0.098817
2950.56,0.098792
2952.24,0.098694
2953.92,0.098533
2955.61,0.098568
2957.29,0.098726
2958.98,0.09879
2960.67,0.098875
2962.36,0.09907
2964.06,0.099163
2965.75,0.099269
2967.45,0.099382
2969.15,0.099563
2970.85,0.09969
2972.55,0.099826
2974.26,0.099859
2975.97,0.100042
2977.68,0.100108
2979.39,0.100075
2981.1,0.100039
2982.82,0.100204
2984.53,0.100266
2986.25,0.100396
2987.97,0.100403
2989.7,0.100362
2991.42,0.100631
2993.15,0.100857
2994.88,0.100744
2996.61,0.100885
2998.34,0.100983
3000.08,0.100951
3001.82,0.10096
3003.55,0.10099
3005.3,0.100935
3007.04,0.100947
3008.78,0.101095
3010.53,0.101293
3012.28,0.101376
3014.03,0.101397
3015.79,0.101484
3017.54,0.10156
3019.3,0.101564
3021.06,0.101682
3022.82,0.101743
3024.58,0.10191
3026.35,0.102056
3028.12,0.101957
3029.89,0.101675
3031.66,0.101719
3033.43,0.101815
3035.21,0.10201
3036.99,0.10204
3038.77,0.102275
3040.55,0.102411
3042.33,0.102477
3044.12,0.102518
3045.91,0.102483
3047.7,0.102563
3049.49,0.102526
3051.29,0.102363
3053.08,0.10243
3054.88,0.102659
3056.68,0.102933
3058.49,0.103056
3060.29,0.102955
3062.1,0.102831
3063.91,0.102933
3065.72,0.103016
3067.54,0.103161
3069.35,0.103188
3071.17,0.103427
3072.99,0.10362
3074.81,0.103553
3076.64,0.103477
3078.47,0.103556
3080.29,0.103753
3082.13,0.103708
3083.96,0.103617
3085.79,0.103725
3087.63,0.103927
3089.47,0.103855
3091.31,0.103791
3093.16,0.104146
3095.01,0.104428
3096.85,0.104373
3098.71,0.104257
3100.56,0.104339
3102.41,0.104564
3104.27,0.104575
3106.13,0.104681
3107.99,0.104897
3109.86,0.105029
3111.73,0.105323
3113.59,0.105284
3115.47,0.105051
3117.34,0.104984
3119.21,0.105099
3121.09,0.105281
3122.97,0.105558
3124.86,0.105682
3126.74,0.10586
3128.63,0.105824
3130.52,0.105912
3132.41,0.106145
3134.3,0.106324
3136.2,0.106469
3138.1,0.106449
3140.0,0.106388
3141.9,0.106729
3143.81,0.106732
3145.71,0.106989
3147.62,0.107258
3149.54,0.107171
3151.45,0.107293
3153.37,0.107573
3155.29,0.107836
3157.21,0.107966
3159.13,0.107924
3161.06,0.108217
3162.99,0.108309
3164.92,0.108348
3166.85,0.108503
3168.79,0.1087
3170.72,0.108846
3172.67,0.109244
3174.61,0.109381
3176.55,0.109294
3178.5,0.109312
3180.45,0.109482
3182.4,0.10961
3184.36,0.109839
3186.32,0.110061
3188.27,0.110059
3190.24,0.110091
3192.2,0.110318
3194.17,0.110422
3196.14,0.110682
3198.11,0.110767
3200.08,0.111024
3202.06,0.111172
3204.04,0.11137
3206.02,0.111816
3208.0,0.111957
3209.99,0.112052
3211.98,0.112168
3213.97,0.112115
3215.96,0.112207
3217.96,0.112564
3219.96,0.112885
3221.96,0.112959
3223.96,0.113012
3225.97,0.113286
3227.98,0.113604
3229.99,0.11367
3232.0,0.11363
3234.02,0.113782
3236.04,0.11415
3238.06,0.114448
3240.08,0.114736
3242.11,0.115003
3244.14,0.115389
3246.17,0.115537
3248.2,0.115659
3250.24,0.115728
3252.28,0.115699
3254.32,0.115894
3256.37,0.116248
3258.41,0.116497
3260.46,0.116821
3262.51,0.116946
3264.57,0.117017
3266.63,0.117062
3268.69,0.117285
3270.75,0.117737
3272.81,0.118091
3274.88,0.118288
3276.95,0.118564
3279.02,0.118844
3281.1,0.118927
3283.18,0.119091
3285.26,0.119368
3287.34,0.119588
3289.43,0.11993
3291.51,0.12006
3293.61,0.120287
3295.7,0.120441
3297.8,0.120835
3299.9,0.121233
3302.0,0.12144
3304.1,0.121701
3306.21,0.121997
3308.32,0.122265
3310.43,0.122517
3312.55,0.122651
3314.66,0.12301
3316.79,0.123433
3318.91,0.123816
3321.03,0.124056
3323.16,0.124233
3325.29,0.124356
3327.43,0.12463
3329.57,0.124831
3331.71,0.125005
3333.85,0.125352
3335.99,0.125765
3338.14,0.126116
3340.29,0.126421
3342.45,0.12675
3344.6,0.126869
3346.76,0.126985
3348.92,0.127406
3351.09,0.127594
3353.26,0.127907
3355.43,0.12827
3357.6,0.128632
3359.78,0.128941
3361.96,0.129144
3364.14,0.129344
3366.32,0.129869
3368.51,0.130425
3370.7,0.130793
3372.89,0.131046
3375.09,0.131206
3377.29,0.131438
3379.49,0.131795
3381.69,0.132061
3383.9,0.132462
3386.11,0.132809
3388.32,0.133237
3390.54,0.133556
3392.76,0.13388
3394.98,0.134229
3397.21,0.134552
3399.43,0.134868
3401.66,0.135093
3403.9,0.135391
3406.13,0.13576
3408.37,0.136036
3410.61,0.136438
3412.86,0.13692
3415.11,0.137415
3417.36,0.137724
3419.61,0.138041
3421.87,0.138503
3424.13,0.138849
3426.39,0.139184
3428.66,0.139629
3430.93,0.140008
3433.2,0.140537
3435.48,0.140935
3437.76,0.14127
3440.04,0.141591
3442.32,0.142009
3444.61,0.142497
3446.9,0.142939
3449.19,0.143357
3451.49,0.143745
3453.79,0.144089
3456.09,0.144536
3458.4,0.1449
3460.7,0.145226
3463.02,0.145545
3465.33,0.146018
3467.65,0.146455
3469.97,0.146815
3472.29,0.147097
3474.62,0.147657
3476.95,0.148351
3479.29,0.148864
3481.62,0.149096
3483.96,0.149397
3486.3,0.149837
3488.65,0.1503
3491.0,0.150629
3493.35,0.15107
3495.71,0.151706
3498.07,0.152232
3500.43,0.15268
3502.79,0.153203
3505.16,0.153607
3507.53,0.154094
3509.91,0.154485
3512.29,0.15502
3514.67,0.155484
3517.05,0.155874
3519.44,0.156387
3521.83,0.157006
3524.23,0.157522
3526.62,0.157994
3529.02,0.158495
3531.43,0.159003
3533.83,0.159476
3536.24,0.159963
3538.66,0.160434
3541.08,0.16105
3543.5,0.161619
3545.92,0.162188
3548.35,0.162787
3550.78,0.163448
3553.21,0.163908
3555.65,0.164248
3558.09,0.164752
3560.53,0.165324
3562.98,0.165864
3565.43,0.166352
3567.88,0.166794
3570.34,0.167353
3572.8,0.16792
3575.27,0.168579
3577.73,0.169009
3580.2,0.169386
3582.68,0.169945
3585.16,0.170575
3587.64,0.170985
3590.12,0.171509
3592.61,0.172034
3595.1,0.172569
3597.6,0.173147
3600.09,0.173812
3602.6,0.174494
3605.1,0.175137
3607.61,0.175638
3610.12,0.176133
3612.64,0.176657
3615.16,0.177337
3617.68,0.177993
3620.21,0.178625
3622.74,0.179197
3625.27,0.179878
3627.81,0.180584
3630.35,0.181233
3632.89,0.181702
3635.44,0.182328
3637.99,0.183075
3640.54,0.183779
3643.1,0.184275
3645.66,0.184902
3648.23,0.185545
3650.8,0.186258
3653.37,0.186831
3655.95,0.187408
3658.53,0.188
3661.11,0.18868
3663.7,0.189376
3666.29,0.190034
3668.89,0.190674
3671.48,0.191363
3674.09,0.192021
3676.69,0.192741
3679.3,0.19339
3681.91,0.194026
3684.53,0.194731
3687.15,0.195355
3689.78,0.195964
3692.4,0.196681
3695.04,0.197298
3697.67,0.19792
3700.31,0.198643
3702.95,0.19941
3705.6,0.199979
3708.25,0.200597
3710.91,0.201383
3713.56,0.202241
3716.23,0.202964
3718.89,0.203611
3721.56,0.204329
3724.23,0.205179
3726.91,0.20563
3729.59,0.206233
3732.28,0.207135
3734.97,0.207947
3737.66,0.208718
3740.36,0.209549
3743.06,0.210335
3745.76,0.210986
3748.47,0.211764
3751.18,0.212743
3753.9,0.213469
3756.62,0.214061
3759.34,0.214888
3762.07,0.215851
3764.8,0.216605
3767.54,0.217272
3770.28,0.217944
3773.02,0.218694
3775.77,0.219329
3778.52,0.220006
3781.28,0.220951
3784.04,0.221849
3786.8,0.222611
3789.57,0.223336
3792.34,0.224184
3795.12,0.225047
3797.9,0.225733
3800.69,0.226503
3803.47,0.227352
3806.27,0.22815
3809.06,0.228925
3811.86,0.229705
3814.67,0.230486
3817.48,0.231363
3820.29,0.232175
3823.11,0.232952
3825.93,0.233764
3828.76,0.2346
3831.59,0.23549
3834.42,0.236493
3837.26,0.237342
3840.1,0.238118
3842.95,0.238978
3845.8,0.239767
3848.65,0.240431
3851.51,0.241245
3854.38,0.242197
3857.24,0.243122
3860.12,0.24396
3862.99,0.244835
3865.87,0.245699
3868.76,0.246569
3871.65,0.247341
3874.54,0.248119
3877.44,0.249046
3880.34,0.249948
3883.25,0.250756
3886.16,0.251583
3889.07,0.252503
3891.99,0.253417
3894.92,0.254399
3897.85,0.255385
3900.78,0.256179
3903.72,0.256965
3906.66,0.257798
3909.6,0.258629
3912.55,0.259614
3915.51,0.260464
3918.47,0.261222
3921.43,0.262097
3924.4,0.263135
3927.38,0.264131
3930.35,0.265073
3933.33,0.265936
3936.32,0.266741
3939.31,0.267622
3942.31,0.268396
3945.31,0.269293
3948.31,0.270288
3951.32,0.27124
3954.34,0.271946
3957.35,0.272812
3960.38,0.273717
3963.41,0.274553
3966.44,0.27536
3969.48,0.276271
3972.52,0.277205
3975.56,0.278168
3978.61,0.279017
3981.67,0.279958
3984.73,0.281022
3987.8,0.281944
3990.87,0.282918
3993.94,0.283828
3997.02,0.284744
4000.1,0.285902
4003.19,0.287001
4006.29,0.287975
4009.39,0.288944
4012.49,0.289967
4015.6,0.290937
4018.71,0.291952
4021.83,0.292965
4024.95,0.293967
4028.08,0.294953
4031.21,0.295935
4034.35,0.296854
4037.49,0.297851
4040.64,0.298969
4043.79,0.299982
4046.94,0.300954
4050.11,0.301917
4053.27,0.302844
4056.44,0.303825
4059.62,0.30484
4062.8,0.30588
4065.99,0.306933
4069.18,0.307855
4072.38,0.308823
4075.58,0.309862
4078.78,0.310744
4082.0,0.311736
4085.21,0.312698
4088.43,0.313579
4091.66,0.314544
4094.89,0.31561
4098.13,0.31667
4101.37,0.317795
4104.62,0.318935
4107.87,0.319892
4111.13,0.320787
4114.39,0.321714
4117.66,0.322705
4120.93,0.323623
4124.21,0.324598
4127.5,0.32572
4130.79,0.326758
4134.08,0.327767
4137.38,0.328852
4140.68,0.329874
4143.99,0.330901
4147.31,0.331897
4150.63,0.332842
4153.95,0.333871
4157.29,0.334923
4160.62,0.33588
4163.96,0.336913
4167.31,0.337903
4170.66,0.338861
4174.02,0.339875
4177.39,0.340852
4180.75,0.341831
4184.13,0.342889
4187.51,0.343997
4190.89,0.34499
4194.28,0.345892
4197.68,0.346902
4201.08,0.348004
4204.49,0.349042
4207.9,0.350008
4211.32,0.351002
4214.74,0.351977
4218.17,0.352851
4221.61,0.353742
4225.05,0.354631
4228.5,0.355556
4231.95,0.356544
4235.4,0.357617
4238.87,0.358637
4242.34,0.359577
4245.81,0.360637
4249.29,0.361769
4252.78,0.362927
4256.27,0.363998
4259.77,0.365066
4263.27,0.365983
4266.78,0.366785
4270.29,0.367687
4273.81,0.36867
4277.34,0.36957
4280.87,0.370477
4284.41,0.371504
4287.95,0.37262
4291.5,0.373594
4295.06,0.374594
4298.62,0.375591
4302.19,0.376629
4305.76,0.377624
4309.34,0.378615
4312.92,0.37959
4316.52,0.380705
4320.11,0.381794
4323.72,0.382765
4327.32,0.383684
4330.94,0.384587
4334.56,0.385528
4338.19,0.38656
4341.82,0.387526
4345.46,0.388376
4349.11,0.389317
4352.76,0.390267
4356.42,0.391235
4360.08,0.392217
4363.75,0.393159
4367.43,0.394108
4371.11,0.394908
4374.8,0.395758
4378.49,0.396708
4382.19,0.397529
4385.9,0.398409
4389.61,0.399334
4393.33,0.400229
4397.06,0.401119
4400.79,0.401972
4404.53,0.402841
4408.28,0.403777
4412.03,0.40477
4415.79,0.405698
4419.55,0.406625
4423.32,0.407372
4427.1,0.408133
4430.88,0.408987
4434.68,0.409913
4438.47,0.410755
4442.28,0.411564
4446.08,0.412324
4449.9,0.413168
4453.72,0.41404
4457.55,0.414963
4461.39,0.415798
4465.23,0.416679
4469.08,0.417523
4472.94,0.418284
4476.8,0.419057
4480.67,0.419895
4484.55,0.420761
4488.43,0.421553
4492.32,0.422259
4496.21,0.423059
4500.12,0.42384
4504.03,0.424614
4507.94,0.425409
4511.87,0.426231
4515.8,0.426922
4519.73,0.427639
4523.68,0.428428
4527.63,0.429185
4531.59,0.429887
4535.55,0.430609
4539.52,0.431344
4543.5,0.431986
4547.49,0.43255
4551.48,0.433195
4555.48,0.433986
4559.49,0.434726
4563.5,0.435373
4567.52,0.43603
4571.55,0.436603
4575.58,0.437276
4579.63,0.437984
4583.67,0.438654
4587.73,0.439318
4591.79,0.439847
4595.86,0.440408
4599.94,0.441075
4604.03,0.441618
4608.12,0.442275
4612.22,0.442989
4616.33,0.443663
4620.44,0.444193
4624.56,0.444776
4628.69,0.445275
4632.83,0.445875
4636.97,0.44641
4641.12,0.446977
4645.28,0.447525
4649.45,0.448167
4653.62,0.448698
4657.8,0.449141
4661.99,0.44966
4666.19,0.45018
4670.39,0.450741
4674.6,0.45134
4678.82,0.451788
4683.05,0.452375
4687.28,0.452915
4691.52,0.453385
4695.77,0.453842
4700.03,0.454324
4704.3,0.454727
4708.57,0.455182
4712.85,0.455655
4717.14,0.456106
4721.43,0.456491
4725.74,0.456937
4730.05,0.457385
4734.37,0.45782
4738.7,0.458102
4743.03,0.458514
4747.38,0.458818
4751.73,0.459132
4756.09,0.459374
4760.45,0.459641
4764.83,0.459835
4769.21,0.460087
4773.6,0.460114
4778.0,0.460199
4782.41,0.460205
4786.83,0.4603
4791.25,0.460418
4795.68,0.460541
4800.13,0.460559
4804.57,0.460676
4809.03,0.460783
4813.5,0.460986
4817.97,0.461215
4822.45,0.461526
4826.94,0.461871
4831.44,0.462375
4835.95,0.462909
4840.46,0.46353
4844.99,0.464119
4849.52,0.464747
4854.06,0.465284
4858.61,0.465736
4863.17,0.466107
4867.73,0.466538
4872.31,0.466859
4876.89,0.467214
4881.48,0.467355
4886.08,0.467562
4890.69,0.467662
4895.31,0.46774
4899.94,0.467734
4904.57,0.467784
4909.22,0.467616
4913.87,0.467523
4918.53,0.467523
4923.21,0.46761
4927.88,0.467555
4932.57,0.467693
4937.27,0.46785
4941.98,0.467923
4946.69,0.46805
4951.42,0.4682
4956.15,0.468225
4960.9,0.468261
4965.65,0.468288
4970.41,0.468301
4975.18,0.468025
4979.96,0.467967
4984.75,0.467883
4989.54,0.467867
4994.35,0.467795
4999.17,0.467734
5003.99,0.467642
5008.83,0.467651
5013.67,0.467638
5018.52,0.467793
5023.39,0.46792
5028.26,0.468063
5033.14,0.46826
5038.03,0.468584
5042.93,0.468813
5047.84,0.469068
5052.76,0.46916
5057.69,0.469415
5062.63,0.469628
5067.58,0.469819
5072.54,0.469954
5077.51,0.470084
5082.49,0.470197
5087.47,0.470416
5092.47,0.470657
5097.48,0.47084
5102.5,0.47079
5107.52,0.470942
5112.56,0.47108
5117.61,0.471269
5122.66,0.471344
5127.73,0.471474
5132.81,0.471455
5137.89,0.471585
5142.99,0.471731
5148.1,0.471949
5153.22,0.47208
5158.34,0.472323
5163.48,0.472501
5168.63,0.472712
5173.79,0.47275
5178.96,0.472844
5184.13,0.472868
5189.32,0.472983
5194.52,0.472993
5199.73,0.473095
5204.96,0.473069
5210.19,0.473024
5215.43,0.472918
5220.68,0.472947
5225.94,0.472941
5231.22,0.472908
5236.5,0.472719
5241.79,0.472536
5247.1,0.472263
5252.42,0.472075
5257.74,0.471789
5263.08,0.471501
5268.43,0.47113
5273.79,0.470724
5279.16,0.470215
5284.54,0.469689
5289.93,0.469072
5295.34,0.468546
5300.75,0.467859
5306.18,0.467203
5311.61,0.466342
5317.06,0.465487
5322.52,0.464426
5327.99,0.46343
5333.47,0.462278
5338.96,0.46108
5344.47,0.45974
5349.98,0.458295
5355.51,0.456593
5361.05,0.455106
5366.6,0.453532
5372.16,0.452018
5377.73,0.450456
5383.32,0.448975
5388.91,0.447483
5394.52,0.446236
5400.14,0.445148
5405.77,0.444239
5411.41,0.443307
5417.07,0.442614
5422.74,0.441843
5428.41,0.4411
5434.1,0.440426
5439.81,0.439893
5445.52,0.439
5451.25,0.438142
5456.98,0.437211
5462.73,0.436317
5468.5,0.435
5474.27,0.433589
5480.06,0.431986
5485.86,0.430029
5491.67,0.42779
5497.49,0.425404
5503.33,0.422815
5509.18,0.420379
5515.04,0.418002
5520.91,0.416019
5526.8,0.414398
5532.69,0.41333
5538.61,0.412574
5544.53,0.412161
5550.47,0.411932
5556.41,0.411954
5562.38,0.412153
5568.35,0.412732
5574.34,0.413356
5580.34,0.413969
5586.35,0.414705
5592.38,0.415743
5598.42,0.416565
5604.47,0.417171
5610.54,0.417526
5616.61,0.41798
5622.71,0.418124
5628.81,0.418259
5634.93,0.418081
5641.06,0.417933
5647.21,0.41768
5653.36,0.417457
5659.54,0.417097
5665.72,0.41674
5671.92,0.416191
5678.13,0.415411
5684.36,0.414348
5690.6,0.413368
5696.85,0.412217
5703.12,0.411151
5709.4,0.409891
5715.69,0.408497
5722.0,0.407115
5728.33,0.40588
5734.66,0.404618
5741.01,0.403555
5747.38,0.402368
5753.76,0.401368
5760.15,0.40032
5766.56,0.399282
5772.98,0.397616
5779.41,0.396447
5785.86,0.395182
5792.33,0.393682
5798.81,0.392041
5805.3,0.3903
5811.81,0.388375
5818.33,0.386598
5824.87,0.38437
5831.42,0.382184
5837.99,0.38034
5844.57,0.378743
5851.17,0.376961
5857.78,0.375031
5864.41,0.372908
5871.05,0.370937
5877.7,0.36908
5884.38,0.367013
5891.06,0.364615
5897.76,0.363098
5904.48,0.36072
5911.21,0.358761
5917.96,0.356823
5924.73,0.354567
5931.5,0.352258
5938.3,0.349922
5945.11,0.346942
5951.93,0.344931
5958.78,0.34298
5965.63,0.341081
5972.51,0.339396
5979.39,0.338189
5986.3,0.337679
5993.22,0.337557
6000.16,0.338039
6007.11,0.339119
6014.08,0.340256
6021.06,0.341568
6028.06,0.343052
6035.08,0.34463
6042.12,0.34585
6049.17,0.346742
6056.23,0.347861
6063.32,0.349372
6070.42,0.35034
6077.53,0.35096
6084.67,0.351965
6091.82,0.353048
6098.98,0.353906
6106.17,0.354777
6113.37,0.355671
6120.58,0.356588
6127.82,0.357686
6135.07,0.358719
6142.34,0.359682
6149.63,0.360748
6156.93,0.361902
6164.25,0.363078
6171.59,0.364288
6178.95,0.365492
6186.32,0.366447
6193.71,0.367092
6201.12,0.367785
6208.54,0.36833
6215.99,0.368487
6223.45,0.368451
6230.93,0.368174
6238.43,0.367793
6245.95,0.367323
6253.48,0.36696
6261.03,0.366519
6268.6,0.366113
6276.19,0.365727
6283.8,0.365324
6291.43,0.365089
6299.07,0.365183
6306.73,0.365229
6314.42,0.365345
6322.12,0.365573
6329.84,0.365921
6337.57,0.366079
6345.33,0.366159
6353.11,0.366202
6360.9,0.366406
6368.72,0.366304
6376.55,0.365988
6384.4,0.365763
6392.27,0.365623
6400.17,0.365218
6408.08,0.364566
6416.01,0.363477
6423.96,0.362371
6431.93,0.361808
6439.92,0.360893
6447.93,0.359727
6455.96,0.35855
6464.01,0.356998
6472.08,0.355625
6480.17,0.354003
6488.28,0.352615
6496.41,0.351166
6504.56,0.349832
6512.73,0.348818
6520.92,0.347814
6529.14,0.346319
6537.37,0.345208
6545.63,0.343905
6553.9,0.342426
6562.2,0.340858
6570.51,0.339351
6578.85,0.337403
6587.21,0.335582
6595.59,0.333921
6603.99,0.332003
6612.42,0.330079
6620.86,0.328204
6629.33,0.326165
6637.82,0.324199
6646.33,0.321861
6654.86,0.320103
6663.41,0.31845
6671.99,0.316635
6680.59,0.314619
6689.21,0.312687
6697.85,0.310789
6706.51,0.309322
6715.2,0.307503
6723.91,0.305695
6732.64,0.30404
6741.4,0.302642
6750.18,0.301227
6758.98,0.299767
6767.8,0.298221
6776.65,0.296802
6785.52,0.295373
6794.41,0.294047
6803.33,0.2928
6812.27,0.292047
6821.23,0.291208
6830.22,0.290435
6839.23,0.289649
6848.26,0.288944
6857.32,0.288238
6866.4,0.287543
6875.51,0.286613
6884.64,0.286436
6893.8,0.286322
6902.98,0.286154
6912.18,0.285913
6921.41,0.28584
6930.66,0.285873
6939.94,0.285838
6949.24,0.285786
6958.57,0.285649
6967.92,0.285273
6977.3,0.285267
6986.7,0.2853
6996.13,0.285204
7005.59,0.285207
7015.07,0.285415
7024.57,0.285619
7034.1,0.285962
7043.66,0.286278
7053.25,0.286593
7062.85,0.287252
7072.49,0.288327
7082.15,0.28955
7091.84,0.290969
7101.55,0.29262
7111.3,0.294537
7121.06,0.296425
7130.86,0.298382
7140.68,0.300253
7150.53,0.301995
7160.41,0.303721
7170.31,0.305416
7180.24,0.307047
7190.2,0.308762
7200.19,0.310243
7210.2,0.311467
7220.24,0.312532
7230.31,0.313394
7240.41,0.314155
7250.54,0.31483
7260.69,0.315278
7270.88,0.315521
7281.09,0.315713
7291.33,0.315741
7301.6,0.315619
7311.9,0.315417
7322.22,0.315304
7332.58,0.315239
7342.97,0.315275
7353.38,0.3154
7363.83,0.315521
7374.3,0.31538
7384.81,0.315009
7395.34,0.314647
7405.91,0.314329
7416.5,0.314047
7427.13,0.313657
7437.78,0.313175
7448.47,0.312923
7459.19,0.312731
7469.94,0.312457
7480.71,0.312369
7491.52,0.312233
7502.37,0.311954
7513.24,0.311544
7524.14,0.31111
7535.08,0.310605
7546.05,0.31001
7557.05,0.309185
7568.08,0.308231
7579.15,0.307287
7590.24,0.30631
7601.37,0.305097
7612.53,0.303918
7623.73,0.302715
7634.96,0.301475
7646.22,0.30022
7657.51,0.298961
7668.84,0.297724
7680.2,0.296484
7691.59,0.295345
7703.02,0.294382
7714.49,0.293344
7725.98,0.292241
7737.52,0.291163
7749.08,0.290162
7760.68,0.289127
7772.32,0.288088
7783.99,0.287078
7795.69,0.286075
7807.43,0.285132
7819.21,0.284241
7831.02,0.283286
7842.87,0.282455
7854.75,0.281617
7866.67,0.280672
7878.62,0.279649
7890.62,0.278849
7902.64,0.27798
7914.71,0.276944
7926.81,0.275907
7938.95,0.274846
7951.13,0.273683
7963.34,0.27253
7975.59,0.271381
7987.88,0.270395
8000.21,0.269551
8012.57,0.269042
8024.98,0.268759
8037.42,0.268822
8049.9,0.269091
8062.42,0.269499
8074.98,0.269941
8087.57,0.270443
8100.21,0.270937
8112.89,0.271364
8125.6,0.271683
8138.36,0.27186
8151.16,0.271848
8163.99,0.271668
8176.87,0.271156
8189.79,0.270572
8202.75,0.269775
8215.75,0.268922
8228.79,0.268006
8241.87,0.266979
8254.99,0.265726
8268.16,0.264505
8281.37,0.263195
8294.62,0.261756
8307.91,0.260273
8321.24,0.258665
8334.62,0.256856
8348.04,0.255104
8361.51,0.253186
8375.02,0.251219
8388.57,0.249078
8402.16,0.246729
8415.8,0.244309
8429.49,0.241879
8443.22,0.239285
8456.99,0.236675
8470.81,0.233832
8484.67,0.230998
8498.58,0.228264
8512.54,0.225673
8526.54,0.223043
8540.58,0.220594
8554.68,0.218276
8568.82,0.216209
8583.0,0.214238
8597.24,0.2123
8611.52,0.210468
8625.85,0.209067
8640.23,0.207725
8654.65,0.206706
8669.12,0.205817
8683.64,0.205079
8698.21,0.204198
8712.83,0.203464
8727.5,0.202798
8742.22,0.202282
8756.99,0.201647
8771.8,0.200913
8786.67,0.200022
8801.59,0.199287
8816.56,0.198187
8831.58,0.196902
8846.65,0.195526
8861.77,0.194122
8876.94,0.192409
8892.17,0.190557
8907.45,0.188252
8922.78,0.185935
8938.16,0.183414
8953.6,0.18046
8969.09,0.176591
8984.64,0.172403
9000.23,0.167238
9015.89,0.161075
9031.59,0.153749
9047.36,0.145721
9063.17,0.137259
9079.05,0.129056
9094.97,0.121313
9110.96,0.11472
9127.0,0.10912
9143.1,0.104613
9159.25,0.100537
9175.46,0.097035
9191.73,0.093896
9208.06,0.091421
9224.44,0.089096
9240.88,0.087388
9257.38,0.085988
9273.94,0.08501
9290.56,0.084011
9307.24,0.083517
9323.98,0.082854
9340.78,0.08244
9357.64,0.082058
9374.57,0.081731
9391.55,0.081141
9408.59,0.080743
9425.7,0.080191
9442.87,0.079783
9460.1,0.07898
9477.4,0.078107
9494.75,0.077105
9512.17,0.076334
9529.66,0.075422
9547.21,0.074846
9564.83,0.074332
9582.5,0.074075
9600.25,0.073795
9618.06,0.074033
9635.94,0.074174
9653.88,0.074304
9671.89,0.07449
9689.97,0.074767
9708.12,0.074598
9726.33,0.074565
9744.62,0.074426
9762.97,0.07428
9781.39,0.073728
9799.88,0.073246
9818.44,0.072837
9837.07,0.07253
9855.77,0.072109
9874.54,0.071898
9893.39,0.071453
9912.3,0.071113
9931.29,0.070601
9950.36,0.070191
9969.49,0.069535
9988.7,0.069028
10007.98,0.068337
10027.34,0.067744
10046.77,0.066972
10066.28,0.066535
10085.87,0.06597
10105.53,0.065655
10125.26,0.065244
10145.08,0.064923
10164.97,0.064633
10184.94,0.064481
10204.99,0.064132
10225.12,0.06377
10245.33,0.063412
10265.61,0.063016
10285.98,0.06208
10306.43,0.061208
10326.96,0.06021
10347.57,0.059052
10368.27,0.05763
10389.05,0.056459
10409.91,0.055189
10430.86,0.053999
10451.88,0.052871
10473.0,0.052041
10494.2,0.051008
10515.49,0.050225
10536.86,0.049442
10558.32,0.048905
10579.87,0.048337
10601.5,0.048124
10623.23,0.047836
10645.04,0.047618
10666.94,0.047427
10688.94,0.047411
10711.02,0.047214
10733.2,0.047167
10755.47,0.047231
10777.83,0.04754
10800.28,0.047552
10822.83,0.047823
10845.47,0.048045
10868.21,0.048348
10891.04,0.048412
10913.97,0.04862
10936.99,0.048601
10960.12,0.048838
10983.34,0.048892
11006.66,0.048928
11030.07,0.048866
11053.59,0.049032
11077.21,0.048957
11100.93,0.049026
11124.75,0.049018
11148.68,0.048993
11172.71,0.048913
11196.84,0.049127
11221.07,0.049251
11245.41,0.049423
11269.86,0.049613
11294.41,0.050176
11319.07,0.050239
11343.84,0.05025
11368.72,0.04996
11393.7,0.049467
11418.8,0.048453
11444.01,0.047133
11469.33,0.045307
11494.76,0.043612
11520.3,0.041911
11545.96,0.04057
11571.73,0.039029
11597.62,0.037474
11623.62,0.036064
11649.74,0.035434
11675.98,0.035085
11702.34,0.035344
11728.81,0.035682
11755.41,0.036494
11782.13,0.037072
11808.96,0.037907
11835.92,0.038808
11863.01,0.039831
11890.22,0.04069
11917.55,0.041775
11945.01,0.042887
11972.6,0.044235
12000.31,0.045619
12028.16,0.04713
12056.13,0.048299
12084.23,0.049315
12112.46,0.049624
12140.83,0.048869
12169.33,0.047125
12197.96,0.045802
12226.73,0.045633
12255.64,0.04707
12284.68,0.049339
12313.86,0.052085
12343.18,0.053932
12372.64,0.054789
12402.24,0.054876
12431.98,0.054562
12461.86,0.053686
12491.89,0.05312
12522.07,0.052965
12552.38,0.053495
12582.85,0.054086
12613.47,0.054948
12644.23,0.055729
12675.15,0.056565
12706.21,0.057405
12737.43,0.05864
12768.81,0.059584
12800.33,0.060797
12832.02,0.061915
12863.86,0.062938
12895.86,0.06372
12928.02,0.06473
12960.34,0.065748
12992.82,0.066811
13025.46,0.067796
13058.27,0.069089
13091.25,0.070316
13124.39,0.071634
13157.7,0.073094
13191.18,0.074803
13224.83,0.076536
13258.66,0.078702
13292.65,0.080975
13326.83,0.083314
13361.17,0.085598
13395.7,0.088211
13430.4,0.090488
13465.29,0.09265
13500.35,0.09445
13535.6,0.095814
13571.03,0.096667
13606.65,0.097555
13642.46,0.098157
13678.46,0.098561
13714.64,0.098502
13751.02,0.098209
13787.59,0.097678
13824.36,0.097221
13861.32,0.096387
13898.49,0.095712
13935.85,0.095198
13973.41,0.094502
14011.17,0.093825
14049.15,0.093736
14087.32,0.09358
14125.71,0.093771
14164.3,0.093706
14203.11,0.093808
14242.13,0.094115
14281.36,0.094732
14320.81,0.09518
14360.49,0.095723
14400.38,0.096064
14440.49,0.096457
14480.82,0.096817
14521.39,0.097533
14562.18,0.098204
14603.2,0.099136
14644.45,0.100071
14685.93,0.101381
14727.66,0.102256
14769.62,0.103086
14811.81,0.104016
14854.25,0.105258
14896.94,0.105857
14939.87,0.106451
14983.05,0.107016
15026.48,0.107349
15070.16,0.107467
15114.1,0.108073
15158.29,0.107999
15202.74,0.108242
15247.46,0.108256
15292.43,0.107943
15337.68,0.107745
15383.19,0.107809
15428.97,0.107636
15475.03,0.107285
15521.36,0.106557
15567.97,0.106338
15614.87,0.105957
15662.04,0.105657
15709.5,0.105733
15757.25,0.105787
15805.29,0.105207
15853.62,0.1046
15902.26,0.104335
15951.19,0.103855
16000.42,0.102264
16049.95,0.099947
16099.8,0.096528
16149.95,0.092556
16200.42,0.087619
16251.21,0.082536
16302.31,0.077565
16353.74,0.073127
16405.49,0.068799
16457.57,0.065211
16509.98,0.062101
16562.73,0.059103
16615.82,0.056055
16669.24,0.053995
16723.02,0.052027
16777.14,0.050035
16831.61,0.047864
16886.43,0.045984
16941.62,0.044293
16997.16,0.042819
17053.08,0.040762
17109.36,0.038818
17166.01,0.036917
17223.04,0.035226
17280.45,0.033222
17338.24,0.03114
17396.43,0.028632
17455.0,0.027069
17513.97,0.026269
17573.34,0.026506
17633.11,0.027226
17693.29,0.029501
17753.89,0.033812
17814.9,0.0401
17876.33,0.047425
17938.18,0.056074
18000.47,0.064954
18063.19,0.073668
18126.35,0.081269
18189.95,0.088387
18254.0,0.094347
18318.5,0.099333
18383.46,0.103656
18448.88,0.107755
18514.77,0.111019
18581.13,0.114283
18647.97,0.116488
18715.29,0.118072
18783.1,0.118822
18851.4,0.119224
18920.2,0.119303
18989.51,0.119417
19059.32,0.119777
19129.65,0.120197
19200.5,0.12027
19271.88,0.120292
19343.79,0.120604
19416.24,0.120956
19489.23,0.120904
19562.77,0.121474
19636.88,0.122021
19711.54,0.122675
19786.78,0.124172
19862.59,0.126154
19938.98,0.128389
20015.96,0.130635
20093.55,0.132003
20171.73,0.133348
20250.53,0.134134
20329.94,0.134467
20409.98,0.134563
20490.65,0.134754
20571.96,0.134043
20653.92,0.133714
20736.54,0.131962
20819.82,0.129581
20903.77,0.126506
20988.4,0.122935
21073.72,0.118254
21159.73,0.113853
21246.46,0.10942
21333.89,0.105968
21422.04,0.102983
21510.93,0.101052
21600.56,0.098668
21690.94,0.096557
21782.08,0.0952
21873.99,0.094424
21966.67,0.0935
22060.15,0.092811
22154.42,0.091552
22249.51,0.090215
22345.41,0.088759
22442.14,0.087737
22539.72,0.087536
22638.14,0.088241
22737.43,0.085954
22837.6,0.085692
22938.65,0.086021
23040.6,0.085534
23143.46,0.083945
23247.24,0.084012
23351.96,0.084695
23457.63,0.084482
23564.25,0.082581
23671.85,0.082469
23780.44,0.082656
23890.02,0.083345
24000.63,0.082921
24112.26,0.082991
24224.93,0.084169
24338.66,0.086417
24453.47,0.085197
24569.36,0.083586
24686.36,0.084631
24804.47,0.085689
24923.73,0.084637
25044.13,0.086888
25165.71,0.08679
25288.46,0.08555
25412.43,0.086196
25537.61,0.085731
25664.04,0.08725
25791.72,0.088122
25920.68,0.085603
