Database of Origin,University of Winnipeg Spectrophotometer Facility
Sample Description,See Master Clays in HOSERLab database
Date Added,2016-12-11 20:57:06.025297

Data ID,RLA_CLAY_09         
Sample ID,GLA102
Mineral Name,Glauconite
Grain Size,<45um
Viewing Geometry,"30/0,30"
Resolution,"5,0.6-129"
Material Class,Phyllosilicate

Wavelength
305.0,0.024039
310.0,0.023021
315.0,0.022493
320.0,0.02299
325.0,0.023585
330.0,0.023566
335.0,0.023268
340.0,0.023369
345.0,0.024354
350.0,0.024803
355.0,0.025535
360.0,0.026086
365.0,0.026586
370.0,0.02703
375.0,0.027973
380.0,0.029135
385.0,0.030392
390.0,0.031867
395.0,0.033483
400.0,0.034827
405.0,0.036053
410.0,0.037006
415.0,0.038421
420.0,0.039851
425.0,0.04165
430.0,0.043703
435.0,0.046112
440.0,0.048497
445.0,0.050703
450.0,0.052737
455.0,0.054516
460.0,0.055888
465.0,0.057212
470.0,0.058401
475.0,0.059954
480.0,0.061637
485.0,0.063696
490.0,0.066003
495.0,0.068827
500.0,0.071744
505.0,0.075231
510.0,0.07893
515.0,0.082909
520.0,0.086971
525.0,0.09172
530.0,0.096247
535.0,0.101033
540.0,0.105673
545.0,0.110362
550.0,0.114736
555.0,0.119189
560.0,0.123317
565.0,0.127276
570.0,0.131075
575.0,0.134904
580.0,0.138345
585.0,0.141924
590.0,0.145011
595.0,0.148605
600.0,0.151522
605.0,0.154895
610.0,0.157828
615.0,0.161037
620.0,0.163675
625.0,0.166717
630.0,0.16875
635.0,0.172214
640.0,0.174425
645.0,0.177099
650.0,0.17918
655.0,0.181355
660.0,0.183329
665.0,0.185465
670.0,0.187167
675.0,0.189099
680.0,0.190974
685.0,0.192872
690.0,0.194525
695.0,0.196381
700.0,0.198096
705.0,0.199853
710.0,0.201542
715.0,0.203474
720.0,0.2052
725.0,0.207205
730.0,0.208763
735.0,0.210757
740.0,0.212078
745.0,0.213964
750.0,0.215362
755.0,0.216918
760.0,0.218543
765.0,0.219868
770.0,0.221161
775.0,0.222366
780.0,0.223591
785.0,0.224882
790.0,0.22544
795.0,0.226553
800.0,0.226705
805.0,0.226871
810.0,0.227471
815.0,0.228427
820.0,0.228359
825.0,0.228426
830.0,0.228001
835.0,0.22833
840.0,0.227842
845.0,0.227571
850.0,0.226828
855.0,0.22581
860.0,0.226724
865.0,0.225557
870.0,0.224917
875.0,0.224665
880.0,0.223901
885.0,0.223789
890.0,0.223512
895.0,0.223736
900.0,0.224473
905.0,0.224563
910.0,0.224201
915.0,0.224744
920.0,0.224615
925.0,0.224691
930.0,0.225571
935.0,0.225905
940.0,0.226049
945.0,0.226294
950.0,0.22765
955.0,0.228028
960.0,0.228235
965.0,0.229535
970.0,0.230089
975.0,0.230737
980.0,0.2318
985.0,0.232608
990.0,0.233286
995.0,0.234347
1000.0,0.234647
1005.0,0.23573
1010.0,0.23658
1015.0,0.237861
1020.0,0.238833
1025.0,0.239706
1030.0,0.240528
1035.0,0.241972
1040.0,0.242795
1045.0,0.243972
1050.0,0.245156
1055.0,0.246059
1060.0,0.247167
1065.0,0.248622
1070.0,0.249645
1075.0,0.251205
1080.0,0.252345
1085.0,0.253465
1090.0,0.254972
1095.0,0.256642
1100.0,0.257683
1105.0,0.259065
1110.0,0.260442
1115.0,0.262124
1120.0,0.263636
1125.0,0.265465
1130.0,0.267475
1135.0,0.269198
1140.0,0.270952
1145.0,0.272852
1150.0,0.274763
1155.0,0.276592
1160.0,0.278655
1165.0,0.280437
1170.0,0.282788
1175.0,0.284933
1180.0,0.288351
1185.0,0.288592
1190.0,0.29091
1195.0,0.293201
1200.0,0.295108
1205.0,0.297439
1210.0,0.299955
1215.0,0.301849
1220.0,0.303881
1225.0,0.306579
1230.0,0.308702
1235.0,0.310895
1240.0,0.313046
1245.0,0.315546
1250.0,0.318166
1255.0,0.320697
1260.0,0.323434
1265.0,0.325711
1270.0,0.327349
1275.0,0.329985
1280.0,0.332754
1285.0,0.335474
1290.0,0.337788
1295.0,0.340071
1300.0,0.342219
1305.0,0.345627
1310.0,0.347197
1315.0,0.35011
1320.0,0.353426
1325.0,0.356054
1330.0,0.358144
1335.0,0.360752
1340.0,0.364127
1345.0,0.366126
1350.0,0.369733
1355.0,0.372514
1360.0,0.375154
1365.0,0.376856
1370.0,0.38018
1375.0,0.381539
1380.0,0.38524
1385.0,0.385739
1390.0,0.388497
1395.0,0.391286
1400.0,0.391232
1405.0,0.390911
1410.0,0.391083
1415.0,0.392168
1420.0,0.394063
1425.0,0.395853
1430.0,0.398438
1435.0,0.400563
1440.0,0.403679
1445.0,0.407415
1450.0,0.41117
1455.0,0.414728
1460.0,0.418573
1465.0,0.421549
1470.0,0.425089
1475.0,0.428281
1480.0,0.43258
1485.0,0.435336
1490.0,0.438815
1495.0,0.442445
1500.0,0.445421
1505.0,0.448137
1510.0,0.452218
1515.0,0.454786
1520.0,0.45874
1525.0,0.460807
1530.0,0.464444
1535.0,0.466798
1540.0,0.469915
1545.0,0.472948
1550.0,0.475202
1555.0,0.477844
1560.0,0.480782
1565.0,0.483136
1570.0,0.485538
1575.0,0.487554
1580.0,0.490877
1585.0,0.493275
1590.0,0.496104
1595.0,0.498556
1600.0,0.501072
1605.0,0.502935
1610.0,0.505155
1615.0,0.506488
1620.0,0.509478
1625.0,0.511235
1630.0,0.513296
1635.0,0.514962
1640.0,0.517061
1645.0,0.519389
1650.0,0.521133
1655.0,0.522908
1660.0,0.525771
1665.0,0.527966
1670.0,0.530608
1675.0,0.532335
1680.0,0.533192
1685.0,0.534971
1690.0,0.536535
1695.0,0.538235
1700.0,0.538754
1705.0,0.541397
1710.0,0.542587
1715.0,0.543841
1720.0,0.545548
1725.0,0.546712
1730.0,0.547575
1735.0,0.549083
1740.0,0.550088
1745.0,0.551265
1750.0,0.552598
1755.0,0.553917
1760.0,0.55465
1765.0,0.556001
1770.0,0.556529
1775.0,0.557831
1780.0,0.558867
1785.0,0.560103
1790.0,0.561378
1795.0,0.562154
1800.0,0.564022
1805.0,0.564716
1810.0,0.565851
1815.0,0.567331
1820.0,0.568794
1825.0,0.568577
1830.0,0.571124
1835.0,0.572437
1840.0,0.571558
1845.0,0.571082
1850.0,0.571936
1855.0,0.572127
1860.0,0.572086
1865.0,0.571491
1870.0,0.571741
1875.0,0.559108
1880.0,0.552373
1885.0,0.546899
1890.0,0.536494
1895.0,0.520149
1900.0,0.50454
1905.0,0.484373
1910.0,0.471142
1915.0,0.46491
1920.0,0.463289
1925.0,0.463783
1930.0,0.46587
1935.0,0.46834
1940.0,0.471222
1945.0,0.473916
1950.0,0.477652
1955.0,0.481465
1960.0,0.485294
1965.0,0.489003
1970.0,0.492885
1975.0,0.496302
1980.0,0.500571
1985.0,0.504806
1990.0,0.508338
1995.0,0.512828
2000.0,0.516475
2005.0,0.520389
2010.0,0.524017
2015.0,0.528183
2020.0,0.531162
2025.0,0.534755
2030.0,0.538614
2035.0,0.541281
2040.0,0.544151
2045.0,0.546597
2050.0,0.549377
2055.0,0.551811
2060.0,0.55392
2065.0,0.555735
2070.0,0.558046
2075.0,0.559584
2080.0,0.561549
2085.0,0.563756
2090.0,0.565552
2095.0,0.566492
2100.0,0.567532
2105.0,0.568739
2110.0,0.570235
2115.0,0.571588
2120.0,0.572732
2125.0,0.574125
2130.0,0.575252
2135.0,0.57549
2140.0,0.575399
2145.0,0.576049
2150.0,0.576133
2155.0,0.576072
2160.0,0.575325
2165.0,0.574874
2170.0,0.574106
2175.0,0.573421
2180.0,0.571963
2185.0,0.570352
2190.0,0.568582
2195.0,0.566647
2200.0,0.564173
2205.0,0.561703
2210.0,0.5593
2215.0,0.557627
2220.0,0.556297
2225.0,0.553339
2230.0,0.550574
2235.0,0.547759
2240.0,0.544462
2245.0,0.540953
2250.0,0.537816
2255.0,0.53442
2260.0,0.531857
2265.0,0.529302
2270.0,0.526466
2275.0,0.523073
2280.0,0.519209
2285.0,0.515504
2290.0,0.511527
2295.0,0.507613
2300.0,0.505287
2305.0,0.504414
2310.0,0.503415
2315.0,0.504932
2320.0,0.506377
2325.0,0.506928
2330.0,0.506712
2335.0,0.504922
2340.0,0.502849
2345.0,0.499896
2350.0,0.496272
2355.0,0.492264
2360.0,0.488833
2365.0,0.485475
2370.0,0.481255
2375.0,0.479099
2380.0,0.476205
2385.0,0.473835
2390.0,0.471469
2395.0,0.469292
2400.0,0.467845
2405.0,0.465514
2410.0,0.463332
2415.0,0.460875
2420.0,0.457241
2425.0,0.455117
2430.0,0.453412
2435.0,0.450941
2440.0,0.44679
2445.0,0.444652
2450.0,0.442434
2455.0,0.438975
2460.0,0.435752
2465.0,0.433074
2470.0,0.430485
2475.0,0.426007
2480.0,0.422917
2485.0,0.419444
2490.0,0.416741
2495.0,0.413887
2500.0,0.411635
2505.0,0.410344
2510.0,0.407475
2515.0,0.407255
2520.0,0.404336
2525.15,0.403701
2530.08,0.40357
2535.03,0.401437
2540.0,0.401447
2544.99,0.39972
2549.99,0.398841
2552.5,0.399101
2553.76,0.398761
2556.28,0.398099
2558.8,0.398544
2561.33,0.39649
2563.86,0.396257
2565.13,0.397089
2566.4,0.396597
2567.67,0.396193
2568.95,0.395389
2570.22,0.395586
2571.5,0.39565
2572.77,0.395337
2574.05,0.394512
2575.33,0.39498
2576.61,0.394301
2577.89,0.393826
2579.17,0.39318
2580.46,0.392409
2581.74,0.392151
2583.03,0.392474
2584.31,0.391584
2585.6,0.392264
2586.89,0.392694
2588.19,0.392118
2589.48,0.391143
2590.77,0.39091
2592.07,0.390462
2593.36,0.38955
2594.66,0.387919
2595.96,0.388673
2597.26,0.390371
2598.56,0.389731
2599.87,0.387503
2601.17,0.38629
2602.48,0.386004
2603.78,0.385977
2605.09,0.385581
2606.4,0.385326
2607.71,0.385054
2609.03,0.384961
2610.34,0.384172
2611.66,0.383603
2612.97,0.383065
2614.29,0.381761
2615.61,0.380608
2616.93,0.380281
2618.25,0.380426
2619.57,0.380382
2620.9,0.379281
2622.22,0.379674
2623.55,0.379173
2624.88,0.378182
2626.21,0.376606
2627.54,0.37553
2628.87,0.375282
2630.21,0.374348
2631.54,0.373596
2632.88,0.373846
2634.21,0.372465
2635.55,0.371613
2636.89,0.370791
2638.24,0.369643
2639.58,0.3683
2640.92,0.367219
2642.27,0.365999
2643.62,0.36517
2644.97,0.364486
2646.32,0.363039
2647.67,0.36222
2649.02,0.361981
2650.38,0.360094
2651.73,0.358125
2653.09,0.356438
2654.45,0.355282
2655.81,0.353984
2657.17,0.352968
2658.53,0.35138
2659.89,0.349512
2661.26,0.34753
2662.63,0.345348
2664.0,0.342674
2665.36,0.340282
2666.74,0.338161
2668.11,0.336104
2669.48,0.332631
2670.86,0.326942
2672.23,0.318948
2673.61,0.310231
2674.99,0.300705
2676.37,0.292908
2677.76,0.28618
2679.14,0.281549
2680.52,0.277529
2681.91,0.274382
2683.3,0.270514
2684.69,0.2659
2686.08,0.261613
2687.47,0.256865
2688.87,0.251803
2690.26,0.246947
2691.66,0.241641
2693.06,0.235973
2694.46,0.230475
2695.86,0.224432
2697.26,0.217936
2698.66,0.21204
2700.07,0.206037
2701.48,0.200269
2702.89,0.194331
2704.3,0.188305
2705.71,0.182521
2707.12,0.177551
2708.53,0.173304
2709.95,0.170484
2711.37,0.16793
2712.79,0.165897
2714.21,0.16378
2715.63,0.161037
2717.05,0.157417
2718.48,0.153462
2719.9,0.149325
2721.33,0.144792
2722.76,0.140163
2724.19,0.135739
2725.62,0.130758
2727.06,0.126821
2728.49,0.122877
2729.93,0.118736
2731.37,0.114709
2732.81,0.111073
2734.25,0.107438
2735.69,0.104057
2737.14,0.100393
2738.58,0.097424
2740.03,0.09421
2741.48,0.090836
2742.93,0.088042
2744.38,0.085318
2745.83,0.081887
2747.29,0.079268
2748.75,0.076829
2750.2,0.074354
2751.66,0.071885
2753.13,0.069913
2754.59,0.068268
2756.05,0.066494
2757.52,0.064667
2758.99,0.063033
2760.46,0.061281
2761.93,0.059825
2763.4,0.058848
2764.87,0.058211
2766.35,0.057747
2767.82,0.057093
2769.3,0.056016
2770.78,0.055156
2772.26,0.054461
2773.75,0.053959
2775.23,0.052975
2776.72,0.052149
2778.21,0.051885
2779.7,0.051232
2781.19,0.050158
2782.68,0.049653
2784.18,0.049293
2785.67,0.048541
2787.17,0.047763
2788.67,0.047634
2790.17,0.047246
2791.67,0.04684
2793.18,0.046999
2794.68,0.046991
2796.19,0.046294
2797.7,0.045807
2799.21,0.045654
2800.72,0.045616
2802.24,0.045244
2803.75,0.04458
2805.27,0.044291
2806.79,0.044446
2808.31,0.044195
2809.83,0.044157
2811.35,0.044286
2812.88,0.044094
2814.41,0.044053
2815.93,0.044561
2817.46,0.044379
2819.0,0.044295
2820.53,0.044423
2822.07,0.044371
2823.6,0.044772
2825.14,0.045171
2826.68,0.04522
2828.22,0.045704
2829.77,0.046105
2831.31,0.04601
2832.86,0.046266
2834.41,0.046661
2835.96,0.046999
2837.51,0.047692
2839.07,0.048222
2840.62,0.048831
2842.18,0.049277
2843.74,0.049633
2845.3,0.050081
2846.86,0.05087
2848.43,0.051106
2849.99,0.051295
2851.56,0.052055
2853.13,0.05238
2854.7,0.052434
2856.27,0.052718
2857.85,0.053083
2859.42,0.053333
2861.0,0.053758
2862.58,0.054162
2864.16,0.054586
2865.75,0.054788
2867.33,0.055021
2868.92,0.05516
2870.51,0.055355
2872.1,0.055337
2873.69,0.055415
2875.28,0.056098
2876.88,0.056664
2878.48,0.05687
2880.07,0.056761
2881.68,0.056761
2883.28,0.05668
2884.88,0.056963
2886.49,0.057346
2888.1,0.057309
2889.71,0.057607
2891.32,0.057546
2892.93,0.057353
2894.55,0.057636
2896.16,0.057853
2897.78,0.058114
2899.4,0.058373
2901.03,0.058447
2902.65,0.058469
2904.28,0.058435
2905.91,0.058156
2907.54,0.058043
2909.17,0.058241
2910.8,0.058527
2912.44,0.058889
2914.07,0.05918
2915.71,0.059147
2917.35,0.059167
2918.99,0.059171
2920.64,0.059205
2922.29,0.059625
2923.93,0.059666
2925.58,0.05949
2927.24,0.059729
2928.89,0.059919
2930.55,0.059591
2932.2,0.059429
2933.86,0.059542
2935.52,0.059729
2937.19,0.059932
2938.85,0.060119
2940.52,0.060314
2942.19,0.06038
2943.86,0.060613
2945.53,0.060499
2947.21,0.060363
2948.88,0.060454
2950.56,0.060589
2952.24,0.060589
2953.92,0.060932
2955.61,0.061023
2957.29,0.06096
2958.98,0.061045
2960.67,0.061374
2962.36,0.061451
2964.06,0.061226
2965.75,0.061259
2967.45,0.061655
2969.15,0.061607
2970.85,0.061374
2972.55,0.061322
2974.26,0.06143
2975.97,0.061651
2977.68,0.061893
2979.39,0.061959
2981.1,0.061893
2982.82,0.062388
2984.53,0.062563
2986.25,0.062297
2987.97,0.062155
2989.7,0.062346
2991.42,0.062377
2993.15,0.062434
2994.88,0.062649
2996.61,0.062948
2998.34,0.063028
3000.08,0.062913
3001.82,0.063009
3003.55,0.063369
3005.3,0.063588
3007.04,0.063374
3008.78,0.063371
3010.53,0.063491
3012.28,0.06348
3014.03,0.063637
3015.79,0.063634
3017.54,0.063472
3019.3,0.063783
3021.06,0.063907
3022.82,0.064008
3024.58,0.064043
3026.35,0.063978
3028.12,0.064083
3029.89,0.064363
3031.66,0.064289
3033.43,0.064123
3035.21,0.064247
3036.99,0.064302
3038.77,0.064434
3040.55,0.064646
3042.33,0.064959
3044.12,0.065008
3045.91,0.065337
3047.7,0.065563
3049.49,0.065401
3051.29,0.065401
3053.08,0.065285
3054.88,0.065239
3056.68,0.065202
3058.49,0.0652
3060.29,0.06553
3062.1,0.065599
3063.91,0.065502
3065.72,0.065752
3067.54,0.066236
3069.35,0.066329
3071.17,0.066155
3072.99,0.066188
3074.81,0.066288
3076.64,0.066304
3078.47,0.066335
3080.29,0.06623
3082.13,0.066103
3083.96,0.066293
3085.79,0.06645
3087.63,0.06639
3089.47,0.066611
3091.31,0.067057
3093.16,0.067117
3095.01,0.067136
3096.85,0.067406
3098.71,0.067647
3100.56,0.067828
3102.41,0.067957
3104.27,0.067889
3106.13,0.067949
3107.99,0.068119
3109.86,0.068224
3111.73,0.068333
3113.59,0.068584
3115.47,0.06888
3117.34,0.069069
3119.21,0.069116
3121.09,0.068957
3122.97,0.069105
3124.86,0.069627
3126.74,0.070007
3128.63,0.070253
3130.52,0.070408
3132.41,0.070525
3134.3,0.070668
3136.2,0.071006
3138.1,0.071371
3140.0,0.071431
3141.9,0.07164
3143.81,0.071865
3145.71,0.07213
3147.62,0.072294
3149.54,0.072552
3151.45,0.072794
3153.37,0.072926
3155.29,0.073132
3157.21,0.073473
3159.13,0.073978
3161.06,0.074397
3162.99,0.074536
3164.92,0.074785
3166.85,0.074926
3168.79,0.075013
3170.72,0.075515
3172.67,0.075925
3174.61,0.076158
3176.55,0.076652
3178.5,0.077076
3180.45,0.077147
3182.4,0.077386
3184.36,0.077795
3186.32,0.077954
3188.27,0.078427
3190.24,0.079095
3192.2,0.079448
3194.17,0.079737
3196.14,0.079938
3198.11,0.080281
3200.08,0.080839
3202.06,0.081247
3204.04,0.081428
3206.02,0.081662
3208.0,0.082178
3209.99,0.082752
3211.98,0.083145
3213.97,0.083527
3215.96,0.083982
3217.96,0.084296
3219.96,0.084702
3221.96,0.08534
3223.96,0.085518
3225.97,0.08581
3227.98,0.086229
3229.99,0.086888
3232.0,0.087477
3234.02,0.08779
3236.04,0.088051
3238.06,0.088657
3240.08,0.089454
3242.11,0.089857
3244.14,0.089855
3246.17,0.090071
3248.2,0.090772
3250.24,0.091299
3252.28,0.091665
3254.32,0.092324
3256.37,0.092843
3258.41,0.093142
3260.46,0.093417
3262.51,0.093741
3264.57,0.094153
3266.63,0.094759
3268.69,0.095306
3270.75,0.095859
3272.81,0.096108
3274.88,0.096484
3276.95,0.097006
3279.02,0.097426
3281.1,0.097918
3283.18,0.098437
3285.26,0.098898
3287.34,0.099387
3289.43,0.099887
3291.51,0.100346
3293.61,0.100786
3295.7,0.101356
3297.8,0.101875
3299.9,0.102192
3302.0,0.102611
3304.1,0.103252
3306.21,0.103661
3308.32,0.103836
3310.43,0.1042
3312.55,0.104815
3314.66,0.105223
3316.79,0.10554
3318.91,0.105776
3321.03,0.106086
3323.16,0.106509
3325.29,0.107198
3327.43,0.107839
3329.57,0.108119
3331.71,0.108363
3333.85,0.108634
3335.99,0.108807
3338.14,0.109294
3340.29,0.109701
3342.45,0.109958
3344.6,0.110173
3346.76,0.110455
3348.92,0.110749
3351.09,0.11098
3353.26,0.111265
3355.43,0.111411
3357.6,0.111633
3359.78,0.1119
3361.96,0.112172
3364.14,0.112301
3366.32,0.112378
3368.51,0.112615
3370.7,0.112696
3372.89,0.112858
3375.09,0.113119
3377.29,0.113323
3379.49,0.113564
3381.69,0.113825
3383.9,0.113969
3386.11,0.114369
3388.32,0.114729
3390.54,0.115193
3392.76,0.115622
3394.98,0.115684
3397.21,0.115888
3399.43,0.116119
3401.66,0.116319
3403.9,0.116495
3406.13,0.11646
3408.37,0.116438
3410.61,0.116544
3412.86,0.116662
3415.11,0.116989
3417.36,0.117486
3419.61,0.117918
3421.87,0.11836
3424.13,0.119057
3426.39,0.119886
3428.66,0.120798
3430.93,0.121519
3433.2,0.122059
3435.48,0.12284
3437.76,0.123764
3440.04,0.124444
3442.32,0.125243
3444.61,0.126033
3446.9,0.126687
3449.19,0.127382
3451.49,0.127816
3453.79,0.128227
3456.09,0.128769
3458.4,0.129307
3460.7,0.129949
3463.02,0.130277
3465.33,0.13043
3467.65,0.130952
3469.97,0.131436
3472.29,0.13174
3474.62,0.132174
3476.95,0.132436
3479.29,0.132499
3481.62,0.132609
3483.96,0.132963
3486.3,0.133534
3488.65,0.134003
3491.0,0.134338
3493.35,0.134648
3495.71,0.13502
3498.07,0.135338
3500.43,0.135671
3502.79,0.13597
3505.16,0.13648
3507.53,0.137197
3509.91,0.137985
3512.29,0.138812
3514.67,0.13976
3517.05,0.140551
3519.44,0.14144
3521.83,0.142227
3524.23,0.142932
3526.62,0.143902
3529.02,0.144821
3531.43,0.145596
3533.83,0.146503
3536.24,0.147466
3538.66,0.148274
3541.08,0.14896
3543.5,0.149614
3545.92,0.150342
3548.35,0.151165
3550.78,0.152012
3553.21,0.152704
3555.65,0.153295
3558.09,0.154055
3560.53,0.154874
3562.98,0.155478
3565.43,0.156073
3567.88,0.156787
3570.34,0.15751
3572.8,0.158086
3575.27,0.158718
3577.73,0.159506
3580.2,0.160028
3582.68,0.160605
3585.16,0.161303
3587.64,0.162047
3590.12,0.16261
3592.61,0.163247
3595.1,0.163884
3597.6,0.164499
3600.09,0.165096
3602.6,0.165835
3605.1,0.166552
3607.61,0.167109
3610.12,0.167732
3612.64,0.168408
3615.16,0.169067
3617.68,0.169803
3620.21,0.170416
3622.74,0.170978
3625.27,0.171604
3627.81,0.172203
3630.35,0.172925
3632.89,0.173673
3635.44,0.174318
3637.99,0.174832
3640.54,0.17531
3643.1,0.176054
3645.66,0.176921
3648.23,0.177372
3650.8,0.17774
3653.37,0.178507
3655.95,0.179158
3658.53,0.179668
3661.11,0.18028
3663.7,0.181046
3666.29,0.181742
3668.89,0.182173
3671.48,0.182739
3674.09,0.183581
3676.69,0.184277
3679.3,0.184865
3681.91,0.185472
3684.53,0.186158
3687.15,0.186715
3689.78,0.187404
3692.4,0.188116
3695.04,0.188586
3697.67,0.189144
3700.31,0.1898
3702.95,0.190454
3705.6,0.191162
3708.25,0.191818
3710.91,0.192351
3713.56,0.192967
3716.23,0.193636
3718.89,0.194101
3721.56,0.194622
3724.23,0.195298
3726.91,0.196081
3729.59,0.196704
3732.28,0.197171
3734.97,0.197778
3737.66,0.198454
3740.36,0.199058
3743.06,0.199692
3745.76,0.200253
3748.47,0.200882
3751.18,0.201371
3753.9,0.201878
3756.62,0.20254
3759.34,0.203085
3762.07,0.203442
3764.8,0.204004
3767.54,0.204627
3770.28,0.205095
3773.02,0.205537
3775.77,0.206059
3778.52,0.20633
3781.28,0.206745
3784.04,0.207105
3786.8,0.207402
3789.57,0.207744
3792.34,0.208064
3795.12,0.208363
3797.9,0.208623
3800.69,0.208645
3803.47,0.208698
3806.27,0.20881
3809.06,0.208962
3811.86,0.209047
3814.67,0.209256
3817.48,0.209442
3820.29,0.209494
3823.11,0.209445
3825.93,0.209568
3828.76,0.209727
3831.59,0.20992
3834.42,0.210085
3837.26,0.210272
3840.1,0.210357
3842.95,0.210557
3845.8,0.2107
3848.65,0.211004
3851.51,0.211243
3854.38,0.2114
3857.24,0.211579
3860.12,0.211818
3862.99,0.211944
3865.87,0.212367
3868.76,0.212732
3871.65,0.212823
3874.54,0.213015
3877.44,0.213356
3880.34,0.213458
3883.25,0.213636
3886.16,0.213918
3889.07,0.21426
3891.99,0.214531
3894.92,0.214636
3897.85,0.214762
3900.78,0.215026
3903.72,0.215161
3906.66,0.215374
3909.6,0.215514
3912.55,0.215646
3915.51,0.215651
3918.47,0.215746
3921.43,0.215877
3924.4,0.215973
3927.38,0.215941
3930.35,0.215902
3933.33,0.215795
3936.32,0.215702
3939.31,0.215652
3942.31,0.215712
3945.31,0.21575
3948.31,0.215531
3951.32,0.215256
3954.34,0.215033
3957.35,0.214869
3960.38,0.214765
3963.41,0.214405
3966.44,0.213957
3969.48,0.213656
3972.52,0.213473
3975.56,0.213116
3978.61,0.212636
3981.67,0.212236
3984.73,0.211876
3987.8,0.211549
3990.87,0.211541
3993.94,0.211546
3997.02,0.211578
4000.1,0.211708
4003.19,0.211911
4006.29,0.212192
4009.39,0.212793
4012.49,0.213373
4015.6,0.214062
4018.71,0.214955
4021.83,0.21588
4024.95,0.216729
4028.08,0.217777
4031.21,0.218849
4034.35,0.219851
4037.49,0.221043
4040.64,0.222325
4043.79,0.223466
4046.94,0.224773
4050.11,0.226163
4053.27,0.227426
4056.44,0.228651
4059.62,0.229912
4062.8,0.231092
4065.99,0.232432
4069.18,0.233624
4072.38,0.234665
4075.58,0.235648
4078.78,0.236753
4082.0,0.237807
4085.21,0.238788
4088.43,0.239677
4091.66,0.240567
4094.89,0.241509
4098.13,0.242349
4101.37,0.243031
4104.62,0.243777
4107.87,0.244451
4111.13,0.245093
4114.39,0.245712
4117.66,0.246376
4120.93,0.246934
4124.21,0.247533
4127.5,0.248052
4130.79,0.248579
4134.08,0.249037
4137.38,0.249471
4140.68,0.249938
4143.99,0.250414
4147.31,0.250674
4150.63,0.251095
4153.95,0.251567
4157.29,0.251833
4160.62,0.252097
4163.96,0.252442
4167.31,0.252723
4170.66,0.253044
4174.02,0.253306
4177.39,0.253503
4180.75,0.253711
4184.13,0.254039
4187.51,0.254256
4190.89,0.25445
4194.28,0.254602
4197.68,0.254638
4201.08,0.254583
4204.49,0.254621
4207.9,0.254577
4211.32,0.254294
4214.74,0.253948
4218.17,0.25366
4221.61,0.253314
4225.05,0.253052
4228.5,0.252791
4231.95,0.252465
4235.4,0.251989
4238.87,0.251652
4242.34,0.251048
4245.81,0.250454
4249.29,0.24984
4252.78,0.249038
4256.27,0.248123
4259.77,0.246749
4263.27,0.24464
4266.78,0.242451
4270.29,0.240534
4273.81,0.239262
4277.34,0.23906
4280.87,0.240219
4284.41,0.242303
4287.95,0.244846
4291.5,0.247033
4295.06,0.248853
4298.62,0.250226
4302.19,0.251278
4305.76,0.252195
4309.34,0.253192
4312.92,0.254085
4316.52,0.254876
4320.11,0.255609
4323.72,0.256365
4327.32,0.256942
4330.94,0.257368
4334.56,0.257708
4338.19,0.25818
4341.82,0.258439
4345.46,0.258564
4349.11,0.258628
4352.76,0.258787
4356.42,0.25901
4360.08,0.259194
4363.75,0.259254
4367.43,0.259399
4371.11,0.259463
4374.8,0.259545
4378.49,0.259512
4382.19,0.259513
4385.9,0.259513
4389.61,0.259397
4393.33,0.259212
4397.06,0.259274
4400.79,0.259263
4404.53,0.259249
4408.28,0.259232
4412.03,0.259259
4415.79,0.259208
4419.55,0.259158
4423.32,0.259105
4427.1,0.258984
4430.88,0.258889
4434.68,0.258947
4438.47,0.258892
4442.28,0.258806
4446.08,0.258649
4449.9,0.258554
4453.72,0.258545
4457.55,0.258498
4461.39,0.258351
4465.23,0.258226
4469.08,0.258086
4472.94,0.258031
4476.8,0.25792
4480.67,0.257895
4484.55,0.257763
4488.43,0.257678
4492.32,0.257697
4496.21,0.25768
4500.12,0.25756
4504.03,0.257483
4507.94,0.25739
4511.87,0.257293
4515.8,0.257087
4519.73,0.257057
4523.68,0.257026
4527.63,0.257005
4531.59,0.25685
4535.55,0.256716
4539.52,0.256588
4543.5,0.256524
4547.49,0.256329
4551.48,0.256183
4555.48,0.256103
4559.49,0.256117
4563.5,0.255865
4567.52,0.255624
4571.55,0.255371
4575.58,0.255211
4579.63,0.255058
4583.67,0.254945
4587.73,0.254763
4591.79,0.25462
4595.86,0.254379
4599.94,0.254123
4604.03,0.253874
4608.12,0.25367
4612.22,0.253432
4616.33,0.253155
4620.44,0.252756
4624.56,0.252515
4628.69,0.252262
4632.83,0.252063
4636.97,0.251739
4641.12,0.251422
4645.28,0.251182
4649.45,0.251065
4653.62,0.250875
4657.8,0.250726
4661.99,0.250457
4666.19,0.250267
4670.39,0.25009
4674.6,0.24991
4678.82,0.249823
4683.05,0.249897
4687.28,0.249782
4691.52,0.249719
4695.77,0.249685
4700.03,0.249699
4704.3,0.249667
4708.57,0.249675
4712.85,0.249565
4717.14,0.24954
4721.43,0.249546
4725.74,0.249483
4730.05,0.249321
4734.37,0.249299
4738.7,0.249241
4743.03,0.249194
4747.38,0.248977
4751.73,0.248867
4756.09,0.24868
4760.45,0.248455
4764.83,0.248208
4769.21,0.248115
4773.6,0.247952
4778.0,0.247703
4782.41,0.247453
4786.83,0.247228
4791.25,0.246928
4795.68,0.246706
4800.13,0.24647
4804.57,0.246239
4809.03,0.24595
4813.5,0.245605
4817.97,0.245206
4822.45,0.244931
4826.94,0.244596
4831.44,0.24441
4835.95,0.244055
4840.46,0.243761
4844.99,0.243525
4849.52,0.243193
4854.06,0.242688
4858.61,0.242347
4863.17,0.241951
4867.73,0.241657
4872.31,0.241322
4876.89,0.240965
4881.48,0.240546
4886.08,0.240131
4890.69,0.239609
4895.31,0.239181
4899.94,0.238717
4904.57,0.238296
4909.22,0.237711
4913.87,0.237187
4918.53,0.236679
4923.21,0.236171
4927.88,0.235555
4932.57,0.234978
4937.27,0.234453
4941.98,0.234058
4946.69,0.233592
4951.42,0.233194
4956.15,0.232669
4960.9,0.232046
4965.65,0.231518
4970.41,0.231076
4975.18,0.23048
4979.96,0.229914
4984.75,0.229222
4989.54,0.228621
4994.35,0.228095
4999.17,0.227638
5003.99,0.227091
5008.83,0.22667
5013.67,0.226165
5018.52,0.225602
5023.39,0.225094
5028.26,0.224772
5033.14,0.224301
5038.03,0.223822
5042.93,0.223301
5047.84,0.222933
5052.76,0.222529
5057.69,0.222092
5062.63,0.221614
5067.58,0.221131
5072.54,0.220578
5077.51,0.22018
5082.49,0.219738
5087.47,0.219337
5092.47,0.218876
5097.48,0.218396
5102.5,0.217836
5107.52,0.217376
5112.56,0.21692
5117.61,0.216376
5122.66,0.215729
5127.73,0.215229
5132.81,0.214735
5137.89,0.214197
5142.99,0.213523
5148.1,0.212961
5153.22,0.212439
5158.34,0.212082
5163.48,0.211656
5168.63,0.211265
5173.79,0.210796
5178.96,0.21048
5184.13,0.210057
5189.32,0.209577
5194.52,0.208959
5199.73,0.208357
5204.96,0.207816
5210.19,0.207333
5215.43,0.206596
5220.68,0.206073
5225.94,0.205473
5231.22,0.204784
5236.5,0.203932
5241.79,0.203164
5247.1,0.202455
5252.42,0.201691
5257.74,0.20087
5263.08,0.200057
5268.43,0.199204
5273.79,0.198464
5279.16,0.197636
5284.54,0.196919
5289.93,0.196105
5295.34,0.195296
5300.75,0.194557
5306.18,0.193779
5311.61,0.192964
5317.06,0.192297
5322.52,0.191511
5327.99,0.190739
5333.47,0.190005
5338.96,0.189335
5344.47,0.18857
5349.98,0.187757
5355.51,0.187031
5361.05,0.186418
5366.6,0.185614
5372.16,0.184873
5377.73,0.184156
5383.32,0.183581
5388.91,0.182939
5394.52,0.18223
5400.14,0.18147
5405.77,0.18075
5411.41,0.179882
5417.07,0.179039
5422.74,0.177996
5428.41,0.177054
5434.1,0.176005
5439.81,0.174582
5445.52,0.173002
5451.25,0.17142
5456.98,0.169663
5462.73,0.167693
5468.5,0.165568
5474.27,0.16347
5480.06,0.161174
5485.86,0.158848
5491.67,0.156606
5497.49,0.154476
5503.33,0.152471
5509.18,0.150649
5515.04,0.149136
5520.91,0.147834
5526.8,0.146741
5532.69,0.14591
5538.61,0.145181
5544.53,0.144582
5550.47,0.144297
5556.41,0.144286
5562.38,0.144525
5568.35,0.144785
5574.34,0.145197
5580.34,0.145744
5586.35,0.146524
5592.38,0.147194
5598.42,0.147522
5604.47,0.147782
5610.54,0.148103
5616.61,0.148255
5622.71,0.148386
5628.81,0.148556
5634.93,0.148529
5641.06,0.148386
5647.21,0.148328
5653.36,0.148395
5659.54,0.148054
5665.72,0.147868
5671.92,0.147552
5678.13,0.147283
5684.36,0.147158
5690.6,0.146848
5696.85,0.146338
5703.12,0.146107
5709.4,0.14562
5715.69,0.145157
5722.0,0.144744
5728.33,0.144253
5734.66,0.143615
5741.01,0.143066
5747.38,0.142413
5753.76,0.141729
5760.15,0.141094
5766.56,0.140241
5772.98,0.139563
5779.41,0.139005
5785.86,0.138183
5792.33,0.137467
5798.81,0.136497
5805.3,0.13552
5811.81,0.134519
5818.33,0.133581
5824.87,0.132537
5831.42,0.131711
5837.99,0.130541
5844.57,0.12931
5851.17,0.128014
5857.78,0.126766
5864.41,0.125418
5871.05,0.124154
5877.7,0.122779
5884.38,0.121323
5891.06,0.120003
5897.76,0.118488
5904.48,0.116984
5911.21,0.115515
5917.96,0.113844
5924.73,0.112153
5931.5,0.110422
5938.3,0.108764
5945.11,0.107067
5951.93,0.105367
5958.78,0.103461
5965.63,0.101749
5972.51,0.099903
5979.39,0.098152
5986.3,0.096319
5993.22,0.094608
6000.16,0.092798
6007.11,0.091129
6014.08,0.089325
6021.06,0.087652
6028.06,0.086059
6035.08,0.084497
6042.12,0.082867
6049.17,0.081349
6056.23,0.080037
6063.32,0.078889
6070.42,0.077499
6077.53,0.076375
6084.67,0.075436
6091.82,0.074626
6098.98,0.073782
6106.17,0.073061
6113.37,0.072412
6120.58,0.072066
6127.82,0.071813
6135.07,0.071549
6142.34,0.071405
6149.63,0.071489
6156.93,0.07166
6164.25,0.071953
6171.59,0.072514
6178.95,0.073124
6186.32,0.073816
6193.71,0.075015
6201.12,0.076144
6208.54,0.076894
6215.99,0.077759
6223.45,0.078605
6230.93,0.079386
6238.43,0.080166
6245.95,0.080868
6253.48,0.081467
6261.03,0.082068
6268.6,0.082605
6276.19,0.083173
6283.8,0.083769
6291.43,0.084343
6299.07,0.084787
6306.73,0.085332
6314.42,0.085869
6322.12,0.086342
6329.84,0.086785
6337.57,0.087194
6345.33,0.087573
6353.11,0.088251
6360.9,0.088784
6368.72,0.089141
6376.55,0.08955
6384.4,0.08995
6392.27,0.090313
6400.17,0.090712
6408.08,0.091025
6416.01,0.09134
6423.96,0.091767
6431.93,0.091813
6439.92,0.091734
6447.93,0.091527
6455.96,0.091052
6464.01,0.090667
6472.08,0.090157
6480.17,0.089522
6488.28,0.088863
6496.41,0.088342
6504.56,0.087886
6512.73,0.087348
6520.92,0.086836
6529.14,0.086322
6537.37,0.085804
6545.63,0.085332
6553.9,0.084957
6562.2,0.084543
6570.51,0.084147
6578.85,0.083766
6587.21,0.083436
6595.59,0.083058
6603.99,0.082777
6612.42,0.082433
6620.86,0.082154
6629.33,0.081797
6637.82,0.081432
6646.33,0.08117
6654.86,0.080825
6663.41,0.080401
6671.99,0.080033
6680.59,0.079666
6689.21,0.079334
6697.85,0.079094
6706.51,0.078822
6715.2,0.078501
6723.91,0.078293
6732.64,0.077995
6741.4,0.077611
6750.18,0.077237
6758.98,0.076954
6767.8,0.076538
6776.65,0.076086
6785.52,0.075623
6794.41,0.075085
6803.33,0.074414
6812.27,0.073846
6821.23,0.073271
6830.22,0.07273
6839.23,0.072145
6848.26,0.071594
6857.32,0.071097
6866.4,0.070589
6875.51,0.06993
6884.64,0.069389
6893.8,0.068999
6902.98,0.068603
6912.18,0.068131
6921.41,0.067732
6930.66,0.067194
6939.94,0.066609
6949.24,0.06606
6958.57,0.065559
6967.92,0.064923
6977.3,0.064296
6986.7,0.063826
6996.13,0.063568
7005.59,0.063307
7015.07,0.063163
7024.57,0.063023
7034.1,0.062981
7043.66,0.062989
7053.25,0.063123
7062.85,0.06331
7072.49,0.06353
7082.15,0.063781
7091.84,0.064028
7101.55,0.064343
7111.3,0.064708
7121.06,0.065029
7130.86,0.065368
7140.68,0.065716
7150.53,0.066076
7160.41,0.066408
7170.31,0.066615
7180.24,0.066818
7190.2,0.066957
7200.19,0.066993
7210.2,0.066952
7220.24,0.066765
7230.31,0.066559
7240.41,0.066329
7250.54,0.066101
7260.69,0.065933
7270.88,0.065887
7281.09,0.065991
7291.33,0.066134
7301.6,0.066206
7311.9,0.066239
7322.22,0.066206
7332.58,0.066249
7342.97,0.066312
7353.38,0.066309
7363.83,0.06626
7374.3,0.066291
7384.81,0.06637
7395.34,0.066486
7405.91,0.06654
7416.5,0.066683
7427.13,0.066919
7437.78,0.067178
7448.47,0.067431
7459.19,0.06763
7469.94,0.067803
7480.71,0.068067
7491.52,0.068328
7502.37,0.068517
7513.24,0.068691
7524.14,0.068808
7535.08,0.068883
7546.05,0.068982
7557.05,0.069124
7568.08,0.069279
7579.15,0.069391
7590.24,0.06946
7601.37,0.069551
7612.53,0.069694
7623.73,0.069839
7634.96,0.069952
7646.22,0.070094
7657.51,0.07024
7668.84,0.070402
7680.2,0.070567
7691.59,0.070685
7703.02,0.070816
7714.49,0.070927
7725.98,0.071039
7737.52,0.071077
7749.08,0.071091
7760.68,0.071155
7772.32,0.071132
7783.99,0.07105
7795.69,0.071012
7807.43,0.070902
7819.21,0.070787
7831.02,0.070663
7842.87,0.070578
7854.75,0.070465
7866.67,0.070297
7878.62,0.070116
7890.62,0.069998
7902.64,0.069858
7914.71,0.06965
7926.81,0.069375
7938.95,0.069094
7951.13,0.068874
7963.34,0.068624
7975.59,0.068372
7987.88,0.068106
8000.21,0.067788
8012.57,0.067441
8024.98,0.067133
8037.42,0.066787
8049.9,0.066354
8062.42,0.065873
8074.98,0.065348
8087.57,0.064796
8100.21,0.064302
8112.89,0.063811
8125.6,0.063211
8138.36,0.062582
8151.16,0.061945
8163.99,0.061286
8176.87,0.060641
8189.79,0.059962
8202.75,0.059125
8215.75,0.058236
8228.79,0.05739
8241.87,0.056537
8254.99,0.055643
8268.16,0.054684
8281.37,0.053729
8294.62,0.052783
8307.91,0.05169
8321.24,0.050602
8334.62,0.049502
8348.04,0.048414
8361.51,0.047313
8375.02,0.046165
8388.57,0.044921
8402.16,0.043712
8415.8,0.042534
8429.49,0.041279
8443.22,0.039985
8456.99,0.038827
8470.81,0.037695
8484.67,0.036635
8498.58,0.03555
8512.54,0.034465
8526.54,0.033394
8540.58,0.032418
8554.68,0.031469
8568.82,0.030585
8583.0,0.029714
8597.24,0.028832
8611.52,0.027969
8625.85,0.027208
8640.23,0.026538
8654.65,0.026086
8669.12,0.025835
8683.64,0.025673
8698.21,0.025363
8712.83,0.02507
8727.5,0.024842
8742.22,0.024662
8756.99,0.024474
8771.8,0.024389
8786.67,0.024251
8801.59,0.024014
8816.56,0.023724
8831.58,0.02363
8846.65,0.023595
8861.77,0.023569
8876.94,0.023433
8892.17,0.023394
8907.45,0.023496
8922.78,0.023587
8938.16,0.023452
8953.6,0.023317
8969.09,0.023314
8984.64,0.023435
9000.23,0.02351
9015.89,0.023619
9031.59,0.023677
9047.36,0.023751
9063.17,0.0239
9079.05,0.024105
9094.97,0.024342
9110.96,0.024509
9127.0,0.024641
9143.1,0.024812
9159.25,0.024926
9175.46,0.025144
9191.73,0.025338
9208.06,0.025399
9224.44,0.025492
9240.88,0.025637
9257.38,0.025769
9273.94,0.025876
9290.56,0.025861
9307.24,0.026041
9323.98,0.026201
9340.78,0.026286
9357.64,0.026289
9374.57,0.026303
9391.55,0.0263
9408.59,0.026372
9425.7,0.026509
9442.87,0.02661
9460.1,0.026585
9477.4,0.026624
9494.75,0.026821
9512.17,0.026969
9529.66,0.026907
9547.21,0.026896
9564.83,0.026973
9582.5,0.027041
9600.25,0.027042
9618.06,0.026959
9635.94,0.026824
9653.88,0.026808
9671.89,0.026802
9689.97,0.026774
9708.12,0.026689
9726.33,0.026593
9744.62,0.026536
9762.97,0.026497
9781.39,0.026343
9799.88,0.026228
9818.44,0.026118
9837.07,0.026093
9855.77,0.026027
9874.54,0.02606
9893.39,0.026058
9912.3,0.026027
9931.29,0.025956
9950.36,0.025964
9969.49,0.025882
9988.7,0.025795
10007.98,0.025754
10027.34,0.025731
10046.77,0.025703
10066.28,0.02567
10085.87,0.025567
10105.53,0.025517
10125.26,0.025539
10145.08,0.025668
10164.97,0.025663
10184.94,0.025592
10204.99,0.025497
10225.12,0.025438
10245.33,0.025361
10265.61,0.025232
10285.98,0.025202
10306.43,0.025144
10326.96,0.025092
10347.57,0.025133
10368.27,0.02504
10389.05,0.025001
10409.91,0.025001
10430.86,0.025004
10451.88,0.025044
10473.0,0.025045
10494.2,0.025033
10515.49,0.025058
10536.86,0.025042
10558.32,0.025011
10579.87,0.025077
10601.5,0.025253
10623.23,0.025272
10645.04,0.025221
10666.94,0.025267
10688.94,0.025372
10711.02,0.025377
10733.2,0.025449
10755.47,0.025531
10777.83,0.025608
10800.28,0.025643
10822.83,0.025806
10845.47,0.025904
10868.21,0.026003
10891.04,0.02614
10913.97,0.026163
10936.99,0.026245
10960.12,0.02639
10983.34,0.026528
11006.66,0.026698
11030.07,0.026827
11053.59,0.026953
11077.21,0.027013
11100.93,0.027184
11124.75,0.02734
11148.68,0.027437
11172.71,0.027469
11196.84,0.027563
11221.07,0.027569
11245.41,0.027561
11269.86,0.027566
11294.41,0.027588
11319.07,0.027678
11343.84,0.027778
11368.72,0.02784
11393.7,0.027871
11418.8,0.027983
11444.01,0.028241
11469.33,0.028492
11494.76,0.028606
11520.3,0.028602
11545.96,0.028807
11571.73,0.029033
11597.62,0.029101
11623.62,0.029128
11649.74,0.029279
11675.98,0.02932
11702.34,0.029115
11728.81,0.028942
11755.41,0.029051
11782.13,0.029164
11808.96,0.029161
11835.92,0.029047
11863.01,0.029007
11890.22,0.028884
11917.55,0.028744
11945.01,0.02853
11972.6,0.02833
12000.31,0.028105
12028.16,0.02795
12056.13,0.02794
12084.23,0.027846
12112.46,0.02772
12140.83,0.027692
12169.33,0.027588
12197.96,0.027443
12226.73,0.027255
12255.64,0.02713
12284.68,0.027088
12313.86,0.027105
12343.18,0.027129
12372.64,0.027192
12402.24,0.027137
12431.98,0.027247
12461.86,0.027516
12491.89,0.02767
12522.07,0.027587
12552.38,0.027565
12582.85,0.027591
12613.47,0.027609
12644.23,0.027506
12675.15,0.027473
12706.21,0.027528
12737.43,0.02758
12768.81,0.027604
12800.33,0.027649
12832.02,0.027525
12863.86,0.027395
12895.86,0.027305
12928.02,0.027222
12960.34,0.027072
12992.82,0.027016
13025.46,0.026844
13058.27,0.026545
13091.25,0.026431
13124.39,0.026443
13157.7,0.026283
13191.18,0.026036
13224.83,0.025806
13258.66,0.025616
13292.65,0.025415
13326.83,0.025157
13361.17,0.024814
13395.7,0.024427
13430.4,0.023957
13465.29,0.023495
13500.35,0.023015
13535.6,0.02277
13571.03,0.022899
13606.65,0.023224
13642.46,0.023407
13678.46,0.023455
13714.64,0.023465
13751.02,0.023518
13787.59,0.023394
13824.36,0.023186
13861.32,0.023097
13898.49,0.023072
13935.85,0.023006
13973.41,0.022853
14011.17,0.022619
14049.15,0.022315
14087.32,0.021933
14125.71,0.021598
14164.3,0.021428
14203.11,0.021177
14242.13,0.020782
14281.36,0.020518
14320.81,0.020266
14360.49,0.020079
14400.38,0.019944
14440.49,0.019897
14480.82,0.019882
14521.39,0.019772
14562.18,0.019697
14603.2,0.01973
14644.45,0.019662
14685.93,0.019532
14727.66,0.019574
14769.62,0.019623
14811.81,0.019522
14854.25,0.019535
14896.94,0.01958
14939.87,0.019665
14983.05,0.019724
15026.48,0.019744
15070.16,0.019786
15114.1,0.019735
15158.29,0.01972
15202.74,0.019686
15247.46,0.019596
15292.43,0.019566
15337.68,0.019535
15383.19,0.019547
15428.97,0.019505
15475.03,0.019445
15521.36,0.019299
15567.97,0.019223
15614.87,0.019173
15662.04,0.019148
15709.5,0.018907
15757.25,0.018747
15805.29,0.018593
15853.62,0.018498
15902.26,0.018587
15951.19,0.018629
16000.42,0.018582
16049.95,0.018554
16099.8,0.018599
16149.95,0.018574
16200.42,0.018506
16251.21,0.018541
16302.31,0.018659
16353.74,0.018734
16405.49,0.018717
16457.57,0.01876
16509.98,0.018741
16562.73,0.018769
16615.82,0.018914
16669.24,0.018989
16723.02,0.01897
16777.14,0.019157
16831.61,0.019223
16886.43,0.019253
16941.62,0.019483
16997.16,0.019661
17053.08,0.019812
17109.36,0.020027
17166.01,0.020387
17223.04,0.020719
17280.45,0.020864
17338.24,0.021224
17396.43,0.021722
17455.0,0.022136
17513.97,0.022295
17573.34,0.022586
17633.11,0.02323
17693.29,0.023938
17753.89,0.024393
17814.9,0.024868
17876.33,0.025553
17938.18,0.026214
18000.47,0.026648
18063.19,0.027325
18126.35,0.028249
18189.95,0.028922
18254.0,0.029515
18318.5,0.030186
18383.46,0.030859
18448.88,0.031477
18514.77,0.032216
18581.13,0.033246
18647.97,0.033902
18715.29,0.034331
18783.1,0.034641
18851.4,0.03485
18920.2,0.035135
18989.51,0.035552
19059.32,0.03584
19129.65,0.036159
19200.5,0.036197
19271.88,0.036483
19343.79,0.036855
19416.24,0.037186
19489.23,0.037568
19562.77,0.037948
19636.88,0.038384
19711.54,0.038859
19786.78,0.039416
19862.59,0.040177
19938.98,0.040619
20015.96,0.041018
20093.55,0.041573
20171.73,0.042048
20250.53,0.042161
20329.94,0.04244
20409.98,0.042959
20490.65,0.043514
20571.96,0.043921
20653.92,0.044476
20736.54,0.045049
20819.82,0.045292
20903.77,0.045403
20988.4,0.045737
21073.72,0.045882
21159.73,0.045937
21246.46,0.046044
21333.89,0.046544
21422.04,0.047058
21510.93,0.047271
21600.56,0.047143
21690.94,0.046991
21782.08,0.047077
21873.99,0.04742
21966.67,0.04768
22060.15,0.048172
22154.42,0.047945
22249.51,0.047253
22345.41,0.047475
22442.14,0.048115
22539.72,0.048026
22638.14,0.047719
22737.43,0.047025
22837.6,0.046381
22938.65,0.046519
23040.6,0.046835
23143.46,0.046425
23247.24,0.046346
23351.96,0.046304
23457.63,0.046393
23564.25,0.046098
23671.85,0.045447
23780.44,0.045912
23890.02,0.04614
24000.63,0.044954
24112.26,0.04344
24224.93,0.043767
24338.66,0.045143
24453.47,0.045077
24569.36,0.0447
24686.36,0.044028
24804.47,0.04353
24923.73,0.043503
