Database of Origin,University of Winnipeg Spectrophotometer Facility
Sample Description,8. Sulfates - RELAB sulfate spectra from their data base |  RELAB Archived sulfate spectra (as of Sept. 2004  more coming out later)
Date Added,2016-07-15 22:05:22.650917

Data ID,RLA_SUL_58          
Sample ID,f1cc16b
Mineral Name,gypsum
Grain Size,25-75
Viewing Geometry,30 / 0 | 30
Resolution,5 / 0.8-129
Material Class,Sulfate

Wavelength
305.0,0.748354
310.0,0.75124
315.0,0.755751
320.0,0.760599
325.0,0.764244
330.0,0.772009
335.0,0.774425
340.0,0.781048
345.0,0.786643
350.0,0.789662
355.0,0.796104
360.0,0.798335
365.0,0.802912
370.0,0.804392
375.0,0.808386
380.0,0.810569
385.0,0.81343
390.0,0.813914
395.0,0.815443
400.0,0.81881
405.0,0.82136
410.0,0.825422
415.0,0.82457
420.0,0.828965
425.0,0.830827
430.0,0.833807
435.0,0.835758
440.0,0.83754
445.0,0.839532
450.0,0.842072
455.0,0.8445
460.0,0.846134
465.0,0.848679
470.0,0.850156
475.0,0.851035
480.0,0.853244
485.0,0.855454
490.0,0.858518
495.0,0.86049
500.0,0.861165
505.0,0.862512
510.0,0.863795
515.0,0.864981
520.0,0.866046
525.0,0.867477
530.0,0.868761
535.0,0.870086
540.0,0.871083
545.0,0.871974
550.0,0.873775
555.0,0.87544
560.0,0.876593
565.0,0.878607
570.0,0.880279
575.0,0.882425
580.0,0.883267
585.0,0.884489
590.0,0.886213
595.0,0.886765
600.0,0.888558
605.0,0.890053
610.0,0.88977
615.0,0.890373
620.0,0.890524
625.0,0.891276
630.0,0.890331
635.0,0.891583
640.0,0.890983
645.0,0.8927
650.0,0.89294
655.0,0.893253
660.0,0.894098
665.0,0.894963
670.0,0.89518
675.0,0.895564
680.0,0.895777
685.0,0.896684
690.0,0.896673
695.0,0.898057
700.0,0.898108
705.0,0.898014
710.0,0.898181
715.0,0.898611
720.0,0.897209
725.0,0.897662
730.0,0.898515
735.0,0.899256
740.0,0.899463
745.0,0.898733
750.0,0.897978
755.0,0.894528
760.0,0.892217
765.0,0.891918
770.0,0.892219
775.0,0.893243
780.0,0.895171
785.0,0.894613
790.0,0.893755
795.0,0.893642
800.0,0.893467
805.0,0.894363
810.0,0.896443
815.0,0.896838
820.0,0.896573
825.0,0.897277
830.0,0.89755
835.0,0.897845
840.0,0.897483
845.0,0.896116
850.0,0.896117
855.0,0.894905
860.0,0.894127
865.0,0.893723
870.0,0.894167
875.0,0.894039
880.0,0.894701
885.0,0.893724
890.0,0.896037
895.0,0.893509
900.0,0.893383
905.0,0.89119
910.0,0.893054
915.0,0.893825
920.0,0.894992
925.0,0.895279
930.0,0.895449
935.0,0.895286
940.0,0.895019
945.0,0.893614
950.0,0.890965
955.0,0.88887
960.0,0.886019
965.0,0.881452
970.0,0.878563
975.0,0.87478
980.0,0.867777
985.0,0.863517
990.0,0.861557
995.0,0.858103
1000.0,0.857817
1005.0,0.862854
1010.0,0.865172
1015.0,0.8701
1020.0,0.873973
1025.0,0.877765
1030.0,0.882484
1035.0,0.88596
1040.0,0.887577
1045.0,0.889172
1050.0,0.891655
1055.0,0.892814
1060.0,0.892501
1065.0,0.89357
1070.0,0.893825
1075.0,0.893434
1080.0,0.89262
1085.0,0.892663
1090.0,0.892124
1095.0,0.891217
1100.0,0.890247
1105.0,0.887686
1110.0,0.886547
1115.0,0.883921
1120.0,0.882592
1125.0,0.882104
1130.0,0.880563
1135.0,0.877433
1140.0,0.874905
1145.0,0.869351
1150.0,0.862059
1155.0,0.852464
1160.0,0.839762
1165.0,0.824334
1170.0,0.80957
1175.0,0.798944
1180.0,0.792186
1185.0,0.790335
1190.0,0.790184
1195.0,0.788902
1200.0,0.787386
1205.0,0.784282
1210.0,0.784161
1215.0,0.794412
1220.0,0.800907
1225.0,0.801952
1230.0,0.801537
1235.0,0.804464
1240.0,0.810154
1245.0,0.818131
1250.0,0.823743
1255.0,0.825922
1260.0,0.827571
1265.0,0.829737
1270.0,0.831039
1275.0,0.83199
1280.0,0.833605
1285.0,0.833387
1290.0,0.833438
1295.0,0.832823
1300.0,0.831341
1305.0,0.829081
1310.0,0.826912
1315.0,0.822485
1320.0,0.816339
1325.0,0.80969
1330.0,0.803768
1335.0,0.795585
1340.0,0.786568
1345.0,0.775308
1350.0,0.763975
1355.0,0.752839
1360.0,0.74292
1365.0,0.737693
1370.0,0.729979
1375.0,0.721402
1380.0,0.715934
1385.0,0.715725
1390.0,0.710365
1395.0,0.703889
1400.0,0.690623
1405.0,0.671889
1410.0,0.650272
1415.0,0.621634
1420.0,0.589115
1425.0,0.559317
1430.0,0.539971
1435.0,0.508825
1440.0,0.457972
1445.0,0.415078
1450.0,0.425688
1455.0,0.464185
1460.0,0.48651
1465.0,0.497994
1470.0,0.504741
1475.0,0.509772
1480.0,0.512478
1485.0,0.501439
1490.0,0.490646
1495.0,0.497864
1500.0,0.52135
1505.0,0.54482
1510.0,0.558415
1515.0,0.564254
1520.0,0.565944
1525.0,0.561973
1530.0,0.556147
1535.0,0.549094
1540.0,0.549262
1545.0,0.562901
1550.0,0.582149
1555.0,0.602443
1560.0,0.619827
1565.0,0.634431
1570.0,0.64738
1575.0,0.657344
1580.0,0.668011
1585.0,0.675631
1590.0,0.68351
1595.0,0.692718
1600.0,0.702424
1605.0,0.711982
1610.0,0.721475
1615.0,0.730504
1620.0,0.737138
1625.0,0.74316
1630.0,0.748955
1635.0,0.756177
1640.0,0.76267
1645.0,0.76847
1650.0,0.774437
1655.0,0.776479
1660.0,0.780546
1665.0,0.782862
1670.0,0.784171
1675.0,0.783303
1680.0,0.780856
1685.0,0.776266
1690.0,0.770038
1695.0,0.761254
1700.0,0.750611
1705.0,0.730996
1710.0,0.711941
1715.0,0.688801
1720.0,0.664242
1725.0,0.640752
1730.0,0.616027
1735.0,0.592231
1740.0,0.572141
1745.0,0.557248
1750.0,0.552069
1755.0,0.554471
1760.0,0.565211
1765.0,0.57396
1770.0,0.579678
1775.0,0.582496
1780.0,0.587804
1785.0,0.598121
1790.0,0.611141
1795.0,0.625541
1800.0,0.637407
1805.0,0.648996
1810.0,0.655171
1815.0,0.660628
1820.0,0.66562
1825.0,0.669621
1830.0,0.669591
1835.0,0.66855
1840.0,0.669114
1845.0,0.663256
1850.0,0.655777
1855.0,0.643627
1860.0,0.62678
1865.0,0.602629
1870.0,0.574887
1875.0,0.543377
1880.0,0.50622
1885.0,0.467644
1890.0,0.431529
1895.0,0.397113
1900.0,0.362804
1905.0,0.328388
1910.0,0.295381
1915.0,0.263723
1920.0,0.231092
1925.0,0.197249
1930.0,0.165104
1935.0,0.140103
1940.0,0.125579
1945.0,0.121635
1950.0,0.123547
1955.0,0.136341
1960.0,0.16193
1965.0,0.179448
1970.0,0.184364
1975.0,0.189233
1980.0,0.199167
1985.0,0.210903
1990.0,0.227656
1995.0,0.260545
2000.0,0.308805
2005.0,0.355127
2010.0,0.39166
2015.0,0.418504
2020.0,0.44023
2025.0,0.457215
2030.0,0.470148
2035.0,0.480558
2040.0,0.489606
2045.0,0.497075
2050.0,0.502042
2055.0,0.504077
2060.0,0.50239
2065.0,0.501094
2070.0,0.500128
2075.0,0.501466
2080.0,0.500357
2085.0,0.498291
2090.0,0.494551
2095.0,0.488847
2100.0,0.482274
2104.81,0.475326
2106.52,0.467409
2107.37,0.4596
2108.23,0.451846
2109.09,0.444672
2109.95,0.437788
2110.8,0.432152
2111.66,0.426863
2112.52,0.421517
2113.39,0.414723
2114.25,0.407827
2115.11,0.400403
2115.97,0.393023
2116.84,0.38607
2117.7,0.380264
2118.57,0.377144
2119.43,0.375951
2120.3,0.374764
2121.17,0.371218
2122.04,0.365392
2122.91,0.357878
2123.78,0.34932
2124.65,0.34169
2125.52,0.34026
2126.39,0.349515
2127.26,0.36372
2128.13,0.374344
2129.01,0.380403
2129.88,0.383898
2130.76,0.384499
2131.63,0.382932
2132.51,0.377604
2133.39,0.371242
2134.27,0.369354
2135.15,0.37636
2136.03,0.388278
2136.91,0.397202
2137.79,0.404142
2138.67,0.408418
2139.55,0.411346
2140.44,0.413085
2141.32,0.414046
2142.2,0.41444
2143.09,0.413995
2143.98,0.411924
2144.86,0.408742
2145.75,0.407384
2146.64,0.406426
2147.53,0.405786
2148.42,0.404492
2149.31,0.404152
2150.2,0.402399
2151.09,0.401447
2151.99,0.400772
2152.88,0.399506
2153.77,0.39797
2154.67,0.396758
2155.57,0.395646
2156.46,0.395023
2157.36,0.393923
2158.26,0.39197
2159.16,0.389986
2160.06,0.389446
2160.96,0.387833
2161.86,0.385404
2162.76,0.383442
2163.66,0.381781
2164.57,0.380263
2165.47,0.379012
2166.37,0.377085
2167.28,0.375277
2168.19,0.373507
2169.09,0.371504
2170.0,0.369459
2170.91,0.367586
2171.82,0.365173
2172.73,0.362941
2173.64,0.361414
2174.55,0.359538
2175.47,0.35663
2176.38,0.354434
2177.29,0.352332
2178.21,0.349951
2179.12,0.347145
2180.04,0.344817
2180.96,0.342176
2181.88,0.339485
2182.79,0.336792
2183.71,0.333775
2184.63,0.330661
2185.55,0.327632
2186.48,0.324528
2187.4,0.3216
2188.32,0.318507
2189.25,0.315881
2190.17,0.312951
2191.1,0.309796
2192.02,0.306777
2192.95,0.303198
2193.88,0.300059
2194.81,0.296397
2195.74,0.29252
2196.67,0.289269
2197.6,0.285384
2198.53,0.282456
2199.46,0.279679
2200.4,0.276212
2201.33,0.272741
2202.27,0.269311
2203.2,0.265937
2204.14,0.262608
2205.08,0.259839
2206.01,0.256715
2206.95,0.253204
2207.89,0.25013
2208.83,0.246371
2209.78,0.243724
2210.72,0.241223
2211.66,0.23826
2212.61,0.235216
2213.55,0.233353
2214.5,0.23151
2215.44,0.229121
2216.39,0.226849
2217.34,0.225501
2218.29,0.223468
2219.24,0.22152
2220.19,0.219694
2221.14,0.217999
2222.09,0.216882
2223.04,0.215194
2224.0,0.213509
2224.95,0.213327
2225.91,0.212369
2226.86,0.21132
2227.82,0.210416
2228.78,0.209493
2229.74,0.208015
2230.7,0.206996
2231.66,0.206119
2232.62,0.205252
2233.58,0.203983
2234.54,0.203318
2235.5,0.203073
2236.47,0.20318
2237.43,0.20268
2238.4,0.20222
2239.37,0.202194
2240.33,0.202025
2241.3,0.201584
2242.27,0.201556
2243.24,0.201182
2244.21,0.201002
2245.19,0.201324
2246.16,0.202392
2247.13,0.202333
2248.11,0.201088
2249.08,0.200141
2250.06,0.200293
2251.04,0.200079
2252.01,0.199288
2252.99,0.198808
2253.97,0.198691
2254.95,0.197833
2255.93,0.19688
2256.92,0.195978
2257.9,0.195606
2258.88,0.194833
2259.87,0.194137
2260.85,0.193541
2261.84,0.19304
2262.83,0.192513
2263.81,0.191699
2264.8,0.19017
2265.79,0.189195
2266.78,0.188155
2267.78,0.187084
2268.77,0.186509
2269.76,0.186558
2270.76,0.185877
2271.75,0.185171
2272.75,0.184863
2273.74,0.184925
2274.74,0.184824
2275.74,0.184203
2276.74,0.183322
2277.74,0.183398
2278.74,0.183662
2279.74,0.183466
2280.75,0.183633
2281.75,0.183416
2282.75,0.183077
2283.76,0.18265
2284.77,0.1823
2285.77,0.182361
2286.78,0.182843
2287.79,0.183531
2288.8,0.183817
2289.81,0.183834
2290.82,0.183057
2291.84,0.18268
2292.85,0.182947
2293.87,0.184026
2294.88,0.185228
2295.9,0.185529
2296.91,0.184786
2297.93,0.184654
2298.95,0.184888
2299.97,0.18507
2300.99,0.185161
2302.01,0.185594
2303.04,0.185814
2304.06,0.18598
2305.08,0.18587
2306.11,0.186201
2307.14,0.186415
2308.16,0.186266
2309.19,0.186442
2310.22,0.187042
2311.25,0.186894
2312.28,0.186522
2313.31,0.186244
2314.35,0.186222
2315.38,0.186127
2316.41,0.18645
2317.45,0.186452
2318.49,0.185995
2319.52,0.184907
2320.56,0.184352
2321.6,0.184213
2322.64,0.184115
2323.68,0.184366
2324.72,0.184508
2325.77,0.183753
2326.81,0.182948
2327.86,0.18223
2328.9,0.181577
2329.95,0.18119
2331.0,0.181026
2332.04,0.180717
2333.09,0.180746
2334.14,0.17985
2335.2,0.178635
2336.25,0.177931
2337.3,0.177438
2338.36,0.177176
2339.41,0.177235
2340.47,0.176791
2341.52,0.176473
2342.58,0.175878
2343.64,0.174824
2344.7,0.174163
2345.76,0.174158
2346.82,0.173771
2347.89,0.172441
2348.95,0.171924
2350.02,0.171831
2351.08,0.171165
2352.15,0.170942
2353.22,0.171054
2354.28,0.170536
2355.35,0.170262
2356.43,0.170228
2357.5,0.169283
2358.57,0.169045
2359.64,0.168821
2360.72,0.167842
2361.79,0.166886
2362.87,0.166852
2363.95,0.16688
2365.03,0.167014
2366.1,0.166246
2367.19,0.165917
2368.27,0.165615
2369.35,0.164681
2370.43,0.163852
2371.52,0.163292
2372.6,0.162876
2373.69,0.162568
2374.78,0.162081
2375.86,0.162041
2376.95,0.161842
2378.04,0.161122
2379.14,0.160306
2380.23,0.15944
2381.32,0.158702
2382.42,0.158059
2383.51,0.157278
2384.61,0.157181
2385.7,0.157417
2386.8,0.156526
2387.9,0.155427
2389.0,0.155424
2390.1,0.154207
2391.21,0.153142
2392.31,0.152813
2393.41,0.152796
2394.52,0.152454
2395.63,0.151367
2396.73,0.150875
2397.84,0.149968
2398.95,0.1489
2400.06,0.148473
2401.17,0.147276
2402.29,0.145993
2403.4,0.145029
2404.52,0.144638
2405.63,0.14375
2406.75,0.142481
2407.87,0.141379
2408.98,0.14055
2410.1,0.139748
2411.23,0.138243
2412.35,0.136675
2413.47,0.135344
2414.59,0.134056
2415.72,0.132807
2416.85,0.131078
2417.97,0.129703
2419.1,0.128055
2420.23,0.1265
2421.36,0.125101
2422.49,0.123595
2423.63,0.121527
2424.76,0.119803
2425.89,0.118837
2427.03,0.118165
2428.17,0.116309
2429.3,0.11344
2430.44,0.111867
2431.58,0.110382
2432.72,0.108605
2433.87,0.107008
2435.01,0.105433
2436.15,0.10405
2437.3,0.1022
2438.45,0.100715
2439.59,0.098733
2440.74,0.096985
2441.89,0.095206
2443.04,0.093734
2444.19,0.091948
2445.35,0.090078
2446.5,0.088277
2447.66,0.086506
2448.81,0.084593
2449.97,0.082716
2451.13,0.080922
2452.29,0.079243
2453.45,0.077073
2454.61,0.074976
2455.77,0.072972
2456.94,0.070832
2458.1,0.068793
2459.27,0.066965
2460.43,0.06461
2461.6,0.062733
2462.77,0.060876
2463.94,0.059113
2465.11,0.057194
2466.29,0.05515
2467.46,0.053534
2468.64,0.052444
2469.81,0.051168
2470.99,0.049496
2472.17,0.047701
2473.35,0.046203
2474.53,0.044894
2475.71,0.043262
2476.89,0.041881
2478.08,0.040843
2479.26,0.039605
2480.45,0.038274
2481.63,0.036781
2482.82,0.035567
2484.01,0.034409
2485.2,0.033359
2486.4,0.032397
2487.59,0.031561
2488.78,0.030676
2489.98,0.029772
2491.17,0.028846
2492.37,0.02785
2493.57,0.026446
2494.77,0.025244
2495.97,0.02437
2497.17,0.023981
2498.38,0.023177
2499.58,0.021943
2500.79,0.021562
2502.0,0.02152
2503.2,0.020776
2504.41,0.019958
2505.62,0.019332
2506.83,0.018988
2508.05,0.018317
2509.26,0.017656
2510.48,0.017349
2511.69,0.017087
2512.91,0.016742
2514.13,0.016591
2515.35,0.016626
2516.57,0.01637
2517.79,0.016353
2519.02,0.016287
2520.24,0.015714
2521.47,0.015697
2522.69,0.015553
2523.92,0.015225
2525.15,0.015077
2526.38,0.015409
2527.61,0.015202
2528.85,0.014809
2530.08,0.014716
2531.32,0.014973
2532.55,0.015047
2533.79,0.014936
2535.03,0.015029
2536.27,0.015058
2537.51,0.015005
2538.75,0.014895
2540.0,0.014706
2541.24,0.014986
2542.49,0.015241
2543.74,0.015249
2544.99,0.015253
2546.24,0.01524
2547.49,0.014954
2548.74,0.01482
2549.99,0.014922
2551.25,0.014679
2552.5,0.014486
2553.76,0.014456
2555.02,0.014358
2556.28,0.014259
2557.54,0.01397
2558.8,0.013654
2560.07,0.013696
2561.33,0.01402
2562.6,0.014184
2563.86,0.014081
2565.13,0.013929
2566.4,0.013343
2567.67,0.012907
2568.95,0.012781
2570.22,0.012706
2571.5,0.012487
2572.77,0.012522
2574.05,0.012675
2575.33,0.012621
2576.61,0.012329
2577.89,0.012201
2579.17,0.012474
2580.46,0.012354
2581.74,0.012188
2583.03,0.012081
2584.31,0.011995
2585.6,0.011847
2586.89,0.011719
2588.19,0.011912
2589.48,0.011979
2590.77,0.011946
2592.07,0.011791
2593.36,0.011756
2594.66,0.012139
2595.96,0.012174
2597.26,0.012469
2598.56,0.012718
2599.87,0.012449
2601.17,0.012193
2602.48,0.012479
2603.78,0.012881
2605.09,0.013001
2606.4,0.012886
2607.71,0.01296
2609.03,0.012968
2610.34,0.013146
2611.66,0.013314
2612.97,0.013459
2614.29,0.013881
2615.61,0.014299
2616.93,0.014328
2618.25,0.014346
2619.57,0.014705
2620.9,0.01534
2622.22,0.015856
2623.55,0.016263
2624.88,0.01695
2626.21,0.01759
2627.54,0.018191
2628.87,0.018794
2630.21,0.019395
2631.54,0.0201
2632.88,0.02088
2634.21,0.021763
2635.55,0.022561
2636.89,0.023356
2638.24,0.02403
2639.58,0.024397
2640.92,0.025098
2642.27,0.025536
2643.62,0.025552
2644.97,0.025637
2646.32,0.025946
2647.67,0.026306
2649.02,0.026317
2650.38,0.026183
2651.73,0.026298
2653.09,0.026401
2654.45,0.026342
2655.81,0.026165
2657.17,0.02555
2658.53,0.02492
2659.89,0.024686
2661.26,0.024792
2662.63,0.024907
2664.0,0.024763
2665.36,0.024383
2666.74,0.023976
2668.11,0.023776
2669.48,0.023902
2670.86,0.023561
2672.23,0.023056
2673.61,0.023072
2674.99,0.022975
2676.37,0.023021
2677.76,0.023123
2679.14,0.02286
2680.52,0.022579
2681.91,0.022568
2683.3,0.022445
2684.69,0.022122
2686.08,0.022002
2687.47,0.021972
2688.87,0.022041
2690.26,0.022002
2691.66,0.021854
2693.06,0.021905
2694.46,0.021894
2695.86,0.021774
2697.26,0.021769
2698.66,0.021884
2700.07,0.021922
2701.48,0.022183
2702.89,0.022325
2704.3,0.022077
2705.71,0.022143
2707.12,0.02243
2708.53,0.022451
2709.95,0.022432
2711.37,0.022413
2712.79,0.022467
2714.21,0.022635
2715.63,0.022667
2717.05,0.022572
2718.48,0.022572
2719.9,0.022698
2721.33,0.022882
2722.76,0.022927
2724.19,0.022805
2725.62,0.022876
2727.06,0.023094
2728.49,0.02301
2729.93,0.022941
2731.37,0.022887
2732.81,0.022789
2734.25,0.022994
2735.69,0.023086
2737.14,0.023115
2738.58,0.023251
2740.03,0.023454
2741.48,0.023476
2742.93,0.02374
2744.38,0.023901
2745.83,0.023939
2747.29,0.024009
2748.75,0.024089
2750.2,0.024175
2751.66,0.024169
2753.13,0.024161
2754.59,0.024187
2756.05,0.024429
2757.52,0.024522
2758.99,0.024444
2760.46,0.024433
2761.93,0.024758
2763.4,0.024948
2764.87,0.025111
2766.35,0.025427
2767.82,0.025683
2769.3,0.025688
2770.78,0.025827
2772.26,0.026221
2773.75,0.026427
2775.23,0.026544
2776.72,0.026651
2778.21,0.026821
2779.7,0.02689
2781.19,0.027415
2782.68,0.027845
2784.18,0.02808
2785.67,0.028393
2787.17,0.028682
2788.67,0.028983
2790.17,0.029118
2791.67,0.029237
2793.18,0.029477
2794.68,0.029812
2796.19,0.030033
2797.7,0.030266
2799.21,0.030433
2800.72,0.030398
2802.24,0.03074
2803.75,0.03115
2805.27,0.031337
2806.79,0.031725
2808.31,0.031899
2809.83,0.032118
2811.35,0.032645
2812.88,0.033129
2814.41,0.033657
2815.93,0.034028
2817.46,0.0342
2819.0,0.034545
2820.53,0.034941
2822.07,0.035502
2823.6,0.036097
2825.14,0.036632
2826.68,0.037512
2828.22,0.038095
2829.77,0.038429
2831.31,0.038882
2832.86,0.039462
2834.41,0.040206
2835.96,0.040897
2837.51,0.041285
2839.07,0.04179
2840.62,0.042599
2842.18,0.04351
2843.74,0.044193
2845.3,0.044824
2846.86,0.045549
2848.43,0.046234
2849.99,0.046815
2851.56,0.047455
2853.13,0.04818
2854.7,0.048987
2856.27,0.049825
2857.85,0.050563
2859.42,0.051292
2861.0,0.051933
2862.58,0.052594
2864.16,0.053263
2865.75,0.053929
2867.33,0.054681
2868.92,0.055487
2870.51,0.056319
2872.1,0.057054
2873.69,0.057748
2875.28,0.058548
2876.88,0.059402
2878.48,0.060314
2880.07,0.061033
2881.68,0.061802
2883.28,0.062594
2884.88,0.063319
2886.49,0.064016
2888.1,0.065101
2889.71,0.066347
2891.32,0.067174
2892.93,0.067865
2894.55,0.068768
2896.16,0.069726
2897.78,0.070606
2899.4,0.07153
2901.03,0.072451
2902.65,0.073493
2904.28,0.074633
2905.91,0.075643
2907.54,0.076616
2909.17,0.077574
2910.8,0.078644
2912.44,0.080035
2914.07,0.081013
2915.71,0.081957
2917.35,0.082954
2918.99,0.083892
2920.64,0.084997
2922.29,0.086302
2923.93,0.087637
2925.58,0.08901
2927.24,0.090126
2928.89,0.091199
2930.55,0.092748
2932.2,0.094527
2933.86,0.095982
2935.52,0.097215
2937.19,0.098581
2938.85,0.100047
2940.52,0.101556
2942.19,0.103041
2943.86,0.104493
2945.53,0.106094
2947.21,0.107776
2948.88,0.109385
2950.56,0.11092
2952.24,0.112354
2953.92,0.11381
2955.61,0.115332
2957.29,0.116992
2958.98,0.118583
2960.67,0.12002
2962.36,0.121612
2964.06,0.123266
2965.75,0.124807
2967.45,0.126072
2969.15,0.127412
2970.85,0.128976
2972.55,0.130302
2974.26,0.131699
2975.97,0.133277
2977.68,0.134741
2979.39,0.136136
2981.1,0.137526
2982.82,0.13896
2984.53,0.140561
2986.25,0.142231
2987.97,0.143624
2989.7,0.145045
2991.42,0.146506
2993.15,0.148151
2994.88,0.149835
2996.61,0.15153
2998.34,0.153096
3000.08,0.154691
3001.82,0.15636
3003.55,0.158056
3005.3,0.159656
3007.04,0.16143
3008.78,0.163078
3010.53,0.164694
3012.28,0.166268
3014.03,0.167699
3015.79,0.169332
3017.54,0.171025
3019.3,0.172765
3021.06,0.174287
3022.82,0.175742
3024.58,0.177252
3026.35,0.178929
3028.12,0.180475
3029.89,0.18188
3031.66,0.183343
3033.43,0.18488
3035.21,0.186392
3036.99,0.18786
3038.77,0.189335
3040.55,0.190543
3042.33,0.191866
3044.12,0.193225
3045.91,0.194677
3047.7,0.196138
3049.49,0.197605
3051.29,0.199121
3053.08,0.200644
3054.88,0.201958
3056.68,0.203459
3058.49,0.205065
3060.29,0.206399
3062.1,0.207694
3063.91,0.209238
3065.72,0.210669
3067.54,0.211888
3069.35,0.213311
3071.17,0.214836
3072.99,0.216203
3074.81,0.217578
3076.64,0.218906
3078.47,0.220053
3080.29,0.221211
3082.13,0.222439
3083.96,0.223698
3085.79,0.225204
3087.63,0.226576
3089.47,0.228115
3091.31,0.229531
3093.16,0.230779
3095.01,0.231997
3096.85,0.233129
3098.71,0.23425
3100.56,0.235511
3102.41,0.236842
3104.27,0.238095
3106.13,0.239325
3107.99,0.240559
3109.86,0.241651
3111.73,0.242916
3113.59,0.244058
3115.47,0.244944
3117.34,0.246117
3119.21,0.247352
3121.09,0.24837
3122.97,0.249365
3124.86,0.250362
3126.74,0.251304
3128.63,0.252417
3130.52,0.253787
3132.41,0.254788
3134.3,0.255872
3136.2,0.257075
3138.1,0.258331
3140.0,0.259347
3141.9,0.260311
3143.81,0.261448
3145.71,0.262595
3147.62,0.26365
3149.54,0.264784
3151.45,0.266079
3153.37,0.26727
3155.29,0.268346
3157.21,0.269589
3159.13,0.270954
3161.06,0.272295
3162.99,0.273574
3164.92,0.274885
3166.85,0.276364
3168.79,0.277918
3170.72,0.27939
3172.67,0.280813
3174.61,0.282256
3176.55,0.283831
3178.5,0.285204
3180.45,0.286788
3182.4,0.288448
3184.36,0.29004
3186.32,0.29145
3188.27,0.29306
3190.24,0.294582
3192.2,0.295875
3194.17,0.297199
3196.14,0.298684
3198.11,0.299989
3200.08,0.301256
3202.06,0.302612
3204.04,0.303941
3206.02,0.305138
3208.0,0.306443
3209.99,0.307798
3211.98,0.308988
3213.97,0.310119
3215.96,0.311418
3217.96,0.312677
3219.96,0.314048
3221.96,0.315292
3223.96,0.316448
3225.97,0.317477
3227.98,0.318542
3229.99,0.319533
3232.0,0.320681
3234.02,0.321825
3236.04,0.323013
3238.06,0.32407
3240.08,0.3251
3242.11,0.325905
3244.14,0.326706
3246.17,0.327485
3248.2,0.328483
3250.24,0.329433
3252.28,0.330492
3254.32,0.331139
3256.37,0.331773
3258.41,0.332479
3260.46,0.333047
3262.51,0.333457
3264.57,0.334101
3266.63,0.334703
3268.69,0.335155
3270.75,0.335452
3272.81,0.335845
3274.88,0.33629
3276.95,0.336819
3279.02,0.337326
3281.1,0.337825
3283.18,0.338356
3285.26,0.33885
3287.34,0.339372
3289.43,0.340084
3291.51,0.340643
3293.61,0.341272
3295.7,0.341765
3297.8,0.342201
3299.9,0.342575
3302.0,0.342882
3304.1,0.343078
3306.21,0.343442
3308.32,0.343886
3310.43,0.344309
3312.55,0.344598
3314.66,0.344999
3316.79,0.345186
3318.91,0.345437
3321.03,0.345775
3323.16,0.346062
3325.29,0.346302
3327.43,0.346618
3329.57,0.346878
3331.71,0.347254
3333.85,0.347501
3335.99,0.347838
3338.14,0.347964
3340.29,0.348143
3342.45,0.34818
3344.6,0.348269
3346.76,0.348154
3348.92,0.348062
3351.09,0.347929
3353.26,0.347805
3355.43,0.347675
3357.6,0.347504
3359.78,0.347252
3361.96,0.346902
3364.14,0.346356
3366.32,0.345796
3368.51,0.344969
3370.7,0.343777
3372.89,0.342428
3375.09,0.340914
3377.29,0.33907
3379.49,0.337473
3381.69,0.336271
3383.9,0.336003
3386.11,0.336445
3388.32,0.337601
3390.54,0.339196
3392.76,0.34059
3394.98,0.341489
3397.21,0.342288
3399.43,0.342597
3401.66,0.342826
3403.9,0.342834
3406.13,0.342652
3408.37,0.342321
3410.61,0.342035
3412.86,0.341625
3415.11,0.341132
3417.36,0.340471
3419.61,0.339766
3421.87,0.33889
3424.13,0.338042
3426.39,0.337108
3428.66,0.336175
3430.93,0.335148
3433.2,0.334013
3435.48,0.332792
3437.76,0.331532
3440.04,0.330107
3442.32,0.328539
3444.61,0.326744
3446.9,0.32487
3449.19,0.32285
3451.49,0.320886
3453.79,0.31874
3456.09,0.316402
3458.4,0.314032
3460.7,0.312285
3463.02,0.310826
3465.33,0.309854
3467.65,0.309339
3469.97,0.309223
3472.29,0.309261
3474.62,0.309419
3476.95,0.309295
3479.29,0.309042
3481.62,0.308608
3483.96,0.308217
3486.3,0.307462
3488.65,0.306564
3491.0,0.305528
3493.35,0.30452
3495.71,0.303319
3498.07,0.302112
3500.43,0.300798
3502.79,0.299492
3505.16,0.29813
3507.53,0.29669
3509.91,0.295158
3512.29,0.293688
3514.67,0.292104
3517.05,0.290593
3519.44,0.288761
3521.83,0.286901
3524.23,0.285151
3526.62,0.283409
3529.02,0.281704
3531.43,0.279962
3533.83,0.277945
3536.24,0.276059
3538.66,0.274128
3541.08,0.272212
3543.5,0.270227
3545.92,0.268235
3548.35,0.266183
3550.78,0.264223
3553.21,0.262263
3555.65,0.260219
3558.09,0.257988
3560.53,0.255947
3562.98,0.253886
3565.43,0.25178
3567.88,0.249586
3570.34,0.247414
3572.8,0.245324
3575.27,0.24327
3577.73,0.241124
3580.2,0.239007
3582.68,0.236864
3585.16,0.234858
3587.64,0.23276
3590.12,0.230603
3592.61,0.228356
3595.1,0.226274
3597.6,0.224088
3600.09,0.221846
3602.6,0.219617
3605.1,0.217444
3607.61,0.215299
3610.12,0.212987
3612.64,0.210547
3615.16,0.208358
3617.68,0.20611
3620.21,0.203766
3622.74,0.201294
3625.27,0.198907
3627.81,0.196529
3630.35,0.194156
3632.89,0.191699
3635.44,0.189255
3637.99,0.186598
3640.54,0.184125
3643.1,0.18147
3645.66,0.178841
3648.23,0.176206
3650.8,0.173471
3653.37,0.170781
3655.95,0.168071
3658.53,0.165299
3661.11,0.162653
3663.7,0.159894
3666.29,0.157088
3668.89,0.154262
3671.48,0.15145
3674.09,0.148569
3676.69,0.145783
3679.3,0.142944
3681.91,0.140211
3684.53,0.137452
3687.15,0.134628
3689.78,0.131729
3692.4,0.128767
3695.04,0.125714
3697.67,0.122837
3700.31,0.1199
3702.95,0.116962
3705.6,0.113901
3708.25,0.110968
3710.91,0.107931
3713.56,0.104996
3716.23,0.10215
3718.89,0.099348
3721.56,0.096616
3724.23,0.094029
3726.91,0.091485
3729.59,0.089119
3732.28,0.086995
3734.97,0.085087
3737.66,0.083177
3740.36,0.081381
3743.06,0.079776
3745.76,0.078308
3748.47,0.076841
3751.18,0.075562
3753.9,0.074297
3756.62,0.073092
3759.34,0.071877
3762.07,0.070706
3764.8,0.069517
3767.54,0.0684
3770.28,0.067247
3773.02,0.066085
3775.77,0.064892
3778.52,0.063667
3781.28,0.062374
3784.04,0.061082
3786.8,0.059893
3789.57,0.058776
3792.34,0.057572
3795.12,0.056345
3797.9,0.05511
3800.69,0.054034
3803.47,0.052947
3806.27,0.051977
3809.06,0.050925
3811.86,0.050018
3814.67,0.049252
3817.48,0.048535
3820.29,0.047835
3823.11,0.047149
3825.93,0.046634
3828.76,0.046222
3831.59,0.04581
3834.42,0.045571
3837.26,0.045395
3840.1,0.045237
3842.95,0.045148
3845.8,0.045167
3848.65,0.045292
3851.51,0.045399
3854.38,0.045384
3857.24,0.045469
3860.12,0.045614
3862.99,0.045771
3865.87,0.04597
3868.76,0.046092
3871.65,0.046176
3874.54,0.046313
3877.44,0.046395
3880.34,0.046478
3883.25,0.046561
3886.16,0.046759
3889.07,0.047045
3891.99,0.047358
3894.92,0.047762
3897.85,0.048297
3900.78,0.04898
3903.72,0.049852
3906.66,0.050844
3909.6,0.052072
3912.55,0.053239
3915.51,0.054416
3918.47,0.0556
3921.43,0.056787
3924.4,0.057847
3927.38,0.058896
3930.35,0.059802
3933.33,0.060691
3936.32,0.061569
3939.31,0.062486
3942.31,0.063415
3945.31,0.064244
3948.31,0.064991
3951.32,0.06575
3954.34,0.066384
3957.35,0.066942
3960.38,0.067299
3963.41,0.067639
3966.44,0.067857
3969.48,0.067944
3972.52,0.067659
3975.56,0.067048
3978.61,0.066302
3981.67,0.065628
3984.73,0.064825
3987.8,0.064036
3990.87,0.063463
3993.94,0.063182
3997.02,0.063051
4000.1,0.063177
4003.19,0.063447
4006.29,0.063822
4009.39,0.064078
4012.49,0.064298
4015.6,0.064439
4018.71,0.0643
4021.83,0.063972
4024.95,0.063854
4028.08,0.064107
4031.21,0.065266
4034.35,0.067541
4037.49,0.070813
4040.64,0.074877
4043.79,0.079739
4046.94,0.085173
4050.11,0.090981
4053.27,0.096999
4056.44,0.103118
4059.62,0.109063
4062.8,0.11491
4065.99,0.120494
4069.18,0.125737
4072.38,0.130524
4075.58,0.135025
4078.78,0.139071
4082.0,0.142816
4085.21,0.146369
4088.43,0.149741
4091.66,0.152802
4094.89,0.155851
4098.13,0.158675
4101.37,0.161297
4104.62,0.163614
4107.87,0.16591
4111.13,0.167993
4114.39,0.170043
4117.66,0.171937
4120.93,0.173822
4124.21,0.175699
4127.5,0.177564
4130.79,0.17929
4134.08,0.181125
4137.38,0.182982
4140.68,0.18489
4143.99,0.186622
4147.31,0.188317
4150.63,0.189878
4153.95,0.191402
4157.29,0.192783
4160.62,0.194199
4163.96,0.195378
4167.31,0.196543
4170.66,0.197632
4174.02,0.198712
4177.39,0.19958
4180.75,0.20031
4184.13,0.200827
4187.51,0.201109
4190.89,0.200872
4194.28,0.200353
4197.68,0.199406
4201.08,0.198755
4204.49,0.199157
4207.9,0.200799
4211.32,0.202673
4214.74,0.204372
4218.17,0.205597
4221.61,0.206509
4225.05,0.207087
4228.5,0.207537
4231.95,0.207756
4235.4,0.207978
4238.87,0.208083
4242.34,0.208288
4245.81,0.208455
4249.29,0.208629
4252.78,0.208722
4256.27,0.20888
4259.77,0.208965
4263.27,0.209188
4266.78,0.209415
4270.29,0.209774
4273.81,0.210035
4277.34,0.210614
4280.87,0.211021
4284.41,0.211481
4287.95,0.211783
4291.5,0.212251
4295.06,0.212676
4298.62,0.213313
4302.19,0.213784
4305.76,0.214282
4309.34,0.214783
4312.92,0.215373
4316.52,0.215949
4320.11,0.21666
4323.72,0.217273
4327.32,0.217908
4330.94,0.218555
4334.56,0.219261
4338.19,0.219872
4341.82,0.220596
4345.46,0.221327
4349.11,0.222111
4352.76,0.222756
4356.42,0.2235
4360.08,0.224137
4363.75,0.224591
4367.43,0.225001
4371.11,0.225431
4374.8,0.225463
4378.49,0.225629
4382.19,0.225637
4385.9,0.225656
4389.61,0.225415
4393.33,0.225298
4397.06,0.224907
4400.79,0.224487
4404.53,0.223933
4408.28,0.223481
4412.03,0.222942
4415.79,0.222534
4419.55,0.22192
4423.32,0.22146
4427.1,0.220789
4430.88,0.22031
4434.68,0.219785
4438.47,0.219358
4442.28,0.218903
4446.08,0.218549
4449.9,0.218001
4453.72,0.217541
4457.55,0.217045
4461.39,0.21676
4465.23,0.216238
4469.08,0.215555
4472.94,0.214849
4476.8,0.214249
4480.67,0.213661
4484.55,0.213255
4488.43,0.212738
4492.32,0.212344
4496.21,0.211876
4500.12,0.211475
4504.03,0.211002
4507.94,0.210648
4511.87,0.210312
4515.8,0.209841
4519.73,0.208669
4523.68,0.208064
4527.63,0.207256
4531.59,0.206287
4535.55,0.205102
4539.52,0.204227
4543.5,0.20331
4547.49,0.201902
4551.48,0.200436
4555.48,0.199029
4559.49,0.197216
4563.5,0.19566
4567.52,0.193805
4571.55,0.192004
4575.58,0.189813
4579.63,0.187874
4583.67,0.185781
4587.73,0.183568
4591.79,0.181286
4595.86,0.179213
4599.94,0.177235
4604.03,0.175426
4608.12,0.17346
4612.22,0.171697
4616.33,0.170092
4620.44,0.168917
4624.56,0.167491
4628.69,0.166086
4632.83,0.164799
4636.97,0.1637
4641.12,0.162381
4645.28,0.161216
4649.45,0.159858
4653.62,0.158442
4657.8,0.157007
4661.99,0.155742
4666.19,0.154385
4670.39,0.152711
4674.6,0.151159
4678.82,0.149564
4683.05,0.147862
4687.28,0.146589
4691.52,0.144885
4695.77,0.143242
4700.03,0.141484
4704.3,0.139592
4708.57,0.137784
4712.85,0.135993
4717.14,0.133668
4721.43,0.131519
4725.74,0.129139
4730.05,0.126872
4734.37,0.124553
4738.7,0.122236
4743.03,0.119445
4747.38,0.117449
4751.73,0.114913
4756.09,0.111979
4760.45,0.10942
4764.83,0.106824
4769.21,0.104224
4773.6,0.101684
4778.0,0.098792
4782.41,0.096287
4786.83,0.093726
4791.25,0.090422
4795.68,0.086946
4800.13,0.083768
4804.57,0.080528
4809.03,0.077266
4813.5,0.073793
4817.97,0.070115
4822.45,0.066546
4826.94,0.063331
4831.44,0.059006
4835.95,0.055725
4840.46,0.052198
4844.99,0.048749
4849.52,0.046122
4854.06,0.04369
4858.61,0.041716
4863.17,0.04045
4867.73,0.039573
4872.31,0.039038
4876.89,0.039032
4881.48,0.039221
4886.08,0.039698
4890.69,0.040177
4895.31,0.040672
4899.94,0.041263
4904.57,0.041801
4909.22,0.042052
4913.87,0.042333
4918.53,0.042385
4923.21,0.042207
4927.88,0.041924
4932.57,0.041499
4937.27,0.041078
4941.98,0.04
4946.69,0.038379
4951.42,0.037579
4956.15,0.03644
4960.9,0.034756
4965.65,0.033314
4970.41,0.032158
4975.18,0.031053
4979.96,0.030422
4984.75,0.030119
4989.54,0.030658
4994.35,0.032105
4999.17,0.03471
5003.99,0.037721
5008.83,0.040495
5013.67,0.042189
5018.52,0.042745
5023.39,0.042061
5028.26,0.041036
5033.14,0.039597
5038.03,0.038726
5042.93,0.03846
5047.84,0.038678
5052.76,0.039187
5057.69,0.040214
5062.63,0.041483
5067.58,0.043091
5072.54,0.044742
5077.51,0.046654
5082.49,0.048645
5087.47,0.050805
5092.47,0.052844
5097.48,0.055089
5102.5,0.05714
5107.52,0.059232
5112.56,0.061298
5117.61,0.06341
5122.66,0.065263
5127.73,0.067142
5132.81,0.068951
5137.89,0.07096
5142.99,0.072434
5148.1,0.074067
5153.22,0.075715
5158.34,0.077162
5163.48,0.078313
5168.63,0.0795
5173.79,0.080509
5178.96,0.081866
5184.13,0.082906
5189.32,0.083156
5194.52,0.083433
5199.73,0.08391
5204.96,0.084427
5210.19,0.084962
5215.43,0.085505
5220.68,0.086316
5225.94,0.086904
5231.22,0.087666
5236.5,0.088011
5241.79,0.08813
5247.1,0.088593
5252.42,0.089237
5257.74,0.089569
5263.08,0.090286
5268.43,0.091161
5273.79,0.092204
5279.16,0.093331
5284.54,0.094847
5289.93,0.095945
5295.34,0.097186
5300.75,0.098452
5306.18,0.099619
5311.61,0.100846
5317.06,0.102106
5322.52,0.103356
5327.99,0.10448
5333.47,0.104769
5338.96,0.105304
5344.47,0.105968
5349.98,0.106664
5355.51,0.10714
5361.05,0.107468
5366.6,0.107856
5372.16,0.108322
5377.73,0.108482
5383.32,0.108638
5388.91,0.10862
5394.52,0.108625
5400.14,0.108512
5405.77,0.108426
5411.41,0.108499
5417.07,0.108477
5422.74,0.10828
5428.41,0.107662
5434.1,0.106971
5439.81,0.106819
5445.52,0.106739
5451.25,0.106396
5456.98,0.106019
5462.73,0.106018
5468.5,0.105928
5474.27,0.104892
5480.06,0.103723
5485.86,0.103167
5491.67,0.102564
5497.49,0.101947
5503.33,0.100811
5509.18,0.099634
5515.04,0.098259
5520.91,0.096942
5526.8,0.0963
5532.69,0.096172
5538.61,0.095591
5544.53,0.095134
5550.47,0.094466
5556.41,0.093478
5562.38,0.092512
5568.35,0.091999
5574.34,0.091436
5580.34,0.090998
5586.35,0.090631
5592.38,0.089754
5598.42,0.088997
5604.47,0.088312
5610.54,0.087524
5616.61,0.086605
5622.71,0.085651
5628.81,0.084712
5634.93,0.083592
5641.06,0.082532
5647.21,0.081609
5653.36,0.080493
5659.54,0.079476
5665.72,0.078382
5671.92,0.077101
5678.13,0.076107
5684.36,0.07514
5690.6,0.07393
5696.85,0.072683
5703.12,0.071489
5709.4,0.070249
5715.69,0.069148
5722.0,0.067955
5728.33,0.066746
5734.66,0.065335
5741.01,0.063958
5747.38,0.062653
5753.76,0.061351
5760.15,0.060134
5766.56,0.058867
5772.98,0.05733
5779.41,0.055867
5785.86,0.054483
5792.33,0.053015
5798.81,0.051509
5805.3,0.050048
5811.81,0.048627
5818.33,0.047121
5824.87,0.04563
5831.42,0.044322
5837.99,0.042986
5844.57,0.041472
5851.17,0.040072
5857.78,0.038746
5864.41,0.037331
5871.05,0.036027
5877.7,0.034839
5884.38,0.033597
5891.06,0.032425
5897.76,0.03124
5904.48,0.030199
5911.21,0.02918
5917.96,0.028177
5924.73,0.027235
5931.5,0.026347
5938.3,0.02536
5945.11,0.024452
5951.93,0.023561
5958.78,0.022673
5965.63,0.021785
5972.51,0.020923
5979.39,0.01995
5986.3,0.019024
5993.22,0.018189
6000.16,0.017375
6007.11,0.016586
6014.08,0.015874
6021.06,0.015032
6028.06,0.014318
6035.08,0.013696
6042.12,0.013035
6049.17,0.012401
6056.23,0.011896
6063.32,0.011374
6070.42,0.010959
6077.53,0.010655
6084.67,0.010312
6091.82,0.009857
6098.98,0.009579
6106.17,0.009373
6113.37,0.009322
6120.58,0.009389
6127.82,0.009399
6135.07,0.009555
6142.34,0.00999
6149.63,0.010424
6156.93,0.011026
6164.25,0.011863
6171.59,0.01291
6178.95,0.014052
6186.32,0.015475
6193.71,0.016928
6201.12,0.018612
6208.54,0.020508
6215.99,0.022572
6223.45,0.024747
6230.93,0.02715
6238.43,0.029783
6245.95,0.032742
6253.48,0.036029
6261.03,0.039687
6268.6,0.043607
6276.19,0.047934
6283.8,0.052979
6291.43,0.058553
6299.07,0.064543
6306.73,0.070936
6314.42,0.077695
6322.12,0.084791
6329.84,0.092205
6337.57,0.099717
6345.33,0.107132
6353.11,0.1142
6360.9,0.120758
6368.72,0.126498
6376.55,0.131429
6384.4,0.135453
6392.27,0.138699
6400.17,0.141315
6408.08,0.143558
6416.01,0.145917
6423.96,0.148895
6431.93,0.152438
6439.92,0.156619
6447.93,0.161197
6455.96,0.166177
6464.01,0.171343
6472.08,0.176717
6480.17,0.18211
6488.28,0.187143
6496.41,0.191098
6504.56,0.194076
6512.73,0.196012
6520.92,0.197067
6529.14,0.197533
6537.37,0.197795
6545.63,0.197612
6553.9,0.197091
6562.2,0.196079
6570.51,0.194715
6578.85,0.192749
6587.21,0.190541
6595.59,0.188111
6603.99,0.185503
6612.42,0.182673
6620.86,0.179782
6629.33,0.176443
6637.82,0.172946
6646.33,0.169121
6654.86,0.165133
6663.41,0.161
6671.99,0.156783
6680.59,0.152282
6689.21,0.147766
6697.85,0.143092
6706.51,0.138375
6715.2,0.133352
6723.91,0.128159
6732.64,0.122688
6741.4,0.116759
6750.18,0.110324
6758.98,0.103646
6767.8,0.096622
6776.65,0.089767
6785.52,0.083726
6794.41,0.078644
6803.33,0.074398
6812.27,0.070764
6821.23,0.067473
6830.22,0.064517
6839.23,0.061842
6848.26,0.059385
6857.32,0.057264
6866.4,0.055351
6875.51,0.053695
6884.64,0.05229
6893.8,0.050909
6902.98,0.049697
6912.18,0.048611
6921.41,0.047589
6930.66,0.046703
6939.94,0.045922
6949.24,0.045256
6958.57,0.044729
6967.92,0.044142
6977.3,0.043591
6986.7,0.043184
6996.13,0.042644
7005.59,0.042139
7015.07,0.041758
7024.57,0.041435
7034.1,0.041169
7043.66,0.040848
7053.25,0.040632
7062.85,0.040351
7072.49,0.040084
7082.15,0.04008
7091.84,0.039982
7101.55,0.039808
7111.3,0.039728
7121.06,0.039479
7130.86,0.039292
7140.68,0.039262
7150.53,0.039182
7160.41,0.038973
7170.31,0.038789
7180.24,0.038754
7190.2,0.03865
7200.19,0.0384
7210.2,0.038312
7220.24,0.038216
7230.31,0.038092
7240.41,0.037916
7250.54,0.037577
7260.69,0.037089
7270.88,0.036731
7281.09,0.036785
7291.33,0.03714
7301.6,0.037426
7311.9,0.037561
7322.22,0.037635
7332.58,0.03759
7342.97,0.03747
7353.38,0.037458
7363.83,0.037477
7374.3,0.037609
7384.81,0.037731
7395.34,0.037825
7405.91,0.037983
7416.5,0.038112
7427.13,0.038157
7437.78,0.038262
7448.47,0.038465
7459.19,0.038607
7469.94,0.038794
7480.71,0.038965
7491.52,0.039066
7502.37,0.039195
7513.24,0.039324
7524.14,0.039419
7535.08,0.039503
7546.05,0.039629
7557.05,0.039754
7568.08,0.039803
7579.15,0.039925
7590.24,0.040127
7601.37,0.040215
7612.53,0.040191
7623.73,0.040343
7634.96,0.040501
7646.22,0.04063
7657.51,0.040723
7668.84,0.040868
7680.2,0.041063
7691.59,0.041178
7703.02,0.041156
7714.49,0.041213
7725.98,0.041319
7737.52,0.04144
7749.08,0.041579
7760.68,0.041534
7772.32,0.041568
7783.99,0.041726
7795.69,0.041764
7807.43,0.041719
7819.21,0.041635
7831.02,0.041696
7842.87,0.041876
7854.75,0.041961
7866.67,0.041882
7878.62,0.041917
7890.62,0.042119
7902.64,0.042235
7914.71,0.0422
7926.81,0.042093
7938.95,0.041957
7951.13,0.042034
7963.34,0.04213
7975.59,0.042114
7987.88,0.042037
8000.21,0.042146
8012.57,0.04223
8024.98,0.042103
8037.42,0.041945
8049.9,0.041965
8062.42,0.042071
8074.98,0.042055
8087.57,0.041892
8100.21,0.041868
8112.89,0.041846
8125.6,0.041876
8138.36,0.04198
8151.16,0.041838
8163.99,0.041763
8176.87,0.041795
8189.79,0.041702
8202.75,0.041712
8215.75,0.0417
8228.79,0.041684
8241.87,0.041555
8254.99,0.041474
8268.16,0.041395
8281.37,0.041309
8294.62,0.041355
8307.91,0.041448
8321.24,0.041343
8334.62,0.041228
8348.04,0.041274
8361.51,0.041213
8375.02,0.041094
8388.57,0.041017
8402.16,0.040982
8415.8,0.040995
8429.49,0.040967
8443.22,0.040891
8456.99,0.040602
8470.81,0.040544
8484.67,0.040503
8498.58,0.040324
8512.54,0.040262
8526.54,0.040244
8540.58,0.040286
8554.68,0.040124
8568.82,0.039937
8583.0,0.039744
8597.24,0.039605
8611.52,0.039505
8625.85,0.039538
8640.23,0.039446
8654.65,0.039409
8669.12,0.039379
8683.64,0.039074
8698.21,0.038847
8712.83,0.038756
8727.5,0.038582
8742.22,0.038365
8756.99,0.038207
8771.8,0.037929
8786.67,0.037675
8801.59,0.037384
8816.56,0.037133
8831.58,0.036852
8846.65,0.036603
8861.77,0.036314
8876.94,0.035915
8892.17,0.035503
8907.45,0.035091
8922.78,0.034631
8938.16,0.034219
8953.6,0.033817
8969.09,0.033443
8984.64,0.033007
9000.23,0.032463
9015.89,0.031992
9031.59,0.031609
9047.36,0.031002
9063.17,0.030496
9079.05,0.03005
9094.97,0.029432
9110.96,0.028841
9127.0,0.02842
9143.1,0.028056
9159.25,0.027513
9175.46,0.026922
9191.73,0.026611
9208.06,0.026189
9224.44,0.025755
9240.88,0.025579
9257.38,0.025413
9273.94,0.025255
9290.56,0.025333
9307.24,0.025598
9323.98,0.026151
9340.78,0.027165
9357.64,0.028498
9374.57,0.030374
9391.55,0.033047
9408.59,0.03622
9425.7,0.039945
9442.87,0.044429
9460.1,0.04974
9477.4,0.055404
9494.75,0.060392
9512.17,0.06467
9529.66,0.068107
9547.21,0.069988
9564.83,0.070435
9582.5,0.069327
9600.25,0.066339
9618.06,0.06201
9635.94,0.05572
9653.88,0.049164
9671.89,0.043449
9689.97,0.038139
9708.12,0.034152
9726.33,0.031626
9744.62,0.029806
9762.97,0.028153
9781.39,0.026986
9799.88,0.026087
9818.44,0.025148
9837.07,0.024425
9855.77,0.023757
9874.54,0.022932
9893.39,0.021977
9912.3,0.020881
9931.29,0.019845
9950.36,0.019222
9969.49,0.018975
9988.7,0.018847
10007.98,0.018732
10027.34,0.018638
10046.77,0.018964
10066.28,0.01997
10085.87,0.021477
10105.53,0.023481
10125.26,0.02648
10145.08,0.030076
10164.97,0.034034
10184.94,0.038331
10204.99,0.041895
10225.12,0.04441
10245.33,0.045818
10265.61,0.046096
10285.98,0.045608
10306.43,0.044402
10326.96,0.04297
10347.57,0.041228
10368.27,0.039176
10389.05,0.037472
10409.91,0.036102
10430.86,0.034692
10451.88,0.033306
10473.0,0.032349
10494.2,0.03184
10515.49,0.031607
10536.86,0.031414
10558.32,0.030901
10579.87,0.030438
10601.5,0.030215
10623.23,0.02997
10645.04,0.029988
10666.94,0.030227
10688.94,0.029934
10711.02,0.029504
10733.2,0.029646
10755.47,0.029927
10777.83,0.029871
10800.28,0.029668
10822.83,0.030069
10845.47,0.030772
10868.21,0.030456
10891.04,0.030627
10913.97,0.03162
10936.99,0.032447
10960.12,0.032789
10983.34,0.032509
11006.66,0.032555
11030.07,0.033684
11053.59,0.033969
11077.21,0.033969
11100.93,0.034278
11124.75,0.035272
11148.68,0.036501
11172.71,0.037189
11196.84,0.037576
11221.07,0.038001
11245.41,0.038278
11269.86,0.038778
11294.41,0.039747
11319.07,0.040487
11343.84,0.040753
11368.72,0.040875
11393.7,0.041675
11418.8,0.042384
11444.01,0.04286
11469.33,0.043739
11494.76,0.04472
11520.3,0.044688
11545.96,0.044726
11571.73,0.045751
11597.62,0.046266
11623.62,0.045981
11649.74,0.04617
11675.98,0.046476
11702.34,0.047315
11728.81,0.047992
11755.41,0.048103
11782.13,0.047634
11808.96,0.047655
11835.92,0.047629
11863.01,0.047463
11890.22,0.047773
11917.55,0.047814
11945.01,0.048281
11972.6,0.048295
12000.31,0.04731
12028.16,0.047487
12056.13,0.047969
12084.23,0.047121
12112.46,0.046232
12140.83,0.046304
12169.33,0.046689
12197.96,0.046481
12226.73,0.045898
12255.64,0.045932
12284.68,0.045922
12313.86,0.045656
12343.18,0.045194
12372.64,0.045367
12402.24,0.044217
12431.98,0.043329
12461.86,0.043406
12491.89,0.042614
12522.07,0.041648
12552.38,0.042946
12582.85,0.042119
12613.47,0.039883
12644.23,0.039363
12675.15,0.039086
12706.21,0.038765
12737.43,0.040896
12768.81,0.043936
12800.33,0.040745
12832.02,0.036817
12863.86,0.038475
12895.86,0.043814
12928.02,0.042496
12960.34,0.039072
12992.82,0.040729
13025.46,0.041767
13058.27,0.034015
13091.25,0.033477
13124.39,0.041459
13157.7,0.04846
13191.18,0.054784
