Database of Origin,University of Winnipeg Spectrophotometer Facility
Sample Description,"RELAB + Nicolet merged data for spinels. Merged @2500nm, different viewing geometries. See Master Spinels in the PSF database for additional information."
Date Added,2016-11-08 17:54:00.274300

Data ID,RLA_SPI_05          
Sample ID,SPI114
Mineral Name,Spinel
Grain Size,<45
Viewing Geometry,"30/0,30/30"
Resolution,5/1.2-129
Composition,"Fe,Mg"
Material Class,Oxide

Wavelength
300.0,0.043399
305.0,0.045401
310.0,0.046845
315.0,0.047627
320.0,0.047739
325.0,0.049608
330.0,0.050233
335.0,0.051353
340.0,0.052694
345.0,0.054273
350.0,0.055559
355.0,0.057713
360.0,0.059463
365.0,0.06181
370.0,0.063477
375.0,0.064624
380.0,0.065566
385.0,0.066407
390.0,0.067134
395.0,0.068591
400.0,0.070302
405.0,0.072368
410.0,0.074182
415.0,0.076474
420.0,0.078935
425.0,0.080981
430.0,0.083061
435.0,0.084896
440.0,0.086383
445.0,0.086955
450.0,0.08744
455.0,0.086859
460.0,0.086172
465.0,0.085644
470.0,0.085325
475.0,0.085438
480.0,0.085757
485.0,0.086682
490.0,0.087549
495.0,0.088347
500.0,0.088924
505.0,0.089129
510.0,0.089382
515.0,0.089607
520.0,0.089317
525.0,0.089303
530.0,0.089406
535.0,0.089343
540.0,0.089227
545.0,0.089058
550.0,0.089028
555.0,0.088863
560.0,0.089167
565.0,0.089353
570.0,0.08943
575.0,0.089564
580.0,0.08975
585.0,0.090017
590.0,0.090262
595.0,0.090605
600.0,0.090818
605.0,0.091117
610.0,0.091587
615.0,0.091706
620.0,0.091903
625.0,0.092034
630.0,0.092077
635.0,0.092117
640.0,0.092227
645.0,0.092126
650.0,0.092264
655.0,0.092389
660.0,0.092354
665.0,0.092373
670.0,0.092625
675.0,0.092782
680.0,0.093032
685.0,0.092715
690.0,0.092975
695.0,0.093284
700.0,0.093865
705.0,0.093977
710.0,0.094493
715.0,0.094655
720.0,0.094661
725.0,0.095202
730.0,0.095537
735.0,0.095863
740.0,0.096062
745.0,0.096092
750.0,0.09638
755.0,0.0967
760.0,0.097153
765.0,0.097143
770.0,0.097385
775.0,0.09758
780.0,0.097683
785.0,0.097828
790.0,0.097883
795.0,0.098013
800.0,0.098156
805.0,0.098377
810.0,0.098338
815.0,0.098348
820.0,0.098008
825.0,0.097927
830.0,0.097782
835.0,0.097883
840.0,0.098057
845.0,0.097474
850.0,0.09743
855.0,0.096445
860.0,0.096861
865.0,0.096581
870.0,0.096916
875.0,0.095801
880.0,0.095481
885.0,0.095874
890.0,0.09546
895.0,0.09387
900.0,0.094443
905.0,0.094141
910.0,0.094165
915.0,0.094596
920.0,0.093976
925.0,0.094254
930.0,0.094434
935.0,0.094342
940.0,0.094182
945.0,0.09463
950.0,0.094646
955.0,0.094763
960.0,0.094721
965.0,0.095134
970.0,0.095758
975.0,0.095908
980.0,0.096374
985.0,0.09644
990.0,0.096581
995.0,0.097224
1000.0,0.097446
1005.0,0.098319
1010.0,0.098932
1015.0,0.099548
1020.0,0.099985
1025.0,0.100552
1030.0,0.101187
1035.0,0.101599
1040.0,0.10222
1045.0,0.102917
1050.0,0.103762
1055.0,0.104365
1060.0,0.104893
1065.0,0.105734
1070.0,0.106425
1075.0,0.107062
1080.0,0.10766
1085.0,0.108171
1090.0,0.109257
1095.0,0.109901
1100.0,0.110901
1105.0,0.11153
1110.0,0.112625
1115.0,0.113422
1120.0,0.114175
1125.0,0.114857
1130.0,0.115701
1135.0,0.116766
1140.0,0.117697
1145.0,0.118489
1150.0,0.119496
1155.0,0.120337
1160.0,0.121309
1165.0,0.122175
1170.0,0.123282
1175.0,0.12404
1180.0,0.125043
1185.0,0.12612
1190.0,0.127166
1195.0,0.12818
1200.0,0.129116
1205.0,0.130359
1210.0,0.13136
1215.0,0.132567
1220.0,0.13322
1225.0,0.133819
1230.0,0.135191
1235.0,0.135977
1240.0,0.137021
1245.0,0.137702
1250.0,0.138495
1255.0,0.139422
1260.0,0.140332
1265.0,0.141657
1270.0,0.142652
1275.0,0.1433
1280.0,0.144234
1285.0,0.14497
1290.0,0.145958
1295.0,0.146751
1300.0,0.147545
1305.0,0.148247
1310.0,0.149156
1315.0,0.149943
1320.0,0.150838
1325.0,0.151471
1330.0,0.152119
1335.0,0.152765
1340.0,0.153266
1345.0,0.154362
1350.0,0.154623
1355.0,0.155425
1360.0,0.156402
1365.0,0.156329
1370.0,0.156818
1375.0,0.156957
1380.0,0.158589
1385.0,0.157067
1390.0,0.157422
1395.0,0.157546
1400.0,0.157475
1405.0,0.157522
1410.0,0.156395
1415.0,0.156228
1420.0,0.15578
1425.0,0.155275
1430.0,0.155077
1435.0,0.154502
1440.0,0.154293
1445.0,0.153632
1450.0,0.152828
1455.0,0.151698
1460.0,0.151158
1465.0,0.149827
1470.0,0.149217
1475.0,0.14793
1480.0,0.147013
1485.0,0.145969
1490.0,0.144444
1495.0,0.142982
1500.0,0.141939
1505.0,0.140585
1510.0,0.139472
1515.0,0.137713
1520.0,0.136617
1525.0,0.135111
1530.0,0.13376
1535.0,0.132337
1540.0,0.131041
1545.0,0.129143
1550.0,0.127703
1555.0,0.126114
1560.0,0.124391
1565.0,0.123012
1570.0,0.121587
1575.0,0.120278
1580.0,0.118009
1585.0,0.116157
1590.0,0.114837
1595.0,0.113565
1600.0,0.112331
1605.0,0.110765
1610.0,0.109446
1615.0,0.10764
1620.0,0.106183
1625.0,0.104845
1630.0,0.103513
1635.0,0.102417
1640.0,0.100931
1645.0,0.100277
1650.0,0.098772
1655.0,0.097635
1660.0,0.096785
1665.0,0.096059
1670.0,0.09503
1675.0,0.093746
1680.0,0.093095
1685.0,0.09192
1690.0,0.090936
1695.0,0.090331
1700.0,0.089481
1705.0,0.088285
1710.0,0.087608
1715.0,0.086682
1720.0,0.08572
1725.0,0.084937
1730.0,0.084274
1735.0,0.083427
1740.0,0.08247
1745.0,0.081668
1750.0,0.081118
1755.0,0.080479
1760.0,0.079866
1765.0,0.079316
1770.0,0.078512
1775.0,0.078173
1780.0,0.077537
1785.0,0.077069
1790.0,0.076882
1795.0,0.076088
1800.0,0.075736
1805.0,0.075642
1810.0,0.075138
1815.0,0.074794
1820.0,0.07442
1825.0,0.074279
1830.0,0.073884
1835.0,0.073586
1840.0,0.073205
1845.0,0.073017
1850.0,0.072753
1855.0,0.072718
1860.0,0.072529
1865.0,0.072388
1870.0,0.072212
1875.0,0.071909
1880.0,0.071841
1885.0,0.071857
1890.0,0.071879
1895.0,0.071762
1900.0,0.072028
1905.0,0.071881
1910.0,0.071946
1915.0,0.07182
1920.0,0.071734
1925.0,0.071759
1930.0,0.071693
1935.0,0.071764
1940.0,0.071774
1945.0,0.071806
1950.0,0.071768
1955.0,0.071833
1960.0,0.071782
1965.0,0.07204
1970.0,0.071906
1975.0,0.072032
1980.0,0.072138
1985.0,0.072078
1990.0,0.072179
1995.0,0.072429
2000.0,0.072442
2005.0,0.072617
2010.0,0.072446
2015.0,0.072508
2020.0,0.072836
2025.0,0.072752
2030.0,0.072895
2035.0,0.073058
2040.0,0.073063
2045.0,0.073144
2050.0,0.07328
2055.0,0.073302
2060.0,0.073323
2065.0,0.073495
2070.0,0.073648
2075.0,0.073826
2080.0,0.074188
2085.0,0.07421
2090.0,0.074338
2095.0,0.074372
2100.0,0.074469
2105.0,0.074689
2110.0,0.074974
2115.0,0.075284
2120.0,0.075244
2125.0,0.0756
2130.0,0.075772
2135.0,0.075882
2140.0,0.076194
2145.0,0.076282
2150.0,0.076428
2155.0,0.076661
2160.0,0.076942
2165.0,0.077189
2170.0,0.077511
2175.0,0.077511
2180.0,0.07801
2185.0,0.078327
2190.0,0.07849
2195.0,0.078869
2200.0,0.079389
2205.0,0.079713
2210.0,0.079884
2215.0,0.080427
2220.0,0.080645
2225.0,0.081149
2230.0,0.081479
2235.0,0.082058
2240.0,0.082442
2245.0,0.082747
2250.0,0.083536
2255.0,0.083817
2260.0,0.084388
2265.0,0.084779
2270.0,0.085102
2275.0,0.085792
2280.0,0.086135
2285.0,0.087009
2290.0,0.08758
2295.0,0.087879
2300.0,0.088448
2305.0,0.089114
2310.0,0.089403
2315.0,0.089867
2320.0,0.090445
2325.0,0.090631
2330.0,0.091141
2335.0,0.091818
2340.0,0.092224
2345.0,0.092413
2350.0,0.093036
2355.0,0.093525
2360.0,0.093912
2365.0,0.094334
2370.0,0.094534
2375.0,0.095464
2380.0,0.095404
2385.0,0.095546
2390.0,0.095886
2395.0,0.0964
2400.0,0.096855
2405.0,0.097131
2410.0,0.097122
2415.0,0.097767
2420.0,0.098452
2425.0,0.098873
2430.0,0.099024
2435.0,0.099221
2440.0,0.099449
2445.0,0.099552
2450.0,0.09979
2455.0,0.100052
2460.0,0.100156
2465.0,0.100336
2470.0,0.100169
2475.0,0.10042
2480.0,0.10065
2485.0,0.100759
2490.0,0.100663
2495.0,0.101078
2500.0,0.100905
2502.0,0.100723
2503.2,0.100924
2504.41,0.101007
2505.62,0.10081
2506.83,0.101087
2508.05,0.101175
2509.26,0.101021
2510.48,0.100739
2511.69,0.100589
2512.91,0.100385
2514.13,0.101084
2515.35,0.101277
2516.57,0.101164
2517.79,0.100955
2519.02,0.100988
2520.24,0.100993
2521.47,0.101018
2522.69,0.101288
2523.92,0.101557
2525.15,0.101495
2526.38,0.101351
2527.61,0.100926
2528.85,0.10087
2530.08,0.100932
2531.32,0.101074
2532.55,0.100874
2533.79,0.100758
2535.03,0.100708
2536.27,0.100915
2537.51,0.101372
2538.75,0.10164
2540.0,0.101655
2541.24,0.101298
2542.49,0.101039
2543.74,0.101115
2544.99,0.101135
2546.24,0.101163
2547.49,0.101295
2548.74,0.101339
2549.99,0.101147
2551.25,0.101312
2552.5,0.101458
2553.76,0.101285
2555.02,0.101064
2556.28,0.101379
2557.54,0.101461
2558.8,0.101478
2560.07,0.101589
2561.33,0.101836
2562.6,0.101562
2563.86,0.101242
2565.13,0.101242
2566.4,0.101517
2567.67,0.101661
2568.95,0.101728
2570.22,0.1015
2571.5,0.10144
2572.77,0.101256
2574.05,0.101545
2575.33,0.101672
2576.61,0.10194
2577.89,0.101849
2579.17,0.10186
2580.46,0.101957
2581.74,0.102195
2583.03,0.10206
2584.31,0.101936
2585.6,0.101526
2586.89,0.101313
2588.19,0.101526
2589.48,0.101509
2590.77,0.101398
2592.07,0.101434
2593.36,0.10159
2594.66,0.101836
2595.96,0.101697
2597.26,0.10141
2598.56,0.101447
2599.87,0.101745
2601.17,0.101512
2602.48,0.10135
2603.78,0.101402
2605.09,0.101457
2606.4,0.101281
2607.71,0.101409
2609.03,0.101495
2610.34,0.101492
2611.66,0.101595
2612.97,0.101635
2614.29,0.101602
2615.61,0.101599
2616.93,0.101599
2618.25,0.101786
2619.57,0.101848
2620.9,0.102239
2622.22,0.102123
2623.55,0.101907
2624.88,0.101894
2626.21,0.101714
2627.54,0.101863
2628.87,0.101755
2630.21,0.101332
2631.54,0.101437
2632.88,0.10149
2634.21,0.101946
2635.55,0.101931
2636.89,0.101589
2638.24,0.101675
2639.58,0.101638
2640.92,0.10168
2642.27,0.101862
2643.62,0.101901
2644.97,0.102191
2646.32,0.102362
2647.67,0.102157
2649.02,0.102012
2650.38,0.10209
2651.73,0.101693
2653.09,0.101362
2654.45,0.101253
2655.81,0.101351
2657.17,0.101443
2658.53,0.101641
2659.89,0.101485
2661.26,0.101587
2662.63,0.101784
2664.0,0.101827
2665.36,0.101524
2666.74,0.10141
2668.11,0.101557
2669.48,0.101332
2670.86,0.101502
2672.23,0.101876
2673.61,0.101697
2674.99,0.10172
2676.37,0.101317
2677.76,0.101305
2679.14,0.101469
2680.52,0.101858
2681.91,0.101939
2683.3,0.101751
2684.69,0.101644
2686.08,0.101656
2687.47,0.101694
2688.87,0.101398
2690.26,0.101211
2691.66,0.101413
2693.06,0.10135
2694.46,0.101406
2695.86,0.101773
2697.26,0.101682
2698.66,0.101617
2700.07,0.101513
2701.48,0.101647
2702.89,0.101953
2704.3,0.101724
2705.71,0.101655
2707.12,0.101621
2708.53,0.101677
2709.95,0.101375
2711.37,0.101299
2712.79,0.101576
2714.21,0.101642
2715.63,0.101479
2717.05,0.101521
2718.48,0.101603
2719.9,0.101541
2721.33,0.101365
2722.76,0.101212
2724.19,0.100793
2725.62,0.10087
2727.06,0.101481
2728.49,0.101616
2729.93,0.101371
2731.37,0.10141
2732.81,0.10151
2734.25,0.101317
2735.69,0.101139
2737.14,0.101147
2738.58,0.101043
2740.03,0.101143
2741.48,0.101038
2742.93,0.101191
2744.38,0.101277
2745.83,0.101275
2747.29,0.101135
2748.75,0.10115
2750.2,0.100969
2751.66,0.101008
2753.13,0.101091
2754.59,0.100798
2756.05,0.10055
2757.52,0.101049
2758.99,0.10117
2760.46,0.101229
2761.93,0.101212
2763.4,0.10086
2764.87,0.100305
2766.35,0.100627
2767.82,0.100842
2769.3,0.100939
2770.78,0.100881
2772.26,0.100881
2773.75,0.100798
2775.23,0.101189
2776.72,0.101289
2778.21,0.101399
2779.7,0.100869
2781.19,0.100717
2782.68,0.100872
2784.18,0.100796
2785.67,0.100818
2787.17,0.100544
2788.67,0.100883
2790.17,0.101479
2791.67,0.101209
2793.18,0.101195
2794.68,0.100979
2796.19,0.100862
2797.7,0.100863
2799.21,0.101056
2800.72,0.101146
2802.24,0.101074
2803.75,0.101038
2805.27,0.101284
2806.79,0.10091
2808.31,0.100873
2809.83,0.101076
2811.35,0.101253
2812.88,0.101137
2814.41,0.101412
2815.93,0.101668
2817.46,0.101659
2819.0,0.101354
2820.53,0.101665
2822.07,0.101742
2823.6,0.101715
2825.14,0.10188
2826.68,0.10173
2828.22,0.101613
2829.77,0.1017
2831.31,0.101748
2832.86,0.101888
2834.41,0.101721
2835.96,0.10167
2837.51,0.101948
2839.07,0.102353
2840.62,0.102085
2842.18,0.101911
2843.74,0.102184
2845.3,0.102315
2846.86,0.10209
2848.43,0.102154
2849.99,0.102292
2851.56,0.102547
2853.13,0.102725
2854.7,0.102887
2856.27,0.102988
2857.85,0.103053
2859.42,0.102931
2861.0,0.103042
2862.58,0.103153
2864.16,0.103261
2865.75,0.103382
2867.33,0.103281
2868.92,0.103088
2870.51,0.103264
2872.1,0.103326
2873.69,0.103659
2875.28,0.104009
2876.88,0.104044
2878.48,0.103963
2880.07,0.104234
2881.68,0.104364
2883.28,0.104507
2884.88,0.104594
2886.49,0.10451
2888.1,0.104397
2889.71,0.104569
2891.32,0.104646
2892.93,0.104568
2894.55,0.10467
2896.16,0.104971
2897.78,0.104734
2899.4,0.104842
2901.03,0.105265
2902.65,0.105531
2904.28,0.105276
2905.91,0.105406
2907.54,0.105562
2909.17,0.105961
2910.8,0.106433
2912.44,0.106613
2914.07,0.106542
2915.71,0.106517
2917.35,0.106514
2918.99,0.106496
2920.64,0.106645
2922.29,0.106964
2923.93,0.107144
2925.58,0.107092
2927.24,0.107167
2928.89,0.107482
2930.55,0.107628
2932.2,0.107876
2933.86,0.108143
2935.52,0.10829
2937.19,0.108288
2938.85,0.10842
2940.52,0.108928
2942.19,0.109347
2943.86,0.10901
2945.53,0.109072
2947.21,0.109299
2948.88,0.109788
2950.56,0.109901
2952.24,0.10975
2953.92,0.109643
2955.61,0.10997
2957.29,0.110317
2958.98,0.110553
2960.67,0.110821
2962.36,0.111113
2964.06,0.111178
2965.75,0.111317
2967.45,0.111822
2969.15,0.112228
2970.85,0.112307
2972.55,0.112303
2974.26,0.112287
2975.97,0.11255
2977.68,0.112854
2979.39,0.113027
2981.1,0.113064
2982.82,0.113237
2984.53,0.113747
2986.25,0.11418
2987.97,0.113991
2989.7,0.114005
2991.42,0.114619
2993.15,0.11501
2994.88,0.114992
2996.61,0.115396
2998.34,0.115477
3000.08,0.11569
3001.82,0.115937
3003.55,0.116255
3005.3,0.116654
3007.04,0.117065
3008.78,0.117155
3010.53,0.117121
3012.28,0.117192
3014.03,0.117414
3015.79,0.117696
3017.54,0.118173
3019.3,0.118618
3021.06,0.118985
3022.82,0.119265
3024.58,0.119864
3026.35,0.120243
3028.12,0.120248
3029.89,0.120075
3031.66,0.120201
3033.43,0.120509
3035.21,0.121056
3036.99,0.121381
3038.77,0.121779
3040.55,0.122075
3042.33,0.122198
3044.12,0.12228
3045.91,0.122581
3047.7,0.122927
3049.49,0.123141
3051.29,0.1232
3053.08,0.123816
3054.88,0.124249
3056.68,0.124641
3058.49,0.125245
3060.29,0.125631
3062.1,0.125472
3063.91,0.125669
3065.72,0.125953
3067.54,0.126343
3069.35,0.126727
3071.17,0.127162
3072.99,0.12752
3074.81,0.127692
3076.64,0.127976
3078.47,0.128592
3080.29,0.129115
3082.13,0.12951
3083.96,0.129741
3085.79,0.130145
3087.63,0.130329
3089.47,0.130772
3091.31,0.131268
3093.16,0.131866
3095.01,0.132177
3096.85,0.13236
3098.71,0.132537
3100.56,0.132929
3102.41,0.133406
3104.27,0.133856
3106.13,0.134184
3107.99,0.1345
3109.86,0.134939
3111.73,0.135413
3113.59,0.135822
3115.47,0.13612
3117.34,0.136274
3119.21,0.136847
3121.09,0.137302
3122.97,0.137705
3124.86,0.138146
3126.74,0.138598
3128.63,0.139079
3130.52,0.139503
3132.41,0.139953
3134.3,0.140508
3136.2,0.140951
3138.1,0.141223
3140.0,0.141507
3141.9,0.142013
3143.81,0.142424
3145.71,0.142943
3147.62,0.143486
3149.54,0.144058
3151.45,0.144533
3153.37,0.145014
3155.29,0.145405
3157.21,0.145988
3159.13,0.146602
3161.06,0.147203
3162.99,0.147573
3164.92,0.147974
3166.85,0.148418
3168.79,0.149023
3170.72,0.14959
3172.67,0.150179
3174.61,0.150459
3176.55,0.150762
3178.5,0.151291
3180.45,0.15173
3182.4,0.152252
3184.36,0.152806
3186.32,0.153377
3188.27,0.154101
3190.24,0.154579
3192.2,0.154986
3194.17,0.155333
3196.14,0.156041
3198.11,0.156623
3200.08,0.157266
3202.06,0.157765
3204.04,0.158337
3206.02,0.159076
3208.0,0.159814
3209.99,0.160242
3211.98,0.160495
3213.97,0.160859
3215.96,0.161519
3217.96,0.162199
3219.96,0.162658
3221.96,0.163039
3223.96,0.16364
3225.97,0.164209
3227.98,0.164818
3229.99,0.165316
3232.0,0.165886
3234.02,0.166348
3236.04,0.166938
3238.06,0.16759
3240.08,0.168178
3242.11,0.168921
3244.14,0.169523
3246.17,0.170133
3248.2,0.171033
3250.24,0.171569
3252.28,0.171815
3254.32,0.172296
3256.37,0.172951
3258.41,0.173535
3260.46,0.174429
3262.51,0.175031
3264.57,0.175542
3266.63,0.176038
3268.69,0.176587
3270.75,0.17721
3272.81,0.177795
3274.88,0.178497
3276.95,0.179263
3279.02,0.179841
3281.1,0.180453
3283.18,0.181072
3285.26,0.181744
3287.34,0.182446
3289.43,0.183238
3291.51,0.183741
3293.61,0.184281
3295.7,0.185042
3297.8,0.185817
3299.9,0.186239
3302.0,0.186748
3304.1,0.187411
3306.21,0.18808
3308.32,0.188629
3310.43,0.189384
3312.55,0.190119
3314.66,0.190842
3316.79,0.191468
3318.91,0.192288
3321.03,0.192991
3323.16,0.19355
3325.29,0.193962
3327.43,0.194586
3329.57,0.195306
3331.71,0.196146
3333.85,0.196718
3335.99,0.197382
3338.14,0.198013
3340.29,0.198575
3342.45,0.199399
3344.6,0.200091
3346.76,0.200511
3348.92,0.201124
3351.09,0.201757
3353.26,0.202453
3355.43,0.203202
3357.6,0.203898
3359.78,0.204496
3361.96,0.20512
3364.14,0.205801
3366.32,0.206405
3368.51,0.206998
3370.7,0.207813
3372.89,0.208422
3375.09,0.209089
3377.29,0.20993
3379.49,0.21066
3381.69,0.211321
3383.9,0.212163
3386.11,0.212987
3388.32,0.213838
3390.54,0.214495
3392.76,0.215128
3394.98,0.215868
3397.21,0.216563
3399.43,0.21715
3401.66,0.217689
3403.9,0.218349
3406.13,0.218865
3408.37,0.219479
3410.61,0.220304
3412.86,0.221021
3415.11,0.221785
3417.36,0.222444
3419.61,0.223208
3421.87,0.224142
3424.13,0.225195
3426.39,0.226046
3428.66,0.226819
3430.93,0.227627
3433.2,0.228568
3435.48,0.22952
3437.76,0.230255
3440.04,0.230897
3442.32,0.231763
3444.61,0.232594
3446.9,0.233406
3449.19,0.234205
3451.49,0.235107
3453.79,0.235895
3456.09,0.236681
3458.4,0.237408
3460.7,0.238218
3463.02,0.238969
3465.33,0.239751
3467.65,0.24056
3469.97,0.241314
3472.29,0.242054
3474.62,0.242786
3476.95,0.243436
3479.29,0.244259
3481.62,0.245146
3483.96,0.24585
3486.3,0.246522
3488.65,0.247428
3491.0,0.248377
3493.35,0.249148
3495.71,0.249771
3498.07,0.250405
3500.43,0.251136
3502.79,0.251953
3505.16,0.252948
3507.53,0.253991
3509.91,0.254821
3512.29,0.255783
3514.67,0.256521
3517.05,0.257405
3519.44,0.258382
3521.83,0.259305
3524.23,0.260078
3526.62,0.260988
3529.02,0.261942
3531.43,0.262883
3533.83,0.263604
3536.24,0.264411
3538.66,0.265148
3541.08,0.26592
3543.5,0.266646
3545.92,0.267521
3548.35,0.268559
3550.78,0.269455
3553.21,0.270218
3555.65,0.271085
3558.09,0.271844
3560.53,0.272626
3562.98,0.273507
3565.43,0.274408
3567.88,0.275156
3570.34,0.275948
3572.8,0.276772
3575.27,0.277563
3577.73,0.278307
3580.2,0.279188
3582.68,0.280159
3585.16,0.281117
3587.64,0.28196
3590.12,0.28282
3592.61,0.28355
3595.1,0.28436
3597.6,0.285204
3600.09,0.286237
3602.6,0.287032
3605.1,0.287812
3607.61,0.28867
3610.12,0.289472
3612.64,0.290156
3615.16,0.291198
3617.68,0.292279
3620.21,0.293126
3622.74,0.293804
3625.27,0.294487
3627.81,0.295224
3630.35,0.296203
3632.89,0.297089
3635.44,0.297933
3637.99,0.298684
3640.54,0.299528
3643.1,0.300455
3645.66,0.301321
3648.23,0.301982
3650.8,0.302791
3653.37,0.303777
3655.95,0.304691
3658.53,0.305456
3661.11,0.306281
3663.7,0.307094
3666.29,0.30791
3668.89,0.308754
3671.48,0.309676
3674.09,0.310508
3676.69,0.311366
3679.3,0.312132
3681.91,0.313052
3684.53,0.314043
3687.15,0.314862
3689.78,0.315661
3692.4,0.316513
3695.04,0.317237
3697.67,0.318232
3700.31,0.319153
3702.95,0.319974
3705.6,0.320729
3708.25,0.32162
3710.91,0.322548
3713.56,0.323397
3716.23,0.324207
3718.89,0.325105
3721.56,0.325949
3724.23,0.326719
3726.91,0.327465
3729.59,0.328339
3732.28,0.329133
3734.97,0.330023
3737.66,0.330853
3740.36,0.331642
3743.06,0.332571
3745.76,0.333449
3748.47,0.334193
3751.18,0.335037
3753.9,0.33584
3756.62,0.336741
3759.34,0.337578
3762.07,0.338381
3764.8,0.339276
3767.54,0.340156
3770.28,0.341063
3773.02,0.341982
3775.77,0.342792
3778.52,0.343612
3781.28,0.344447
3784.04,0.345226
3786.8,0.34596
3789.57,0.346831
3792.34,0.34768
3795.12,0.348533
3797.9,0.349393
3800.69,0.350119
3803.47,0.350939
3806.27,0.351745
3809.06,0.352528
3811.86,0.353373
3814.67,0.354134
3817.48,0.354911
3820.29,0.355708
3823.11,0.356562
3825.93,0.357427
3828.76,0.358137
3831.59,0.358898
3834.42,0.359728
3837.26,0.360541
3840.1,0.361217
3842.95,0.362079
3845.8,0.362896
3848.65,0.363619
3851.51,0.364439
3854.38,0.365291
3857.24,0.366139
3860.12,0.366802
3862.99,0.36748
3865.87,0.36825
3868.76,0.369061
3871.65,0.369828
3874.54,0.370512
3877.44,0.371345
3880.34,0.372187
3883.25,0.372892
3886.16,0.373591
3889.07,0.374313
3891.99,0.375232
3894.92,0.376129
3897.85,0.376759
3900.78,0.377423
3903.72,0.378287
3906.66,0.379014
3909.6,0.379673
3912.55,0.380379
3915.51,0.381149
3918.47,0.381911
3921.43,0.382667
3924.4,0.383366
3927.38,0.384123
3930.35,0.384804
3933.33,0.385493
3936.32,0.386192
3939.31,0.387001
3942.31,0.387721
3945.31,0.388473
3948.31,0.389072
3951.32,0.389625
3954.34,0.39037
3957.35,0.391144
3960.38,0.391822
3963.41,0.392463
3966.44,0.393248
3969.48,0.394023
3972.52,0.394651
3975.56,0.395352
3978.61,0.396109
3981.67,0.396779
3984.73,0.397373
3987.8,0.39799
3990.87,0.398639
3993.94,0.399259
3997.02,0.399916
4000.1,0.400709
4003.19,0.401349
4006.29,0.401934
4009.39,0.402588
4012.49,0.403226
4015.6,0.403877
4018.71,0.404492
4021.83,0.405076
4024.95,0.405505
4028.08,0.406244
4031.21,0.407063
4034.35,0.407711
4037.49,0.408236
4040.64,0.408814
4043.79,0.409468
4046.94,0.410073
4050.11,0.410554
4053.27,0.411029
4056.44,0.411808
4059.62,0.412478
4062.8,0.412977
4065.99,0.413551
4069.18,0.414122
4072.38,0.414635
4075.58,0.415341
4078.78,0.415904
4082.0,0.416504
4085.21,0.417008
4088.43,0.417484
4091.66,0.418113
4094.89,0.418812
4098.13,0.419321
4101.37,0.419783
4104.62,0.420472
4107.87,0.421088
4111.13,0.421743
4114.39,0.422134
4117.66,0.422553
4120.93,0.423235
4124.21,0.423827
4127.5,0.424353
4130.79,0.424972
4134.08,0.425464
4137.38,0.42595
4140.68,0.426453
4143.99,0.42702
4147.31,0.427594
4150.63,0.428159
4153.95,0.428571
4157.29,0.429131
4160.62,0.429706
4163.96,0.430193
4167.31,0.430677
4170.66,0.431158
4174.02,0.431727
4177.39,0.432323
4180.75,0.432799
4184.13,0.433259
4187.51,0.433849
4190.89,0.434401
4194.28,0.434806
4197.68,0.435264
4201.08,0.435862
4204.49,0.436403
4207.9,0.436845
4211.32,0.437319
4214.74,0.437652
4218.17,0.438091
4221.61,0.438631
4225.05,0.439139
4228.5,0.439582
4231.95,0.440008
4235.4,0.440409
4238.87,0.440865
4242.34,0.441329
4245.81,0.441915
4249.29,0.44242
4252.78,0.442894
4256.27,0.443454
4259.77,0.443862
4263.27,0.444143
4266.78,0.444492
4270.29,0.444845
4273.81,0.445189
4277.34,0.445642
4280.87,0.446146
4284.41,0.446552
4287.95,0.447051
4291.5,0.447462
4295.06,0.447785
4298.62,0.448202
4302.19,0.448718
4305.76,0.449157
4309.34,0.44958
4312.92,0.450008
4316.52,0.450431
4320.11,0.450802
4323.72,0.451182
4327.32,0.451624
4330.94,0.452103
4334.56,0.452498
4338.19,0.452839
4341.82,0.453112
4345.46,0.453463
4349.11,0.453851
4352.76,0.454172
4356.42,0.454484
4360.08,0.454891
4363.75,0.455238
4367.43,0.455535
4371.11,0.455846
4374.8,0.456215
4378.49,0.456528
4382.19,0.456954
4385.9,0.457303
4389.61,0.45768
4393.33,0.457973
4397.06,0.458319
4400.79,0.458632
4404.53,0.458889
4408.28,0.459184
4412.03,0.459529
4415.79,0.459837
4419.55,0.460169
4423.32,0.460433
4427.1,0.460717
4430.88,0.460933
4434.68,0.461225
4438.47,0.461577
4442.28,0.461885
4446.08,0.462166
4449.9,0.462347
4453.72,0.46262
4457.55,0.462924
4461.39,0.463174
4465.23,0.463454
4469.08,0.463682
4472.94,0.463854
4476.8,0.46406
4480.67,0.464432
4484.55,0.464755
4488.43,0.464938
4492.32,0.465013
4496.21,0.465174
4500.12,0.465419
4504.03,0.465792
4507.94,0.466097
4511.87,0.466236
4515.8,0.466306
4519.73,0.466519
4523.68,0.4668
4527.63,0.467003
4531.59,0.467228
4535.55,0.467506
4539.52,0.467717
4543.5,0.467896
4547.49,0.468114
4551.48,0.468311
4555.48,0.468447
4559.49,0.46862
4563.5,0.468685
4567.52,0.46883
4571.55,0.469018
4575.58,0.469316
4579.63,0.469583
4583.67,0.469752
4587.73,0.469845
4591.79,0.469979
4595.86,0.470188
4599.94,0.470339
4604.03,0.470493
4608.12,0.470721
4612.22,0.470818
4616.33,0.470891
4620.44,0.471132
4624.56,0.471365
4628.69,0.471461
4632.83,0.47153
4636.97,0.471617
4641.12,0.471805
4645.28,0.471939
4649.45,0.472053
4653.62,0.472167
4657.8,0.472351
4661.99,0.472462
4666.19,0.472554
4670.39,0.47269
4674.6,0.472805
4678.82,0.472924
4683.05,0.473075
4687.28,0.473175
4691.52,0.473303
4695.77,0.473369
4700.03,0.473419
4704.3,0.47353
4708.57,0.473729
4712.85,0.473729
4717.14,0.473845
4721.43,0.474032
4725.74,0.474202
4730.05,0.474272
4734.37,0.474379
4738.7,0.474371
4743.03,0.474454
4747.38,0.474555
4751.73,0.474668
4756.09,0.474715
4760.45,0.47484
4764.83,0.474883
4769.21,0.47503
4773.6,0.475019
4778.0,0.475119
4782.41,0.475253
4786.83,0.475305
4791.25,0.475261
4795.68,0.475327
4800.13,0.475407
4804.57,0.475548
4809.03,0.475599
4813.5,0.475592
4817.97,0.475638
4822.45,0.475766
4826.94,0.475801
4831.44,0.475911
4835.95,0.47597
4840.46,0.475942
4844.99,0.475942
4849.52,0.476044
4854.06,0.476126
4858.61,0.47617
4863.17,0.476115
4867.73,0.476144
4872.31,0.476191
4876.89,0.47634
4881.48,0.476323
4886.08,0.476307
4890.69,0.476288
4895.31,0.476248
4899.94,0.476213
4904.57,0.476254
4909.22,0.476251
4913.87,0.476345
4918.53,0.476393
4923.21,0.47634
4927.88,0.476193
4932.57,0.47624
4937.27,0.476282
4941.98,0.476296
4946.69,0.476355
4951.42,0.476358
4956.15,0.476199
4960.9,0.4762
4965.65,0.476251
4970.41,0.476243
4975.18,0.476205
4979.96,0.476272
4984.75,0.476268
4989.54,0.476184
4994.35,0.476078
4999.17,0.476158
5003.99,0.476102
5008.83,0.476099
5013.67,0.476004
5018.52,0.47584
5023.39,0.475801
5028.26,0.475759
5033.14,0.475665
5038.03,0.475759
5042.93,0.475652
5047.84,0.475547
5052.76,0.475545
5057.69,0.475528
5062.63,0.475492
5067.58,0.475559
5072.54,0.475494
5077.51,0.47541
5082.49,0.475231
5087.47,0.475281
5092.47,0.475293
5097.48,0.47532
5102.5,0.475178
5107.52,0.47508
5112.56,0.47502
5117.61,0.474968
5122.66,0.47489
5127.73,0.474777
5132.81,0.474687
5137.89,0.474753
5142.99,0.474697
5148.1,0.474603
5153.22,0.474558
5158.34,0.47452
5163.48,0.47441
5168.63,0.474374
5173.79,0.474265
5178.96,0.474217
5184.13,0.474184
5189.32,0.474089
5194.52,0.474023
5199.73,0.474033
5204.96,0.473932
5210.19,0.473832
5215.43,0.473706
5220.68,0.473686
5225.94,0.473407
5231.22,0.473324
5236.5,0.473244
5241.79,0.473144
5247.1,0.472919
5252.42,0.47288
5257.74,0.472805
5263.08,0.472732
5268.43,0.472623
5273.79,0.472558
5279.16,0.472424
5284.54,0.472414
5289.93,0.472166
5295.34,0.472031
5300.75,0.471862
5306.18,0.471732
5311.61,0.47159
5317.06,0.471519
5322.52,0.471317
5327.99,0.471263
5333.47,0.471126
5338.96,0.470918
5344.47,0.470697
5349.98,0.470572
5355.51,0.470476
5361.05,0.47033
5366.6,0.470053
5372.16,0.469924
5377.73,0.469796
5383.32,0.469656
5388.91,0.46944
5394.52,0.469312
5400.14,0.469187
5405.77,0.469083
5411.41,0.468837
5417.07,0.468623
5422.74,0.468211
5428.41,0.46826
5434.1,0.468177
5439.81,0.46806
5445.52,0.467835
5451.25,0.467703
5456.98,0.467496
5462.73,0.467253
5468.5,0.467012
5474.27,0.466941
5480.06,0.466664
5485.86,0.466609
5491.67,0.466413
5497.49,0.466115
5503.33,0.465827
5509.18,0.465675
5515.04,0.465402
5520.91,0.465225
5526.8,0.46501
5532.69,0.464809
5538.61,0.464546
5544.53,0.464387
5550.47,0.464128
5556.41,0.463954
5562.38,0.463657
5568.35,0.463433
5574.34,0.463129
5580.34,0.462894
5586.35,0.462821
5592.38,0.462682
5598.42,0.462228
5604.47,0.461918
5610.54,0.461719
5616.61,0.461553
5622.71,0.46128
5628.81,0.46099
5634.93,0.460616
5641.06,0.460218
5647.21,0.459897
5653.36,0.459754
5659.54,0.459442
5665.72,0.459349
5671.92,0.459002
5678.13,0.458831
5684.36,0.458618
5690.6,0.458339
5696.85,0.458024
5703.12,0.457861
5709.4,0.457343
5715.69,0.457242
5722.0,0.456964
5728.33,0.456553
5734.66,0.456118
5741.01,0.455854
5747.38,0.455234
5753.76,0.454806
5760.15,0.45423
5766.56,0.453571
5772.98,0.453359
5779.41,0.453155
5785.86,0.452401
5792.33,0.451787
5798.81,0.45113
5805.3,0.45042
5811.81,0.449551
5818.33,0.448631
5824.87,0.44774
5831.42,0.447154
5837.99,0.446037
5844.57,0.445049
5851.17,0.443838
5857.78,0.442592
5864.41,0.441046
5871.05,0.439616
5877.7,0.437793
5884.38,0.436195
5891.06,0.434671
5897.76,0.433076
5904.48,0.431466
5911.21,0.430006
5917.96,0.428366
5924.73,0.42693
5931.5,0.425168
5938.3,0.423532
5945.11,0.422327
5951.93,0.421119
5958.78,0.419565
5965.63,0.418129
5972.51,0.416764
5979.39,0.41557
5986.3,0.414257
5993.22,0.413168
6000.16,0.412139
6007.11,0.411213
6014.08,0.410132
6021.06,0.409576
6028.06,0.408832
6035.08,0.408247
6042.12,0.407564
6049.17,0.406846
6056.23,0.406813
6063.32,0.406803
6070.42,0.406017
6077.53,0.405967
6084.67,0.406201
6091.82,0.406114
6098.98,0.405903
6106.17,0.405804
6113.37,0.405419
6120.58,0.405479
6127.82,0.405419
6135.07,0.405146
6142.34,0.404783
6149.63,0.404554
6156.93,0.404069
6164.25,0.403699
6171.59,0.403335
6178.95,0.402781
6186.32,0.402039
6193.71,0.401721
6201.12,0.401173
6208.54,0.400575
6215.99,0.399805
6223.45,0.399212
6230.93,0.39853
6238.43,0.397878
6245.95,0.397073
6253.48,0.396381
6261.03,0.395611
6268.6,0.394912
6276.19,0.394104
6283.8,0.393459
6291.43,0.392706
6299.07,0.391993
6306.73,0.391223
6314.42,0.390684
6322.12,0.389957
6329.84,0.389293
6337.57,0.388508
6345.33,0.387882
6353.11,0.387503
6360.9,0.387072
6368.72,0.386372
6376.55,0.385967
6384.4,0.385463
6392.27,0.384894
6400.17,0.384237
6408.08,0.383365
6416.01,0.382516
6423.96,0.3823
6431.93,0.381646
6439.92,0.380846
6447.93,0.37997
6455.96,0.379123
6464.01,0.378122
6472.08,0.377265
6480.17,0.376325
6488.28,0.375384
6496.41,0.374357
6504.56,0.373796
6512.73,0.372897
6520.92,0.371893
6529.14,0.371122
6537.37,0.370482
6545.63,0.369378
6553.9,0.368402
6562.2,0.367494
6570.51,0.366519
6578.85,0.365521
6587.21,0.364637
6595.59,0.363508
6603.99,0.362526
6612.42,0.361263
6620.86,0.360235
6629.33,0.3591
6637.82,0.358233
6646.33,0.357317
6654.86,0.356403
6663.41,0.35521
6671.99,0.354049
6680.59,0.352808
6689.21,0.351781
6697.85,0.350413
6706.51,0.34905
6715.2,0.347707
6723.91,0.346613
6732.64,0.345161
6741.4,0.343696
6750.18,0.342094
6758.98,0.340657
6767.8,0.339015
6776.65,0.337457
6785.52,0.335755
6794.41,0.334134
6803.33,0.332231
6812.27,0.330629
6821.23,0.329058
6830.22,0.327684
6839.23,0.326207
6848.26,0.324833
6857.32,0.323313
6866.4,0.322053
6875.51,0.320613
6884.64,0.319308
6893.8,0.317869
6902.98,0.316517
6912.18,0.315197
6921.41,0.314017
6930.66,0.312704
6939.94,0.311512
6949.24,0.310069
6958.57,0.308852
6967.92,0.307612
6977.3,0.30658
6986.7,0.305387
6996.13,0.304348
7005.59,0.303227
7015.07,0.302362
7024.57,0.30156
7034.1,0.300974
7043.66,0.300356
7053.25,0.300106
7062.85,0.299623
7072.49,0.299159
7082.15,0.298701
7091.84,0.298521
7101.55,0.298359
7111.3,0.298325
7121.06,0.298256
7130.86,0.298352
7140.68,0.298323
7150.53,0.298497
7160.41,0.298573
7170.31,0.298753
7180.24,0.298878
7190.2,0.2991
7200.19,0.299192
7210.2,0.299284
7220.24,0.299341
7230.31,0.29947
7240.41,0.299456
7250.54,0.299553
7260.69,0.299531
7270.88,0.299507
7281.09,0.299397
7291.33,0.299313
7301.6,0.298978
7311.9,0.298747
7322.22,0.29855
7332.58,0.298334
7342.97,0.29797
7353.38,0.297628
7363.83,0.297133
7374.3,0.296667
7384.81,0.296027
7395.34,0.295365
7405.91,0.294663
7416.5,0.294078
7427.13,0.293304
7437.78,0.292431
7448.47,0.291392
7459.19,0.290476
7469.94,0.289472
7480.71,0.288461
7491.52,0.28727
7502.37,0.286187
7513.24,0.284942
7524.14,0.283735
7535.08,0.282422
7546.05,0.281094
7557.05,0.279622
7568.08,0.278257
7579.15,0.276741
7590.24,0.275302
7601.37,0.273709
7612.53,0.27219
7623.73,0.270535
7634.96,0.268989
7646.22,0.267238
7657.51,0.265586
7668.84,0.263902
7680.2,0.262195
7691.59,0.260372
7703.02,0.258632
7714.49,0.256683
7725.98,0.254877
7737.52,0.252976
7749.08,0.251152
7760.68,0.249221
7772.32,0.247368
7783.99,0.245373
7795.69,0.243543
7807.43,0.241612
7819.21,0.239767
7831.02,0.237888
7842.87,0.236147
7854.75,0.234235
7866.67,0.23252
7878.62,0.230847
7890.62,0.229291
7902.64,0.227589
7914.71,0.225955
7926.81,0.224175
7938.95,0.222574
7951.13,0.2207
7963.34,0.218982
7975.59,0.217207
7987.88,0.215664
8000.21,0.213933
8012.57,0.212208
8024.98,0.210471
8037.42,0.208927
8049.9,0.207079
8062.42,0.20541
8074.98,0.203684
8087.57,0.202063
8100.21,0.20021
8112.89,0.198497
8125.6,0.196623
8138.36,0.194918
8151.16,0.193087
8163.99,0.191434
8176.87,0.189651
8189.79,0.18811
8202.75,0.186277
8215.75,0.184578
8228.79,0.182744
8241.87,0.181011
8254.99,0.179132
8268.16,0.177463
8281.37,0.17557
8294.62,0.173908
8307.91,0.172089
8321.24,0.170321
8334.62,0.168382
8348.04,0.166651
8361.51,0.16478
8375.02,0.163192
8388.57,0.161329
8402.16,0.159643
8415.8,0.157796
8429.49,0.156119
8443.22,0.154305
8456.99,0.15266
8470.81,0.150857
8484.67,0.149217
8498.58,0.147419
8512.54,0.145805
8526.54,0.144045
8540.58,0.142475
8554.68,0.140738
8568.82,0.139176
8583.0,0.137428
8597.24,0.135779
8611.52,0.134039
8625.85,0.13259
8640.23,0.131028
8654.65,0.129742
8669.12,0.128232
8683.64,0.126922
8698.21,0.125399
8712.83,0.124051
8727.5,0.122589
8742.22,0.121318
8756.99,0.119805
8771.8,0.118521
8786.67,0.117092
8801.59,0.115969
8816.56,0.11448
8831.58,0.113227
8846.65,0.111806
8861.77,0.110666
8876.94,0.109347
8892.17,0.108335
8907.45,0.106905
8922.78,0.10561
8938.16,0.104234
8953.6,0.103165
8969.09,0.101872
8984.64,0.100731
9000.23,0.099288
9015.89,0.098087
9031.59,0.096586
9047.36,0.095305
9063.17,0.093719
9079.05,0.09253
9094.97,0.091007
9110.96,0.089848
9127.0,0.088464
9143.1,0.087336
9159.25,0.085878
9175.46,0.084581
9191.73,0.083144
9208.06,0.08194
9224.44,0.080372
9240.88,0.079165
9257.38,0.077801
9273.94,0.076514
9290.56,0.074824
9307.24,0.07353
9323.98,0.072039
9340.78,0.07078
9357.64,0.069347
9374.57,0.068093
9391.55,0.066644
9408.59,0.065309
9425.7,0.063707
9442.87,0.062488
9460.1,0.060937
9477.4,0.059619
9494.75,0.058101
9512.17,0.056899
9529.66,0.055284
9547.21,0.053923
9564.83,0.052331
9582.5,0.05096
9600.25,0.049487
9618.06,0.048261
9635.94,0.046659
9653.88,0.045388
9671.89,0.043954
9689.97,0.042788
9708.12,0.041279
9726.33,0.040005
9744.62,0.038582
9762.97,0.037507
9781.39,0.0361
9799.88,0.034839
9818.44,0.033353
9837.07,0.032207
9855.77,0.031048
9874.54,0.029976
9893.39,0.028681
9912.3,0.027717
9931.29,0.026387
9950.36,0.025457
9969.49,0.024393
9988.7,0.023411
10007.98,0.022293
10027.34,0.021477
10046.77,0.020458
10066.28,0.019656
10085.87,0.018577
10105.53,0.017843
10125.26,0.016823
10145.08,0.016091
10164.97,0.015238
10184.94,0.014561
10204.99,0.013659
10225.12,0.013047
10245.33,0.012187
10265.61,0.01162
10285.98,0.010845
10306.43,0.010322
10326.96,0.009627
10347.57,0.009142
10368.27,0.008544
10389.05,0.008385
10409.91,0.007883
10430.86,0.007618
10451.88,0.007326
10473.0,0.007313
10494.2,0.006821
10515.49,0.006547
10536.86,0.006274
10558.32,0.006405
10579.87,0.006299
10601.5,0.006651
10623.23,0.006659
10645.04,0.006862
10666.94,0.007047
10688.94,0.007616
10711.02,0.008054
10733.2,0.008721
10755.47,0.009286
10777.83,0.010346
10800.28,0.011187
10822.83,0.012549
10845.47,0.013863
10868.21,0.015461
10891.04,0.016925
10913.97,0.01883
10936.99,0.020759
10960.12,0.023034
10983.34,0.025099
11006.66,0.027518
11030.07,0.029889
11053.59,0.032733
11077.21,0.035545
11100.93,0.038575
11124.75,0.041426
11148.68,0.044615
11172.71,0.047676
11196.84,0.051093
11221.07,0.054512
11245.41,0.058093
11269.86,0.061326
11294.41,0.064907
11319.07,0.068441
11343.84,0.072174
11368.72,0.075672
11393.7,0.079254
11418.8,0.082539
11444.01,0.085905
11469.33,0.089172
11494.76,0.09262
11520.3,0.095499
11545.96,0.098503
11571.73,0.101291
11597.62,0.104007
11623.62,0.106424
11649.74,0.108949
11675.98,0.111075
11702.34,0.113148
11728.81,0.114861
11755.41,0.116269
11782.13,0.117383
11808.96,0.118567
11835.92,0.119083
11863.01,0.119329
11890.22,0.119051
11917.55,0.118916
11945.01,0.118466
11972.6,0.117871
12000.31,0.116834
12028.16,0.115843
12056.13,0.11457
12084.23,0.11358
12112.46,0.112539
12140.83,0.11128
12169.33,0.109747
12197.96,0.108643
12226.73,0.107352
12255.64,0.106102
12284.68,0.104999
12313.86,0.104044
12343.18,0.102852
12372.64,0.101803
12402.24,0.100776
12431.98,0.100142
12461.86,0.099453
12491.89,0.099031
12522.07,0.098557
12552.38,0.098474
12582.85,0.098408
12613.47,0.098444
12644.23,0.098467
12675.15,0.098974
12706.21,0.099356
12737.43,0.0998
12768.81,0.100052
12800.33,0.100762
12832.02,0.101412
12863.86,0.10213
12895.86,0.10262
12928.02,0.103533
12960.34,0.104167
12992.82,0.104959
13025.46,0.105674
13058.27,0.10659
13091.25,0.1074
13124.39,0.108522
13157.7,0.109486
13191.18,0.110522
13224.83,0.111276
13258.66,0.112427
13292.65,0.113072
13326.83,0.113802
13361.17,0.114465
13395.7,0.115162
13430.4,0.115722
13465.29,0.116488
13500.35,0.116747
13535.6,0.117251
13571.03,0.117705
13606.65,0.118189
13642.46,0.118528
13678.46,0.118716
13714.64,0.118834
13751.02,0.119215
13787.59,0.119063
13824.36,0.119033
13861.32,0.118913
13898.49,0.118701
13935.85,0.118321
13973.41,0.118038
14011.17,0.117331
14049.15,0.11684
14087.32,0.116121
14125.71,0.115547
14164.3,0.114886
14203.11,0.114529
14242.13,0.113872
14281.36,0.113391
14320.81,0.112708
14360.49,0.112206
14400.38,0.111434
14440.49,0.110874
14480.82,0.110112
14521.39,0.108987
14562.18,0.107667
14603.2,0.106499
14644.45,0.104945
14685.93,0.103398
14727.66,0.101611
14769.62,0.099919
14811.81,0.098183
14854.25,0.096447
14896.94,0.094288
14939.87,0.092724
14983.05,0.09092
15026.48,0.089152
15070.16,0.087438
15114.1,0.085441
15158.29,0.083325
15202.74,0.082017
15247.46,0.08023
15292.43,0.078698
15337.68,0.077207
15383.19,0.075638
15428.97,0.073459
15475.03,0.071793
15521.36,0.069925
15567.97,0.067823
15614.87,0.065662
15662.04,0.063949
15709.5,0.061904
15757.25,0.060046
15805.29,0.058047
15853.62,0.056404
15902.26,0.054471
15951.19,0.052877
16000.42,0.05176
16049.95,0.051406
16099.8,0.050248
16149.95,0.049494
16200.42,0.049078
16251.21,0.048856
16302.31,0.048379
16353.74,0.048369
16405.49,0.048355
16457.57,0.049141
16509.98,0.049536
16562.73,0.050064
16615.82,0.050392
16669.24,0.051384
16723.02,0.052057
16777.14,0.052946
16831.61,0.053675
16886.43,0.05459
16941.62,0.055681
16997.16,0.057336
17053.08,0.058342
17109.36,0.059949
17166.01,0.061596
17223.04,0.063264
17280.45,0.064773
17338.24,0.066686
17396.43,0.068105
17455.0,0.069946
17513.97,0.071666
17573.34,0.073534
17633.11,0.075139
17693.29,0.076085
17753.89,0.076773
17814.9,0.078342
17876.33,0.079233
17938.18,0.080159
18000.47,0.080628
18063.19,0.081269
18126.35,0.082128
18189.95,0.083763
18254.0,0.085239
18318.5,0.0869
18383.46,0.08813
18448.88,0.089723
18514.77,0.091345
18581.13,0.093595
18647.97,0.095368
18715.29,0.097295
18783.1,0.098972
18851.4,0.100787
18920.2,0.101876
18989.51,0.103267
19059.32,0.104246
19129.65,0.105323
19200.5,0.105752
19271.88,0.106289
19343.79,0.106254
19416.24,0.106681
19489.23,0.106829
19562.77,0.106995
19636.88,0.107132
19711.54,0.107478
19786.78,0.107043
19862.59,0.106365
19938.98,0.105749
20015.96,0.106478
20093.55,0.106389
20171.73,0.106336
20250.53,0.105338
20329.94,0.104601
20409.98,0.103344
20490.65,0.10271
20571.96,0.102007
20653.92,0.101661
20736.54,0.100341
20819.82,0.099658
20903.77,0.098394
20988.4,0.098109
21073.72,0.097273
21159.73,0.096439
21246.46,0.094617
21333.89,0.093487
21422.04,0.09197
21510.93,0.091255
21600.56,0.089521
21690.94,0.088938
21782.08,0.087362
21873.99,0.085947
21966.67,0.085054
22060.15,0.084024
22154.42,0.082732
22249.51,0.082719
22345.41,0.081369
22442.14,0.081566
22539.72,0.081009
22638.14,0.079936
22737.43,0.079622
22837.6,0.080573
22938.65,0.079064
23040.6,0.077009
23143.46,0.075741
23247.24,0.076043
23351.96,0.075663
23457.63,0.075136
23564.25,0.073938
23671.85,0.075073
23780.44,0.072715
23890.02,0.072277
24000.63,0.071839
24112.26,0.071295
24224.93,0.069479
24338.66,0.069701
24453.47,0.07017
24569.36,0.069333
24686.36,0.067299
24804.47,0.067496
24923.73,0.066118
25044.13,0.066848
25165.71,0.063031
25288.46,0.061364
25412.43,0.062435
25537.61,0.064014
25664.04,0.061367
25791.72,0.064991
25920.68,0.065501
