Database of Origin,University of Winnipeg Spectrophotometer Facility
Sample Description,Carbonaceous chondrites - RELAB archive 2. CM chondrites
Date Added,2018-07-23 23:44:50.648093

Data ID,RLA_MET_33_69       
Sample ID,Nogoya
Mineral Name,CM Chondrite
Grain Size,63-125 um
Viewing Geometry,30/0
Material Class,CM2.2

Wavelength
305.0,0.02328
310.0,0.024262
315.0,0.024501
320.0,0.025306
325.0,0.025818
330.0,0.026449
335.0,0.026503
340.0,0.027145
345.0,0.02697
350.0,0.027626
355.0,0.02833
360.0,0.029027
365.0,0.029692
370.0,0.030128
375.0,0.031147
380.0,0.031654
385.0,0.032423
390.0,0.032833
395.0,0.033237
400.0,0.033672
405.0,0.034235
410.0,0.034382
415.0,0.034595
420.0,0.035088
425.0,0.035531
430.0,0.035931
435.0,0.036165
440.0,0.036487
445.0,0.036792
450.0,0.03695
455.0,0.037223
460.0,0.037275
465.0,0.037478
470.0,0.037763
475.0,0.038158
480.0,0.038362
485.0,0.038471
490.0,0.038793
495.0,0.038888
500.0,0.039223
505.0,0.039387
510.0,0.03965
515.0,0.039868
520.0,0.040049
525.0,0.04034
530.0,0.040377
535.0,0.040463
540.0,0.040576
545.0,0.040604
550.0,0.040641
555.0,0.040575
560.0,0.040548
565.0,0.040529
570.0,0.040485
575.0,0.040393
580.0,0.04034
585.0,0.040306
590.0,0.040303
595.0,0.040249
600.0,0.040136
605.0,0.040188
610.0,0.040146
615.0,0.040189
620.0,0.040095
625.0,0.040085
630.0,0.040098
635.0,0.039989
640.0,0.039985
645.0,0.039841
650.0,0.039767
655.0,0.039664
660.0,0.039535
665.0,0.03947
670.0,0.039274
675.0,0.039158
680.0,0.039196
685.0,0.039042
690.0,0.039001
695.0,0.038844
700.0,0.038819
705.0,0.038684
710.0,0.038527
715.0,0.038309
720.0,0.03836
725.0,0.038251
730.0,0.038234
735.0,0.038243
740.0,0.038267
745.0,0.038216
750.0,0.03824
755.0,0.038327
760.0,0.038415
765.0,0.038147
770.0,0.038209
775.0,0.038285
780.0,0.03848
785.0,0.038474
790.0,0.038392
795.0,0.038229
800.0,0.038589
805.0,0.038412
810.0,0.03849
815.0,0.038275
820.0,0.03824
825.0,0.038325
830.0,0.038377
835.0,0.038273
840.0,0.038378
845.0,0.038173
850.0,0.038411
855.0,0.03827
860.0,0.037716
865.0,0.037908
870.0,0.038183
875.0,0.038117
880.0,0.037848
885.0,0.037973
890.0,0.037935
895.0,0.037867
900.0,0.037781
905.0,0.037802
910.0,0.037954
915.0,0.037678
920.0,0.037861
925.0,0.038026
930.0,0.037907
935.0,0.03782
940.0,0.03817
945.0,0.038351
950.0,0.038133
955.0,0.037931
960.0,0.038159
965.0,0.038074
970.0,0.037957
975.0,0.037895
980.0,0.037977
985.0,0.038035
990.0,0.037862
995.0,0.03799
1000.0,0.038137
1005.0,0.037992
1010.0,0.037864
1015.0,0.037797
1020.0,0.037909
1025.0,0.037899
1030.0,0.037873
1035.0,0.037945
1040.0,0.037824
1045.0,0.037722
1050.0,0.03788
1055.0,0.037755
1060.0,0.037979
1065.0,0.037796
1070.0,0.037547
1075.0,0.037628
1080.0,0.037429
1085.0,0.037548
1090.0,0.037531
1095.0,0.037448
1100.0,0.03745
1105.0,0.037447
1110.0,0.037473
1115.0,0.037421
1120.0,0.037374
1125.0,0.037386
1130.0,0.037358
1135.0,0.037222
1140.0,0.03727
1145.0,0.037119
1150.0,0.03734
1155.0,0.037366
1160.0,0.037343
1165.0,0.037283
1170.0,0.037236
1175.0,0.037111
1180.0,0.037287
1185.0,0.037077
1190.0,0.037181
1195.0,0.037097
1200.0,0.037164
1205.0,0.037543
1210.0,0.037446
1215.0,0.037539
1220.0,0.037487
1225.0,0.037445
1230.0,0.037449
1235.0,0.037441
1240.0,0.037602
1245.0,0.037439
1250.0,0.037216
1255.0,0.037048
1260.0,0.037333
1265.0,0.037212
1270.0,0.037368
1275.0,0.037258
1280.0,0.037069
1285.0,0.037072
1290.0,0.037398
1295.0,0.037375
1300.0,0.037279
1305.0,0.037346
1310.0,0.037135
1315.0,0.037259
1320.0,0.037282
1325.0,0.037165
1330.0,0.037359
1335.0,0.037141
1340.0,0.037265
1345.0,0.03726
1350.0,0.037152
1355.0,0.036946
1360.0,0.036853
1365.0,0.037343
1370.0,0.037263
1375.0,0.037129
1380.0,0.036626
1385.0,0.036995
1390.0,0.03672
1395.0,0.036496
1400.0,0.036697
1405.0,0.036796
1410.0,0.036938
1415.0,0.036748
1420.0,0.036638
1425.0,0.036774
1430.0,0.036636
1435.0,0.036894
1440.0,0.036897
1445.0,0.037026
1450.0,0.036913
1455.0,0.036956
1460.0,0.037006
1465.0,0.036982
1470.0,0.036908
1475.0,0.036508
1480.0,0.036518
1485.0,0.0367
1490.0,0.036564
1495.0,0.036588
1500.0,0.036539
1505.0,0.036698
1510.0,0.036808
1515.0,0.036654
1520.0,0.036788
1525.0,0.036846
1530.0,0.036761
1535.0,0.036707
1540.0,0.03686
1545.0,0.036735
1550.0,0.03679
1555.0,0.036757
1560.0,0.037212
1565.0,0.036957
1570.0,0.036678
1575.0,0.036627
1580.0,0.036593
1585.0,0.03662
1590.0,0.036648
1595.0,0.036365
1600.0,0.036468
1605.0,0.036491
1610.0,0.036247
1615.0,0.036288
1620.0,0.036274
1625.0,0.03639
1630.0,0.036254
1635.0,0.036174
1640.0,0.036189
1645.0,0.03618
1650.0,0.036341
1655.0,0.036238
1660.0,0.036141
1665.0,0.036549
1670.0,0.036454
1675.0,0.036429
1680.0,0.036447
1685.0,0.03652
1690.0,0.036213
1695.0,0.036554
1700.0,0.036399
1705.0,0.036427
1710.0,0.036391
1715.0,0.036293
1720.0,0.036225
1725.0,0.036264
1730.0,0.036199
1735.0,0.036283
1740.0,0.036163
1745.0,0.03624
1750.0,0.036183
1755.0,0.036185
1760.0,0.036207
1765.0,0.036243
1770.0,0.036232
1775.0,0.036103
1780.0,0.035976
1785.0,0.035913
1790.0,0.036016
1795.0,0.035801
1800.0,0.03591
1805.0,0.03573
1810.0,0.035756
1815.0,0.035811
1820.0,0.035831
1825.0,0.035851
1830.0,0.035891
1835.0,0.035749
1840.0,0.036069
1845.0,0.035709
1850.0,0.035933
1855.0,0.035807
1860.0,0.03591
1865.0,0.035316
1870.0,0.035252
1875.0,0.036166
1880.0,0.035617
1885.0,0.035529
1890.0,0.035467
1895.0,0.035274
1900.0,0.03526
1905.0,0.035505
1910.0,0.035386
1915.0,0.035428
1920.0,0.035272
1925.0,0.035373
1930.0,0.035346
1935.0,0.035251
1940.0,0.035165
1945.0,0.035137
1950.0,0.035147
1955.0,0.035102
1960.0,0.035123
1965.0,0.035138
1970.0,0.035116
1975.0,0.035006
1980.0,0.034983
1985.0,0.034976
1990.0,0.034845
1995.0,0.034954
2000.0,0.034893
2005.0,0.034956
2010.0,0.03488
2015.0,0.034893
2020.0,0.034821
2025.0,0.034796
2030.0,0.034742
2035.0,0.034719
2040.0,0.034618
2045.0,0.034679
2050.0,0.034628
2055.0,0.034564
2060.0,0.034458
2065.0,0.034458
2070.0,0.034518
2075.0,0.03436
2080.0,0.034423
2085.0,0.034556
2090.0,0.034272
2095.0,0.034173
2100.0,0.03435
2105.0,0.034507
2110.0,0.034285
2115.0,0.034234
2120.0,0.034138
2125.0,0.034137
2130.0,0.034173
2135.0,0.03405
2140.0,0.034089
2145.0,0.033962
2150.0,0.034002
2155.0,0.034086
2160.0,0.034053
2165.0,0.034042
2170.0,0.03415
2175.0,0.034036
2180.0,0.033997
2185.0,0.03402
2190.0,0.034074
2195.0,0.034055
2200.0,0.034071
2205.0,0.033998
2210.0,0.034043
2215.0,0.033937
2220.0,0.033989
2225.0,0.03402
2230.0,0.03392
2235.0,0.033912
2240.0,0.033767
2245.0,0.033781
2250.0,0.033602
2255.0,0.033838
2260.0,0.033695
2265.0,0.033615
2270.0,0.033543
2275.0,0.033523
2280.0,0.03357
2285.0,0.033487
2290.0,0.033506
2295.0,0.03349
2300.0,0.033174
2305.0,0.033164
2310.0,0.033076
2315.0,0.03301
2320.0,0.033101
2325.0,0.033029
2330.0,0.032988
2335.0,0.032929
2340.0,0.032908
2345.0,0.032806
2350.0,0.032801
2355.0,0.03283
2360.0,0.032805
2365.0,0.032751
2370.0,0.032758
2375.0,0.032624
2380.0,0.032481
2385.0,0.032602
2390.0,0.032601
2395.0,0.032458
2400.0,0.032411
2405.0,0.032367
2410.0,0.03243
2415.0,0.032383
2420.0,0.032812
2425.0,0.032854
2430.0,0.032835
2435.0,0.032749
2440.0,0.032713
2445.0,0.032692
2450.0,0.032596
2455.0,0.032681
2460.0,0.032549
2465.0,0.032573
2470.0,0.032423
2475.0,0.03265
2480.0,0.03245
2485.0,0.032406
2490.0,0.032511
2495.0,0.032427
2500.0,0.032201
2505.0,0.032255
2510.0,0.032275
2515.0,0.032246
2520.0,0.032293
2525.0,0.032202
2530.0,0.031912
2535.0,0.032445
2540.0,0.031927
2545.0,0.032057
2550.0,0.032167
2555.0,0.031934
2560.0,0.03106
2565.0,0.032998
2570.0,0.031629
2575.0,0.032263
2580.0,0.031366
2585.0,0.032287
2590.0,0.031391
2595.0,0.032892
2600.0,0.030936
