Database of Origin,University of Winnipeg Spectrophotometer Facility
Sample Description,RELAB plus Nicolet data. See HOSERLab website for further details
Date Added,2016-11-01 21:25:23.402974

Data ID,RLA_PER_04          
Sample ID,PER120
Mineral Name,perovskite
Grain Size,<45
Viewing Geometry,30/0;30
Resolution,5nm

Wavelength
300.0,0.038456
305.0,0.036118
310.0,0.037714
315.0,0.039302
320.0,0.042045
325.0,0.040674
330.0,0.042659
335.0,0.04348
340.0,0.043834
345.0,0.04455
350.0,0.045743
355.0,0.047618
360.0,0.05019
365.0,0.052801
370.0,0.05582
375.0,0.058159
380.0,0.061471
385.0,0.064502
390.0,0.067345
395.0,0.070572
400.0,0.07421
405.0,0.077258
410.0,0.078595
415.0,0.079779
420.0,0.080304
430.0,0.080306
435.0,0.079986
440.0,0.079156
445.0,0.078917
450.0,0.079888
455.0,0.081628
460.0,0.08275
465.0,0.083899
470.0,0.08453
475.0,0.085033
480.0,0.085368
485.0,0.085844
490.0,0.086295
495.0,0.086715
500.0,0.087417
505.0,0.088287
510.0,0.089205
515.0,0.090285
520.0,0.092148
525.0,0.092914
530.0,0.093661
535.0,0.0946
540.0,0.095449
545.0,0.096332
550.0,0.097225
555.0,0.097929
560.0,0.098788
565.0,0.099848
570.0,0.100304
575.0,0.10119
580.0,0.10216
585.0,0.103209
590.0,0.104359
595.0,0.105484
600.0,0.1066
605.0,0.107685
610.0,0.109307
615.0,0.110914
620.0,0.11254
625.0,0.114195
630.0,0.115923
635.0,0.11776
640.0,0.119739
645.0,0.121545
650.0,0.123559
655.0,0.125545
660.0,0.127488
665.0,0.129635
670.0,0.131763
675.0,0.134085
680.0,0.136247
685.0,0.138455
690.0,0.140918
695.0,0.143407
700.0,0.145688
705.0,0.148271
710.0,0.149906
715.0,0.152497
720.0,0.155111
725.0,0.158076
730.0,0.161086
735.0,0.163855
740.0,0.166709
745.0,0.169303
750.0,0.172384
755.0,0.17557
760.0,0.179139
765.0,0.182194
770.0,0.185411
775.0,0.188845
780.0,0.192204
785.0,0.195344
790.0,0.198854
795.0,0.202068
800.0,0.20534
805.0,0.208751
810.0,0.212365
815.0,0.215441
820.0,0.218775
825.0,0.22222
830.0,0.225552
835.0,0.228909
840.0,0.232389
845.0,0.235339
850.0,0.239225
855.0,0.241399
860.0,0.244767
865.0,0.248373
870.0,0.251415
875.0,0.255286
880.0,0.258123
885.0,0.260272
890.0,0.263824
895.0,0.267184
900.0,0.269893
905.0,0.272976
910.0,0.276241
915.0,0.279952
920.0,0.282476
925.0,0.286296
930.0,0.289353
935.0,0.292471
940.0,0.295682
945.0,0.298833
950.0,0.302047
955.0,0.305379
960.0,0.309073
965.0,0.311944
970.0,0.315301
975.0,0.318497
980.0,0.322167
985.0,0.325359
990.0,0.328666
995.0,0.331898
1000.0,0.334811
1005.0,0.338231
1010.0,0.341762
1015.0,0.345814
1020.0,0.348812
1025.0,0.352322
1030.0,0.355527
1035.0,0.358959
1040.0,0.361419
1045.0,0.364835
1050.0,0.368427
1055.0,0.371365
1060.0,0.37441
1065.0,0.377457
1070.0,0.38025
1075.0,0.383088
1080.0,0.38602
1085.0,0.389065
1090.0,0.392083
1095.0,0.394573
1100.0,0.397021
1105.0,0.399938
1110.0,0.402663
1115.0,0.40512
1120.0,0.407936
1125.0,0.410523
1130.0,0.412735
1135.0,0.415648
1140.0,0.418809
1145.0,0.42166
1150.0,0.424052
1155.0,0.426719
1160.0,0.429247
1165.0,0.431994
1170.0,0.43461
1175.0,0.437139
1180.0,0.439782
1185.0,0.442099
1190.0,0.445092
1195.0,0.446409
1200.0,0.449301
1205.0,0.45125
1210.0,0.453492
1215.0,0.455728
1220.0,0.457671
1225.0,0.459536
1230.0,0.461464
1235.0,0.46305
1240.0,0.464326
1245.0,0.465951
1250.0,0.467732
1255.0,0.468597
1260.0,0.469437
1265.0,0.470103
1270.0,0.470701
1275.0,0.471204
1280.0,0.471938
1285.0,0.471564
1290.0,0.471706
1295.0,0.471505
1300.0,0.472206
1305.0,0.470526
1310.0,0.469865
1315.0,0.469079
1320.0,0.468099
1325.0,0.466261
1330.0,0.464849
1335.0,0.463507
1340.0,0.460674
1345.0,0.459357
1350.0,0.4569
1355.0,0.454612
1360.0,0.451732
1365.0,0.448305
1370.0,0.445881
1375.0,0.443048
1380.0,0.441901
1385.0,0.436748
1390.0,0.434314
1395.0,0.430786
1400.0,0.427264
1405.0,0.422959
1410.0,0.418638
1415.0,0.415374
1420.0,0.41111
1425.0,0.407415
1430.0,0.403907
1435.0,0.399607
1440.0,0.395729
1445.0,0.391248
1450.0,0.386954
1455.0,0.38262
1460.0,0.378718
1465.0,0.374447
1470.0,0.370241
1475.0,0.366037
1480.0,0.361157
1485.0,0.357204
1490.0,0.352558
1495.0,0.348442
1500.0,0.344851
1505.0,0.340918
1510.0,0.336672
1515.0,0.332409
1520.0,0.328686
1525.0,0.324141
1530.0,0.32023
1535.0,0.316594
1540.0,0.312417
1545.0,0.308925
1550.0,0.305248
1555.0,0.301814
1560.0,0.297778
1565.0,0.294537
1570.0,0.290949
1575.0,0.287686
1580.0,0.283955
1585.0,0.279845
1590.0,0.277067
1595.0,0.273817
1600.0,0.270619
1605.0,0.267148
1610.0,0.264435
1615.0,0.261302
1620.0,0.257958
1625.0,0.254987
1630.0,0.252432
1635.0,0.249748
1640.0,0.24702
1645.0,0.244469
1650.0,0.241749
1655.0,0.239476
1660.0,0.236941
1665.0,0.234895
1670.0,0.232342
1675.0,0.229912
1680.0,0.227671
1685.0,0.225585
1690.0,0.22343
1695.0,0.22079
1700.0,0.219437
1705.0,0.217015
1710.0,0.2148
1715.0,0.212968
1720.0,0.211071
1725.0,0.209378
1730.0,0.207554
1735.0,0.20583
1740.0,0.20401
1745.0,0.202097
1750.0,0.20036
1755.0,0.198735
1760.0,0.197395
1765.0,0.195619
1770.0,0.194263
1775.0,0.192946
1780.0,0.191308
1785.0,0.189884
1790.0,0.189093
1795.0,0.187799
1800.0,0.186682
1805.0,0.185663
1810.0,0.184469
1815.0,0.183796
1820.0,0.182579
1825.0,0.181531
1830.0,0.180576
1835.0,0.179905
1840.0,0.178386
1845.0,0.177654
1850.0,0.176839
1855.0,0.176332
1860.0,0.175741
1865.0,0.175327
1870.0,0.174931
1875.0,0.173399
1880.0,0.173108
1885.0,0.17293
1890.0,0.172511
1895.0,0.172154
1900.0,0.171694
1905.0,0.17102
1910.0,0.170534
1915.0,0.170111
1920.0,0.16999
1925.0,0.169805
1930.0,0.169906
1935.0,0.169774
1940.0,0.169517
1945.0,0.169234
1950.0,0.169313
1955.0,0.169563
1960.0,0.169521
1965.0,0.169628
1970.0,0.169694
1975.0,0.169881
1980.0,0.169904
1985.0,0.170142
1990.0,0.170538
1995.0,0.170946
2000.0,0.171359
2005.0,0.171406
2010.0,0.172009
2015.0,0.17215
2020.0,0.172553
2025.0,0.173095
2030.0,0.173216
2035.0,0.173491
2040.0,0.173991
2045.0,0.174486
2050.0,0.174691
2055.0,0.17511
2060.0,0.17542
2065.0,0.175918
2070.0,0.176268
2075.0,0.176689
2080.0,0.177034
2085.0,0.177417
2090.0,0.177711
2095.0,0.178544
2100.0,0.178987
2105.0,0.179241
2110.0,0.179379
2115.0,0.180111
2120.0,0.180386
2125.0,0.180633
2130.0,0.1812
2135.0,0.181277
2140.0,0.181482
2145.0,0.182088
2150.0,0.182036
2155.0,0.182261
2160.0,0.182688
2165.0,0.182867
2170.0,0.183133
2175.0,0.183377
2180.0,0.183224
2185.0,0.183721
2190.0,0.183805
2195.0,0.184015
2200.0,0.184478
2205.0,0.184936
2210.0,0.185219
2215.0,0.185321
2220.0,0.185571
2225.0,0.185804
2230.0,0.186215
2235.0,0.186372
2240.0,0.187027
2245.0,0.187695
2250.0,0.188039
2255.0,0.188742
2260.0,0.189267
2265.0,0.189753
2270.0,0.190335
2275.0,0.190651
2280.0,0.191166
2285.0,0.192006
2290.0,0.19272
2295.0,0.193041
2300.0,0.194335
2305.0,0.194755
2310.0,0.195555
2315.0,0.196633
2320.0,0.197515
2325.0,0.198494
2330.0,0.19908
2335.0,0.200226
2340.0,0.201422
2345.0,0.20201
2350.0,0.203451
2355.0,0.204213
2360.0,0.205855
2365.0,0.206876
2370.0,0.20804
2375.0,0.209516
2380.0,0.210625
2385.0,0.212
2390.0,0.213924
2395.0,0.215436
2400.0,0.216852
2405.0,0.218914
2410.0,0.220522
2415.0,0.222048
2420.0,0.224252
2425.0,0.225543
2430.0,0.22783
2435.0,0.229613
2440.0,0.231697
2445.0,0.233999
2450.0,0.2356
2455.0,0.237954
2460.0,0.240287
2465.0,0.242978
2470.0,0.245157
2475.0,0.247568
2480.0,0.25035
2485.0,0.252912
2490.0,0.255455
2495.0,0.258366
2500.0,0.261654
2502.0,0.261579
2503.2,0.26197
2504.41,0.262763
2505.62,0.263631
2506.83,0.26459
2508.05,0.265092
2509.26,0.265712
2510.48,0.26618
2511.69,0.266646
2512.91,0.267023
2514.13,0.267843
2515.35,0.26888
2516.57,0.269603
2517.79,0.269907
2519.02,0.270677
2520.24,0.271558
2521.47,0.272538
2522.69,0.273024
2523.92,0.273529
2525.15,0.274292
2526.38,0.275021
2527.61,0.275563
2528.85,0.276497
2530.08,0.277338
2531.32,0.277753
2532.55,0.278242
2533.79,0.279226
2535.03,0.279805
2536.27,0.280073
2537.51,0.28098
2538.75,0.281894
2540.0,0.282442
2541.24,0.283139
2542.49,0.28358
2543.74,0.284316
2544.99,0.28537
2546.24,0.286506
2547.49,0.287394
2548.74,0.287873
2549.99,0.288542
2551.25,0.289709
2552.5,0.290686
2553.76,0.291224
2555.02,0.291556
2556.28,0.292535
2557.54,0.293341
2558.8,0.294262
2560.07,0.295243
2561.33,0.295336
2562.6,0.296047
2563.86,0.296731
2565.13,0.297758
2566.4,0.298663
2567.67,0.29974
2568.95,0.300509
2570.22,0.301143
2571.5,0.302171
2572.77,0.303004
2574.05,0.303733
2575.33,0.304878
2576.61,0.305828
2577.89,0.306205
2579.17,0.307186
2580.46,0.308313
2581.74,0.308918
2583.03,0.309494
2584.31,0.310276
2585.6,0.311377
2586.89,0.312706
2588.19,0.313383
2589.48,0.313911
2590.77,0.315215
2592.07,0.315833
2593.36,0.316095
2594.66,0.316607
2595.96,0.318174
2597.26,0.319663
2598.56,0.320774
2599.87,0.321614
2601.17,0.322297
2602.48,0.322985
2603.78,0.323728
2605.09,0.324403
2606.4,0.3255
2607.71,0.326206
2609.03,0.327021
2610.34,0.328497
2611.66,0.329571
2612.97,0.329941
2614.29,0.331275
2615.61,0.3323
2616.93,0.332828
2618.25,0.333971
2619.57,0.334933
2620.9,0.336222
2622.22,0.337281
2623.55,0.337957
2624.88,0.338789
2626.21,0.339522
2627.54,0.340943
2628.87,0.342054
2630.21,0.342501
2631.54,0.343473
2632.88,0.344645
2634.21,0.345302
2635.55,0.346327
2636.89,0.346944
2638.24,0.347856
2639.58,0.349053
2640.92,0.350037
2642.27,0.350719
2643.62,0.351613
2644.97,0.352359
2646.32,0.35298
2647.67,0.354082
2649.02,0.355455
2650.38,0.35632
2651.73,0.3569
2653.09,0.357334
2654.45,0.357951
2655.81,0.358793
2657.17,0.360181
2658.53,0.361414
2659.89,0.362273
2661.26,0.362727
2662.63,0.363438
2664.0,0.364255
2665.36,0.36527
2666.74,0.365802
2668.11,0.36707
2669.48,0.367511
2670.86,0.367925
2672.23,0.369425
2673.61,0.370465
2674.99,0.370982
2676.37,0.37164
2677.76,0.372584
2679.14,0.373519
2680.52,0.374825
2681.91,0.375411
2683.3,0.375839
2684.69,0.376738
2686.08,0.377559
2687.47,0.378211
2688.87,0.379128
2690.26,0.380077
2691.66,0.380709
2693.06,0.381021
2694.46,0.380752
2695.86,0.380628
2697.26,0.381267
2698.66,0.381583
2700.07,0.381192
2701.48,0.380925
2702.89,0.381145
2704.3,0.381037
2705.71,0.381157
2707.12,0.381409
2708.53,0.381451
2709.95,0.382099
2711.37,0.382883
2712.79,0.384258
2714.21,0.385695
2715.63,0.387
2717.05,0.38732
2718.48,0.388057
2719.9,0.388338
2721.33,0.388552
2722.76,0.388923
2724.19,0.389402
2725.62,0.389651
2727.06,0.390409
2728.49,0.391082
2729.93,0.391255
2731.37,0.39175
2732.81,0.392065
2734.25,0.391924
2735.69,0.391816
2737.14,0.391824
2738.58,0.391795
2740.03,0.391256
2741.48,0.390852
2742.93,0.391218
2744.38,0.391698
2745.83,0.391244
2747.29,0.390894
2748.75,0.390324
2750.2,0.38967
2751.66,0.389244
2753.13,0.38915
2754.59,0.388726
2756.05,0.388097
2757.52,0.387109
2758.99,0.386068
2760.46,0.385444
2761.93,0.384817
2763.4,0.383784
2764.87,0.383121
2766.35,0.382859
2767.82,0.382337
2769.3,0.381569
2770.78,0.380584
2772.26,0.379364
2773.75,0.378227
2775.23,0.376866
2776.72,0.375433
2778.21,0.374376
2779.7,0.373335
2781.19,0.372238
2782.68,0.371241
2784.18,0.370096
2785.67,0.368526
2787.17,0.36646
2788.67,0.364622
2790.17,0.362942
2791.67,0.361219
2793.18,0.359563
2794.68,0.358312
2796.19,0.357012
2797.7,0.355849
2799.21,0.354719
2800.72,0.354103
2802.24,0.353423
2803.75,0.352794
2805.27,0.352887
2806.79,0.353179
2808.31,0.353256
2809.83,0.353555
2811.35,0.354166
2812.88,0.354771
2814.41,0.354878
2815.93,0.355308
2817.46,0.356066
2819.0,0.356622
2820.53,0.356769
2822.07,0.357174
2823.6,0.357751
2825.14,0.358409
2826.68,0.359018
2828.22,0.359683
2829.77,0.360559
2831.31,0.361581
2832.86,0.36253
2834.41,0.363923
2835.96,0.365506
2837.51,0.366984
2839.07,0.368446
2840.62,0.369939
2842.18,0.371681
2843.74,0.373522
2845.3,0.374969
2846.86,0.376335
2848.43,0.377748
2849.99,0.379315
2851.56,0.380888
2853.13,0.3823
2854.7,0.383695
2856.27,0.384948
2857.85,0.385876
2859.42,0.386817
2861.0,0.38774
2862.58,0.388404
2864.16,0.389539
2865.75,0.390147
2867.33,0.390574
2868.92,0.391785
2870.51,0.392676
2872.1,0.393135
2873.69,0.394096
2875.28,0.395017
2876.88,0.395449
2878.48,0.395856
2880.07,0.39615
2881.68,0.39664
2883.28,0.397426
2884.88,0.397909
2886.49,0.398031
2888.1,0.398255
2889.71,0.398761
2891.32,0.399342
2892.93,0.399913
2894.55,0.400388
2896.16,0.400779
2897.78,0.40151
2899.4,0.401946
2901.03,0.402079
2902.65,0.402448
2904.28,0.402912
2905.91,0.403381
2907.54,0.403885
2909.17,0.404126
2910.8,0.40444
2912.44,0.404811
2914.07,0.404923
2915.71,0.405183
2917.35,0.405823
2918.99,0.406233
2920.64,0.406252
2922.29,0.406509
2923.93,0.406937
2925.58,0.407078
2927.24,0.407012
2928.89,0.407212
2930.55,0.407579
2932.2,0.407714
2933.86,0.408228
2935.52,0.408418
2937.19,0.408483
2938.85,0.408756
2940.52,0.409
2942.19,0.409233
2943.86,0.409553
2945.53,0.409815
2947.21,0.410003
2948.88,0.410336
2950.56,0.410787
2952.24,0.411042
2953.92,0.410953
2955.61,0.411241
2957.29,0.411573
2958.98,0.411665
2960.67,0.412127
2962.36,0.412229
2964.06,0.412171
2965.75,0.41241
2967.45,0.412908
2969.15,0.41335
2970.85,0.413558
2972.55,0.413961
2974.26,0.414027
2975.97,0.414203
2977.68,0.414761
2979.39,0.414832
2981.1,0.414958
2982.82,0.414992
2984.53,0.415081
2986.25,0.415306
2987.97,0.415527
2989.7,0.41564
2991.42,0.415941
2993.15,0.416355
2994.88,0.416782
2996.61,0.417109
2998.34,0.417477
3000.08,0.417597
3001.82,0.417794
3003.55,0.41815
3005.3,0.418575
3007.04,0.418819
3008.78,0.418887
3010.53,0.419183
3012.28,0.419551
3014.03,0.419747
3015.79,0.420038
3017.54,0.420234
3019.3,0.420384
3021.06,0.42034
3022.82,0.420526
3024.58,0.420837
3026.35,0.421144
3028.12,0.421495
3029.89,0.421713
3031.66,0.421823
3033.43,0.422271
3035.21,0.422478
3036.99,0.422824
3038.77,0.42299
3040.55,0.423099
3042.33,0.423244
3044.12,0.423443
3045.91,0.423663
3047.7,0.423857
3049.49,0.424023
3051.29,0.42436
3053.08,0.424664
3054.88,0.424929
3056.68,0.425092
3058.49,0.425407
3060.29,0.42559
3062.1,0.425845
3063.91,0.42608
3065.72,0.426235
3067.54,0.426533
3069.35,0.42706
3071.17,0.427286
3072.99,0.427341
3074.81,0.427322
3076.64,0.427537
3078.47,0.42791
3080.29,0.428303
3082.13,0.42844
3083.96,0.428756
3085.79,0.429052
3087.63,0.429208
3089.47,0.429433
3091.31,0.429727
3093.16,0.429944
3095.01,0.429988
3096.85,0.430111
3098.71,0.430347
3100.56,0.430531
3102.41,0.430832
3104.27,0.431333
3106.13,0.431659
3107.99,0.431848
3109.86,0.432152
3111.73,0.432359
3113.59,0.432607
3115.47,0.432691
3117.34,0.433006
3119.21,0.433029
3121.09,0.433208
3122.97,0.433629
3124.86,0.433962
3126.74,0.434321
3128.63,0.434427
3130.52,0.434461
3132.41,0.434919
3134.3,0.435165
3136.2,0.435194
3138.1,0.435553
3140.0,0.43595
3141.9,0.436173
3143.81,0.436269
3145.71,0.436262
3147.62,0.436443
3149.54,0.436794
3151.45,0.437236
3153.37,0.437624
3155.29,0.437801
3157.21,0.437889
3159.13,0.438025
3161.06,0.438358
3162.99,0.438692
3164.92,0.438763
3166.85,0.438702
3168.79,0.438961
3170.72,0.439336
3172.67,0.439493
3174.61,0.439952
3176.55,0.440209
3178.5,0.440529
3180.45,0.440825
3182.4,0.44099
3184.36,0.441032
3186.32,0.441168
3188.27,0.44146
3190.24,0.441746
3192.2,0.442057
3194.17,0.442317
3196.14,0.442231
3198.11,0.442298
3200.08,0.44259
3202.06,0.442826
3204.04,0.442961
3206.02,0.443011
3208.0,0.443279
3209.99,0.44364
3211.98,0.443871
3213.97,0.44384
3215.96,0.443741
3217.96,0.444118
3219.96,0.444425
3221.96,0.444547
3223.96,0.444576
3225.97,0.444747
3227.98,0.444957
3229.99,0.445127
3232.0,0.445308
3234.02,0.445465
3236.04,0.445386
3238.06,0.4455
3240.08,0.445691
3242.11,0.445821
3244.14,0.445987
3246.17,0.44606
3248.2,0.446023
3250.24,0.446168
3252.28,0.446073
3254.32,0.446078
3256.37,0.446196
3258.41,0.44654
3260.46,0.446692
3262.51,0.44669
3264.57,0.446894
3266.63,0.446993
3268.69,0.447078
3270.75,0.447122
3272.81,0.447166
3274.88,0.447361
3276.95,0.447523
3279.02,0.447712
3281.1,0.447696
3283.18,0.447787
3285.26,0.447927
3287.34,0.448171
3289.43,0.448176
3291.51,0.448283
3293.61,0.448273
3295.7,0.448335
3297.8,0.448479
3299.9,0.448551
3302.0,0.448317
3304.1,0.448199
3306.21,0.448246
3308.32,0.448477
3310.43,0.448537
3312.55,0.448579
3314.66,0.448846
3316.79,0.449002
3318.91,0.44891
3321.03,0.449009
3323.16,0.449051
3325.29,0.448923
3327.43,0.448774
3329.57,0.448849
3331.71,0.448813
3333.85,0.448737
3335.99,0.448587
3338.14,0.448487
3340.29,0.448409
3342.45,0.448194
3344.6,0.447875
3346.76,0.44767
3348.92,0.447266
3351.09,0.447093
3353.26,0.446878
3355.43,0.446385
3357.6,0.44596
3359.78,0.44561
3361.96,0.445172
3364.14,0.444817
3366.32,0.444239
3368.51,0.443444
3370.7,0.442666
3372.89,0.442123
3375.09,0.441737
3377.29,0.441368
3379.49,0.441156
3381.69,0.440988
3383.9,0.441037
3386.11,0.441095
3388.32,0.441024
3390.54,0.441079
3392.76,0.440956
3394.98,0.440461
3397.21,0.439905
3399.43,0.439463
3401.66,0.438899
3403.9,0.438147
3406.13,0.437297
3408.37,0.436502
3410.61,0.435616
3412.86,0.435105
3415.11,0.434718
3417.36,0.434587
3419.61,0.434757
3421.87,0.435292
3424.13,0.435999
3426.39,0.436857
3428.66,0.437531
3430.93,0.438424
3433.2,0.438995
3435.48,0.439622
3437.76,0.440181
3440.04,0.440865
3442.32,0.441227
3444.61,0.441431
3446.9,0.441801
3449.19,0.442125
3451.49,0.442425
3453.79,0.442776
3456.09,0.442847
3458.4,0.443035
3460.7,0.442993
3463.02,0.443079
3465.33,0.443264
3467.65,0.443392
3469.97,0.443465
3472.29,0.443248
3474.62,0.442847
3476.95,0.442715
3479.29,0.442629
3481.62,0.442408
3483.96,0.442134
3486.3,0.442227
3488.65,0.442081
3491.0,0.441999
3493.35,0.441902
3495.71,0.441601
3498.07,0.441093
3500.43,0.440841
3502.79,0.44092
3505.16,0.441158
3507.53,0.441547
3509.91,0.442273
3512.29,0.443017
3514.67,0.443745
3517.05,0.444485
3519.44,0.445175
3521.83,0.445483
3524.23,0.445803
3526.62,0.446186
3529.02,0.446668
3531.43,0.447098
3533.83,0.447232
3536.24,0.44715
3538.66,0.44742
3541.08,0.447772
3543.5,0.44783
3545.92,0.447505
3548.35,0.447596
3550.78,0.44767
3553.21,0.447513
3555.65,0.44746
3558.09,0.447788
3560.53,0.447921
3562.98,0.447905
3565.43,0.447903
3567.88,0.447969
3570.34,0.447798
3572.8,0.447748
3575.27,0.447596
3577.73,0.447541
3580.2,0.447494
3582.68,0.447541
3585.16,0.447478
3587.64,0.447515
3590.12,0.447505
3592.61,0.447405
3595.1,0.447399
3597.6,0.447434
3600.09,0.447282
3602.6,0.447061
3605.1,0.446986
3607.61,0.447017
3610.12,0.44692
3612.64,0.44697
3615.16,0.446888
3617.68,0.446765
3620.21,0.446548
3622.74,0.446462
3625.27,0.446445
3627.81,0.446427
3630.35,0.446231
3632.89,0.446207
3635.44,0.446116
3637.99,0.446053
3640.54,0.445948
3643.1,0.445859
3645.66,0.445728
3648.23,0.445733
3650.8,0.445504
3653.37,0.445366
3655.95,0.445235
3658.53,0.44519
3661.11,0.445109
3663.7,0.445027
3666.29,0.444925
3668.89,0.44488
3671.48,0.444726
3674.09,0.444668
3676.69,0.444613
3679.3,0.444527
3681.91,0.444243
3684.53,0.444102
3687.15,0.444104
3689.78,0.444032
3692.4,0.443987
3695.04,0.443919
3697.67,0.443728
3700.31,0.443707
3702.95,0.443653
3705.6,0.443458
3708.25,0.443307
3710.91,0.443145
3713.56,0.442951
3716.23,0.44277
3718.89,0.442543
3721.56,0.442443
3724.23,0.442325
3726.91,0.442186
3729.59,0.442178
3732.28,0.442157
3734.97,0.44202
3737.66,0.441989
3740.36,0.441696
3743.06,0.441484
3745.76,0.4414
3748.47,0.441446
3751.18,0.441473
3753.9,0.441287
3756.62,0.441035
3759.34,0.44076
3762.07,0.440532
3764.8,0.440655
3767.54,0.440516
3770.28,0.440351
3773.02,0.440201
3775.77,0.440057
3778.52,0.439894
3781.28,0.439797
3784.04,0.439549
3786.8,0.439481
3789.57,0.439299
3792.34,0.439082
3795.12,0.439006
3797.9,0.439033
3800.69,0.438849
3803.47,0.438666
3806.27,0.438516
3809.06,0.43843
3811.86,0.438264
3814.67,0.438246
3817.48,0.438125
3820.29,0.437961
3823.11,0.437822
3825.93,0.437751
3828.76,0.437701
3831.59,0.437538
3834.42,0.437391
3837.26,0.437383
3840.1,0.437257
3842.95,0.437014
3845.8,0.436979
3848.65,0.437119
3851.51,0.436975
3854.38,0.436789
3857.24,0.436642
3860.12,0.436447
3862.99,0.436209
3865.87,0.436065
3868.76,0.435937
3871.65,0.435853
3874.54,0.435737
3877.44,0.43563
3880.34,0.435506
3883.25,0.43542
3886.16,0.435211
3889.07,0.435084
3891.99,0.43497
3894.92,0.434767
3897.85,0.434566
3900.78,0.43454
3903.72,0.434351
3906.66,0.434039
3909.6,0.433761
3912.55,0.433672
3915.51,0.433457
3918.47,0.433218
3921.43,0.432916
3924.4,0.432731
3927.38,0.432587
3930.35,0.432595
3933.33,0.432474
3936.32,0.432287
3939.31,0.431999
3942.31,0.431688
3945.31,0.43149
3948.31,0.431266
3951.32,0.431068
3954.34,0.431119
3957.35,0.431087
3960.38,0.430911
3963.41,0.430693
3966.44,0.430617
3969.48,0.430584
3972.52,0.430544
3975.56,0.430385
3978.61,0.430305
3981.67,0.430279
3984.73,0.430337
3987.8,0.430293
3990.87,0.430408
3993.94,0.43033
3997.02,0.430366
4000.1,0.430398
4003.19,0.430442
4006.29,0.43025
4009.39,0.430182
4012.49,0.430261
4015.6,0.430274
4018.71,0.430253
4021.83,0.430284
4024.95,0.430094
4028.08,0.4299
4031.21,0.429779
4034.35,0.429895
4037.49,0.429921
4040.64,0.429874
4043.79,0.429722
4046.94,0.429714
4050.11,0.429732
4053.27,0.429598
4056.44,0.429464
4059.62,0.429417
4062.8,0.429428
4065.99,0.42954
4069.18,0.429394
4072.38,0.429241
4075.58,0.429094
4078.78,0.428995
4082.0,0.428896
4085.21,0.429019
4088.43,0.429107
4091.66,0.429064
4094.89,0.429018
4098.13,0.42898
4101.37,0.42883
4104.62,0.428785
4107.87,0.428888
4111.13,0.428942
4114.39,0.428822
4117.66,0.428722
4120.93,0.428584
4124.21,0.428536
4127.5,0.428604
4130.79,0.428764
4134.08,0.428798
4137.38,0.428861
4140.68,0.428764
4143.99,0.428807
4147.31,0.428887
4150.63,0.42893
4153.95,0.428835
4157.29,0.428858
4160.62,0.428806
4163.96,0.42872
4167.31,0.428757
4170.66,0.428956
4174.02,0.428925
4177.39,0.428953
4180.75,0.429026
4184.13,0.429073
4187.51,0.429027
4190.89,0.429108
4194.28,0.429094
4197.68,0.42916
4201.08,0.429262
4204.49,0.429368
4207.9,0.429336
4211.32,0.429326
4214.74,0.429326
4218.17,0.429328
4221.61,0.429207
4225.05,0.429343
4228.5,0.429368
4231.95,0.429399
4235.4,0.429596
4238.87,0.42969
4242.34,0.429549
4245.81,0.429621
4249.29,0.42976
4252.78,0.429923
4256.27,0.429928
4259.77,0.430007
4263.27,0.429931
4266.78,0.429949
4270.29,0.430046
4273.81,0.430208
4277.34,0.43019
4280.87,0.430327
4284.41,0.43034
4287.95,0.430473
4291.5,0.4305
4295.06,0.430531
4298.62,0.430615
4302.19,0.430767
4305.76,0.430875
4309.34,0.431064
4312.92,0.431126
4316.52,0.431278
4320.11,0.431339
4323.72,0.431457
4327.32,0.431549
4330.94,0.431677
4334.56,0.431747
4338.19,0.431823
4341.82,0.431844
4345.46,0.432073
4349.11,0.432232
4352.76,0.432419
4356.42,0.432547
4360.08,0.432605
4363.75,0.432702
4367.43,0.432972
4371.11,0.433047
4374.8,0.433106
4378.49,0.433055
4382.19,0.433186
4385.9,0.433428
4389.61,0.433816
4393.33,0.433916
4397.06,0.433933
4400.79,0.433968
4404.53,0.434206
4408.28,0.434277
4412.03,0.434398
4415.79,0.434545
4419.55,0.43477
4423.32,0.434893
4427.1,0.434974
4430.88,0.435064
4434.68,0.435247
4438.47,0.43538
4442.28,0.435645
4446.08,0.435771
4449.9,0.435895
4453.72,0.435931
4457.55,0.436107
4461.39,0.43629
4465.23,0.436489
4469.08,0.43666
4472.94,0.436922
4476.8,0.436957
4480.67,0.437155
4484.55,0.437347
4488.43,0.437582
4492.32,0.437716
4496.21,0.437897
4500.12,0.437923
4504.03,0.438008
4507.94,0.438136
4511.87,0.438324
4515.8,0.438482
4519.73,0.438674
4523.68,0.438789
4527.63,0.438985
4531.59,0.43913
4535.55,0.439232
4539.52,0.439344
4543.5,0.439567
4547.49,0.439651
4551.48,0.439691
4555.48,0.4399
4559.49,0.440083
4563.5,0.440164
4567.52,0.440382
4571.55,0.44048
4575.58,0.440658
4579.63,0.440868
4583.67,0.441117
4587.73,0.441222
4591.79,0.441313
4595.86,0.441429
4599.94,0.441796
4604.03,0.441989
4608.12,0.442002
4612.22,0.44202
4616.33,0.442332
4620.44,0.442477
4624.56,0.442582
4628.69,0.442551
4632.83,0.442613
4636.97,0.442726
4641.12,0.442927
4645.28,0.443012
4649.45,0.443164
4653.62,0.443381
4657.8,0.443664
4661.99,0.443843
4666.19,0.444028
4670.39,0.444264
4674.6,0.444574
4678.82,0.444862
4683.05,0.445255
4687.28,0.445591
4691.52,0.445969
4695.77,0.446199
4700.03,0.446503
4704.3,0.446818
4708.57,0.447103
4712.85,0.447324
4717.14,0.447667
4721.43,0.447961
4725.74,0.448362
4730.05,0.44859
4734.37,0.448886
4738.7,0.44918
4743.03,0.449466
4747.38,0.449681
4751.73,0.449864
4756.09,0.449945
4760.45,0.450255
4764.83,0.450485
4769.21,0.450779
4773.6,0.450934
4778.0,0.451061
4782.41,0.451114
4786.83,0.451329
4791.25,0.451461
4795.68,0.451594
4800.13,0.451689
4804.57,0.451901
4809.03,0.452068
4813.5,0.452226
4817.97,0.452373
4822.45,0.452797
4826.94,0.453174
4831.44,0.453752
4835.95,0.454194
4840.46,0.454535
4844.99,0.454907
4849.52,0.455359
4854.06,0.455872
4858.61,0.456375
4863.17,0.456656
4867.73,0.45692
4872.31,0.45708
4876.89,0.457212
4881.48,0.457429
4886.08,0.457822
4890.69,0.458145
4895.31,0.458515
4899.94,0.458894
4904.57,0.459405
4909.22,0.45966
4913.87,0.459937
4918.53,0.460082
4923.21,0.460368
4927.88,0.460543
4932.57,0.460761
4937.27,0.460808
4941.98,0.460856
4946.69,0.460911
4951.42,0.460968
4956.15,0.460913
4960.9,0.460934
4965.65,0.4609
4970.41,0.460916
4975.18,0.460704
4979.96,0.460352
4984.75,0.459958
4989.54,0.459864
4994.35,0.459872
4999.17,0.460043
5003.99,0.460093
5008.83,0.460198
5013.67,0.460145
5018.52,0.459988
5023.39,0.459851
5028.26,0.459964
5033.14,0.460076
5038.03,0.460477
5042.93,0.461075
5047.84,0.461917
5052.76,0.462554
5057.69,0.463099
5062.63,0.46344
5067.58,0.463776
5072.54,0.463859
5077.51,0.463938
5082.49,0.463799
5087.47,0.463642
5092.47,0.46345
5097.48,0.463275
5102.5,0.462953
5107.52,0.462635
5112.56,0.462227
5117.61,0.461932
5122.66,0.461393
5127.73,0.460945
5132.81,0.460447
5137.89,0.460009
5142.99,0.459434
5148.1,0.458805
5153.22,0.457988
5158.34,0.457445
5163.48,0.456853
5168.63,0.456215
5173.79,0.455482
5178.96,0.454866
5184.13,0.454019
5189.32,0.453232
5194.52,0.452352
5199.73,0.451675
5204.96,0.450892
5210.19,0.450184
5215.43,0.449298
5220.68,0.44839
5225.94,0.447462
5231.22,0.446559
5236.5,0.4455
5241.79,0.444482
5247.1,0.4433
5252.42,0.442311
5257.74,0.441235
5263.08,0.440149
5268.43,0.438839
5273.79,0.437664
5279.16,0.436492
5284.54,0.43538
5289.93,0.434193
5295.34,0.433093
5300.75,0.43186
5306.18,0.430705
5311.61,0.429318
5317.06,0.428111
5322.52,0.426807
5327.99,0.425464
5333.47,0.424001
5338.96,0.422696
5344.47,0.421129
5349.98,0.419477
5355.51,0.417828
5361.05,0.416321
5366.6,0.414601
5372.16,0.412769
5377.73,0.410803
5383.32,0.408869
5388.91,0.406968
5394.52,0.405195
5400.14,0.403096
5405.77,0.400994
5411.41,0.398902
5417.07,0.396771
5422.74,0.394568
5428.41,0.392421
5434.1,0.390445
5439.81,0.388673
5445.52,0.386657
5451.25,0.384715
5456.98,0.382773
5462.73,0.380849
5468.5,0.378738
5474.27,0.376914
5480.06,0.375118
5485.86,0.373188
5491.67,0.371359
5497.49,0.369631
5503.33,0.367909
5509.18,0.366308
5515.04,0.364648
5520.91,0.363021
5526.8,0.361435
5532.69,0.359938
5538.61,0.358415
5544.53,0.356994
5550.47,0.35549
5556.41,0.353988
5562.38,0.3526
5568.35,0.351368
5574.34,0.350108
5580.34,0.349038
5586.35,0.348005
5592.38,0.347148
5598.42,0.346265
5604.47,0.345403
5610.54,0.344669
5616.61,0.344134
5622.71,0.343471
5628.81,0.342852
5634.93,0.342188
5641.06,0.341488
5647.21,0.340818
5653.36,0.340282
5659.54,0.33975
5665.72,0.339156
5671.92,0.338513
5678.13,0.337748
5684.36,0.337061
5690.6,0.336481
5696.85,0.335583
5703.12,0.334798
5709.4,0.333979
5715.69,0.333003
5722.0,0.332112
5728.33,0.331213
5734.66,0.330183
5741.01,0.329226
5747.38,0.328069
5753.76,0.327001
5760.15,0.325865
5766.56,0.324677
5772.98,0.323118
5779.41,0.322006
5785.86,0.320939
5792.33,0.319833
5798.81,0.318761
5805.3,0.317595
5811.81,0.316265
5818.33,0.315067
5824.87,0.313763
5831.42,0.312307
5837.99,0.311057
5844.57,0.31008
5851.17,0.309
5857.78,0.30773
5864.41,0.306278
5871.05,0.304989
5877.7,0.303843
5884.38,0.302529
5891.06,0.30108
5897.76,0.300238
5904.48,0.298978
5911.21,0.297905
5917.96,0.296855
5924.73,0.295686
5931.5,0.294605
5938.3,0.293549
5945.11,0.292236
5951.93,0.291358
5958.78,0.290589
5965.63,0.289688
5972.51,0.288789
5979.39,0.287845
5986.3,0.287105
5993.22,0.286278
6000.16,0.285569
6007.11,0.285058
6014.08,0.284686
6021.06,0.284241
6028.06,0.283973
6035.08,0.283918
6042.12,0.283968
6049.17,0.283882
6056.23,0.283941
6063.32,0.284314
6070.42,0.284686
6077.53,0.284977
6084.67,0.285734
6091.82,0.286736
6098.98,0.28796
6106.17,0.289373
6113.37,0.290877
6120.58,0.292574
6127.82,0.29459
6135.07,0.296475
6142.34,0.298427
6149.63,0.300349
6156.93,0.302183
6164.25,0.304026
6171.59,0.306132
6178.95,0.308071
6186.32,0.309956
6193.71,0.312025
6201.12,0.314098
6208.54,0.315949
6215.99,0.317938
6223.45,0.319883
6230.93,0.321834
6238.43,0.323812
6245.95,0.325732
6253.48,0.327596
6261.03,0.329635
6268.6,0.331655
6276.19,0.333713
6283.8,0.335667
6291.43,0.337706
6299.07,0.339708
6306.73,0.341719
6314.42,0.343674
6322.12,0.345531
6329.84,0.347285
6337.57,0.349125
6345.33,0.350674
6353.11,0.35239
6360.9,0.35399
6368.72,0.355343
6376.55,0.356554
6384.4,0.357815
6392.27,0.358826
6400.17,0.359657
6408.08,0.360182
6416.01,0.360543
6423.96,0.361091
6431.93,0.361767
6439.92,0.361985
6447.93,0.362059
6455.96,0.362082
6464.01,0.362037
6472.08,0.36176
6480.17,0.361215
6488.28,0.36069
6496.41,0.35998
6504.56,0.359327
6512.73,0.358793
6520.92,0.358
6529.14,0.356845
6537.37,0.355712
6545.63,0.354422
6553.9,0.353012
6562.2,0.351625
6570.51,0.350242
6578.85,0.348521
6587.21,0.346792
6595.59,0.345403
6603.99,0.343827
6612.42,0.342259
6620.86,0.340699
6629.33,0.339059
6637.82,0.337514
6646.33,0.335768
6654.86,0.334392
6663.41,0.333131
6671.99,0.331645
6680.59,0.330214
6689.21,0.328938
6697.85,0.327813
6706.51,0.326869
6715.2,0.325719
6723.91,0.32482
6732.64,0.323941
6741.4,0.322948
6750.18,0.321812
6758.98,0.320423
6767.8,0.318856
6776.65,0.317277
6785.52,0.315487
6794.41,0.313592
6803.33,0.311466
6812.27,0.309827
6821.23,0.308499
6830.22,0.307503
6839.23,0.306632
6848.26,0.305714
6857.32,0.304648
6866.4,0.303773
6875.51,0.303297
6884.64,0.303335
6893.8,0.30352
6902.98,0.30366
6912.18,0.303521
6921.41,0.303524
6930.66,0.303712
6939.94,0.303945
6949.24,0.304064
6958.57,0.304045
6967.92,0.303796
6977.3,0.303623
6986.7,0.303394
6996.13,0.302873
7005.59,0.30226
7015.07,0.301452
7024.57,0.300572
7034.1,0.299529
7043.66,0.298349
7053.25,0.297043
7062.85,0.295837
7072.49,0.294904
7082.15,0.293927
7091.84,0.293184
7101.55,0.292807
7111.3,0.292742
7121.06,0.292995
7130.86,0.293416
7140.68,0.293593
7150.53,0.293725
7160.41,0.293903
7170.31,0.294026
7180.24,0.29399
7190.2,0.294092
7200.19,0.294228
7210.2,0.294273
7220.24,0.294264
7230.31,0.294272
7240.41,0.294335
7250.54,0.294388
7260.69,0.294412
7270.88,0.294571
7281.09,0.294639
7291.33,0.294768
7301.6,0.294944
7311.9,0.295174
7322.22,0.295395
7332.58,0.295412
7342.97,0.295342
7353.38,0.295184
7363.83,0.295036
7374.3,0.294894
7384.81,0.294553
7395.34,0.294091
7405.91,0.29374
7416.5,0.293374
7427.13,0.292841
7437.78,0.292299
7448.47,0.291635
7459.19,0.290885
7469.94,0.290096
7480.71,0.289355
7491.52,0.288603
7502.37,0.287795
7513.24,0.286966
7524.14,0.286156
7535.08,0.285224
7546.05,0.284361
7557.05,0.283502
7568.08,0.282592
7579.15,0.281574
7590.24,0.280508
7601.37,0.27941
7612.53,0.278332
7623.73,0.277247
7634.96,0.276133
7646.22,0.275102
7657.51,0.273923
7668.84,0.27266
7680.2,0.271537
7691.59,0.270442
7703.02,0.269302
7714.49,0.268043
7725.98,0.266745
7737.52,0.265413
7749.08,0.264134
7760.68,0.262918
7772.32,0.261723
7783.99,0.26041
7795.69,0.259157
7807.43,0.258043
7819.21,0.256928
7831.02,0.255731
7842.87,0.254619
7854.75,0.253491
7866.67,0.25242
7878.62,0.25131
7890.62,0.250375
7902.64,0.249376
7914.71,0.248346
7926.81,0.247132
7938.95,0.245953
7951.13,0.2447
7963.34,0.243492
7975.59,0.242062
7987.88,0.240762
8000.21,0.239464
8012.57,0.238143
8024.98,0.236728
8037.42,0.235242
8049.9,0.23369
8062.42,0.23234
8074.98,0.230828
8087.57,0.2292
8100.21,0.227575
8112.89,0.225957
8125.6,0.22413
8138.36,0.222297
8151.16,0.220436
8163.99,0.218649
8176.87,0.216737
8189.79,0.214798
8202.75,0.212727
8215.75,0.210868
8228.79,0.208949
8241.87,0.207072
8254.99,0.205043
8268.16,0.203093
8281.37,0.201062
8294.62,0.199201
8307.91,0.197281
8321.24,0.195266
8334.62,0.193235
8348.04,0.191354
8361.51,0.189362
8375.02,0.187438
8388.57,0.185412
8402.16,0.183499
8415.8,0.181592
8429.49,0.179745
8443.22,0.177674
8456.99,0.175742
8470.81,0.173873
8484.67,0.172114
8498.58,0.170122
8512.54,0.168106
8526.54,0.166054
8540.58,0.164035
8554.68,0.161859
8568.82,0.159865
8583.0,0.157815
8597.24,0.155877
8611.52,0.153722
8625.85,0.151722
8640.23,0.149772
8654.65,0.148045
8669.12,0.146131
8683.64,0.144432
8698.21,0.1426
8712.83,0.140814
8727.5,0.138885
8742.22,0.137121
8756.99,0.135229
8771.8,0.133163
8786.67,0.131022
8801.59,0.129242
8816.56,0.127234
8831.58,0.125221
8846.65,0.12304
8861.77,0.121047
8876.94,0.118827
8892.17,0.116452
8907.45,0.113865
8922.78,0.111424
8938.16,0.108795
8953.6,0.105945
8969.09,0.102664
8984.64,0.099507
9000.23,0.096364
9015.89,0.093635
9031.59,0.090649
9047.36,0.087934
9063.17,0.08522
9079.05,0.082767
9094.97,0.080214
9110.96,0.077795
9127.0,0.075209
9143.1,0.07263
9159.25,0.069821
9175.46,0.067264
9191.73,0.064451
9208.06,0.061788
9224.44,0.059009
9240.88,0.056533
9257.38,0.054052
9273.94,0.05199
9290.56,0.050112
9307.24,0.048319
9323.98,0.046123
9340.78,0.044246
9357.64,0.042186
9374.57,0.040262
9391.55,0.038335
9408.59,0.036878
9425.7,0.035362
9442.87,0.034067
9460.1,0.032668
9477.4,0.031561
9494.75,0.030316
9512.17,0.02915
9529.66,0.027946
9547.21,0.026801
9564.83,0.025561
9582.5,0.024672
9600.25,0.0236
9618.06,0.022612
9635.94,0.021577
9653.88,0.020853
9671.89,0.019794
9689.97,0.018876
9708.12,0.017965
9726.33,0.017322
9744.62,0.016664
9762.97,0.016708
9781.39,0.017194
9799.88,0.018463
9818.44,0.020336
9837.07,0.023212
9855.77,0.026741
9874.54,0.030885
9893.39,0.035156
9912.3,0.040096
9931.29,0.045161
9950.36,0.050749
9969.49,0.056616
9988.7,0.063165
10007.98,0.069925
10027.34,0.077061
10046.77,0.08391
10066.28,0.089926
10085.87,0.094136
10105.53,0.096642
10125.26,0.097475
10145.08,0.09726
10164.97,0.096196
10184.94,0.095054
10204.99,0.093845
10225.12,0.092663
10245.33,0.091415
10265.61,0.090322
10285.98,0.088806
10306.43,0.087473
10326.96,0.086088
10347.57,0.084689
10368.27,0.083139
10389.05,0.081889
10409.91,0.080581
10430.86,0.079491
10451.88,0.078198
10473.0,0.077094
10494.2,0.07608
10515.49,0.075099
10536.86,0.073998
10558.32,0.073191
10579.87,0.072347
10601.5,0.071768
10623.23,0.071265
10645.04,0.070913
10666.94,0.070384
10688.94,0.069851
10711.02,0.069057
10733.2,0.068494
10755.47,0.068117
10777.83,0.067964
10800.28,0.067461
10822.83,0.067212
10845.47,0.066947
10868.21,0.066824
10891.04,0.066564
10913.97,0.066189
10936.99,0.065823
10960.12,0.06582
10983.34,0.065362
11006.66,0.064834
11030.07,0.064325
11053.59,0.063951
11077.21,0.063308
11100.93,0.062894
11124.75,0.062483
11148.68,0.062257
11172.71,0.061907
11196.84,0.061823
11221.07,0.061841
11245.41,0.061988
11269.86,0.061974
11294.41,0.062051
11319.07,0.061946
11343.84,0.061956
11368.72,0.06178
11393.7,0.061802
11418.8,0.061773
11444.01,0.061849
11469.33,0.061964
11494.76,0.06251
11520.3,0.063105
11545.96,0.063919
11571.73,0.0647
11597.62,0.065705
11623.62,0.066703
11649.74,0.06791
11675.98,0.069154
11702.34,0.070491
11728.81,0.071652
11755.41,0.072777
11782.13,0.073808
11808.96,0.075136
11835.92,0.076064
11863.01,0.076667
11890.22,0.077236
11917.55,0.078133
11945.01,0.078707
11972.6,0.079136
12000.31,0.079687
12028.16,0.080406
12056.13,0.080573
12084.23,0.080879
12112.46,0.081233
12140.83,0.081582
12169.33,0.08163
12197.96,0.081592
12226.73,0.081401
12255.64,0.081273
12284.68,0.081069
12313.86,0.081
12343.18,0.080728
12372.64,0.080411
12402.24,0.079939
12431.98,0.079459
12461.86,0.078866
12491.89,0.078358
12522.07,0.077689
12552.38,0.076951
12582.85,0.076012
12613.47,0.07527
12644.23,0.074365
12675.15,0.073666
12706.21,0.072872
12737.43,0.07202
12768.81,0.071053
12800.33,0.070405
12832.02,0.069568
12863.86,0.068897
12895.86,0.068339
12928.02,0.06777
12960.34,0.066842
12992.82,0.066116
13025.46,0.065238
13058.27,0.064674
13091.25,0.06394
13124.39,0.063409
13157.7,0.062892
13191.18,0.062258
13224.83,0.06139
13258.66,0.06079
13292.65,0.060081
13326.83,0.059442
13361.17,0.05874
13395.7,0.058137
13430.4,0.057274
13465.29,0.056375
13500.35,0.055322
13535.6,0.054514
13571.03,0.053668
13606.65,0.052719
13642.46,0.051656
13678.46,0.050635
13714.64,0.049353
13751.02,0.048249
13787.59,0.046973
13824.36,0.045945
13861.32,0.044813
13898.49,0.043966
13935.85,0.042927
13973.41,0.04205
14011.17,0.04092
14049.15,0.040267
14087.32,0.039688
14125.71,0.039467
14164.3,0.039346
14203.11,0.039316
14242.13,0.03935
14281.36,0.039683
14320.81,0.039869
14360.49,0.0404
14400.38,0.040906
14440.49,0.04137
14480.82,0.041645
14521.39,0.042185
14562.18,0.042543
14603.2,0.042957
14644.45,0.043391
14685.93,0.043871
14727.66,0.044079
14769.62,0.044445
14811.81,0.044543
14854.25,0.044807
14896.94,0.044852
14939.87,0.045049
14983.05,0.045185
15026.48,0.045491
15070.16,0.045913
15114.1,0.046606
15158.29,0.047017
15202.74,0.047636
15247.46,0.048212
15292.43,0.048475
15337.68,0.048897
15383.19,0.049712
15428.97,0.050205
15475.03,0.050584
15521.36,0.050548
15567.97,0.050698
15614.87,0.050765
15662.04,0.050875
15709.5,0.051001
15757.25,0.05096
15805.29,0.050753
15853.62,0.050732
15902.26,0.050432
15951.19,0.050154
16000.42,0.050108
16049.95,0.050023
16099.8,0.049665
16149.95,0.04972
16200.42,0.049631
16251.21,0.049751
16302.31,0.04984
16353.74,0.049824
16405.49,0.049517
16457.57,0.049281
16509.98,0.048802
16562.73,0.048466
16615.82,0.048285
16669.24,0.048327
16723.02,0.048126
16777.14,0.048319
16831.61,0.047821
16886.43,0.04799
16941.62,0.048425
16997.16,0.04853
17053.08,0.048579
17109.36,0.049127
17166.01,0.049082
17223.04,0.049274
17280.45,0.049565
17338.24,0.049866
17396.43,0.049274
17455.0,0.0488
17513.97,0.048509
17573.34,0.048707
17633.11,0.048076
17693.29,0.047344
17753.89,0.046775
17814.9,0.046471
17876.33,0.045944
17938.18,0.044994
18000.47,0.044157
18063.19,0.043429
18126.35,0.042167
18189.95,0.041548
18254.0,0.040616
18318.5,0.039664
18383.46,0.03899
18448.88,0.038862
18514.77,0.038542
18581.13,0.038862
18647.97,0.039713
18715.29,0.041442
18783.1,0.043735
18851.4,0.046631
18920.2,0.049221
18989.51,0.051987
19059.32,0.054082
19129.65,0.055497
19200.5,0.056976
19271.88,0.058711
19343.79,0.059025
19416.24,0.059279
19489.23,0.059854
19562.77,0.060805
19636.88,0.060711
19711.54,0.060578
19786.78,0.059996
19862.59,0.059283
19938.98,0.057714
20015.96,0.056517
20093.55,0.054551
20171.73,0.05227
20250.53,0.050281
20329.94,0.048821
20409.98,0.048089
20490.65,0.047738
20571.96,0.046239
20653.92,0.045145
20736.54,0.044558
20819.82,0.044973
20903.77,0.045801
20988.4,0.047408
21073.72,0.048996
21159.73,0.050566
21246.46,0.051188
21333.89,0.051762
21422.04,0.051483
21510.93,0.053531
21600.56,0.056676
21690.94,0.059248
21782.08,0.061249
21873.99,0.06454
21966.67,0.068373
22060.15,0.072633
22154.42,0.075464
22249.51,0.079226
22345.41,0.083483
22442.14,0.086841
22539.72,0.089991
22638.14,0.094414
22737.43,0.098315
22837.6,0.102107
22938.65,0.10459
23040.6,0.10544
23143.46,0.10599
23247.24,0.10745
23351.96,0.107298
23457.63,0.108008
23564.25,0.106092
23671.85,0.103141
23780.44,0.100692
23890.02,0.098005
24000.63,0.09498
24112.26,0.092767
24224.93,0.089908
24338.66,0.089821
24453.47,0.091158
24569.36,0.093077
24686.36,0.094639
24804.47,0.097942
24923.73,0.100991
25044.13,0.105313
25165.71,0.107815
25288.46,0.111298
25412.43,0.114446
25537.61,0.115886
25664.04,0.116373
25791.72,0.118342
25920.68,0.119429
