Database of Origin,University of Winnipeg Spectrophotometer Facility
Sample Description,16.12. Meteorites - Ureilites 16.12.3. Pierre Hudon (JSC) samples (b) RELAB + Nicolet FTIR merged spectra from RELAB
Other Information,bkr3ph019
Date Added,2018-07-23 23:49:08.117847

Data ID,RLA_MET2_10_18      
Sample ID,Y791538
Mineral Name,ureilite
Grain Size,<75 um
Viewing Geometry,30/0/30
Resolution,5/0.8-121 nm

Wavelength
305.0,0.04826
310.0,0.04795
315.0,0.05044
320.0,0.04979
325.0,0.05072
330.0,0.05067
335.0,0.05129
340.0,0.05047
345.0,0.05055
350.0,0.05081
355.0,0.05107
360.0,0.05219
365.0,0.05246
370.0,0.05342
375.0,0.05436
380.0,0.05625
385.0,0.05777
390.0,0.05946
395.0,0.06176
400.0,0.06281
405.0,0.06461
410.0,0.06617
415.0,0.0678
420.0,0.06985
425.0,0.07198
430.0,0.07461
435.0,0.07716
440.0,0.07962
445.0,0.08195
450.0,0.08404
455.0,0.08542
460.0,0.08666
465.0,0.08767
470.0,0.0887
475.0,0.08976
480.0,0.09084
485.0,0.0923
490.0,0.09383
495.0,0.09588
500.0,0.09803
505.0,0.10042
510.0,0.10315
515.0,0.10592
520.0,0.10873
525.0,0.11178
530.0,0.11477
535.0,0.11784
540.0,0.12091
545.0,0.12351
550.0,0.12625
555.0,0.12846
560.0,0.13066
565.0,0.13255
570.0,0.13419
575.0,0.13581
580.0,0.13715
585.0,0.13843
590.0,0.13942
595.0,0.14023
600.0,0.14098
605.0,0.14164
610.0,0.14223
615.0,0.14304
620.0,0.14357
625.0,0.14413
630.0,0.14473
635.0,0.14499
640.0,0.14524
645.0,0.14554
650.0,0.14542
655.0,0.14555
660.0,0.14607
665.0,0.1459
670.0,0.1461
675.0,0.14606
680.0,0.14621
685.0,0.14621
690.0,0.14619
695.0,0.1464
700.0,0.14626
705.0,0.14642
710.0,0.14644
715.0,0.14639
720.0,0.14636
725.0,0.14659
730.0,0.14669
735.0,0.14644
740.0,0.14661
745.0,0.14603
750.0,0.14607
755.0,0.14595
760.0,0.14588
765.0,0.14542
770.0,0.14519
775.0,0.14518
780.0,0.14484
785.0,0.14472
790.0,0.14439
795.0,0.14406
800.0,0.14384
805.0,0.14366
810.0,0.14334
815.0,0.14306
820.0,0.14251
825.0,0.14227
830.0,0.14175
835.0,0.14135
840.0,0.14093
845.0,0.14057
850.0,0.14013
855.0,0.13975
860.0,0.1393
865.0,0.13882
870.0,0.13837
875.0,0.13805
880.0,0.13766
885.0,0.13731
890.0,0.13699
895.0,0.13674
900.0,0.13632
905.0,0.13611
910.0,0.13587
915.0,0.13585
920.0,0.13575
925.0,0.13575
930.0,0.13554
935.0,0.13551
940.0,0.13538
945.0,0.13541
950.0,0.13547
955.0,0.13569
960.0,0.13592
965.0,0.13601
970.0,0.13607
975.0,0.13626
980.0,0.13644
985.0,0.13662
990.0,0.13696
995.0,0.13726
1000.0,0.13739
1005.0,0.13762
1010.0,0.13786
1015.0,0.1381
1020.0,0.13829
1025.0,0.13851
1030.0,0.13871
1035.0,0.1389
1040.0,0.13901
1045.0,0.13908
1050.0,0.13913
1055.0,0.13932
1060.0,0.1394
1065.0,0.13961
1070.0,0.13977
1075.0,0.13995
1080.0,0.14001
1085.0,0.14012
1090.0,0.14
1095.0,0.14006
1100.0,0.14025
1105.0,0.14033
1110.0,0.14042
1115.0,0.14049
1120.0,0.14049
1125.0,0.14049
1130.0,0.14054
1135.0,0.14068
1140.0,0.14082
1145.0,0.14104
1150.0,0.14104
1155.0,0.14111
1160.0,0.14104
1165.0,0.14111
1170.0,0.1412
1175.0,0.14132
1180.0,0.14134
1185.0,0.1414
1190.0,0.1415
1195.0,0.14133
1200.0,0.14135
1205.0,0.14136
1210.0,0.14134
1215.0,0.14121
1220.0,0.14128
1225.0,0.14119
1230.0,0.14119
1235.0,0.1412
1240.0,0.14118
1245.0,0.14111
1250.0,0.14097
1255.0,0.14084
1260.0,0.14084
1265.0,0.14087
1270.0,0.14083
1275.0,0.14087
1280.0,0.14082
1285.0,0.14068
1290.0,0.14062
1295.0,0.14062
1300.0,0.14052
1305.0,0.14039
1310.0,0.14037
1315.0,0.14028
1320.0,0.14023
1325.0,0.14025
1330.0,0.14017
1335.0,0.14018
1340.0,0.14019
1345.0,0.14022
1350.0,0.14013
1355.0,0.14018
1360.0,0.14009
1365.0,0.14001
1370.0,0.13996
1375.0,0.13982
1380.0,0.13976
1385.0,0.13988
1390.0,0.13999
1395.0,0.13992
1400.0,0.13997
1405.0,0.14002
1410.0,0.13992
1415.0,0.13983
1420.0,0.1397
1425.0,0.13965
1430.0,0.13962
1435.0,0.13955
1440.0,0.13952
1445.0,0.13949
1450.0,0.13949
1455.0,0.13946
1460.0,0.13954
1465.0,0.13945
1470.0,0.13946
1475.0,0.13939
1480.0,0.1394
1485.0,0.13932
1490.0,0.13937
1495.0,0.13932
1500.0,0.13934
1505.0,0.13926
1510.0,0.13927
1515.0,0.13925
1520.0,0.13922
1525.0,0.13917
1530.0,0.13911
1535.0,0.1389
1540.0,0.1388
1545.0,0.13877
1550.0,0.13877
1555.0,0.13876
1560.0,0.13883
1565.0,0.1388
1570.0,0.13867
1575.0,0.13857
1580.0,0.13842
1585.0,0.13841
1590.0,0.13831
1595.0,0.13841
1600.0,0.13829
1605.0,0.1383
1610.0,0.1383
1615.0,0.1382
1620.0,0.13799
1625.0,0.13783
1630.0,0.13756
1635.0,0.13737
1640.0,0.13742
1645.0,0.13745
1650.0,0.13749
1655.0,0.13756
1660.0,0.13757
1665.0,0.13755
1670.0,0.13765
1675.0,0.13762
1680.0,0.13776
1685.0,0.13762
1690.0,0.13752
1695.0,0.13735
1700.0,0.13734
1705.0,0.13725
1710.0,0.13734
1715.0,0.13741
1720.0,0.13735
1725.0,0.13736
1730.0,0.13727
1735.0,0.13716
1740.0,0.13713
1745.0,0.13705
1750.0,0.13716
1755.0,0.13697
1760.0,0.13685
1765.0,0.13684
1770.0,0.13679
1775.0,0.13669
1780.0,0.13661
1785.0,0.13671
1790.0,0.13663
1795.0,0.13658
1800.0,0.1366
1805.0,0.13657
1810.0,0.13641
1815.0,0.13626
1820.0,0.13629
1825.0,0.13622
1830.0,0.13618
1835.0,0.13611
1840.0,0.13606
1845.0,0.13598
1850.0,0.13575
1855.0,0.13572
1860.0,0.13596
1865.0,0.13587
1870.0,0.1357
1875.0,0.1358
1880.0,0.13574
1885.0,0.13538
1890.0,0.1356
1895.0,0.13564
1900.0,0.13545
1905.0,0.13537
1910.0,0.13526
1915.0,0.13492
1920.0,0.13478
1925.0,0.13478
1930.0,0.13483
1935.0,0.1349
1940.0,0.13501
1945.0,0.13487
1950.0,0.13488
1955.0,0.13459
1960.0,0.13456
1965.0,0.13446
1970.0,0.1345
1975.0,0.13442
1980.0,0.13457
1985.0,0.13447
1990.0,0.1345
1995.0,0.13454
2000.0,0.13452
2005.0,0.13441
2010.0,0.13447
2015.0,0.13448
2020.0,0.13453
2025.0,0.13451
2030.0,0.13461
2035.0,0.13453
2040.0,0.13446
2045.0,0.13439
2050.0,0.13435
2055.0,0.13423
2060.0,0.13421
2065.0,0.13417
2070.0,0.13409
2075.0,0.13415
2080.0,0.13425
2085.0,0.1344
2090.0,0.13444
2095.0,0.13462
2100.0,0.13458
2105.0,0.13458
2110.0,0.13449
2115.0,0.13449
2120.0,0.13441
2125.0,0.13441
2130.0,0.13436
2135.0,0.13437
2140.0,0.13438
2145.0,0.13432
2150.0,0.13434
2155.0,0.13438
2160.0,0.13436
2165.0,0.1344
2170.0,0.1344
2175.0,0.13439
2180.0,0.13445
2185.0,0.13451
2190.0,0.13449
2195.0,0.13459
2200.0,0.13468
2205.0,0.13457
2210.0,0.13456
2215.0,0.13457
2220.0,0.13457
2225.0,0.13459
2230.0,0.13461
2235.0,0.13467
2240.0,0.13463
2245.0,0.13467
2250.0,0.13473
2255.0,0.13474
2260.0,0.13457
2265.0,0.13462
2270.0,0.13455
2275.0,0.1344
2280.0,0.13433
2285.0,0.13441
2290.0,0.13429
2295.0,0.13426
2300.0,0.13423
2305.0,0.13431
2310.0,0.13428
2315.0,0.13441
2320.0,0.13438
2325.0,0.13435
2330.0,0.13428
2335.0,0.13429
2340.0,0.13421
2345.0,0.13411
2350.0,0.1341
2355.0,0.13396
2360.0,0.13379
2365.0,0.13361
2370.0,0.13367
2375.0,0.13357
2380.0,0.13363
2385.0,0.13361
2390.0,0.13376
2395.0,0.13364
2400.0,0.13359
2405.0,0.13362
2410.0,0.13358
2415.0,0.1334
2420.0,0.1334
2425.0,0.13343
2430.0,0.13327
2435.0,0.13328
2440.0,0.13325
2445.0,0.13307
2450.0,0.13302
2455.0,0.13297
2460.0,0.13293
2465.0,0.1329
2470.0,0.13301
2475.0,0.13308
2480.0,0.13308
2485.0,0.13297
2490.0,0.13298
2495.0,0.13304
2500.0,0.13297
2505.0,0.13308
2510.0,0.13312
2515.0,0.13306
2520.0,0.13299
2525.0,0.13278
2530.0,0.1326
2535.0,0.13257
2540.0,0.13264
2545.0,0.1323
2550.0,0.13262
2551.9,0.13267
2553.1,0.13259
2554.4,0.13252
2555.7,0.13259
2556.9,0.13265
2558.2,0.13268
2559.4,0.13275
2560.7,0.13273
2562.0,0.13261
2563.2,0.13258
2564.5,0.13261
2565.8,0.13255
2567.1,0.13251
2568.3,0.1326
2569.6,0.13263
2570.9,0.13248
2572.1,0.13251
2573.4,0.13266
2574.7,0.13258
2576.0,0.13258
2577.3,0.13259
2578.5,0.13256
2579.8,0.13259
2581.1,0.13255
2582.4,0.13249
2583.7,0.13255
2585.0,0.13245
2586.3,0.13248
2587.5,0.13259
2588.8,0.13255
2590.1,0.13246
2591.4,0.13245
2592.7,0.13255
2594.0,0.13278
2595.3,0.13271
2596.6,0.13236
2597.9,0.13232
2599.2,0.1324
2600.5,0.13247
2601.8,0.13254
2603.1,0.13256
2604.4,0.13255
2605.8,0.13253
2607.1,0.1324
2608.4,0.13236
2609.7,0.13244
2611.0,0.13244
2612.3,0.13234
2613.6,0.13222
2614.9,0.13227
2616.3,0.13246
2617.6,0.13246
2618.9,0.13238
2620.2,0.13242
2621.6,0.13231
2622.9,0.13225
2624.2,0.13227
2625.5,0.13233
2626.9,0.13241
2628.2,0.13227
2629.5,0.13234
2630.9,0.13236
2632.2,0.13221
2633.5,0.1322
2634.9,0.13216
2636.2,0.13211
2637.6,0.13214
2638.9,0.1321
2640.2,0.1321
2641.6,0.13212
2642.9,0.13207
2644.3,0.13203
2645.6,0.13207
2647.0,0.13202
2648.3,0.13203
2649.7,0.13209
2651.0,0.13208
2652.4,0.13204
2653.8,0.13196
2655.1,0.13196
2656.5,0.13195
2657.8,0.13191
2659.2,0.132
2660.6,0.13196
2661.9,0.13186
2663.3,0.13184
2664.7,0.13201
2666.0,0.13206
2667.4,0.13188
2668.8,0.13175
2670.1,0.13194
2671.5,0.13176
2672.9,0.13155
2674.3,0.13152
2675.7,0.13158
2677.0,0.13156
2678.4,0.13145
2679.8,0.13137
2681.2,0.13126
2682.6,0.13125
2684.0,0.13125
2685.4,0.13124
2686.8,0.13118
2688.1,0.13099
2689.5,0.13085
2690.9,0.13077
2692.3,0.13072
2693.7,0.13071
2695.1,0.13067
2696.5,0.13053
2697.9,0.13039
2699.3,0.13031
2700.8,0.13026
2702.1,0.13012
2703.6,0.12994
2705.0,0.12989
2706.4,0.12976
2707.8,0.12965
2709.2,0.12961
2710.6,0.12951
2712.1,0.12931
2713.5,0.12906
2714.9,0.12885
2716.3,0.12868
2717.7,0.1286
2719.2,0.1286
2720.6,0.12858
2722.0,0.12816
2723.4,0.12796
2724.9,0.12778
2726.3,0.1275
2727.7,0.12721
2729.2,0.12697
2730.6,0.12672
2732.1,0.12648
2733.5,0.12629
2734.9,0.12609
2736.4,0.12565
2737.8,0.12538
2739.3,0.12524
2740.7,0.12499
2742.2,0.12467
2743.6,0.12429
2745.1,0.12391
2746.5,0.12355
2748.0,0.12313
2749.4,0.12277
2750.9,0.12245
2752.4,0.12204
2753.8,0.12169
2755.3,0.12147
2756.7,0.12099
2758.2,0.1205
2759.7,0.12013
2761.1,0.11983
2762.6,0.1195
2764.1,0.11904
2765.6,0.1186
2767.0,0.11826
2768.5,0.11792
2770.0,0.11761
2771.5,0.11721
2773.0,0.11672
2774.4,0.1163
2775.9,0.11592
2777.4,0.11556
2778.9,0.11523
2780.4,0.11484
2781.9,0.11452
2783.4,0.1142
2784.9,0.11383
2786.4,0.11356
2787.9,0.11323
2789.4,0.11276
2790.9,0.11241
2792.4,0.1121
2793.9,0.11176
2795.4,0.11144
2796.9,0.11112
2798.4,0.11081
2799.9,0.11058
2801.4,0.11025
2802.9,0.1099
2804.4,0.10957
2806.0,0.10922
2807.5,0.10889
2809.0,0.10863
2810.5,0.10841
2812.1,0.1081
2813.6,0.10785
2815.1,0.10758
2816.6,0.10727
2818.2,0.107
2819.7,0.10671
2821.2,0.10648
2822.8,0.10618
2824.3,0.10585
2825.9,0.10555
2827.4,0.10525
2828.9,0.10497
2830.5,0.10475
2832.0,0.1045
2833.6,0.10417
2835.1,0.10392
2836.7,0.10368
2838.2,0.10333
2839.8,0.10305
2841.3,0.10279
2842.9,0.10249
2844.4,0.10222
2846.0,0.102
2847.6,0.10173
2849.1,0.10149
2850.7,0.10125
2852.3,0.10106
2853.8,0.10086
2855.4,0.1006
2857.0,0.10043
2858.6,0.10021
2860.1,0.1
2861.7,0.09984
2863.3,0.09965
2864.9,0.09947
2866.5,0.09926
2868.1,0.09908
2869.6,0.09891
2871.2,0.09883
2872.8,0.09875
2874.4,0.09858
2876.0,0.09845
2877.6,0.09834
2879.2,0.09825
2880.8,0.09817
2882.4,0.09802
2884.0,0.0979
2885.6,0.09786
2887.2,0.09775
2888.8,0.09762
2890.4,0.09756
2892.0,0.09755
2893.6,0.09749
2895.3,0.09745
2896.9,0.09741
2898.5,0.09729
2900.1,0.09716
2901.8,0.09713
2903.4,0.09709
2905.0,0.09699
2906.6,0.09694
2908.3,0.09691
2909.9,0.09686
2911.5,0.09678
2913.2,0.09669
2914.8,0.09664
2916.4,0.0966
2918.1,0.09658
2919.7,0.09657
2921.4,0.09653
2923.0,0.0965
2924.7,0.09644
2926.3,0.09635
2928.0,0.09624
2929.6,0.09615
2931.3,0.09612
2932.9,0.09611
2934.6,0.09605
2936.3,0.096
2937.9,0.09602
2939.6,0.09602
2941.3,0.09598
2942.9,0.09597
2944.6,0.09592
2946.3,0.09586
2947.9,0.09582
2949.6,0.09582
2951.3,0.09585
2953.0,0.09586
2954.7,0.09579
2956.3,0.09575
2958.0,0.09575
2959.7,0.09577
2961.4,0.09579
2963.1,0.09574
2964.8,0.09574
2966.5,0.09577
2968.2,0.09575
2969.9,0.09574
2971.6,0.09578
2973.3,0.09582
2975.0,0.09579
2976.7,0.09575
2978.4,0.09578
2980.1,0.09589
2981.9,0.09592
2983.6,0.09591
2985.3,0.0959
2987.0,0.09593
2988.7,0.09595
2990.4,0.09594
2992.2,0.09594
2993.9,0.09595
2995.6,0.096
2997.4,0.09609
2999.1,0.09614
3000.8,0.09612
3002.6,0.09613
3004.3,0.09616
3006.1,0.09619
3007.8,0.09625
3009.5,0.09629
3011.3,0.09636
3013.0,0.09634
3014.8,0.0963
3016.5,0.09637
3018.3,0.09649
3020.1,0.09653
3021.8,0.09649
3023.6,0.09645
3025.3,0.09646
3027.1,0.09651
3028.9,0.09655
3030.6,0.09657
3032.4,0.09657
3034.2,0.09656
3036.0,0.09658
3037.7,0.09661
3039.5,0.09669
3041.3,0.09674
3043.1,0.09678
3044.9,0.09681
3046.7,0.09677
3048.5,0.09672
3050.3,0.09678
3052.1,0.09685
3053.8,0.09689
3055.6,0.09689
3057.4,0.09688
3059.3,0.09687
3061.1,0.09689
3062.9,0.0969
3064.7,0.09693
3066.5,0.09693
3068.3,0.09691
3070.1,0.09693
3071.9,0.09698
3073.8,0.09698
3075.6,0.097
3077.4,0.09704
3079.2,0.09708
3081.1,0.09712
3082.9,0.09715
3084.7,0.09715
3086.6,0.09719
3088.4,0.09726
3090.2,0.0973
3092.1,0.09732
3093.9,0.09734
3095.8,0.09739
3097.6,0.09742
3099.5,0.09749
3101.3,0.09756
3103.2,0.09758
3105.1,0.0976
3106.9,0.09768
3108.8,0.09773
3110.6,0.09778
3112.5,0.09785
3114.4,0.09796
3116.2,0.09799
3118.1,0.09797
3120.0,0.09803
3121.9,0.09813
3123.8,0.09817
3125.6,0.09821
3127.5,0.09827
3129.4,0.09838
3131.3,0.09848
3133.2,0.09855
3135.1,0.0986
3137.0,0.09868
3138.9,0.09874
3140.8,0.09883
3142.7,0.09894
3144.6,0.09903
3146.5,0.09909
3148.4,0.09916
3150.3,0.09925
3152.2,0.09934
3154.1,0.09944
3156.1,0.0995
3158.0,0.09961
3159.9,0.09976
3161.8,0.09987
3163.8,0.09996
3165.7,0.10006
3167.6,0.1002
3169.6,0.10027
3171.5,0.10035
3173.5,0.10047
3175.4,0.10063
3177.3,0.10077
3179.3,0.10089
3181.2,0.10099
3183.2,0.10111
3185.1,0.10125
3187.1,0.10138
3189.1,0.10147
3191.0,0.10157
3193.0,0.10168
3195.0,0.10185
3196.9,0.10205
3198.9,0.10216
3200.9,0.10226
3202.9,0.10238
3204.8,0.10247
3206.8,0.10259
3208.8,0.10274
3210.8,0.10289
3212.8,0.10304
3214.8,0.10314
3216.8,0.10325
3218.8,0.10336
3220.8,0.10348
3222.8,0.10366
3224.8,0.1038
3226.8,0.10391
3228.8,0.10404
3230.8,0.10416
3232.8,0.1043
3234.8,0.10447
3236.8,0.10465
3238.9,0.10475
3240.9,0.10482
3242.9,0.10497
3244.9,0.1051
3247.0,0.1052
3249.0,0.10529
3251.1,0.10543
3253.1,0.10565
3255.1,0.1058
3257.2,0.10592
3259.2,0.10601
3261.3,0.10611
3263.3,0.10627
3265.4,0.10642
3267.4,0.10654
3269.5,0.10661
3271.6,0.10673
3273.6,0.10691
3275.7,0.10702
3277.8,0.10711
3279.8,0.10728
3281.9,0.10742
3284.0,0.10745
3286.1,0.10754
3288.2,0.10772
3290.2,0.1079
3292.3,0.108
3294.4,0.10806
3296.5,0.10821
3298.6,0.10835
3300.7,0.10841
3302.8,0.10853
3304.9,0.10871
3307.0,0.10884
3309.1,0.10891
3311.3,0.10897
3313.4,0.10911
3315.5,0.10922
3317.6,0.10926
3319.7,0.10937
3321.9,0.10951
3324.0,0.10963
3326.1,0.10975
3328.3,0.10986
3330.4,0.10999
3332.5,0.11012
3334.7,0.11018
3336.8,0.11026
3339.0,0.1104
3341.1,0.1105
3343.3,0.11057
3345.4,0.11068
3347.6,0.11081
3349.8,0.11092
3351.9,0.11099
3354.1,0.11107
3356.3,0.11117
3358.4,0.11126
3360.6,0.11129
3362.8,0.11135
3365.0,0.11143
3367.2,0.1115
3369.4,0.11153
3371.5,0.11157
3373.7,0.11164
3375.9,0.11171
3378.1,0.1118
3380.3,0.1119
3382.5,0.11202
3384.7,0.11214
3386.9,0.11222
3389.2,0.11233
3391.4,0.11242
3393.6,0.11242
3395.8,0.11242
3398.1,0.11247
3400.3,0.11256
3402.5,0.11257
3404.7,0.11255
3407.0,0.11257
3409.2,0.11258
3411.5,0.11262
3413.7,0.11268
3416.0,0.11275
3418.2,0.11284
3420.5,0.11295
3422.7,0.11309
3425.0,0.11328
3427.3,0.11345
3429.5,0.11358
3431.8,0.11374
3434.1,0.11389
3436.3,0.11402
3438.6,0.11416
3440.9,0.1143
3443.2,0.1144
3445.5,0.11448
3447.8,0.11455
3450.1,0.11465
3452.4,0.11473
3454.6,0.11481
3456.9,0.11492
3459.3,0.11501
3461.6,0.11508
3463.9,0.11518
3466.2,0.11527
3468.5,0.11537
3470.8,0.11541
3473.2,0.11546
3475.5,0.11553
3477.8,0.11562
3480.1,0.11564
3482.5,0.11566
3484.8,0.11574
3487.2,0.1158
3489.5,0.11578
3491.9,0.11575
3494.2,0.11578
3496.6,0.11581
3498.9,0.11588
3501.3,0.11598
3503.7,0.1161
3506.0,0.11623
3508.4,0.11636
3510.8,0.11651
3513.2,0.11665
3515.5,0.11672
3517.9,0.1168
3520.3,0.11692
3522.7,0.11699
3525.1,0.11711
3527.5,0.11726
3529.9,0.11734
3532.3,0.11741
3534.7,0.11749
3537.1,0.1176
3539.5,0.11767
3541.9,0.11771
3544.4,0.11774
3546.8,0.11783
3549.2,0.11791
3551.7,0.11796
3554.1,0.11803
3556.5,0.11811
3559.0,0.11816
3561.4,0.11826
3563.9,0.11836
3566.3,0.11842
3568.8,0.11848
3571.2,0.11853
3573.7,0.11855
3576.1,0.1186
3578.6,0.11868
3581.1,0.11878
3583.6,0.11885
3586.0,0.1189
3588.5,0.11895
3591.0,0.11904
3593.5,0.11912
3596.0,0.11918
3598.5,0.11927
3601.0,0.1193
3603.5,0.11932
3606.0,0.11942
3608.5,0.11949
3611.0,0.11953
3613.5,0.11959
3616.1,0.11965
3618.6,0.11971
3621.1,0.11976
3623.6,0.11982
3626.2,0.11987
3628.7,0.11993
3631.3,0.12003
3633.8,0.12011
3636.3,0.12018
3638.9,0.1202
3641.4,0.12024
3644.0,0.1203
3646.6,0.12038
3649.1,0.12045
3651.7,0.1205
3654.3,0.12053
3656.9,0.1206
3659.4,0.12064
3662.0,0.12065
3664.6,0.12069
3667.2,0.12077
3669.8,0.12081
3672.4,0.12085
3675.0,0.12093
3677.6,0.12101
3680.2,0.12104
3682.8,0.12109
3685.4,0.12116
3688.1,0.12122
3690.7,0.12125
3693.3,0.12132
3695.9,0.12138
3698.6,0.12144
3701.2,0.12149
3703.9,0.12154
3706.5,0.12157
3709.2,0.1216
3711.8,0.12166
3714.5,0.12173
3717.1,0.1218
3719.8,0.12182
3722.5,0.12185
3725.2,0.1219
3727.8,0.12194
3730.5,0.12197
3733.2,0.12204
3735.9,0.1221
3738.6,0.12217
3741.3,0.12223
3744.0,0.12223
3746.7,0.12227
3749.4,0.12235
3752.1,0.12238
3754.8,0.12239
3757.6,0.12247
3760.3,0.12253
3763.0,0.12256
3765.7,0.12262
3768.5,0.12266
3771.2,0.12269
3774.0,0.12272
3776.7,0.12278
3779.5,0.12281
3782.2,0.12279
3785.0,0.12286
3787.7,0.12293
3790.5,0.12291
3793.3,0.12295
3796.1,0.123
3798.8,0.12301
3801.6,0.12306
3804.4,0.12313
3807.2,0.12315
3810.0,0.12316
3812.8,0.1232
3815.6,0.12326
3818.4,0.1233
3821.2,0.12329
3824.1,0.12333
3826.9,0.1234
3829.7,0.12347
3832.5,0.12351
3835.4,0.12356
3838.2,0.1236
3841.1,0.12363
3843.9,0.12364
3846.8,0.12366
3849.6,0.12368
3852.5,0.12371
3855.3,0.12374
3858.2,0.12378
3861.1,0.12381
3863.9,0.12384
3866.8,0.12386
3869.7,0.12389
3872.6,0.12391
3875.5,0.12391
3878.4,0.12392
3881.3,0.12396
3884.2,0.12399
3887.1,0.12398
3890.0,0.12398
3893.0,0.12405
3895.9,0.12407
3898.8,0.12407
3901.7,0.1241
3904.7,0.12415
3907.6,0.12417
3910.6,0.12416
3913.5,0.1242
3916.5,0.12425
3919.4,0.12427
3922.4,0.12427
3925.4,0.12427
3928.4,0.12429
3931.3,0.12435
3934.3,0.12438
3937.3,0.12437
3940.3,0.12439
3943.3,0.12438
3946.3,0.12437
3949.3,0.12439
3952.3,0.1244
3955.3,0.1244
3958.3,0.1244
3961.4,0.12441
3964.4,0.12445
3967.4,0.12446
3970.5,0.12446
3973.5,0.12447
3976.6,0.12447
3979.6,0.12448
3982.6,0.12451
3985.7,0.12451
3988.8,0.1245
3991.9,0.12448
3994.9,0.12452
3998.0,0.12456
4001.1,0.12456
4004.2,0.12455
4007.3,0.12456
4010.4,0.12455
4013.5,0.12458
4016.6,0.1246
4019.7,0.12456
4022.8,0.12458
4025.9,0.12463
4029.1,0.1246
4032.2,0.12455
4035.3,0.12457
4038.5,0.12459
4041.6,0.12456
4044.8,0.12456
4047.9,0.12458
4051.1,0.12459
4054.3,0.1246
4057.4,0.12461
4060.6,0.12459
4063.8,0.12454
4067.0,0.12451
4070.2,0.1245
4073.4,0.12452
4076.6,0.12453
4079.8,0.12451
4083.0,0.12453
4086.2,0.12451
4089.4,0.1245
4092.7,0.12451
4095.9,0.12453
4099.1,0.12454
4102.4,0.12453
4105.6,0.1245
4108.9,0.1245
4112.1,0.1245
4115.4,0.12447
4118.7,0.12444
4122.0,0.12443
4125.2,0.12442
4128.5,0.12439
4131.8,0.12438
4135.1,0.1244
4138.4,0.12439
4141.7,0.12436
4145.0,0.12433
4148.3,0.12434
4151.6,0.12435
4155.0,0.12437
4158.3,0.12435
4161.6,0.12434
4165.0,0.12435
4168.3,0.12432
4171.7,0.12428
4175.0,0.12426
4178.4,0.12428
4181.8,0.12428
4185.2,0.12423
4188.5,0.12422
4191.9,0.12423
4195.3,0.12421
4198.7,0.12417
4202.1,0.12413
4205.5,0.12409
4208.9,0.12403
4212.4,0.12397
4215.8,0.12394
4219.2,0.12394
4222.6,0.12391
4226.1,0.12385
4229.5,0.12379
4233.0,0.12375
4236.5,0.12376
4239.9,0.12377
4243.4,0.12378
4246.9,0.12376
4250.3,0.12377
4253.8,0.12379
4257.3,0.12385
4260.8,0.12383
4264.3,0.1238
4267.8,0.12375
4271.3,0.12371
4274.9,0.12366
4278.4,0.12362
4281.9,0.12361
4285.5,0.12363
4289.0,0.12364
4292.6,0.12366
4296.1,0.12364
4299.7,0.12363
4303.3,0.12361
4306.8,0.12361
4310.4,0.12361
4314.0,0.12363
4317.6,0.12361
4321.2,0.1236
4324.8,0.1236
4328.4,0.12359
4332.0,0.12357
4335.6,0.12357
4339.3,0.12358
4342.9,0.12358
4346.5,0.12353
4350.2,0.12356
4353.8,0.12355
4357.5,0.1235
4361.1,0.12349
4364.8,0.1235
4368.5,0.12347
4372.2,0.12346
4375.9,0.1234
4379.6,0.12342
4383.3,0.12343
4387.0,0.12339
4390.7,0.12335
4394.4,0.12336
4398.1,0.12337
4401.9,0.12336
4405.6,0.12331
4409.4,0.12329
4413.1,0.12329
4416.9,0.12326
4420.6,0.12323
4424.4,0.1232
4428.2,0.12316
4432.0,0.12314
4435.8,0.12312
4439.6,0.12315
4443.4,0.12314
4447.2,0.1231
4451.0,0.12307
4454.8,0.12309
4458.6,0.12306
4462.5,0.12298
4466.3,0.12293
4470.2,0.12293
4474.0,0.1229
4477.9,0.12286
4481.8,0.12284
4485.6,0.12283
4489.5,0.1228
4493.4,0.12274
4497.3,0.12271
4501.2,0.12273
4505.1,0.12272
4509.0,0.12267
4513.0,0.12261
4516.9,0.12259
4520.9,0.12251
4524.8,0.12247
4528.7,0.12246
4532.7,0.12242
4536.7,0.12235
4540.6,0.12228
4544.6,0.12223
4548.6,0.1222
4552.6,0.12216
4556.6,0.1221
4560.6,0.12202
4564.6,0.12194
4568.6,0.12185
4572.7,0.1218
4576.7,0.12176
4580.8,0.1217
4584.8,0.12165
4588.9,0.12156
4592.9,0.12146
4597.0,0.12141
4601.1,0.12135
4605.2,0.1213
4609.3,0.1212
4613.4,0.1211
4617.5,0.12102
4621.6,0.12093
4625.7,0.12084
4629.8,0.12075
4634.0,0.12065
4638.1,0.12058
4642.3,0.1205
4646.4,0.12041
4650.6,0.12035
4654.8,0.12031
4659.0,0.1202
4663.1,0.1201
4667.3,0.12004
4671.5,0.11997
4675.8,0.11989
4680.0,0.11984
4684.2,0.1198
4688.4,0.11975
4692.7,0.11971
4696.9,0.11967
4701.2,0.11961
4705.5,0.11953
4709.7,0.11941
4714.0,0.11933
4718.3,0.11929
4722.6,0.11921
4726.9,0.11912
4731.2,0.11902
4735.5,0.11893
4739.9,0.11889
4744.2,0.1188
4748.5,0.11867
4752.9,0.11856
4757.3,0.11844
4761.6,0.11828
4766.0,0.11818
4770.4,0.1181
4774.8,0.11801
4779.2,0.1179
4783.6,0.11781
4788.0,0.11769
4792.4,0.11757
4796.9,0.11748
4801.3,0.11739
4805.8,0.11728
4810.2,0.11716
4814.7,0.11703
4819.1,0.11696
4823.6,0.11683
4828.1,0.1167
4832.6,0.11658
4837.1,0.11644
4841.6,0.11628
4846.2,0.11616
4850.7,0.11606
4855.3,0.11593
4859.8,0.11576
4864.4,0.11559
4868.9,0.11541
4873.5,0.11524
4878.1,0.11507
4882.7,0.11493
4887.3,0.11473
4891.9,0.11457
4896.5,0.1144
4901.1,0.11423
4905.8,0.11406
4910.4,0.11392
4915.1,0.11378
4919.7,0.11365
4924.4,0.1135
4929.1,0.1134
4933.8,0.1133
4938.5,0.1132
4943.2,0.11318
4947.9,0.11321
4952.6,0.1132
4957.4,0.11322
4962.1,0.11325
4966.9,0.11326
4971.6,0.11328
4976.4,0.11327
4981.2,0.11323
4986.0,0.11321
4990.8,0.11318
4995.6,0.11312
5000.4,0.11306
5005.2,0.11302
5010.0,0.11295
5014.9,0.11286
5019.8,0.11276
5024.6,0.11268
5029.5,0.11257
5034.4,0.11246
5039.3,0.11237
5044.2,0.11228
5049.1,0.11215
5054.0,0.112
5058.9,0.11184
5063.9,0.11169
5068.8,0.11157
5073.8,0.11143
5078.8,0.11123
5083.7,0.11105
5088.7,0.11088
5093.7,0.11074
5098.7,0.11059
5103.7,0.11046
5108.8,0.11033
5113.8,0.11023
5118.9,0.1101
5123.9,0.10997
5129.0,0.10984
5134.1,0.10971
5139.1,0.10957
5144.3,0.10948
5149.4,0.10939
5154.5,0.1093
5159.6,0.10922
5164.7,0.10915
5169.9,0.10909
5175.0,0.10909
5180.2,0.10908
5185.4,0.10908
5190.6,0.10907
5195.8,0.10905
5201.0,0.10904
5206.2,0.10908
5211.5,0.10914
5216.7,0.10918
5222.0,0.10918
5227.2,0.10923
5232.5,0.10931
5237.8,0.10938
5243.1,0.10938
5248.4,0.10943
5253.7,0.1095
5259.0,0.10956
5264.4,0.10956
5269.7,0.10957
5275.1,0.10962
5280.5,0.10965
5285.8,0.10968
5291.2,0.10967
5296.6,0.10964
5302.0,0.10963
5307.5,0.10962
5312.9,0.10962
5318.4,0.10962
5323.8,0.1096
5329.3,0.10955
5334.8,0.10947
5340.3,0.10937
5345.8,0.10931
5351.3,0.1092
5356.8,0.10904
5362.4,0.1089
5367.9,0.10881
5373.5,0.10869
5379.0,0.10855
5384.6,0.10844
5390.2,0.10836
5395.8,0.10817
5401.5,0.108
5407.1,0.10786
5412.7,0.10773
5418.4,0.10762
5424.1,0.10748
5429.7,0.10727
5435.4,0.10713
5441.1,0.10701
5446.9,0.10692
5452.6,0.10686
5458.3,0.10684
5464.1,0.10683
5469.8,0.10684
5475.6,0.10685
5481.4,0.10684
5487.2,0.10678
5493.0,0.10678
5498.8,0.10675
5504.7,0.10672
5510.5,0.10666
5516.4,0.10664
5522.3,0.10661
5528.1,0.10651
5534.0,0.10638
5540.0,0.10626
5545.9,0.10609
5551.8,0.10588
5557.8,0.10557
5563.7,0.10521
5569.7,0.10479
5575.7,0.10441
5581.7,0.10394
5587.7,0.10339
5593.7,0.10291
5599.8,0.10255
5605.8,0.10226
5611.9,0.10207
5618.0,0.10192
5624.1,0.10181
5630.2,0.10178
5636.3,0.10186
5642.4,0.10199
5648.6,0.10203
5654.7,0.10219
5660.9,0.10236
5667.1,0.1025
5673.3,0.10273
5679.5,0.1029
5685.7,0.10304
5692.0,0.10319
5698.2,0.10329
5704.5,0.10343
5710.8,0.10362
5717.1,0.10365
5723.4,0.10365
5729.7,0.10368
5736.0,0.1037
5742.4,0.10368
5748.8,0.10365
5755.1,0.10352
5761.5,0.10351
5768.0,0.10341
5774.4,0.10312
5780.8,0.10289
5787.3,0.10269
5793.7,0.10247
5800.2,0.1023
5806.7,0.10215
5813.2,0.10206
5819.8,0.102
5826.3,0.10176
5832.8,0.10143
5839.4,0.10113
5846.0,0.10088
5852.6,0.10068
5859.2,0.10048
5865.8,0.10026
5872.5,0.10006
5879.1,0.10004
5885.8,0.09975
5892.5,0.0995
5899.2,0.09924
5905.9,0.09887
5912.6,0.09862
5919.4,0.09829
5926.2,0.09797
5932.9,0.09776
5939.7,0.09733
5946.5,0.09675
5953.4,0.09628
5960.2,0.09587
5967.1,0.09547
5974.0,0.09496
5980.8,0.09456
5987.8,0.09425
5994.7,0.09382
6001.6,0.09352
6008.6,0.09341
6015.5,0.0934
6022.5,0.09339
6029.5,0.09349
6036.5,0.09368
6043.6,0.09403
6050.6,0.09427
6057.7,0.09419
6064.8,0.09429
6071.9,0.09446
6079.0,0.09445
6086.1,0.09448
6093.3,0.09455
6100.5,0.09461
6107.6,0.09474
6114.9,0.09479
6122.1,0.09463
6129.3,0.09452
6136.5,0.0945
6143.8,0.09446
6151.1,0.0944
6158.4,0.09437
6165.7,0.09426
6173.1,0.09419
6180.4,0.09421
6187.8,0.09412
6195.2,0.09393
6202.6,0.09387
6210.0,0.09379
6217.5,0.09366
6225.0,0.09354
6232.4,0.09349
6239.9,0.09341
6247.5,0.09331
6255.0,0.09319
6262.5,0.09314
6270.1,0.09307
6277.7,0.09301
6285.3,0.09301
6292.9,0.09307
6300.6,0.09317
6308.3,0.09334
6315.9,0.09352
6323.6,0.09367
6331.4,0.09382
6339.1,0.09407
6346.9,0.09423
6354.6,0.09419
6362.4,0.09426
6370.3,0.09444
6378.1,0.0945
6385.9,0.09456
6393.8,0.09465
6401.7,0.0948
6409.6,0.0951
6417.6,0.09519
6425.5,0.09505
6433.5,0.09504
6441.5,0.09504
6449.5,0.09507
6457.5,0.09506
6465.6,0.09504
6473.6,0.09506
6481.7,0.09505
6489.8,0.0951
6498.0,0.09502
6506.1,0.09476
6514.3,0.09467
6522.5,0.0946
6530.7,0.09446
6538.9,0.09439
6547.2,0.09434
6555.5,0.09427
6563.8,0.09421
6572.1,0.09414
6580.4,0.09396
6588.8,0.09381
6597.2,0.09363
6605.6,0.09346
6614.0,0.09336
6622.5,0.0933
6630.9,0.09333
6639.4,0.09325
6647.9,0.09298
6656.5,0.0928
6665.0,0.09276
6673.6,0.09269
6682.2,0.09259
6690.8,0.09245
6699.5,0.09238
6708.1,0.09232
6716.8,0.09217
6725.5,0.09197
6734.3,0.09177
6743.0,0.09162
6751.8,0.09151
6760.6,0.09137
6769.4,0.09122
6778.3,0.09102
6787.1,0.09087
6796.0,0.09061
6805.0,0.09035
6813.9,0.09021
6822.9,0.09012
6831.9,0.08997
6840.9,0.08979
6849.9,0.08965
6859.0,0.08957
6868.0,0.08935
6877.2,0.08906
6886.3,0.08879
6895.5,0.08854
6904.6,0.08829
6913.8,0.08799
6923.1,0.08769
6932.3,0.08746
6941.6,0.08722
6950.9,0.08701
6960.2,0.08678
6969.6,0.08642
6979.0,0.08611
6988.4,0.08589
6997.8,0.08561
7007.3,0.08533
7016.8,0.08508
7026.3,0.08486
7035.8,0.0847
7045.4,0.0846
7054.9,0.08435
7064.5,0.08413
7074.2,0.08396
7083.9,0.08379
7093.5,0.0836
7103.3,0.08344
7113.0,0.08325
7122.8,0.08306
7132.6,0.08285
7142.4,0.08264
7152.2,0.08244
7162.1,0.08223
7172.0,0.08196
7182.0,0.08171
7191.9,0.0815
7201.9,0.08133
7211.9,0.0811
7222.0,0.08088
7232.0,0.08063
7242.1,0.0804
7252.3,0.08021
7262.4,0.08003
7272.6,0.07981
7282.8,0.07956
7293.1,0.0793
7303.3,0.07899
7313.6,0.07866
7324.0,0.07841
7334.3,0.07813
7344.7,0.07779
7355.1,0.07747
7365.6,0.07719
7376.1,0.07688
7386.6,0.07656
7397.1,0.07626
7407.7,0.07599
7418.3,0.07568
7428.9,0.0754
7439.6,0.07511
7450.3,0.0749
7461.0,0.07468
7471.7,0.07443
7482.5,0.07415
7493.3,0.07392
7504.2,0.0737
7515.0,0.07351
7525.9,0.07327
7536.9,0.07305
7547.9,0.07282
7558.9,0.07262
7569.9,0.07243
7581.0,0.07226
7592.0,0.07206
7603.2,0.07189
7614.4,0.07172
7625.5,0.07154
7636.8,0.07135
7648.0,0.07118
7659.3,0.07096
7670.7,0.07074
7682.0,0.07047
7693.4,0.07026
7704.9,0.07001
7716.3,0.06975
7727.8,0.06949
7739.4,0.06917
7750.9,0.06882
7762.5,0.06854
7774.2,0.06819
7785.8,0.0679
7797.5,0.06762
7809.3,0.06733
7821.1,0.06699
7832.9,0.0666
7844.7,0.06625
7856.6,0.06591
7868.5,0.06545
7880.5,0.06503
7892.5,0.06464
7904.5,0.06426
7916.6,0.06376
7928.7,0.0633
7940.8,0.06284
7953.0,0.06234
7965.2,0.06183
7977.5,0.06134
7989.8,0.06075
8002.1,0.06019
8014.5,0.05957
8026.9,0.05902
8039.3,0.0585
8051.8,0.05796
8064.3,0.05741
8076.9,0.05688
8089.5,0.05628
8102.1,0.05571
8114.8,0.05513
8127.5,0.05454
8140.3,0.05393
8153.1,0.05336
8165.9,0.05278
8178.8,0.05224
8191.7,0.05171
8204.7,0.05122
8217.7,0.05067
8230.7,0.05012
8243.8,0.0496
8257.0,0.04916
8270.1,0.0487
8283.3,0.04827
8296.6,0.0478
8309.9,0.04737
8323.2,0.04691
8336.6,0.04651
8350.0,0.04618
8363.5,0.04583
8377.0,0.04544
8390.5,0.04514
8404.2,0.04485
8417.8,0.04459
8431.5,0.04429
8445.2,0.04407
8459.0,0.04387
8472.8,0.04377
8486.7,0.04364
8500.6,0.04356
8514.5,0.04351
8528.5,0.04351
8542.6,0.04359
8556.7,0.04375
8570.8,0.04391
8585.0,0.04415
8599.3,0.04439
8613.5,0.04474
8627.9,0.04517
8642.3,0.04562
8656.7,0.04601
8671.2,0.04634
8685.7,0.04654
8700.3,0.04661
8714.9,0.04651
8729.6,0.04642
8744.3,0.04657
8759.0,0.04728
8773.9,0.04842
8788.7,0.04975
8803.7,0.05092
8818.6,0.05174
8833.7,0.05219
8848.7,0.0524
8863.8,0.05248
8879.0,0.05262
8894.3,0.05286
8909.5,0.0532
8924.9,0.05355
8940.3,0.05392
8955.7,0.05424
8971.2,0.05445
8986.8,0.05457
9002.3,0.05456
9018.0,0.05437
9033.7,0.05416
9049.5,0.05393
9065.3,0.05374
9081.2,0.05357
9097.1,0.05349
9113.1,0.05346
9129.1,0.05355
9145.2,0.05366
9161.4,0.05378
9177.6,0.05399
9193.9,0.05431
9210.2,0.05469
9226.6,0.05508
9243.0,0.05545
9259.5,0.05586
9276.1,0.05622
9292.7,0.05659
9309.4,0.05687
9326.2,0.05713
9343.0,0.05727
9359.8,0.05729
9376.8,0.05733
9393.7,0.0574
9410.8,0.05739
9427.9,0.05739
9445.1,0.05735
9462.3,0.05728
9479.6,0.0572
9497.0,0.05703
9514.4,0.05675
9531.9,0.05649
9549.4,0.05612
9567.1,0.05569
9584.7,0.05509
9602.5,0.05443
9620.3,0.05376
9638.2,0.05304
9656.1,0.05233
9674.2,0.0517
9692.2,0.05113
9710.4,0.05069
9728.6,0.05032
9746.9,0.05013
9765.2,0.05004
9783.7,0.05008
9802.2,0.05023
9820.7,0.05048
9839.4,0.05083
9858.1,0.05119
9876.8,0.05143
9895.7,0.05174
9914.6,0.052
9933.6,0.05214
9952.7,0.05226
9971.8,0.05241
9991.0,0.05257
10010.3,0.05276
10029.7,0.05297
10049.1,0.05325
10068.6,0.05354
10088.2,0.05377
10107.9,0.05396
10127.6,0.05403
10147.4,0.05391
10167.3,0.05376
10187.3,0.05362
10207.4,0.05362
10227.5,0.05386
10247.7,0.05431
10268.0,0.05481
10288.4,0.05543
10308.8,0.05604
10329.4,0.05667
10350.0,0.05722
10370.7,0.0575
10391.5,0.05761
10412.3,0.05819
10433.3,0.05955
10454.3,0.06122
10475.5,0.06255
10496.7,0.06341
10517.9,0.06383
10539.3,0.06392
10560.8,0.06382
10582.3,0.06366
10604.0,0.06337
10625.7,0.06299
10647.5,0.06262
10669.4,0.06226
10691.4,0.06185
10713.5,0.06143
10735.7,0.06103
10758.0,0.06072
10780.3,0.06032
10802.8,0.05985
10825.4,0.05938
10848.0,0.05882
10870.8,0.05828
10893.6,0.0577
10916.5,0.05707
10939.5,0.05661
10962.7,0.05618
10985.9,0.05582
11009.2,0.0556
11032.7,0.05545
11056.2,0.05528
11079.8,0.05518
11103.5,0.05519
11127.3,0.05536
11151.3,0.05554
11175.3,0.05577
11199.5,0.05609
11223.7,0.05647
11248.0,0.0568
11272.5,0.05727
11297.1,0.0578
11321.7,0.05831
11346.5,0.05872
11371.4,0.05897
11396.4,0.059
11421.5,0.05875
11446.7,0.05808
11472.0,0.05704
11497.5,0.0558
11523.0,0.05465
11548.7,0.05366
11574.4,0.05287
11600.3,0.05222
11626.3,0.05176
11652.5,0.05141
11678.7,0.05107
11705.1,0.05061
11731.6,0.05014
11758.2,0.04963
11784.9,0.04905
11811.7,0.04849
11838.7,0.04816
11865.8,0.04817
11893.0,0.0488
11920.3,0.04989
11947.8,0.05114
11975.4,0.05242
12003.1,0.05367
12031.0,0.05495
12059.0,0.05626
12087.1,0.05746
12115.3,0.05855
12143.7,0.05943
12172.2,0.06016
12200.8,0.06076
12229.6,0.06145
12258.5,0.0622
12287.6,0.06281
12316.8,0.0633
12346.1,0.06377
12375.5,0.06427
12405.2,0.06464
12434.9,0.06483
12464.8,0.06503
12494.8,0.06517
12525.0,0.06524
12555.3,0.06533
12585.8,0.06536
12616.4,0.06526
12647.2,0.06526
12678.1,0.06535
12709.2,0.06545
12740.4,0.06548
12771.8,0.06542
12803.3,0.06535
12835.0,0.06536
12866.9,0.06519
12898.9,0.06497
12931.1,0.06468
12963.4,0.06423
12995.9,0.0637
13028.5,0.06321
13061.3,0.06272
13094.3,0.06201
13127.5,0.06121
13160.8,0.06037
13194.3,0.05937
13228.0,0.05835
13261.8,0.05723
13295.8,0.05596
13330.0,0.05466
13364.3,0.05345
13398.9,0.05208
13433.6,0.05077
13468.5,0.04969
13503.5,0.04864
13538.8,0.04752
13574.2,0.04654
13609.9,0.04558
13645.7,0.04477
13681.7,0.04415
13717.9,0.04364
13754.3,0.04317
13790.8,0.04286
13827.6,0.04275
13864.6,0.04294
13901.8,0.04308
13939.1,0.04325
13976.7,0.04323
14014.5,0.04308
14052.5,0.04277
14090.7,0.04236
14129.0,0.04191
14167.7,0.0413
14206.5,0.04054
14245.5,0.03982
14284.7,0.03909
14324.2,0.03833
14363.9,0.03758
14403.8,0.03691
14443.9,0.03629
14484.2,0.0356
14524.8,0.03486
14565.6,0.03429
14606.7,0.0338
14647.9,0.03336
14689.4,0.033
14731.2,0.03284
14773.1,0.0326
14815.3,0.03238
14857.8,0.03208
14900.5,0.0319
14943.4,0.03187
14986.6,0.03172
15030.0,0.03138
15073.7,0.03111
15117.7,0.03073
15161.9,0.03039
15206.3,0.0301
15251.1,0.02987
15296.1,0.02981
15341.3,0.03002
15386.8,0.03052
15432.6,0.03107
15478.7,0.03155
15525.0,0.03208
15571.7,0.03285
15618.6,0.03365
15665.8,0.03393
15713.2,0.03427
15761.0,0.03478
15809.0,0.03539
15857.4,0.03591
15906.0,0.03623
15955.0,0.0364
16004.2,0.03677
16053.8,0.03737
16103.6,0.03797
16153.8,0.03836
16204.3,0.03887
16255.1,0.03932
16306.2,0.04007
16357.6,0.04068
16409.4,0.04111
16461.5,0.04158
16513.9,0.04204
16566.7,0.04248
16619.8,0.04306
16673.2,0.04366
16727.0,0.04399
16781.1,0.04442
16835.6,0.04489
16890.5,0.04516
16945.7,0.04524
17001.2,0.04547
17057.2,0.04595
17113.4,0.04635
17170.1,0.04675
17227.2,0.04708
17284.6,0.04739
17342.4,0.04799
17400.6,0.04874
17459.2,0.04895
17518.2,0.04883
17577.5,0.04887
17637.3,0.04908
17697.5,0.04924
17758.1,0.04926
17819.2,0.04909
17880.6,0.04894
17942.5,0.04904
18004.8,0.04944
18067.5,0.05016
18130.7,0.05118
18194.3,0.0518
18258.4,0.05223
18322.9,0.05295
18387.9,0.05383
18453.3,0.05469
18519.2,0.05502
18585.6,0.05525
18652.4,0.05608
18719.8,0.05714
18787.6,0.05822
18855.9,0.05957
18924.8,0.06073
18994.1,0.06172
19063.9,0.06267
19134.3,0.06316
19205.1,0.06347
19276.5,0.06351
19348.4,0.06343
19420.9,0.06324
19493.9,0.06296
19567.5,0.06258
19641.6,0.06263
19716.3,0.0625
19791.5,0.0621
19867.4,0.06123
19943.8,0.05968
20020.8,0.05807
20098.4,0.05643
20176.6,0.05471
20255.4,0.05276
20334.8,0.05089
20414.9,0.04918
20495.6,0.04775
20576.9,0.04685
20658.9,0.04616
20741.5,0.04635
20824.8,0.04717
20908.8,0.04804
20993.4,0.04826
21078.8,0.0476
21164.8,0.04709
21251.6,0.04715
21339.0,0.04719
21427.2,0.04684
21516.1,0.04645
21605.8,0.04637
21696.2,0.04629
21787.3,0.04669
21879.3,0.04719
21972.0,0.04776
22065.5,0.04862
22159.8,0.0499
22254.9,0.05186
22350.8,0.05386
22447.5,0.05432
22545.1,0.05469
22643.6,0.05488
22742.9,0.05548
22843.1,0.05666
22944.2,0.05812
23046.2,0.05967
23149.0,0.06179
23252.8,0.064
23357.6,0.06473
23463.3,0.0649
23569.9,0.0668
23677.6,0.06905
23786.2,0.07158
23895.8,0.07182
24006.4,0.06962
24118.1,0.06806
24230.8,0.06752
24344.5,0.06828
24459.4,0.06614
24575.3,0.06415
24692.3,0.06539
24810.4,0.0674
24929.7,0.06939
25050.2,0.06918
