Database of Origin,University of Winnipeg Spectrophotometer Facility
Sample Description,"RELAB plus Nicolet merged plagioclase data. Merged @2500nm, different viewing geometries. See Master Plagioclase in PSF sample database for more information"
Date Added,2016-11-22 03:59:29.791989

Data ID,RLA_PLG_06          
Sample ID,PLG106
Mineral Name,Albite
Grain Size,<45
Viewing Geometry,"30/0,30"
Resolution,"5,0.6-129"
Composition,An10
Material Class,Tectosilicate

Wavelength
300.0,0.649844
305.0,0.660624
310.0,0.664398
315.0,0.673619
320.0,0.680236
325.0,0.687522
330.0,0.691547
335.0,0.696767
340.0,0.70019
345.0,0.705487
350.0,0.708885
355.0,0.714357
360.0,0.717574
365.0,0.721376
370.0,0.72506
375.0,0.727223
380.0,0.730457
385.0,0.732196
390.0,0.738393
395.0,0.740538
400.0,0.741184
405.0,0.746175
410.0,0.746775
415.0,0.748493
420.0,0.750563
425.0,0.752873
430.0,0.754212
435.0,0.75588
440.0,0.757292
445.0,0.757838
450.0,0.759462
455.0,0.760145
460.0,0.760867
465.0,0.761821
470.0,0.763284
475.0,0.762894
480.0,0.76378
485.0,0.764445
490.0,0.765846
495.0,0.765247
500.0,0.767158
505.0,0.766297
510.0,0.767239
515.0,0.767011
520.0,0.768199
525.0,0.768913
530.0,0.769634
535.0,0.769425
540.0,0.770456
545.0,0.77
550.0,0.770815
555.0,0.770669
560.0,0.771476
565.0,0.770832
570.0,0.771562
575.0,0.772295
580.0,0.771962
585.0,0.771798
590.0,0.772416
595.0,0.773441
600.0,0.77353
605.0,0.773954
610.0,0.773701
615.0,0.774076
620.0,0.774362
625.0,0.775367
630.0,0.775741
635.0,0.775042
640.0,0.775538
645.0,0.775602
650.0,0.775095
655.0,0.775688
660.0,0.775946
665.0,0.775455
670.0,0.775837
675.0,0.776069
680.0,0.774742
685.0,0.776234
690.0,0.775914
695.0,0.776587
700.0,0.775428
705.0,0.776103
710.0,0.774624
715.0,0.775563
720.0,0.776675
725.0,0.776664
730.0,0.778366
735.0,0.778227
740.0,0.778907
745.0,0.777844
750.0,0.779795
755.0,0.777848
760.0,0.778592
765.0,0.779223
770.0,0.779514
775.0,0.778367
780.0,0.779819
785.0,0.778471
790.0,0.779736
795.0,0.778799
800.0,0.779582
805.0,0.77925
810.0,0.779707
815.0,0.779393
820.0,0.779795
825.0,0.779429
830.0,0.780423
835.0,0.777817
840.0,0.778714
845.0,0.778045
850.0,0.780159
855.0,0.777614
860.0,0.778893
865.0,0.780495
870.0,0.783053
875.0,0.782026
880.0,0.781176
885.0,0.78046
890.0,0.782003
895.0,0.77777
900.0,0.779002
905.0,0.778986
910.0,0.778332
915.0,0.77776
920.0,0.777465
925.0,0.778558
930.0,0.779684
935.0,0.779986
940.0,0.780489
945.0,0.78021
950.0,0.777977
955.0,0.778109
960.0,0.778222
965.0,0.778028
970.0,0.777859
975.0,0.778087
980.0,0.776759
985.0,0.774515
990.0,0.773517
995.0,0.774865
1000.0,0.776013
1005.0,0.774856
1010.0,0.776764
1015.0,0.778715
1020.0,0.775604
1025.0,0.77503
1030.0,0.776499
1035.0,0.776274
1040.0,0.777465
1045.0,0.780151
1050.0,0.779897
1055.0,0.779433
1060.0,0.780143
1065.0,0.77801
1070.0,0.777259
1075.0,0.778553
1080.0,0.778174
1085.0,0.776904
1090.0,0.77784
1095.0,0.778263
1100.0,0.777604
1105.0,0.778595
1110.0,0.779927
1115.0,0.779426
1120.0,0.778049
1125.0,0.778784
1130.0,0.779472
1135.0,0.780081
1140.0,0.781958
1145.0,0.782767
1150.0,0.78342
1155.0,0.783536
1160.0,0.784489
1165.0,0.783105
1170.0,0.784103
1175.0,0.783692
1180.0,0.783848
1185.0,0.781771
1190.0,0.782973
1195.0,0.781797
1200.0,0.785477
1205.0,0.788521
1210.0,0.786962
1215.0,0.785836
1220.0,0.785032
1225.0,0.784014
1230.0,0.783815
1235.0,0.784677
1240.0,0.785771
1245.0,0.785799
1250.0,0.78598
1255.0,0.786572
1260.0,0.786132
1265.0,0.786064
1270.0,0.785083
1275.0,0.784189
1280.0,0.782957
1285.0,0.781886
1290.0,0.782055
1295.0,0.78311
1300.0,0.782981
1305.0,0.784494
1310.0,0.786103
1315.0,0.786141
1320.0,0.786346
1325.0,0.786437
1330.0,0.785281
1335.0,0.786083
1340.0,0.786143
1345.0,0.787583
1350.0,0.788773
1355.0,0.788408
1360.0,0.787053
1365.0,0.788078
1370.0,0.787107
1375.0,0.78477
1380.0,0.784689
1385.0,0.785127
1390.0,0.784725
1395.0,0.782787
1400.0,0.783748
1405.0,0.784187
1410.0,0.784497
1415.0,0.7846
1420.0,0.785564
1425.0,0.785693
1430.0,0.785958
1435.0,0.785653
1440.0,0.786765
1445.0,0.78599
1450.0,0.785864
1455.0,0.785815
1460.0,0.786581
1465.0,0.786121
1470.0,0.786705
1475.0,0.786909
1480.0,0.787656
1485.0,0.787674
1490.0,0.786808
1495.0,0.786522
1500.0,0.786529
1505.0,0.786876
1510.0,0.787673
1515.0,0.787977
1520.0,0.788651
1525.0,0.788027
1530.0,0.787831
1535.0,0.787167
1540.0,0.788515
1545.0,0.789562
1550.0,0.789802
1555.0,0.789896
1560.0,0.78949
1565.0,0.788695
1570.0,0.788011
1575.0,0.787751
1580.0,0.788493
1585.0,0.789126
1590.0,0.789707
1595.0,0.791182
1600.0,0.792217
1605.0,0.792732
1610.0,0.79286
1615.0,0.792582
1620.0,0.791938
1625.0,0.791368
1630.0,0.789488
1635.0,0.789273
1640.0,0.789889
1645.0,0.789757
1650.0,0.789492
1655.0,0.790535
1660.0,0.792429
1665.0,0.792444
1670.0,0.794119
1675.0,0.794214
1680.0,0.793789
1685.0,0.794216
1690.0,0.796174
1695.0,0.797158
1700.0,0.797643
1705.0,0.799415
1710.0,0.799438
1715.0,0.797712
1720.0,0.79709
1725.0,0.796456
1730.0,0.796254
1735.0,0.794796
1740.0,0.793905
1745.0,0.794006
1750.0,0.794298
1755.0,0.794699
1760.0,0.79612
1765.0,0.797154
1770.0,0.796234
1775.0,0.795789
1780.0,0.794669
1785.0,0.794273
1790.0,0.794465
1795.0,0.795164
1800.0,0.795718
1805.0,0.796357
1810.0,0.796907
1815.0,0.795397
1820.0,0.79648
1825.0,0.797535
1830.0,0.798063
1835.0,0.797097
1840.0,0.798306
1845.0,0.797827
1850.0,0.795726
1855.0,0.796386
1860.0,0.798654
1865.0,0.795773
1870.0,0.793091
1875.0,0.793181
1880.0,0.790799
1885.0,0.78914
1890.0,0.791973
1895.0,0.791734
1900.0,0.787603
1905.0,0.786315
1910.0,0.781856
1915.0,0.778076
1920.0,0.777884
1925.0,0.78006
1930.0,0.779808
1935.0,0.781455
1940.0,0.783048
1945.0,0.78503
1950.0,0.784874
1955.0,0.784721
1960.0,0.78669
1965.0,0.788254
1970.0,0.789351
1975.0,0.790981
1980.0,0.792593
1985.0,0.792617
1990.0,0.794075
1995.0,0.793869
2000.0,0.794544
2005.0,0.795463
2010.0,0.795521
2015.0,0.794039
2020.0,0.794453
2025.0,0.795548
2030.0,0.796818
2035.0,0.798118
2040.0,0.798858
2045.0,0.799087
2050.0,0.798945
2055.0,0.798078
2060.0,0.798355
2065.0,0.798287
2070.0,0.799875
2075.0,0.800402
2080.0,0.799616
2085.0,0.798278
2090.0,0.798858
2095.0,0.796959
2100.0,0.797199
2105.0,0.798971
2110.0,0.799754
2115.0,0.800661
2120.0,0.801414
2125.0,0.80102
2130.0,0.800447
2135.0,0.80025
2140.0,0.798785
2145.0,0.799409
2150.0,0.798902
2155.0,0.798242
2160.0,0.798099
2165.0,0.7988
2170.0,0.7974
2175.0,0.796117
2180.0,0.795787
2185.0,0.794262
2190.0,0.79358
2195.0,0.791993
2200.0,0.791151
2205.0,0.79125
2210.0,0.791961
2215.0,0.790624
2220.0,0.790384
2225.0,0.790124
2230.0,0.78992
2235.0,0.791101
2240.0,0.79194
2245.0,0.793819
2250.0,0.79464
2255.0,0.794926
2260.0,0.794276
2265.0,0.795726
2270.0,0.796097
2275.0,0.796638
2280.0,0.796909
2285.0,0.797585
2290.0,0.796177
2295.0,0.796432
2300.0,0.798436
2305.0,0.799621
2310.0,0.7988
2315.0,0.797968
2320.0,0.796809
2325.0,0.794951
2330.0,0.795786
2335.0,0.795064
2340.0,0.796185
2345.0,0.797546
2350.0,0.796068
2355.0,0.792134
2360.0,0.791225
2365.0,0.789961
2370.0,0.787852
2375.0,0.790596
2380.0,0.793063
2385.0,0.794966
2390.0,0.796955
2395.0,0.796069
2400.0,0.796236
2405.0,0.795425
2410.0,0.794206
2415.0,0.790833
2420.0,0.791961
2425.0,0.789502
2430.0,0.787669
2435.0,0.786396
2440.0,0.78715
2445.0,0.785221
2450.0,0.784484
2455.0,0.783231
2460.0,0.781926
2465.0,0.780785
2470.0,0.781289
2475.0,0.779197
2480.0,0.778542
2485.0,0.773948
2490.0,0.772218
2495.0,0.771378
2500.0,0.770872
2505.0,0.773848
2510.0,0.775338
2515.0,0.776817
2520.0,0.779806
2525.0,0.779237
2530.08,0.778913
2535.03,0.781315
2540.0,0.779234
2544.99,0.778434
2549.99,0.781143
2552.5,0.781691
2553.76,0.782069
2555.02,0.782877
2556.28,0.78323
2557.54,0.783062
2558.8,0.782789
2560.07,0.782194
2561.33,0.779623
2562.6,0.779485
2563.86,0.781601
2565.13,0.782881
2566.4,0.784411
2567.67,0.784885
2568.95,0.783244
2570.22,0.78172
2571.5,0.783928
2572.77,0.784271
2574.05,0.780563
2575.33,0.783843
2576.61,0.784973
2577.89,0.783833
2579.17,0.786276
2580.46,0.785716
2581.74,0.782922
2583.03,0.783394
2584.31,0.781548
2585.6,0.784196
2586.89,0.786512
2588.19,0.783994
2589.48,0.785332
2590.77,0.786661
2592.07,0.786883
2593.36,0.784425
2594.66,0.777689
2595.96,0.776192
2597.26,0.789054
2598.56,0.792442
2599.87,0.788514
2601.17,0.784919
2602.48,0.783508
2603.78,0.78414
2605.09,0.78309
2606.4,0.782732
2607.71,0.786685
2609.03,0.787778
2610.34,0.786608
2611.65,0.787086
2612.97,0.786788
2614.29,0.785413
2615.61,0.785712
2616.93,0.782458
2618.25,0.782544
2619.57,0.787571
2620.9,0.785129
2622.22,0.787076
2623.55,0.789976
2624.88,0.787817
2626.21,0.78455
2627.54,0.782428
2628.87,0.785947
2630.21,0.783747
2631.54,0.781429
2632.88,0.786691
2634.21,0.787016
2635.55,0.785548
2636.89,0.787418
2638.24,0.787003
2639.58,0.786052
2640.92,0.785066
2642.27,0.78424
2643.62,0.78421
2644.97,0.784961
2646.32,0.783632
2647.67,0.784567
2649.02,0.785661
2650.38,0.784945
2651.73,0.782873
2653.09,0.780589
2654.45,0.781946
2655.81,0.782943
2657.17,0.782615
2658.53,0.782594
2659.89,0.779383
2661.26,0.77855
2662.63,0.779851
2664.0,0.779172
2665.36,0.774574
2666.74,0.773042
2668.11,0.777436
2669.48,0.780745
2670.86,0.773633
2672.23,0.775735
2673.61,0.781493
2674.99,0.776426
2676.37,0.771162
2677.76,0.768759
2679.14,0.770956
2680.52,0.772137
2681.91,0.773848
2683.3,0.770547
2684.69,0.767522
2686.08,0.767689
2687.47,0.767419
2688.87,0.767482
2690.26,0.766824
2691.66,0.764912
2693.06,0.76199
2694.46,0.758735
2695.86,0.760492
2697.26,0.762554
2698.66,0.76118
2700.07,0.757523
2701.48,0.753669
2702.89,0.752496
2704.3,0.752614
2705.71,0.749945
2707.12,0.746737
2708.53,0.742848
2709.95,0.737754
2711.37,0.733241
2712.79,0.7346
2714.21,0.734391
2715.63,0.728337
2717.05,0.722167
2718.48,0.716583
2719.9,0.709873
2721.33,0.701668
2722.76,0.699825
2724.19,0.694301
2725.62,0.685265
2727.06,0.68225
2728.49,0.678166
2729.93,0.670728
2731.37,0.663227
2732.81,0.657251
2734.25,0.650964
2735.69,0.645148
2737.14,0.642434
2738.58,0.637507
2740.03,0.628772
2741.48,0.623697
2742.93,0.621915
2744.38,0.61811
2745.83,0.61144
2747.29,0.605422
2748.75,0.599751
2750.2,0.594052
2751.66,0.588306
2753.13,0.582911
2754.59,0.576734
2756.05,0.56965
2757.52,0.568578
2758.99,0.567836
2760.46,0.5638
2761.93,0.560685
2763.4,0.557621
2764.87,0.558012
2766.35,0.559326
2767.82,0.558424
2769.3,0.558309
2770.78,0.559329
2772.26,0.56079
2773.75,0.56357
2775.23,0.565485
2776.72,0.566296
2778.21,0.566976
2779.7,0.568974
2781.19,0.570534
2782.68,0.571672
2784.18,0.572654
2785.67,0.573486
2787.17,0.572874
2788.67,0.573511
2790.17,0.576425
2791.67,0.577707
2793.18,0.577445
2794.68,0.577553
2796.19,0.577957
2797.7,0.578121
2799.21,0.577464
2800.72,0.576512
2802.24,0.574849
2803.75,0.573163
2805.27,0.573282
2806.79,0.573601
2808.31,0.57226
2809.83,0.570813
2811.35,0.569586
2812.88,0.568483
2814.41,0.567204
2815.93,0.566379
2817.46,0.565608
2819.0,0.564628
2820.53,0.564105
2822.07,0.564349
2823.6,0.564031
2825.14,0.563812
2826.68,0.563484
2828.22,0.563077
2829.77,0.563744
2831.31,0.564465
2832.86,0.564518
2834.41,0.564245
2835.96,0.564269
2837.51,0.564698
2839.07,0.566012
2840.62,0.567458
2842.18,0.567933
2843.74,0.568045
2845.3,0.568452
2846.86,0.568649
2848.43,0.569073
2849.99,0.569357
2851.56,0.569367
2853.13,0.569405
2854.7,0.569161
2856.27,0.569413
2857.85,0.570167
2859.42,0.570056
2861.0,0.569642
2862.58,0.570247
2864.16,0.570597
2865.75,0.569972
2867.33,0.569778
2868.92,0.570114
2870.51,0.570363
2872.1,0.570148
2873.69,0.569963
2875.28,0.570306
2876.88,0.570222
2878.48,0.569856
2880.07,0.570177
2881.68,0.570517
2883.28,0.570461
2884.88,0.570722
2886.49,0.570998
2888.1,0.570978
2889.71,0.570798
2891.32,0.570934
2892.93,0.570942
2894.55,0.571254
2896.16,0.571556
2897.78,0.5714
2899.4,0.571166
2901.03,0.571016
2902.65,0.570763
2904.28,0.570599
2905.91,0.57088
2907.53,0.571252
2909.17,0.57134
2910.8,0.570868
2912.44,0.570418
2914.07,0.57089
2915.71,0.570826
2917.35,0.570869
2918.99,0.570977
2920.64,0.570838
2922.29,0.570632
2923.93,0.570736
2925.58,0.570971
2927.24,0.570844
2928.89,0.57067
2930.55,0.570843
2932.2,0.571247
2933.86,0.571476
2935.52,0.571086
2937.19,0.571041
2938.85,0.570814
2940.52,0.57045
2942.19,0.570405
2943.86,0.570913
2945.53,0.570991
2947.21,0.570786
2948.88,0.570907
2950.56,0.57096
2952.24,0.570634
2953.92,0.570262
2955.61,0.56995
2957.29,0.569946
2958.98,0.569804
2960.67,0.569813
2962.36,0.57004
2964.06,0.570335
2965.75,0.57004
2967.45,0.569573
2969.15,0.569192
2970.85,0.569175
2972.55,0.569565
2974.26,0.569577
2975.97,0.569405
2977.68,0.569678
2979.39,0.569336
2981.1,0.56917
2982.82,0.568877
2984.53,0.568926
2986.25,0.569272
2987.97,0.569356
2989.7,0.569098
2991.42,0.56915
2993.15,0.56884
2994.88,0.568273
2996.61,0.567584
2998.34,0.567264
3000.08,0.56734
3001.82,0.56763
3003.55,0.567348
3005.3,0.566876
3007.04,0.566438
3008.78,0.566278
3010.53,0.565828
3012.28,0.565122
3014.03,0.564836
3015.79,0.564663
3017.54,0.563909
3019.3,0.563193
3021.06,0.562197
3022.82,0.561314
3024.58,0.560857
3026.35,0.560213
3028.12,0.5597
3029.89,0.558753
3031.66,0.557694
3033.43,0.557156
3035.21,0.556597
3036.99,0.555566
3038.77,0.555008
3040.55,0.55519
3042.33,0.555541
3044.12,0.556231
3045.91,0.556801
3047.7,0.55717
3049.49,0.558285
3051.29,0.559678
3053.08,0.560709
3054.88,0.561642
3056.68,0.562886
3058.49,0.564664
3060.29,0.566478
3062.1,0.567881
3063.91,0.569507
3065.72,0.570904
3067.54,0.572293
3069.35,0.573793
3071.17,0.574981
3072.99,0.576222
3074.81,0.577256
3076.64,0.578275
3078.46,0.57927
3080.29,0.580107
3082.13,0.581199
3083.96,0.582453
3085.79,0.583494
3087.63,0.584023
3089.47,0.584865
3091.31,0.586122
3093.16,0.586929
3095.01,0.587653
3096.85,0.588184
3098.71,0.588952
3100.56,0.589455
3102.41,0.589892
3104.27,0.590581
3106.13,0.591412
3107.99,0.59215
3109.86,0.592977
3111.73,0.593243
3113.59,0.593641
3115.47,0.594357
3117.34,0.595399
3119.21,0.596062
3121.09,0.596582
3122.97,0.597233
3124.86,0.597675
3126.74,0.597981
3128.63,0.598604
3130.52,0.599402
3132.41,0.600272
3134.3,0.600891
3136.2,0.601823
3138.1,0.602683
3140.0,0.603153
3141.9,0.604024
3143.81,0.60475
3145.71,0.605019
3147.62,0.605616
3149.54,0.606578
3151.45,0.607153
3153.37,0.607608
3155.29,0.608741
3157.21,0.609412
3159.13,0.610048
3161.06,0.610783
3162.99,0.611858
3164.92,0.612687
3166.85,0.613415
3168.79,0.613987
3170.72,0.614662
3172.67,0.615515
3174.61,0.616216
3176.55,0.616925
3178.5,0.61773
3180.45,0.618541
3182.4,0.6195
3184.36,0.62011
3186.32,0.620703
3188.27,0.621565
3190.24,0.622093
3192.2,0.622587
3194.17,0.623404
3196.14,0.624344
3198.11,0.625163
3200.08,0.625728
3202.06,0.626386
3204.04,0.626775
3206.02,0.627114
3208.0,0.627673
3209.99,0.628455
3211.98,0.629112
3213.97,0.629857
3215.96,0.63065
3217.96,0.631157
3219.96,0.631645
3221.96,0.632483
3223.96,0.633248
3225.97,0.634028
3227.98,0.634472
3229.99,0.634874
3232.0,0.635463
3234.02,0.636357
3236.04,0.63721
3238.06,0.637849
3240.08,0.638349
3242.11,0.638995
3244.14,0.639712
3246.17,0.640539
3248.2,0.641435
3250.24,0.642422
3252.28,0.643412
3254.32,0.644041
3256.37,0.644687
3258.41,0.645917
3260.46,0.646777
3262.51,0.6471
3264.57,0.647947
3266.63,0.649281
3268.69,0.650106
3270.75,0.650837
3272.81,0.651769
3274.88,0.652819
3276.95,0.653736
3279.02,0.654638
3281.1,0.655245
3283.18,0.655939
3285.26,0.656754
3287.34,0.657701
3289.43,0.658647
3291.51,0.659709
3293.61,0.660695
3295.7,0.661702
3297.8,0.662344
3299.89,0.663007
3302.0,0.66414
3304.1,0.664927
3306.21,0.6658
3308.32,0.66691
3310.43,0.667717
3312.55,0.668464
3314.66,0.669292
3316.78,0.67024
3318.91,0.670973
3321.03,0.671804
3323.16,0.67257
3325.29,0.673401
3327.43,0.674174
3329.57,0.67502
3331.71,0.675843
3333.85,0.676529
3335.99,0.676896
3338.14,0.677273
3340.29,0.677453
3342.45,0.677674
3344.6,0.677951
3346.76,0.67801
3348.92,0.678115
3351.09,0.678443
3353.26,0.678492
3355.43,0.678513
3357.6,0.678866
3359.78,0.67924
3361.96,0.67961
3364.14,0.679981
3366.32,0.679966
3368.51,0.680232
3370.7,0.680679
3372.89,0.681164
3375.09,0.681389
3377.29,0.682013
3379.49,0.682642
3381.69,0.683488
3383.9,0.684741
3386.11,0.685746
3388.32,0.68675
3390.54,0.687814
3392.76,0.688563
3394.98,0.689033
3397.21,0.689294
3399.43,0.689501
3401.66,0.689533
3403.9,0.689494
3406.13,0.689483
3408.37,0.689476
3410.61,0.689892
3412.86,0.690308
3415.11,0.690518
3417.36,0.691164
3419.61,0.692209
3421.87,0.69385
3424.13,0.695816
3426.39,0.69794
3428.66,0.699964
3430.93,0.701733
3433.2,0.703308
3435.48,0.704893
3437.76,0.70628
3440.04,0.70736
3442.32,0.708676
3444.61,0.710002
3446.9,0.711365
3449.19,0.712439
3451.49,0.713548
3453.79,0.714942
3456.09,0.716018
3458.4,0.716902
3460.7,0.717785
3463.02,0.718391
3465.33,0.719207
3467.65,0.719545
3469.97,0.719416
3472.29,0.719121
3474.62,0.719113
3476.95,0.71942
3479.29,0.719822
3481.62,0.720308
3483.96,0.721457
3486.3,0.72262
3488.65,0.723686
3491.0,0.724655
3493.35,0.725478
3495.71,0.726279
3498.07,0.727244
3500.43,0.728332
3502.79,0.729688
3505.16,0.731341
3507.53,0.733253
3509.91,0.735613
3512.29,0.737681
3514.67,0.739573
3517.05,0.74166
3519.44,0.743641
3521.83,0.745313
3524.22,0.746988
3526.62,0.748531
3529.02,0.750124
3531.43,0.751507
3533.83,0.752655
3536.24,0.753861
3538.66,0.755357
3541.08,0.756575
3543.5,0.757511
3545.92,0.758395
3548.35,0.759309
3550.78,0.760233
3553.21,0.761127
3555.65,0.761816
3558.09,0.76284
3560.53,0.763884
3562.98,0.764909
3565.43,0.765786
3567.88,0.766417
3570.34,0.767199
3572.8,0.768219
3575.27,0.769041
3577.73,0.769929
3580.2,0.770784
3582.68,0.771692
3585.16,0.772371
3587.64,0.772983
3590.12,0.773772
3592.61,0.774789
3595.1,0.775717
3597.6,0.776498
3600.09,0.777128
3602.6,0.777605
3605.1,0.77822
3607.61,0.779239
3610.12,0.780144
3612.64,0.780665
3615.16,0.781333
3617.68,0.781908
3620.21,0.782359
3622.74,0.78304
3625.27,0.783603
3627.81,0.784093
3630.35,0.784556
3632.89,0.785217
3635.44,0.785747
3637.99,0.786387
3640.54,0.787173
3643.1,0.787744
3645.66,0.788212
3648.23,0.789112
3650.8,0.789853
3653.37,0.790552
3655.95,0.791145
3658.53,0.791805
3661.11,0.792292
3663.7,0.793057
3666.29,0.793582
3668.89,0.793839
3671.48,0.794304
3674.09,0.794972
3676.69,0.79557
3679.3,0.796307
3681.91,0.796887
3684.53,0.79727
3687.15,0.797718
3689.78,0.798709
3692.4,0.79915
3695.04,0.799406
3697.67,0.799796
3700.31,0.800353
3702.95,0.801082
3705.6,0.801512
3708.25,0.801717
3710.91,0.802326
3713.56,0.803066
3716.23,0.803451
3718.89,0.803644
3721.56,0.804034
3724.23,0.804613
3726.91,0.805132
3729.59,0.805686
3732.28,0.806187
3734.97,0.806531
3737.66,0.806931
3740.36,0.807001
3743.06,0.80743
3745.76,0.808178
3748.47,0.808754
3751.18,0.808849
3753.9,0.809194
3756.62,0.809663
3759.34,0.809935
3762.07,0.81021
3764.8,0.810713
3767.54,0.811227
3770.28,0.8118
3773.02,0.81209
3775.77,0.81236
3778.52,0.812626
3781.28,0.812852
3784.04,0.812886
3786.8,0.813164
3789.57,0.813758
3792.34,0.813824
3795.12,0.813845
3797.9,0.813875
3800.69,0.813771
3803.47,0.814012
3806.27,0.814043
3809.06,0.813786
3811.86,0.813785
3814.67,0.813947
3817.48,0.813918
3820.29,0.813852
3823.11,0.813747
3825.93,0.813496
3828.76,0.813152
3831.59,0.813034
3834.42,0.812766
3837.26,0.812485
3840.1,0.812163
3842.95,0.812077
3845.8,0.81222
3848.65,0.812451
3851.51,0.812427
3854.38,0.812562
3857.24,0.812545
3860.12,0.812853
3862.99,0.813313
3865.87,0.813653
3868.76,0.813763
3871.65,0.813957
3874.54,0.814139
3877.44,0.814427
3880.34,0.814711
3883.25,0.814703
3886.16,0.814603
3889.07,0.814613
3891.99,0.814718
3894.92,0.814906
3897.85,0.814785
3900.78,0.814861
3903.72,0.814787
3906.66,0.814609
3909.6,0.814476
3912.55,0.814565
3915.51,0.814271
3918.47,0.813737
3921.43,0.813226
3924.4,0.813164
3927.37,0.813049
3930.35,0.812425
3933.33,0.811996
3936.32,0.811782
3939.31,0.811385
3942.31,0.810607
3945.31,0.809219
3948.31,0.807692
3951.32,0.806224
3954.34,0.804599
3957.35,0.802885
3960.38,0.801381
3963.41,0.799661
3966.44,0.798242
3969.48,0.797043
3972.52,0.796128
3975.56,0.795282
3978.61,0.794516
3981.67,0.794294
3984.73,0.794388
3987.8,0.794696
3990.87,0.79569
3993.94,0.796794
3997.02,0.798218
4000.1,0.799936
4003.19,0.801868
4006.29,0.80396
4009.39,0.805838
4012.49,0.80757
4015.6,0.809195
4018.71,0.810497
4021.83,0.81152
4024.95,0.812083
4028.08,0.812591
4031.21,0.813043
4034.35,0.813628
4037.49,0.813981
4040.64,0.814347
4043.79,0.814742
4046.94,0.81529
4050.11,0.81563
4053.27,0.815615
4056.44,0.815615
4059.62,0.815798
4062.8,0.815924
4065.99,0.816084
4069.18,0.816083
4072.38,0.815994
4075.58,0.81602
4078.78,0.816238
4082.0,0.816273
4085.21,0.816098
4088.43,0.815725
4091.66,0.815577
4094.89,0.815321
4098.13,0.815194
4101.37,0.815147
4104.62,0.815318
4107.87,0.815173
4111.13,0.814879
4114.39,0.81463
4117.66,0.814317
4120.93,0.814033
4124.21,0.813974
4127.5,0.813995
4130.78,0.813929
4134.08,0.813523
4137.38,0.813288
4140.68,0.813276
4143.99,0.813167
4147.31,0.812824
4150.63,0.812799
4153.95,0.812509
4157.29,0.812236
4160.62,0.812098
4163.96,0.812144
4167.31,0.811986
4170.66,0.811671
4174.02,0.811167
4177.39,0.811144
4180.75,0.810949
4184.13,0.810687
4187.51,0.810238
4190.89,0.809886
4194.28,0.809431
4197.68,0.808795
4201.08,0.808398
4204.49,0.808182
4207.9,0.807804
4211.32,0.807368
4214.74,0.806912
4218.17,0.806634
4221.61,0.806085
4225.05,0.805927
4228.5,0.805736
4231.95,0.805502
4235.4,0.805064
4238.87,0.804578
4242.34,0.804135
4245.81,0.803975
4249.29,0.803548
4252.78,0.803073
4256.27,0.802232
4259.77,0.800758
4263.27,0.799273
4266.78,0.798584
4270.29,0.798377
4273.81,0.798155
4277.34,0.797865
4280.87,0.797446
4284.41,0.796677
4287.95,0.79596
4291.5,0.795362
4295.06,0.794881
4298.62,0.794272
4302.19,0.793378
4305.76,0.792429
4309.34,0.791587
4312.92,0.790653
4316.52,0.789718
4320.11,0.788502
4323.72,0.787488
4327.32,0.786547
4330.94,0.785776
4334.56,0.784685
4338.19,0.783759
4341.82,0.782926
4345.46,0.781985
4349.11,0.780979
4352.76,0.780168
4356.42,0.779324
4360.08,0.778531
4363.75,0.777799
4367.43,0.777104
4371.11,0.776314
4374.8,0.775582
4378.49,0.775009
4382.19,0.774262
4385.9,0.77335
4389.61,0.77279
4393.33,0.772049
4397.06,0.77111
4400.79,0.770162
4404.53,0.769397
4408.28,0.768661
4412.03,0.767949
4415.79,0.767256
4419.55,0.766633
4423.32,0.765901
4427.1,0.765414
4430.88,0.764636
4434.67,0.763845
4438.47,0.763297
4442.27,0.762665
4446.08,0.762006
4449.9,0.761264
4453.72,0.760381
4457.55,0.759742
4461.39,0.758969
4465.23,0.757857
4469.08,0.756671
4472.94,0.755452
4476.8,0.754092
4480.67,0.752817
4484.55,0.75137
4488.43,0.749932
4492.32,0.748368
4496.21,0.746794
4500.12,0.745044
4504.03,0.743257
4507.94,0.741476
4511.87,0.739705
4515.8,0.737938
4519.73,0.736079
4523.68,0.73421
4527.63,0.732529
4531.59,0.730789
4535.55,0.729169
4539.52,0.727373
4543.5,0.725879
4547.49,0.72442
4551.48,0.723032
4555.48,0.721573
4559.49,0.720232
4563.5,0.718721
4567.52,0.717142
4571.55,0.715525
4575.58,0.713952
4579.62,0.71239
4583.67,0.710843
4587.73,0.70925
4591.79,0.707819
4595.86,0.706142
4599.94,0.704521
4604.03,0.702693
4608.12,0.701003
4612.22,0.699157
4616.33,0.697212
4620.44,0.694989
4624.56,0.692649
4628.69,0.690164
4632.83,0.687747
4636.97,0.6852
4641.12,0.682562
4645.28,0.679934
4649.45,0.677684
4653.62,0.675848
4657.8,0.674218
4661.99,0.672798
4666.19,0.67163
4670.39,0.670889
4674.6,0.670096
4678.82,0.669314
4683.05,0.668494
4687.28,0.667431
4691.52,0.666123
4695.77,0.664794
4700.03,0.66364
4704.3,0.662364
4708.57,0.661132
4712.85,0.659808
4717.14,0.658312
4721.43,0.656802
4725.74,0.655248
4730.05,0.653565
4734.37,0.651996
4738.7,0.650315
4743.03,0.6488
4747.38,0.647109
4751.73,0.645317
4756.09,0.643279
4760.45,0.64128
4764.83,0.639379
4769.21,0.637629
4773.6,0.635852
4778.0,0.634786
4782.41,0.634231
4786.83,0.634052
4791.25,0.63468
4795.68,0.636233
4800.13,0.638213
4804.57,0.640214
4809.03,0.642269
4813.5,0.64412
4817.97,0.645608
4822.45,0.646828
4826.94,0.647523
4831.44,0.647775
4835.95,0.647687
4840.46,0.647171
4844.99,0.645912
4849.52,0.644599
4854.06,0.64294
4858.61,0.640969
4863.17,0.638964
4867.73,0.63714
4872.31,0.635184
4876.89,0.633678
4881.48,0.632197
4886.08,0.630652
4890.69,0.629003
4895.31,0.627358
4899.94,0.62585
4904.57,0.624802
4909.22,0.624211
4913.87,0.624441
4918.53,0.625577
4923.21,0.627277
4927.88,0.629297
4932.57,0.631377
4937.27,0.632942
4941.98,0.633704
4946.69,0.633714
4951.42,0.633031
4956.15,0.631306
4960.89,0.628903
4965.65,0.626236
4970.41,0.622855
4975.18,0.618957
4979.96,0.614935
4984.75,0.610881
4989.54,0.607381
4994.35,0.604255
4999.17,0.601498
5003.99,0.599439
5008.83,0.598031
5013.67,0.597023
5018.52,0.596044
5023.39,0.594885
5028.26,0.594176
5033.14,0.592925
5038.03,0.5915
5042.93,0.589959
5047.84,0.588546
5052.76,0.58714
5057.69,0.585924
5062.63,0.584656
5067.58,0.583155
5072.54,0.581124
5077.51,0.579087
5082.49,0.576647
5087.47,0.573956
5092.47,0.571097
5097.48,0.567786
5102.5,0.564289
5107.52,0.560821
5112.56,0.55738
5117.61,0.554182
5122.66,0.551237
5127.73,0.548477
5132.81,0.54589
5137.89,0.543461
5142.99,0.54118
5148.1,0.538849
5153.22,0.5367
5158.34,0.535027
5163.48,0.532756
5168.63,0.530503
5173.79,0.528224
5178.96,0.525933
5184.13,0.523481
5189.32,0.521142
5194.52,0.518908
5199.73,0.516662
5204.95,0.514564
5210.19,0.512909
5215.43,0.510432
5220.68,0.508881
5225.94,0.507304
5231.22,0.505282
5236.5,0.503849
5241.79,0.502984
5247.1,0.502664
5252.42,0.502696
5257.74,0.503091
5263.08,0.503528
5268.43,0.504105
5273.79,0.504589
5279.16,0.504614
5284.54,0.504925
5289.93,0.504908
5295.34,0.504733
5300.75,0.505471
5306.18,0.505693
5311.61,0.505655
5317.06,0.506079
5322.52,0.506437
5327.99,0.506603
5333.47,0.506613
5338.96,0.506659
5344.47,0.50635
5349.98,0.505082
5355.51,0.504257
5361.05,0.504063
5366.6,0.502491
5372.16,0.500467
5377.73,0.498201
5383.32,0.495698
5388.91,0.49263
5394.52,0.489591
5400.14,0.486083
5405.77,0.482237
5411.41,0.478097
5417.07,0.474007
5422.74,0.469203
5428.41,0.465775
5434.1,0.463504
5439.81,0.459926
5445.52,0.456457
5451.25,0.453236
5456.98,0.45004
5462.73,0.446285
5468.5,0.44295
5474.27,0.44099
5480.06,0.438053
5485.86,0.435414
5491.67,0.432938
5497.49,0.429776
5503.33,0.426667
5509.18,0.423207
5515.04,0.419718
5520.91,0.415598
5526.8,0.411491
5532.69,0.40736
5538.61,0.402805
5544.53,0.397651
5550.47,0.392557
5556.41,0.387336
5562.38,0.383076
5568.35,0.379492
5574.34,0.376612
5580.34,0.373951
5586.35,0.373731
5592.38,0.375003
5598.42,0.375904
5604.47,0.376682
5610.54,0.377983
5616.61,0.378469
5622.71,0.378688
5628.81,0.378467
5634.93,0.377155
5641.06,0.374989
5647.21,0.373304
5653.36,0.372861
5659.54,0.371357
5665.72,0.370437
5671.92,0.369081
5678.13,0.367514
5684.36,0.367201
5690.6,0.366467
5696.85,0.365598
5703.12,0.365691
5709.4,0.364605
5715.69,0.364102
5722.0,0.365101
5728.33,0.365771
5734.66,0.366121
5741.01,0.366398
5747.38,0.366931
5753.76,0.367656
5760.15,0.368864
5766.56,0.367588
5772.98,0.368723
5779.41,0.371264
5785.86,0.371347
5792.33,0.371889
5798.81,0.372325
5805.3,0.372772
5811.81,0.373623
5818.33,0.373454
5824.87,0.372783
5831.42,0.374505
5837.99,0.375512
5844.57,0.375575
5851.17,0.374888
5857.78,0.37389
5864.41,0.372354
5871.05,0.371498
5877.7,0.370065
5884.38,0.367242
5891.06,0.368248
5897.76,0.36667
5904.48,0.366244
5911.21,0.366931
5917.96,0.365467
5924.73,0.364674
5931.5,0.363976
5938.3,0.362156
5945.11,0.363138
5951.93,0.364646
5958.78,0.363965
5965.63,0.363355
5972.51,0.361813
5979.39,0.362083
5986.3,0.360894
5993.22,0.359243
6000.16,0.358794
6007.11,0.357966
6014.08,0.355874
6021.06,0.354539
6028.06,0.353777
6035.08,0.352395
6042.12,0.350417
6049.17,0.347003
6056.23,0.34619
6063.32,0.347723
6070.42,0.344813
6077.53,0.342587
6084.67,0.34211
6091.82,0.340606
6098.98,0.337891
6106.17,0.335157
6113.37,0.331516
6120.58,0.329384
6127.82,0.329119
6135.07,0.327999
6142.34,0.326943
6149.63,0.326755
6156.93,0.326775
6164.25,0.326601
6171.59,0.327679
6178.94,0.328176
6186.32,0.327438
6193.71,0.328257
6201.12,0.329405
6208.54,0.328881
6215.99,0.328694
6223.45,0.32871
6230.93,0.329071
6238.43,0.329277
6245.95,0.329556
6253.48,0.32973
6261.03,0.330076
6268.6,0.330172
6276.19,0.330147
6283.8,0.330273
6291.43,0.330286
6299.07,0.330182
6306.73,0.330168
6314.42,0.330137
6322.12,0.330485
6329.83,0.330778
6337.57,0.331204
6345.33,0.33109
6353.11,0.333042
6360.9,0.335254
6368.72,0.335477
6376.55,0.336295
6384.4,0.338429
6392.27,0.339451
6400.17,0.340631
6408.08,0.340779
6416.01,0.339286
6423.96,0.340915
6431.93,0.342811
6439.92,0.342503
6447.93,0.342541
6455.96,0.341338
6464.01,0.340286
6472.08,0.338527
6480.17,0.336369
6488.28,0.333959
6496.41,0.33139
6504.56,0.330457
6512.73,0.329817
6520.92,0.327316
6529.14,0.325213
6537.37,0.323791
6545.63,0.321471
6553.9,0.318921
6562.2,0.316504
6570.51,0.313544
6578.85,0.310313
6587.21,0.308265
6595.59,0.305508
6603.99,0.303194
6612.42,0.300894
6620.86,0.298707
6629.33,0.296449
6637.82,0.293855
6646.33,0.292627
6654.86,0.292852
6663.41,0.291586
6671.99,0.289975
6680.59,0.288278
6689.21,0.287038
6697.85,0.286005
6706.51,0.284299
6715.2,0.282207
6723.91,0.28062
6732.64,0.278946
6741.4,0.277361
6750.18,0.275526
6758.98,0.273881
6767.8,0.27258
6776.65,0.271222
6785.52,0.269887
6794.41,0.268655
6803.33,0.268108
6812.27,0.26753
6821.23,0.266316
6830.22,0.264969
6839.23,0.263857
6848.26,0.26263
6857.32,0.260646
6866.4,0.258247
6875.51,0.256807
6884.64,0.255727
6893.8,0.253931
6902.98,0.25208
6912.18,0.250124
6921.41,0.248554
6930.66,0.246991
6939.94,0.245348
6949.24,0.243586
6958.57,0.241728
6967.92,0.239851
6977.3,0.238906
6986.7,0.237788
6996.13,0.236782
7005.59,0.235852
7015.07,0.235116
7024.57,0.233899
7034.1,0.232617
7043.66,0.231206
7053.24,0.229868
7062.85,0.228442
7072.49,0.227027
7082.15,0.225291
7091.84,0.223396
7101.55,0.221328
7111.3,0.219208
7121.06,0.216737
7130.86,0.214254
7140.68,0.211732
7150.53,0.209178
7160.41,0.206813
7170.31,0.204899
7180.24,0.203218
7190.2,0.201906
7200.19,0.200462
7210.2,0.198862
7220.24,0.197057
7230.31,0.195431
7240.41,0.193749
7250.54,0.192079
7260.69,0.189916
7270.88,0.187514
7281.09,0.184935
7291.33,0.18271
7301.6,0.18033
7311.9,0.177762
7322.22,0.174926
7332.58,0.172144
7342.97,0.169034
7353.38,0.165929
7363.83,0.162884
7374.3,0.159951
7384.81,0.156803
7395.34,0.153646
7405.91,0.15032
7416.5,0.147305
7427.13,0.144254
7437.78,0.141315
7448.47,0.138312
7459.19,0.135441
7469.94,0.132149
7480.71,0.128628
7491.52,0.124959
7502.37,0.121316
7513.24,0.117255
7524.14,0.11323
7535.08,0.109086
7546.05,0.105055
7557.05,0.100768
7568.08,0.09642
7579.14,0.092035
7590.24,0.087724
7601.37,0.083439
7612.53,0.079404
7623.73,0.075524
7634.96,0.071953
7646.22,0.068234
7657.51,0.064825
7668.84,0.061618
7680.2,0.058651
7691.59,0.055738
7703.02,0.053201
7714.49,0.050568
7725.98,0.048448
7737.51,0.046456
7749.08,0.044776
7760.68,0.043202
7772.32,0.041963
7783.99,0.040875
7795.69,0.040296
7807.43,0.040206
7819.21,0.040559
7831.02,0.04113
7842.87,0.042525
7854.75,0.044401
7866.67,0.04697
7878.62,0.05002
7890.62,0.053519
7902.64,0.057521
7914.71,0.062597
7926.81,0.068201
7938.95,0.074401
7951.13,0.081023
7963.34,0.088145
7975.59,0.095656
7987.88,0.1039
8000.21,0.112329
8012.57,0.12085
8024.98,0.129306
8037.42,0.137906
8049.9,0.146423
8062.42,0.154916
8074.98,0.16324
8087.57,0.171373
8100.21,0.179323
8112.89,0.187227
8125.6,0.194756
8138.36,0.201819
8151.16,0.208684
8163.99,0.215174
8176.87,0.220907
8189.79,0.226067
8202.75,0.230269
8215.74,0.233428
8228.79,0.23559
8241.87,0.236602
8254.99,0.236342
8268.16,0.235166
8281.37,0.233173
8294.62,0.230378
8307.91,0.2269
8321.24,0.222992
8334.62,0.218748
8348.04,0.214417
8361.51,0.209961
8375.02,0.205446
8388.57,0.200734
8402.16,0.19615
8415.8,0.191583
8429.49,0.187002
8443.22,0.1827
8456.99,0.178747
8470.81,0.175104
8484.67,0.171743
8498.58,0.168413
8512.54,0.165475
8526.54,0.162712
8540.58,0.160052
8554.68,0.157444
8568.82,0.154987
8583.0,0.152478
8597.24,0.150053
8611.52,0.147646
8625.85,0.145003
8640.22,0.142318
8654.65,0.139625
8669.12,0.13687
8683.64,0.134134
8698.21,0.131311
8712.83,0.128736
8727.5,0.126132
8742.22,0.12352
8756.98,0.121025
8771.8,0.118779
8786.67,0.116477
8801.59,0.114337
8816.56,0.11244
8831.58,0.11069
8846.65,0.108933
8861.77,0.107486
8876.94,0.105792
8892.17,0.104263
8907.45,0.102827
8922.78,0.101561
8938.16,0.100577
8953.6,0.09942
8969.09,0.098235
8984.64,0.097435
9000.23,0.096838
9015.89,0.096331
9031.59,0.095471
9047.36,0.094694
9063.17,0.094144
9079.04,0.094023
9094.97,0.094092
9110.96,0.094636
9127.0,0.095199
9143.09,0.095811
9159.25,0.09622
9175.46,0.096577
9191.73,0.096559
9208.05,0.096472
9224.44,0.09644
9240.88,0.096544
9257.38,0.096484
9273.94,0.096463
9290.56,0.096329
9307.24,0.096611
9323.98,0.096855
9340.78,0.097033
9357.64,0.097534
9374.57,0.098211
9391.55,0.098939
9408.59,0.099803
9425.7,0.100572
9442.87,0.101827
9460.1,0.103326
9477.39,0.105422
9494.75,0.10808
9512.17,0.111327
9529.66,0.11468
9547.21,0.118051
9564.82,0.120729
9582.5,0.122828
9600.25,0.12453
9618.06,0.125546
9635.94,0.126038
9653.88,0.126175
9671.89,0.125735
9689.97,0.12463
9708.12,0.122933
9726.33,0.12056
9744.61,0.117252
9762.97,0.113943
9781.39,0.111156
9799.88,0.109161
9818.44,0.10852
9837.07,0.109605
9855.77,0.111659
9874.54,0.113899
9893.39,0.115717
9912.3,0.116714
9931.29,0.117064
9950.35,0.117084
9969.49,0.116318
9988.7,0.115254
10007.98,0.114079
10027.34,0.112735
10046.77,0.111036
10066.28,0.109519
10085.87,0.10812
10105.53,0.106976
10125.26,0.105835
10145.08,0.104539
10164.97,0.103283
10184.94,0.102153
10204.99,0.1009
10225.12,0.099983
10245.33,0.099124
10265.61,0.098372
10285.98,0.097491
10306.43,0.096743
10326.96,0.096025
10347.57,0.095585
10368.27,0.095452
10389.05,0.095211
10409.91,0.094874
10430.85,0.09479
10451.88,0.094965
10473.0,0.095263
10494.2,0.095437
10515.49,0.095922
10536.86,0.096775
10558.32,0.097425
10579.87,0.097718
10601.5,0.098226
10623.23,0.098834
10645.04,0.099692
10666.94,0.100691
10688.94,0.101821
10711.02,0.103197
10733.2,0.104787
10755.47,0.106494
10777.83,0.108497
10800.28,0.110477
10822.83,0.112479
10845.47,0.114758
10868.21,0.117424
10891.04,0.120197
10913.97,0.123024
10936.99,0.126079
10960.12,0.12914
10983.34,0.132415
11006.66,0.136033
11030.07,0.139387
11053.59,0.142692
11077.21,0.146271
11100.93,0.150308
11124.75,0.154627
11148.68,0.159257
11172.7,0.163989
11196.84,0.16865
11221.07,0.172766
11245.41,0.176675
11269.86,0.180326
11294.41,0.183744
11319.07,0.18657
11343.84,0.18867
11368.72,0.190393
11393.7,0.191642
11418.8,0.192499
11444.01,0.193473
11469.33,0.194938
11494.76,0.196859
11520.3,0.198706
11545.96,0.200006
11571.73,0.201132
11597.62,0.202291
11623.62,0.20333
11649.74,0.204607
11675.98,0.205737
11702.34,0.206824
11728.81,0.208011
11755.41,0.209174
11782.13,0.210132
11808.96,0.211113
11835.92,0.21205
11863.01,0.213399
11890.22,0.214781
11917.55,0.215853
11945.01,0.216496
11972.6,0.216595
12000.31,0.216685
12028.16,0.216391
12056.13,0.215508
12084.23,0.214446
12112.46,0.21293
12140.83,0.210729
12169.33,0.207676
12197.96,0.20365
12226.73,0.19806
12255.64,0.191453
12284.68,0.184614
12313.86,0.177598
12343.18,0.170053
12372.64,0.161961
12402.24,0.153251
12431.98,0.143979
12461.86,0.134122
12491.89,0.124271
12522.06,0.114452
12552.38,0.105114
12582.85,0.096526
12613.47,0.089179
12644.23,0.08354
12675.15,0.080172
12706.21,0.078076
12737.43,0.077199
12768.8,0.077287
12800.33,0.078139
12832.02,0.079167
12863.86,0.079692
12895.86,0.079537
12928.02,0.079579
12960.34,0.080099
12992.82,0.080715
13025.46,0.081252
13058.27,0.081886
13091.25,0.082246
13124.39,0.082098
13157.7,0.08136
13191.18,0.080928
13224.83,0.080745
13258.66,0.080541
13292.65,0.079939
13326.83,0.079489
13361.17,0.079181
13395.7,0.079189
13430.4,0.079576
13465.29,0.080635
13500.35,0.081935
13535.6,0.083259
13571.03,0.084295
13606.65,0.084597
13642.46,0.084351
13678.46,0.083577
13714.64,0.082167
13751.02,0.081058
13787.59,0.080701
13824.36,0.081749
13861.32,0.083733
13898.48,0.086504
13935.85,0.089543
13973.41,0.09257
14011.17,0.095068
14049.15,0.097354
14087.32,0.099442
14125.71,0.1016
14164.3,0.103419
14203.11,0.10473
14242.13,0.105715
14281.36,0.106936
14320.81,0.107573
14360.48,0.107708
14400.38,0.107491
14440.49,0.107203
14480.82,0.106644
14521.39,0.106096
14562.18,0.10553
14603.2,0.105296
14644.45,0.104685
14685.93,0.103864
14727.66,0.103364
14769.62,0.103127
14811.81,0.102642
14854.25,0.10234
14896.94,0.101973
14939.87,0.101765
14983.05,0.101884
15026.48,0.102787
15070.16,0.104106
15114.1,0.105718
15158.29,0.106911
15202.74,0.107577
15247.46,0.10692
15292.43,0.104748
15337.68,0.101422
15383.19,0.097111
15428.97,0.091909
15475.03,0.086965
15521.36,0.082775
15567.97,0.079718
15614.86,0.077874
15662.04,0.077171
15709.5,0.077389
15757.25,0.078097
15805.29,0.07973
15853.62,0.082615
15902.25,0.085989
15951.18,0.089738
16000.42,0.093732
16049.95,0.097478
16099.8,0.100371
16149.95,0.10219
16200.42,0.102826
16251.21,0.102499
16302.31,0.101835
16353.74,0.101407
16405.49,0.101952
16457.57,0.104405
16509.98,0.107376
16562.73,0.109914
16615.82,0.111689
16669.24,0.112724
16723.02,0.112927
16777.13,0.112906
16831.61,0.112569
16886.43,0.112328
16941.62,0.111763
16997.16,0.111554
17053.07,0.111166
17109.36,0.110485
17166.01,0.110246
17223.04,0.110509
17280.45,0.110697
17338.24,0.110718
17396.43,0.110118
17455.0,0.109584
17513.97,0.10973
17573.34,0.109758
17633.11,0.109265
17693.29,0.109135
17753.89,0.109576
17814.9,0.109916
17876.33,0.109519
17938.18,0.108962
18000.47,0.108489
18063.19,0.107539
18126.35,0.106816
18189.95,0.106529
18254.0,0.106338
18318.5,0.106373
18383.46,0.106946
18448.88,0.108346
18514.77,0.110319
18581.13,0.112965
18647.97,0.11409
18715.29,0.113664
18783.1,0.113286
18851.4,0.113265
18920.2,0.112916
18989.51,0.113366
19059.32,0.114774
19129.65,0.115805
19200.5,0.115361
19271.88,0.117469
19343.79,0.120933
19416.23,0.123239
19489.23,0.124834
19562.77,0.125105
19636.88,0.124294
19711.54,0.12352
19786.77,0.122674
19862.59,0.122059
19938.98,0.121136
20015.96,0.11999
20093.54,0.11945
20171.73,0.118753
20250.53,0.118238
20329.94,0.118157
20409.98,0.118507
20490.65,0.11886
20571.96,0.11846
20653.92,0.118537
20736.54,0.11838
20819.82,0.115913
20903.77,0.111841
20988.4,0.106281
21073.72,0.100301
21159.73,0.094193
21246.46,0.089308
21333.89,0.08866
21422.04,0.08962
21510.93,0.091488
21600.56,0.094509
21690.94,0.096582
21782.08,0.096887
21873.99,0.097446
21966.67,0.098703
22060.15,0.102064
22154.42,0.108314
22249.51,0.116085
22345.41,0.121717
22442.14,0.125302
22539.72,0.128291
22638.14,0.129252
22737.43,0.130109
22837.6,0.132047
22938.65,0.133515
23040.6,0.135076
23143.46,0.13597
23247.24,0.137099
23351.96,0.136632
23457.62,0.135566
23564.25,0.134719
23671.85,0.134776
23780.44,0.135464
23890.02,0.136757
24000.63,0.1359
24112.26,0.131994
24224.93,0.128107
24338.66,0.125519
24453.47,0.126324
24569.36,0.129061
24686.36,0.131733
24804.47,0.134238
24923.72,0.13508
25044.13,0.131625
25165.7,0.128343
25288.46,0.125379
25412.43,0.124301
25537.61,0.1234
25664.03,0.120968
25791.71,0.122661
25920.67,0.124727
