Database of Origin,University of Winnipeg Spectrophotometer Facility
Sample Description,16.12. Meteorites - Ureilites 16.12.3. Pierre Hudon (JSC) samples (b) RELAB + Nicolet FTIR merged spectra from RELAB
Other Information,bkr3ph028
Date Added,2018-07-23 23:49:08.034041

Data ID,RLA_MET2_10_15      
Sample ID,Novo-Urei
Mineral Name,Novo-Urei
Grain Size,<75 um
Viewing Geometry,30/0/30
Resolution,5/0.8-121 nm

Wavelength
305.0,0.04812
310.0,0.05019
315.0,0.05393
320.0,0.05538
325.0,0.05541
330.0,0.05589
335.0,0.05554
340.0,0.05647
345.0,0.0567
350.0,0.05717
355.0,0.05814
360.0,0.05888
365.0,0.05954
370.0,0.05994
375.0,0.06118
380.0,0.06214
385.0,0.06348
390.0,0.06486
395.0,0.06619
400.0,0.06673
405.0,0.06799
410.0,0.06926
415.0,0.07032
420.0,0.07179
425.0,0.07332
430.0,0.07466
435.0,0.07623
440.0,0.07751
445.0,0.07879
450.0,0.07972
455.0,0.08081
460.0,0.08172
465.0,0.08247
470.0,0.08324
475.0,0.08373
480.0,0.08483
485.0,0.08568
490.0,0.08685
495.0,0.08814
500.0,0.08938
505.0,0.09071
510.0,0.09197
515.0,0.0932
520.0,0.09439
525.0,0.09561
530.0,0.09692
535.0,0.09818
540.0,0.09938
545.0,0.1005
550.0,0.10148
555.0,0.10239
560.0,0.10339
565.0,0.104
570.0,0.10484
575.0,0.10535
580.0,0.10632
585.0,0.10685
590.0,0.10777
595.0,0.10806
600.0,0.10872
605.0,0.10888
610.0,0.10995
615.0,0.11057
620.0,0.11115
625.0,0.11166
630.0,0.11221
635.0,0.11268
640.0,0.11317
645.0,0.11354
650.0,0.11373
655.0,0.11412
660.0,0.11404
665.0,0.11465
670.0,0.11454
675.0,0.11481
680.0,0.11489
685.0,0.11516
690.0,0.11514
695.0,0.11517
700.0,0.11549
705.0,0.11542
710.0,0.11569
715.0,0.11542
720.0,0.11576
725.0,0.11586
730.0,0.1158
735.0,0.11596
740.0,0.11576
745.0,0.11607
750.0,0.11592
755.0,0.11601
760.0,0.11589
765.0,0.11593
770.0,0.11552
775.0,0.11553
780.0,0.11519
785.0,0.11521
790.0,0.11499
795.0,0.11459
800.0,0.11467
805.0,0.11438
810.0,0.11426
815.0,0.11383
820.0,0.11362
825.0,0.1134
830.0,0.113
835.0,0.11276
840.0,0.11236
845.0,0.11227
850.0,0.11178
855.0,0.11139
860.0,0.11097
865.0,0.11062
870.0,0.11025
875.0,0.10985
880.0,0.10956
885.0,0.10924
890.0,0.10895
895.0,0.10853
900.0,0.10821
905.0,0.10789
910.0,0.10758
915.0,0.10723
920.0,0.10708
925.0,0.10695
930.0,0.10677
935.0,0.10656
940.0,0.10653
945.0,0.10635
950.0,0.10614
955.0,0.10607
960.0,0.10607
965.0,0.10587
970.0,0.10587
975.0,0.10578
980.0,0.10567
985.0,0.10564
990.0,0.1057
995.0,0.10553
1000.0,0.10555
1005.0,0.10553
1010.0,0.10549
1015.0,0.10545
1020.0,0.10547
1025.0,0.10542
1030.0,0.10548
1035.0,0.1054
1040.0,0.10545
1045.0,0.10544
1050.0,0.10546
1055.0,0.10545
1060.0,0.10549
1065.0,0.10548
1070.0,0.10546
1075.0,0.10542
1080.0,0.10538
1085.0,0.10544
1090.0,0.10543
1095.0,0.10542
1100.0,0.10546
1105.0,0.10545
1110.0,0.10543
1115.0,0.10534
1120.0,0.10526
1125.0,0.10525
1130.0,0.10517
1135.0,0.1051
1140.0,0.10501
1145.0,0.10503
1150.0,0.10493
1155.0,0.10498
1160.0,0.1049
1165.0,0.10488
1170.0,0.10487
1175.0,0.10483
1180.0,0.1048
1185.0,0.1048
1190.0,0.10478
1195.0,0.10479
1200.0,0.10481
1205.0,0.10481
1210.0,0.10479
1215.0,0.10478
1220.0,0.10474
1225.0,0.10474
1230.0,0.10459
1235.0,0.10459
1240.0,0.10459
1245.0,0.10448
1250.0,0.10437
1255.0,0.1043
1260.0,0.10411
1265.0,0.10398
1270.0,0.1039
1275.0,0.1037
1280.0,0.10359
1285.0,0.10351
1290.0,0.1034
1295.0,0.1033
1300.0,0.10323
1305.0,0.10311
1310.0,0.10302
1315.0,0.10301
1320.0,0.10301
1325.0,0.10295
1330.0,0.10295
1335.0,0.10297
1340.0,0.10292
1345.0,0.10278
1350.0,0.10278
1355.0,0.10264
1360.0,0.10257
1365.0,0.10243
1370.0,0.10236
1375.0,0.10227
1380.0,0.10236
1385.0,0.10244
1390.0,0.10255
1395.0,0.10261
1400.0,0.10267
1405.0,0.10274
1410.0,0.10274
1415.0,0.10278
1420.0,0.10274
1425.0,0.10264
1430.0,0.10252
1435.0,0.10246
1440.0,0.10239
1445.0,0.10228
1450.0,0.1022
1455.0,0.10219
1460.0,0.10221
1465.0,0.10216
1470.0,0.10223
1475.0,0.10226
1480.0,0.10224
1485.0,0.10216
1490.0,0.1022
1495.0,0.10227
1500.0,0.10227
1505.0,0.10232
1510.0,0.10234
1515.0,0.10233
1520.0,0.10231
1525.0,0.10241
1530.0,0.10246
1535.0,0.10247
1540.0,0.10246
1545.0,0.10248
1550.0,0.10235
1555.0,0.10228
1560.0,0.10229
1565.0,0.10232
1570.0,0.10229
1575.0,0.10238
1580.0,0.10237
1585.0,0.10233
1590.0,0.10231
1595.0,0.10225
1600.0,0.10217
1605.0,0.1022
1610.0,0.10222
1615.0,0.10221
1620.0,0.10217
1625.0,0.10217
1630.0,0.10209
1635.0,0.10207
1640.0,0.10215
1645.0,0.10219
1650.0,0.10214
1655.0,0.1022
1660.0,0.10218
1665.0,0.10213
1670.0,0.1022
1675.0,0.10226
1680.0,0.10211
1685.0,0.10208
1690.0,0.10206
1695.0,0.10197
1700.0,0.102
1705.0,0.10202
1710.0,0.10204
1715.0,0.10201
1720.0,0.10201
1725.0,0.10196
1730.0,0.10197
1735.0,0.10194
1740.0,0.10188
1745.0,0.10189
1750.0,0.10185
1755.0,0.10206
1760.0,0.10209
1765.0,0.10218
1770.0,0.10213
1775.0,0.10213
1780.0,0.10207
1785.0,0.10205
1790.0,0.10206
1795.0,0.10217
1800.0,0.10221
1805.0,0.1022
1810.0,0.10233
1815.0,0.10222
1820.0,0.10221
1825.0,0.10234
1830.0,0.10238
1835.0,0.10212
1840.0,0.10209
1845.0,0.10203
1850.0,0.10188
1855.0,0.10183
1860.0,0.10163
1865.0,0.10162
1870.0,0.10168
1875.0,0.10146
1880.0,0.10141
1885.0,0.10159
1890.0,0.10157
1895.0,0.10157
1900.0,0.10175
1905.0,0.10172
1910.0,0.10156
1915.0,0.10159
1920.0,0.10138
1925.0,0.10152
1930.0,0.10138
1935.0,0.10136
1940.0,0.10157
1945.0,0.10153
1950.0,0.10167
1955.0,0.10171
1960.0,0.10179
1965.0,0.10178
1970.0,0.10184
1975.0,0.10181
1980.0,0.10197
1985.0,0.10196
1990.0,0.10208
1995.0,0.10205
2000.0,0.102
2005.0,0.10186
2010.0,0.10182
2015.0,0.10161
2020.0,0.10165
2025.0,0.1016
2030.0,0.10167
2035.0,0.1017
2040.0,0.10179
2045.0,0.10177
2050.0,0.10178
2055.0,0.10182
2060.0,0.10179
2065.0,0.10185
2070.0,0.10183
2075.0,0.10181
2080.0,0.10182
2085.0,0.10183
2090.0,0.10179
2095.0,0.1018
2100.0,0.10184
2105.0,0.10181
2110.0,0.10186
2115.0,0.10187
2120.0,0.10193
2125.0,0.10196
2130.0,0.10201
2135.0,0.10212
2140.0,0.10214
2145.0,0.10226
2150.0,0.10237
2155.0,0.10251
2160.0,0.10244
2165.0,0.10258
2170.0,0.10256
2175.0,0.10258
2180.0,0.10257
2185.0,0.10272
2190.0,0.10274
2195.0,0.1028
2200.0,0.10287
2205.0,0.1029
2210.0,0.10286
2215.0,0.10286
2220.0,0.10286
2225.0,0.1028
2230.0,0.1028
2235.0,0.10285
2240.0,0.1028
2245.0,0.10276
2250.0,0.1028
2255.0,0.1028
2260.0,0.10274
2265.0,0.10282
2270.0,0.10293
2275.0,0.10295
2280.0,0.10299
2285.0,0.10302
2290.0,0.10312
2295.0,0.1031
2300.0,0.10313
2305.0,0.10318
2310.0,0.10322
2315.0,0.1032
2320.0,0.10329
2325.0,0.10331
2330.0,0.10331
2335.0,0.10339
2340.0,0.10341
2345.0,0.10332
2350.0,0.10337
2355.0,0.10334
2360.0,0.10329
2365.0,0.10329
2370.0,0.10334
2375.0,0.10331
2380.0,0.10332
2385.0,0.10336
2390.0,0.10342
2395.0,0.10353
2400.0,0.10359
2405.0,0.10373
2410.0,0.10369
2415.0,0.10361
2420.0,0.10354
2425.0,0.10363
2430.0,0.10358
2435.0,0.10365
2440.0,0.10376
2445.0,0.10385
2450.0,0.10385
2455.0,0.10387
2460.0,0.10397
2465.0,0.10389
2470.0,0.10388
2475.0,0.10382
2480.0,0.10392
2485.0,0.10392
2490.0,0.10403
2495.0,0.10418
2500.0,0.10428
2505.0,0.10439
2510.0,0.1043
2515.0,0.1044
2520.0,0.10457
2525.0,0.10462
2530.0,0.10443
2535.0,0.10485
2540.0,0.10468
2545.0,0.10484
2550.0,0.10451
2551.9,0.10466
2553.1,0.1047
2554.4,0.10466
2555.7,0.10464
2556.9,0.10462
2558.2,0.10464
2559.4,0.10463
2560.7,0.10463
2562.0,0.10465
2563.2,0.10473
2564.5,0.10475
2565.8,0.10469
2567.1,0.1047
2568.3,0.10479
2569.6,0.10477
2570.9,0.10466
2572.1,0.1046
2573.4,0.10471
2574.7,0.10471
2576.0,0.10466
2577.3,0.10467
2578.5,0.10465
2579.8,0.10469
2581.1,0.10469
2582.4,0.10463
2583.7,0.10477
2585.0,0.10478
2586.3,0.10468
2587.5,0.10474
2588.8,0.10473
2590.1,0.1047
2591.4,0.10477
2592.7,0.10481
2594.0,0.10484
2595.3,0.1049
2596.6,0.10477
2597.9,0.10474
2599.2,0.10471
2600.5,0.10469
2601.8,0.10477
2603.1,0.10486
2604.4,0.10488
2605.8,0.10487
2607.1,0.10483
2608.4,0.10485
2609.7,0.10484
2611.0,0.10483
2612.3,0.10483
2613.6,0.1048
2614.9,0.10484
2616.3,0.10492
2617.6,0.10489
2618.9,0.10484
2620.2,0.10496
2621.6,0.10494
2622.9,0.10481
2624.2,0.1048
2625.5,0.10488
2626.9,0.10495
2628.2,0.1049
2629.5,0.10495
2630.9,0.10498
2632.2,0.10488
2633.5,0.10491
2634.9,0.1049
2636.2,0.10486
2637.6,0.10489
2638.9,0.10486
2640.2,0.10488
2641.6,0.10491
2642.9,0.10489
2644.3,0.10492
2645.6,0.10494
2647.0,0.1049
2648.3,0.10489
2649.7,0.10492
2651.0,0.10497
2652.4,0.105
2653.8,0.10498
2655.1,0.10496
2656.5,0.10496
2657.8,0.10495
2659.2,0.10497
2660.6,0.10498
2661.9,0.105
2663.3,0.10503
2664.7,0.10514
2666.0,0.10517
2667.4,0.1051
2668.8,0.10502
2670.1,0.10508
2671.5,0.10503
2672.9,0.10498
2674.3,0.10501
2675.7,0.10503
2677.0,0.10506
2678.4,0.105
2679.8,0.10492
2681.2,0.10484
2682.6,0.10482
2684.0,0.10488
2685.4,0.10491
2686.8,0.10496
2688.1,0.10494
2689.5,0.10487
2690.9,0.10481
2692.3,0.10481
2693.7,0.10486
2695.1,0.10485
2696.5,0.10481
2697.9,0.10481
2699.3,0.10489
2700.8,0.10495
2702.1,0.1049
2703.6,0.10479
2705.0,0.10475
2706.4,0.10476
2707.8,0.1048
2709.2,0.10477
2710.6,0.10473
2712.1,0.10466
2713.5,0.10459
2714.9,0.10465
2716.3,0.10467
2717.7,0.10462
2719.2,0.10466
2720.6,0.10475
2722.0,0.10456
2723.4,0.10446
2724.9,0.10442
2726.3,0.10433
2727.7,0.10431
2729.2,0.10428
2730.6,0.10424
2732.1,0.10417
2733.5,0.10414
2734.9,0.10421
2736.4,0.10413
2737.8,0.10408
2739.3,0.10413
2740.7,0.10409
2742.2,0.10395
2743.6,0.10383
2745.1,0.1038
2746.5,0.10374
2748.0,0.10368
2749.4,0.10366
2750.9,0.10369
2752.4,0.10365
2753.8,0.10361
2755.3,0.10364
2756.7,0.10353
2758.2,0.10341
2759.7,0.10336
2761.1,0.10328
2762.6,0.10323
2764.1,0.10326
2765.6,0.1032
2767.0,0.10308
2768.5,0.10301
2770.0,0.10294
2771.5,0.10288
2773.0,0.1028
2774.4,0.10278
2775.9,0.10282
2777.4,0.10272
2778.9,0.10259
2780.4,0.10249
2781.9,0.10249
2783.4,0.10249
2784.9,0.10243
2786.4,0.10238
2787.9,0.10227
2789.4,0.10212
2790.9,0.10202
2792.4,0.10199
2793.9,0.10197
2795.4,0.10196
2796.9,0.10198
2798.4,0.1019
2799.9,0.10177
2801.4,0.10174
2802.9,0.10177
2804.4,0.10171
2806.0,0.10161
2807.5,0.10154
2809.0,0.10149
2810.5,0.10146
2812.1,0.10141
2813.6,0.10136
2815.1,0.10131
2816.6,0.10126
2818.2,0.1012
2819.7,0.1012
2821.2,0.10119
2822.8,0.10113
2824.3,0.10106
2825.9,0.10104
2827.4,0.10102
2828.9,0.10092
2830.5,0.10083
2832.0,0.1008
2833.6,0.10077
2835.1,0.10077
2836.7,0.10075
2838.2,0.10069
2839.8,0.10068
2841.3,0.10066
2842.9,0.10061
2844.4,0.10052
2846.0,0.10045
2847.6,0.1004
2849.1,0.10038
2850.7,0.10038
2852.3,0.10033
2853.8,0.10024
2855.4,0.10021
2857.0,0.10014
2858.6,0.10009
2860.1,0.10009
2861.7,0.10007
2863.3,0.10003
2864.9,0.10001
2866.5,0.09998
2868.1,0.09992
2869.6,0.09996
2871.2,0.09997
2872.8,0.09991
2874.4,0.09983
2876.0,0.09975
2877.6,0.09973
2879.2,0.0997
2880.8,0.09964
2882.4,0.09961
2884.0,0.09962
2885.6,0.09959
2887.2,0.0996
2888.8,0.09955
2890.4,0.0995
2892.0,0.09952
2893.6,0.0995
2895.3,0.09946
2896.9,0.09948
2898.5,0.09947
2900.1,0.0994
2901.8,0.09943
2903.4,0.09943
2905.0,0.09936
2906.6,0.09936
2908.3,0.09942
2909.9,0.09938
2911.5,0.09931
2913.2,0.09934
2914.8,0.09939
2916.4,0.09938
2918.1,0.09932
2919.7,0.09931
2921.4,0.09934
2923.0,0.09934
2924.7,0.09931
2926.3,0.09933
2928.0,0.09936
2929.6,0.09936
2931.3,0.09933
2932.9,0.09929
2934.6,0.09932
2936.3,0.09938
2937.9,0.09939
2939.6,0.09936
2941.3,0.09932
2942.9,0.09935
2944.6,0.09938
2946.3,0.09938
2947.9,0.09935
2949.6,0.09937
2951.3,0.09938
2953.0,0.09938
2954.7,0.09941
2956.3,0.0994
2958.0,0.09935
2959.7,0.09936
2961.4,0.09941
2963.1,0.09942
2964.8,0.09942
2966.5,0.09937
2968.2,0.09933
2969.9,0.09942
2971.6,0.0995
2973.3,0.09947
2975.0,0.09944
2976.7,0.09941
2978.4,0.09941
2980.1,0.09945
2981.9,0.09946
2983.6,0.09943
2985.3,0.09943
2987.0,0.09946
2988.7,0.09949
2990.4,0.09951
2992.2,0.0995
2993.9,0.09946
2995.6,0.09949
2997.4,0.09955
2999.1,0.09958
3000.8,0.09957
3002.6,0.09954
3004.3,0.09955
3006.1,0.09956
3007.8,0.09959
3009.5,0.09957
3011.3,0.09956
3013.0,0.09961
3014.8,0.09962
3016.5,0.09958
3018.3,0.0996
3020.1,0.09963
3021.8,0.09962
3023.6,0.09957
3025.3,0.09956
3027.1,0.09957
3028.9,0.0996
3030.6,0.09962
3032.4,0.09962
3034.2,0.09962
3036.0,0.09961
3037.7,0.09961
3039.5,0.09963
3041.3,0.09962
3043.1,0.09963
3044.9,0.09965
3046.7,0.09968
3048.5,0.09965
3050.3,0.09963
3052.1,0.09963
3053.8,0.09965
3055.6,0.09964
3057.4,0.09958
3059.3,0.09955
3061.1,0.09958
3062.9,0.09959
3064.7,0.09955
3066.5,0.09954
3068.3,0.09956
3070.1,0.09952
3071.9,0.09949
3073.8,0.09948
3075.6,0.09949
3077.4,0.09951
3079.2,0.09952
3081.1,0.09951
3082.9,0.09947
3084.7,0.09944
3086.6,0.09947
3088.4,0.09948
3090.2,0.09948
3092.1,0.09946
3093.9,0.09948
3095.8,0.09954
3097.6,0.09953
3099.5,0.09949
3101.3,0.0995
3103.2,0.09949
3105.1,0.09949
3106.9,0.0995
3108.8,0.09949
3110.6,0.09945
3112.5,0.09943
3114.4,0.09947
3116.2,0.09949
3118.1,0.09949
3120.0,0.09954
3121.9,0.09956
3123.8,0.09952
3125.6,0.09949
3127.5,0.09956
3129.4,0.09963
3131.3,0.09962
3133.2,0.09959
3135.1,0.09962
3137.0,0.09962
3138.9,0.09963
3140.8,0.09966
3142.7,0.09967
3144.6,0.09968
3146.5,0.09971
3148.4,0.09973
3150.3,0.09974
3152.2,0.0998
3154.1,0.09981
3156.1,0.09976
3158.0,0.09978
3159.9,0.09983
3161.8,0.09983
3163.8,0.09983
3165.7,0.09989
3167.6,0.09991
3169.6,0.09987
3171.5,0.09984
3173.5,0.09989
3175.4,0.09997
3177.3,0.10002
3179.3,0.10005
3181.2,0.10007
3183.2,0.10015
3185.1,0.10019
3187.1,0.10014
3189.1,0.10018
3191.0,0.10026
3193.0,0.10029
3195.0,0.10027
3196.9,0.1003
3198.9,0.10039
3200.9,0.1004
3202.9,0.10042
3204.8,0.10044
3206.8,0.10045
3208.8,0.10048
3210.8,0.10054
3212.8,0.10061
3214.8,0.10063
3216.8,0.10066
3218.8,0.10071
3220.8,0.10074
3222.8,0.10081
3224.8,0.10086
3226.8,0.1009
3228.8,0.10092
3230.8,0.10096
3232.8,0.10099
3234.8,0.10104
3236.8,0.10112
3238.9,0.10118
3240.9,0.10118
3242.9,0.10121
3244.9,0.10123
3247.0,0.10124
3249.0,0.10125
3251.1,0.10131
3253.1,0.10138
3255.1,0.10139
3257.2,0.10137
3259.2,0.10141
3261.3,0.10149
3263.3,0.10151
3265.4,0.1015
3267.4,0.10154
3269.5,0.10159
3271.6,0.10161
3273.6,0.10162
3275.7,0.10166
3277.8,0.10168
3279.8,0.10172
3281.9,0.10176
3284.0,0.10174
3286.1,0.10172
3288.2,0.10176
3290.2,0.10185
3292.3,0.10191
3294.4,0.10191
3296.5,0.1019
3298.6,0.10193
3300.7,0.10199
3302.8,0.10203
3304.9,0.10203
3307.0,0.10205
3309.1,0.10204
3311.3,0.10205
3313.4,0.10207
3315.5,0.10208
3317.6,0.10207
3319.7,0.10211
3321.9,0.10216
3324.0,0.1022
3326.1,0.10223
3328.3,0.10224
3330.4,0.10224
3332.5,0.10221
3334.7,0.1022
3336.8,0.10223
3339.0,0.10229
3341.1,0.10231
3343.3,0.10235
3345.4,0.10241
3347.6,0.10243
3349.8,0.10241
3351.9,0.10248
3354.1,0.10251
3356.3,0.1025
3358.4,0.10253
3360.6,0.10254
3362.8,0.10254
3365.0,0.10254
3367.2,0.10254
3369.4,0.10253
3371.5,0.10251
3373.7,0.10252
3375.9,0.10255
3378.1,0.10259
3380.3,0.10263
3382.5,0.10261
3384.7,0.1026
3386.9,0.10266
3389.2,0.10269
3391.4,0.10268
3393.6,0.10267
3395.8,0.10266
3398.1,0.10263
3400.3,0.10261
3402.5,0.1026
3404.7,0.10259
3407.0,0.10258
3409.2,0.10258
3411.5,0.10259
3413.7,0.10258
3416.0,0.10259
3418.2,0.10261
3420.5,0.10264
3422.7,0.10269
3425.0,0.10272
3427.3,0.10278
3429.5,0.10286
3431.8,0.1029
3434.1,0.10294
3436.3,0.10295
3438.6,0.10298
3440.9,0.10302
3443.2,0.10304
3445.5,0.10306
3447.8,0.10306
3450.1,0.10308
3452.4,0.1031
3454.6,0.10315
3456.9,0.10317
3459.3,0.10316
3461.6,0.10319
3463.9,0.10319
3466.2,0.10322
3468.5,0.10323
3470.8,0.10324
3473.2,0.10321
3475.5,0.10318
3477.8,0.10316
3480.1,0.10318
3482.5,0.10323
3484.8,0.10324
3487.2,0.10322
3489.5,0.1032
3491.9,0.1032
3494.2,0.10321
3496.6,0.10323
3498.9,0.10326
3501.3,0.10326
3503.7,0.10326
3506.0,0.10331
3508.4,0.10338
3510.8,0.10342
3513.2,0.10346
3515.5,0.10347
3517.9,0.10349
3520.3,0.1035
3522.7,0.10349
3525.1,0.10348
3527.5,0.10346
3529.9,0.1035
3532.3,0.10358
3534.7,0.10361
3537.1,0.10358
3539.5,0.1036
3541.9,0.10362
3544.4,0.10367
3546.8,0.10371
3549.2,0.1037
3551.7,0.10371
3554.1,0.10369
3556.5,0.10371
3559.0,0.10375
3561.4,0.10374
3563.9,0.10373
3566.3,0.10377
3568.8,0.10379
3571.2,0.10377
3573.7,0.10378
3576.1,0.10378
3578.6,0.10376
3581.1,0.10379
3583.6,0.10381
3586.0,0.10384
3588.5,0.10388
3591.0,0.1039
3593.5,0.10389
3596.0,0.10389
3598.5,0.10389
3601.0,0.10391
3603.5,0.10392
3606.0,0.10393
3608.5,0.10394
3611.0,0.10393
3613.5,0.10394
3616.1,0.10397
3618.6,0.10399
3621.1,0.10401
3623.6,0.10403
3626.2,0.10399
3628.7,0.10395
3631.3,0.10398
3633.8,0.104
3636.3,0.10398
3638.9,0.10396
3641.4,0.10401
3644.0,0.10405
3646.6,0.10405
3649.1,0.10406
3651.7,0.10405
3654.3,0.10404
3656.9,0.10407
3659.4,0.10409
3662.0,0.10408
3664.6,0.1041
3667.2,0.10411
3669.8,0.10411
3672.4,0.10412
3675.0,0.10413
3677.6,0.10415
3680.2,0.10416
3682.8,0.10413
3685.4,0.10412
3688.1,0.10415
3690.7,0.10415
3693.3,0.10417
3695.9,0.1042
3698.6,0.1042
3701.2,0.10422
3703.9,0.10422
3706.5,0.10419
3709.2,0.1042
3711.8,0.10424
3714.5,0.10421
3717.1,0.10419
3719.8,0.10421
3722.5,0.10422
3725.2,0.10421
3727.8,0.10426
3730.5,0.10428
3733.2,0.10427
3735.9,0.10425
3738.6,0.10426
3741.3,0.1043
3744.0,0.10427
3746.7,0.10426
3749.4,0.10431
3752.1,0.10433
3754.8,0.10434
3757.6,0.10431
3760.3,0.10428
3763.0,0.10432
3765.7,0.10436
3768.5,0.10437
3771.2,0.10434
3774.0,0.10435
3776.7,0.10436
3779.5,0.10435
3782.2,0.10436
3785.0,0.10435
3787.7,0.10431
3790.5,0.10431
3793.3,0.10434
3796.1,0.10436
3798.8,0.10436
3801.6,0.10436
3804.4,0.10438
3807.2,0.10439
3810.0,0.10436
3812.8,0.10435
3815.6,0.10438
3818.4,0.10439
3821.2,0.10438
3824.1,0.10439
3826.9,0.1044
3829.7,0.10439
3832.5,0.10437
3835.4,0.1044
3838.2,0.10443
3841.1,0.10444
3843.9,0.10442
3846.8,0.1044
3849.6,0.10441
3852.5,0.10443
3855.3,0.10443
3858.2,0.10443
3861.1,0.10442
3863.9,0.10441
3866.8,0.10442
3869.7,0.10444
3872.6,0.10439
3875.5,0.10439
3878.4,0.10444
3881.3,0.10446
3884.2,0.10447
3887.1,0.10444
3890.0,0.10439
3893.0,0.1044
3895.9,0.1044
3898.8,0.10441
3901.7,0.10442
3904.7,0.10443
3907.6,0.10443
3910.6,0.10443
3913.5,0.10443
3916.5,0.10444
3919.4,0.10442
3922.4,0.10443
3925.4,0.10441
3928.4,0.10439
3931.3,0.10441
3934.3,0.10443
3937.3,0.10441
3940.3,0.1044
3943.3,0.1044
3946.3,0.10438
3949.3,0.10436
3952.3,0.10438
3955.3,0.10438
3958.3,0.1044
3961.4,0.10443
3964.4,0.1044
3967.4,0.10435
3970.5,0.10437
3973.5,0.10439
3976.6,0.10439
3979.6,0.10437
3982.6,0.10436
3985.7,0.10436
3988.8,0.10434
3991.9,0.10435
3994.9,0.10436
3998.0,0.10436
4001.1,0.10435
4004.2,0.10433
4007.3,0.10435
4010.4,0.10435
4013.5,0.10433
4016.6,0.10431
4019.7,0.10432
4022.8,0.10434
4025.9,0.10434
4029.1,0.10432
4032.2,0.10431
4035.3,0.10432
4038.5,0.10432
4041.6,0.10431
4044.8,0.10432
4047.9,0.10432
4051.1,0.1043
4054.3,0.10432
4057.4,0.10432
4060.6,0.1043
4063.8,0.1043
4067.0,0.10433
4070.2,0.10434
4073.4,0.10432
4076.6,0.10431
4079.8,0.10431
4083.0,0.10431
4086.2,0.10432
4089.4,0.10432
4092.7,0.10429
4095.9,0.10426
4099.1,0.10424
4102.4,0.10424
4105.6,0.10423
4108.9,0.10422
4112.1,0.10422
4115.4,0.10422
4118.7,0.10421
4122.0,0.10419
4125.2,0.1042
4128.5,0.10419
4131.8,0.1042
4135.1,0.1042
4138.4,0.10418
4141.7,0.10415
4145.0,0.10414
4148.3,0.10416
4151.6,0.10414
4155.0,0.10413
4158.3,0.10414
4161.6,0.10413
4165.0,0.10409
4168.3,0.10408
4171.7,0.10409
4175.0,0.10408
4178.4,0.10407
4181.8,0.10409
4185.2,0.10406
4188.5,0.10405
4191.9,0.10406
4195.3,0.10407
4198.7,0.10407
4202.1,0.10407
4205.5,0.1041
4208.9,0.10418
4212.4,0.10426
4215.8,0.10431
4219.2,0.10434
4222.6,0.1044
4226.1,0.10445
4229.5,0.10446
4233.0,0.10446
4236.5,0.10443
4239.9,0.10444
4243.4,0.10445
4246.9,0.10435
4250.3,0.10421
4253.8,0.10408
4257.3,0.10404
4260.8,0.10411
4264.3,0.10417
4267.8,0.10419
4271.3,0.10418
4274.9,0.10416
4278.4,0.10418
4281.9,0.10417
4285.5,0.10417
4289.0,0.10418
4292.6,0.10416
4296.1,0.10413
4299.7,0.10414
4303.3,0.10409
4306.8,0.10405
4310.4,0.10401
4314.0,0.10395
4317.6,0.10391
4321.2,0.10389
4324.8,0.10386
4328.4,0.10384
4332.0,0.10383
4335.6,0.10382
4339.3,0.10377
4342.9,0.10373
4346.5,0.10374
4350.2,0.10374
4353.8,0.10371
4357.5,0.10372
4361.1,0.10369
4364.8,0.10368
4368.5,0.10369
4372.2,0.10369
4375.9,0.10365
4379.6,0.10364
4383.3,0.10364
4387.0,0.10361
4390.7,0.1036
4394.4,0.10363
4398.1,0.10363
4401.9,0.10362
4405.6,0.10362
4409.4,0.10361
4413.1,0.10358
4416.9,0.10358
4420.6,0.10356
4424.4,0.10354
4428.2,0.10353
4432.0,0.10352
4435.8,0.10353
4439.6,0.10352
4443.4,0.10348
4447.2,0.10344
4451.0,0.10344
4454.8,0.10347
4458.6,0.10348
4462.5,0.10347
4466.3,0.10344
4470.2,0.1034
4474.0,0.10339
4477.9,0.10338
4481.8,0.10338
4485.6,0.10339
4489.5,0.10335
4493.4,0.1033
4497.3,0.10326
4501.2,0.10324
4505.1,0.10322
4509.0,0.10321
4513.0,0.10319
4516.9,0.1032
4520.9,0.10322
4524.8,0.10321
4528.7,0.10317
4532.7,0.10314
4536.7,0.10311
4540.6,0.1031
4544.6,0.1031
4548.6,0.10308
4552.6,0.10307
4556.6,0.10304
4560.6,0.10298
4564.6,0.10297
4568.6,0.10299
4572.7,0.10295
4576.7,0.10291
4580.8,0.10291
4584.8,0.10291
4588.9,0.10284
4592.9,0.10281
4597.0,0.10279
4601.1,0.10276
4605.2,0.10273
4609.3,0.10269
4613.4,0.10264
4617.5,0.10261
4621.6,0.10258
4625.7,0.10252
4629.8,0.10248
4634.0,0.10248
4638.1,0.10247
4642.3,0.10241
4646.4,0.10233
4650.6,0.1023
4654.8,0.1023
4659.0,0.10226
4663.1,0.10225
4667.3,0.10219
4671.5,0.10215
4675.8,0.10211
4680.0,0.10207
4684.2,0.10205
4688.4,0.10204
4692.7,0.10198
4696.9,0.10196
4701.2,0.10192
4705.5,0.10186
4709.7,0.10184
4714.0,0.10184
4718.3,0.10181
4722.6,0.10175
4726.9,0.1017
4731.2,0.1017
4735.5,0.10169
4739.9,0.10165
4744.2,0.10161
4748.5,0.10159
4752.9,0.10153
4757.3,0.10147
4761.6,0.10142
4766.0,0.1014
4770.4,0.10139
4774.8,0.10135
4779.2,0.10129
4783.6,0.10126
4788.0,0.10122
4792.4,0.10119
4796.9,0.10114
4801.3,0.1011
4805.8,0.10105
4810.2,0.10099
4814.7,0.10094
4819.1,0.10088
4823.6,0.10081
4828.1,0.10076
4832.6,0.10071
4837.1,0.10067
4841.6,0.1006
4846.2,0.10053
4850.7,0.10045
4855.3,0.10038
4859.8,0.10032
4864.4,0.10025
4868.9,0.10017
4873.5,0.10008
4878.1,0.09996
4882.7,0.09986
4887.3,0.09981
4891.9,0.09972
4896.5,0.09961
4901.1,0.0995
4905.8,0.09941
4910.4,0.09931
4915.1,0.09922
4919.7,0.09911
4924.4,0.099
4929.1,0.09893
4933.8,0.09887
4938.5,0.0988
4943.2,0.09872
4947.9,0.09869
4952.6,0.09866
4957.4,0.09864
4962.1,0.0986
4966.9,0.09855
4971.6,0.09853
4976.4,0.09855
4981.2,0.09853
4986.0,0.0985
4990.8,0.09849
4995.6,0.0985
5000.4,0.09848
5005.2,0.09844
5010.0,0.0984
5014.9,0.0984
5019.8,0.0984
5024.6,0.09834
5029.5,0.09829
5034.4,0.09826
5039.3,0.09824
5044.2,0.0982
5049.1,0.09813
5054.0,0.09809
5058.9,0.09806
5063.9,0.09801
5068.8,0.09794
5073.8,0.09783
5078.8,0.09773
5083.7,0.09768
5088.7,0.09762
5093.7,0.09757
5098.7,0.0975
5103.7,0.09741
5108.8,0.09735
5113.8,0.0973
5118.9,0.09723
5123.9,0.09715
5129.0,0.09708
5134.1,0.09702
5139.1,0.09699
5144.3,0.09696
5149.4,0.09689
5154.5,0.0968
5159.6,0.09673
5164.7,0.09669
5169.9,0.09663
5175.0,0.09659
5180.2,0.09656
5185.4,0.09653
5190.6,0.09652
5195.8,0.09649
5201.0,0.09646
5206.2,0.09643
5211.5,0.09642
5216.7,0.09642
5222.0,0.09639
5227.2,0.09637
5232.5,0.09636
5237.8,0.09637
5243.1,0.09636
5248.4,0.09634
5253.7,0.09633
5259.0,0.09636
5264.4,0.09638
5269.7,0.0964
5275.1,0.09644
5280.5,0.09644
5285.8,0.09642
5291.2,0.09645
5296.6,0.09645
5302.0,0.09646
5307.5,0.09644
5312.9,0.09644
5318.4,0.09645
5323.8,0.09645
5329.3,0.09645
5334.8,0.09643
5340.3,0.09642
5345.8,0.09641
5351.3,0.09634
5356.8,0.09625
5362.4,0.09621
5367.9,0.09617
5373.5,0.0961
5379.0,0.09605
5384.6,0.09595
5390.2,0.09587
5395.8,0.09582
5401.5,0.09574
5407.1,0.09563
5412.7,0.09555
5418.4,0.09552
5424.1,0.09547
5429.7,0.09531
5435.4,0.09521
5441.1,0.09517
5446.9,0.09513
5452.6,0.09508
5458.3,0.09504
5464.1,0.09502
5469.8,0.09498
5475.6,0.09494
5481.4,0.09492
5487.2,0.09491
5493.0,0.09489
5498.8,0.09486
5504.7,0.09485
5510.5,0.09483
5516.4,0.09482
5522.3,0.09478
5528.1,0.09473
5534.0,0.09464
5540.0,0.09456
5545.9,0.09449
5551.8,0.09441
5557.8,0.09423
5563.7,0.09404
5569.7,0.09384
5575.7,0.09369
5581.7,0.09338
5587.7,0.09303
5593.7,0.09277
5599.8,0.09257
5605.8,0.09236
5611.9,0.09216
5618.0,0.092
5624.1,0.0919
5630.2,0.09186
5636.3,0.09187
5642.4,0.0919
5648.6,0.09187
5654.7,0.09194
5660.9,0.09204
5667.1,0.09213
5673.3,0.0923
5679.5,0.09244
5685.7,0.09256
5692.0,0.09273
5698.2,0.09285
5704.5,0.09301
5710.8,0.09319
5717.1,0.09326
5723.4,0.09334
5729.7,0.0934
5736.0,0.09345
5742.4,0.0935
5748.8,0.09356
5755.1,0.09355
5761.5,0.09364
5768.0,0.09366
5774.4,0.09348
5780.8,0.09336
5787.3,0.09326
5793.7,0.09315
5800.2,0.09306
5806.7,0.09294
5813.2,0.09288
5819.8,0.09288
5826.3,0.09275
5832.8,0.09254
5839.4,0.09241
5846.0,0.09229
5852.6,0.0922
5859.2,0.09211
5865.8,0.09198
5872.5,0.09186
5879.1,0.09191
5885.8,0.09175
5892.5,0.09163
5899.2,0.09149
5905.9,0.09122
5912.6,0.09109
5919.4,0.09098
5926.2,0.09085
5932.9,0.09083
5939.7,0.09065
5946.5,0.09031
5953.4,0.09009
5960.2,0.0899
5967.1,0.08977
5974.0,0.08952
5980.8,0.0893
5987.8,0.08918
5994.7,0.08899
6001.6,0.08885
6008.6,0.08883
6015.5,0.08882
6022.5,0.08878
6029.5,0.08885
6036.5,0.08898
6043.6,0.08928
6050.6,0.0895
6057.7,0.08938
6064.8,0.08944
6071.9,0.08959
6079.0,0.08957
6086.1,0.08949
6093.3,0.08951
6100.5,0.08953
6107.6,0.0896
6114.9,0.08961
6122.1,0.08939
6129.3,0.08922
6136.5,0.08914
6143.8,0.08903
6151.1,0.08891
6158.4,0.08883
6165.7,0.0887
6173.1,0.08855
6180.4,0.08848
6187.8,0.08836
6195.2,0.08812
6202.6,0.08796
6210.0,0.08783
6217.5,0.08769
6225.0,0.08755
6232.4,0.08741
6239.9,0.08728
6247.5,0.08718
6255.0,0.08704
6262.5,0.08688
6270.1,0.08673
6277.7,0.08661
6285.3,0.08653
6292.9,0.08651
6300.6,0.08654
6308.3,0.08664
6315.9,0.08677
6323.6,0.08689
6331.4,0.08705
6339.1,0.08728
6346.9,0.08745
6354.6,0.08747
6362.4,0.08755
6370.3,0.08767
6378.1,0.08769
6385.9,0.08774
6393.8,0.08777
6401.7,0.08784
6409.6,0.08811
6417.6,0.08817
6425.5,0.088
6433.5,0.08799
6441.5,0.08792
6449.5,0.08785
6457.5,0.08777
6465.6,0.08773
6473.6,0.08774
6481.7,0.08773
6489.8,0.08775
6498.0,0.08767
6506.1,0.08739
6514.3,0.08727
6522.5,0.08721
6530.7,0.08707
6538.9,0.08699
6547.2,0.08693
6555.5,0.08682
6563.8,0.08673
6572.1,0.08669
6580.4,0.08656
6588.8,0.08643
6597.2,0.08629
6605.6,0.08615
6614.0,0.0861
6622.5,0.08602
6630.9,0.08608
6639.4,0.08605
6647.9,0.08583
6656.5,0.08567
6665.0,0.08563
6673.6,0.08562
6682.2,0.08557
6690.8,0.08544
6699.5,0.08537
6708.1,0.08534
6716.8,0.08526
6725.5,0.08514
6734.3,0.08503
6743.0,0.08492
6751.8,0.08482
6760.6,0.08472
6769.4,0.08465
6778.3,0.08455
6787.1,0.08446
6796.0,0.08424
6805.0,0.08401
6813.9,0.08387
6822.9,0.08381
6831.9,0.08366
6840.9,0.0835
6849.9,0.08344
6859.0,0.08349
6868.0,0.08338
6877.2,0.08312
6886.3,0.08294
6895.5,0.0828
6904.6,0.08269
6913.8,0.08254
6923.1,0.08241
6932.3,0.08229
6941.6,0.08216
6950.9,0.08207
6960.2,0.08197
6969.6,0.08174
6979.0,0.08152
6988.4,0.08138
6997.8,0.08121
7007.3,0.08102
7016.8,0.08085
7026.3,0.08072
7035.8,0.08064
7045.4,0.08059
7054.9,0.08043
7064.5,0.08026
7074.2,0.08013
7083.9,0.08008
7093.5,0.07998
7103.3,0.07986
7113.0,0.0798
7122.8,0.07972
7132.6,0.07959
7142.4,0.07954
7152.2,0.07945
7162.1,0.07937
7172.0,0.07926
7182.0,0.07914
7191.9,0.07906
7201.9,0.07903
7211.9,0.07893
7222.0,0.07875
7232.0,0.07864
7242.1,0.07855
7252.3,0.07843
7262.4,0.07831
7272.6,0.07822
7282.8,0.07815
7293.1,0.078
7303.3,0.07785
7313.6,0.07772
7324.0,0.07762
7334.3,0.07748
7344.7,0.07731
7355.1,0.07716
7365.6,0.07704
7376.1,0.07691
7386.6,0.07677
7397.1,0.0766
7407.7,0.07646
7418.3,0.0763
7428.9,0.07614
7439.6,0.07598
7450.3,0.07583
7461.0,0.0757
7471.7,0.07553
7482.5,0.07533
7493.3,0.07516
7504.2,0.075
7515.0,0.07483
7525.9,0.07464
7536.9,0.07449
7547.9,0.07434
7558.9,0.07417
7569.9,0.07403
7581.0,0.0739
7592.0,0.07379
7603.2,0.07369
7614.4,0.07356
7625.5,0.07346
7636.8,0.07334
7648.0,0.07322
7659.3,0.07308
7670.7,0.07294
7682.0,0.07277
7693.4,0.0726
7704.9,0.07243
7716.3,0.07228
7727.8,0.07212
7739.4,0.07194
7750.9,0.07174
7762.5,0.07155
7774.2,0.07134
7785.8,0.07115
7797.5,0.07091
7809.3,0.07067
7821.1,0.07044
7832.9,0.0702
7844.7,0.06994
7856.6,0.06967
7868.5,0.0694
7880.5,0.06911
7892.5,0.06886
7904.5,0.06859
7916.6,0.06825
7928.7,0.06791
7940.8,0.06753
7953.0,0.06717
7965.2,0.0668
7977.5,0.06643
7989.8,0.06599
8002.1,0.06559
8014.5,0.0652
8026.9,0.06476
8039.3,0.06432
8051.8,0.06392
8064.3,0.06345
8076.9,0.06297
8089.5,0.06253
8102.1,0.06209
8114.8,0.06161
8127.5,0.06118
8140.3,0.06071
8153.1,0.06021
8165.9,0.05975
8178.8,0.05931
8191.7,0.05885
8204.7,0.05842
8217.7,0.05799
8230.7,0.05759
8243.8,0.05718
8257.0,0.05679
8270.1,0.05638
8283.3,0.05602
8296.6,0.05567
8309.9,0.05531
8323.2,0.05493
8336.6,0.0546
8350.0,0.05429
8363.5,0.05402
8377.0,0.05371
8390.5,0.05344
8404.2,0.05313
8417.8,0.05287
8431.5,0.0526
8445.2,0.05234
8459.0,0.05205
8472.8,0.05178
8486.7,0.05154
8500.6,0.05132
8514.5,0.05114
8528.5,0.051
8542.6,0.05084
8556.7,0.05075
8570.8,0.05063
8585.0,0.05053
8599.3,0.05049
8613.5,0.05046
8627.9,0.05037
8642.3,0.05023
8656.7,0.04997
8671.2,0.04955
8685.7,0.04899
8700.3,0.04857
8714.9,0.0485
8729.6,0.04882
8744.3,0.04922
8759.0,0.04961
8773.9,0.0499
8788.7,0.05022
8803.7,0.05061
8818.6,0.05098
8833.7,0.05117
8848.7,0.05124
8863.8,0.05126
8879.0,0.05126
8894.3,0.05119
8909.5,0.05124
8924.9,0.05137
8940.3,0.05144
8955.7,0.05141
8971.2,0.0513
8986.8,0.05104
9002.3,0.05069
9018.0,0.05025
9033.7,0.04979
9049.5,0.04933
9065.3,0.04894
9081.2,0.04854
9097.1,0.04826
9113.1,0.04804
9129.1,0.04789
9145.2,0.04776
9161.4,0.04776
9177.6,0.04784
9193.9,0.04795
9210.2,0.04814
9226.6,0.04839
9243.0,0.04864
9259.5,0.04903
9276.1,0.04947
9292.7,0.04992
9309.4,0.05038
9326.2,0.05087
9343.0,0.05141
9359.8,0.05204
9376.8,0.05266
9393.7,0.0533
9410.8,0.05383
9427.9,0.05436
9445.1,0.05484
9462.3,0.05526
9479.6,0.05563
9497.0,0.05599
9514.4,0.05622
9531.9,0.05639
9549.4,0.05638
9567.1,0.05627
9584.7,0.05604
9602.5,0.05573
9620.3,0.05538
9638.2,0.05505
9656.1,0.0547
9674.2,0.05436
9692.2,0.05403
9710.4,0.05381
9728.6,0.05353
9746.9,0.05325
9765.2,0.05294
9783.7,0.05269
9802.2,0.05246
9820.7,0.05227
9839.4,0.05214
9858.1,0.05201
9876.8,0.05188
9895.7,0.05182
9914.6,0.05184
9933.6,0.05194
9952.7,0.05208
9971.8,0.0523
9991.0,0.05247
10010.3,0.05266
10029.7,0.05285
10049.1,0.05299
10068.6,0.05313
10088.2,0.05337
10107.9,0.05351
10127.6,0.05353
10147.4,0.05338
10167.3,0.05318
10187.3,0.05304
10207.4,0.05311
10227.5,0.05334
10247.7,0.05365
10268.0,0.05389
10288.4,0.05419
10308.8,0.05457
10329.4,0.05494
10350.0,0.05511
10370.7,0.05524
10391.5,0.05551
10412.3,0.05611
10433.3,0.0569
10454.3,0.05765
10475.5,0.05844
10496.7,0.05955
10517.9,0.06092
10539.3,0.06224
10560.8,0.06321
10582.3,0.06383
10604.0,0.06424
10625.7,0.06446
10647.5,0.0645
10669.4,0.06446
10691.4,0.0643
10713.5,0.06406
10735.7,0.06377
10758.0,0.06343
10780.3,0.06299
10802.8,0.06257
10825.4,0.06217
10848.0,0.0617
10870.8,0.06117
10893.6,0.06072
10916.5,0.0603
10939.5,0.05993
10962.7,0.05965
10985.9,0.05948
11009.2,0.05938
11032.7,0.05923
11056.2,0.05913
11079.8,0.05921
11103.5,0.05927
11127.3,0.05941
11151.3,0.05966
11175.3,0.06003
11199.5,0.06045
11223.7,0.06092
11248.0,0.06145
11272.5,0.06201
11297.1,0.06246
11321.7,0.06283
11346.5,0.06308
11371.4,0.06322
11396.4,0.06322
11421.5,0.06292
11446.7,0.0622
11472.0,0.06111
11497.5,0.05982
11523.0,0.0586
11548.7,0.05752
11574.4,0.0567
11600.3,0.0561
11626.3,0.05563
11652.5,0.05525
11678.7,0.05495
11705.1,0.05475
11731.6,0.05452
11758.2,0.05413
11784.9,0.05369
11811.7,0.05306
11838.7,0.05236
11865.8,0.05204
11893.0,0.05232
11920.3,0.05334
11947.8,0.05493
11975.4,0.05674
12003.1,0.05862
12031.0,0.0603
12059.0,0.06184
12087.1,0.06327
12115.3,0.06446
12143.7,0.06553
12172.2,0.06656
12200.8,0.06738
12229.6,0.06813
12258.5,0.06896
12287.6,0.06971
12316.8,0.07036
12346.1,0.07099
12375.5,0.07147
12405.2,0.07185
12434.9,0.07215
12464.8,0.0724
12494.8,0.07255
12525.0,0.07268
12555.3,0.07276
12585.8,0.07285
12616.4,0.07293
12647.2,0.07302
12678.1,0.07316
12709.2,0.07324
12740.4,0.07333
12771.8,0.07331
12803.3,0.07314
12835.0,0.07308
12866.9,0.07298
12898.9,0.07275
12931.1,0.0725
12963.4,0.07221
12995.9,0.07179
13028.5,0.0713
13061.3,0.07073
13094.3,0.07007
13127.5,0.06941
13160.8,0.06868
13194.3,0.06776
13228.0,0.06678
13261.8,0.06569
13295.8,0.06459
13330.0,0.06354
13364.3,0.06237
13398.9,0.06096
13433.6,0.0595
13468.5,0.05812
13503.5,0.05654
13538.8,0.05493
13574.2,0.05359
13609.9,0.05252
13645.7,0.05185
13681.7,0.05149
13717.9,0.05113
13754.3,0.05071
13790.8,0.05024
13827.6,0.04999
13864.6,0.05011
13901.8,0.05041
13939.1,0.05079
13976.7,0.05093
14014.5,0.0508
14052.5,0.05047
14090.7,0.05003
14129.0,0.04936
14167.7,0.04865
14206.5,0.0479
14245.5,0.04706
14284.7,0.04619
14324.2,0.04517
14363.9,0.04412
14403.8,0.04314
14443.9,0.04213
14484.2,0.04114
14524.8,0.04016
14565.6,0.03909
14606.7,0.0381
14647.9,0.03728
14689.4,0.0366
14731.2,0.03614
14773.1,0.03569
14815.3,0.03546
14857.8,0.03522
14900.5,0.03488
14943.4,0.03452
14986.6,0.03402
15030.0,0.03335
15073.7,0.03289
15117.7,0.03244
15161.9,0.03192
15206.3,0.03136
15251.1,0.03093
15296.1,0.03074
15341.3,0.03073
15386.8,0.03088
15432.6,0.03121
15478.7,0.03162
15525.0,0.03203
15571.7,0.03265
15618.6,0.03328
15665.8,0.03387
15713.2,0.03461
15761.0,0.03528
15809.0,0.03572
15857.4,0.03616
15906.0,0.03657
15955.0,0.03685
16004.2,0.03731
16053.8,0.03767
16103.6,0.03789
16153.8,0.03819
16204.3,0.0386
16255.1,0.03889
16306.2,0.03926
16357.6,0.03966
16409.4,0.03996
16461.5,0.04027
16513.9,0.04073
16566.7,0.04119
16619.8,0.04156
16673.2,0.04178
16727.0,0.04207
16781.1,0.04232
16835.6,0.04249
16890.5,0.04268
16945.7,0.04297
17001.2,0.04294
17057.2,0.04293
17113.4,0.04317
17170.1,0.04347
17227.2,0.04371
17284.6,0.0442
17342.4,0.04502
17400.6,0.04565
17459.2,0.04623
17518.2,0.0472
17577.5,0.0482
17637.3,0.04895
17697.5,0.04956
17758.1,0.05042
17819.2,0.05106
17880.6,0.0518
17942.5,0.05236
18004.8,0.05303
18067.5,0.05375
18130.7,0.05439
18194.3,0.05502
18258.4,0.0556
18322.9,0.05635
18387.9,0.05683
18453.3,0.05728
18519.2,0.05792
18585.6,0.05868
18652.4,0.05947
18719.8,0.06029
18787.6,0.06129
18855.9,0.06221
18924.8,0.06306
18994.1,0.06395
19063.9,0.06471
19134.3,0.06483
19205.1,0.06461
19276.5,0.06437
19348.4,0.06415
19420.9,0.064
19493.9,0.06372
19567.5,0.0634
19641.6,0.06322
19716.3,0.06284
19791.5,0.0625
19867.4,0.06235
19943.8,0.06164
20020.8,0.06057
20098.4,0.05935
20176.6,0.05824
20255.4,0.05723
20334.8,0.05586
20414.9,0.05409
20495.6,0.0524
20576.9,0.05114
20658.9,0.05028
20741.5,0.05006
20824.8,0.05007
20908.8,0.05027
20993.4,0.05033
21078.8,0.05023
21164.8,0.05013
21251.6,0.0499
21339.0,0.04965
21427.2,0.04923
21516.1,0.04872
21605.8,0.04821
21696.2,0.04804
21787.3,0.04798
21879.3,0.04821
21972.0,0.04859
22065.5,0.04905
22159.8,0.05022
22254.9,0.05123
22350.8,0.05178
22447.5,0.05261
22545.1,0.05431
22643.6,0.0565
22742.9,0.05871
22843.1,0.06025
22944.2,0.0618
23046.2,0.06361
23149.0,0.06624
23252.8,0.0676
23357.6,0.068
23463.3,0.0691
23569.9,0.072
23677.6,0.07339
23786.2,0.07482
23895.8,0.07595
24006.4,0.0769
24118.1,0.07774
24230.8,0.0781
24344.5,0.07727
24459.4,0.07776
24575.3,0.07856
24692.3,0.07726
24810.4,0.07556
24929.7,0.07538
25050.2,0.07573
