Database of Origin,University of Winnipeg Spectrophotometer Facility
Sample Description,Carbonates and Oxolates - RELAB+Nicolet spectra Newly merged spectra (merged by RELAB)
Other Information,Baked
Date Added,2018-08-06 20:49:03.341263

Data ID,RLA_CARB_1_53       
Sample ID,CRB215Bk
Mineral Name,Hydromagn.
Locality,Atlin/ British Columbia/ Canada
Grain Size,<45 um
Viewing Geometry,30/0/30
Resolution,5/ 0.6-129 nm
Formula,Mg5(CO3)4(OH)2*4(H2O)
Composition,Almost entirely magnesite.

Wavelength
305.0,0.600492
310.0,0.601154
315.0,0.610589
320.0,0.61628
325.0,0.624807
330.0,0.633404
335.0,0.641382
340.0,0.651045
345.0,0.657267
350.0,0.665596
355.0,0.672197
360.0,0.680107
365.0,0.685712
370.0,0.692596
375.0,0.698424
380.0,0.704001
385.0,0.709319
390.0,0.715037
395.0,0.720974
400.0,0.723202
405.0,0.72877
410.0,0.730286
415.0,0.736513
420.0,0.74034
425.0,0.745639
430.0,0.749432
435.0,0.754209
440.0,0.757394
445.0,0.762677
450.0,0.765164
455.0,0.771007
460.0,0.77356
465.0,0.778823
470.0,0.781382
475.0,0.785604
480.0,0.78878
485.0,0.793998
490.0,0.795573
495.0,0.80065
500.0,0.803061
505.0,0.80725
510.0,0.809496
515.0,0.81388
520.0,0.816032
525.0,0.819653
530.0,0.822004
535.0,0.825705
540.0,0.827841
545.0,0.831448
550.0,0.833425
555.0,0.837227
560.0,0.837898
565.0,0.841981
570.0,0.842977
575.0,0.845913
580.0,0.847487
585.0,0.850342
590.0,0.851798
595.0,0.853375
600.0,0.855204
605.0,0.858071
610.0,0.85873
615.0,0.860675
620.0,0.86227
625.0,0.864589
630.0,0.866217
635.0,0.867631
640.0,0.86831
645.0,0.869598
650.0,0.872224
655.0,0.872874
660.0,0.874808
665.0,0.876463
670.0,0.877056
675.0,0.877545
680.0,0.878721
685.0,0.880628
690.0,0.881329
695.0,0.88309
700.0,0.884392
705.0,0.884141
710.0,0.885497
715.0,0.886494
720.0,0.887073
725.0,0.888537
730.0,0.889085
735.0,0.891524
740.0,0.891927
745.0,0.892163
750.0,0.892952
755.0,0.892124
760.0,0.894995
765.0,0.894918
770.0,0.896728
775.0,0.896515
780.0,0.896924
785.0,0.898768
790.0,0.899941
795.0,0.899779
800.0,0.90253
805.0,0.89978
810.0,0.90236
815.0,0.902654
820.0,0.903735
825.0,0.902674
830.0,0.904284
835.0,0.905135
840.0,0.904385
845.0,0.905827
850.0,0.906107
855.0,0.908765
860.0,0.90688
865.0,0.9097
870.0,0.908721
875.0,0.909077
880.0,0.908268
885.0,0.910808
890.0,0.910487
895.0,0.911187
900.0,0.909851
905.0,0.912005
910.0,0.911111
915.0,0.912189
920.0,0.910606
925.0,0.912712
930.0,0.912417
935.0,0.91336
940.0,0.912668
945.0,0.913536
950.0,0.912387
955.0,0.914047
960.0,0.912011
965.0,0.913454
970.0,0.914467
975.0,0.915363
980.0,0.915481
985.0,0.916829
990.0,0.916449
995.0,0.915375
1000.0,0.917753
1005.0,0.917687
1010.0,0.917422
1015.0,0.917006
1020.0,0.917686
1025.0,0.918082
1030.0,0.919624
1035.0,0.91877
1040.0,0.919448
1045.0,0.920153
1050.0,0.919746
1055.0,0.92049
1060.0,0.920465
1065.0,0.921205
1070.0,0.921054
1075.0,0.921632
1080.0,0.921407
1085.0,0.921374
1090.0,0.922107
1095.0,0.921906
1100.0,0.922563
1105.0,0.922252
1110.0,0.923341
1115.0,0.923598
1120.0,0.923979
1125.0,0.924325
1130.0,0.923703
1135.0,0.924427
1140.0,0.924875
1145.0,0.924182
1150.0,0.924433
1155.0,0.924949
1160.0,0.925332
1165.0,0.92491
1170.0,0.925071
1175.0,0.925475
1180.0,0.925805
1185.0,0.926224
1190.0,0.926705
1195.0,0.926332
1200.0,0.927073
1205.0,0.92666
1210.0,0.92783
1215.0,0.927163
1220.0,0.928459
1225.0,0.927744
1230.0,0.928103
1235.0,0.928424
1240.0,0.927884
1245.0,0.928998
1250.0,0.927815
1255.0,0.927968
1260.0,0.928684
1265.0,0.928694
1270.0,0.928428
1275.0,0.927179
1280.0,0.927206
1285.0,0.926829
1290.0,0.926743
1295.0,0.92652
1300.0,0.926623
1305.0,0.926853
1310.0,0.927378
1315.0,0.927205
1320.0,0.92707
1325.0,0.927199
1330.0,0.927208
1335.0,0.927239
1340.0,0.926311
1345.0,0.925867
1350.0,0.924235
1355.0,0.923932
1360.0,0.923338
1365.0,0.920872
1370.0,0.915377
1375.0,0.915958
1380.0,0.91412
1385.0,0.912247
1420.0,0.906016
1425.0,0.907999
1430.0,0.909791
1435.0,0.911255
1440.0,0.912484
1445.0,0.913172
1450.0,0.913999
1455.0,0.914256
1460.0,0.914533
1465.0,0.915001
1470.0,0.91516
1475.0,0.915527
1480.0,0.915964
1485.0,0.916138
1490.0,0.916184
1495.0,0.916261
1500.0,0.916296
1505.0,0.916481
1510.0,0.916059
1515.0,0.916054
1520.0,0.916021
1525.0,0.916068
1530.0,0.915861
1535.0,0.915907
1540.0,0.915553
1545.0,0.915529
1550.0,0.915401
1555.0,0.915237
1560.0,0.914924
1565.0,0.914619
1570.0,0.91446
1575.0,0.914324
1580.0,0.91406
1585.0,0.913748
1590.0,0.913337
1595.0,0.913181
1600.0,0.913014
1605.0,0.912741
1610.0,0.912266
1615.0,0.911811
1620.0,0.91158
1625.0,0.911152
1630.0,0.91078
1635.0,0.910437
1640.0,0.910041
1645.0,0.909648
1650.0,0.90914
1655.0,0.908526
1660.0,0.908008
1665.0,0.907533
1670.0,0.906875
1675.0,0.906297
1680.0,0.905583
1685.0,0.904998
1690.0,0.904468
1695.0,0.903936
1700.0,0.903219
1705.31,0.902652
1709.81,0.902157
1715.46,0.901691
1720.02,0.901282
1724.6,0.900847
1730.35,0.900367
1734.98,0.899763
1739.64,0.899233
1745.5,0.898743
1750.21,0.898307
1754.95,0.897923
1759.72,0.897329
1764.51,0.896894
1770.54,0.896467
1775.39,0.895847
1780.27,0.895495
1785.17,0.895133
1790.1,0.894662
1795.06,0.894374
1800.05,0.893613
1805.06,0.893262
1810.1,0.892589
1815.17,0.891986
1820.27,0.891202
1825.4,0.890553
1830.56,0.889825
1834.44,0.889438
1839.65,0.888497
1844.89,0.887899
1850.16,0.886831
1855.45,0.885826
1859.45,0.884911
1864.8,0.883564
1870.18,0.881708
1875.59,0.879481
1879.67,0.877212
1885.14,0.873863
1890.64,0.87104
1894.79,0.868925
1900.34,0.865748
1904.53,0.863181
1910.15,0.859645
1914.38,0.857053
1920.05,0.853975
1924.33,0.851864
1930.06,0.84985
1934.38,0.849041
1940.17,0.848188
1944.54,0.847667
1950.39,0.846988
1954.8,0.846704
1960.72,0.846634
1965.18,0.846368
1969.66,0.846361
1975.66,0.846572
1980.19,0.846605
1984.74,0.846702
1989.31,0.846862
1995.43,0.84717
2000.05,0.847392
2004.69,0.847597
2009.35,0.847935
2015.6,0.848241
2020.32,0.848617
2025.05,0.849316
2029.81,0.849349
2034.59,0.849626
2039.39,0.850132
2044.22,0.850158
2050.69,0.850235
2055.57,0.850323
2060.47,0.850275
2065.39,0.850079
2070.34,0.849503
2075.31,0.849611
2080.31,0.849081
2085.33,0.849019
2090.38,0.848852
2095.45,0.848529
2100.54,0.848344
2105.66,0.848076
2110.8,0.847658
2114.25,0.847469
2119.43,0.846988
2124.65,0.846383
2129.88,0.84613
2135.15,0.845436
2140.44,0.845022
2145.75,0.844451
2149.31,0.843963
2154.67,0.843325
2160.06,0.842696
2165.47,0.841744
2170.91,0.840995
2174.55,0.840577
2180.04,0.839587
2185.55,0.838405
2189.25,0.837648
2194.81,0.835659
2200.4,0.833524
2204.14,0.831519
2209.78,0.82817
2215.44,0.823531
2219.24,0.821638
2224.95,0.818004
2230.7,0.813239
2234.54,0.80915
2240.33,0.803394
2244.21,0.801481
2250.06,0.797625
2255.93,0.793182
2259.87,0.790794
2265.79,0.787795
2269.76,0.78654
2275.74,0.785225
2279.74,0.785016
2285.77,0.784497
2289.81,0.783666
2295.9,0.781896
2299.97,0.780327
2304.06,0.778368
2310.22,0.774498
2314.35,0.771693
2320.56,0.768784
2324.72,0.766887
2331.0,0.76458
2335.2,0.7632
2339.41,0.761913
2345.76,0.759935
2350.02,0.758899
2354.28,0.758371
2360.72,0.75918
2365.03,0.760621
2369.35,0.761781
2375.86,0.763877
2380.23,0.765103
2384.61,0.765998
2389.0,0.766781
2395.63,0.767241
2400.06,0.767306
2404.52,0.766999
2408.98,0.766379
2415.72,0.764464
2420.23,0.763145
2424.76,0.761381
2429.3,0.75953
2433.87,0.757762
2440.74,0.754851
2445.35,0.753123
2449.97,0.750914
2454.61,0.748702
2459.27,0.746653
2463.94,0.744716
2470.99,0.741704
2475.71,0.739659
2480.45,0.737889
2485.2,0.736185
2489.98,0.734682
2494.77,0.73303
2499.58,0.731865
2504.41,0.73021
2509.26,0.728759
2514.13,0.72745
2519.02,0.726169
2523.92,0.724935
2528.85,0.723634
2533.79,0.722827
2541.24,0.721749
2543.74,0.721202
2548.74,0.720547
2553.76,0.719817
2556.28,0.719313
2558.8,0.718953
2561.33,0.718245
2563.86,0.717297
2566.4,0.716904
2568.95,0.716501
2571.5,0.715807
2574.05,0.714984
2576.61,0.714087
2579.17,0.713573
2581.74,0.713252
2584.31,0.712194
2586.89,0.711376
2589.48,0.710833
2592.07,0.710178
2594.66,0.708962
2597.26,0.707762
2599.87,0.707718
2602.48,0.707252
2605.09,0.705834
2607.71,0.704642
2610.34,0.704181
2612.97,0.70336
2615.61,0.702287
2618.25,0.701069
2620.9,0.699724
2623.55,0.698884
2626.21,0.698029
2628.87,0.696549
2631.54,0.695241
2634.22,0.694236
2636.89,0.693078
2639.58,0.691827
2642.27,0.690134
2644.97,0.688256
2647.67,0.686005
2650.38,0.683371
2653.09,0.680077
2655.81,0.676245
2658.53,0.671786
2661.26,0.666837
2664.0,0.660119
2666.74,0.649752
2669.48,0.633236
2672.23,0.610351
2674.99,0.585456
2677.76,0.556094
2680.52,0.51256
2683.3,0.47625
2686.08,0.456784
2688.87,0.447297
2691.66,0.44633
2694.46,0.447253
2697.26,0.443894
2700.07,0.434473
2702.89,0.425159
2705.71,0.419184
2708.53,0.41274
2711.37,0.403833
2714.21,0.39348
2717.05,0.382379
2719.9,0.371496
2722.76,0.360633
2725.62,0.349869
2728.49,0.337297
2731.37,0.32269
2734.25,0.304567
2737.14,0.282055
2740.03,0.260608
2742.93,0.251838
2745.83,0.254681
2748.75,0.251756
2751.66,0.236843
2754.59,0.226468
2757.52,0.228297
2760.46,0.230109
2763.4,0.229911
2766.35,0.230131
2769.3,0.229749
2772.26,0.228194
2775.23,0.225501
2778.21,0.222319
2781.19,0.219404
2784.18,0.217074
2787.17,0.215227
2790.17,0.213606
2793.18,0.21187
2796.19,0.210388
2799.21,0.209091
2802.24,0.207892
2805.27,0.206439
2808.31,0.205058
2811.35,0.203675
2814.41,0.202194
2817.46,0.200771
2820.53,0.199428
2823.6,0.197862
2826.68,0.196396
2829.77,0.194703
2832.86,0.192836
2835.96,0.190655
2839.07,0.18854
2842.18,0.186375
2845.3,0.184488
2848.43,0.183237
2851.56,0.182736
2854.7,0.182619
2857.85,0.182793
2861.0,0.182989
2864.16,0.183152
2867.33,0.183185
2870.51,0.183028
2873.69,0.182674
2876.88,0.182287
2880.07,0.181782
2883.28,0.181087
2886.49,0.180115
2889.71,0.179326
2892.93,0.178504
2896.17,0.177591
2899.4,0.176859
2902.65,0.176549
2905.91,0.1762
2909.17,0.176024
2912.44,0.175909
2915.71,0.175916
2918.99,0.175883
2922.29,0.176233
2925.58,0.176916
2928.89,0.177547
2932.2,0.178475
2935.52,0.179796
2938.85,0.180922
2942.19,0.18214
2945.53,0.183266
2948.88,0.184462
2952.24,0.18573
2955.61,0.187008
2958.98,0.188142
2962.36,0.18931
2965.75,0.190438
2969.15,0.191636
2972.55,0.192731
2975.97,0.193962
2979.39,0.195239
2986.25,0.197385
2989.7,0.198555
2993.15,0.199577
2996.61,0.200615
3000.08,0.201547
3003.55,0.202591
3007.04,0.203785
3010.53,0.20477
3014.03,0.205848
3017.54,0.206978
3021.06,0.207861
3024.58,0.20871
3028.12,0.209499
3031.66,0.21041
3035.21,0.211428
3038.77,0.212452
3042.33,0.213263
3045.91,0.214092
3049.49,0.214846
3053.08,0.215717
3056.68,0.216447
3060.29,0.217087
3063.91,0.217538
3067.54,0.218296
3071.17,0.21885
3074.81,0.21925
3078.47,0.219971
3082.13,0.220662
3085.79,0.221139
3089.47,0.22164
3093.16,0.222185
3096.85,0.223023
3100.56,0.22361
3104.27,0.223836
3107.99,0.224298
3111.73,0.225015
3115.47,0.225571
3119.21,0.226134
3122.97,0.226633
3126.74,0.227156
3130.52,0.227741
3134.3,0.22819
3138.1,0.228884
3141.9,0.229661
3145.71,0.230281
3149.54,0.230881
3153.37,0.231446
3157.21,0.232053
3161.06,0.23253
3164.92,0.233119
3168.79,0.233752
3172.67,0.234368
3176.55,0.234902
3180.45,0.235375
3184.36,0.23592
3188.27,0.236536
3192.2,0.237116
3196.14,0.237542
3200.08,0.237929
3204.04,0.238442
3208.0,0.23875
3211.98,0.239062
3215.96,0.239759
3219.96,0.240203
3223.96,0.240396
3227.98,0.240895
3232.0,0.241144
3236.04,0.241485
3240.08,0.241737
3244.14,0.241973
3248.2,0.242076
3252.28,0.241847
3256.37,0.241438
3260.46,0.240926
3264.57,0.240102
3268.69,0.239183
3272.81,0.238437
3276.95,0.238165
3281.1,0.238327
3285.26,0.238505
3289.43,0.238602
3293.61,0.239145
3297.8,0.239477
3302.0,0.239581
3306.21,0.239476
3310.43,0.23942
3314.66,0.239796
3318.91,0.239839
3323.16,0.240779
3327.43,0.240497
3331.71,0.240975
3335.99,0.241602
3340.29,0.241938
3344.6,0.242498
3348.92,0.243012
3353.26,0.243499
3357.6,0.244409
3361.96,0.244842
3366.32,0.245389
3370.7,0.246145
3375.09,0.247233
3379.49,0.248211
3383.9,0.249163
3388.32,0.250006
3392.76,0.250715
3397.21,0.25152
3401.66,0.251838
3406.13,0.251909
3410.61,0.251487
3415.11,0.251569
3419.61,0.252023
3424.13,0.253024
3428.66,0.254218
3433.2,0.256157
3437.76,0.258305
3442.32,0.260355
3446.9,0.26235
3451.49,0.264412
3456.09,0.266644
3460.7,0.268481
3465.33,0.270601
3469.97,0.272831
3474.62,0.274826
3479.29,0.277116
3483.96,0.279567
3488.65,0.282162
3493.35,0.285075
3498.07,0.287675
3502.79,0.290366
3507.53,0.292741
3512.29,0.295309
3517.05,0.297618
3521.83,0.299788
3526.62,0.301948
3531.43,0.303437
3536.24,0.305308
3541.08,0.306893
3543.5,0.307262
3545.92,0.308216
3548.35,0.309255
3550.78,0.309935
3553.21,0.310576
3555.65,0.311003
3558.09,0.311715
3560.53,0.312511
3562.98,0.313024
3565.43,0.313376
3567.88,0.313803
3570.34,0.314303
3572.8,0.314963
3575.27,0.31558
3577.73,0.3162
3580.2,0.316654
3582.68,0.317278
3585.16,0.317863
3587.64,0.318555
3590.12,0.318986
3592.61,0.319071
3595.1,0.319273
3597.6,0.319769
3600.09,0.319976
3602.6,0.320365
3605.1,0.320663
3607.61,0.320957
3610.12,0.321239
3612.64,0.321457
3615.16,0.321355
3617.68,0.321252
3620.21,0.321248
3622.74,0.32149
3625.27,0.321446
3627.81,0.32147
3630.35,0.321257
3632.89,0.321179
3635.44,0.321112
3637.99,0.321008
3640.54,0.320725
3643.1,0.320614
3645.66,0.320325
3648.23,0.320101
3650.8,0.319727
3653.37,0.319235
3655.95,0.31908
3658.53,0.318786
3661.11,0.318364
3663.7,0.318128
3666.29,0.317548
3668.89,0.317247
3671.48,0.316829
3674.09,0.316138
3676.69,0.315406
3679.3,0.315037
3681.91,0.31443
3684.53,0.313629
3687.15,0.313087
3689.78,0.312724
3692.4,0.312121
3695.04,0.311334
3697.67,0.310402
3700.31,0.309562
3702.95,0.308677
3705.6,0.307921
3708.25,0.307209
3710.91,0.306475
3713.56,0.305457
3716.23,0.304334
3718.89,0.303302
3721.56,0.302288
3724.23,0.301276
3726.91,0.300297
3729.59,0.299125
3732.28,0.297965
3734.97,0.296666
3737.66,0.295707
3740.36,0.294738
3743.06,0.293561
3745.76,0.292652
3748.47,0.291605
3751.18,0.290421
3753.9,0.289361
3756.62,0.288
3759.34,0.286801
3762.07,0.285571
3764.8,0.284466
3767.54,0.283614
3770.28,0.282393
3773.02,0.281168
3775.77,0.280292
3778.52,0.279269
3781.28,0.278715
3784.04,0.277968
3786.8,0.27687
3789.57,0.275778
3792.34,0.275171
3795.12,0.274641
3797.9,0.274123
3800.69,0.273587
3803.47,0.2734
3806.27,0.273149
3809.06,0.272804
3811.86,0.272313
3814.67,0.272022
3817.48,0.271966
3820.29,0.271537
3823.11,0.270916
3825.93,0.270752
3828.76,0.270492
3831.59,0.270207
3834.42,0.269956
3837.26,0.269662
3840.1,0.269398
3842.95,0.269186
3845.8,0.268766
3848.65,0.268179
3851.51,0.267852
3854.38,0.267761
3857.24,0.267581
3860.12,0.267407
3862.99,0.267116
3865.87,0.266889
3868.76,0.266704
3871.65,0.266578
3874.54,0.266135
3877.44,0.265461
3880.34,0.264616
3883.25,0.263749
3886.16,0.262768
3889.07,0.261943
3891.99,0.260889
3894.92,0.259497
3897.85,0.258063
3900.78,0.256946
3903.72,0.256023
3906.66,0.255112
3909.6,0.254278
3912.55,0.253635
3915.51,0.253004
3918.47,0.252472
3921.43,0.251947
3924.4,0.251507
3927.38,0.250971
3930.35,0.25056
3933.33,0.250368
3936.32,0.250304
3939.31,0.250339
3942.31,0.250611
3945.31,0.250942
3948.31,0.251458
3951.32,0.252376
3954.34,0.2536
3957.35,0.255461
3960.38,0.257989
3963.41,0.260711
3966.44,0.263849
3969.48,0.267532
3972.52,0.271741
3975.56,0.276314
3978.61,0.280755
3981.67,0.284864
3984.73,0.288751
3987.8,0.292592
3990.87,0.296426
3993.94,0.299888
3997.02,0.30322
4000.1,0.306186
4003.19,0.309148
4006.29,0.311917
4009.39,0.314666
4012.49,0.317225
4015.6,0.319638
4018.71,0.321964
4021.83,0.324395
4024.95,0.326683
4028.08,0.329125
4031.21,0.331335
4034.35,0.333383
4037.49,0.335285
4040.64,0.337255
4043.79,0.339221
4046.94,0.341196
4050.11,0.343024
4053.27,0.344863
4056.44,0.346493
4059.62,0.348158
4062.8,0.349915
4065.99,0.351456
4069.18,0.352886
4072.38,0.354616
4075.58,0.356315
4078.78,0.357952
4082.0,0.359273
4085.21,0.360452
4088.43,0.36163
4091.66,0.363051
4094.89,0.364379
4098.13,0.365869
4101.37,0.367108
4104.62,0.368262
4107.87,0.369471
4111.13,0.370661
4114.39,0.371649
4117.66,0.372814
4120.93,0.373866
4124.21,0.374655
4127.5,0.375547
4130.79,0.376481
4134.08,0.377213
4137.38,0.378055
4140.68,0.378747
4143.99,0.379321
4147.31,0.379714
4150.63,0.380462
4153.95,0.381098
4157.29,0.381422
4160.62,0.381923
4163.96,0.382394
4167.31,0.382336
4170.66,0.38227
4174.02,0.382396
4177.39,0.382459
4180.75,0.382043
4184.13,0.381529
4187.51,0.380969
4190.89,0.380068
4194.28,0.378607
4197.68,0.376752
4201.08,0.374384
4204.49,0.371593
4207.9,0.367864
4211.32,0.363603
4214.74,0.358515
4218.17,0.352731
4221.61,0.346233
4225.05,0.33957
4228.5,0.332472
4231.95,0.325262
4235.4,0.317512
4238.87,0.309288
4242.34,0.299944
4245.81,0.289668
4249.29,0.278226
4252.78,0.266195
4256.27,0.253113
4259.77,0.23832
4263.27,0.22282
4266.78,0.211732
4270.29,0.213004
4273.81,0.227479
4277.34,0.246946
4280.87,0.263822
4284.41,0.275709
4287.95,0.284239
4291.5,0.292163
4295.06,0.3013
4298.62,0.310792
4302.19,0.319571
4305.76,0.326997
4309.34,0.333406
4312.92,0.339225
4316.52,0.344716
4320.11,0.349735
4323.72,0.354343
4327.32,0.358499
4330.94,0.362117
4334.56,0.365133
4338.19,0.368017
4341.82,0.370537
4345.46,0.37254
4349.11,0.374248
4352.76,0.375923
4356.42,0.377377
4360.08,0.378316
4363.75,0.378992
4367.43,0.379674
4371.11,0.379988
4374.8,0.380279
4378.49,0.380253
4382.19,0.380115
4385.9,0.379694
4389.61,0.379412
4393.33,0.37951
4397.06,0.38021
4400.79,0.381038
4404.53,0.381722
4408.28,0.381802
4412.03,0.381807
4415.79,0.381903
4419.55,0.381976
4423.32,0.382023
4427.1,0.382143
4430.88,0.381876
4434.68,0.381533
4438.47,0.381302
4442.28,0.381086
4446.08,0.380731
4449.9,0.380448
4453.72,0.380112
4457.55,0.379975
4461.39,0.379657
4465.23,0.379303
4469.08,0.378725
4472.94,0.378316
4476.8,0.37798
4480.67,0.377531
4484.55,0.376966
4488.43,0.376534
4492.32,0.375832
4496.21,0.375116
4500.12,0.374664
4504.03,0.374257
4507.94,0.373719
4511.87,0.373316
4515.8,0.3727
4519.73,0.372233
4523.68,0.371553
4527.63,0.371028
4531.59,0.37037
4535.55,0.369836
4539.52,0.369162
4543.5,0.368522
4547.49,0.367853
4551.48,0.367357
4555.48,0.366745
4559.49,0.366076
4563.5,0.365424
4567.52,0.364993
4571.55,0.364368
4575.58,0.363854
4579.63,0.363425
4583.67,0.36298
4587.73,0.36258
4591.79,0.362411
4595.86,0.362091
4599.94,0.361855
4604.03,0.361526
4608.12,0.361263
4612.22,0.361125
4616.33,0.360932
4620.44,0.360654
4624.56,0.360598
4628.69,0.360638
4632.83,0.360896
4636.97,0.360852
4641.12,0.360667
4645.28,0.360561
4649.45,0.360534
4653.62,0.360334
4657.8,0.360394
4661.99,0.360434
4666.19,0.360223
4670.39,0.359925
4674.6,0.359698
4678.82,0.359342
4683.05,0.359064
4687.28,0.358688
4691.52,0.35861
4695.77,0.35827
4700.03,0.357968
4704.3,0.357667
4708.57,0.357474
4712.85,0.357005
4717.14,0.356496
4721.43,0.355993
4725.74,0.355642
4730.05,0.355335
4734.37,0.355061
4738.7,0.35439
4743.03,0.353816
4747.38,0.353473
4751.73,0.353138
4756.09,0.35247
4760.45,0.351957
4764.83,0.35159
4769.21,0.35096
4773.6,0.350233
4778.0,0.349668
4782.41,0.348968
4786.83,0.348396
4791.25,0.347689
4795.68,0.347238
4800.13,0.346795
4804.57,0.34607
4809.03,0.345214
4813.5,0.344591
4817.97,0.343929
4822.45,0.34327
4826.94,0.342437
4831.44,0.341789
4835.95,0.341122
4840.46,0.340373
4844.99,0.339543
4849.52,0.338943
4854.06,0.338187
4858.61,0.337391
4863.17,0.336488
4867.73,0.335867
4872.31,0.335271
4876.89,0.334662
4881.48,0.333632
4886.08,0.332721
4890.69,0.331931
4895.31,0.331195
4899.94,0.330377
4904.57,0.329561
4909.22,0.328609
4913.87,0.327988
4918.53,0.327217
4923.21,0.326329
4927.88,0.325349
4932.57,0.324372
4937.27,0.323487
4941.98,0.322736
4946.69,0.321888
4951.42,0.32095
4956.15,0.319856
4960.9,0.318989
4965.65,0.31797
4970.41,0.316929
4975.18,0.315815
4979.96,0.314674
4984.75,0.313436
4989.54,0.312433
4994.35,0.311377
4999.17,0.310451
5003.99,0.309155
5008.83,0.307927
5013.67,0.306773
5018.52,0.305786
5023.39,0.304561
5028.26,0.303393
5033.14,0.302268
5038.03,0.301145
5042.93,0.299777
5047.84,0.298627
5052.76,0.297449
5057.69,0.296172
5062.63,0.294865
5067.58,0.293851
5072.54,0.292948
5077.51,0.292352
5082.49,0.291556
5087.47,0.290648
5092.47,0.289883
5097.48,0.289154
5102.5,0.288158
5107.52,0.287052
5112.56,0.285723
5117.61,0.284635
5122.66,0.283663
5127.73,0.282578
5132.81,0.281348
5137.89,0.280099
5142.99,0.278824
5148.1,0.277699
5153.22,0.276196
5158.34,0.274817
5163.48,0.273365
5168.63,0.271795
5173.79,0.270176
5178.96,0.26867
5184.13,0.267005
5189.32,0.265384
5194.52,0.263547
5199.73,0.261799
5204.96,0.259908
5210.19,0.257894
5215.43,0.255692
5220.68,0.253457
5225.94,0.251265
5231.22,0.249154
5236.5,0.246648
5241.79,0.244173
5247.1,0.241615
5252.42,0.2391
5257.74,0.236578
5263.08,0.234119
5268.43,0.231697
5273.79,0.229204
5279.16,0.226498
5284.54,0.223805
5289.93,0.221058
5295.34,0.218316
5300.75,0.21547
5306.18,0.212586
5311.61,0.209557
5317.06,0.206753
5322.52,0.20369
5327.99,0.200677
5333.47,0.197773
5338.96,0.194855
5344.47,0.19186
5349.98,0.188951
5355.51,0.185962
5361.05,0.183113
5366.6,0.180222
5372.16,0.177514
5377.73,0.17483
5383.32,0.17199
5388.91,0.16893
5394.52,0.165899
5400.14,0.16267
5405.77,0.159285
5411.41,0.155476
5417.07,0.151564
5422.74,0.147777
5428.41,0.143888
5434.1,0.140176
5439.81,0.136794
5445.52,0.1334
5451.25,0.130391
5456.98,0.12774
5462.73,0.125521
5468.5,0.123464
5474.27,0.121801
5480.06,0.12036
5485.86,0.119245
5491.67,0.118529
5497.49,0.118065
5503.33,0.117789
5509.18,0.117807
5515.04,0.11816
5520.91,0.118614
5526.8,0.118912
5532.69,0.119199
5538.61,0.119254
5544.53,0.11939
5550.47,0.119401
5556.41,0.119265
5562.38,0.118785
5568.35,0.118356
5574.34,0.11792
5580.34,0.117353
5586.35,0.11663
5592.38,0.116261
5598.42,0.116077
5604.47,0.11597
5610.54,0.115823
5616.61,0.115767
5622.71,0.115572
5628.81,0.11522
5634.93,0.1146
5641.06,0.114006
5647.21,0.113041
5653.36,0.11214
5659.54,0.11112
5665.72,0.109968
5671.92,0.1087
5678.13,0.107493
5684.36,0.106194
5690.6,0.104728
5696.85,0.103029
5703.12,0.101488
5709.4,0.099771
5715.69,0.097863
5722.0,0.095642
5728.33,0.093434
5734.66,0.091145
5741.01,0.088864
5747.38,0.086546
5753.76,0.084116
5760.15,0.081463
5766.56,0.079012
5772.98,0.076101
5779.41,0.073228
5785.86,0.070682
5792.33,0.068098
5798.81,0.065385
5805.3,0.062689
5811.81,0.059778
5818.33,0.056947
5824.87,0.054101
5831.42,0.051383
5837.99,0.048553
5844.57,0.045802
5851.17,0.043356
5857.78,0.040918
5864.41,0.038367
5871.05,0.035837
5877.7,0.03362
5884.38,0.031503
5891.06,0.029352
5897.76,0.027518
5904.48,0.025636
5911.21,0.02389
5917.96,0.022205
5924.73,0.020481
5931.5,0.019138
5938.3,0.017826
5945.11,0.016192
5951.93,0.014833
5958.78,0.013721
5965.63,0.012596
5972.51,0.011517
5979.39,0.010456
5986.3,0.009418
5993.22,0.008637
6000.16,0.008006
6007.11,0.007421
6014.08,0.006694
6021.06,0.006113
6028.06,0.005755
6035.08,0.005475
6042.12,0.005144
6049.17,0.004846
6056.23,0.00477
6063.32,0.004786
6070.42,0.004697
6077.53,0.004723
6084.67,0.004641
6091.82,0.004497
6098.98,0.004543
6106.17,0.00459
6113.37,0.004663
6120.58,0.005006
6127.82,0.00523
6135.07,0.005297
6142.34,0.005368
6149.63,0.0056
6156.93,0.00566
6164.25,0.005829
6171.59,0.006073
6178.95,0.00632
6186.32,0.006627
6193.71,0.006787
6201.12,0.006947
6208.54,0.007285
6215.99,0.007577
6223.45,0.007643
6230.93,0.007754
6238.43,0.008024
6245.95,0.008264
6253.48,0.008548
6261.03,0.008771
6268.6,0.008998
6276.19,0.00944
6283.8,0.009747
6291.43,0.009938
6299.07,0.010187
6306.73,0.010528
6314.42,0.010808
6322.12,0.011068
6329.84,0.011399
6337.57,0.011735
6345.33,0.012044
6353.11,0.012364
6360.9,0.012611
6368.72,0.012876
6376.55,0.013181
6384.4,0.013507
6392.27,0.014055
6400.17,0.01451
6408.08,0.014599
6416.01,0.014735
6423.96,0.015146
6431.93,0.015527
6439.92,0.015805
6447.93,0.016045
6455.96,0.016265
6464.01,0.016543
6472.08,0.016845
6480.17,0.017275
6488.28,0.017537
6496.41,0.017624
6504.56,0.017737
6512.73,0.017888
6520.92,0.01804
6529.14,0.018193
6537.37,0.018471
6545.63,0.018567
6553.9,0.018542
6562.2,0.018562
6570.51,0.01862
6578.85,0.018836
6587.21,0.018896
6595.59,0.01876
6603.99,0.01864
6612.42,0.018451
6620.86,0.01842
6629.33,0.018498
6637.82,0.018591
6646.33,0.018589
6654.86,0.018495
6663.41,0.018576
6671.99,0.018785
6680.59,0.018825
6689.21,0.018827
6697.85,0.018809
6706.51,0.018871
6715.2,0.018994
6723.91,0.018971
6732.64,0.018991
6741.4,0.01908
6750.18,0.018998
6758.98,0.018922
6767.8,0.018867
6776.65,0.018682
6785.52,0.018642
6794.41,0.018671
6803.33,0.018753
6812.27,0.018876
6821.23,0.01888
6830.22,0.018927
6839.23,0.019089
6848.26,0.019223
6857.32,0.019234
6866.4,0.019329
6875.51,0.019456
6884.64,0.019521
6893.8,0.019836
6902.98,0.02017
6912.18,0.020237
6921.41,0.020372
6930.66,0.020448
6939.94,0.020553
6949.24,0.020822
6958.57,0.021169
6967.92,0.021438
6977.3,0.0218
6986.7,0.022151
6996.13,0.022518
7005.59,0.022759
7015.07,0.022896
7024.57,0.023121
7034.1,0.023475
7043.66,0.023699
7053.25,0.02385
7062.85,0.024111
7072.49,0.024462
7082.15,0.024967
7091.84,0.025636
7101.55,0.02635
7111.3,0.02687
7121.06,0.02746
7130.86,0.028427
7140.68,0.029675
7150.53,0.030996
7160.41,0.032497
7170.31,0.0341
7180.24,0.035692
7190.2,0.037027
7200.19,0.038523
7210.2,0.040107
7220.24,0.041485
7230.31,0.042891
7240.41,0.044327
7250.54,0.045688
7260.69,0.047169
7270.88,0.048793
7281.09,0.050498
7291.33,0.052315
7301.6,0.054206
7311.9,0.056127
7322.22,0.058266
7332.58,0.060474
7342.97,0.062914
7353.38,0.065451
7363.83,0.068156
7374.3,0.071135
7384.81,0.074275
7395.34,0.077582
7405.91,0.081083
7416.5,0.084961
7427.13,0.089044
7437.78,0.093022
7448.47,0.097205
7459.19,0.101575
7469.94,0.106138
7480.71,0.110904
7491.52,0.115625
7502.37,0.120184
7513.24,0.124894
7524.14,0.129453
7535.08,0.133985
7546.05,0.13855
7557.05,0.143129
7568.08,0.147597
7579.15,0.151933
7590.24,0.155978
7601.37,0.159859
7612.53,0.163415
7623.73,0.166997
7634.96,0.170382
7646.22,0.173369
7657.51,0.17628
7668.84,0.179268
7680.2,0.181935
7691.59,0.184361
7703.02,0.186592
7714.49,0.188704
7725.98,0.190617
7737.52,0.192565
7749.08,0.194168
7760.68,0.195758
7772.32,0.197159
7783.99,0.1985
7795.69,0.199841
7807.43,0.201011
7819.21,0.202003
7831.02,0.203079
7842.87,0.203908
7854.75,0.204894
7866.67,0.205725
7878.62,0.206517
7890.62,0.207262
7902.64,0.207918
7914.71,0.208396
7926.81,0.208847
7938.95,0.209025
7951.13,0.208941
7963.34,0.208738
7975.59,0.208799
7987.88,0.208543
8000.21,0.20836
8012.57,0.207922
8024.98,0.207582
8037.42,0.207304
8049.9,0.207037
8062.42,0.206813
8074.98,0.206619
8087.57,0.20643
8100.21,0.206375
8112.89,0.205894
8125.6,0.204971
8138.36,0.204033
8151.16,0.203177
8163.99,0.202156
8176.87,0.201564
8189.79,0.201304
8202.75,0.20136
8215.75,0.201536
8228.79,0.201658
8241.87,0.201756
8254.99,0.201956
8268.16,0.202098
8281.37,0.202236
8294.62,0.202025
8307.91,0.201745
8321.24,0.201649
8334.62,0.201733
8348.04,0.201522
8361.51,0.201253
8375.02,0.200746
8388.57,0.200381
8402.16,0.199974
8415.8,0.199454
8429.49,0.198558
8443.22,0.197906
8456.99,0.197226
8470.81,0.196685
8484.67,0.196223
8498.58,0.195558
8512.54,0.195069
8526.54,0.194766
8540.58,0.193999
8554.68,0.193061
8568.82,0.192176
8583.0,0.191206
8597.24,0.189987
8611.52,0.188818
8625.85,0.187577
8640.23,0.186316
8654.65,0.184879
8669.12,0.183607
8683.64,0.182062
8698.21,0.180149
8712.83,0.178034
8727.5,0.175744
8742.22,0.172742
8756.99,0.169477
8771.8,0.165999
8786.67,0.162347
8801.59,0.158093
8816.56,0.153619
8831.58,0.148891
8846.65,0.143694
8861.77,0.138324
8876.94,0.132938
8892.17,0.127158
8907.45,0.12124
8922.78,0.11567
8938.16,0.110644
8953.6,0.105722
8969.09,0.100881
8984.64,0.0963
9000.23,0.092253
9015.89,0.08893
9031.59,0.086856
9047.36,0.085779
9063.17,0.085592
9079.05,0.086131
9094.97,0.086635
9110.96,0.086831
9127.0,0.086729
9143.1,0.08682
9159.25,0.087042
9175.46,0.087187
9191.73,0.087238
9208.06,0.087287
9224.44,0.087634
9240.88,0.08829
9257.38,0.08982
9273.94,0.091821
9290.56,0.093843
9307.24,0.095573
9323.98,0.096709
9340.78,0.097688
9357.64,0.098824
9374.57,0.099754
9391.55,0.100305
9408.59,0.100781
9425.7,0.10125
9442.87,0.101377
9460.1,0.101457
9477.4,0.101419
9494.75,0.101304
9512.17,0.100837
9529.66,0.100103
9547.21,0.099042
9564.83,0.097672
9582.5,0.095993
9600.25,0.094032
9618.06,0.092179
9635.94,0.090471
9653.88,0.088479
9671.89,0.086253
9689.97,0.084171
9708.12,0.082268
9726.33,0.080089
9744.62,0.078314
9762.97,0.076768
9781.39,0.075392
9799.88,0.074378
9818.44,0.073873
9837.07,0.073139
9855.77,0.07255
9874.54,0.072463
9893.39,0.072536
9912.3,0.07251
9931.29,0.072683
9950.36,0.072734
9969.49,0.072781
9988.7,0.072997
10007.98,0.073359
10027.34,0.074064
10046.77,0.074694
10066.28,0.075136
10085.87,0.075603
10105.53,0.076237
10125.26,0.076844
10145.08,0.077106
10164.97,0.077551
10184.94,0.077809
10204.99,0.078003
10225.12,0.078209
10245.33,0.078216
10265.61,0.078169
10285.98,0.077954
10306.43,0.077293
10326.96,0.076915
10347.57,0.076713
10368.27,0.076368
10389.05,0.075643
10409.91,0.074384
10430.86,0.073224
10451.88,0.072392
10473.0,0.071362
10494.2,0.070248
10515.49,0.069027
10536.86,0.06778
10558.32,0.066559
10579.87,0.065411
10601.5,0.064208
10623.23,0.063076
10645.04,0.061615
10666.94,0.060176
10688.94,0.05868
10711.02,0.057123
10733.2,0.055756
10755.47,0.054653
10777.83,0.053056
10800.28,0.051557
10822.83,0.05014
10845.47,0.048524
10868.21,0.046551
10891.04,0.044643
10913.97,0.043442
10936.99,0.041999
10960.12,0.040102
10983.34,0.03847
11006.66,0.036642
11030.07,0.034233
11053.59,0.031932
11077.21,0.029263
11100.93,0.025487
11124.75,0.021411
11148.68,0.017815
11172.71,0.015006
11196.84,0.013105
11221.07,0.012227
11245.41,0.012513
11269.86,0.014023
11294.41,0.015613
11319.07,0.016645
11343.84,0.017215
11368.72,0.016983
11393.7,0.016527
11418.8,0.016759
11444.01,0.016605
11469.33,0.015889
11494.76,0.015262
11520.3,0.014617
11545.96,0.013926
11571.73,0.013545
11597.62,0.013465
11623.62,0.013621
11649.74,0.013681
11675.98,0.01387
11702.34,0.014602
11728.81,0.015878
11755.41,0.01711
11782.13,0.017764
11808.96,0.018258
11835.92,0.019405
11863.01,0.020997
11890.22,0.022723
11917.55,0.024578
11945.01,0.026739
11972.6,0.028772
12000.31,0.030497
12028.16,0.031389
12056.13,0.031514
12084.23,0.031418
12112.46,0.031409
12140.83,0.030933
12169.33,0.030066
12197.96,0.029512
12226.73,0.02941
12255.64,0.028749
12284.68,0.027947
12313.86,0.027689
12343.18,0.027235
12372.64,0.026697
12402.24,0.026028
12431.98,0.025294
12461.86,0.024971
12491.89,0.024853
12522.07,0.024466
12552.38,0.024006
12582.85,0.023715
12613.47,0.02363
12644.23,0.023664
12675.15,0.023348
12706.21,0.022919
12737.43,0.02287
12768.81,0.022783
12800.33,0.022603
12832.02,0.022541
12863.86,0.022187
12895.86,0.021744
12928.02,0.02194
12960.34,0.022138
12992.82,0.021733
13025.46,0.021398
13058.27,0.021518
13091.25,0.021057
13124.39,0.020424
13157.7,0.020421
13191.18,0.019812
13224.83,0.01848
13258.66,0.017644
13292.65,0.017003
13326.83,0.015838
13361.17,0.014646
13395.7,0.015189
13430.4,0.016416
13465.29,0.017544
13500.35,0.018124
13535.6,0.018213
13571.03,0.018053
13606.65,0.017975
13642.46,0.018024
13678.46,0.017679
13714.64,0.017208
13751.02,0.016945
13787.59,0.01663
13824.36,0.01596
13861.32,0.015491
13898.49,0.015382
13935.85,0.014837
13973.41,0.014219
14011.17,0.013743
14049.15,0.013483
14087.32,0.013603
14125.71,0.013441
14164.3,0.013316
14203.11,0.013283
14242.13,0.01327
14281.36,0.012858
14320.81,0.012098
14360.49,0.011633
14400.38,0.011602
14440.49,0.011706
14480.82,0.011693
14521.39,0.011515
14562.18,0.011497
14603.2,0.011493
14644.45,0.01139
14685.93,0.011259
14727.66,0.011128
14769.62,0.011273
14811.81,0.011417
14854.25,0.011186
14896.94,0.011003
14939.87,0.010743
14983.05,0.010536
15026.48,0.010345
15070.16,0.010643
15114.1,0.010819
15158.29,0.010098
15202.74,0.00968
15247.46,0.009622
15292.43,0.009789
15337.68,0.009918
15383.19,0.00922
15428.97,0.009222
15475.03,0.0094
15521.36,0.009247
15567.97,0.008893
15614.87,0.008869
15662.04,0.008602
15709.5,0.008279
15757.25,0.00803
15805.29,0.00811
15853.62,0.008424
15902.26,0.008564
15951.19,0.00843
16000.42,0.00839
16049.95,0.008377
16099.8,0.007886
16149.95,0.00753
16200.42,0.007557
16251.21,0.007054
16302.31,0.007083
16353.74,0.007932
16405.49,0.007768
16457.57,0.007554
16509.98,0.008157
16562.73,0.008179
16615.82,0.007992
16669.24,0.007903
16723.02,0.007603
16777.14,0.007539
16831.61,0.007316
16886.43,0.007523
16941.62,0.00735
16997.16,0.00721
17053.08,0.007434
17109.36,0.007312
17166.01,0.006729
17223.04,0.006549
17280.45,0.007116
17338.24,0.007839
17396.43,0.007906
17455.0,0.007777
17513.97,0.00749
17573.34,0.008086
17633.11,0.0087
17693.29,0.008333
17753.89,0.008075
17814.9,0.008453
17876.33,0.008515
17938.18,0.008328
18000.47,0.007801
18063.19,0.007794
18126.35,0.007875
18189.95,0.007299
18254.0,0.006147
18318.5,0.005448
18383.46,0.00753
18448.88,0.007416
18514.77,0.00457
18581.13,0.006162
18647.97,0.008564
18715.29,0.007187
18783.1,0.006542
18851.4,0.007303
18920.2,0.007334
18989.51,0.007937
19059.32,0.008017
19129.65,0.009387
19200.5,0.01035
19271.88,0.008433
19343.79,0.007605
19416.24,0.008081
19489.23,0.008969
19562.77,0.008744
19636.88,0.00904
19711.54,0.008969
19786.78,0.009587
19862.59,0.009805
19938.98,0.009618
20015.96,0.00938
20093.55,0.010285
20171.73,0.011439
20250.53,0.01192
20329.94,0.011001
20409.98,0.010972
20490.65,0.01192
20571.96,0.013116
20653.92,0.013759
20736.54,0.013594
20819.82,0.01488
20903.77,0.01544
20988.4,0.01329
21073.72,0.014208
21159.73,0.015967
21246.46,0.016378
21333.89,0.01661
21422.04,0.014973
21510.93,0.013456
21600.56,0.014479
21690.94,0.014437
21782.08,0.01437
21873.99,0.017593
21966.67,0.019147
22060.15,0.017364
22154.42,0.016398
22249.51,0.015749
22345.41,0.016145
22442.14,0.017166
22539.72,0.017579
22638.14,0.016641
22737.43,0.01447
22837.6,0.013665
22938.65,0.01516
23040.6,0.016398
23143.46,0.01675
23247.24,0.01544
23351.96,0.013919
23457.63,0.013643
23564.25,0.014715
23671.85,0.017659
23780.44,0.017848
23890.02,0.013405
24000.63,0.010436
24112.26,0.014239
24224.93,0.017043
24338.66,0.015736
24453.47,0.01592
24569.36,0.015782
24686.36,0.016374
24804.47,0.018987
24923.73,0.019216
25044.13,0.016392
25165.71,0.011646
25288.46,0.011679
25412.43,0.017684
25537.61,0.023039
25664.04,0.019912
25791.72,0.01397
25920.68,0.016127
