Database of Origin,University of Winnipeg Spectrophotometer Facility
Sample Description,"Zeolites: RELAB + Nicolet spectra, Merged at 2.5 microns; note change in viewing geometry"
Date Added,2018-07-23 23:09:47.833273

Data ID,RLA_ZEO_1_22        
Sample ID,zeo126
Mineral Name,erionite
Grain Size,<45 um
Viewing Geometry,"30/0,30"
Resolution,5/.6-129 nm

Wavelength
305.0,0.248221
310.0,0.258981
315.0,0.272912
320.0,0.284476
325.0,0.293875
330.0,0.303075
335.0,0.309599
340.0,0.314387
345.0,0.31783
350.0,0.319836
355.0,0.320407
360.0,0.320963
365.0,0.323141
370.0,0.330462
375.0,0.342988
380.0,0.360615
385.0,0.377074
390.0,0.389191
395.0,0.398365
400.0,0.409281
405.0,0.42144
410.0,0.435053
415.0,0.451209
420.0,0.466081
425.0,0.481647
430.0,0.494319
435.0,0.509055
440.0,0.518361
445.0,0.533355
450.0,0.544125
455.0,0.560046
460.0,0.567883
465.0,0.58059
470.0,0.587223
475.0,0.596103
480.0,0.600636
485.0,0.607547
490.0,0.609549
495.0,0.615063
500.0,0.618697
505.0,0.624278
510.0,0.630725
515.0,0.639826
520.0,0.649934
525.0,0.660366
530.0,0.67024
535.0,0.680062
540.0,0.689725
545.0,0.698787
550.0,0.705183
555.0,0.711901
560.0,0.717525
565.0,0.722106
570.0,0.725423
575.0,0.727312
580.0,0.728938
585.0,0.72853
590.0,0.729402
595.0,0.727465
600.0,0.727162
605.0,0.725127
610.0,0.724771
615.0,0.723598
620.0,0.722806
625.0,0.722715
630.0,0.723412
635.0,0.724547
640.0,0.724179
645.0,0.725289
650.0,0.727586
655.0,0.729097
660.0,0.732387
665.0,0.732322
670.0,0.73737
675.0,0.738303
680.0,0.741927
685.0,0.743904
690.0,0.748095
695.0,0.748673
700.0,0.752921
705.0,0.75337
710.0,0.755346
715.0,0.758464
720.0,0.758916
725.0,0.759672
730.0,0.760642
735.0,0.761677
740.0,0.762861
745.0,0.764694
750.0,0.764002
755.0,0.765799
760.0,0.765272
765.0,0.768794
770.0,0.766519
775.0,0.770674
780.0,0.769137
785.0,0.772269
790.0,0.770019
795.0,0.774767
800.0,0.772825
805.0,0.7749
810.0,0.776424
815.0,0.776079
820.0,0.777556
825.0,0.776725
830.0,0.777495
835.0,0.777776
840.0,0.77813
845.0,0.778895
850.0,0.778631
855.0,0.779278
860.0,0.777158
865.0,0.778534
870.0,0.777867
875.0,0.777709
880.0,0.777944
885.0,0.776675
890.0,0.776535
895.0,0.777315
900.0,0.776934
905.0,0.776983
910.0,0.775625
915.0,0.774581
920.0,0.776258
925.0,0.776844
930.0,0.77678
935.0,0.775196
940.0,0.776904
945.0,0.774594
950.0,0.77603
955.0,0.774106
960.0,0.775259
965.0,0.774926
970.0,0.777371
975.0,0.775246
980.0,0.776506
985.0,0.775564
990.0,0.776397
995.0,0.777385
1000.0,0.77742
1005.0,0.776732
1010.0,0.77708
1015.0,0.776301
1020.0,0.777383
1025.0,0.776948
1030.0,0.778404
1035.0,0.777796
1040.0,0.778713
1045.0,0.777675
1050.0,0.778005
1055.0,0.778537
1060.0,0.779769
1065.0,0.778466
1070.0,0.779224
1075.0,0.780608
1080.0,0.779417
1085.0,0.779886
1090.0,0.779942
1095.0,0.780446
1100.0,0.779732
1105.0,0.780964
1110.0,0.780625
1115.0,0.781909
1120.0,0.779822
1125.0,0.783206
1130.0,0.781087
1135.0,0.783408
1140.0,0.781986
1145.0,0.782144
1150.0,0.779986
1155.0,0.78183
1160.0,0.779108
1165.0,0.782997
1170.0,0.782315
1175.0,0.783772
1180.0,0.784691
1185.0,0.786358
1190.0,0.787035
1195.0,0.787568
1200.0,0.789063
1205.0,0.787978
1210.0,0.790434
1215.0,0.791465
1220.0,0.792631
1225.0,0.793055
1230.0,0.794971
1235.0,0.792398
1240.0,0.794907
1245.0,0.795559
1250.0,0.797319
1255.0,0.796686
1260.0,0.797865
1265.0,0.798638
1270.0,0.799348
1275.0,0.801403
1280.0,0.800466
1285.0,0.800559
1290.0,0.801152
1295.0,0.801751
1300.0,0.800585
1305.0,0.802324
1310.0,0.802665
1315.0,0.802951
1320.0,0.804135
1325.0,0.802503
1330.0,0.803254
1335.0,0.799788
1340.0,0.803308
1345.0,0.798778
1350.0,0.798514
1355.0,0.797308
1360.0,0.796174
1365.0,0.797349
1370.0,0.794274
1375.0,0.793527
1380.0,0.789106
1385.0,0.786597
1390.0,0.778441
1395.0,0.768885
1400.0,0.75198
1405.0,0.738908
1410.0,0.721731
1415.0,0.713323
1420.0,0.70668
1425.0,0.709997
1430.0,0.711651
1435.0,0.72008
1440.0,0.725877
1445.0,0.733427
1450.0,0.739745
1455.0,0.743139
1460.0,0.743889
1465.0,0.745198
1470.0,0.747999
1475.0,0.752641
1480.0,0.759265
1485.0,0.763831
1490.0,0.770362
1495.0,0.77251
1500.0,0.778212
1505.0,0.780745
1510.0,0.784747
1515.0,0.785818
1520.0,0.791142
1525.0,0.789116
1530.0,0.793462
1535.0,0.792917
1540.0,0.796633
1545.0,0.797396
1550.0,0.799343
1555.0,0.798529
1560.0,0.801828
1565.0,0.800152
1570.0,0.803841
1575.0,0.803731
1580.0,0.805025
1585.0,0.805391
1590.0,0.807605
1595.0,0.809161
1600.0,0.809409
1605.0,0.808374
1610.0,0.809034
1615.0,0.808912
1620.0,0.812464
1625.0,0.811231
1630.0,0.811511
1635.0,0.813366
1640.0,0.812955
1645.0,0.814252
1650.0,0.812572
1655.0,0.81707
1660.0,0.813946
1665.0,0.817117
1670.0,0.816073
1675.0,0.818106
1680.0,0.817336
1685.0,0.819869
1690.0,0.817133
1695.0,0.818006
1700.0,0.817213
1705.0,0.816557
1710.0,0.817161
1715.0,0.816809
1720.0,0.815846
1725.0,0.814708
1730.0,0.814392
1735.0,0.812558
1740.0,0.812089
1745.0,0.810276
1750.0,0.810405
1755.0,0.809042
1760.0,0.808512
1765.0,0.80627
1770.0,0.805947
1775.0,0.804222
1780.0,0.804143
1785.0,0.802997
1790.0,0.802512
1795.0,0.800938
1800.0,0.800475
1805.0,0.800417
1810.0,0.800245
1815.0,0.798727
1820.0,0.798965
1825.0,0.798859
1830.0,0.798828
1835.0,0.797944
1840.0,0.796941
1845.0,0.796232
1850.0,0.794511
1855.0,0.790303
1860.0,0.785564
1865.0,0.779914
1870.0,0.770817
1875.0,0.756159
1880.0,0.736819
1885.0,0.707783
1890.0,0.668424
1895.0,0.618707
1900.0,0.570825
1905.0,0.529192
1910.0,0.506322
1915.0,0.500944
1920.0,0.507652
1925.0,0.522325
1930.0,0.538663
1935.0,0.555539
1940.0,0.569264
1945.0,0.580447
1950.0,0.589865
1955.0,0.597321
1960.0,0.604194
1965.0,0.610547
1970.0,0.618188
1975.0,0.624836
1980.0,0.633071
1985.0,0.641266
1990.0,0.650446
1995.0,0.658738
2000.0,0.667575
2005.0,0.676257
2010.0,0.684718
2015.0,0.691549
2020.0,0.698823
2025.0,0.704918
2030.0,0.710562
2035.0,0.71516
2040.0,0.718137
2045.0,0.721044
2050.0,0.724538
2055.0,0.726877
2060.0,0.730019
2065.0,0.731679
2070.0,0.733039
2075.0,0.735077
2080.0,0.736223
2085.0,0.738022
2090.0,0.740064
2095.0,0.741562
2100.0,0.742602
2105.0,0.744544
2110.0,0.745467
2115.0,0.746559
2120.0,0.748556
2125.0,0.749299
2130.0,0.751483
2135.0,0.752258
2140.0,0.753074
2145.0,0.754297
2150.0,0.754593
2155.0,0.755414
2160.0,0.756011
2165.0,0.754981
2170.0,0.754814
2175.0,0.755399
2180.0,0.755118
2185.0,0.75451
2190.0,0.75433
2195.0,0.753879
2200.0,0.753945
2205.0,0.752879
2210.0,0.752713
2215.0,0.752238
2220.0,0.751423
2225.0,0.751235
2230.0,0.749661
2235.0,0.748665
2240.0,0.747302
2245.0,0.744743
2250.0,0.742715
2255.0,0.741291
2260.0,0.739593
2265.0,0.739085
2270.0,0.737614
2275.0,0.735856
2280.0,0.733296
2285.0,0.729545
2290.0,0.725359
2295.0,0.720689
2300.0,0.717097
2305.0,0.714269
2310.0,0.710492
2315.0,0.707771
2320.0,0.704185
2325.0,0.700814
2330.0,0.697696
2335.0,0.692366
2340.0,0.687703
2345.0,0.681617
2350.0,0.675803
2355.0,0.669376
2360.0,0.663047
2365.0,0.657405
2370.0,0.650078
2375.0,0.644721
2380.0,0.638735
2385.0,0.63258
2390.0,0.626699
2395.0,0.621069
2400.0,0.615099
2405.0,0.609269
2410.0,0.603254
2415.0,0.597472
2420.0,0.590906
2425.0,0.58452
2430.0,0.578156
2435.0,0.572132
2440.0,0.565562
2445.0,0.560118
2450.0,0.554276
2455.0,0.547964
2460.0,0.54153
2465.0,0.536396
2470.0,0.530768
2475.0,0.525463
2480.0,0.527679
2485.0,0.514713
2490.0,0.509784
2495.0,0.505535
2500.0,0.500283
2505.0,0.496062
2510.0,0.491869
2515.0,0.487388
2520.0,0.483522
2525.0,0.480559
2530.0,0.476735
2535.0,0.47428
2540.0,0.472115
2545.0,0.469526
2550.0,0.468593
2555.0,0.468312
2560.0,0.466294
2565.0,0.464839
2570.0,0.462371
2575.0,0.46166
2580.0,0.460473
2581.74,0.459528
2583.03,0.459403
2584.31,0.458728
2585.6,0.458352
2586.89,0.457814
2588.19,0.456498
2589.48,0.456667
2590.77,0.456702
2592.07,0.456661
2593.36,0.455282
2594.66,0.452623
2595.96,0.452373
2597.26,0.455311
2598.56,0.455348
2599.87,0.453884
2601.17,0.452457
2602.48,0.4517
2603.78,0.451034
2605.09,0.449721
2606.4,0.449151
2607.71,0.450191
2609.03,0.449713
2610.34,0.448601
2611.66,0.448059
2612.97,0.446996
2614.29,0.446367
2615.61,0.445773
2616.93,0.443753
2618.25,0.443521
2619.57,0.444125
2620.9,0.442512
2622.22,0.442142
2623.55,0.442044
2624.88,0.441009
2626.21,0.439115
2627.54,0.437636
2628.87,0.438283
2630.21,0.437279
2631.54,0.435599
2632.88,0.436112
2634.21,0.435366
2635.55,0.433933
2636.89,0.43327
2638.24,0.432439
2639.58,0.431474
2640.92,0.430003
2642.27,0.428875
2643.62,0.428041
2644.97,0.426543
2646.32,0.424998
2647.67,0.42401
2649.02,0.422859
2650.38,0.421729
2651.73,0.420458
2653.09,0.418766
2654.45,0.41724
2655.81,0.41567
2657.17,0.414242
2658.53,0.412767
2659.89,0.410366
2661.26,0.408738
2662.63,0.407058
2664.0,0.404888
2665.36,0.401505
2666.74,0.399567
2668.11,0.397626
2669.48,0.39413
2670.86,0.388631
2672.23,0.385525
2673.61,0.382899
2674.99,0.378222
2676.37,0.374434
2677.76,0.37157
2679.14,0.369697
2680.52,0.367103
2681.91,0.364675
2683.3,0.361121
2684.69,0.357451
2686.08,0.3537
2687.47,0.349432
2688.87,0.345264
2690.26,0.341235
2691.66,0.336502
2693.06,0.331324
2694.46,0.325778
2695.86,0.320638
2697.26,0.315548
2698.66,0.309839
2700.07,0.304004
2701.48,0.297958
2702.89,0.291462
2704.3,0.285373
2705.71,0.27926
2707.12,0.273012
2708.53,0.266366
2709.95,0.260091
2711.37,0.254094
2712.79,0.24784
2714.21,0.241779
2715.63,0.235733
2717.05,0.229924
2718.48,0.224415
2719.9,0.218962
2721.33,0.213404
2722.76,0.208522
2724.19,0.203187
2725.62,0.197962
2727.06,0.193993
2728.49,0.189533
2729.93,0.184776
2731.37,0.180936
2732.81,0.177273
2734.25,0.173647
2735.69,0.170347
2737.14,0.167461
2738.58,0.164449
2740.03,0.161031
2741.48,0.158149
2742.93,0.15536
2744.38,0.152966
2745.83,0.150808
2747.29,0.14832
2748.75,0.146063
2750.2,0.143837
2751.66,0.141173
2753.13,0.138755
2754.59,0.136744
2756.05,0.134369
2757.52,0.13251
2758.99,0.131158
2760.46,0.130181
2761.93,0.129154
2763.4,0.127498
2764.87,0.126139
2766.35,0.125688
2767.82,0.124749
2769.3,0.123805
2770.78,0.122802
2772.26,0.121782
2773.75,0.12128
2775.23,0.120918
2776.72,0.120866
2778.21,0.120701
2779.7,0.120178
2781.19,0.119959
2782.68,0.120029
2784.18,0.119882
2785.67,0.119453
2787.17,0.119
2788.67,0.118862
2790.17,0.11892
2791.67,0.118437
2793.18,0.117961
2794.68,0.117975
2796.19,0.117968
2797.7,0.117618
2799.21,0.117167
2800.72,0.117109
2802.24,0.117155
2803.75,0.117278
2805.27,0.117093
2806.79,0.116846
2808.31,0.116813
2809.83,0.116328
2811.35,0.115887
2812.88,0.116243
2814.41,0.116902
2815.93,0.117266
2817.46,0.117288
2819.0,0.11736
2820.53,0.11768
2822.07,0.118045
2823.6,0.118042
2825.14,0.118155
2826.68,0.118274
2828.22,0.118129
2829.77,0.118026
2831.31,0.118372
2832.86,0.118561
2834.41,0.118683
2835.96,0.119123
2837.51,0.119564
2839.07,0.119704
2840.62,0.119927
2842.18,0.120167
2843.74,0.120485
2845.3,0.120914
2846.86,0.120977
2848.43,0.121
2849.99,0.120919
2851.56,0.121189
2853.13,0.121475
2854.7,0.121466
2856.27,0.121678
2857.85,0.12181
2859.42,0.121789
2861.0,0.12198
2862.58,0.122314
2864.16,0.122261
2865.75,0.122262
2867.33,0.122413
2868.92,0.122481
2870.51,0.122698
2872.1,0.122806
2873.69,0.123055
2875.28,0.123166
2876.88,0.123012
2878.48,0.123135
2880.07,0.123158
2881.68,0.123141
2883.28,0.123265
2884.88,0.12324
2886.49,0.123168
2888.1,0.1234
2889.71,0.123513
2891.32,0.123452
2892.93,0.12339
2894.55,0.123259
2896.16,0.123346
2897.78,0.123578
2899.4,0.123653
2901.03,0.123354
2902.65,0.123303
2904.28,0.123722
2905.91,0.123828
2907.54,0.12374
2909.17,0.123665
2910.8,0.123956
2912.44,0.124029
2914.07,0.123901
2915.71,0.123798
2917.35,0.123959
2918.99,0.124029
2920.64,0.124127
2922.29,0.124403
2923.93,0.124516
2925.58,0.125024
2927.24,0.125278
2928.89,0.125302
2930.55,0.125447
2932.2,0.125765
2933.86,0.125868
2935.52,0.126049
2937.19,0.126399
2938.85,0.126626
2940.52,0.126917
2942.19,0.127289
2943.86,0.127819
2945.53,0.128422
2947.21,0.128395
2948.88,0.12852
2950.56,0.129055
2952.24,0.129569
2953.92,0.129955
2955.61,0.130129
2957.29,0.130302
2958.98,0.130799
2960.67,0.131414
2962.36,0.13193
2964.06,0.132342
2965.75,0.133061
2967.45,0.133598
2969.15,0.13408
2970.85,0.134775
2972.55,0.135011
2974.26,0.135211
2975.97,0.135917
2977.68,0.136578
2979.39,0.136961
2981.1,0.137434
2982.82,0.137981
2984.53,0.138705
2986.25,0.139373
2987.97,0.139864
2989.7,0.140315
2991.42,0.140877
2993.15,0.141475
2994.88,0.141954
2996.61,0.142278
2998.34,0.14261
3000.08,0.143151
3001.82,0.144013
3003.55,0.144571
3005.3,0.14484
3007.04,0.145311
3008.78,0.14588
3010.53,0.14614
3012.28,0.146391
3014.03,0.146991
3015.79,0.147411
3017.54,0.147748
3019.3,0.148008
3021.06,0.148303
3022.82,0.148816
3024.58,0.149293
3026.35,0.149503
3028.12,0.149653
3029.89,0.149961
3031.66,0.150487
3033.43,0.150719
3035.21,0.150959
3036.99,0.150866
3038.77,0.151162
3040.55,0.151627
3042.33,0.151755
3044.12,0.151833
3045.91,0.151963
3047.7,0.152173
3049.49,0.152177
3051.29,0.152192
3053.08,0.152261
3054.88,0.152503
3056.68,0.152498
3058.49,0.152455
3060.29,0.152438
3062.1,0.152818
3063.91,0.153255
3065.72,0.153298
3067.54,0.15333
3069.35,0.153715
3071.17,0.153906
3072.99,0.153998
3074.81,0.154019
3076.64,0.154304
3078.47,0.154923
3080.29,0.155533
3082.13,0.155856
3083.96,0.15597
3085.79,0.156204
3087.63,0.156717
3089.47,0.157212
3091.31,0.157641
3093.16,0.158166
3095.01,0.158655
3096.85,0.15916
3098.71,0.159933
3100.56,0.160599
3102.41,0.161389
3104.27,0.162026
3106.13,0.162602
3107.99,0.163289
3109.86,0.164042
3111.73,0.164767
3113.59,0.165877
3115.47,0.166834
3117.34,0.167583
3119.21,0.168348
3121.09,0.169322
3122.97,0.170238
3124.86,0.17101
3126.74,0.171885
3128.63,0.172796
3130.52,0.173842
3132.41,0.174735
3134.3,0.175697
3136.2,0.176812
3138.1,0.177821
3140.0,0.178882
3141.9,0.179829
3143.81,0.180591
3145.71,0.181384
3147.62,0.18236
3149.54,0.183549
3151.45,0.184646
3153.37,0.185634
3155.29,0.186486
3157.21,0.187293
3159.13,0.188378
3161.06,0.189518
3162.99,0.190451
3164.92,0.191566
3166.85,0.19267
3168.79,0.193784
3170.72,0.194849
3172.67,0.195924
3174.61,0.197162
3176.55,0.198112
3178.5,0.19888
3180.45,0.199857
3182.4,0.20099
3184.36,0.202169
3186.32,0.203333
3188.27,0.204192
3190.24,0.205322
3192.2,0.206422
3194.17,0.20737
3196.14,0.208563
3198.11,0.209639
3200.08,0.210695
3202.06,0.211818
3204.04,0.213142
3206.02,0.214243
3208.0,0.215306
3209.99,0.216654
3211.98,0.217829
3213.97,0.21879
3215.96,0.219697
3217.96,0.220688
3219.96,0.221706
3221.96,0.222802
3223.96,0.224063
3225.97,0.225336
3227.98,0.226622
3229.99,0.227726
3232.0,0.228634
3234.02,0.229833
3236.04,0.23112
3238.06,0.232193
3240.08,0.233346
3242.11,0.234547
3244.14,0.235791
3246.17,0.236946
3248.2,0.237931
3250.24,0.239212
3252.28,0.240352
3254.32,0.241394
3256.37,0.242602
3258.41,0.243839
3260.46,0.244889
3262.51,0.246127
3264.57,0.247358
3266.63,0.248352
3268.69,0.249606
3270.75,0.251124
3272.81,0.252378
3274.88,0.253401
3276.95,0.254589
3279.02,0.255636
3281.1,0.256669
3283.18,0.258051
3285.26,0.259191
3287.34,0.260159
3289.43,0.261441
3291.51,0.262946
3293.61,0.263919
3295.7,0.264879
3297.8,0.265955
3299.9,0.267133
3302.0,0.268387
3304.1,0.269665
3306.21,0.270808
3308.32,0.272013
3310.43,0.273166
3312.55,0.2742
3314.66,0.275304
3316.79,0.276553
3318.91,0.27774
3321.03,0.278978
3323.16,0.280114
3325.29,0.281175
3327.43,0.282279
3329.57,0.283331
3331.71,0.284261
3333.85,0.285438
3335.99,0.286503
3338.14,0.287323
3340.29,0.28829
3342.45,0.289536
3344.6,0.290506
3346.76,0.291181
3348.92,0.291911
3351.09,0.292881
3353.26,0.293808
3355.43,0.294518
3357.6,0.29519
3359.78,0.296084
3361.96,0.29697
3364.14,0.297642
3366.32,0.298293
3368.51,0.299289
3370.7,0.300345
3372.89,0.30116
3375.09,0.30191
3377.29,0.302978
3379.49,0.304229
3381.69,0.305408
3383.9,0.306543
3386.11,0.307764
3388.32,0.308643
3390.54,0.309449
3392.76,0.310591
3394.98,0.311688
3397.21,0.312422
3399.43,0.313173
3401.66,0.31397
3403.9,0.314287
3406.13,0.314797
3408.37,0.31564
3410.61,0.316467
3412.86,0.317273
3415.11,0.318099
3417.36,0.318962
3419.61,0.320175
3421.87,0.321583
3424.13,0.323052
3426.39,0.324612
3428.66,0.326328
3430.93,0.328103
3433.2,0.329759
3435.48,0.33129
3437.76,0.332556
3440.04,0.333841
3442.32,0.335152
3444.61,0.336512
3446.9,0.337875
3449.19,0.339167
3451.49,0.340505
3453.79,0.341847
3456.09,0.343172
3458.4,0.344466
3460.7,0.345748
3463.02,0.346909
3465.33,0.347986
3467.65,0.349165
3469.97,0.35018
3472.29,0.350963
3474.62,0.35169
3476.95,0.352502
3479.29,0.353329
3481.62,0.354272
3483.96,0.355248
3486.3,0.356191
3488.65,0.357124
3491.0,0.357985
3493.35,0.358741
3495.71,0.359539
3498.07,0.360554
3500.43,0.361645
3502.79,0.362775
3505.16,0.364043
3507.53,0.365552
3509.91,0.367204
3512.29,0.368713
3514.67,0.370129
3517.05,0.371682
3519.44,0.373319
3521.83,0.3747
3524.23,0.376286
3526.62,0.377957
3529.02,0.379334
3531.43,0.380508
3533.83,0.381856
3536.24,0.383247
3538.66,0.384575
3541.08,0.385867
3543.5,0.387121
3545.92,0.388307
3548.35,0.38951
3550.78,0.390786
3553.21,0.391927
3555.65,0.392936
3558.09,0.39405
3560.53,0.39527
3562.98,0.396392
3565.43,0.397471
3567.88,0.398544
3570.34,0.399514
3572.8,0.400541
3575.27,0.401648
3577.73,0.402506
3580.2,0.40346
3582.68,0.404478
3585.16,0.405382
3587.64,0.406351
3590.12,0.407403
3592.61,0.408473
3595.1,0.409336
3597.6,0.410397
3600.09,0.411251
3602.6,0.411995
3605.1,0.412851
3607.61,0.413741
3610.12,0.414611
3612.64,0.415492
3615.16,0.416466
3617.68,0.417399
3620.21,0.41832
3622.74,0.419253
3625.27,0.419928
3627.81,0.420678
3630.35,0.421565
3632.89,0.422404
3635.44,0.42333
3637.99,0.424132
3640.54,0.424943
3643.1,0.425852
3645.66,0.426614
3648.23,0.427351
3650.8,0.427969
3653.37,0.428689
3655.95,0.429377
3658.53,0.43008
3661.11,0.430908
3663.7,0.431708
3666.29,0.432349
3668.89,0.433087
3671.48,0.433904
3674.09,0.43461
3676.69,0.435361
3679.3,0.436258
3681.91,0.43694
3684.53,0.437624
3687.15,0.438463
3689.78,0.439208
3692.4,0.439842
3695.04,0.440501
3697.67,0.441197
3700.31,0.441793
3702.95,0.442511
3705.6,0.443334
3708.25,0.443826
3710.91,0.444431
3713.56,0.445147
3716.23,0.44573
3718.89,0.446234
3721.56,0.447008
3724.23,0.44771
3726.91,0.448237
3729.59,0.448903
3732.28,0.449482
3734.97,0.44993
3737.66,0.450477
3740.36,0.451099
3743.06,0.451722
3745.76,0.452296
3748.47,0.452787
3751.18,0.45331
3753.9,0.453869
3756.62,0.454313
3759.34,0.454815
3762.07,0.455189
3764.8,0.455625
3767.54,0.456204
3770.28,0.456912
3773.02,0.457421
3775.77,0.457809
3778.52,0.458297
3781.28,0.458861
3784.04,0.459253
3786.8,0.459647
3789.57,0.459972
3792.34,0.460502
3795.12,0.460972
3797.9,0.461296
3800.69,0.461621
3803.47,0.462103
3806.27,0.462525
3809.06,0.462926
3811.86,0.463147
3814.67,0.463552
3817.48,0.463964
3820.29,0.464384
3823.11,0.464519
3825.93,0.464598
3828.76,0.464977
3831.59,0.465486
3834.42,0.46557
3837.26,0.465751
3840.1,0.466072
3842.95,0.466294
3845.8,0.466417
3848.65,0.466754
3851.51,0.467041
3854.38,0.467113
3857.24,0.467294
3860.12,0.467533
3862.99,0.467695
3865.87,0.468027
3868.76,0.468213
3871.65,0.46809
3874.54,0.468164
3877.44,0.468372
3880.34,0.468497
3883.25,0.468611
3886.16,0.468552
3889.07,0.468599
3891.99,0.468741
3894.92,0.468885
3897.85,0.468905
3900.78,0.468984
3903.72,0.468977
3906.66,0.468991
3909.6,0.468994
3912.55,0.469121
3915.51,0.469085
3918.47,0.469124
3921.43,0.469033
3924.4,0.468948
3927.38,0.468864
3930.35,0.46888
3933.33,0.46891
3936.32,0.468924
3939.31,0.468881
3942.31,0.468741
3945.31,0.46854
3948.31,0.468531
3951.32,0.468517
3954.34,0.468523
3957.35,0.468437
3960.38,0.468254
3963.41,0.46817
3966.44,0.468104
3969.48,0.46787
3972.52,0.467733
3975.56,0.467543
3978.61,0.467308
3981.67,0.467147
3984.73,0.46707
3987.8,0.466858
3990.87,0.466682
3993.94,0.466385
3997.02,0.466141
4000.1,0.466016
4003.19,0.465783
4006.29,0.465546
4009.39,0.465312
4012.49,0.465151
4015.6,0.464962
4018.71,0.464599
4021.83,0.464278
4024.95,0.464023
4028.08,0.463707
4031.21,0.46348
4034.35,0.46322
4037.49,0.462933
4040.64,0.462516
4043.79,0.462048
4046.94,0.461735
4050.11,0.461477
4053.27,0.461213
4056.44,0.460698
4059.62,0.460124
4062.8,0.459796
4065.99,0.45957
4069.18,0.459287
4072.38,0.458887
4075.58,0.458318
4078.78,0.457899
4082.0,0.457582
4085.21,0.457183
4088.43,0.456635
4091.66,0.456227
4094.89,0.455813
4098.13,0.455468
4101.37,0.455078
4104.62,0.454619
4107.87,0.454034
4111.13,0.453482
4114.39,0.453026
4117.66,0.452676
4120.93,0.452199
4124.21,0.451587
4127.5,0.45109
4130.79,0.450689
4134.08,0.450326
4137.38,0.449827
4140.68,0.449293
4143.99,0.448792
4147.31,0.448264
4150.63,0.44777
4153.95,0.44728
4157.29,0.446805
4160.62,0.446219
4163.96,0.445672
4167.31,0.445091
4170.66,0.444751
4174.02,0.444402
4177.39,0.44392
4180.75,0.443271
4184.13,0.442586
4187.51,0.442013
4190.89,0.441561
4194.28,0.440985
4197.68,0.440419
4201.08,0.439864
4204.49,0.439343
4207.9,0.438927
4211.32,0.438528
4214.74,0.437935
4218.17,0.437526
4221.61,0.43722
4225.05,0.436954
4228.5,0.436622
4231.95,0.436381
4235.4,0.436007
4238.87,0.435447
4242.34,0.4349
4245.81,0.434423
4249.29,0.433759
4252.78,0.432991
4256.27,0.431905
4259.77,0.430633
4263.27,0.429468
4266.78,0.42909
4270.29,0.428846
4273.81,0.428485
4277.34,0.428224
4280.87,0.427822
4284.41,0.42733
4287.95,0.426821
4291.5,0.426283
4295.06,0.425767
4298.62,0.425116
4302.19,0.424337
4305.76,0.423778
4309.34,0.42338
4312.92,0.42283
4316.52,0.42232
4320.11,0.421755
4323.72,0.421172
4327.32,0.420516
4330.94,0.419957
4334.56,0.419356
4338.19,0.418795
4341.82,0.418235
4345.46,0.417869
4349.11,0.4173
4352.76,0.416772
4356.42,0.416219
4360.08,0.415667
4363.75,0.415299
4367.43,0.414934
4371.11,0.414438
4374.8,0.414059
4378.49,0.413478
4382.19,0.412893
4385.9,0.4125
4389.61,0.412177
4393.33,0.411617
4397.06,0.411057
4400.79,0.410585
4404.53,0.410178
4408.28,0.40972
4412.03,0.409295
4415.79,0.408741
4419.55,0.408263
4423.32,0.40782
4427.1,0.407419
4430.88,0.407109
4434.68,0.4066
4438.47,0.406106
4442.28,0.405689
4446.08,0.40525
4449.9,0.40488
4453.72,0.404485
4457.55,0.403993
4461.39,0.403451
4465.23,0.403032
4469.08,0.402713
4472.94,0.402301
4476.8,0.401758
4480.67,0.401317
4484.55,0.400972
4488.43,0.40062
4492.32,0.400165
4496.21,0.399817
4500.12,0.399468
4504.03,0.399102
4507.94,0.398699
4511.87,0.398243
4515.8,0.397802
4519.73,0.397411
4523.68,0.396978
4527.63,0.396625
4531.59,0.396286
4535.55,0.395806
4539.52,0.395348
4543.5,0.395095
4547.49,0.394841
4551.48,0.394485
4555.48,0.394154
4559.49,0.393935
4563.5,0.393561
4567.52,0.393173
4571.55,0.392783
4575.58,0.392442
4579.63,0.392107
4583.67,0.391798
4587.73,0.391493
4591.79,0.391258
4595.86,0.390899
4599.94,0.390624
4604.03,0.390366
4608.12,0.390113
4612.22,0.389814
4616.33,0.389631
4620.44,0.389503
4624.56,0.389356
4628.69,0.38906
4632.83,0.388722
4636.97,0.38846
4641.12,0.388233
4645.28,0.388126
4649.45,0.388006
4653.62,0.38776
4657.8,0.38757
4661.99,0.387322
4666.19,0.387174
4670.39,0.386924
4674.6,0.38675
4678.82,0.386615
4683.05,0.386348
4687.28,0.386044
4691.52,0.385868
4695.77,0.385672
4700.03,0.385417
4704.3,0.385198
4708.57,0.384963
4712.85,0.384737
4717.14,0.384486
4721.43,0.384189
4725.74,0.383919
4730.05,0.383567
4734.37,0.38329
4738.7,0.382933
4743.03,0.382574
4747.38,0.382266
4751.73,0.381993
4756.09,0.38162
4760.45,0.381245
4764.83,0.380863
4769.21,0.380505
4773.6,0.380059
4778.0,0.379599
4782.41,0.379081
4786.83,0.378541
4791.25,0.378034
4795.68,0.377531
4800.13,0.377128
4804.57,0.376684
4809.03,0.376106
4813.5,0.375602
4817.97,0.375139
4822.45,0.374705
4826.94,0.374152
4831.44,0.373656
4835.95,0.373131
4840.46,0.372617
4844.99,0.372134
4849.52,0.371659
4854.06,0.371042
4858.61,0.370495
4863.17,0.369934
4867.73,0.369335
4872.31,0.368703
4876.89,0.368149
4881.48,0.367554
4886.08,0.366831
4890.69,0.366052
4895.31,0.36523
4899.94,0.364405
4904.57,0.363616
4909.22,0.3627
4913.87,0.361688
4918.53,0.360711
4923.21,0.35973
4927.88,0.358554
4932.57,0.357557
4937.27,0.356588
4941.98,0.355427
4946.69,0.354178
4951.42,0.352876
4956.15,0.351528
4960.9,0.350202
4965.65,0.348876
4970.41,0.347554
4975.18,0.346086
4979.96,0.344591
4984.75,0.343019
4989.54,0.341366
4994.35,0.339781
4999.17,0.338243
5003.99,0.33669
5008.83,0.335212
5013.67,0.333641
5018.52,0.332126
5023.39,0.330666
5028.26,0.329212
5033.14,0.327657
5038.03,0.326179
5042.93,0.324739
5047.84,0.323358
5052.76,0.321805
5057.69,0.320276
5062.63,0.318931
5067.58,0.317649
5072.54,0.316325
5077.51,0.315074
5082.49,0.313767
5087.47,0.312593
5092.47,0.311404
5097.48,0.310175
5102.5,0.308986
5107.52,0.307802
5112.56,0.306736
5117.61,0.305736
5122.66,0.304704
5127.73,0.303763
5132.81,0.302766
5137.89,0.301931
5142.99,0.301003
5148.1,0.300072
5153.22,0.299274
5158.34,0.298604
5163.48,0.297794
5168.63,0.297078
5173.79,0.296388
5178.96,0.295716
5184.13,0.295096
5189.32,0.294524
5194.52,0.293948
5199.73,0.293302
5204.96,0.292663
5210.19,0.292224
5215.43,0.291644
5220.68,0.291171
5225.94,0.290687
5231.22,0.29013
5236.5,0.289471
5241.79,0.288904
5247.1,0.288422
5252.42,0.28781
5257.74,0.287121
5263.08,0.286575
5268.43,0.285976
5273.79,0.285349
5279.16,0.284616
5284.54,0.284015
5289.93,0.2834
5295.34,0.282605
5300.75,0.281959
5306.18,0.281336
5311.61,0.280529
5317.06,0.279723
5322.52,0.278995
5327.99,0.278103
5333.47,0.276989
5338.96,0.276004
5344.47,0.27509
5349.98,0.274019
5355.51,0.272959
5361.05,0.272057
5366.6,0.270918
5372.16,0.269675
5377.73,0.268488
5383.32,0.267411
5388.91,0.266278
5394.52,0.265053
5400.14,0.263879
5405.77,0.262733
5411.41,0.261395
5417.07,0.260043
5422.74,0.258584
5428.41,0.257332
5434.1,0.25612
5439.81,0.254738
5445.52,0.253319
5451.25,0.251859
5456.98,0.25041
5462.73,0.24908
5468.5,0.247739
5474.27,0.246508
5480.06,0.2452
5485.86,0.244024
5491.67,0.242949
5497.49,0.241734
5503.33,0.240502
5509.18,0.23945
5515.04,0.23846
5520.91,0.237413
5526.8,0.236412
5532.69,0.235578
5538.61,0.234742
5544.53,0.233883
5550.47,0.23301
5556.41,0.232196
5562.38,0.231569
5568.35,0.230889
5574.34,0.230197
5580.34,0.229623
5586.35,0.229197
5592.38,0.228893
5598.42,0.228393
5604.47,0.227851
5610.54,0.227504
5616.61,0.227115
5622.71,0.226795
5628.81,0.226441
5634.93,0.225985
5641.06,0.225554
5647.21,0.225228
5653.36,0.224994
5659.54,0.224464
5665.72,0.223994
5671.92,0.223492
5678.13,0.222964
5684.36,0.222479
5690.6,0.221915
5696.85,0.221189
5703.12,0.220521
5709.4,0.219506
5715.69,0.218595
5722.0,0.217706
5728.33,0.216536
5734.66,0.215253
5741.01,0.213867
5747.38,0.212329
5753.76,0.210822
5760.15,0.20912
5766.56,0.206977
5772.98,0.204946
5779.41,0.203032
5785.86,0.200609
5792.33,0.198027
5798.81,0.19525
5805.3,0.192342
5811.81,0.189328
5818.33,0.186045
5824.87,0.182512
5831.42,0.179067
5837.99,0.175361
5844.57,0.171327
5851.17,0.167096
5857.78,0.162805
5864.41,0.158455
5871.05,0.153892
5877.7,0.14912
5884.38,0.144358
5891.06,0.139715
5897.76,0.13504
5904.48,0.130234
5911.21,0.125581
5917.96,0.121065
5924.73,0.116618
5931.5,0.112094
5938.3,0.107555
5945.11,0.103125
5951.93,0.099027
5958.78,0.095022
5965.63,0.091088
5972.51,0.087264
5979.39,0.083703
5986.3,0.080288
5993.22,0.076966
6000.16,0.073931
6007.11,0.071158
6014.08,0.068426
6021.06,0.065928
6028.06,0.063652
6035.08,0.061563
6042.12,0.059622
6049.17,0.057888
6056.23,0.056336
6063.32,0.055012
6070.42,0.053789
6077.53,0.052823
6084.67,0.052085
6091.82,0.051335
6098.98,0.050739
6106.17,0.050599
6113.37,0.050761
6120.58,0.051368
6127.82,0.052412
6135.07,0.053796
6142.34,0.05579
6149.63,0.058501
6156.93,0.061921
6164.25,0.065832
6171.59,0.07049
6178.95,0.075392
6186.32,0.080335
6193.71,0.085639
6201.12,0.090858
6208.54,0.095693
6215.99,0.100377
6223.45,0.104862
6230.93,0.109131
6238.43,0.113032
6245.95,0.116767
6253.48,0.120212
6261.03,0.123481
6268.6,0.126502
6276.19,0.129364
6283.8,0.131947
6291.43,0.134316
6299.07,0.136525
6306.73,0.138652
6314.42,0.140587
6322.12,0.142476
6329.84,0.14416
6337.57,0.145619
6345.33,0.146776
6353.11,0.148283
6360.9,0.149626
6368.72,0.150477
6376.55,0.151242
6384.4,0.151994
6392.27,0.152633
6400.17,0.153248
6408.08,0.153607
6416.01,0.153739
6423.96,0.154224
6431.93,0.15469
6439.92,0.154762
6447.93,0.154882
6455.96,0.154919
6464.01,0.154813
6472.08,0.154567
6480.17,0.154306
6488.28,0.15392
6496.41,0.153556
6504.56,0.153315
6512.73,0.152941
6520.92,0.152185
6529.14,0.151582
6537.37,0.150996
6545.63,0.150272
6553.9,0.149539
6562.2,0.148659
6570.51,0.147673
6578.85,0.146842
6587.21,0.145967
6595.59,0.144877
6603.99,0.143951
6612.42,0.1431
6620.86,0.14227
6629.33,0.141496
6637.82,0.140677
6646.33,0.139772
6654.86,0.139076
6663.41,0.138263
6671.99,0.137325
6680.59,0.136438
6689.21,0.135618
6697.85,0.13483
6706.51,0.133909
6715.2,0.132956
6723.91,0.132038
6732.64,0.130994
6741.4,0.129847
6750.18,0.12873
6758.98,0.127575
6767.8,0.126237
6776.65,0.124754
6785.52,0.123267
6794.41,0.121712
6803.33,0.120161
6812.27,0.118611
6821.23,0.116976
6830.22,0.1156
6839.23,0.114518
6848.26,0.113428
6857.32,0.112283
6866.4,0.111104
6875.51,0.109702
6884.64,0.108285
6893.8,0.107101
6902.98,0.106076
6912.18,0.105038
6921.41,0.104066
6930.66,0.103032
6939.94,0.101913
6949.24,0.100664
6958.57,0.099391
6967.92,0.098087
6977.3,0.096775
6986.7,0.095422
6996.13,0.094185
7005.59,0.092999
7015.07,0.091837
7024.57,0.090711
7034.1,0.089634
7043.66,0.088592
7053.25,0.087586
7062.85,0.086555
7072.49,0.085554
7082.15,0.08445
7091.84,0.083338
7101.55,0.082246
7111.3,0.081186
7121.06,0.080074
7130.86,0.07882
7140.68,0.077625
7150.53,0.076405
7160.41,0.075127
7170.31,0.073888
7180.24,0.072609
7190.2,0.071307
7200.19,0.069883
7210.2,0.068419
7220.24,0.067055
7230.31,0.065741
7240.41,0.064294
7250.54,0.062908
7260.69,0.061613
7270.88,0.060202
7281.09,0.058642
7291.33,0.057206
7301.6,0.055798
7311.9,0.054411
7322.22,0.05297
7332.58,0.051542
7342.97,0.050216
7353.38,0.048799
7363.83,0.047214
7374.3,0.045795
7384.81,0.044389
7395.34,0.042937
7405.91,0.041556
7416.5,0.040227
7427.13,0.038856
7437.78,0.037407
7448.47,0.035981
7459.19,0.034689
7469.94,0.033423
7480.71,0.032129
7491.52,0.030733
7502.37,0.029474
7513.24,0.028327
7524.14,0.027225
7535.08,0.025961
7546.05,0.0247
7557.05,0.023526
7568.08,0.02243
7579.15,0.021255
7590.24,0.020182
7601.37,0.019184
7612.53,0.018188
7623.73,0.0172
7634.96,0.016395
7646.22,0.01559
7657.51,0.014779
7668.84,0.014059
7680.2,0.013301
7691.59,0.012621
7703.02,0.012081
7714.49,0.011493
7725.98,0.01103
7737.52,0.010621
7749.08,0.010228
7760.68,0.009781
7772.32,0.009461
7783.99,0.009205
7795.69,0.009027
7807.43,0.008868
7819.21,0.008808
7831.02,0.008949
7842.87,0.009097
7854.75,0.009213
7866.67,0.009519
7878.62,0.00988
7890.62,0.010273
7902.64,0.010652
7914.71,0.011144
7926.81,0.011819
7938.95,0.012639
7951.13,0.013417
7963.34,0.014167
7975.59,0.015052
7987.88,0.016047
8000.21,0.017097
8012.57,0.018242
8024.98,0.019322
8037.42,0.020347
8049.9,0.021455
8062.42,0.022598
8074.98,0.023705
8087.57,0.024751
8100.21,0.025779
8112.89,0.026841
8125.6,0.027914
8138.36,0.02899
8151.16,0.029985
8163.99,0.031148
8176.87,0.032288
8189.79,0.033344
8202.75,0.034408
8215.75,0.035406
8228.79,0.036338
8241.87,0.037255
8254.99,0.038154
8268.16,0.03895
8281.37,0.039625
8294.62,0.040244
8307.91,0.040714
8321.24,0.041033
8334.62,0.041331
8348.04,0.041493
8361.51,0.041488
8375.02,0.041611
8388.57,0.041626
8402.16,0.041293
8415.8,0.040907
8429.49,0.040683
8443.22,0.040326
8456.99,0.039781
8470.81,0.03934
8484.67,0.039044
8498.58,0.038639
8512.54,0.038224
8526.54,0.037981
8540.58,0.03777
8554.68,0.037436
8568.82,0.037098
8583.0,0.036838
8597.24,0.036621
8611.52,0.036432
8625.85,0.036355
8640.23,0.036208
8654.65,0.036245
8669.12,0.036281
8683.64,0.036151
8698.21,0.036092
8712.83,0.036148
8727.5,0.036196
8742.22,0.036264
8756.99,0.036404
8771.8,0.036505
8786.67,0.036666
8801.59,0.037079
8816.56,0.037359
8831.58,0.037583
8846.65,0.03791
8861.77,0.038262
8876.94,0.038622
8892.17,0.039056
8907.45,0.039471
8922.78,0.039979
8938.16,0.0405
8953.6,0.041049
8969.09,0.041749
8984.64,0.042357
9000.23,0.042757
9015.89,0.043301
9031.59,0.043996
9047.36,0.044661
9063.17,0.045242
9079.05,0.045932
9094.97,0.04666
9110.96,0.047231
9127.0,0.047812
9143.1,0.048452
9159.25,0.049083
9175.46,0.049667
9191.73,0.050187
9208.06,0.050635
9224.44,0.051029
9240.88,0.051374
9257.38,0.051641
9273.94,0.052123
9290.56,0.052425
9307.24,0.052439
9323.98,0.052391
9340.78,0.052401
9357.64,0.052336
9374.57,0.052097
9391.55,0.052003
9408.59,0.051889
9425.7,0.051597
9442.87,0.051219
9460.1,0.051045
9477.4,0.050973
9494.75,0.050664
9512.17,0.050392
9529.66,0.05013
9547.21,0.049796
9564.83,0.049548
9582.5,0.049232
9600.25,0.048907
9618.06,0.048658
9635.94,0.048391
9653.88,0.04814
9671.89,0.047911
9689.97,0.047605
9708.12,0.047398
9726.33,0.047202
9744.62,0.046843
9762.97,0.046711
9781.39,0.046718
9799.88,0.046438
9818.44,0.046164
9837.07,0.046299
9855.77,0.046322
9874.54,0.046281
9893.39,0.046265
9912.3,0.04625
9931.29,0.046446
9950.36,0.046629
9969.49,0.046792
9988.7,0.047043
10007.98,0.047615
10027.34,0.048198
10046.77,0.04868
10066.28,0.049095
10085.87,0.049727
10105.53,0.050554
10125.26,0.051368
10145.08,0.052169
10164.97,0.0529
10184.94,0.053594
10204.99,0.054503
10225.12,0.05545
10245.33,0.056273
10265.61,0.056974
10285.98,0.057909
10306.43,0.058812
10326.96,0.059744
10347.57,0.060646
10368.27,0.06163
10389.05,0.062479
10409.91,0.063209
10430.86,0.064115
10451.88,0.065107
10473.0,0.06602
10494.2,0.066878
10515.49,0.067776
10536.86,0.068747
10558.32,0.069676
10579.87,0.070628
10601.5,0.071577
10623.23,0.072791
10645.04,0.074165
10666.94,0.075505
10688.94,0.076607
10711.02,0.077933
10733.2,0.079329
10755.47,0.080865
10777.83,0.082473
10800.28,0.084093
10822.83,0.085764
10845.47,0.087483
10868.21,0.089176
10891.04,0.090699
10913.97,0.092363
10936.99,0.094215
10960.12,0.095975
10983.34,0.0976
11006.66,0.099044
11030.07,0.100275
11053.59,0.101694
11077.21,0.103063
11100.93,0.104104
11124.75,0.10511
11148.68,0.105936
11172.71,0.106299
11196.84,0.106501
11221.07,0.106909
11245.41,0.107118
11269.86,0.106865
11294.41,0.10652
11319.07,0.10593
11343.84,0.105146
11368.72,0.104353
11393.7,0.103413
11418.8,0.10232
11444.01,0.101295
11469.33,0.100464
11494.76,0.099601
11520.3,0.098887
11545.96,0.098267
11571.73,0.097597
11597.62,0.097156
11623.62,0.096896
11649.74,0.096389
11675.98,0.096013
11702.34,0.095675
11728.81,0.094962
11755.41,0.094067
11782.13,0.093177
11808.96,0.091996
11835.92,0.090771
11863.01,0.089535
11890.22,0.087939
11917.55,0.086295
11945.01,0.084696
11972.6,0.083064
12000.31,0.081137
12028.16,0.078772
12056.13,0.076429
12084.23,0.073914
12112.46,0.070905
12140.83,0.067853
12169.33,0.064894
12197.96,0.06144
12226.73,0.057932
12255.64,0.05467
12284.68,0.051323
12313.86,0.047858
12343.18,0.044382
12372.64,0.041107
12402.24,0.03804
12431.98,0.035085
12461.86,0.032283
12491.89,0.030166
12522.07,0.028532
12552.38,0.02721
12582.85,0.02627
12613.47,0.02573
12644.23,0.025539
12675.15,0.025631
12706.21,0.025838
12737.43,0.025966
12768.81,0.026241
12800.33,0.026719
12832.02,0.027263
12863.86,0.027758
12895.86,0.028096
12928.02,0.028484
12960.34,0.028826
12992.82,0.029028
13025.46,0.029252
13058.27,0.029549
13091.25,0.029805
13124.39,0.029769
13157.7,0.029703
13191.18,0.029665
13224.83,0.029424
13258.66,0.029166
13292.65,0.028903
13326.83,0.028472
13361.17,0.028158
13395.7,0.02775
13430.4,0.027411
13465.29,0.027201
13500.35,0.026866
13535.6,0.026624
13571.03,0.026502
13606.65,0.026304
13642.46,0.025942
13678.46,0.025609
13714.64,0.02559
13751.02,0.025737
13787.59,0.025901
13824.36,0.026029
13861.32,0.025885
13898.49,0.025742
13935.85,0.025709
13973.41,0.025692
14011.17,0.025725
14049.15,0.02541
14087.32,0.025188
14125.71,0.025233
14164.3,0.024918
14203.11,0.02457
14242.13,0.024259
14281.36,0.02398
14320.81,0.023712
14360.49,0.023377
14400.38,0.022888
14440.49,0.022477
14480.82,0.022244
14521.39,0.021747
14562.18,0.021149
14603.2,0.020945
14644.45,0.020542
14685.93,0.019931
14727.66,0.019529
14769.62,0.01911
14811.81,0.018731
14854.25,0.01868
14896.94,0.018456
14939.87,0.018138
14983.05,0.017848
15026.48,0.017923
15070.16,0.017827
15114.1,0.017615
15158.29,0.017636
15202.74,0.017537
15247.46,0.017564
15292.43,0.017901
15337.68,0.018025
15383.19,0.018266
15428.97,0.018716
15475.03,0.018835
15521.36,0.019051
15567.97,0.019558
15614.87,0.019941
15662.04,0.020322
15709.5,0.020742
15757.25,0.020961
15805.29,0.020968
15853.62,0.021046
15902.26,0.021121
15951.19,0.021436
16000.42,0.021701
16049.95,0.021921
16099.8,0.021986
16149.95,0.022229
16200.42,0.022521
16251.21,0.022617
16302.31,0.022606
16353.74,0.022673
16405.49,0.02262
16457.57,0.022576
16509.98,0.022516
16562.73,0.022311
16615.82,0.022082
16669.24,0.021962
16723.02,0.021902
16777.14,0.021687
16831.61,0.021204
16886.43,0.020877
16941.62,0.021034
16997.16,0.020985
17053.08,0.020529
17109.36,0.020047
17166.01,0.019638
17223.04,0.019948
17280.45,0.020228
17338.24,0.020216
17396.43,0.020214
17455.0,0.020212
17513.97,0.020021
17573.34,0.020146
17633.11,0.0203
17693.29,0.019891
17753.89,0.019295
17814.9,0.018842
17876.33,0.018514
17938.18,0.018495
18000.47,0.018338
18063.19,0.018015
18126.35,0.017764
18189.95,0.017557
18254.0,0.017431
18318.5,0.017453
18383.46,0.017408
18448.88,0.01722
18514.77,0.017055
18581.13,0.017378
18647.97,0.018022
18715.29,0.01856
18783.1,0.018886
18851.4,0.019174
18920.2,0.019546
18989.51,0.020045
19059.32,0.020607
19129.65,0.02138
19200.5,0.021246
19271.88,0.021286
19343.79,0.021971
19416.24,0.022567
19489.23,0.02284
19562.77,0.023134
19636.88,0.023611
19711.54,0.024363
19786.78,0.024689
19862.59,0.02606
19938.98,0.027252
20015.96,0.027635
20093.55,0.029163
20171.73,0.031384
20250.53,0.033253
20329.94,0.035823
20409.98,0.038802
20490.65,0.040755
20571.96,0.043126
20653.92,0.046192
20736.54,0.048153
20819.82,0.049179
20903.77,0.050383
20988.4,0.051544
21073.72,0.051995
21159.73,0.052683
21246.46,0.052001
21333.89,0.05053
21422.04,0.049433
21510.93,0.048304
21600.56,0.04685
21690.94,0.04505
21782.08,0.042971
21873.99,0.042241
21966.67,0.041578
22060.15,0.041503
22154.42,0.043142
22249.51,0.045283
22345.41,0.046052
22442.14,0.047603
22539.72,0.049664
22638.14,0.050964
22737.43,0.052063
22837.6,0.05174
22938.65,0.051646
23040.6,0.051453
23143.46,0.050247
23247.24,0.049257
23351.96,0.047984
23457.63,0.046732
23564.25,0.045604
23671.85,0.045824
23780.44,0.046624
23890.02,0.047138
24000.63,0.046727
24112.26,0.046833
24224.93,0.0495
24338.66,0.052142
24453.47,0.053886
24569.36,0.052039
24686.36,0.050187
24804.47,0.04992
24923.73,0.049579
25044.13,0.050438
25165.71,0.051477
25288.46,0.050742
25412.43,0.049056
25537.61,0.049078
25664.04,0.049799
25791.72,0.052418
25920.68,0.052576
