Database of Origin,University of Winnipeg Spectrophotometer Facility
Sample Description,Carbonates and Oxolates - RELAB+Nicolet spectra Newly merged spectra (merged by RELAB)
Other Information,dry seived
Date Added,2018-08-06 20:49:02.456152

Data ID,RLA_CARB_1_21       
Sample ID,CRB112
Mineral Name,Calcite
Locality,Pendleton County/ West Virginia/ USA
Grain Size,45-90 um
Viewing Geometry,30/0/30
Resolution,5/ 0.6-129 nm
Formula,CaCO3
Composition,XRD shows only calcite.

Wavelength
305.0,0.540203
310.0,0.552568
315.0,0.56028
320.0,0.564878
325.0,0.57191
330.0,0.579115
335.0,0.584171
340.0,0.590282
345.0,0.595154
350.0,0.600618
355.0,0.605825
360.0,0.612267
365.0,0.61698
370.0,0.621504
375.0,0.626888
380.0,0.630872
385.0,0.635519
390.0,0.639941
395.0,0.644515
400.0,0.648316
405.0,0.652587
410.0,0.653161
415.0,0.658003
420.0,0.66083
425.0,0.665286
430.0,0.667764
435.0,0.671474
440.0,0.674275
445.0,0.678279
450.0,0.679839
455.0,0.684349
460.0,0.684981
465.0,0.688649
470.0,0.689761
475.0,0.692389
480.0,0.6934
485.0,0.696756
490.0,0.697686
495.0,0.700568
500.0,0.701779
505.0,0.704709
510.0,0.704525
515.0,0.708087
520.0,0.708385
525.0,0.711433
530.0,0.711603
535.0,0.714797
540.0,0.714888
545.0,0.718583
550.0,0.718502
555.0,0.721227
560.0,0.72096
565.0,0.722568
570.0,0.722636
575.0,0.724654
580.0,0.723626
585.0,0.725558
590.0,0.724781
595.0,0.726396
600.0,0.724764
605.0,0.726023
610.0,0.724862
615.0,0.726336
620.0,0.724736
625.0,0.72653
630.0,0.725364
635.0,0.726907
640.0,0.725837
645.0,0.727489
650.0,0.726273
655.0,0.727577
660.0,0.726033
665.0,0.727243
670.0,0.726248
675.0,0.726607
680.0,0.72608
685.0,0.726287
690.0,0.726142
695.0,0.726179
700.0,0.726111
705.0,0.726229
710.0,0.725452
715.0,0.725904
720.0,0.725022
725.0,0.72501
730.0,0.724945
735.0,0.725121
740.0,0.724474
745.0,0.724576
750.0,0.724316
755.0,0.724841
760.0,0.724787
765.0,0.724217
770.0,0.724338
775.0,0.723521
780.0,0.723539
785.0,0.723692
790.0,0.723558
795.0,0.722814
800.0,0.723275
805.0,0.723356
810.0,0.723359
815.0,0.723413
820.0,0.722526
825.0,0.723124
830.0,0.723036
835.0,0.722235
840.0,0.722392
845.0,0.722206
850.0,0.722604
855.0,0.721839
860.0,0.722807
865.0,0.722677
870.0,0.721526
875.0,0.722616
880.0,0.721446
885.0,0.722001
890.0,0.720786
895.0,0.720897
900.0,0.721321
905.0,0.721646
910.0,0.721628
915.0,0.721398
920.0,0.722
925.0,0.721673
930.0,0.721263
935.0,0.721509
940.0,0.721209
945.0,0.721257
950.0,0.721412
955.0,0.720639
960.0,0.721507
965.0,0.721089
970.0,0.720716
975.0,0.720925
980.0,0.720841
985.0,0.720593
990.0,0.721523
995.0,0.720697
1000.0,0.71977
1005.0,0.719916
1010.0,0.719894
1015.0,0.720328
1020.0,0.719957
1025.0,0.72029
1030.0,0.718025
1035.0,0.719611
1040.0,0.719698
1045.0,0.721122
1050.0,0.721257
1055.0,0.720325
1060.0,0.720499
1065.0,0.720235
1070.0,0.72006
1075.0,0.720148
1080.0,0.719844
1085.0,0.719839
1090.0,0.720145
1095.0,0.720141
1100.0,0.720484
1105.0,0.720224
1110.0,0.720099
1115.0,0.71995
1120.0,0.720162
1125.0,0.720138
1130.0,0.719999
1135.0,0.719602
1140.0,0.720145
1145.0,0.719754
1150.0,0.720227
1155.0,0.720144
1160.0,0.719477
1165.0,0.720173
1170.0,0.719854
1175.0,0.720119
1180.0,0.719805
1185.0,0.719718
1190.0,0.720028
1195.0,0.719395
1200.0,0.720093
1205.0,0.720277
1210.0,0.720356
1215.0,0.720422
1220.0,0.720848
1225.0,0.720678
1230.0,0.720238
1235.0,0.720856
1240.0,0.72087
1245.0,0.721157
1250.0,0.721084
1255.0,0.720916
1260.0,0.720118
1265.0,0.720627
1270.0,0.720305
1275.0,0.719865
1280.0,0.719469
1285.0,0.718964
1290.0,0.718982
1295.0,0.719263
1300.0,0.718838
1305.0,0.718587
1310.0,0.718578
1315.0,0.718158
1320.0,0.718397
1325.0,0.717946
1330.0,0.719032
1335.0,0.71845
1340.0,0.718743
1345.0,0.718373
1350.0,0.718043
1355.0,0.717667
1360.0,0.718313
1365.0,0.715928
1370.0,0.716413
1375.0,0.716924
1380.0,0.718298
1385.0,0.716166
1420.0,0.717212
1425.0,0.717135
1430.0,0.717278
1435.0,0.717846
1440.0,0.71832
1445.0,0.718591
1450.0,0.717889
1455.0,0.717391
1460.0,0.717596
1465.0,0.71805
1470.0,0.717558
1475.0,0.718174
1480.0,0.717823
1485.0,0.718072
1490.0,0.717356
1495.0,0.718436
1500.0,0.717757
1505.0,0.718249
1510.0,0.718325
1515.0,0.718531
1520.0,0.718506
1525.0,0.718617
1530.0,0.718255
1535.0,0.718233
1540.0,0.718619
1545.0,0.718526
1550.0,0.71877
1555.0,0.718723
1560.0,0.718648
1565.0,0.718318
1570.0,0.718047
1575.0,0.718833
1580.0,0.718865
1585.0,0.718839
1590.0,0.720101
1595.0,0.719942
1600.0,0.719718
1605.0,0.719964
1610.0,0.720265
1615.0,0.720079
1620.0,0.720082
1625.0,0.719778
1630.0,0.719712
1635.0,0.719904
1640.0,0.719801
1645.0,0.720127
1650.0,0.719463
1655.0,0.720226
1660.0,0.720491
1665.0,0.719067
1670.0,0.719385
1675.0,0.719156
1680.0,0.719822
1685.0,0.719426
1690.0,0.71955
1695.0,0.719574
1700.0,0.719773
1705.31,0.719847
1709.81,0.719319
1715.46,0.719601
1720.02,0.719523
1724.6,0.719174
1730.35,0.718622
1734.98,0.718175
1739.64,0.718576
1745.5,0.71824
1750.21,0.71799
1754.95,0.718378
1759.72,0.718109
1764.51,0.718314
1770.54,0.718995
1775.39,0.719198
1780.27,0.719356
1785.17,0.719429
1790.1,0.719304
1795.06,0.719198
1800.05,0.718985
1805.06,0.718697
1810.1,0.718462
1815.17,0.71835
1820.27,0.717921
1825.4,0.717535
1830.56,0.716753
1834.44,0.716252
1839.65,0.715536
1844.89,0.715091
1850.16,0.71455
1855.45,0.714068
1859.45,0.713485
1864.8,0.712324
1870.18,0.709747
1875.59,0.706614
1879.67,0.706554
1885.14,0.71102
1890.64,0.713483
1894.79,0.7147
1900.34,0.715195
1904.53,0.715239
1910.15,0.715307
1914.38,0.714955
1920.05,0.714856
1924.33,0.714834
1930.06,0.714626
1934.38,0.714423
1940.17,0.714128
1944.54,0.713946
1950.39,0.713134
1954.8,0.712398
1960.72,0.711445
1965.18,0.710639
1969.66,0.710274
1975.66,0.709739
1980.19,0.709219
1984.74,0.708527
1989.31,0.706011
1995.43,0.70345
2000.05,0.702738
2004.69,0.705263
2009.35,0.708207
2015.6,0.710429
2020.32,0.711068
2025.05,0.711642
2029.81,0.712231
2034.59,0.712526
2039.39,0.712673
2044.22,0.71266
2050.69,0.712638
2055.57,0.712416
2060.47,0.712374
2065.39,0.712344
2070.34,0.712069
2075.31,0.711896
2080.31,0.711568
2085.33,0.711335
2090.38,0.710932
2095.45,0.710625
2100.54,0.710078
2105.66,0.709306
2110.8,0.708824
2114.25,0.708269
2119.43,0.707679
2124.65,0.707196
2129.88,0.706667
2135.15,0.705874
2140.44,0.704465
2145.75,0.701796
2149.31,0.699917
2154.67,0.698525
2160.06,0.698098
2165.47,0.698607
2170.91,0.700055
2174.55,0.701148
2180.04,0.702281
2185.55,0.702929
2189.25,0.703368
2194.81,0.703091
2200.4,0.702371
2204.14,0.701894
2209.78,0.700819
2215.44,0.69971
2219.24,0.6988
2224.95,0.697205
2230.7,0.694931
2234.54,0.692966
2240.33,0.690135
2244.21,0.687734
2250.06,0.68403
2255.93,0.679268
2259.87,0.675816
2265.79,0.669616
2269.76,0.665172
2275.74,0.657119
2279.74,0.650437
2285.77,0.639412
2289.81,0.633281
2295.9,0.625719
2299.97,0.621566
2304.06,0.618424
2310.22,0.614748
2314.35,0.612301
2320.56,0.605523
2324.72,0.598242
2331.0,0.58311
2335.2,0.572528
2339.41,0.566054
2345.76,0.56762
2350.02,0.577477
2354.28,0.593925
2360.72,0.624779
2365.03,0.644992
2369.35,0.660875
2375.86,0.674198
2380.23,0.678411
2384.61,0.681137
2389.0,0.682556
2395.63,0.682604
2400.06,0.681147
2404.52,0.680224
2408.98,0.681052
2415.72,0.680262
2420.23,0.678301
2424.76,0.675405
2429.3,0.671545
2433.87,0.667039
2440.74,0.65979
2445.35,0.65442
2449.97,0.648259
2454.61,0.641349
2459.27,0.633049
2463.94,0.622888
2470.99,0.603975
2475.71,0.589645
2480.45,0.575903
2485.2,0.564701
2489.98,0.556306
2494.77,0.550776
2499.58,0.546897
2504.41,0.543947
2509.26,0.540336
2514.13,0.535796
2519.02,0.527632
2523.92,0.513565
2528.85,0.493174
2533.79,0.47272
2541.24,0.464446
2543.74,0.471775
2548.74,0.500919
2553.76,0.540396
2556.28,0.560875
2558.8,0.580015
2561.33,0.596778
2563.86,0.610791
2566.4,0.622527
2568.95,0.631817
2571.5,0.638956
2574.05,0.644437
2576.61,0.648438
2579.17,0.651365
2581.74,0.65322
2584.31,0.654504
2586.89,0.656655
2589.48,0.65988
2592.07,0.663341
2594.66,0.666233
2597.26,0.668581
2599.87,0.671326
2602.48,0.673452
2605.09,0.674633
2607.71,0.675734
2610.34,0.677042
2612.97,0.678096
2615.61,0.678857
2618.25,0.679368
2620.9,0.679665
2623.55,0.6802
2626.21,0.68074
2628.87,0.681008
2631.54,0.681273
2634.22,0.681498
2636.89,0.681748
2639.58,0.682073
2642.27,0.682171
2644.97,0.681983
2647.67,0.681933
2650.38,0.681873
2653.09,0.681546
2655.81,0.681098
2658.53,0.680567
2661.26,0.679917
2664.0,0.679027
2666.74,0.677697
2669.48,0.676536
2672.23,0.675401
2674.99,0.67433
2677.76,0.672786
2680.52,0.670568
2683.3,0.66804
2686.08,0.664504
2688.87,0.659864
2691.66,0.653946
2694.46,0.646563
2697.26,0.636684
2700.07,0.619547
2702.89,0.586944
2705.71,0.555955
2708.53,0.557606
2711.37,0.575666
2714.21,0.586447
2717.05,0.589577
2719.9,0.588466
2722.76,0.585703
2725.62,0.582761
2728.49,0.579949
2731.37,0.577282
2734.25,0.574294
2737.14,0.571132
2740.03,0.568082
2742.93,0.565008
2745.83,0.562453
2748.75,0.559768
2751.66,0.556631
2754.59,0.553529
2757.52,0.55033
2760.46,0.546811
2763.4,0.541659
2766.35,0.532904
2769.3,0.520561
2772.26,0.505014
2775.23,0.489471
2778.21,0.476159
2781.19,0.463923
2784.18,0.45011
2787.17,0.436371
2790.17,0.428025
2793.18,0.429707
2796.19,0.441705
2799.21,0.458693
2802.24,0.473426
2805.27,0.483994
2808.31,0.492418
2811.35,0.499728
2814.41,0.506125
2817.46,0.511553
2820.53,0.516653
2823.6,0.520912
2826.68,0.523868
2829.77,0.526281
2832.86,0.528859
2835.96,0.531438
2839.07,0.533281
2842.18,0.534611
2845.3,0.535505
2848.43,0.53596
2851.56,0.536071
2854.7,0.535601
2857.85,0.535082
2861.0,0.534336
2864.16,0.534038
2867.33,0.533836
2870.51,0.53277
2873.69,0.532479
2876.88,0.531677
2880.07,0.530816
2883.28,0.530247
2886.49,0.52934
2889.71,0.529042
2892.93,0.528577
2896.17,0.527683
2899.4,0.527002
2902.65,0.52634
2905.91,0.525855
2909.17,0.525167
2912.44,0.524314
2915.71,0.523972
2918.99,0.523085
2922.29,0.522127
2925.58,0.521647
2928.89,0.52077
2932.2,0.519963
2935.52,0.518972
2938.85,0.517544
2942.19,0.516172
2945.53,0.514975
2948.88,0.513581
2952.24,0.513133
2955.61,0.511906
2958.98,0.511065
2962.36,0.510549
2965.75,0.509771
2969.15,0.508894
2972.55,0.508106
2975.97,0.5068
2979.39,0.505995
2986.25,0.503343
2989.7,0.501867
2993.15,0.500646
2996.61,0.499189
3000.08,0.497308
3003.55,0.495561
3007.04,0.493672
3010.53,0.491639
3014.03,0.489678
3017.54,0.487308
3021.06,0.484981
3024.58,0.483187
3028.12,0.480873
3031.66,0.47896
3035.21,0.476471
3038.77,0.474106
3042.33,0.471565
3045.91,0.468761
3049.49,0.465904
3053.08,0.462993
3056.68,0.459442
3060.29,0.456373
3063.91,0.453024
3067.54,0.450021
3071.17,0.447311
3074.81,0.444618
3078.47,0.441773
3082.13,0.437439
3085.79,0.431872
3089.47,0.424455
3093.16,0.416667
3096.85,0.408945
3100.56,0.401466
3104.27,0.394597
3107.99,0.388472
3111.73,0.385057
3115.47,0.38622
3119.21,0.391923
3122.97,0.399759
3126.74,0.406291
3130.52,0.408822
3134.3,0.407767
3138.1,0.404035
3141.9,0.399832
3145.71,0.395135
3149.54,0.391065
3153.37,0.388712
3157.21,0.389441
3161.06,0.394686
3164.92,0.403405
3168.79,0.412334
3172.67,0.419576
3176.55,0.423767
3180.45,0.425594
3184.36,0.426331
3188.27,0.426055
3192.2,0.425274
3196.14,0.424307
3200.08,0.422497
3204.04,0.420485
3208.0,0.418197
3211.98,0.415669
3215.96,0.412615
3219.96,0.409694
3223.96,0.406577
3227.98,0.402971
3232.0,0.399044
3236.04,0.395559
3240.08,0.391674
3244.14,0.387762
3248.2,0.38424
3252.28,0.380735
3256.37,0.376506
3260.46,0.372446
3264.57,0.367914
3268.69,0.362797
3272.81,0.357329
3276.95,0.351582
3281.1,0.345298
3285.26,0.33822
3289.43,0.331395
3293.61,0.324272
3297.8,0.31645
3302.0,0.308086
3306.21,0.298781
3310.43,0.289071
3314.66,0.277958
3318.91,0.266133
3323.16,0.251799
3327.43,0.234345
3331.71,0.212997
3335.99,0.184889
3340.29,0.148598
3344.6,0.107052
3348.92,0.076625
3353.26,0.065538
3357.6,0.065211
3361.96,0.068934
3366.32,0.074349
3370.7,0.078246
3375.09,0.080049
3379.49,0.080614
3383.9,0.081448
3388.32,0.083161
3392.76,0.084611
3397.21,0.086087
3401.66,0.087391
3406.13,0.088549
3410.61,0.089919
3415.11,0.090845
3419.61,0.091693
3424.13,0.091974
3428.66,0.092149
3433.2,0.092134
3437.76,0.092117
3442.32,0.09154
3446.9,0.090847
3451.49,0.089667
3456.09,0.08759
3460.7,0.084524
3465.33,0.078067
3469.97,0.066508
3474.62,0.055322
3479.29,0.050031
3483.96,0.049716
3488.65,0.051948
3493.35,0.05523
3498.07,0.058946
3502.79,0.063136
3507.53,0.067611
3512.29,0.072931
3517.05,0.080401
3521.83,0.093933
3526.62,0.118141
3531.43,0.15139
3536.24,0.18565
3541.08,0.215353
3543.5,0.228145
3545.92,0.239506
3548.35,0.249523
3550.78,0.258319
3553.21,0.265927
3555.65,0.272357
3558.09,0.277595
3560.53,0.281674
3562.98,0.28474
3565.43,0.286228
3567.88,0.285937
3570.34,0.284287
3572.8,0.282874
3575.27,0.283865
3577.73,0.288623
3580.2,0.296779
3582.68,0.306905
3585.16,0.317696
3587.64,0.327914
3590.12,0.337146
3592.61,0.3457
3595.1,0.353599
3597.6,0.360514
3600.09,0.36651
3602.6,0.372073
3605.1,0.377063
3607.61,0.381555
3610.12,0.38576
3612.64,0.389829
3615.16,0.39346
3617.68,0.396732
3620.21,0.399745
3622.74,0.402496
3625.27,0.404903
3627.81,0.407123
3630.35,0.409253
3632.89,0.41149
3635.44,0.413599
3637.99,0.415473
3640.54,0.417244
3643.1,0.418997
3645.66,0.420788
3648.23,0.422472
3650.8,0.423968
3653.37,0.425536
3655.95,0.426917
3658.53,0.428277
3661.11,0.429722
3663.7,0.431152
3666.29,0.432402
3668.89,0.433503
3671.48,0.434589
3674.09,0.435662
3676.69,0.43646
3679.3,0.437042
3681.91,0.437589
3684.53,0.43811
3687.15,0.438445
3689.78,0.438438
3692.4,0.438394
3695.04,0.438331
3697.67,0.438004
3700.31,0.437761
3702.95,0.437417
3705.6,0.436668
3708.25,0.435893
3710.91,0.434962
3713.56,0.434038
3716.23,0.432928
3718.89,0.431615
3721.56,0.430257
3724.23,0.42859
3726.91,0.426828
3729.59,0.424879
3732.28,0.422555
3734.97,0.419886
3737.66,0.416978
3740.36,0.413521
3743.06,0.409619
3745.76,0.40562
3748.47,0.402086
3751.18,0.399081
3753.9,0.396245
3756.62,0.393668
3759.34,0.391509
3762.07,0.389085
3764.8,0.385881
3767.54,0.38184
3770.28,0.377148
3773.02,0.371847
3775.77,0.36597
3778.52,0.359414
3781.28,0.351992
3784.04,0.343649
3786.8,0.334003
3789.57,0.322294
3792.34,0.307986
3795.12,0.290642
3797.9,0.270619
3800.69,0.249312
3803.47,0.22856
3806.27,0.20948
3809.06,0.192679
3811.86,0.177976
3814.67,0.165329
3817.48,0.154182
3820.29,0.144068
3823.11,0.134962
3825.93,0.12677
3828.76,0.118999
3831.59,0.111524
3834.42,0.10457
3837.26,0.098082
3840.1,0.092529
3842.95,0.088166
3845.8,0.084957
3848.65,0.082914
3851.51,0.081528
3854.38,0.08034
3857.24,0.079434
3860.12,0.078682
3862.99,0.078028
3865.87,0.07742
3868.76,0.076731
3871.65,0.07612
3874.54,0.07582
3877.44,0.075587
3880.34,0.075369
3883.25,0.075102
3886.16,0.074698
3889.07,0.074179
3891.99,0.073704
3894.92,0.073234
3897.85,0.072744
3900.78,0.072347
3903.72,0.071886
3906.66,0.0713
3909.6,0.070565
3912.55,0.069838
3915.51,0.069239
3918.47,0.068546
3921.43,0.067489
3924.4,0.066282
3927.38,0.064886
3930.35,0.063364
3933.33,0.062092
3936.32,0.061457
3939.31,0.060793
3942.31,0.05834
3945.31,0.053899
3948.31,0.049159
3951.32,0.045208
3954.34,0.042072
3957.35,0.039568
3960.38,0.037597
3963.41,0.036019
3966.44,0.034861
3969.48,0.034139
3972.52,0.033731
3975.56,0.033562
3978.61,0.033416
3981.67,0.033271
3984.73,0.033283
3987.8,0.033547
3990.87,0.034236
3993.94,0.035341
3997.02,0.036659
4000.1,0.038349
4003.19,0.040622
4006.29,0.043785
4009.39,0.048058
4012.49,0.053798
4015.6,0.06128
4018.71,0.069329
4021.83,0.07662
4024.95,0.082907
4028.08,0.089012
4031.21,0.095867
4034.35,0.103417
4037.49,0.11197
4040.64,0.122269
4043.79,0.134545
4046.94,0.14844
4050.11,0.16274
4053.27,0.176537
4056.44,0.189392
4059.62,0.200856
4062.8,0.210728
4065.99,0.219422
4069.18,0.227392
4072.38,0.235005
4075.58,0.24256
4078.78,0.250257
4082.0,0.257902
4085.21,0.265127
4088.43,0.271887
4091.66,0.278366
4094.89,0.284633
4098.13,0.290586
4101.37,0.296183
4104.62,0.301639
4107.87,0.307114
4111.13,0.312468
4114.39,0.317841
4117.66,0.323295
4120.93,0.328787
4124.21,0.334485
4127.5,0.340203
4130.79,0.345751
4134.08,0.351226
4137.38,0.356554
4140.68,0.361835
4143.99,0.366978
4147.31,0.371767
4150.63,0.376373
4153.95,0.380667
4157.29,0.38463
4160.62,0.388363
4163.96,0.39179
4167.31,0.394965
4170.66,0.398026
4174.02,0.400998
4177.39,0.403812
4180.75,0.4064
4184.13,0.408933
4187.51,0.411459
4190.89,0.414038
4194.28,0.416575
4197.68,0.419091
4201.08,0.421406
4204.49,0.423563
4207.9,0.425597
4211.32,0.427443
4214.74,0.428975
4218.17,0.430316
4221.61,0.431377
4225.05,0.432303
4228.5,0.433285
4231.95,0.434484
4235.4,0.436108
4238.87,0.43789
4242.34,0.439775
4245.81,0.441668
4249.29,0.443115
4252.78,0.444262
4256.27,0.445328
4259.77,0.446157
4263.27,0.446877
4266.78,0.447956
4270.29,0.44926
4273.81,0.450699
4277.34,0.45212
4280.87,0.453254
4284.41,0.453748
4287.95,0.453887
4291.5,0.453654
4295.06,0.453373
4298.62,0.453024
4302.19,0.452144
4305.76,0.450246
4309.34,0.448096
4312.92,0.446116
4316.52,0.444955
4320.11,0.444747
4323.72,0.445273
4327.32,0.445985
4330.94,0.446259
4334.56,0.446024
4338.19,0.446101
4341.82,0.446746
4345.46,0.447563
4349.11,0.448319
4352.76,0.44934
4356.42,0.451225
4360.08,0.454386
4363.75,0.45832
4367.43,0.462309
4371.11,0.465799
4374.8,0.468444
4378.49,0.470145
4382.19,0.471086
4385.9,0.47118
4389.61,0.470673
4393.33,0.469384
4397.06,0.467952
4400.79,0.466323
4404.53,0.464694
4408.28,0.463187
4412.03,0.4618
4415.79,0.460142
4419.55,0.458029
4423.32,0.455435
4427.1,0.452924
4430.88,0.450433
4434.68,0.447922
4438.47,0.445074
4442.28,0.441773
4446.08,0.437895
4449.9,0.43376
4453.72,0.429644
4457.55,0.425948
4461.39,0.422664
4465.23,0.419612
4469.08,0.416275
4472.94,0.412615
4476.8,0.408589
4480.67,0.40396
4484.55,0.399112
4488.43,0.394313
4492.32,0.389735
4496.21,0.385496
4500.12,0.381647
4504.03,0.378527
4507.94,0.376208
4511.87,0.37453
4515.8,0.373248
4519.73,0.372272
4523.68,0.371464
4527.63,0.370861
4531.59,0.370282
4535.55,0.369792
4539.52,0.369344
4543.5,0.369087
4547.49,0.36891
4551.48,0.368665
4555.48,0.36836
4559.49,0.367904
4563.5,0.367325
4567.52,0.366927
4571.55,0.366345
4575.58,0.365611
4579.63,0.364935
4583.67,0.364106
4587.73,0.363233
4591.79,0.362283
4595.86,0.360795
4599.94,0.358599
4604.03,0.355853
4608.12,0.35379
4612.22,0.351796
4616.33,0.348434
4620.44,0.343126
4624.56,0.335401
4628.69,0.326
4632.83,0.316065
4636.97,0.304962
4641.12,0.291628
4645.28,0.276957
4649.45,0.262502
4653.62,0.24913
4657.8,0.237533
4661.99,0.228725
4666.19,0.223039
4670.39,0.219679
4674.6,0.21814
4678.82,0.217946
4683.05,0.219073
4687.28,0.221834
4691.52,0.226463
4695.77,0.232945
4700.03,0.241476
4704.3,0.252526
4708.57,0.266804
4712.85,0.28388
4717.14,0.30318
4721.43,0.323891
4725.74,0.344486
4730.05,0.362472
4734.37,0.37628
4738.7,0.386138
4743.03,0.393792
4747.38,0.400186
4751.73,0.405775
4756.09,0.410528
4760.45,0.414595
4764.83,0.418497
4769.21,0.422514
4773.6,0.426161
4778.0,0.429147
4782.41,0.431256
4786.83,0.432659
4791.25,0.433583
4795.68,0.434276
4800.13,0.434453
4804.57,0.434528
4809.03,0.434501
4813.5,0.434402
4817.97,0.434242
4822.45,0.434053
4826.94,0.433937
4831.44,0.433869
4835.95,0.433602
4840.46,0.433062
4844.99,0.432339
4849.52,0.431833
4854.06,0.431263
4858.61,0.430563
4863.17,0.429838
4867.73,0.429346
4872.31,0.428663
4876.89,0.428032
4881.48,0.42748
4886.08,0.426951
4890.69,0.426241
4895.31,0.425592
4899.94,0.424872
4904.57,0.424193
4909.22,0.423522
4913.87,0.422916
4918.53,0.422274
4923.21,0.421757
4927.88,0.421176
4932.57,0.420657
4937.27,0.420223
4941.98,0.419956
4946.69,0.419721
4951.42,0.419661
4956.15,0.41967
4960.9,0.419792
4965.65,0.419947
4970.41,0.420298
4975.18,0.420674
4979.96,0.421156
4984.75,0.421602
4989.54,0.422138
4994.35,0.422591
4999.17,0.423107
5003.99,0.423437
5008.83,0.423805
5013.67,0.424062
5018.52,0.42431
5023.39,0.424411
5028.26,0.424722
5033.14,0.424899
5038.03,0.425199
5042.93,0.425446
5047.84,0.425689
5052.76,0.425485
5057.69,0.425289
5062.63,0.424865
5067.58,0.424181
5072.54,0.422746
5077.51,0.42031
5082.49,0.415468
5087.47,0.406633
5092.47,0.390028
5097.48,0.361222
5102.5,0.328649
5107.52,0.323011
5112.56,0.346553
5117.61,0.374824
5122.66,0.393853
5127.73,0.402009
5132.81,0.404978
5137.89,0.405785
5142.99,0.405751
5148.1,0.405043
5153.22,0.40396
5158.34,0.40261
5163.48,0.401439
5168.63,0.39975
5173.79,0.397694
5178.96,0.396485
5184.13,0.395719
5189.32,0.394439
5194.52,0.392769
5199.73,0.390733
5204.96,0.388571
5210.19,0.386324
5215.43,0.384007
5220.68,0.381782
5225.94,0.379633
5231.22,0.377558
5236.5,0.375529
5241.79,0.373343
5247.1,0.371115
5252.42,0.368701
5257.74,0.365999
5263.08,0.3631
5268.43,0.360092
5273.79,0.35721
5279.16,0.354505
5284.54,0.351801
5289.93,0.348877
5295.34,0.345882
5300.75,0.342505
5306.18,0.338707
5311.61,0.334762
5317.06,0.330612
5322.52,0.326128
5327.99,0.321506
5333.47,0.316722
5338.96,0.311859
5344.47,0.30685
5349.98,0.302002
5355.51,0.297276
5361.05,0.292709
5366.6,0.288322
5372.16,0.283785
5377.73,0.278928
5383.32,0.273816
5388.91,0.268428
5394.52,0.262997
5400.14,0.257449
5405.77,0.251842
5411.41,0.246021
5417.07,0.239966
5422.74,0.233681
5428.41,0.227035
5434.1,0.220077
5439.81,0.212825
5445.52,0.205251
5451.25,0.19764
5456.98,0.190139
5462.73,0.18245
5468.5,0.174699
5474.27,0.166987
5480.06,0.159345
5485.86,0.151521
5491.67,0.143508
5497.49,0.135105
5503.33,0.126311
5509.18,0.117155
5515.04,0.10735
5520.91,0.096621
5526.8,0.085011
5532.69,0.072308
5538.61,0.05873
5544.53,0.044716
5550.47,0.031986
5556.41,0.022575
5562.38,0.018069
5568.35,0.017228
5574.34,0.017747
5580.34,0.018234
5586.35,0.01956
5592.38,0.022597
5598.42,0.028292
5604.47,0.036485
5610.54,0.046194
5616.61,0.055618
5622.71,0.063798
5628.81,0.070274
5634.93,0.075211
5641.06,0.078709
5647.21,0.081084
5653.36,0.082
5659.54,0.081133
5665.72,0.078387
5671.92,0.075248
5678.13,0.072637
5684.36,0.069644
5690.6,0.066602
5696.85,0.064542
5703.12,0.06269
5709.4,0.060713
5715.69,0.058621
5722.0,0.056895
5728.33,0.055303
5734.66,0.053912
5741.01,0.052469
5747.38,0.051027
5753.76,0.049551
5760.15,0.048259
5766.56,0.047426
5772.98,0.047181
5779.41,0.04728
5785.86,0.047801
5792.33,0.048524
5798.81,0.049384
5805.3,0.050225
5811.81,0.050952
5818.33,0.051522
5824.87,0.052174
5831.42,0.052877
5837.99,0.053684
5844.57,0.054365
5851.17,0.055136
5857.78,0.055901
5864.41,0.056551
5871.05,0.056946
5877.7,0.057273
5884.38,0.057453
5891.06,0.057521
5897.76,0.057341
5904.48,0.056915
5911.21,0.056253
5917.96,0.05546
5924.73,0.054345
5931.5,0.053172
5938.3,0.05197
5945.11,0.050642
5951.93,0.049241
5958.78,0.048039
5965.63,0.046871
5972.51,0.045809
5979.39,0.044927
5986.3,0.044209
5993.22,0.043303
6000.16,0.042353
6007.11,0.041281
6014.08,0.040166
6021.06,0.038877
6028.06,0.037612
6035.08,0.036301
6042.12,0.035043
6049.17,0.033768
6056.23,0.032544
6063.32,0.031395
6070.42,0.030549
6077.53,0.029773
6084.67,0.029153
6091.82,0.028644
6098.98,0.028368
6106.17,0.02805
6113.37,0.027851
6120.58,0.02767
6127.82,0.027718
6135.07,0.027861
6142.34,0.028198
6149.63,0.028576
6156.93,0.02918
6164.25,0.030021
6171.59,0.031395
6178.95,0.033089
6186.32,0.035346
6193.71,0.038118
6201.12,0.041669
6208.54,0.045768
6215.99,0.050666
6223.45,0.056187
6230.93,0.062543
6238.43,0.06945
6245.95,0.07709
6253.48,0.085127
6261.03,0.093574
6268.6,0.101882
6276.19,0.110009
6283.8,0.117232
6291.43,0.122909
6299.07,0.126879
6306.73,0.132162
6314.42,0.140333
6322.12,0.150367
6329.84,0.160469
6337.57,0.171144
6345.33,0.184062
6353.11,0.198501
6360.9,0.210307
6368.72,0.219451
6376.55,0.227079
6384.4,0.233672
6392.27,0.239326
6400.17,0.244797
6408.08,0.250105
6416.01,0.25582
6423.96,0.262282
6431.93,0.269667
6439.92,0.278446
6447.93,0.289449
6455.96,0.301389
6464.01,0.312056
6472.08,0.318261
6480.17,0.32018
6488.28,0.318791
6496.41,0.315553
6504.56,0.310987
6512.73,0.305849
6520.92,0.300354
6529.14,0.294547
6537.37,0.28849
6545.63,0.282246
6553.9,0.275656
6562.2,0.269061
6570.51,0.262546
6578.85,0.25605
6587.21,0.249559
6595.59,0.243289
6603.99,0.236861
6612.42,0.23062
6620.86,0.224553
6629.33,0.218824
6637.82,0.213508
6646.33,0.208455
6654.86,0.20385
6663.41,0.199611
6671.99,0.195374
6680.59,0.191166
6689.21,0.186908
6697.85,0.182795
6706.51,0.17898
6715.2,0.175249
6723.91,0.171611
6732.64,0.168141
6741.4,0.164864
6750.18,0.161967
6758.98,0.159338
6767.8,0.156882
6776.65,0.154679
6785.52,0.152813
6794.41,0.150997
6803.33,0.149104
6812.27,0.147374
6821.23,0.14575
6830.22,0.144078
6839.23,0.142357
6848.26,0.140786
6857.32,0.139281
6866.4,0.137817
6875.51,0.13638
6884.64,0.134996
6893.8,0.133685
6902.98,0.132337
6912.18,0.131011
6921.41,0.129756
6930.66,0.128646
6939.94,0.127744
6949.24,0.127005
6958.57,0.126537
6967.92,0.126173
6977.3,0.12587
6986.7,0.12558
6996.13,0.12532
7005.59,0.125073
7015.07,0.124792
7024.57,0.124532
7034.1,0.124419
7043.66,0.124317
7053.25,0.124387
7062.85,0.124472
7072.49,0.124365
7082.15,0.124169
7091.84,0.123587
7101.55,0.122213
7111.3,0.11945
7121.06,0.115039
7130.86,0.109762
7140.68,0.105348
7150.53,0.10293
7160.41,0.101781
7170.31,0.100566
7180.24,0.098889
7190.2,0.096967
7200.19,0.095069
7210.2,0.093484
7220.24,0.092095
7230.31,0.090871
7240.41,0.089865
7250.54,0.088913
7260.69,0.087868
7270.88,0.086865
7281.09,0.086053
7291.33,0.085449
7301.6,0.084986
7311.9,0.084625
7322.22,0.084276
7332.58,0.083969
7342.97,0.083661
7353.38,0.083426
7363.83,0.083021
7374.3,0.082628
7384.81,0.082165
7395.34,0.081584
7405.91,0.081026
7416.5,0.080488
7427.13,0.079897
7437.78,0.079383
7448.47,0.079075
7459.19,0.078823
7469.94,0.078501
7480.71,0.078287
7491.52,0.078139
7502.37,0.077965
7513.24,0.077715
7524.14,0.077458
7535.08,0.077141
7546.05,0.076901
7557.05,0.076692
7568.08,0.076457
7579.15,0.076147
7590.24,0.075863
7601.37,0.075631
7612.53,0.075473
7623.73,0.075483
7634.96,0.07574
7646.22,0.076162
7657.51,0.076656
7668.84,0.077296
7680.2,0.078135
7691.59,0.078985
7703.02,0.079814
7714.49,0.080551
7725.98,0.081256
7737.52,0.081933
7749.08,0.082543
7760.68,0.082892
7772.32,0.083081
7783.99,0.083098
7795.69,0.08297
7807.43,0.082854
7819.21,0.083096
7831.02,0.083726
7842.87,0.084557
7854.75,0.085202
7866.67,0.085343
7878.62,0.085193
7890.62,0.084921
7902.64,0.08457
7914.71,0.084461
7926.81,0.084783
7938.95,0.085575
7951.13,0.08653
7963.34,0.087478
7975.59,0.088263
7987.88,0.088741
8000.21,0.088976
8012.57,0.088925
8024.98,0.088724
8037.42,0.088419
8049.9,0.08789
8062.42,0.087173
8074.98,0.086712
8087.57,0.087047
8100.21,0.088069
8112.89,0.089284
8125.6,0.090241
8138.36,0.090922
8151.16,0.09148
8163.99,0.091904
8176.87,0.092461
8189.79,0.093319
8202.75,0.094192
8215.75,0.094631
8228.79,0.094524
8241.87,0.094202
8254.99,0.093821
8268.16,0.09339
8281.37,0.093009
8294.62,0.092585
8307.91,0.092173
8321.24,0.091826
8334.62,0.091465
8348.04,0.090966
8361.51,0.090374
8375.02,0.089645
8388.57,0.088625
8402.16,0.087124
8415.8,0.085415
8429.49,0.083971
8443.22,0.082955
8456.99,0.082131
8470.81,0.081055
8484.67,0.079792
8498.58,0.078721
8512.54,0.078324
8526.54,0.078719
8540.58,0.079606
8554.68,0.080476
8568.82,0.080738
8583.0,0.08036
8597.24,0.079957
8611.52,0.079996
8625.85,0.081191
8640.23,0.084048
8654.65,0.088242
8669.12,0.093162
8683.64,0.098317
8698.21,0.103085
8712.83,0.107668
8727.5,0.112406
8742.22,0.117157
8756.99,0.121944
8771.8,0.126782
8786.67,0.131469
8801.59,0.135493
8816.56,0.138779
8831.58,0.141472
8846.65,0.143716
8861.77,0.145675
8876.94,0.147468
8892.17,0.149272
8907.45,0.151206
8922.78,0.153077
8938.16,0.155169
8953.6,0.157583
8969.09,0.159939
8984.64,0.162021
9000.23,0.163921
9015.89,0.165571
9031.59,0.166885
9047.36,0.167687
9063.17,0.168192
9079.05,0.168458
9094.97,0.168521
9110.96,0.168398
9127.0,0.168305
9143.1,0.168092
9159.25,0.167612
9175.46,0.167098
9191.73,0.166786
9208.06,0.16641
9224.44,0.166415
9240.88,0.166153
9257.38,0.166182
9273.94,0.16745
9290.56,0.167433
9307.24,0.165598
9323.98,0.162578
9340.78,0.158858
9357.64,0.155404
9374.57,0.153053
9391.55,0.152663
9408.59,0.156785
9425.7,0.162258
9442.87,0.165855
9460.1,0.168092
9477.4,0.169479
9494.75,0.170264
9512.17,0.1707
9529.66,0.170601
9547.21,0.169527
9564.83,0.167353
9582.5,0.164444
9600.25,0.161979
9618.06,0.160894
9635.94,0.160562
9653.88,0.159689
9671.89,0.157372
9689.97,0.153029
9708.12,0.14717
9726.33,0.140747
9744.62,0.135049
9762.97,0.130977
9781.39,0.128648
9799.88,0.12722
9818.44,0.125536
9837.07,0.12326
9855.77,0.120674
9874.54,0.118672
9893.39,0.117773
9912.3,0.118323
9931.29,0.120141
9950.36,0.122715
9969.49,0.125233
9988.7,0.126833
10007.98,0.12755
10027.34,0.128003
10046.77,0.128578
10066.28,0.129581
10085.87,0.131263
10105.53,0.134106
10125.26,0.138273
10145.08,0.142199
10164.97,0.144599
10184.94,0.145355
10204.99,0.144783
10225.12,0.143729
10245.33,0.144839
10265.61,0.149836
10285.98,0.156085
10306.43,0.160898
10326.96,0.163979
10347.57,0.165799
10368.27,0.166461
10389.05,0.166165
10409.91,0.165421
10430.86,0.163817
10451.88,0.16108
10473.0,0.157445
10494.2,0.153283
10515.49,0.148809
10536.86,0.144834
10558.32,0.142442
10579.87,0.141802
10601.5,0.142318
10623.23,0.143319
10645.04,0.14375
10666.94,0.143239
10688.94,0.142306
10711.02,0.142386
10733.2,0.14455
10755.47,0.14852
10777.83,0.153814
10800.28,0.160016
10822.83,0.16648
10845.47,0.172765
10868.21,0.178742
10891.04,0.183885
10913.97,0.187647
10936.99,0.190032
10960.12,0.191089
10983.34,0.190812
11006.66,0.18955
11030.07,0.188173
11053.59,0.18715
11077.21,0.18677
11100.93,0.187106
11124.75,0.188495
11148.68,0.191479
11172.71,0.196995
11196.84,0.205641
11221.07,0.217532
11245.41,0.229924
11269.86,0.235846
11294.41,0.220547
11319.07,0.18493
11343.84,0.153128
11368.72,0.135553
11393.7,0.122484
11418.8,0.107438
11444.01,0.093298
11469.33,0.083278
11494.76,0.077752
11520.3,0.075951
11545.96,0.076554
11571.73,0.07804
11597.62,0.080476
11623.62,0.084482
11649.74,0.089667
11675.98,0.095658
11702.34,0.102205
11728.81,0.107852
11755.41,0.108402
11782.13,0.095433
11808.96,0.076532
11835.92,0.083535
11863.01,0.113017
11890.22,0.139104
11917.55,0.155949
11945.01,0.166684
11972.6,0.174401
12000.31,0.180417
12028.16,0.1855
12056.13,0.189443
12084.23,0.192165
12112.46,0.193638
12140.83,0.19448
12169.33,0.194681
12197.96,0.194307
12226.73,0.192705
12255.64,0.189925
12284.68,0.186663
12313.86,0.183968
12343.18,0.183013
12372.64,0.183924
12402.24,0.184935
12431.98,0.184908
12461.86,0.183468
12491.89,0.181132
12522.07,0.178764
12552.38,0.177477
12582.85,0.176946
12613.47,0.176025
12644.23,0.173941
12675.15,0.170746
12706.21,0.166708
12737.43,0.163082
12768.81,0.160683
12800.33,0.159837
12832.02,0.160358
12863.86,0.161483
12895.86,0.162159
12928.02,0.16314
12960.34,0.165426
12992.82,0.169723
13025.46,0.175804
13058.27,0.183158
13091.25,0.191249
13124.39,0.19947
13157.7,0.207408
13191.18,0.214827
13224.83,0.221247
13258.66,0.226832
13292.65,0.231289
13326.83,0.234879
13361.17,0.237773
13395.7,0.239309
13430.4,0.239064
13465.29,0.23714
13500.35,0.233204
13535.6,0.227515
13571.03,0.220065
13606.65,0.210845
13642.46,0.200013
13678.46,0.188682
13714.64,0.17611
13751.02,0.161398
13787.59,0.143906
13824.36,0.123936
13861.32,0.101805
13898.49,0.078675
13935.85,0.056318
13973.41,0.037934
14011.17,0.029516
14049.15,0.039447
14087.32,0.050853
14125.71,0.052014
14164.3,0.055739
14203.11,0.067305
14242.13,0.08391
14281.36,0.101364
14320.81,0.116599
14360.49,0.132684
14400.38,0.148339
14440.49,0.159139
14480.82,0.172496
14521.39,0.187145
14562.18,0.197616
14603.2,0.20472
14644.45,0.210101
14685.93,0.214032
14727.66,0.216926
14769.62,0.219134
14811.81,0.220802
14854.25,0.221294
14896.94,0.220942
14939.87,0.219977
14983.05,0.218322
15026.48,0.21577
15070.16,0.213271
15114.1,0.210694
15158.29,0.207221
15202.74,0.203523
15247.46,0.199984
15292.43,0.19628
15337.68,0.193188
15383.19,0.19033
15428.97,0.187104
15475.03,0.183924
15521.36,0.181151
15567.97,0.178095
15614.87,0.174784
15662.04,0.171367
15709.5,0.167978
15757.25,0.164706
15805.29,0.161611
15853.62,0.158698
15902.26,0.155687
15951.19,0.152549
16000.42,0.149512
16049.95,0.146513
16099.8,0.143651
16149.95,0.140919
16200.42,0.138338
16251.21,0.1355
16302.31,0.132776
16353.74,0.130403
16405.49,0.127775
16457.57,0.124443
16509.98,0.120938
16562.73,0.117172
16615.82,0.112913
16669.24,0.108526
16723.02,0.104042
16777.14,0.10013
16831.61,0.096824
16886.43,0.093591
16941.62,0.090845
16997.16,0.088591
17053.08,0.087039
17109.36,0.085689
17166.01,0.084516
17223.04,0.08377
17280.45,0.083496
17338.24,0.08335
17396.43,0.083622
17455.0,0.084279
17513.97,0.085369
17573.34,0.08647
17633.11,0.08741
17693.29,0.087725
17753.89,0.087733
17814.9,0.08791
17876.33,0.087926
17938.18,0.087291
18000.47,0.085997
18063.19,0.084376
18126.35,0.082473
18189.95,0.080229
18254.0,0.077538
18318.5,0.075071
18383.46,0.07281
18448.88,0.070451
18514.77,0.06825
18581.13,0.066627
18647.97,0.064906
18715.29,0.062952
18783.1,0.061076
18851.4,0.059476
18920.2,0.057666
18989.51,0.055628
19059.32,0.054292
19129.65,0.052729
19200.5,0.051187
19271.88,0.049585
19343.79,0.047893
19416.24,0.046231
19489.23,0.044646
19562.77,0.043545
19636.88,0.04237
19711.54,0.041083
19786.78,0.040036
19862.59,0.038909
19938.98,0.037522
20015.96,0.036557
20093.55,0.035535
20171.73,0.034216
20250.53,0.033249
20329.94,0.032064
20409.98,0.031286
20490.65,0.030435
20571.96,0.029289
20653.92,0.028765
20736.54,0.028261
20819.82,0.027403
20903.77,0.026666
20988.4,0.025687
21073.72,0.02471
21159.73,0.024659
21246.46,0.024785
21333.89,0.024388
21422.04,0.023765
21510.93,0.023258
21600.56,0.023091
21690.94,0.022992
21782.08,0.02273
21873.99,0.022177
21966.67,0.02003
22060.15,0.018595
22154.42,0.019494
22249.51,0.020747
22345.41,0.021133
22442.14,0.020689
22539.72,0.020214
22638.14,0.02019
22737.43,0.021312
22837.6,0.022395
22938.65,0.023057
23040.6,0.024092
23143.46,0.025103
23247.24,0.02543
23351.96,0.026952
23457.63,0.029555
23564.25,0.032476
23671.85,0.035411
23780.44,0.039165
23890.02,0.042045
24000.63,0.045836
24112.26,0.051211
24224.93,0.056238
24338.66,0.063068
24453.47,0.072482
24569.36,0.084398
24686.36,0.095329
24804.47,0.105983
24923.73,0.118543
25044.13,0.132414
25165.71,0.148484
25288.46,0.162396
25412.43,0.175056
25537.61,0.189227
25664.04,0.207357
25791.72,0.220707
25920.68,0.232702
