Database of Origin,University of Winnipeg Spectrophotometer Facility
Sample Description,See Master Clays in HOSERLab database
Date Added,2016-12-11 20:57:06.105445

Data ID,RLA_CLAY_12         
Sample ID,ILL101
Mineral Name,Illite
Grain Size,<45um
Viewing Geometry,"30/0,30"
Resolution,"5,0.6-129"
Material Class,Phyllosilicate

Wavelength
305.0,0.128141
310.0,0.138306
315.0,0.146374
320.0,0.155158
325.0,0.162269
330.0,0.169219
335.0,0.175489
340.0,0.182043
345.0,0.189027
350.0,0.196333
355.0,0.204869
360.0,0.212888
365.0,0.221868
370.0,0.229695
375.0,0.241138
380.0,0.251705
385.0,0.264003
390.0,0.276789
395.0,0.289284
400.0,0.30007
405.0,0.306628
410.0,0.314938
415.0,0.324554
420.0,0.333815
425.0,0.342235
430.0,0.353187
435.0,0.3626
440.0,0.370892
445.0,0.377915
450.0,0.384503
455.0,0.390746
460.0,0.395822
465.0,0.400503
470.0,0.406012
475.0,0.410127
480.0,0.415883
485.0,0.420975
490.0,0.426808
495.0,0.430423
500.0,0.436378
505.0,0.443036
510.0,0.447096
515.0,0.452015
520.0,0.456689
525.0,0.460809
530.0,0.46368
535.0,0.467929
540.0,0.470315
545.0,0.471397
550.0,0.472587
555.0,0.476672
560.0,0.474366
565.0,0.477889
570.0,0.476057
575.0,0.475218
580.0,0.475675
585.0,0.474994
590.0,0.474044
595.0,0.471844
600.0,0.472956
605.0,0.469168
610.0,0.469546
615.0,0.466627
620.0,0.465355
625.0,0.465738
630.0,0.46401
635.0,0.461682
640.0,0.460759
645.0,0.461404
650.0,0.456719
655.0,0.457119
660.0,0.45401
665.0,0.45223
670.0,0.452355
675.0,0.450892
680.0,0.448881
685.0,0.445714
690.0,0.446172
695.0,0.443757
700.0,0.443819
705.0,0.442022
710.0,0.440806
715.0,0.439323
720.0,0.440117
725.0,0.441247
730.0,0.442711
735.0,0.442352
740.0,0.443456
745.0,0.441944
750.0,0.44442
755.0,0.443812
760.0,0.447512
765.0,0.448723
770.0,0.450412
775.0,0.453225
780.0,0.452692
785.0,0.456599
790.0,0.457203
795.0,0.461763
800.0,0.461553
805.0,0.463731
810.0,0.46419
815.0,0.465695
820.0,0.467176
825.0,0.469222
830.0,0.469615
835.0,0.471306
840.0,0.470621
845.0,0.470875
850.0,0.47183
855.0,0.470191
860.0,0.469932
865.0,0.471055
870.0,0.471008
875.0,0.468399
880.0,0.470619
885.0,0.468251
890.0,0.468495
895.0,0.468624
900.0,0.467924
905.0,0.466899
910.0,0.470264
915.0,0.469912
920.0,0.469076
925.0,0.469886
930.0,0.470598
935.0,0.470686
940.0,0.471631
945.0,0.471797
950.0,0.472397
955.0,0.473034
960.0,0.474392
965.0,0.474253
970.0,0.475568
975.0,0.476518
980.0,0.476793
985.0,0.477892
990.0,0.477393
995.0,0.477343
1000.0,0.478408
1005.0,0.478687
1010.0,0.47849
1015.0,0.479927
1020.0,0.479497
1025.0,0.480325
1030.0,0.4796
1035.0,0.480204
1040.0,0.480444
1045.0,0.481374
1050.0,0.480593
1055.0,0.481167
1060.0,0.481339
1065.0,0.481448
1070.0,0.482858
1075.0,0.482824
1080.0,0.482636
1085.0,0.4838
1090.0,0.483659
1095.0,0.484785
1100.0,0.485853
1105.0,0.485317
1110.0,0.486866
1115.0,0.488808
1120.0,0.490247
1125.0,0.491259
1130.0,0.492599
1135.0,0.493355
1140.0,0.49556
1145.0,0.496293
1150.0,0.49827
1155.0,0.498686
1160.0,0.500042
1165.0,0.503272
1170.0,0.506038
1175.0,0.506586
1180.0,0.507895
1185.0,0.5114
1190.0,0.51375
1195.0,0.514277
1200.0,0.516883
1205.0,0.518911
1210.0,0.52094
1215.0,0.524098
1220.0,0.526868
1225.0,0.528621
1230.0,0.529518
1235.0,0.532507
1240.0,0.534191
1245.0,0.537079
1250.0,0.538541
1255.0,0.541631
1260.0,0.542237
1265.0,0.544665
1270.0,0.54719
1275.0,0.548567
1280.0,0.549411
1285.0,0.553145
1290.0,0.555235
1295.0,0.557234
1300.0,0.558423
1305.0,0.562887
1310.0,0.565808
1315.0,0.566131
1320.0,0.568694
1325.0,0.570688
1330.0,0.573869
1335.0,0.577132
1340.0,0.577438
1345.0,0.577224
1350.0,0.581191
1355.0,0.58045
1360.0,0.581524
1365.0,0.585963
1370.0,0.588656
1375.0,0.589269
1380.0,0.589716
1385.0,0.595102
1390.0,0.59266
1395.0,0.588286
1400.0,0.584901
1405.0,0.581741
1410.0,0.580239
1415.0,0.578369
1420.0,0.583467
1425.0,0.591816
1430.0,0.597966
1435.0,0.604121
1440.0,0.607357
1445.0,0.609591
1450.0,0.612181
1455.0,0.61556
1460.0,0.616289
1465.0,0.618928
1470.0,0.619776
1475.0,0.624603
1480.0,0.6263
1485.0,0.627432
1490.0,0.628735
1495.0,0.631745
1500.0,0.632996
1505.0,0.635983
1510.0,0.634477
1515.0,0.639156
1520.0,0.639219
1525.0,0.641778
1530.0,0.640132
1535.0,0.64223
1540.0,0.644529
1545.0,0.647125
1550.0,0.647674
1555.0,0.64881
1560.0,0.649094
1565.0,0.651823
1570.0,0.65536
1575.0,0.655212
1580.0,0.657301
1585.0,0.659035
1590.0,0.659889
1595.0,0.659423
1600.0,0.660982
1605.0,0.663674
1610.0,0.664647
1615.0,0.665869
1620.0,0.665641
1625.0,0.666119
1630.0,0.667727
1635.0,0.669244
1640.0,0.671769
1645.0,0.672953
1650.0,0.671962
1655.0,0.673237
1660.0,0.676216
1665.0,0.675935
1670.0,0.672416
1675.0,0.676949
1680.0,0.676829
1685.0,0.679268
1690.0,0.679571
1695.0,0.680744
1700.0,0.681648
1705.0,0.68464
1710.0,0.68283
1715.0,0.685759
1720.0,0.684501
1725.0,0.687359
1730.0,0.686406
1735.0,0.686549
1740.0,0.688556
1745.0,0.689226
1750.0,0.690306
1755.0,0.690732
1760.0,0.690732
1765.0,0.691671
1770.0,0.692337
1775.0,0.692336
1780.0,0.694234
1785.0,0.694739
1790.0,0.69582
1795.0,0.695105
1800.0,0.699173
1805.0,0.696648
1810.0,0.698958
1815.0,0.699492
1820.0,0.701863
1825.0,0.697433
1830.0,0.703912
1835.0,0.705244
1840.0,0.702793
1845.0,0.701327
1850.0,0.700222
1855.0,0.699723
1860.0,0.702571
1865.0,0.701188
1870.0,0.698612
1875.0,0.696887
1880.0,0.694445
1885.0,0.687744
1890.0,0.685034
1895.0,0.680876
1900.0,0.67815
1905.0,0.665787
1910.0,0.659683
1915.0,0.664224
1920.0,0.671257
1925.0,0.670294
1930.0,0.673721
1935.0,0.676657
1940.0,0.678147
1945.0,0.680171
1950.0,0.68114
1955.0,0.683547
1960.0,0.684278
1965.0,0.684826
1970.0,0.685976
1975.0,0.687341
1980.0,0.689217
1985.0,0.688565
1990.0,0.690732
1995.0,0.692152
2000.0,0.692694
2005.0,0.693918
2010.0,0.696288
2015.0,0.697366
2020.0,0.69861
2025.0,0.699471
2030.0,0.700616
2035.0,0.700531
2040.0,0.700312
2045.0,0.702616
2050.0,0.701908
2055.0,0.704975
2060.0,0.703284
2065.0,0.705431
2070.0,0.702819
2075.0,0.701898
2080.0,0.704175
2085.0,0.70547
2090.0,0.704206
2095.0,0.702406
2100.0,0.701147
2105.0,0.700711
2110.0,0.699699
2115.0,0.700511
2120.0,0.698437
2125.0,0.699819
2130.0,0.700251
2135.0,0.698474
2140.0,0.699017
2145.0,0.700367
2150.0,0.699782
2155.0,0.698839
2160.0,0.698254
2165.0,0.697112
2170.0,0.69257
2175.0,0.690197
2180.0,0.683945
2185.0,0.677274
2190.0,0.669687
2195.0,0.660716
2200.0,0.652859
2205.0,0.645403
2210.0,0.639676
2215.0,0.637155
2220.0,0.635308
2225.0,0.637204
2230.0,0.642042
2235.0,0.649603
2240.0,0.654154
2245.0,0.658869
2250.0,0.659652
2255.0,0.661678
2260.0,0.665551
2265.0,0.669275
2270.0,0.674322
2275.0,0.676093
2280.0,0.679195
2285.0,0.682628
2290.0,0.682394
2295.0,0.682813
2300.0,0.68045
2305.0,0.678931
2310.0,0.67345
2315.0,0.667919
2320.0,0.663045
2325.0,0.658383
2330.0,0.654454
2335.0,0.646121
2340.0,0.641666
2345.0,0.636071
2350.0,0.634258
2355.0,0.633865
2360.0,0.634409
2365.0,0.638516
2370.0,0.639453
2375.0,0.643021
2380.0,0.644831
2385.0,0.644174
2390.0,0.645494
2395.0,0.646395
2400.0,0.645708
2405.0,0.64504
2410.0,0.643978
2415.0,0.642399
2420.0,0.638535
2425.0,0.633328
2430.0,0.630153
2435.0,0.62806
2440.0,0.625093
2445.0,0.624778
2450.0,0.623593
2455.0,0.624053
2460.0,0.625624
2465.0,0.626624
2470.0,0.626576
2475.0,0.626166
2480.0,0.626017
2485.0,0.626853
2490.0,0.627597
2495.0,0.628542
2500.0,0.627368
2505.0,0.632846
2510.0,0.630065
2515.0,0.632615
2520.0,0.633366
2525.15,0.634807
2530.08,0.63419
2535.03,0.636688
2540.0,0.636806
2544.99,0.633946
2549.99,0.635952
2552.5,0.635455
2553.76,0.635492
2556.28,0.635986
2558.8,0.634739
2561.33,0.63255
2563.86,0.634139
2565.13,0.634158
2566.4,0.63392
2567.67,0.633418
2568.95,0.632586
2570.22,0.632449
2571.5,0.632454
2572.77,0.631646
2574.05,0.630161
2575.33,0.63092
2576.61,0.630932
2577.89,0.629676
2579.17,0.629953
2580.46,0.630045
2581.74,0.628639
2583.03,0.62814
2584.31,0.627737
2585.6,0.62842
2586.89,0.628875
2588.19,0.627822
2589.48,0.627438
2590.77,0.627472
2592.07,0.626828
2593.36,0.625184
2594.66,0.621946
2595.96,0.621992
2597.26,0.626561
2598.56,0.627204
2599.87,0.625389
2601.17,0.623788
2602.48,0.622348
2603.78,0.621953
2605.09,0.621543
2606.4,0.621208
2607.71,0.622493
2609.03,0.622563
2610.34,0.621953
2611.66,0.621697
2612.97,0.620931
2614.29,0.620393
2615.61,0.620186
2616.93,0.619011
2618.25,0.619621
2619.57,0.621239
2620.9,0.619602
2622.22,0.620263
2623.55,0.621734
2624.88,0.620663
2626.21,0.619416
2627.54,0.618852
2628.87,0.620542
2630.21,0.619696
2631.54,0.618008
2632.88,0.619788
2634.21,0.619848
2635.55,0.619438
2636.89,0.619706
2638.24,0.619433
2639.58,0.618565
2640.92,0.618122
2642.27,0.617741
2643.62,0.617632
2644.97,0.617531
2646.32,0.616863
2647.67,0.616791
2649.02,0.616687
2650.38,0.61587
2651.73,0.615002
2653.09,0.614177
2654.45,0.613755
2655.81,0.612962
2657.17,0.612096
2658.53,0.611272
2659.89,0.609781
2661.26,0.608923
2662.63,0.608045
2664.0,0.606399
2665.36,0.60364
2666.74,0.601981
2668.11,0.602104
2669.48,0.600349
2670.86,0.59522
2672.23,0.592978
2673.61,0.592117
2674.99,0.587237
2676.37,0.582673
2677.76,0.57955
2679.14,0.577445
2680.52,0.574058
2681.91,0.571415
2683.3,0.567497
2684.69,0.562626
2686.08,0.557167
2687.47,0.551279
2688.87,0.545266
2690.26,0.538519
2691.66,0.53083
2693.06,0.523008
2694.46,0.514369
2695.86,0.50681
2697.26,0.499574
2698.66,0.491868
2700.07,0.483477
2701.48,0.475873
2702.89,0.468919
2704.3,0.4617
2705.71,0.453359
2707.12,0.444949
2708.53,0.435396
2709.95,0.425204
2711.37,0.414267
2712.79,0.402317
2714.21,0.390088
2715.63,0.376716
2717.05,0.361873
2718.48,0.346991
2719.9,0.332095
2721.33,0.316244
2722.76,0.299894
2724.19,0.28521
2725.62,0.270685
2727.06,0.256227
2728.49,0.242906
2729.93,0.231132
2731.37,0.220033
2732.81,0.209887
2734.25,0.201031
2735.69,0.192799
2737.14,0.184941
2738.58,0.178127
2740.03,0.172232
2741.48,0.166477
2742.93,0.161025
2744.38,0.156101
2745.83,0.151168
2747.29,0.146941
2748.75,0.143117
2750.2,0.139551
2751.66,0.135949
2753.13,0.132178
2754.59,0.129009
2756.05,0.126451
2757.52,0.124542
2758.99,0.122941
2760.46,0.121771
2761.93,0.121149
2763.4,0.12099
2764.87,0.121889
2766.35,0.122986
2767.82,0.12425
2769.3,0.125709
2770.78,0.127536
2772.26,0.129333
2773.75,0.13163
2775.23,0.134574
2776.72,0.137661
2778.21,0.141441
2779.7,0.14582
2781.19,0.150179
2782.68,0.154811
2784.18,0.159641
2785.67,0.164263
2787.17,0.168878
2788.67,0.174134
2790.17,0.179191
2791.67,0.183511
2793.18,0.188216
2794.68,0.193161
2796.19,0.198147
2797.7,0.203307
2799.21,0.207787
2800.72,0.211821
2802.24,0.216074
2803.75,0.220313
2805.27,0.224171
2806.79,0.227971
2808.31,0.23167
2809.83,0.235446
2811.35,0.239161
2812.88,0.24252
2814.41,0.245616
2815.93,0.249563
2817.46,0.25352
2819.0,0.25696
2820.53,0.26051
2822.07,0.263926
2823.6,0.267111
2825.14,0.270094
2826.68,0.27338
2828.22,0.276655
2829.77,0.279997
2831.31,0.283678
2832.86,0.286963
2834.41,0.290251
2835.96,0.29348
2837.51,0.296484
2839.07,0.299628
2840.62,0.302828
2842.18,0.30577
2843.74,0.308583
2845.3,0.311585
2846.86,0.314474
2848.43,0.317145
2849.99,0.319219
2851.56,0.321242
2853.13,0.323525
2854.7,0.325491
2856.27,0.327325
2857.85,0.3291
2859.42,0.330711
2861.0,0.33242
2862.58,0.333975
2864.16,0.33487
2865.75,0.335646
2867.33,0.336936
2868.92,0.3382
2870.51,0.339133
2872.1,0.339398
2873.69,0.340035
2875.28,0.34069
2876.88,0.341192
2878.48,0.341559
2880.07,0.34173
2881.68,0.341739
2883.28,0.34178
2884.88,0.341889
2886.49,0.34205
2888.1,0.341964
2889.71,0.342036
2891.32,0.341961
2892.93,0.342021
2894.55,0.341915
2896.16,0.341829
2897.78,0.341657
2899.4,0.341153
2901.03,0.340792
2902.65,0.340616
2904.28,0.340117
2905.91,0.33976
2907.54,0.339786
2909.17,0.339683
2910.8,0.339379
2912.44,0.339261
2914.07,0.339135
2915.71,0.338988
2917.35,0.338711
2918.99,0.338709
2920.64,0.338807
2922.29,0.338865
2923.93,0.338812
2925.58,0.338747
2927.24,0.33873
2928.89,0.338979
2930.55,0.3392
2932.2,0.339328
2933.86,0.339357
2935.52,0.339637
2937.19,0.340095
2938.85,0.340433
2940.52,0.3409
2942.19,0.341146
2943.86,0.341898
2945.53,0.342337
2947.21,0.342484
2948.88,0.343015
2950.56,0.343432
2952.24,0.343895
2953.92,0.344312
2955.61,0.344809
2957.29,0.345262
2958.98,0.345954
2960.67,0.346581
2962.36,0.347292
2964.06,0.348076
2965.75,0.348741
2967.45,0.349571
2969.15,0.350053
2970.85,0.35047
2972.55,0.351331
2974.26,0.352148
2975.97,0.352821
2977.68,0.353248
2979.39,0.353667
2981.1,0.354162
2982.82,0.354639
2984.53,0.354777
2986.25,0.355107
2987.97,0.355534
2989.7,0.355922
2991.42,0.356293
2993.15,0.356433
2994.88,0.356554
2996.61,0.35672
2998.34,0.357149
3000.08,0.357614
3001.82,0.357795
3003.55,0.357863
3005.3,0.358005
3007.04,0.358422
3008.78,0.358545
3010.53,0.358731
3012.28,0.359095
3014.03,0.359411
3015.79,0.359539
3017.54,0.359577
3019.3,0.359948
3021.06,0.360792
3022.82,0.361624
3024.58,0.36195
3026.35,0.362116
3028.12,0.36268
3029.89,0.363343
3031.66,0.363792
3033.43,0.364361
3035.21,0.364903
3036.99,0.365277
3038.77,0.36582
3040.55,0.366844
3042.33,0.367758
3044.12,0.368199
3045.91,0.368802
3047.7,0.36982
3049.49,0.370775
3051.29,0.371804
3053.08,0.372718
3054.88,0.373538
3056.68,0.374485
3058.49,0.375447
3060.29,0.376518
3062.1,0.377509
3063.91,0.378355
3065.72,0.379614
3067.54,0.380716
3069.35,0.381786
3071.17,0.383158
3072.99,0.384624
3074.81,0.385712
3076.64,0.386739
3078.47,0.387981
3080.29,0.389247
3082.13,0.390464
3083.96,0.391643
3085.79,0.392839
3087.63,0.394124
3089.47,0.395631
3091.31,0.397102
3093.16,0.398315
3095.01,0.399499
3096.85,0.400697
3098.71,0.402178
3100.56,0.403595
3102.41,0.404919
3104.27,0.406248
3106.13,0.407716
3107.99,0.409151
3109.86,0.41046
3111.73,0.411615
3113.59,0.412842
3115.47,0.414033
3117.34,0.415145
3119.21,0.416399
3121.09,0.417665
3122.97,0.41902
3124.86,0.420184
3126.74,0.42145
3128.63,0.422574
3130.52,0.423721
3132.41,0.424546
3134.3,0.425679
3136.2,0.426875
3138.1,0.427919
3140.0,0.428944
3141.9,0.430092
3143.81,0.431141
3145.71,0.432223
3147.62,0.43334
3149.54,0.4344
3151.45,0.435225
3153.37,0.436223
3155.29,0.437224
3157.21,0.438251
3159.13,0.439269
3161.06,0.440156
3162.99,0.441152
3164.92,0.442116
3166.85,0.44331
3168.79,0.444419
3170.72,0.445306
3172.67,0.446128
3174.61,0.447242
3176.55,0.4484
3178.5,0.449408
3180.45,0.450198
3182.4,0.450912
3184.36,0.452118
3186.32,0.453044
3188.27,0.45401
3190.24,0.455185
3192.2,0.4562
3194.17,0.456979
3196.14,0.457827
3198.11,0.458618
3200.08,0.45966
3202.06,0.460863
3204.04,0.461801
3206.02,0.462681
3208.0,0.463515
3209.99,0.464379
3211.98,0.465292
3213.97,0.466209
3215.96,0.467233
3217.96,0.468241
3219.96,0.469073
3221.96,0.469813
3223.96,0.470758
3225.97,0.47172
3227.98,0.472586
3229.99,0.473502
3232.0,0.474332
3234.02,0.47519
3236.04,0.475832
3238.06,0.476217
3240.08,0.476883
3242.11,0.477746
3244.14,0.478467
3246.17,0.479041
3248.2,0.479511
3250.24,0.480034
3252.28,0.480229
3254.32,0.480603
3256.37,0.480902
3258.41,0.481172
3260.46,0.481558
3262.51,0.481859
3264.57,0.48213
3266.63,0.482448
3268.69,0.482807
3270.75,0.483287
3272.81,0.483752
3274.88,0.484205
3276.95,0.484627
3279.02,0.485066
3281.1,0.485551
3283.18,0.486086
3285.26,0.486694
3287.34,0.487169
3289.43,0.487584
3291.51,0.488194
3293.61,0.48897
3295.7,0.489537
3297.8,0.490118
3299.9,0.490602
3302.0,0.491142
3304.1,0.491801
3306.21,0.492194
3308.32,0.492743
3310.43,0.493341
3312.55,0.493935
3314.66,0.494352
3316.79,0.495034
3318.91,0.496146
3321.03,0.496999
3323.16,0.497653
3325.29,0.498504
3327.43,0.499584
3329.57,0.500539
3331.71,0.501337
3333.85,0.5024
3335.99,0.503367
3338.14,0.504115
3340.29,0.504898
3342.45,0.505819
3344.6,0.506731
3346.76,0.507495
3348.92,0.508462
3351.09,0.509508
3353.26,0.510391
3355.43,0.511184
3357.6,0.512021
3359.78,0.512896
3361.96,0.513836
3364.14,0.514781
3366.32,0.515768
3368.51,0.516727
3370.7,0.517448
3372.89,0.518143
3375.09,0.51896
3377.29,0.519994
3379.49,0.521065
3381.69,0.52215
3383.9,0.523218
3386.11,0.524462
3388.32,0.525796
3390.54,0.526649
3392.76,0.527443
3394.98,0.528289
3397.21,0.528781
3399.43,0.52941
3401.66,0.530355
3403.9,0.530888
3406.13,0.531252
3408.37,0.531795
3410.61,0.532282
3412.86,0.533186
3415.11,0.5341
3417.36,0.535103
3419.61,0.536407
3421.87,0.537943
3424.13,0.539551
3426.39,0.541398
3428.66,0.54298
3430.93,0.544289
3433.2,0.54549
3435.48,0.546459
3437.76,0.54747
3440.04,0.548661
3442.32,0.549406
3444.61,0.550112
3446.9,0.550908
3449.19,0.551663
3451.49,0.552528
3453.79,0.553384
3456.09,0.554373
3458.4,0.55534
3460.7,0.556087
3463.02,0.556772
3465.33,0.557585
3467.65,0.55826
3469.97,0.558932
3472.29,0.559784
3474.62,0.560331
3476.95,0.560931
3479.29,0.561679
3481.62,0.562327
3483.96,0.562928
3486.3,0.563581
3488.65,0.564172
3491.0,0.564726
3493.35,0.56517
3495.71,0.565662
3498.07,0.5662
3500.43,0.566552
3502.79,0.567412
3505.16,0.568374
3507.53,0.569269
3509.91,0.570236
3512.29,0.571032
3514.67,0.571586
3517.05,0.572001
3519.44,0.572363
3521.83,0.572895
3524.23,0.573534
3526.62,0.574166
3529.02,0.57468
3531.43,0.575314
3533.83,0.57595
3536.24,0.576551
3538.66,0.577327
3541.08,0.578161
3543.5,0.579099
3545.92,0.579975
3548.35,0.580888
3550.78,0.58181
3553.21,0.582583
3555.65,0.583517
3558.09,0.584657
3560.53,0.585588
3562.98,0.586637
3565.43,0.587883
3567.88,0.589103
3570.34,0.590212
3572.8,0.591411
3575.27,0.592672
3577.73,0.593817
3580.2,0.594818
3582.68,0.595842
3585.16,0.596752
3587.64,0.597786
3590.12,0.598888
3592.61,0.59992
3595.1,0.600863
3597.6,0.601825
3600.09,0.602767
3602.6,0.603823
3605.1,0.604776
3607.61,0.605839
3610.12,0.606611
3612.64,0.607496
3615.16,0.608448
3617.68,0.609176
3620.21,0.609933
3622.74,0.610698
3625.27,0.611474
3627.81,0.612332
3630.35,0.613056
3632.89,0.613591
3635.44,0.614148
3637.99,0.614821
3640.54,0.615378
3643.1,0.616058
3645.66,0.616665
3648.23,0.617116
3650.8,0.617598
3653.37,0.618129
3655.95,0.618517
3658.53,0.619004
3661.11,0.619576
3663.7,0.620101
3666.29,0.620576
3668.89,0.620986
3671.48,0.621423
3674.09,0.621881
3676.69,0.622182
3679.3,0.622679
3681.91,0.623385
3684.53,0.623921
3687.15,0.624362
3689.78,0.624974
3692.4,0.625468
3695.04,0.625833
3697.67,0.626358
3700.31,0.626884
3702.95,0.627412
3705.6,0.627916
3708.25,0.628458
3710.91,0.62916
3713.56,0.629755
3716.23,0.630272
3718.89,0.630735
3721.56,0.631412
3724.23,0.632068
3726.91,0.632733
3729.59,0.633285
3732.28,0.633773
3734.97,0.63432
3737.66,0.635026
3740.36,0.635665
3743.06,0.636497
3745.76,0.63702
3748.47,0.637674
3751.18,0.63832
3753.9,0.638971
3756.62,0.639374
3759.34,0.639974
3762.07,0.640676
3764.8,0.641211
3767.54,0.641585
3770.28,0.642021
3773.02,0.642515
3775.77,0.64301
3778.52,0.643441
3781.28,0.643854
3784.04,0.644073
3786.8,0.644247
3789.57,0.644454
3792.34,0.644734
3795.12,0.645013
3797.9,0.64504
3800.69,0.645078
3803.47,0.64523
3806.27,0.645392
3809.06,0.645689
3811.86,0.645988
3814.67,0.646111
3817.48,0.646414
3820.29,0.647058
3823.11,0.647451
3825.93,0.647912
3828.76,0.648565
3831.59,0.649108
3834.42,0.649501
3837.26,0.649865
3840.1,0.650393
3842.95,0.651051
3845.8,0.651454
3848.65,0.651716
3851.51,0.652052
3854.38,0.652257
3857.24,0.652454
3860.12,0.652546
3862.99,0.65237
3865.87,0.652102
3868.76,0.65196
3871.65,0.65182
3874.54,0.65183
3877.44,0.651757
3880.34,0.651675
3883.25,0.651671
3886.16,0.651543
3889.07,0.651516
3891.99,0.651528
3894.92,0.651413
3897.85,0.651374
3900.78,0.651509
3903.72,0.651376
3906.66,0.65108
3909.6,0.650721
3912.55,0.650248
3915.51,0.64973
3918.47,0.649161
3921.43,0.648461
3924.4,0.648013
3927.38,0.647589
3930.35,0.647217
3933.33,0.646877
3936.32,0.646774
3939.31,0.64647
3942.31,0.646192
3945.31,0.64584
3948.31,0.645611
3951.32,0.645363
3954.34,0.645098
3957.35,0.644842
3960.38,0.644705
3963.41,0.644604
3966.44,0.644447
3969.48,0.644468
3972.52,0.644512
3975.56,0.644748
3978.61,0.645199
3981.67,0.645785
3984.73,0.646475
3987.8,0.647478
3990.87,0.648572
3993.94,0.649725
3997.02,0.650921
4000.1,0.651847
4003.19,0.652741
4006.29,0.653655
4009.39,0.654689
4012.49,0.655577
4015.6,0.656346
4018.71,0.65677
4021.83,0.657296
4024.95,0.657694
4028.08,0.658101
4031.21,0.658518
4034.35,0.658919
4037.49,0.659338
4040.64,0.659596
4043.79,0.659724
4046.94,0.660035
4050.11,0.660131
4053.27,0.660247
4056.44,0.660288
4059.62,0.660298
4062.8,0.660281
4065.99,0.660406
4069.18,0.660331
4072.38,0.660194
4075.58,0.660013
4078.78,0.659895
4082.0,0.659791
4085.21,0.659796
4088.43,0.659806
4091.66,0.659589
4094.89,0.659244
4098.13,0.659058
4101.37,0.658846
4104.62,0.658656
4107.87,0.658436
4111.13,0.658268
4114.39,0.657981
4117.66,0.657862
4120.93,0.657756
4124.21,0.657549
4127.5,0.657204
4130.79,0.656891
4134.08,0.656544
4137.38,0.656331
4140.68,0.656052
4143.99,0.655786
4147.31,0.65562
4150.63,0.655439
4153.95,0.655109
4157.29,0.654634
4160.62,0.654272
4163.96,0.654128
4167.31,0.653872
4170.66,0.65351
4174.02,0.653221
4177.39,0.653103
4180.75,0.652772
4184.13,0.652478
4187.51,0.652189
4190.89,0.651851
4194.28,0.651581
4197.68,0.651321
4201.08,0.651022
4204.49,0.650844
4207.9,0.650629
4211.32,0.650574
4214.74,0.650499
4218.17,0.650332
4221.61,0.650038
4225.05,0.649802
4228.5,0.649354
4231.95,0.648601
4235.4,0.647767
4238.87,0.646819
4242.34,0.645414
4245.81,0.643764
4249.29,0.641739
4252.78,0.639458
4256.27,0.637136
4259.77,0.634354
4263.27,0.631952
4266.78,0.631053
4270.29,0.631658
4273.81,0.633375
4277.34,0.635361
4280.87,0.63737
4284.41,0.639231
4287.95,0.64082
4291.5,0.64186
4295.06,0.642687
4298.62,0.643164
4302.19,0.643528
4305.76,0.643793
4309.34,0.644078
4312.92,0.644218
4316.52,0.644239
4320.11,0.644249
4323.72,0.644165
4327.32,0.64415
4330.94,0.644035
4334.56,0.643634
4338.19,0.643306
4341.82,0.643029
4345.46,0.642624
4349.11,0.642221
4352.76,0.641905
4356.42,0.641626
4360.08,0.641112
4363.75,0.640584
4367.43,0.640196
4371.11,0.6396
4374.8,0.638906
4378.49,0.638163
4382.19,0.637529
4385.9,0.636755
4389.61,0.63588
4393.33,0.635173
4397.06,0.634428
4400.79,0.633476
4404.53,0.632632
4408.28,0.631798
4412.03,0.631077
4415.79,0.630218
4419.55,0.629302
4423.32,0.628362
4427.1,0.627689
4430.88,0.627072
4434.68,0.626095
4438.47,0.625254
4442.28,0.624306
4446.08,0.623385
4449.9,0.622761
4453.72,0.621914
4457.55,0.621056
4461.39,0.620178
4465.23,0.619253
4469.08,0.618457
4472.94,0.617808
4476.8,0.617377
4480.67,0.617073
4484.55,0.616841
4488.43,0.616612
4492.32,0.616395
4496.21,0.616366
4500.12,0.616304
4504.03,0.616299
4507.94,0.616376
4511.87,0.616644
4515.8,0.616931
4519.73,0.617239
4523.68,0.617374
4527.63,0.617577
4531.59,0.617615
4535.55,0.617531
4539.52,0.617391
4543.5,0.617275
4547.49,0.617119
4551.48,0.617013
4555.48,0.616714
4559.49,0.616419
4563.5,0.615993
4567.52,0.615416
4571.55,0.614893
4575.58,0.614273
4579.63,0.613598
4583.67,0.612897
4587.73,0.61214
4591.79,0.611358
4595.86,0.610707
4599.94,0.610042
4604.03,0.609287
4608.12,0.608446
4612.22,0.607484
4616.33,0.606529
4620.44,0.605608
4624.56,0.604527
4628.69,0.603537
4632.83,0.602599
4636.97,0.601521
4641.12,0.600373
4645.28,0.599206
4649.45,0.598119
4653.62,0.596942
4657.8,0.595717
4661.99,0.594454
4666.19,0.593289
4670.39,0.592146
4674.6,0.590902
4678.82,0.589721
4683.05,0.588607
4687.28,0.587546
4691.52,0.586733
4695.77,0.586191
4700.03,0.585834
4704.3,0.585462
4708.57,0.585122
4712.85,0.584725
4717.14,0.584365
4721.43,0.583907
4725.74,0.583237
4730.05,0.582456
4734.37,0.581829
4738.7,0.580898
4743.03,0.580078
4747.38,0.579239
4751.73,0.578255
4756.09,0.577327
4760.45,0.576466
4764.83,0.575468
4769.21,0.574405
4773.6,0.573363
4778.0,0.572461
4782.41,0.57141
4786.83,0.570226
4791.25,0.569204
4795.68,0.568317
4800.13,0.567174
4804.57,0.566077
4809.03,0.565148
4813.5,0.56422
4817.97,0.563176
4822.45,0.562091
4826.94,0.560907
4831.44,0.55974
4835.95,0.558665
4840.46,0.557503
4844.99,0.55622
4849.52,0.554995
4854.06,0.553572
4858.61,0.552063
4863.17,0.550394
4867.73,0.548543
4872.31,0.546623
4876.89,0.544502
4881.48,0.542122
4886.08,0.539467
4890.69,0.536542
4895.31,0.533275
4899.94,0.529367
4904.57,0.525186
4909.22,0.520747
4913.87,0.51617
4918.53,0.511517
4923.21,0.507222
4927.88,0.503302
4932.57,0.499917
4937.27,0.497204
4941.98,0.494885
4946.69,0.4927
4951.42,0.490571
4956.15,0.488182
4960.9,0.485385
4965.65,0.482245
4970.41,0.478539
4975.18,0.474346
4979.96,0.470011
4984.75,0.465782
4989.54,0.462037
4994.35,0.458758
4999.17,0.456103
5003.99,0.45376
5008.83,0.451925
5013.67,0.450497
5018.52,0.449282
5023.39,0.448402
5028.26,0.447958
5033.14,0.447609
5038.03,0.447385
5042.93,0.447083
5047.84,0.446724
5052.76,0.446304
5057.69,0.446008
5062.63,0.445733
5067.58,0.445489
5072.54,0.445456
5077.51,0.445629
5082.49,0.446107
5087.47,0.447025
5092.47,0.448269
5097.48,0.449444
5102.5,0.450276
5107.52,0.450943
5112.56,0.451402
5117.61,0.451455
5122.66,0.451083
5127.73,0.450563
5132.81,0.449895
5137.89,0.449186
5142.99,0.448479
5148.1,0.447807
5153.22,0.447291
5158.34,0.446844
5163.48,0.446005
5168.63,0.445101
5173.79,0.444224
5178.96,0.44345
5184.13,0.442454
5189.32,0.441395
5194.52,0.440204
5199.73,0.438721
5204.96,0.436886
5210.19,0.434685
5215.43,0.431731
5220.68,0.428546
5225.94,0.424618
5231.22,0.419796
5236.5,0.414489
5241.79,0.408746
5247.1,0.402592
5252.42,0.396364
5257.74,0.390163
5263.08,0.384227
5268.43,0.378488
5273.79,0.372868
5279.16,0.367655
5284.54,0.362808
5289.93,0.358249
5295.34,0.354019
5300.75,0.350304
5306.18,0.346762
5311.61,0.343541
5317.06,0.340734
5322.52,0.33827
5327.99,0.336085
5333.47,0.334077
5338.96,0.332278
5344.47,0.330564
5349.98,0.329078
5355.51,0.328521
5361.05,0.328777
5366.6,0.329573
5372.16,0.331193
5377.73,0.33366
5383.32,0.337105
5388.91,0.341274
5394.52,0.345978
5400.14,0.350989
5405.77,0.356054
5411.41,0.360677
5417.07,0.364858
5422.74,0.368125
5428.41,0.371491
5434.1,0.374365
5439.81,0.375621
5445.52,0.376451
5451.25,0.376841
5456.98,0.376704
5462.73,0.375703
5468.5,0.374355
5474.27,0.373046
5480.06,0.371023
5485.86,0.369007
5491.67,0.366832
5497.49,0.364424
5503.33,0.362123
5509.18,0.359982
5515.04,0.358024
5520.91,0.35583
5526.8,0.353798
5532.69,0.351924
5538.61,0.350077
5544.53,0.348298
5550.47,0.346764
5556.41,0.34546
5562.38,0.344597
5568.35,0.343729
5574.34,0.342798
5580.34,0.341925
5586.35,0.342161
5592.38,0.342754
5598.42,0.342996
5604.47,0.343459
5610.54,0.344524
5616.61,0.345588
5622.71,0.346902
5628.81,0.348479
5634.93,0.350277
5641.06,0.352083
5647.21,0.354716
5653.36,0.358077
5659.54,0.360472
5665.72,0.363471
5671.92,0.365849
5678.13,0.367744
5684.36,0.370182
5690.6,0.37191
5696.85,0.373089
5703.12,0.374531
5709.4,0.374927
5715.69,0.375623
5722.0,0.37653
5728.33,0.376831
5734.66,0.376699
5741.01,0.3764
5747.38,0.375869
5753.76,0.375267
5760.15,0.374485
5766.56,0.372441
5772.98,0.371703
5779.41,0.371433
5785.86,0.369596
5792.33,0.367908
5798.81,0.366054
5805.3,0.364366
5811.81,0.362625
5818.33,0.360411
5824.87,0.358046
5831.42,0.356787
5837.99,0.35469
5844.57,0.35218
5851.17,0.349339
5857.78,0.346347
5864.41,0.343008
5871.05,0.339774
5877.7,0.336198
5884.38,0.331969
5891.06,0.328938
5897.76,0.32488
5904.48,0.32137
5911.21,0.318452
5917.96,0.315231
5924.73,0.312933
5931.5,0.310929
5938.3,0.309143
5945.11,0.309102
5951.93,0.308998
5958.78,0.308309
5965.63,0.308239
5972.51,0.308357
5979.39,0.309406
5986.3,0.309591
5993.22,0.309835
6000.16,0.31065
6007.11,0.310925
6014.08,0.310505
6021.06,0.310392
6028.06,0.310131
6035.08,0.309239
6042.12,0.307976
6049.17,0.306052
6056.23,0.305639
6063.32,0.305815
6070.42,0.303785
6077.53,0.302336
6084.67,0.301466
6091.82,0.299966
6098.98,0.297928
6106.17,0.296002
6113.37,0.293731
6120.58,0.292113
6127.82,0.290731
6135.07,0.288655
6142.34,0.286538
6149.63,0.284421
6156.93,0.282116
6164.25,0.279789
6171.59,0.27787
6178.95,0.275922
6186.32,0.273945
6193.71,0.273147
6201.12,0.272934
6208.54,0.272565
6215.99,0.272951
6223.45,0.273846
6230.93,0.275235
6238.43,0.27673
6245.95,0.278658
6253.48,0.280935
6261.03,0.283524
6268.6,0.286229
6276.19,0.289241
6283.8,0.292337
6291.43,0.295597
6299.07,0.298866
6306.73,0.302175
6314.42,0.305352
6322.12,0.30854
6329.84,0.311621
6337.57,0.314537
6345.33,0.316731
6353.11,0.319848
6360.9,0.322561
6368.72,0.323887
6376.55,0.325715
6384.4,0.32787
6392.27,0.32909
6400.17,0.330291
6408.08,0.33074
6416.01,0.330313
6423.96,0.331333
6431.93,0.331432
6439.92,0.330236
6447.93,0.329035
6455.96,0.327101
6464.01,0.325003
6472.08,0.322445
6480.17,0.319496
6488.28,0.316133
6496.41,0.3122
6504.56,0.308342
6512.73,0.304077
6520.92,0.298963
6529.14,0.29369
6537.37,0.288771
6545.63,0.283973
6553.9,0.279787
6562.2,0.276474
6570.51,0.273853
6578.85,0.27183
6587.21,0.270776
6595.59,0.269252
6603.99,0.267994
6612.42,0.266501
6620.86,0.264927
6629.33,0.263215
6637.82,0.261286
6646.33,0.259687
6654.86,0.258246
6663.41,0.255933
6671.99,0.253455
6680.59,0.250776
6689.21,0.248232
6697.85,0.245768
6706.51,0.243345
6715.2,0.241184
6723.91,0.239545
6732.64,0.238025
6741.4,0.236685
6750.18,0.235267
6758.98,0.234033
6767.8,0.232839
6776.65,0.23165
6785.52,0.23023
6794.41,0.228588
6803.33,0.226932
6812.27,0.225174
6821.23,0.223178
6830.22,0.221082
6839.23,0.218888
6848.26,0.216665
6857.32,0.214112
6866.4,0.211479
6875.51,0.208841
6884.64,0.206172
6893.8,0.203413
6902.98,0.200611
6912.18,0.197612
6921.41,0.194581
6930.66,0.191338
6939.94,0.188182
6949.24,0.184944
6958.57,0.181732
6967.92,0.17846
6977.3,0.175658
6986.7,0.173233
6996.13,0.171154
7005.59,0.169266
7015.07,0.167899
7024.57,0.166807
7034.1,0.166166
7043.66,0.165572
7053.25,0.165211
7062.85,0.164991
7072.49,0.164931
7082.15,0.165001
7091.84,0.165461
7101.55,0.166206
7111.3,0.167267
7121.06,0.168596
7130.86,0.170151
7140.68,0.171571
7150.53,0.172934
7160.41,0.174265
7170.31,0.175398
7180.24,0.176394
7190.2,0.177348
7200.19,0.177915
7210.2,0.178231
7220.24,0.178219
7230.31,0.177905
7240.41,0.177151
7250.54,0.176235
7260.69,0.174952
7270.88,0.173406
7281.09,0.171726
7291.33,0.170154
7301.6,0.16856
7311.9,0.167135
7322.22,0.165606
7332.58,0.164099
7342.97,0.162638
7353.38,0.161331
7363.83,0.160034
7374.3,0.158763
7384.81,0.157321
7395.34,0.15593
7405.91,0.154341
7416.5,0.152815
7427.13,0.15119
7437.78,0.149473
7448.47,0.147667
7459.19,0.145859
7469.94,0.143988
7480.71,0.142285
7491.52,0.140638
7502.37,0.139117
7513.24,0.13748
7524.14,0.135828
7535.08,0.134196
7546.05,0.132506
7557.05,0.130538
7568.08,0.128585
7579.15,0.126485
7590.24,0.124498
7601.37,0.122482
7612.53,0.120717
7623.73,0.119126
7634.96,0.117793
7646.22,0.116553
7657.51,0.115553
7668.84,0.114526
7680.2,0.113414
7691.59,0.112057
7703.02,0.110728
7714.49,0.109303
7725.98,0.108013
7737.52,0.106668
7749.08,0.105366
7760.68,0.104133
7772.32,0.102892
7783.99,0.101438
7795.69,0.100008
7807.43,0.098566
7819.21,0.097445
7831.02,0.096685
7842.87,0.096287
7854.75,0.096198
7866.67,0.096538
7878.62,0.097028
7890.62,0.09778
7902.64,0.098817
7914.71,0.100196
7926.81,0.101623
7938.95,0.103222
7951.13,0.105021
7963.34,0.107135
7975.59,0.109248
7987.88,0.111087
8000.21,0.112582
8012.57,0.113935
8024.98,0.115148
8037.42,0.11638
8049.9,0.117684
8062.42,0.119271
8074.98,0.121166
8087.57,0.123211
8100.21,0.125205
8112.89,0.127476
8125.6,0.129829
8138.36,0.132339
8151.16,0.134869
8163.99,0.137234
8176.87,0.139074
8189.79,0.140241
8202.75,0.140752
8215.75,0.140694
8228.79,0.14
8241.87,0.138729
8254.99,0.13701
8268.16,0.135095
8281.37,0.133142
8294.62,0.131269
8307.91,0.129386
8321.24,0.127772
8334.62,0.126393
8348.04,0.125484
8361.51,0.124734
8375.02,0.124185
8388.57,0.123777
8402.16,0.123661
8415.8,0.123712
8429.49,0.123987
8443.22,0.124235
8456.99,0.12465
8470.81,0.125164
8484.67,0.125684
8498.58,0.126063
8512.54,0.126338
8526.54,0.126369
8540.58,0.126094
8554.68,0.125258
8568.82,0.123575
8583.0,0.120773
8597.24,0.116956
8611.52,0.112671
8625.85,0.109838
8640.23,0.110082
8654.65,0.113469
8669.12,0.118031
8683.64,0.121945
8698.21,0.124498
8712.83,0.126114
8727.5,0.126945
8742.22,0.127196
8756.99,0.127078
8771.8,0.12683
8786.67,0.126311
8801.59,0.12574
8816.56,0.12499
8831.58,0.124079
8846.65,0.123242
8861.77,0.122384
8876.94,0.121405
8892.17,0.120476
8907.45,0.119466
8922.78,0.118282
8938.16,0.117134
8953.6,0.116368
8969.09,0.115656
8984.64,0.115005
9000.23,0.114125
9015.89,0.113436
9031.59,0.112999
9047.36,0.1125
9063.17,0.111895
9079.05,0.111377
9094.97,0.110735
9110.96,0.110214
9127.0,0.109619
9143.1,0.108686
9159.25,0.107661
9175.46,0.106622
9191.73,0.105597
9208.06,0.104751
9224.44,0.103856
9240.88,0.103135
9257.38,0.102496
9273.94,0.101971
9290.56,0.101693
9307.24,0.101594
9323.98,0.101392
9340.78,0.101365
9357.64,0.101124
9374.57,0.10083
9391.55,0.100437
9408.59,0.100145
9425.7,0.099825
9442.87,0.099564
9460.1,0.099251
9477.4,0.099215
9494.75,0.099282
9512.17,0.099436
9529.66,0.099545
9547.21,0.099427
9564.83,0.09906
9582.5,0.09853
9600.25,0.097638
9618.06,0.096601
9635.94,0.095159
9653.88,0.093601
9671.89,0.09207
9689.97,0.090358
9708.12,0.088507
9726.33,0.086867
9744.62,0.085254
9762.97,0.08373
9781.39,0.082336
9799.88,0.081116
9818.44,0.079964
9837.07,0.07891
9855.77,0.077866
9874.54,0.077058
9893.39,0.076403
9912.3,0.075742
9931.29,0.075171
9950.36,0.074604
9969.49,0.073815
9988.7,0.073372
10007.98,0.073013
10027.34,0.072646
10046.77,0.0722
10066.28,0.071754
10085.87,0.071571
10105.53,0.071286
10125.26,0.070944
10145.08,0.071016
10164.97,0.070939
10184.94,0.070963
10204.99,0.07105
10225.12,0.071308
10245.33,0.07159
10265.61,0.071831
10285.98,0.072193
10306.43,0.0728
10326.96,0.073374
10347.57,0.073965
10368.27,0.074609
10389.05,0.075325
10409.91,0.075959
10430.86,0.076663
10451.88,0.077239
10473.0,0.078001
10494.2,0.078602
10515.49,0.079226
10536.86,0.079783
10558.32,0.079998
10579.87,0.079976
10601.5,0.079899
10623.23,0.07972
10645.04,0.079438
10666.94,0.078891
10688.94,0.078319
10711.02,0.077647
10733.2,0.07703
10755.47,0.07641
10777.83,0.075954
10800.28,0.075549
10822.83,0.075098
10845.47,0.07451
10868.21,0.074233
10891.04,0.073871
10913.97,0.073483
10936.99,0.073292
10960.12,0.073297
10983.34,0.073466
11006.66,0.073907
11030.07,0.074599
11053.59,0.075836
11077.21,0.077437
11100.93,0.079414
11124.75,0.081362
11148.68,0.083388
11172.71,0.085377
11196.84,0.087089
11221.07,0.088692
11245.41,0.090199
11269.86,0.091434
11294.41,0.092408
11319.07,0.092982
11343.84,0.093695
11368.72,0.094267
11393.7,0.094679
11418.8,0.095219
11444.01,0.0958
11469.33,0.096278
11494.76,0.096881
11520.3,0.097129
11545.96,0.097216
11571.73,0.09743
11597.62,0.097712
11623.62,0.097604
11649.74,0.097112
11675.98,0.096565
11702.34,0.096039
11728.81,0.094959
11755.41,0.093442
11782.13,0.091877
11808.96,0.090173
11835.92,0.088176
11863.01,0.086134
11890.22,0.083812
11917.55,0.08136
11945.01,0.078835
11972.6,0.076318
12000.31,0.074141
12028.16,0.072345
12056.13,0.070773
12084.23,0.069425
12112.46,0.068301
12140.83,0.067534
12169.33,0.06678
12197.96,0.065957
12226.73,0.064894
12255.64,0.063621
12284.68,0.062133
12313.86,0.060342
12343.18,0.058225
12372.64,0.056084
12402.24,0.05394
12431.98,0.052616
12461.86,0.051922
12491.89,0.051876
12522.07,0.05272
12552.38,0.054162
12582.85,0.056098
12613.47,0.058353
12644.23,0.060224
12675.15,0.061871
12706.21,0.063117
12737.43,0.063742
12768.81,0.063915
12800.33,0.063795
12832.02,0.063713
12863.86,0.064419
12895.86,0.066307
12928.02,0.06907
12960.34,0.072063
12992.82,0.074799
13025.46,0.077032
13058.27,0.078848
13091.25,0.079732
13124.39,0.079899
13157.7,0.07974
13191.18,0.079356
13224.83,0.078722
13258.66,0.077955
13292.65,0.077249
13326.83,0.076935
13361.17,0.076923
13395.7,0.077116
13430.4,0.077169
13465.29,0.077697
13500.35,0.07825
13535.6,0.078551
13571.03,0.078592
13606.65,0.078763
13642.46,0.078915
13678.46,0.078602
13714.64,0.077951
13751.02,0.07741
13787.59,0.07681
13824.36,0.076171
13861.32,0.075479
13898.49,0.074708
13935.85,0.073888
13973.41,0.07294
14011.17,0.07158
14049.15,0.069372
14087.32,0.066825
14125.71,0.065806
14164.3,0.06418
14203.11,0.062059
14242.13,0.059483
14281.36,0.056101
14320.81,0.052356
14360.49,0.0492
14400.38,0.047794
14440.49,0.049033
14480.82,0.051821
14521.39,0.054413
14562.18,0.056168
14603.2,0.057253
14644.45,0.057726
14685.93,0.057803
14727.66,0.057716
14769.62,0.057569
14811.81,0.057439
14854.25,0.057183
14896.94,0.056595
14939.87,0.056498
14983.05,0.056503
15026.48,0.055944
15070.16,0.055245
15114.1,0.054958
15158.29,0.054661
15202.74,0.054225
15247.46,0.05339
15292.43,0.052462
15337.68,0.051597
15383.19,0.050941
15428.97,0.050169
15475.03,0.049385
15521.36,0.048621
15567.97,0.047888
15614.87,0.047223
15662.04,0.046572
15709.5,0.045711
15757.25,0.045072
15805.29,0.044488
15853.62,0.044124
15902.26,0.043572
15951.19,0.042805
16000.42,0.042326
16049.95,0.042152
16099.8,0.041826
16149.95,0.04159
16200.42,0.041421
16251.21,0.041496
16302.31,0.041595
16353.74,0.041634
16405.49,0.041578
16457.57,0.04181
16509.98,0.042244
16562.73,0.042981
16615.82,0.043739
16669.24,0.044758
16723.02,0.045979
16777.14,0.047242
16831.61,0.048843
16886.43,0.050984
16941.62,0.053325
16997.16,0.055946
17053.08,0.05882
17109.36,0.062215
17166.01,0.065793
17223.04,0.069384
17280.45,0.072914
17338.24,0.076538
17396.43,0.080287
17455.0,0.084217
17513.97,0.088333
17573.34,0.091986
17633.11,0.095571
17693.29,0.099263
17753.89,0.102894
17814.9,0.106222
17876.33,0.108741
17938.18,0.111237
18000.47,0.113518
18063.19,0.115618
18126.35,0.117836
18189.95,0.120064
18254.0,0.122422
18318.5,0.125041
18383.46,0.127112
18448.88,0.128732
18514.77,0.13014
18581.13,0.130753
18647.97,0.130565
18715.29,0.130393
18783.1,0.130121
18851.4,0.128725
18920.2,0.12662
18989.51,0.124954
19059.32,0.123194
19129.65,0.121364
19200.5,0.119025
19271.88,0.116327
19343.79,0.11379
19416.24,0.111365
19489.23,0.109105
19562.77,0.107442
19636.88,0.105855
19711.54,0.104693
19786.78,0.104401
19862.59,0.105139
19938.98,0.106745
20015.96,0.109238
20093.55,0.112206
20171.73,0.115999
20250.53,0.119775
20329.94,0.123338
20409.98,0.127657
20490.65,0.132711
20571.96,0.137099
20653.92,0.141048
20736.54,0.143824
20819.82,0.145673
20903.77,0.146965
20988.4,0.14793
21073.72,0.146838
21159.73,0.145176
21246.46,0.143281
21333.89,0.140966
21422.04,0.137738
21510.93,0.134483
21600.56,0.132026
21690.94,0.129489
21782.08,0.126017
21873.99,0.123659
21966.67,0.122856
22060.15,0.121335
22154.42,0.119917
22249.51,0.11944
22345.41,0.11862
22442.14,0.116703
22539.72,0.114499
22638.14,0.113291
22737.43,0.112744
22837.6,0.112131
22938.65,0.110841
23040.6,0.109872
23143.46,0.110617
23247.24,0.110839
23351.96,0.110685
23457.63,0.110943
23564.25,0.110528
23671.85,0.110181
23780.44,0.109607
23890.02,0.109076
24000.63,0.107704
24112.26,0.107362
24224.93,0.107687
24338.66,0.107536
24453.47,0.106926
24569.36,0.106026
24686.36,0.104543
24804.47,0.103268
24923.73,0.102364
25044.13,0.104165
25165.71,0.108621
25288.46,0.112532
25412.43,0.114991
25537.61,0.116209
25664.04,0.11754
25791.72,0.116631
25920.68,0.117542
