Database of Origin,University of Winnipeg Spectrophotometer Facility
Sample Description,See Master Clays in HOSERLab database
Date Added,2016-12-11 20:57:06.129141

Data ID,RLA_CLAY_13         
Sample ID,ILL102
Mineral Name,Illite
Grain Size,<45um
Viewing Geometry,"30/0,30"
Resolution,"5,0.6-129"
Material Class,Phyllosilicate

Wavelength
305.0,0.103239
310.0,0.111639
315.0,0.1202
320.0,0.128339
325.0,0.134724
330.0,0.141704
335.0,0.147457
340.0,0.153956
345.0,0.159836
350.0,0.165059
355.0,0.17186
360.0,0.177714
365.0,0.183268
370.0,0.18879
375.0,0.196017
380.0,0.202279
385.0,0.210324
390.0,0.217629
395.0,0.224929
400.0,0.234736
405.0,0.238043
410.0,0.243709
415.0,0.250384
420.0,0.257044
425.0,0.262871
430.0,0.271631
435.0,0.278786
440.0,0.285916
445.0,0.291598
450.0,0.296871
455.0,0.302893
460.0,0.306497
465.0,0.310889
470.0,0.314822
475.0,0.318314
480.0,0.322976
485.0,0.327376
490.0,0.332448
495.0,0.337204
500.0,0.342825
505.0,0.349313
510.0,0.354776
515.0,0.361409
520.0,0.367751
525.0,0.374972
530.0,0.378941
535.0,0.384941
540.0,0.390034
545.0,0.394302
550.0,0.399728
555.0,0.404689
560.0,0.407415
565.0,0.412852
570.0,0.415639
575.0,0.41795
580.0,0.420615
585.0,0.42185
590.0,0.422092
595.0,0.423425
600.0,0.424738
605.0,0.425962
610.0,0.42478
615.0,0.423432
620.0,0.423391
625.0,0.422251
630.0,0.421929
635.0,0.421077
640.0,0.420343
645.0,0.420618
650.0,0.420184
655.0,0.420478
660.0,0.417335
665.0,0.417088
670.0,0.417353
675.0,0.417046
680.0,0.415787
685.0,0.414827
690.0,0.415506
695.0,0.413612
700.0,0.412147
705.0,0.411267
710.0,0.411459
715.0,0.411088
720.0,0.41168
725.0,0.41185
730.0,0.411597
735.0,0.411397
740.0,0.411897
745.0,0.411958
750.0,0.412564
755.0,0.412588
760.0,0.415564
765.0,0.417456
770.0,0.418492
775.0,0.421052
780.0,0.420448
785.0,0.423127
790.0,0.42628
795.0,0.428371
800.0,0.431222
805.0,0.432655
810.0,0.434026
815.0,0.433721
820.0,0.436579
825.0,0.437916
830.0,0.440673
835.0,0.439802
840.0,0.440864
845.0,0.441383
850.0,0.442954
855.0,0.440138
860.0,0.439493
865.0,0.44034
870.0,0.439905
875.0,0.438587
880.0,0.440721
885.0,0.438233
890.0,0.438403
895.0,0.437315
900.0,0.43828
905.0,0.437655
910.0,0.438749
915.0,0.438923
920.0,0.438092
925.0,0.439121
930.0,0.438205
935.0,0.439665
940.0,0.439482
945.0,0.44019
950.0,0.440614
955.0,0.440225
960.0,0.440471
965.0,0.441406
970.0,0.442757
975.0,0.443437
980.0,0.443819
985.0,0.444401
990.0,0.444741
995.0,0.444753
1000.0,0.445272
1005.0,0.445688
1010.0,0.446096
1015.0,0.447087
1020.0,0.446846
1025.0,0.446721
1030.0,0.446155
1035.0,0.447882
1040.0,0.447504
1045.0,0.447338
1050.0,0.447753
1055.0,0.446481
1060.0,0.446689
1065.0,0.446629
1070.0,0.446964
1075.0,0.448923
1080.0,0.447282
1085.0,0.447881
1090.0,0.449043
1095.0,0.448567
1100.0,0.449311
1105.0,0.450305
1110.0,0.45038
1115.0,0.452415
1120.0,0.453415
1125.0,0.454902
1130.0,0.453999
1135.0,0.45532
1140.0,0.456795
1145.0,0.45708
1150.0,0.45918
1155.0,0.460051
1160.0,0.461826
1165.0,0.462861
1170.0,0.465011
1175.0,0.465946
1180.0,0.466373
1185.0,0.469985
1190.0,0.472593
1195.0,0.473381
1200.0,0.475014
1205.0,0.476861
1210.0,0.478709
1215.0,0.482468
1220.0,0.483003
1225.0,0.484384
1230.0,0.487078
1235.0,0.488882
1240.0,0.489955
1245.0,0.492954
1250.0,0.494653
1255.0,0.496978
1260.0,0.498724
1265.0,0.499634
1270.0,0.502997
1275.0,0.503775
1280.0,0.506104
1285.0,0.508274
1290.0,0.511306
1295.0,0.511893
1300.0,0.514172
1305.0,0.516795
1310.0,0.519709
1315.0,0.520277
1320.0,0.522273
1325.0,0.52469
1330.0,0.526435
1335.0,0.530392
1340.0,0.531796
1345.0,0.530838
1350.0,0.533998
1355.0,0.532966
1360.0,0.5366
1365.0,0.539866
1370.0,0.540951
1375.0,0.54288
1380.0,0.541255
1385.0,0.547554
1390.0,0.545955
1395.0,0.540042
1400.0,0.536313
1405.0,0.533507
1410.0,0.530827
1415.0,0.527761
1420.0,0.531723
1425.0,0.539007
1430.0,0.545911
1435.0,0.554186
1440.0,0.557578
1445.0,0.559861
1450.0,0.562464
1455.0,0.565733
1460.0,0.567718
1465.0,0.570121
1470.0,0.570784
1475.0,0.575134
1480.0,0.577279
1485.0,0.578306
1490.0,0.579696
1495.0,0.583115
1500.0,0.583671
1505.0,0.586803
1510.0,0.588127
1515.0,0.590498
1520.0,0.592274
1525.0,0.592861
1530.0,0.592859
1535.0,0.596428
1540.0,0.599761
1545.0,0.599916
1550.0,0.601951
1555.0,0.602366
1560.0,0.604516
1565.0,0.605726
1570.0,0.606424
1575.0,0.607765
1580.0,0.610992
1585.0,0.611903
1590.0,0.613188
1595.0,0.614316
1600.0,0.616159
1605.0,0.614698
1610.0,0.619367
1615.0,0.620586
1620.0,0.620363
1625.0,0.621894
1630.0,0.621804
1635.0,0.624426
1640.0,0.626955
1645.0,0.626851
1650.0,0.628794
1655.0,0.628297
1660.0,0.629611
1665.0,0.629643
1670.0,0.628412
1675.0,0.629986
1680.0,0.630311
1685.0,0.632426
1690.0,0.632067
1695.0,0.634418
1700.0,0.635066
1705.0,0.637589
1710.0,0.637873
1715.0,0.638833
1720.0,0.639792
1725.0,0.640543
1730.0,0.640715
1735.0,0.640658
1740.0,0.643614
1745.0,0.644279
1750.0,0.642845
1755.0,0.644831
1760.0,0.645798
1765.0,0.646581
1770.0,0.646743
1775.0,0.648292
1780.0,0.648194
1785.0,0.64907
1790.0,0.649679
1795.0,0.650673
1800.0,0.653355
1805.0,0.652281
1810.0,0.653468
1815.0,0.655483
1820.0,0.656429
1825.0,0.654534
1830.0,0.658016
1835.0,0.659374
1840.0,0.656961
1845.0,0.656534
1850.0,0.657148
1855.0,0.657362
1860.0,0.657597
1865.0,0.65737
1870.0,0.661801
1875.0,0.651265
1880.0,0.647066
1885.0,0.646159
1890.0,0.639477
1895.0,0.629046
1900.0,0.619
1905.0,0.605414
1910.0,0.599346
1915.0,0.603712
1920.0,0.608454
1925.0,0.611553
1930.0,0.614818
1935.0,0.619329
1940.0,0.622383
1945.0,0.623838
1950.0,0.625029
1955.0,0.627185
1960.0,0.6299
1965.0,0.629851
1970.0,0.633794
1975.0,0.635536
1980.0,0.637886
1985.0,0.638422
1990.0,0.641195
1995.0,0.642813
2000.0,0.644875
2005.0,0.646194
2010.0,0.649259
2015.0,0.65116
2020.0,0.652991
2025.0,0.654875
2030.0,0.656549
2035.0,0.657918
2040.0,0.658547
2045.0,0.661556
2050.0,0.661327
2055.0,0.663262
2060.0,0.661762
2065.0,0.663805
2070.0,0.663331
2075.0,0.663913
2080.0,0.666488
2085.0,0.666556
2090.0,0.665332
2095.0,0.664802
2100.0,0.664346
2105.0,0.66449
2110.0,0.663561
2115.0,0.663203
2120.0,0.663047
2125.0,0.66292
2130.0,0.665314
2135.0,0.665024
2140.0,0.664383
2145.0,0.665314
2150.0,0.665303
2155.0,0.662747
2160.0,0.662293
2165.0,0.660755
2170.0,0.657085
2175.0,0.65348
2180.0,0.649403
2185.0,0.641244
2190.0,0.63501
2195.0,0.62638
2200.0,0.617575
2205.0,0.608363
2210.0,0.601597
2215.0,0.595041
2220.0,0.592089
2225.0,0.592279
2230.0,0.596513
2235.0,0.604295
2240.0,0.609864
2245.0,0.612307
2250.0,0.614069
2255.0,0.616875
2260.0,0.621316
2265.0,0.6269
2270.0,0.633714
2275.0,0.637486
2280.0,0.642676
2285.0,0.645808
2290.0,0.64519
2295.0,0.64478
2300.0,0.642642
2305.0,0.639434
2310.0,0.634511
2315.0,0.628499
2320.0,0.622443
2325.0,0.616139
2330.0,0.610612
2335.0,0.602902
2340.0,0.597563
2345.0,0.592218
2350.0,0.589068
2355.0,0.587654
2360.0,0.589927
2365.0,0.591227
2370.0,0.593068
2375.0,0.595669
2380.0,0.597311
2385.0,0.596559
2390.0,0.597575
2395.0,0.598814
2400.0,0.598423
2405.0,0.596254
2410.0,0.596198
2415.0,0.595192
2420.0,0.590556
2425.0,0.585996
2430.0,0.582155
2435.0,0.578524
2440.0,0.575658
2445.0,0.574408
2450.0,0.572632
2455.0,0.572858
2460.0,0.572457
2465.0,0.575144
2470.0,0.573603
2475.0,0.572458
2480.0,0.573861
2485.0,0.573922
2490.0,0.574585
2495.0,0.573671
2500.0,0.572736
2505.0,0.575111
2510.0,0.576044
2515.0,0.577058
2520.0,0.574936
2525.15,0.577496
2530.08,0.577492
2535.03,0.577916
2540.0,0.577377
2544.99,0.577421
2549.99,0.576742
2552.5,0.576461
2553.76,0.576152
2556.28,0.575691
2558.8,0.575693
2561.33,0.574346
2563.86,0.573908
2565.13,0.574402
2566.4,0.574409
2567.67,0.573348
2568.95,0.572081
2570.22,0.571683
2571.5,0.571931
2572.77,0.572114
2574.05,0.570798
2575.33,0.570519
2576.61,0.570191
2577.89,0.569332
2579.17,0.569549
2580.46,0.569531
2581.74,0.568334
2583.03,0.567837
2584.31,0.566992
2585.6,0.567521
2586.89,0.567772
2588.19,0.565964
2589.48,0.565312
2590.77,0.565652
2592.07,0.565661
2593.36,0.564631
2594.66,0.562134
2595.96,0.561549
2597.26,0.564715
2598.56,0.56528
2599.87,0.563528
2601.17,0.562069
2602.48,0.560644
2603.78,0.560305
2605.09,0.560036
2606.4,0.560007
2607.71,0.560384
2609.03,0.560005
2610.34,0.559602
2611.66,0.559708
2612.97,0.559066
2614.29,0.558682
2615.61,0.558759
2616.93,0.557932
2618.25,0.558049
2619.57,0.559164
2620.9,0.557733
2622.22,0.557909
2623.55,0.55907
2624.88,0.558162
2626.21,0.556881
2627.54,0.556494
2628.87,0.557574
2630.21,0.557066
2631.54,0.556316
2632.88,0.557497
2634.21,0.557375
2635.55,0.556785
2636.89,0.556735
2638.24,0.556778
2639.58,0.556239
2640.92,0.555571
2642.27,0.555225
2643.62,0.555023
2644.97,0.554632
2646.32,0.554121
2647.67,0.553599
2649.02,0.553412
2650.38,0.552744
2651.73,0.551561
2653.09,0.550657
2654.45,0.550126
2655.81,0.549222
2657.17,0.548493
2658.53,0.547219
2659.89,0.545484
2661.26,0.544195
2662.63,0.54324
2664.0,0.541579
2665.36,0.539031
2666.74,0.537213
2668.11,0.536815
2669.48,0.53508
2670.86,0.530327
2672.23,0.526648
2673.61,0.524537
2674.99,0.519813
2676.37,0.515035
2677.76,0.511225
2679.14,0.508372
2680.52,0.504687
2681.91,0.500865
2683.3,0.495675
2684.69,0.489932
2686.08,0.484025
2687.47,0.477457
2688.87,0.46989
2690.26,0.461481
2691.66,0.452776
2693.06,0.443953
2694.46,0.434289
2695.86,0.424594
2697.26,0.415017
2698.66,0.406023
2700.07,0.397261
2701.48,0.389288
2702.89,0.381524
2704.3,0.373999
2705.71,0.365621
2707.12,0.357072
2708.53,0.348403
2709.95,0.340229
2711.37,0.331781
2712.79,0.322836
2714.21,0.313165
2715.63,0.302394
2717.05,0.290805
2718.48,0.279401
2719.9,0.267973
2721.33,0.255953
2722.76,0.242797
2724.19,0.230903
2725.62,0.2192
2727.06,0.207796
2728.49,0.197349
2729.93,0.187833
2731.37,0.179366
2732.81,0.17171
2734.25,0.164423
2735.69,0.157914
2737.14,0.15212
2738.58,0.146808
2740.03,0.141795
2741.48,0.136846
2742.93,0.132335
2744.38,0.128787
2745.83,0.125332
2747.29,0.121812
2748.75,0.118336
2750.2,0.11535
2751.66,0.112239
2753.13,0.109398
2754.59,0.10674
2756.05,0.10433
2757.52,0.102355
2758.99,0.100522
2760.46,0.099011
2761.93,0.098036
2763.4,0.0975
2764.87,0.097406
2766.35,0.097671
2767.82,0.098093
2769.3,0.0985
2770.78,0.099076
2772.26,0.100058
2773.75,0.101154
2775.23,0.102604
2776.72,0.104641
2778.21,0.107272
2779.7,0.110218
2781.19,0.113291
2782.68,0.11649
2784.18,0.119842
2785.67,0.123416
2787.17,0.127222
2788.67,0.131035
2790.17,0.1346
2791.67,0.138409
2793.18,0.142308
2794.68,0.146545
2796.19,0.150956
2797.7,0.155211
2799.21,0.158778
2800.72,0.162723
2802.24,0.167128
2803.75,0.171415
2805.27,0.175239
2806.79,0.179455
2808.31,0.183594
2809.83,0.187967
2811.35,0.192628
2812.88,0.196918
2814.41,0.201137
2815.93,0.205657
2817.46,0.2104
2819.0,0.214885
2820.53,0.219064
2822.07,0.2235
2823.6,0.22825
2825.14,0.232679
2826.68,0.236855
2828.22,0.241176
2829.77,0.245495
2831.31,0.249896
2832.86,0.254225
2834.41,0.258553
2835.96,0.262799
2837.51,0.266858
2839.07,0.270873
2840.62,0.274894
2842.18,0.278248
2843.74,0.281462
2845.3,0.285045
2846.86,0.288385
2848.43,0.291348
2849.99,0.294355
2851.56,0.297213
2853.13,0.29971
2854.7,0.302225
2856.27,0.304588
2857.85,0.306331
2859.42,0.308277
2861.0,0.310231
2862.58,0.31191
2864.16,0.313287
2865.75,0.314418
2867.33,0.315505
2868.92,0.31644
2870.51,0.317374
2872.1,0.317878
2873.69,0.318365
2875.28,0.318967
2876.88,0.319592
2878.48,0.31993
2880.07,0.32033
2881.68,0.320553
2883.28,0.321023
2884.88,0.321066
2886.49,0.321518
2888.1,0.321705
2889.71,0.321621
2891.32,0.321782
2892.93,0.321869
2894.55,0.321934
2896.16,0.322021
2897.78,0.321991
2899.4,0.321925
2901.03,0.322183
2902.65,0.322401
2904.28,0.322365
2905.91,0.322279
2907.54,0.322091
2909.17,0.322211
2910.8,0.322272
2912.44,0.322424
2914.07,0.322637
2915.71,0.322733
2917.35,0.322836
2918.99,0.322904
2920.64,0.323131
2922.29,0.323092
2923.93,0.323138
2925.58,0.323604
2927.24,0.3239
2928.89,0.323975
2930.55,0.324235
2932.2,0.324584
2933.86,0.324773
2935.52,0.325033
2937.19,0.324996
2938.85,0.325089
2940.52,0.325642
2942.19,0.325968
2943.86,0.326157
2945.53,0.326214
2947.21,0.326607
2948.88,0.327125
2950.56,0.32746
2952.24,0.327757
2953.92,0.328401
2955.61,0.328877
2957.29,0.329273
2958.98,0.329521
2960.67,0.329645
2962.36,0.329907
2964.06,0.330287
2965.75,0.33091
2967.45,0.331334
2969.15,0.331301
2970.85,0.331338
2972.55,0.331994
2974.26,0.332364
2975.97,0.332584
2977.68,0.33287
2979.39,0.333196
2981.1,0.333465
2982.82,0.333657
2984.53,0.333828
2986.25,0.333889
2987.97,0.333931
2989.7,0.334175
2991.42,0.334444
2993.15,0.334603
2994.88,0.334343
2996.61,0.334226
2998.34,0.334386
3000.08,0.334798
3001.82,0.335126
3003.55,0.335121
3005.3,0.334976
3007.04,0.334884
3008.78,0.334805
3010.53,0.334793
3012.28,0.335065
3014.03,0.335381
3015.79,0.335261
3017.54,0.335119
3019.3,0.335226
3021.06,0.335278
3022.82,0.335365
3024.58,0.33577
3026.35,0.335875
3028.12,0.335685
3029.89,0.336212
3031.66,0.336597
3033.43,0.33644
3035.21,0.336248
3036.99,0.336301
3038.77,0.336503
3040.55,0.33691
3042.33,0.337131
3044.12,0.337088
3045.91,0.337213
3047.7,0.337463
3049.49,0.337826
3051.29,0.338299
3053.08,0.338761
3054.88,0.338957
3056.68,0.339079
3058.49,0.339236
3060.29,0.339421
3062.1,0.339754
3063.91,0.340021
3065.72,0.340367
3067.54,0.340667
3069.35,0.341065
3071.17,0.341471
3072.99,0.341742
3074.81,0.341939
3076.64,0.342094
3078.47,0.342478
3080.29,0.342953
3082.13,0.343483
3083.96,0.343853
3085.79,0.344162
3087.63,0.344593
3089.47,0.345073
3091.31,0.345562
3093.16,0.346005
3095.01,0.34664
3096.85,0.347178
3098.71,0.347497
3100.56,0.347951
3102.41,0.348553
3104.27,0.349268
3106.13,0.349722
3107.99,0.350148
3109.86,0.350783
3111.73,0.351273
3113.59,0.35183
3115.47,0.352289
3117.34,0.35283
3119.21,0.353662
3121.09,0.354219
3122.97,0.354769
3124.86,0.355343
3126.74,0.356011
3128.63,0.35647
3130.52,0.357006
3132.41,0.357683
3134.3,0.358585
3136.2,0.359222
3138.1,0.359646
3140.0,0.359908
3141.9,0.360861
3143.81,0.361677
3145.71,0.362002
3147.62,0.362536
3149.54,0.363112
3151.45,0.363646
3153.37,0.36456
3155.29,0.365321
3157.21,0.365963
3159.13,0.366773
3161.06,0.367403
3162.99,0.368033
3164.92,0.368656
3166.85,0.369729
3168.79,0.370507
3170.72,0.371003
3172.67,0.371586
3174.61,0.372261
3176.55,0.373006
3178.5,0.373734
3180.45,0.374406
3182.4,0.375125
3184.36,0.375889
3186.32,0.376399
3188.27,0.377229
3190.24,0.378018
3192.2,0.378758
3194.17,0.379629
3196.14,0.380489
3198.11,0.381187
3200.08,0.381845
3202.06,0.382869
3204.04,0.383979
3206.02,0.384646
3208.0,0.385269
3209.99,0.386138
3211.98,0.38686
3213.97,0.387635
3215.96,0.38853
3217.96,0.389408
3219.96,0.390207
3221.96,0.391069
3223.96,0.391792
3225.97,0.392549
3227.98,0.393397
3229.99,0.394221
3232.0,0.394891
3234.02,0.395758
3236.04,0.396315
3238.06,0.396891
3240.08,0.397873
3242.11,0.398739
3244.14,0.399468
3246.17,0.400163
3248.2,0.400671
3250.24,0.40139
3252.28,0.402126
3254.32,0.402798
3256.37,0.40347
3258.41,0.404166
3260.46,0.404691
3262.51,0.405318
3264.57,0.406012
3266.63,0.406522
3268.69,0.407014
3270.75,0.40775
3272.81,0.408529
3274.88,0.409356
3276.95,0.410066
3279.02,0.41075
3281.1,0.411516
3283.18,0.412061
3285.26,0.412706
3287.34,0.413507
3289.43,0.414258
3291.51,0.415181
3293.61,0.415898
3295.7,0.416629
3297.8,0.417334
3299.9,0.418111
3302.0,0.419041
3304.1,0.419826
3306.21,0.420589
3308.32,0.421589
3310.43,0.422564
3312.55,0.423334
3314.66,0.424082
3316.79,0.424957
3318.91,0.425915
3321.03,0.426651
3323.16,0.427351
3325.29,0.428319
3327.43,0.429412
3329.57,0.430185
3331.71,0.43096
3333.85,0.431836
3335.99,0.432715
3338.14,0.43356
3340.29,0.434382
3342.45,0.435137
3344.6,0.43586
3346.76,0.436511
3348.92,0.43738
3351.09,0.438224
3353.26,0.438936
3355.43,0.439521
3357.6,0.440189
3359.78,0.44099
3361.96,0.441573
3364.14,0.44202
3366.32,0.442526
3368.51,0.44302
3370.7,0.443489
3372.89,0.444006
3375.09,0.444597
3377.29,0.445334
3379.49,0.445988
3381.69,0.446838
3383.9,0.447616
3386.11,0.448382
3388.32,0.449316
3390.54,0.450047
3392.76,0.450778
3394.98,0.451546
3397.21,0.451764
3399.43,0.45196
3401.66,0.452174
3403.9,0.452455
3406.13,0.452696
3408.37,0.452663
3410.61,0.452829
3412.86,0.45327
3415.11,0.45382
3417.36,0.454593
3419.61,0.455968
3421.87,0.457418
3424.13,0.459184
3426.39,0.46143
3428.66,0.463463
3430.93,0.465128
3433.2,0.466906
3435.48,0.468463
3437.76,0.469805
3440.04,0.471272
3442.32,0.472656
3444.61,0.473907
3446.9,0.475155
3449.19,0.476401
3451.49,0.477521
3453.79,0.478776
3456.09,0.480045
3458.4,0.481135
3460.7,0.482043
3463.02,0.483062
3465.33,0.484058
3467.65,0.484791
3469.97,0.485472
3472.29,0.486294
3474.62,0.486957
3476.95,0.487491
3479.29,0.487981
3481.62,0.488508
3483.96,0.489243
3486.3,0.4897
3488.65,0.490143
3491.0,0.490616
3493.35,0.49078
3495.71,0.490878
3498.07,0.491047
3500.43,0.491379
3502.79,0.492028
3505.16,0.492785
3507.53,0.493836
3509.91,0.495178
3512.29,0.496427
3514.67,0.497591
3517.05,0.498734
3519.44,0.499886
3521.83,0.500973
3524.23,0.502137
3526.62,0.503458
3529.02,0.504676
3531.43,0.505948
3533.83,0.507184
3536.24,0.508227
3538.66,0.509313
3541.08,0.510398
3543.5,0.511494
3545.92,0.512632
3548.35,0.513792
3550.78,0.514733
3553.21,0.515597
3555.65,0.516614
3558.09,0.517656
3560.53,0.518719
3562.98,0.519802
3565.43,0.520844
3567.88,0.521856
3570.34,0.522736
3572.8,0.523914
3575.27,0.525238
3577.73,0.526315
3580.2,0.527142
3582.68,0.528196
3585.16,0.529093
3587.64,0.529962
3590.12,0.530939
3592.61,0.531906
3595.1,0.532803
3597.6,0.533848
3600.09,0.534792
3602.6,0.535667
3605.1,0.536539
3607.61,0.537424
3610.12,0.538155
3612.64,0.538921
3615.16,0.539764
3617.68,0.540619
3620.21,0.541345
3622.74,0.542151
3625.27,0.542945
3627.81,0.543764
3630.35,0.544549
3632.89,0.545289
3635.44,0.546123
3637.99,0.546814
3640.54,0.547303
3643.1,0.547844
3645.66,0.54858
3648.23,0.549355
3650.8,0.54999
3653.37,0.550561
3655.95,0.550934
3658.53,0.551405
3661.11,0.551948
3663.7,0.552667
3666.29,0.553505
3668.89,0.554021
3671.48,0.554517
3674.09,0.555147
3676.69,0.555721
3679.3,0.556295
3681.91,0.556771
3684.53,0.557389
3687.15,0.558042
3689.78,0.558626
3692.4,0.559127
3695.04,0.55975
3697.67,0.560455
3700.31,0.561197
3702.95,0.561823
3705.6,0.562488
3708.25,0.563218
3710.91,0.563912
3713.56,0.564638
3716.23,0.56531
3718.89,0.56586
3721.56,0.566725
3724.23,0.567582
3726.91,0.56846
3729.59,0.56909
3732.28,0.56976
3734.97,0.570561
3737.66,0.571233
3740.36,0.571955
3743.06,0.57303
3745.76,0.573927
3748.47,0.574768
3751.18,0.575517
3753.9,0.576468
3756.62,0.577281
3759.34,0.578049
3762.07,0.578974
3764.8,0.579855
3767.54,0.580663
3770.28,0.581422
3773.02,0.582139
3775.77,0.583132
3778.52,0.583944
3781.28,0.584661
3784.04,0.585261
3786.8,0.586064
3789.57,0.586884
3792.34,0.587439
3795.12,0.588071
3797.9,0.588633
3800.69,0.589149
3803.47,0.589669
3806.27,0.590245
3809.06,0.590856
3811.86,0.591486
3814.67,0.592044
3817.48,0.592552
3820.29,0.593088
3823.11,0.593522
3825.93,0.593896
3828.76,0.594278
3831.59,0.594693
3834.42,0.595119
3837.26,0.595669
3840.1,0.59607
3842.95,0.596522
3845.8,0.596908
3848.65,0.597337
3851.51,0.597782
3854.38,0.598157
3857.24,0.598567
3860.12,0.598918
3862.99,0.599422
3865.87,0.599836
3868.76,0.600141
3871.65,0.600499
3874.54,0.600806
3877.44,0.601122
3880.34,0.601494
3883.25,0.601869
3886.16,0.602108
3889.07,0.602448
3891.99,0.602759
3894.92,0.602961
3897.85,0.603211
3900.78,0.603562
3903.72,0.603787
3906.66,0.603986
3909.6,0.604183
3912.55,0.604511
3915.51,0.60478
3918.47,0.604998
3921.43,0.605157
3924.4,0.605265
3927.38,0.605254
3930.35,0.605382
3933.33,0.605469
3936.32,0.605649
3939.31,0.605884
3942.31,0.606134
3945.31,0.606214
3948.31,0.606214
3951.32,0.606111
3954.34,0.606094
3957.35,0.60605
3960.38,0.606108
3963.41,0.606008
3966.44,0.605912
3969.48,0.606099
3972.52,0.606207
3975.56,0.606364
3978.61,0.606425
3981.67,0.606476
3984.73,0.606516
3987.8,0.606659
3990.87,0.606797
3993.94,0.606959
3997.02,0.607223
4000.1,0.60749
4003.19,0.607792
4006.29,0.608045
4009.39,0.608329
4012.49,0.6085
4015.6,0.608837
4018.71,0.608938
4021.83,0.609055
4024.95,0.609174
4028.08,0.609322
4031.21,0.609458
4034.35,0.609558
4037.49,0.609542
4040.64,0.609692
4043.79,0.609718
4046.94,0.609779
4050.11,0.609697
4053.27,0.609788
4056.44,0.609645
4059.62,0.60958
4062.8,0.609601
4065.99,0.609563
4069.18,0.609458
4072.38,0.60931
4075.58,0.609036
4078.78,0.60886
4082.0,0.608732
4085.21,0.608626
4088.43,0.608505
4091.66,0.608219
4094.89,0.607968
4098.13,0.607891
4101.37,0.60772
4104.62,0.607312
4107.87,0.60691
4111.13,0.606741
4114.39,0.606593
4117.66,0.606422
4120.93,0.606228
4124.21,0.605914
4127.5,0.605567
4130.79,0.605429
4134.08,0.605153
4137.38,0.604867
4140.68,0.604712
4143.99,0.604511
4147.31,0.604111
4150.63,0.603844
4153.95,0.603644
4157.29,0.603487
4160.62,0.60311
4163.96,0.602776
4167.31,0.602586
4170.66,0.602389
4174.02,0.602136
4177.39,0.601909
4180.75,0.601928
4184.13,0.601839
4187.51,0.601558
4190.89,0.601213
4194.28,0.601117
4197.68,0.601113
4201.08,0.600935
4204.49,0.600785
4207.9,0.60067
4211.32,0.600614
4214.74,0.600602
4218.17,0.600691
4221.61,0.600799
4225.05,0.600963
4228.5,0.600918
4231.95,0.600803
4235.4,0.600529
4238.87,0.600356
4242.34,0.600248
4245.81,0.59989
4249.29,0.599234
4252.78,0.598506
4256.27,0.597641
4259.77,0.596196
4263.27,0.594852
4266.78,0.594421
4270.29,0.594517
4273.81,0.594936
4277.34,0.595407
4280.87,0.595826
4284.41,0.596168
4287.95,0.596417
4291.5,0.596501
4295.06,0.596787
4298.62,0.596864
4302.19,0.596765
4305.76,0.596684
4309.34,0.596763
4312.92,0.596672
4316.52,0.596498
4320.11,0.596299
4323.72,0.596189
4327.32,0.596131
4330.94,0.596004
4334.56,0.59584
4338.19,0.595674
4341.82,0.595512
4345.46,0.595267
4349.11,0.595121
4352.76,0.594974
4356.42,0.594657
4360.08,0.594393
4363.75,0.594227
4367.43,0.593943
4371.11,0.593407
4374.8,0.593086
4378.49,0.592737
4382.19,0.592208
4385.9,0.59162
4389.61,0.5911
4393.33,0.590622
4397.06,0.590198
4400.79,0.58968
4404.53,0.588992
4408.28,0.58832
4412.03,0.587795
4415.79,0.587261
4419.55,0.586715
4423.32,0.586034
4427.1,0.585443
4430.88,0.58486
4434.68,0.584211
4438.47,0.583544
4442.28,0.582825
4446.08,0.582235
4449.9,0.581778
4453.72,0.581171
4457.55,0.580469
4461.39,0.579623
4465.23,0.578862
4469.08,0.578248
4472.94,0.577761
4476.8,0.577304
4480.67,0.576852
4484.55,0.576585
4488.43,0.5764
4492.32,0.576037
4496.21,0.575794
4500.12,0.575672
4504.03,0.575606
4507.94,0.575557
4511.87,0.575644
4515.8,0.575719
4519.73,0.575829
4523.68,0.575962
4527.63,0.575972
4531.59,0.575857
4535.55,0.575723
4539.52,0.57548
4543.5,0.575328
4547.49,0.575124
4551.48,0.574885
4555.48,0.574484
4559.49,0.574046
4563.5,0.573587
4567.52,0.573119
4571.55,0.572648
4575.58,0.572215
4579.63,0.571601
4583.67,0.57092
4587.73,0.570215
4591.79,0.569559
4595.86,0.568971
4599.94,0.568388
4604.03,0.567783
4608.12,0.567099
4612.22,0.566224
4616.33,0.565362
4620.44,0.564619
4624.56,0.563788
4628.69,0.562928
4632.83,0.562113
4636.97,0.561239
4641.12,0.56042
4645.28,0.559583
4649.45,0.558686
4653.62,0.557574
4657.8,0.55645
4661.99,0.555332
4666.19,0.554302
4670.39,0.553206
4674.6,0.552227
4678.82,0.551271
4683.05,0.550353
4687.28,0.549568
4691.52,0.548912
4695.77,0.548304
4700.03,0.547851
4704.3,0.547395
4708.57,0.547083
4712.85,0.546723
4717.14,0.546301
4721.43,0.545825
4725.74,0.545327
4730.05,0.544732
4734.37,0.544174
4738.7,0.54346
4743.03,0.542706
4747.38,0.541921
4751.73,0.5412
4756.09,0.540371
4760.45,0.539544
4764.83,0.538586
4769.21,0.537726
4773.6,0.536925
4778.0,0.536143
4782.41,0.535375
4786.83,0.534574
4791.25,0.533691
4795.68,0.532887
4800.13,0.532063
4804.57,0.531248
4809.03,0.5304
4813.5,0.529674
4817.97,0.528988
4822.45,0.528229
4826.94,0.527463
4831.44,0.526662
4835.95,0.525912
4840.46,0.525043
4844.99,0.524114
4849.52,0.523144
4854.06,0.522127
4858.61,0.521104
4863.17,0.519893
4867.73,0.518593
4872.31,0.517183
4876.89,0.515684
4881.48,0.514026
4886.08,0.512051
4890.69,0.509859
4895.31,0.507449
4899.94,0.50462
4904.57,0.501568
4909.22,0.498263
4913.87,0.49493
4918.53,0.491714
4923.21,0.488683
4927.88,0.485952
4932.57,0.483624
4937.27,0.481507
4941.98,0.479718
4946.69,0.478104
4951.42,0.476609
4956.15,0.474982
4960.9,0.472988
4965.65,0.4707
4970.41,0.467906
4975.18,0.464793
4979.96,0.461528
4984.75,0.458348
4989.54,0.455499
4994.35,0.452925
4999.17,0.450796
5003.99,0.449005
5008.83,0.44759
5013.67,0.446447
5018.52,0.44532
5023.39,0.444451
5028.26,0.444084
5033.14,0.443639
5038.03,0.443222
5042.93,0.442681
5047.84,0.442067
5052.76,0.441592
5057.69,0.441154
5062.63,0.440697
5067.58,0.440324
5072.54,0.44002
5077.51,0.439903
5082.49,0.440055
5087.47,0.440592
5092.47,0.44124
5097.48,0.441648
5102.5,0.441978
5107.52,0.442177
5112.56,0.442004
5117.61,0.441524
5122.66,0.440814
5127.73,0.439908
5132.81,0.438903
5137.89,0.437933
5142.99,0.436956
5148.1,0.435924
5153.22,0.435153
5158.34,0.43435
5163.48,0.433143
5168.63,0.431907
5173.79,0.43064
5178.96,0.429464
5184.13,0.42811
5189.32,0.426702
5194.52,0.425154
5199.73,0.423447
5204.96,0.421578
5210.19,0.419442
5215.43,0.416741
5220.68,0.413844
5225.94,0.410389
5231.22,0.406365
5236.5,0.401985
5241.79,0.397273
5247.1,0.392434
5252.42,0.387497
5257.74,0.382714
5263.08,0.378034
5268.43,0.373425
5273.79,0.369012
5279.16,0.364768
5284.54,0.360859
5289.93,0.357114
5295.34,0.353523
5300.75,0.350547
5306.18,0.347631
5311.61,0.344965
5317.06,0.342588
5322.52,0.340456
5327.99,0.33844
5333.47,0.33655
5338.96,0.334847
5344.47,0.333329
5349.98,0.331954
5355.51,0.331181
5361.05,0.331046
5366.6,0.33132
5372.16,0.332238
5377.73,0.333755
5383.32,0.335948
5388.91,0.338611
5394.52,0.341604
5400.14,0.344768
5405.77,0.347975
5411.41,0.350764
5417.07,0.353186
5422.74,0.354798
5428.41,0.356742
5434.1,0.358353
5439.81,0.358538
5445.52,0.358714
5451.25,0.358709
5456.98,0.358245
5462.73,0.35724
5468.5,0.356168
5474.27,0.355217
5480.06,0.353666
5485.86,0.352287
5491.67,0.350865
5497.49,0.349048
5503.33,0.347427
5509.18,0.345794
5515.04,0.344171
5520.91,0.342335
5526.8,0.340688
5532.69,0.339234
5538.61,0.337749
5544.53,0.336123
5550.47,0.33462
5556.41,0.333477
5562.38,0.332659
5568.35,0.331741
5574.34,0.330961
5580.34,0.330256
5586.35,0.33043
5592.38,0.330788
5598.42,0.330856
5604.47,0.331181
5610.54,0.33191
5616.61,0.332376
5622.71,0.333121
5628.81,0.334177
5634.93,0.335208
5641.06,0.336191
5647.21,0.338051
5653.36,0.340522
5659.54,0.342061
5665.72,0.34408
5671.92,0.345574
5678.13,0.34704
5684.36,0.348907
5690.6,0.35001
5696.85,0.350947
5703.12,0.352184
5709.4,0.352493
5715.69,0.353191
5722.0,0.354273
5728.33,0.354741
5734.66,0.354945
5741.01,0.354971
5747.38,0.354732
5753.76,0.354446
5760.15,0.354071
5766.56,0.352673
5772.98,0.352561
5779.41,0.352547
5785.86,0.350985
5792.33,0.349771
5798.81,0.348584
5805.3,0.347392
5811.81,0.346139
5818.33,0.34444
5824.87,0.342801
5831.42,0.342194
5837.99,0.340777
5844.57,0.338817
5851.17,0.33669
5857.78,0.334643
5864.41,0.332451
5871.05,0.330378
5877.7,0.327818
5884.38,0.324907
5891.06,0.323558
5897.76,0.320759
5904.48,0.31851
5911.21,0.316306
5917.96,0.313268
5924.73,0.31079
5931.5,0.308427
5938.3,0.305954
5945.11,0.3049
5951.93,0.303743
5958.78,0.302071
5965.63,0.300904
5972.51,0.299768
5979.39,0.29966
5986.3,0.298775
5993.22,0.297941
6000.16,0.297677
6007.11,0.29684
6014.08,0.295325
6021.06,0.294318
6028.06,0.293346
6035.08,0.29191
6042.12,0.29017
6049.17,0.287926
6056.23,0.287296
6063.32,0.286947
6070.42,0.284521
6077.53,0.282897
6084.67,0.281876
6091.82,0.28037
6098.98,0.278567
6106.17,0.276892
6113.37,0.275016
6120.58,0.274004
6127.82,0.273273
6135.07,0.272039
6142.34,0.271006
6149.63,0.27046
6156.93,0.269945
6164.25,0.269659
6171.59,0.270257
6178.95,0.270702
6186.32,0.271149
6193.71,0.273198
6201.12,0.275491
6208.54,0.277115
6215.99,0.279555
6223.45,0.282263
6230.93,0.285181
6238.43,0.288095
6245.95,0.291212
6253.48,0.294269
6261.03,0.297461
6268.6,0.300642
6276.19,0.304033
6283.8,0.307345
6291.43,0.310629
6299.07,0.313732
6306.73,0.316789
6314.42,0.319616
6322.12,0.322464
6329.84,0.325228
6337.57,0.327797
6345.33,0.329671
6353.11,0.332884
6360.9,0.335543
6368.72,0.336749
6376.55,0.338599
6384.4,0.340834
6392.27,0.342363
6400.17,0.343984
6408.08,0.344691
6416.01,0.345012
6423.96,0.347157
6431.93,0.347956
6439.92,0.347488
6447.93,0.347441
6455.96,0.346614
6464.01,0.345893
6472.08,0.344501
6480.17,0.342897
6488.28,0.340962
6496.41,0.338847
6504.56,0.337086
6512.73,0.334514
6520.92,0.330699
6529.14,0.327436
6537.37,0.324157
6545.63,0.320796
6553.9,0.318126
6562.2,0.31621
6570.51,0.314498
6578.85,0.313362
6587.21,0.313205
6595.59,0.312355
6603.99,0.311847
6612.42,0.311032
6620.86,0.310139
6629.33,0.309158
6637.82,0.307837
6646.33,0.307237
6654.86,0.306544
6663.41,0.304621
6671.99,0.302518
6680.59,0.300422
6689.21,0.298635
6697.85,0.296892
6706.51,0.294831
6715.2,0.293079
6723.91,0.291882
6732.64,0.290779
6741.4,0.289765
6750.18,0.288659
6758.98,0.287764
6767.8,0.286781
6776.65,0.285785
6785.52,0.284596
6794.41,0.28319
6803.33,0.281743
6812.27,0.280017
6821.23,0.278253
6830.22,0.276595
6839.23,0.275
6848.26,0.273049
6857.32,0.270842
6866.4,0.268659
6875.51,0.266783
6884.64,0.264591
6893.8,0.262012
6902.98,0.259279
6912.18,0.256342
6921.41,0.253491
6930.66,0.250491
6939.94,0.247531
6949.24,0.24446
6958.57,0.2413
6967.92,0.238185
6977.3,0.235475
6986.7,0.23277
6996.13,0.230416
7005.59,0.228313
7015.07,0.22665
7024.57,0.22524
7034.1,0.224355
7043.66,0.223458
7053.25,0.222959
7062.85,0.222692
7072.49,0.222296
7082.15,0.222059
7091.84,0.222155
7101.55,0.22246
7111.3,0.222846
7121.06,0.223031
7130.86,0.223282
7140.68,0.223359
7150.53,0.223392
7160.41,0.223284
7170.31,0.222994
7180.24,0.222739
7190.2,0.222406
7200.19,0.221682
7210.2,0.220928
7220.24,0.220022
7230.31,0.218808
7240.41,0.2173
7250.54,0.215579
7260.69,0.213639
7270.88,0.21173
7281.09,0.209655
7291.33,0.20758
7301.6,0.205491
7311.9,0.203601
7322.22,0.201629
7332.58,0.199638
7342.97,0.197769
7353.38,0.196035
7363.83,0.194166
7374.3,0.192375
7384.81,0.190616
7395.34,0.188737
7405.91,0.186782
7416.5,0.184896
7427.13,0.1828
7437.78,0.180645
7448.47,0.178443
7459.19,0.17627
7469.94,0.17397
7480.71,0.171639
7491.52,0.169372
7502.37,0.16721
7513.24,0.16506
7524.14,0.162866
7535.08,0.160505
7546.05,0.158097
7557.05,0.155462
7568.08,0.15271
7579.15,0.149831
7590.24,0.147047
7601.37,0.144231
7612.53,0.141482
7623.73,0.138865
7634.96,0.1365
7646.22,0.134176
7657.51,0.131965
7668.84,0.129658
7680.2,0.127309
7691.59,0.124777
7703.02,0.122184
7714.49,0.119442
7725.98,0.116844
7737.52,0.114242
7749.08,0.111579
7760.68,0.108914
7772.32,0.106363
7783.99,0.103733
7795.69,0.101077
7807.43,0.09843
7819.21,0.096053
7831.02,0.093804
7842.87,0.092019
7854.75,0.090623
7866.67,0.089445
7878.62,0.088326
7890.62,0.087476
7902.64,0.086771
7914.71,0.086363
7926.81,0.08597
7938.95,0.085721
7951.13,0.085574
7963.34,0.085637
7975.59,0.085628
7987.88,0.085618
8000.21,0.085447
8012.57,0.085279
8024.98,0.085002
8037.42,0.084981
8049.9,0.08511
8062.42,0.085438
8074.98,0.085852
8087.57,0.086494
8100.21,0.087284
8112.89,0.088434
8125.6,0.08963
8138.36,0.091019
8151.16,0.092488
8163.99,0.094024
8176.87,0.095355
8189.79,0.09642
8202.75,0.097139
8215.75,0.097755
8228.79,0.098175
8241.87,0.098479
8254.99,0.098608
8268.16,0.098615
8281.37,0.09846
8294.62,0.098367
8307.91,0.098285
8321.24,0.0985
8334.62,0.098706
8348.04,0.099133
8361.51,0.099566
8375.02,0.100034
8388.57,0.100543
8402.16,0.101259
8415.8,0.101833
8429.49,0.102501
8443.22,0.103117
8456.99,0.103695
8470.81,0.104374
8484.67,0.104927
8498.58,0.105117
8512.54,0.105337
8526.54,0.105281
8540.58,0.104761
8554.68,0.103772
8568.82,0.102224
8583.0,0.100067
8597.24,0.097734
8611.52,0.095589
8625.85,0.094814
8640.23,0.095884
8654.65,0.098519
8669.12,0.101301
8683.64,0.103344
8698.21,0.10436
8712.83,0.104791
8727.5,0.104761
8742.22,0.104496
8756.99,0.104075
8771.8,0.103632
8786.67,0.103065
8801.59,0.102302
8816.56,0.101561
8831.58,0.10103
8846.65,0.100255
8861.77,0.099547
8876.94,0.098807
8892.17,0.098133
8907.45,0.097545
8922.78,0.09705
8938.16,0.096395
8953.6,0.095736
8969.09,0.095172
8984.64,0.094746
9000.23,0.094212
9015.89,0.093792
9031.59,0.093296
9047.36,0.092757
9063.17,0.092303
9079.05,0.091776
9094.97,0.091026
9110.96,0.090235
9127.0,0.08934
9143.1,0.088457
9159.25,0.087422
9175.46,0.086316
9191.73,0.085183
9208.06,0.084276
9224.44,0.083405
9240.88,0.082784
9257.38,0.082487
9273.94,0.082419
9290.56,0.082374
9307.24,0.082473
9323.98,0.08277
9340.78,0.083278
9357.64,0.083452
9374.57,0.083768
9391.55,0.084009
9408.59,0.084131
9425.7,0.083894
9442.87,0.083686
9460.1,0.083538
9477.4,0.083398
9494.75,0.083147
9512.17,0.082721
9529.66,0.082128
9547.21,0.081461
9564.83,0.080419
9582.5,0.079362
9600.25,0.078257
9618.06,0.077165
9635.94,0.07576
9653.88,0.074371
9671.89,0.073074
9689.97,0.071757
9708.12,0.070322
9726.33,0.069059
9744.62,0.067991
9762.97,0.066984
9781.39,0.065939
9799.88,0.065075
9818.44,0.064279
9837.07,0.063649
9855.77,0.063054
9874.54,0.062569
9893.39,0.062056
9912.3,0.061508
9931.29,0.061086
9950.36,0.060749
9969.49,0.060278
9988.7,0.059997
10007.98,0.059711
10027.34,0.059435
10046.77,0.059227
10066.28,0.058981
10085.87,0.058833
10105.53,0.058758
10125.26,0.058753
10145.08,0.058789
10164.97,0.058845
10184.94,0.058981
10204.99,0.059093
10225.12,0.059433
10245.33,0.059742
10265.61,0.060199
10285.98,0.060777
10306.43,0.061424
10326.96,0.062077
10347.57,0.062831
10368.27,0.063452
10389.05,0.064295
10409.91,0.065241
10430.86,0.066103
10451.88,0.066904
10473.0,0.067708
10494.2,0.068457
10515.49,0.069216
10536.86,0.069785
10558.32,0.070176
10579.87,0.070361
10601.5,0.07057
10623.23,0.070425
10645.04,0.070031
10666.94,0.069469
10688.94,0.068823
10711.02,0.068125
10733.2,0.067569
10755.47,0.067059
10777.83,0.066558
10800.28,0.066129
10822.83,0.065827
10845.47,0.065494
10868.21,0.065103
10891.04,0.064703
10913.97,0.064475
10936.99,0.064398
10960.12,0.064443
10983.34,0.064564
11006.66,0.064878
11030.07,0.065515
11053.59,0.066672
11077.21,0.067947
11100.93,0.06957
11124.75,0.071514
11148.68,0.073364
11172.71,0.074863
11196.84,0.076289
11221.07,0.077643
11245.41,0.07892
11269.86,0.079871
11294.41,0.0807
11319.07,0.081426
11343.84,0.081995
11368.72,0.082569
11393.7,0.083152
11418.8,0.083698
11444.01,0.084323
11469.33,0.084995
11494.76,0.085712
11520.3,0.086321
11545.96,0.086843
11571.73,0.087262
11597.62,0.087745
11623.62,0.088291
11649.74,0.08853
11675.98,0.088757
11702.34,0.088944
11728.81,0.088614
11755.41,0.088169
11782.13,0.087658
11808.96,0.086534
11835.92,0.084988
11863.01,0.083552
11890.22,0.081887
11917.55,0.079983
11945.01,0.077987
11972.6,0.075936
12000.31,0.074064
12028.16,0.07234
12056.13,0.070916
12084.23,0.069858
12112.46,0.069043
12140.83,0.068588
12169.33,0.06823
12197.96,0.068029
12226.73,0.067876
12255.64,0.067806
12284.68,0.067415
12313.86,0.066647
12343.18,0.065532
12372.64,0.064103
12402.24,0.062058
12431.98,0.059608
12461.86,0.057203
12491.89,0.055809
12522.07,0.055474
12552.38,0.056233
12582.85,0.058056
12613.47,0.060498
12644.23,0.062553
12675.15,0.064225
12706.21,0.065199
12737.43,0.065529
12768.81,0.064984
12800.33,0.06392
12832.02,0.063037
12863.86,0.063119
12895.86,0.064466
12928.02,0.066832
12960.34,0.069488
12992.82,0.071828
13025.46,0.07372
13058.27,0.075004
13091.25,0.075425
13124.39,0.075659
13157.7,0.075549
13191.18,0.074994
13224.83,0.074203
13258.66,0.073455
13292.65,0.072664
13326.83,0.072212
13361.17,0.072008
13395.7,0.072038
13430.4,0.072212
13465.29,0.072476
13500.35,0.072952
13535.6,0.073605
13571.03,0.073903
13606.65,0.07394
13642.46,0.073748
13678.46,0.073399
13714.64,0.072778
13751.02,0.072509
13787.59,0.072469
13824.36,0.072291
13861.32,0.071823
13898.49,0.071322
13935.85,0.07098
13973.41,0.070457
14011.17,0.069612
14049.15,0.068401
14087.32,0.067045
14125.71,0.065951
14164.3,0.06418
14203.11,0.062307
14242.13,0.060269
14281.36,0.05788
14320.81,0.054954
14360.49,0.052235
14400.38,0.050558
14440.49,0.050554
14480.82,0.051917
14521.39,0.053296
14562.18,0.054071
14603.2,0.054552
14644.45,0.054509
14685.93,0.054437
14727.66,0.054296
14769.62,0.054116
14811.81,0.0538
14854.25,0.053348
14896.94,0.052865
14939.87,0.052601
14983.05,0.05205
15026.48,0.051362
15070.16,0.05075
15114.1,0.050415
15158.29,0.049666
15202.74,0.048823
15247.46,0.048064
15292.43,0.047185
15337.68,0.046272
15383.19,0.045476
15428.97,0.044574
15475.03,0.043588
15521.36,0.042948
15567.97,0.042461
15614.87,0.041925
15662.04,0.041564
15709.5,0.040974
15757.25,0.040339
15805.29,0.03977
15853.62,0.039395
15902.26,0.039152
15951.19,0.038702
16000.42,0.038206
16049.95,0.038006
16099.8,0.037718
16149.95,0.0377
16200.42,0.03796
16251.21,0.038468
16302.31,0.038993
16353.74,0.039585
16405.49,0.040459
16457.57,0.041391
16509.98,0.042459
16562.73,0.044021
16615.82,0.045314
16669.24,0.046584
16723.02,0.048228
16777.14,0.049802
16831.61,0.051401
16886.43,0.05306
16941.62,0.054999
16997.16,0.05688
17053.08,0.058817
17109.36,0.061288
17166.01,0.06359
17223.04,0.065974
17280.45,0.068038
17338.24,0.069884
17396.43,0.071406
17455.0,0.073184
17513.97,0.074905
17573.34,0.076481
17633.11,0.078149
17693.29,0.079512
17753.89,0.080599
17814.9,0.081859
17876.33,0.082883
17938.18,0.083557
18000.47,0.084232
18063.19,0.084986
18126.35,0.086023
18189.95,0.087148
18254.0,0.088115
18318.5,0.089068
18383.46,0.089926
18448.88,0.090703
18514.77,0.091172
18581.13,0.091298
18647.97,0.090511
18715.29,0.089764
18783.1,0.08848
18851.4,0.086988
18920.2,0.085546
18989.51,0.084457
19059.32,0.083442
19129.65,0.082007
19200.5,0.080109
19271.88,0.078683
19343.79,0.077564
19416.24,0.076055
19489.23,0.074701
19562.77,0.073802
19636.88,0.072614
19711.54,0.071917
19786.78,0.07165
19862.59,0.07157
19938.98,0.071888
20015.96,0.072347
20093.55,0.072725
20171.73,0.074078
20250.53,0.075826
20329.94,0.077697
20409.98,0.079355
20490.65,0.081196
20571.96,0.083032
20653.92,0.08496
20736.54,0.087159
20819.82,0.089359
20903.77,0.090169
20988.4,0.09053
21073.72,0.090361
21159.73,0.09005
21246.46,0.088909
21333.89,0.087237
21422.04,0.086668
21510.93,0.086033
21600.56,0.0847
21690.94,0.083562
21782.08,0.08259
21873.99,0.081805
21966.67,0.081939
22060.15,0.0821
22154.42,0.081187
22249.51,0.080725
22345.41,0.080248
22442.14,0.079779
22539.72,0.079063
22638.14,0.079011
22737.43,0.078981
22837.6,0.078388
22938.65,0.077561
23040.6,0.076322
23143.46,0.075826
23247.24,0.077032
23351.96,0.077756
23457.63,0.077378
23564.25,0.077208
23671.85,0.077533
23780.44,0.076847
23890.02,0.078685
24000.63,0.078777
24112.26,0.077788
24224.93,0.077959
24338.66,0.077966
24453.47,0.078765
24569.36,0.07992
24686.36,0.081039
24804.47,0.081716
24923.73,0.080941
25044.13,0.081175
25165.71,0.080805
25288.46,0.081276
25412.43,0.083063
25537.61,0.085883
25664.04,0.086993
25791.72,0.089148
25920.68,0.092486
