Database of Origin,University of Winnipeg Spectrophotometer Facility
Sample Description,RELAB Garnet data merged @2500nm with Nicolet data. See HOSERLab website for additional info.
Date Added,2016-11-29 18:08:31.710055

Data ID,RLA_GAR_07          
Sample ID,GAR111
Mineral Name,Andradite
Grain Size,<45
Viewing Geometry,"30/0,30"
Resolution,5/0.6-129
Material Class,Nesosilicate

Wavelength
300.0,0.071093
305.0,0.073223
310.0,0.081818
315.0,0.096375
320.0,0.116899
325.0,0.141415
330.0,0.16662
335.0,0.190193
340.0,0.211517
345.0,0.231346
350.0,0.25085
355.0,0.269981
360.0,0.287745
365.0,0.302394
370.0,0.311686
375.0,0.325779
380.0,0.340398
385.0,0.354887
390.0,0.371335
395.0,0.384883
400.0,0.402487
405.0,0.413912
410.0,0.423527
415.0,0.433577
420.0,0.442653
425.0,0.450888
430.0,0.458264
435.0,0.465215
440.0,0.474423
445.0,0.483141
450.0,0.492028
455.0,0.499298
460.0,0.507062
465.0,0.5127
470.0,0.520109
475.0,0.526655
480.0,0.532422
485.0,0.538805
490.0,0.544294
495.0,0.550934
500.0,0.556351
505.0,0.561272
510.0,0.565889
515.0,0.57049
520.0,0.57466
525.0,0.578157
530.0,0.581753
535.0,0.585362
540.0,0.589235
545.0,0.592185
550.0,0.596351
555.0,0.598833
560.0,0.602508
565.0,0.605615
570.0,0.609081
575.0,0.611444
580.0,0.614532
585.0,0.616038
590.0,0.619566
595.0,0.621658
600.0,0.624357
605.0,0.626491
610.0,0.628114
615.0,0.628779
620.0,0.630226
625.0,0.631143
630.0,0.63283
635.0,0.633619
640.0,0.635454
645.0,0.636727
650.0,0.638272
655.0,0.639417
660.0,0.640772
665.0,0.642286
670.0,0.643092
675.0,0.644413
680.0,0.645064
685.0,0.64651
690.0,0.647044
695.0,0.647942
700.0,0.648719
705.0,0.649247
710.0,0.649752
715.0,0.650791
720.0,0.652234
725.0,0.651052
730.0,0.652952
735.0,0.65254
740.0,0.653074
745.0,0.65357
750.0,0.654635
755.0,0.655623
760.0,0.656551
765.0,0.657381
770.0,0.658585
775.0,0.659425
780.0,0.660488
785.0,0.660983
790.0,0.661453
795.0,0.661922
800.0,0.661623
805.0,0.662514
810.0,0.663048
815.0,0.663949
820.0,0.664754
825.0,0.665047
830.0,0.665242
835.0,0.666066
840.0,0.666178
845.0,0.666608
850.0,0.666188
855.0,0.666014
860.0,0.665397
865.0,0.665566
870.0,0.665299
875.0,0.6642
880.0,0.662803
885.0,0.661224
890.0,0.660749
895.0,0.658178
900.0,0.655452
905.0,0.656474
910.0,0.656455
915.0,0.655577
920.0,0.654666
925.0,0.654188
930.0,0.652416
935.0,0.650893
940.0,0.650346
945.0,0.652582
950.0,0.65527
955.0,0.658
960.0,0.660515
965.0,0.663526
970.0,0.666201
975.0,0.667497
980.0,0.668516
985.0,0.672193
990.0,0.671876
995.0,0.671843
1000.0,0.672902
1005.0,0.67365
1010.0,0.672733
1015.0,0.673859
1020.0,0.672134
1025.0,0.672242
1030.0,0.672127
1035.0,0.673003
1040.0,0.673414
1045.0,0.676005
1050.0,0.675541
1055.0,0.675874
1060.0,0.675599
1065.0,0.676682
1070.0,0.676108
1075.0,0.677275
1080.0,0.67749
1085.0,0.678338
1090.0,0.677022
1095.0,0.67799
1100.0,0.677235
1105.0,0.677963
1110.0,0.67809
1115.0,0.679894
1120.0,0.679296
1125.0,0.681233
1130.0,0.682118
1135.0,0.682126
1140.0,0.68271
1145.0,0.684214
1150.0,0.683175
1155.0,0.682939
1160.0,0.684229
1165.0,0.683156
1170.0,0.683571
1175.0,0.684413
1180.0,0.684653
1185.0,0.68492
1190.0,0.68543
1195.0,0.686284
1200.0,0.686981
1205.0,0.688118
1210.0,0.688735
1215.0,0.689275
1220.0,0.689565
1225.0,0.690299
1230.0,0.690538
1235.0,0.691417
1240.0,0.691512
1245.0,0.691477
1250.0,0.692197
1255.0,0.693081
1260.0,0.693573
1265.0,0.693929
1270.0,0.694695
1275.0,0.694635
1280.0,0.694656
1285.0,0.694714
1290.0,0.695721
1295.0,0.696346
1300.0,0.697553
1305.0,0.698132
1310.0,0.698449
1315.0,0.698414
1320.0,0.698906
1325.0,0.698929
1330.0,0.699684
1335.0,0.701043
1340.0,0.700985
1345.0,0.700857
1350.0,0.700992
1355.0,0.701074
1360.0,0.701643
1365.0,0.703951
1370.0,0.704299
1375.0,0.70536
1380.0,0.706207
1385.0,0.705927
1390.0,0.705122
1395.0,0.705518
1400.0,0.704426
1405.0,0.704314
1410.0,0.70509
1415.0,0.706099
1420.0,0.705669
1425.0,0.705449
1430.0,0.705394
1435.0,0.705063
1440.0,0.704924
1445.0,0.70627
1450.0,0.707241
1455.0,0.70791
1460.0,0.708843
1465.0,0.709494
1470.0,0.709167
1475.0,0.709516
1480.0,0.709584
1485.0,0.709902
1490.0,0.710197
1495.0,0.710594
1500.0,0.710952
1505.0,0.711693
1510.0,0.71182
1515.0,0.711981
1520.0,0.712779
1525.0,0.713029
1530.0,0.713329
1535.0,0.713815
1540.0,0.713907
1545.0,0.713409
1550.0,0.713713
1555.0,0.713634
1560.0,0.714189
1565.0,0.714663
1570.0,0.714875
1575.0,0.71449
1580.0,0.714493
1585.0,0.714182
1590.0,0.714242
1595.0,0.714974
1600.0,0.714945
1605.0,0.715204
1610.0,0.716098
1615.0,0.716422
1620.0,0.716299
1625.0,0.717048
1630.0,0.716805
1635.0,0.716814
1640.0,0.717457
1645.0,0.717681
1650.0,0.717784
1655.0,0.718115
1660.0,0.716685
1665.0,0.715987
1670.0,0.715854
1675.0,0.716463
1680.0,0.715904
1685.0,0.716056
1690.0,0.715032
1695.0,0.714848
1700.0,0.714824
1705.0,0.715345
1710.0,0.715018
1715.0,0.715574
1720.0,0.715863
1725.0,0.71661
1730.0,0.717342
1735.0,0.717745
1740.0,0.718544
1745.0,0.718954
1750.0,0.718506
1755.0,0.71797
1760.0,0.717255
1765.0,0.71643
1770.0,0.716048
1775.0,0.716227
1780.0,0.716413
1785.0,0.71715
1790.0,0.717303
1795.0,0.717398
1800.0,0.717275
1805.0,0.717811
1810.0,0.717195
1815.0,0.717532
1820.0,0.717255
1825.0,0.717144
1830.0,0.716484
1835.0,0.716891
1840.0,0.716681
1845.0,0.716631
1850.0,0.716977
1855.0,0.716947
1860.0,0.71536
1865.0,0.716312
1870.0,0.716441
1875.0,0.715288
1880.0,0.714616
1885.0,0.716371
1890.0,0.714096
1895.0,0.714043
1900.0,0.713696
1905.0,0.714318
1910.0,0.713259
1915.0,0.71413
1920.0,0.714215
1925.0,0.714388
1930.0,0.71454
1935.0,0.715386
1940.0,0.715094
1945.0,0.714471
1950.0,0.714009
1955.0,0.713036
1960.0,0.712749
1965.0,0.71267
1970.0,0.713068
1975.0,0.713857
1980.0,0.714079
1985.0,0.714765
1990.0,0.715213
1995.0,0.715505
2000.0,0.715224
2005.0,0.715901
2010.0,0.715254
2015.0,0.715134
2020.0,0.714495
2025.0,0.714689
2030.0,0.713951
2035.0,0.713361
2040.0,0.713308
2045.0,0.713954
2050.0,0.712508
2055.0,0.713038
2060.0,0.713292
2065.0,0.713026
2070.0,0.712525
2075.0,0.7137
2080.0,0.713903
2085.0,0.713278
2090.0,0.713339
2095.0,0.713738
2100.0,0.713751
2105.0,0.713143
2110.0,0.713619
2115.0,0.713771
2120.0,0.713337
2125.0,0.71256
2130.0,0.711937
2135.0,0.711321
2140.0,0.710331
2145.0,0.708852
2150.0,0.70855
2155.0,0.707938
2160.0,0.707667
2165.0,0.707005
2170.0,0.707487
2175.0,0.707055
2180.0,0.707337
2185.0,0.706814
2190.0,0.706742
2195.0,0.705124
2200.0,0.703037
2205.0,0.700601
2210.0,0.699437
2215.0,0.697884
2220.0,0.6975
2225.0,0.697592
2230.0,0.697624
2235.0,0.698197
2240.0,0.698966
2245.0,0.699425
2250.0,0.700613
2255.0,0.701208
2260.0,0.70077
2265.0,0.701276
2270.0,0.701634
2275.0,0.701942
2280.0,0.703216
2285.0,0.703327
2290.0,0.703526
2295.0,0.703874
2300.0,0.703789
2305.0,0.702951
2310.0,0.702807
2315.0,0.701481
2320.0,0.699703
2325.0,0.697746
2330.0,0.695637
2335.0,0.692564
2340.0,0.690106
2345.0,0.687595
2350.0,0.684397
2355.0,0.682084
2360.0,0.681134
2365.0,0.680912
2370.0,0.681273
2375.0,0.681415
2380.0,0.682726
2385.0,0.684604
2390.0,0.685573
2395.0,0.686028
2400.0,0.688345
2405.0,0.687703
2410.0,0.687609
2415.0,0.687062
2420.0,0.688349
2425.0,0.688622
2430.0,0.690469
2435.0,0.689938
2440.0,0.689921
2445.0,0.688223
2450.0,0.687388
2455.0,0.687516
2460.0,0.686687
2465.0,0.687647
2470.0,0.68695
2475.0,0.686707
2480.0,0.68579
2485.0,0.686235
2490.0,0.685618
2495.0,0.686403
2500.0,0.685635
2505.0,0.684643
2510.0,0.685416
2515.0,0.68436
2520.0,0.68387
2525.0,0.684379
2530.0,0.68553
2535.0,0.684545
2540.0,0.684527
2542.49,0.685013
2543.74,0.685638
2544.99,0.684454
2546.24,0.685107
2547.49,0.686734
2548.74,0.686186
2549.99,0.684766
2551.25,0.684147
2552.5,0.683939
2553.76,0.68593
2555.02,0.687186
2556.28,0.685852
2557.54,0.684305
2558.8,0.685243
2560.07,0.684466
2561.33,0.683095
2562.6,0.683023
2563.86,0.685503
2565.13,0.687119
2566.4,0.686686
2567.67,0.685618
2568.95,0.683332
2570.22,0.679996
2571.5,0.680887
2572.77,0.683535
2574.05,0.684458
2575.33,0.686176
2576.61,0.686411
2577.89,0.683346
2579.17,0.680664
2580.46,0.684709
2581.74,0.685534
2583.03,0.679285
2584.31,0.683689
2585.6,0.685874
2586.89,0.682724
2588.19,0.685333
2589.48,0.684647
2590.77,0.680282
2592.07,0.681671
2593.36,0.679686
2594.66,0.683444
2595.96,0.686732
2597.26,0.682348
2598.56,0.682996
2599.87,0.684902
2601.17,0.685383
2602.48,0.681735
2603.78,0.671807
2605.09,0.67166
2606.4,0.690303
2607.71,0.693974
2609.03,0.687967
2610.34,0.682764
2611.65,0.680097
2612.97,0.680131
2614.29,0.67809
2615.61,0.67737
2616.93,0.683361
2618.25,0.685601
2619.57,0.683522
2620.9,0.68429
2622.22,0.683278
2623.55,0.680672
2624.88,0.680574
2626.21,0.675341
2627.54,0.677199
2628.87,0.68489
2630.21,0.679424
2631.54,0.681911
2632.88,0.686293
2634.21,0.682252
2635.55,0.676247
2636.89,0.672571
2638.24,0.679345
2639.58,0.677043
2640.92,0.673986
2642.27,0.682763
2643.62,0.681582
2644.97,0.679184
2646.32,0.680218
2647.67,0.678706
2649.02,0.677314
2650.38,0.676925
2651.73,0.676929
2653.09,0.677731
2654.45,0.677549
2655.81,0.674669
2657.17,0.676638
2658.53,0.67859
2659.89,0.677372
2661.26,0.67501
2662.63,0.67289
2664.0,0.676123
2665.36,0.67617
2666.74,0.675462
2668.11,0.676745
2669.48,0.67388
2670.86,0.673644
2672.23,0.67482
2673.61,0.673099
2674.99,0.666339
2676.37,0.665825
2677.76,0.673182
2679.14,0.676668
2680.52,0.666557
2681.91,0.671574
2683.3,0.680661
2684.69,0.672941
2686.08,0.665135
2687.47,0.663912
2688.87,0.668217
2690.26,0.66942
2691.66,0.67193
2693.06,0.66729
2694.46,0.663012
2695.86,0.663144
2697.26,0.662669
2698.66,0.661869
2700.07,0.660194
2701.48,0.658029
2702.89,0.653128
2704.3,0.646823
2705.71,0.649032
2707.12,0.651305
2708.53,0.648729
2709.95,0.64198
2711.37,0.633979
2712.79,0.629393
2714.21,0.626515
2715.63,0.618708
2717.05,0.61106
2718.48,0.601671
2719.9,0.591094
2721.33,0.581002
2722.76,0.575051
2724.19,0.567235
2725.62,0.553097
2727.06,0.541098
2728.49,0.532225
2729.93,0.522162
2731.37,0.510379
2732.81,0.507806
2734.25,0.499116
2735.69,0.486284
2737.14,0.481311
2738.58,0.474297
2740.03,0.463481
2741.48,0.453567
2742.93,0.446015
2744.38,0.438389
2745.83,0.431489
2747.29,0.429581
2748.75,0.425391
2750.2,0.418592
2751.66,0.418453
2753.13,0.420215
2754.59,0.417863
2756.05,0.412709
2757.52,0.409079
2758.99,0.40745
2760.46,0.406829
2761.93,0.405805
2763.4,0.405268
2764.87,0.404009
2766.35,0.40062
2767.82,0.407044
2769.3,0.412649
2770.78,0.411589
2772.26,0.410058
2773.75,0.409819
2775.23,0.413212
2776.72,0.415564
2778.21,0.414208
2779.7,0.412923
2781.19,0.411855
2782.68,0.409824
2784.18,0.409163
2785.67,0.405912
2787.17,0.400309
2788.67,0.395459
2790.17,0.391755
2791.67,0.387091
2793.18,0.382257
2794.68,0.377903
2796.19,0.372276
2797.7,0.365176
2799.21,0.361346
2800.72,0.359509
2802.24,0.355508
2803.75,0.350615
2805.27,0.346939
2806.79,0.344183
2808.31,0.341602
2809.83,0.339607
2811.35,0.338499
2812.88,0.337109
2814.41,0.336252
2815.93,0.339262
2817.46,0.342625
2819.0,0.343642
2820.53,0.345644
2822.07,0.349467
2823.6,0.353523
2825.14,0.356685
2826.68,0.36067
2828.22,0.366351
2829.77,0.371343
2831.31,0.375942
2832.86,0.381704
2834.41,0.387373
2835.96,0.392054
2837.51,0.396603
2839.07,0.401573
2840.62,0.406231
2842.18,0.410383
2843.74,0.414062
2845.3,0.417401
2846.86,0.420977
2848.43,0.424363
2849.99,0.427414
2851.56,0.429771
2853.13,0.43108
2854.7,0.43232
2856.27,0.433714
2857.85,0.434792
2859.42,0.434554
2861.0,0.434122
2862.58,0.434329
2864.16,0.43384
2865.75,0.433171
2867.33,0.433138
2868.92,0.432882
2870.51,0.431921
2872.1,0.430562
2873.69,0.429994
2875.28,0.429608
2876.88,0.428652
2878.48,0.427803
2880.07,0.427537
2881.68,0.42736
2883.28,0.426294
2884.88,0.42582
2886.49,0.426192
2888.1,0.426459
2889.71,0.426302
2891.32,0.426057
2892.93,0.426549
2894.55,0.427293
2896.16,0.427706
2897.78,0.428321
2899.4,0.428806
2901.03,0.429209
2902.65,0.429877
2904.28,0.430124
2905.91,0.430324
2907.53,0.431106
2909.17,0.432048
2910.8,0.432544
2912.44,0.432506
2914.07,0.43342
2915.71,0.435021
2917.35,0.435701
2918.99,0.436071
2920.64,0.436683
2922.29,0.437512
2923.93,0.437929
2925.58,0.438341
2927.24,0.438836
2928.89,0.439531
2930.55,0.439937
2932.2,0.440384
2933.86,0.440814
2935.52,0.440704
2937.19,0.441387
2938.85,0.44248
2940.52,0.442502
2942.19,0.442706
2943.86,0.443465
2945.53,0.443875
2947.21,0.443765
2948.88,0.44406
2950.56,0.444769
2952.24,0.444875
2953.92,0.444855
2955.61,0.445123
2957.29,0.445369
2958.98,0.445354
2960.67,0.445742
2962.36,0.446271
2964.06,0.44628
2965.75,0.446398
2967.45,0.446426
2969.15,0.446875
2970.85,0.447436
2972.55,0.447561
2974.26,0.447526
2975.97,0.447466
2977.68,0.447441
2979.39,0.44763
2981.1,0.447696
2982.82,0.447977
2984.53,0.448252
2986.25,0.44835
2987.97,0.448458
2989.7,0.448453
2991.42,0.448292
2993.15,0.447918
2994.88,0.448048
2996.61,0.448507
2998.34,0.448915
3000.08,0.449299
3001.82,0.449062
3003.55,0.448886
3005.3,0.448792
3007.04,0.448735
3008.78,0.448765
3010.53,0.448574
3012.28,0.448692
3014.03,0.449096
3015.79,0.449139
3017.54,0.448917
3019.3,0.448703
3021.06,0.448752
3022.82,0.448868
3024.58,0.44869
3026.35,0.448728
3028.12,0.448348
3029.89,0.447826
3031.66,0.447523
3033.43,0.447418
3035.21,0.447008
3036.99,0.446741
3038.77,0.446617
3040.55,0.446404
3042.33,0.44593
3044.12,0.445302
3045.91,0.444805
3047.7,0.4448
3049.49,0.444596
3051.29,0.44401
3053.08,0.44319
3054.88,0.442143
3056.68,0.441598
3058.49,0.441336
3060.29,0.440979
3062.1,0.440565
3063.91,0.440002
3065.72,0.439137
3067.54,0.439037
3069.35,0.43892
3071.17,0.438405
3072.99,0.437921
3074.81,0.437775
3076.64,0.43691
3078.46,0.435958
3080.29,0.435129
3082.13,0.434394
3083.96,0.433765
3085.79,0.433344
3087.63,0.43289
3089.47,0.432333
3091.31,0.431948
3093.16,0.431331
3095.01,0.430666
3096.85,0.430429
3098.71,0.430222
3100.56,0.429569
3102.41,0.429277
3104.27,0.429295
3106.13,0.429322
3107.99,0.428871
3109.86,0.428635
3111.73,0.428682
3113.59,0.428734
3115.47,0.42869
3117.34,0.428923
3119.21,0.4292
3121.09,0.429438
3122.97,0.429373
3124.86,0.429386
3126.74,0.429658
3128.63,0.429987
3130.52,0.430159
3132.41,0.430265
3134.3,0.430774
3136.2,0.431037
3138.1,0.431467
3140.0,0.431978
3141.9,0.432316
3143.81,0.432833
3145.71,0.433306
3147.62,0.433788
3149.54,0.434426
3151.45,0.434713
3153.37,0.435278
3155.29,0.4362
3157.21,0.436545
3159.13,0.436928
3161.06,0.437898
3162.99,0.438905
3164.92,0.439568
3166.85,0.440397
3168.79,0.441026
3170.72,0.441599
3172.67,0.442139
3174.61,0.442675
3176.55,0.443122
3178.5,0.443774
3180.45,0.44483
3182.4,0.445957
3184.36,0.446894
3186.32,0.447801
3188.27,0.44863
3190.24,0.449546
3192.2,0.450673
3194.17,0.451797
3196.14,0.45252
3198.11,0.453154
3200.08,0.454269
3202.06,0.455682
3204.04,0.456506
3206.02,0.457407
3208.0,0.458641
3209.99,0.459852
3211.98,0.461039
3213.97,0.46221
3215.96,0.463222
3217.96,0.464281
3219.96,0.465268
3221.96,0.466641
3223.96,0.467827
3225.97,0.469027
3227.98,0.470529
3229.99,0.471666
3232.0,0.472911
3234.02,0.474316
3236.04,0.475511
3238.06,0.476761
3240.08,0.478332
3242.11,0.479745
3244.14,0.480829
3246.17,0.482115
3248.2,0.483809
3250.24,0.485312
3252.28,0.48669
3254.32,0.487942
3256.37,0.48933
3258.41,0.490786
3260.46,0.49205
3262.51,0.493497
3264.57,0.494822
3266.63,0.496261
3268.69,0.497873
3270.75,0.499385
3272.81,0.50066
3274.88,0.501957
3276.95,0.503189
3279.02,0.50443
3281.1,0.505917
3283.18,0.50746
3285.26,0.508624
3287.34,0.50996
3289.43,0.511665
3291.51,0.513035
3293.61,0.514398
3295.7,0.515647
3297.8,0.516541
3299.89,0.517742
3302.0,0.519287
3304.1,0.520734
3306.21,0.521874
3308.32,0.522811
3310.43,0.524009
3312.55,0.52506
3314.66,0.525994
3316.78,0.527157
3318.91,0.528195
3321.03,0.529366
3323.16,0.530626
3325.29,0.531699
3327.43,0.532523
3329.57,0.533374
3331.71,0.534577
3333.85,0.535998
3335.99,0.537469
3338.14,0.538759
3340.29,0.539807
3342.45,0.540684
3344.6,0.54153
3346.76,0.542774
3348.92,0.543983
3351.09,0.544874
3353.26,0.545667
3355.43,0.546676
3357.6,0.547601
3359.78,0.548225
3361.96,0.548787
3364.14,0.549753
3366.32,0.550506
3368.51,0.550791
3370.7,0.550726
3372.89,0.550591
3375.09,0.550587
3377.29,0.55042
3379.49,0.54981
3381.69,0.548961
3383.9,0.547466
3386.11,0.54591
3388.32,0.544762
3390.54,0.543483
3392.76,0.542463
3394.98,0.542232
3397.21,0.542412
3399.43,0.542942
3401.66,0.544075
3403.9,0.545122
3406.13,0.546
3408.37,0.546772
3410.61,0.54711
3412.86,0.546533
3415.11,0.545419
3417.36,0.543611
3419.61,0.541342
3421.87,0.538888
3424.13,0.53614
3426.39,0.533081
3428.66,0.529975
3430.93,0.527331
3433.2,0.525516
3435.48,0.524949
3437.76,0.525951
3440.04,0.528449
3442.32,0.531917
3444.61,0.536124
3446.9,0.540823
3449.19,0.54529
3451.49,0.549408
3453.79,0.553211
3456.09,0.556477
3458.4,0.559263
3460.7,0.561594
3463.02,0.564
3465.33,0.566205
3467.65,0.568196
3469.97,0.570203
3472.29,0.572053
3474.62,0.573894
3476.95,0.575912
3479.29,0.577809
3481.62,0.579491
3483.96,0.580697
3486.3,0.581424
3488.65,0.581982
3491.0,0.582268
3493.35,0.582385
3495.71,0.582361
3498.07,0.582421
3500.43,0.58263
3502.79,0.582987
3505.16,0.583162
3507.53,0.583037
3509.91,0.582312
3512.29,0.58096
3514.67,0.579297
3517.05,0.577615
3519.44,0.576369
3521.83,0.576416
3524.22,0.577947
3526.62,0.58078
3529.02,0.585164
3531.43,0.590331
3533.83,0.595322
3536.24,0.599967
3538.66,0.603743
3541.08,0.607005
3543.5,0.609669
3545.92,0.612073
3548.35,0.614293
3550.78,0.615875
3553.21,0.617007
3555.65,0.618221
3558.09,0.619641
3560.53,0.62109
3562.98,0.62212
3565.43,0.623157
3567.88,0.623935
3570.34,0.62479
3572.8,0.625715
3575.27,0.626504
3577.73,0.627237
3580.2,0.628011
3582.68,0.629058
3585.16,0.63002
3587.64,0.630783
3590.12,0.631371
3592.61,0.632053
3595.1,0.632746
3597.6,0.633419
3600.09,0.634149
3602.6,0.634743
3605.1,0.635556
3607.61,0.636266
3610.12,0.637014
3612.64,0.637657
3615.16,0.638183
3617.68,0.638529
3620.21,0.639121
3622.74,0.639572
3625.27,0.640094
3627.81,0.64063
3630.35,0.641255
3632.89,0.64177
3635.44,0.642259
3637.99,0.642671
3640.54,0.643089
3643.1,0.643601
3645.66,0.644074
3648.23,0.644367
3650.8,0.64461
3653.37,0.644965
3655.95,0.645452
3658.53,0.645884
3661.11,0.646195
3663.7,0.646557
3666.29,0.646944
3668.89,0.647454
3671.48,0.647936
3674.09,0.648184
3676.69,0.648379
3679.3,0.648684
3681.91,0.648774
3684.53,0.649198
3687.15,0.649905
3689.78,0.650085
3692.4,0.650378
3695.04,0.651039
3697.67,0.651569
3700.31,0.651654
3702.95,0.651838
3705.6,0.652193
3708.25,0.652371
3710.91,0.652425
3713.56,0.653029
3716.23,0.653593
3718.89,0.65396
3721.56,0.654184
3724.23,0.654471
3726.91,0.654656
3729.59,0.654719
3732.28,0.654774
3734.97,0.655122
3737.66,0.655543
3740.36,0.655949
3743.06,0.656034
3745.76,0.656147
3748.47,0.656208
3751.18,0.656314
3753.9,0.656408
3756.62,0.656451
3759.34,0.656399
3762.07,0.656189
3764.8,0.656077
3767.54,0.656267
3770.28,0.65614
3773.02,0.655892
3775.77,0.655843
3778.52,0.655704
3781.28,0.655535
3784.04,0.655623
3786.8,0.655967
3789.57,0.656407
3792.34,0.656508
3795.12,0.656771
3797.9,0.657212
3800.69,0.657508
3803.47,0.65785
3806.27,0.658271
3809.06,0.658865
3811.86,0.659405
3814.67,0.65974
3817.48,0.660003
3820.29,0.660584
3823.11,0.66126
3825.93,0.661667
3828.76,0.662152
3831.59,0.662785
3834.42,0.663514
3837.26,0.664097
3840.1,0.664519
3842.95,0.665065
3845.8,0.665691
3848.65,0.666078
3851.51,0.666666
3854.38,0.667282
3857.24,0.667447
3860.12,0.667383
3862.99,0.667504
3865.87,0.667955
3868.76,0.668071
3871.65,0.667776
3874.54,0.667742
3877.44,0.667489
3880.34,0.666947
3883.25,0.666451
3886.16,0.665979
3889.07,0.665536
3891.99,0.665078
3894.92,0.664198
3897.85,0.663462
3900.78,0.662793
3903.72,0.66212
3906.66,0.661667
3909.6,0.661307
3912.55,0.660776
3915.51,0.660325
3918.47,0.660112
3921.43,0.66033
3924.4,0.660585
3927.37,0.661036
3930.35,0.661532
3933.33,0.662201
3936.32,0.663063
3939.31,0.663869
3942.31,0.664458
3945.31,0.665099
3948.31,0.665705
3951.32,0.666437
3954.34,0.666925
3957.35,0.667284
3960.38,0.667689
3963.41,0.668001
3966.44,0.66799
3969.48,0.667881
3972.52,0.667858
3975.56,0.667834
3978.61,0.66774
3981.67,0.667661
3984.73,0.667526
3987.8,0.667359
3990.87,0.66735
3993.94,0.667253
3997.02,0.667237
4000.1,0.667313
4003.19,0.667147
4006.29,0.667276
4009.39,0.667501
4012.49,0.667711
4015.6,0.667757
4018.71,0.668068
4021.83,0.668471
4024.95,0.668779
4028.08,0.668887
4031.21,0.669281
4034.35,0.669522
4037.49,0.669796
4040.64,0.670161
4043.79,0.670691
4046.94,0.67104
4050.11,0.671249
4053.27,0.671532
4056.44,0.672002
4059.62,0.672434
4062.8,0.672677
4065.99,0.672996
4069.18,0.673418
4072.38,0.673797
4075.58,0.67412
4078.78,0.674525
4082.0,0.674909
4085.21,0.675085
4088.43,0.675484
4091.66,0.675817
4094.89,0.676258
4098.13,0.676505
4101.37,0.676746
4104.62,0.677057
4107.87,0.677453
4111.13,0.677741
4114.39,0.678064
4117.66,0.678358
4120.93,0.678583
4124.21,0.679007
4127.5,0.679495
4130.78,0.679856
4134.08,0.680149
4137.38,0.680364
4140.68,0.680638
4143.99,0.680716
4147.31,0.680901
4150.63,0.681129
4153.95,0.681178
4157.29,0.681262
4160.62,0.681502
4163.96,0.681533
4167.31,0.681701
4170.66,0.681822
4174.02,0.681776
4177.39,0.681741
4180.75,0.681955
4184.13,0.681986
4187.51,0.682008
4190.89,0.682103
4194.28,0.682384
4197.68,0.682502
4201.08,0.682494
4204.49,0.682421
4207.9,0.682613
4211.32,0.682579
4214.74,0.682868
4218.17,0.682848
4221.61,0.682626
4225.05,0.682482
4228.5,0.682491
4231.95,0.682047
4235.4,0.681627
4238.87,0.68115
4242.34,0.680892
4245.81,0.680765
4249.29,0.680517
4252.78,0.68062
4256.27,0.681104
4259.77,0.681401
4263.27,0.68161
4266.78,0.681862
4270.29,0.682526
4273.81,0.683136
4277.34,0.683913
4280.87,0.684309
4284.41,0.683158
4287.95,0.680742
4291.5,0.679774
4295.06,0.679994
4298.62,0.680603
4302.19,0.681131
4305.76,0.681333
4309.34,0.681273
4312.92,0.68123
4316.52,0.681107
4320.11,0.681213
4323.72,0.681221
4327.32,0.681108
4330.94,0.680913
4334.56,0.681024
4338.19,0.681185
4341.82,0.68108
4345.46,0.680864
4349.11,0.680798
4352.76,0.680597
4356.42,0.680671
4360.08,0.680563
4363.75,0.680364
4367.43,0.680262
4371.11,0.680349
4374.8,0.680224
4378.49,0.679946
4382.19,0.67972
4385.9,0.679503
4389.61,0.679402
4393.33,0.679586
4397.06,0.679429
4400.79,0.679217
4404.53,0.679051
4408.28,0.679007
4412.03,0.67886
4415.79,0.678846
4419.55,0.67868
4423.32,0.678688
4427.1,0.678501
4430.88,0.678368
4434.67,0.678353
4438.47,0.67811
4442.27,0.677689
4446.08,0.677605
4449.9,0.677646
4453.72,0.677494
4457.55,0.677148
4461.39,0.677064
4465.23,0.676983
4469.08,0.676871
4472.94,0.676727
4476.8,0.676617
4480.67,0.676489
4484.55,0.67631
4488.43,0.676112
4492.32,0.67601
4496.21,0.67581
4500.12,0.675725
4504.03,0.675588
4507.94,0.675318
4511.87,0.674912
4515.8,0.674781
4519.73,0.67465
4523.68,0.674564
4527.63,0.674433
4531.59,0.674296
4535.55,0.674098
4539.52,0.673815
4543.5,0.673549
4547.49,0.673654
4551.48,0.673649
4555.48,0.673602
4559.49,0.673699
4563.5,0.673695
4567.52,0.673749
4571.55,0.673773
4575.58,0.673733
4579.62,0.673937
4583.67,0.674023
4587.73,0.673847
4591.79,0.673488
4595.86,0.673602
4599.94,0.6737
4604.03,0.673662
4608.12,0.673503
4612.22,0.673364
4616.33,0.67326
4620.44,0.673011
4624.56,0.672601
4628.69,0.672276
4632.83,0.672058
4636.97,0.671839
4641.12,0.67149
4645.28,0.671095
4649.45,0.670695
4653.62,0.670447
4657.8,0.670219
4661.99,0.669834
4666.19,0.669386
4670.39,0.668871
4674.6,0.668347
4678.82,0.667935
4683.05,0.66749
4687.28,0.667129
4691.52,0.666699
4695.77,0.66608
4700.03,0.665765
4704.3,0.665708
4708.57,0.665409
4712.85,0.665189
4717.14,0.664921
4721.43,0.664774
4725.74,0.664579
4730.05,0.664449
4734.37,0.664363
4738.7,0.664484
4743.03,0.664597
4747.38,0.664488
4751.73,0.664138
4756.09,0.663868
4760.45,0.663743
4764.83,0.663649
4769.21,0.663371
4773.6,0.663153
4778.0,0.662836
4782.41,0.662474
4786.83,0.661992
4791.25,0.66161
4795.68,0.661228
4800.13,0.660863
4804.57,0.660434
4809.03,0.659934
4813.5,0.659484
4817.97,0.659045
4822.45,0.658602
4826.94,0.658214
4831.44,0.657749
4835.95,0.657165
4840.46,0.656618
4844.99,0.656081
4849.52,0.65531
4854.06,0.654615
4858.61,0.653935
4863.17,0.653359
4867.73,0.652559
4872.31,0.651834
4876.89,0.651185
4881.48,0.650681
4886.08,0.649873
4890.69,0.648915
4895.31,0.648134
4899.94,0.6472
4904.57,0.646226
4909.22,0.645449
4913.87,0.644514
4918.53,0.643738
4923.21,0.642949
4927.88,0.641879
4932.57,0.640874
4937.27,0.640271
4941.98,0.639325
4946.69,0.638119
4951.42,0.637108
4956.15,0.636313
4960.89,0.635389
4965.65,0.634437
4970.41,0.633543
4975.18,0.63241
4979.96,0.631157
4984.75,0.629906
4989.54,0.628494
4994.35,0.627334
4999.17,0.626523
5003.99,0.625315
5008.83,0.623897
5013.67,0.622544
5018.52,0.621151
5023.39,0.619714
5028.26,0.618226
5033.14,0.616611
5038.03,0.614994
5042.93,0.613365
5047.84,0.611624
5052.76,0.609665
5057.69,0.608028
5062.63,0.607084
5067.58,0.605508
5072.54,0.603925
5077.51,0.602167
5082.49,0.600511
5087.47,0.598896
5092.47,0.597478
5097.48,0.595973
5102.5,0.594564
5107.52,0.593144
5112.56,0.5917
5117.61,0.590128
5122.66,0.588723
5127.73,0.587715
5132.81,0.5861
5137.89,0.584316
5142.99,0.58263
5148.1,0.581216
5153.22,0.579653
5158.34,0.578061
5163.48,0.576153
5168.63,0.574091
5173.79,0.572073
5178.96,0.570393
5184.13,0.568311
5189.32,0.567084
5194.52,0.566212
5199.73,0.563883
5204.95,0.561754
5210.19,0.559736
5215.43,0.558112
5220.68,0.556425
5225.94,0.554569
5231.22,0.552674
5236.5,0.550418
5241.79,0.548597
5247.1,0.547331
5252.42,0.544465
5257.74,0.543817
5263.08,0.542117
5268.43,0.538931
5273.79,0.536274
5279.16,0.533953
5284.54,0.53159
5289.93,0.528671
5295.34,0.525636
5300.75,0.522511
5306.18,0.519126
5311.61,0.515191
5317.06,0.510886
5322.52,0.506896
5327.99,0.502142
5333.47,0.496987
5338.96,0.493267
5344.47,0.488535
5349.98,0.483689
5355.51,0.47933
5361.05,0.475248
5366.6,0.471498
5372.16,0.467992
5377.73,0.464607
5383.32,0.461276
5388.91,0.457306
5394.52,0.454941
5400.14,0.454172
5405.77,0.451492
5411.41,0.448519
5417.07,0.44584
5422.74,0.443316
5428.41,0.440772
5434.1,0.438492
5439.81,0.436003
5445.52,0.433551
5451.25,0.430816
5456.98,0.428274
5462.73,0.424694
5468.5,0.42377
5474.27,0.423457
5480.06,0.419599
5485.86,0.416754
5491.67,0.414442
5497.49,0.412287
5503.33,0.409462
5509.18,0.407713
5515.04,0.408557
5520.91,0.407223
5526.8,0.407253
5532.69,0.408265
5538.61,0.407705
5544.53,0.407884
5550.47,0.408174
5556.41,0.408506
5562.38,0.407886
5568.35,0.407757
5574.34,0.408039
5580.34,0.407881
5586.35,0.406908
5592.38,0.405814
5598.42,0.404917
5604.47,0.405204
5610.54,0.404693
5616.61,0.403291
5622.71,0.401173
5628.81,0.402589
5634.93,0.403863
5641.06,0.402182
5647.21,0.400619
5653.36,0.400751
5659.54,0.3997
5665.72,0.398923
5671.92,0.398512
5678.13,0.396728
5684.36,0.393907
5690.6,0.392679
5696.85,0.39379
5703.12,0.390537
5709.4,0.388676
5715.69,0.385344
5722.0,0.381281
5728.33,0.379981
5734.66,0.377167
5741.01,0.373537
5747.38,0.372194
5753.76,0.368129
5760.15,0.365563
5766.56,0.365439
5772.98,0.36377
5779.41,0.361179
5785.86,0.358281
5792.33,0.355475
5798.81,0.352892
5805.3,0.351046
5811.81,0.34415
5818.33,0.342271
5824.87,0.343047
5831.42,0.33875
5837.99,0.335734
5844.57,0.332849
5851.17,0.330188
5857.78,0.328152
5864.41,0.324519
5871.05,0.321166
5877.7,0.322436
5884.38,0.321793
5891.06,0.319385
5897.76,0.316586
5904.48,0.313975
5911.21,0.311147
5917.96,0.30965
5924.73,0.30704
5931.5,0.302208
5938.3,0.305691
5945.11,0.302987
5951.93,0.302589
5958.78,0.303809
5965.63,0.300841
5972.51,0.299794
5979.39,0.299043
5986.3,0.296556
5993.22,0.300739
6000.16,0.304806
6007.11,0.304481
6014.08,0.305237
6021.06,0.305696
6028.06,0.310726
6035.08,0.31201
6042.12,0.313085
6049.17,0.31824
6056.23,0.321228
6063.32,0.321493
6070.42,0.324712
6077.53,0.32902
6084.67,0.330988
6091.82,0.332055
6098.98,0.330125
6106.17,0.337827
6113.37,0.348972
6120.58,0.346702
6127.82,0.348976
6135.07,0.35741
6142.34,0.361727
6149.63,0.363923
6156.93,0.367548
6164.25,0.368876
6171.59,0.374913
6178.94,0.383748
6186.32,0.385863
6193.71,0.387532
6201.12,0.39128
6208.54,0.394426
6215.99,0.396415
6223.45,0.401316
6230.93,0.402916
6238.43,0.401477
6245.95,0.406168
6253.48,0.410516
6261.03,0.409346
6268.6,0.409553
6276.19,0.410176
6283.8,0.410783
6291.43,0.410398
6299.07,0.410037
6306.73,0.409501
6314.42,0.408542
6322.12,0.407035
6329.83,0.405454
6337.57,0.403726
6345.33,0.401641
6353.11,0.399351
6360.9,0.396795
6368.72,0.393842
6376.55,0.390672
6384.4,0.387065
6392.27,0.38234
6400.17,0.37522
6408.08,0.371217
6416.01,0.366794
6423.96,0.356467
6431.93,0.347395
6439.92,0.340083
6447.93,0.330825
6455.96,0.322228
6464.01,0.313952
6472.08,0.305022
6480.17,0.30571
6488.28,0.305838
6496.41,0.302713
6504.56,0.302652
6512.73,0.302052
6520.92,0.303059
6529.14,0.30266
6537.37,0.302279
6545.63,0.30249
6553.9,0.302461
6562.2,0.30783
6570.51,0.311334
6578.85,0.309858
6587.21,0.313024
6595.59,0.318454
6603.99,0.321023
6612.42,0.324726
6620.86,0.330456
6629.33,0.335104
6637.82,0.340092
6646.33,0.349969
6654.86,0.353327
6663.41,0.35833
6671.99,0.361712
6680.59,0.363094
6689.21,0.36368
6697.85,0.361431
6706.51,0.364494
6715.2,0.367975
6723.91,0.36362
6732.64,0.358598
6741.4,0.353988
6750.18,0.349879
6758.98,0.345318
6767.8,0.336981
6776.65,0.327235
6785.52,0.318809
6794.41,0.309365
6803.33,0.299507
6812.27,0.289501
6821.23,0.280945
6830.22,0.273624
6839.23,0.266847
6848.26,0.261378
6857.32,0.257075
6866.4,0.255965
6875.51,0.254637
6884.64,0.252699
6893.8,0.252556
6902.98,0.256076
6912.18,0.259485
6921.41,0.261613
6930.66,0.264772
6939.94,0.273937
6949.24,0.279549
6958.57,0.280994
6967.92,0.28261
6977.3,0.283267
6986.7,0.283862
6996.13,0.28253
7005.59,0.280336
7015.07,0.277809
7024.57,0.273928
7034.1,0.270747
7043.66,0.269597
7053.24,0.265607
7062.85,0.261767
7072.49,0.258883
7082.15,0.256148
7091.84,0.252768
7101.55,0.25081
7111.3,0.247993
7121.06,0.245794
7130.86,0.246162
7140.68,0.244971
7150.53,0.24351
7160.41,0.242548
7170.31,0.242202
7180.24,0.241901
7190.2,0.241458
7200.19,0.241873
7210.2,0.241974
7220.24,0.241428
7230.31,0.24188
7240.41,0.24173
7250.54,0.241733
7260.69,0.241876
7270.88,0.240628
7281.09,0.239168
7291.33,0.238301
7301.6,0.236981
7311.9,0.234803
7322.22,0.232705
7332.58,0.23034
7342.97,0.228345
7353.38,0.22639
7363.83,0.225225
7374.3,0.223905
7384.81,0.222694
7395.34,0.222096
7405.91,0.221743
7416.5,0.221531
7427.13,0.222284
7437.78,0.222964
7448.47,0.223839
7459.19,0.225013
7469.94,0.226463
7480.71,0.227938
7491.52,0.229693
7502.37,0.231548
7513.24,0.233404
7524.14,0.235091
7535.08,0.236594
7546.05,0.237816
7557.05,0.239615
7568.08,0.241037
7579.14,0.242185
7590.24,0.243209
7601.37,0.244284
7612.53,0.245204
7623.73,0.246441
7634.96,0.24753
7646.22,0.248252
7657.51,0.248612
7668.84,0.249005
7680.2,0.249319
7691.59,0.249232
7703.02,0.249054
7714.49,0.24903
7725.98,0.248842
7737.51,0.248881
7749.08,0.249005
7760.68,0.249026
7772.32,0.248801
7783.99,0.248668
7795.69,0.248349
7807.43,0.247943
7819.21,0.247099
7831.02,0.245962
7842.87,0.244765
7854.75,0.243385
7866.67,0.241481
7878.62,0.239473
7890.62,0.237286
7902.64,0.234918
7914.71,0.232279
7926.81,0.229592
7938.95,0.226867
7951.13,0.224534
7963.34,0.222623
7975.59,0.221079
7987.88,0.220112
8000.21,0.219722
8012.57,0.219703
8024.98,0.220088
8037.42,0.220762
8049.9,0.221765
8062.42,0.222902
8074.98,0.224149
8087.57,0.22511
8100.21,0.22593
8112.89,0.226456
8125.6,0.226638
8138.36,0.226624
8151.16,0.22648
8163.99,0.225948
8176.87,0.225267
8189.79,0.224192
8202.75,0.222934
8215.74,0.221714
8228.79,0.220583
8241.87,0.219256
8254.99,0.217915
8268.16,0.21638
8281.37,0.214869
8294.62,0.213082
8307.91,0.211348
8321.24,0.209492
8334.62,0.207562
8348.04,0.205461
8361.51,0.203337
8375.02,0.200929
8388.57,0.198342
8402.16,0.195733
8415.8,0.193
8429.49,0.190131
8443.22,0.187301
8456.99,0.184251
8470.81,0.181219
8484.67,0.178116
8498.58,0.175047
8512.54,0.171806
8526.54,0.168411
8540.58,0.16498
8554.68,0.161678
8568.82,0.158016
8583.0,0.154386
8597.24,0.150653
8611.52,0.146727
8625.85,0.14262
8640.22,0.138653
8654.65,0.134642
8669.12,0.130772
8683.64,0.126658
8698.21,0.12268
8712.83,0.118839
8727.5,0.115128
8742.22,0.111225
8756.98,0.107517
8771.8,0.103869
8786.67,0.100165
8801.59,0.096509
8816.56,0.092998
8831.58,0.089473
8846.65,0.08646
8861.77,0.083324
8876.94,0.080267
8892.17,0.077207
8907.45,0.07441
8922.78,0.071745
8938.16,0.069453
8953.6,0.067163
8969.09,0.064913
8984.64,0.062774
9000.23,0.060841
9015.89,0.058604
9031.59,0.056745
9047.36,0.055076
9063.17,0.05339
9079.04,0.051705
9094.97,0.050191
9110.96,0.048664
9127.0,0.047357
9143.09,0.045878
9159.25,0.044388
9175.46,0.042947
9191.73,0.04161
9208.05,0.040216
9224.44,0.039032
9240.88,0.037743
9257.38,0.036698
9273.94,0.035741
9290.56,0.035118
9307.24,0.034486
9323.98,0.034407
9340.78,0.034704
9357.64,0.035422
9374.57,0.036353
9391.55,0.038179
9408.59,0.040816
9425.7,0.04404
9442.87,0.047631
9460.1,0.052023
9477.39,0.057147
9494.75,0.063078
9512.17,0.069124
9529.66,0.075612
9547.21,0.082497
9564.82,0.089456
9582.5,0.096258
9600.25,0.102975
9618.06,0.109357
9635.94,0.115234
9653.88,0.120621
9671.89,0.125806
9689.97,0.1305
9708.12,0.135035
9726.33,0.139334
9744.61,0.143862
9762.97,0.148094
9781.39,0.152136
9799.88,0.156219
9818.44,0.160228
9837.07,0.164147
9855.77,0.168163
9874.54,0.172252
9893.39,0.176454
9912.3,0.180727
9931.29,0.184518
9950.35,0.187663
9969.49,0.190224
9988.7,0.191765
10007.98,0.192614
10027.34,0.192739
10046.77,0.192336
10066.28,0.191449
10085.87,0.190727
10105.53,0.190354
10125.26,0.19009
10145.08,0.18992
10164.97,0.189762
10184.94,0.189535
10204.99,0.189365
10225.12,0.188764
10245.33,0.187643
10265.61,0.186167
10285.98,0.184341
10306.43,0.182204
10326.96,0.179818
10347.57,0.177132
10368.27,0.174457
10389.05,0.171861
10409.91,0.169652
10430.85,0.168099
10451.88,0.166697
10473.0,0.165323
10494.2,0.164547
10515.49,0.164177
10536.86,0.163869
10558.32,0.163489
10579.87,0.163091
10601.5,0.162199
10623.23,0.160686
10645.04,0.159007
10666.94,0.157602
10688.94,0.156254
10711.02,0.155189
10733.2,0.1543
10755.47,0.153619
10777.83,0.153026
10800.28,0.152556
10822.83,0.151768
10845.47,0.150656
10868.21,0.148931
10891.04,0.146877
10913.97,0.144905
10936.99,0.143673
10960.12,0.143057
10983.34,0.142575
11006.66,0.141884
11030.07,0.140885
11053.59,0.139317
11077.21,0.137398
11100.93,0.134942
11124.75,0.131988
11148.68,0.128363
11172.7,0.123956
11196.84,0.118577
11221.07,0.112406
11245.41,0.105521
11269.86,0.098317
11294.41,0.091032
11319.07,0.084308
11343.84,0.078485
11368.72,0.073635
11393.7,0.069508
11418.8,0.066097
11444.01,0.063888
11469.33,0.063538
11494.76,0.065225
11520.3,0.068676
11545.96,0.073766
11571.73,0.080107
11597.62,0.086529
11623.62,0.092738
11649.74,0.098343
11675.98,0.103128
11702.34,0.107161
11728.81,0.110503
11755.41,0.113048
11782.13,0.115124
11808.96,0.116068
11835.92,0.116194
11863.01,0.115238
11890.22,0.112952
11917.55,0.109974
11945.01,0.107156
11972.6,0.104468
12000.31,0.102225
12028.16,0.101138
12056.13,0.101841
12084.23,0.103242
12112.46,0.10483
12140.83,0.106447
12169.33,0.107697
12197.96,0.107591
12226.73,0.106259
12255.64,0.10426
12284.68,0.102202
12313.86,0.099647
12343.18,0.096987
12372.64,0.094334
12402.24,0.092054
12431.98,0.090102
12461.86,0.088507
12491.89,0.086965
12522.06,0.085703
12552.38,0.084744
12582.85,0.083986
12613.47,0.083283
12644.23,0.083036
12675.15,0.08294
12706.21,0.083102
12737.43,0.083336
12768.8,0.083703
12800.33,0.084153
12832.02,0.084736
12863.86,0.08504
12895.86,0.085409
12928.02,0.085728
12960.34,0.086129
12992.82,0.08637
13025.46,0.086705
13058.27,0.087069
13091.25,0.087355
13124.39,0.087562
13157.7,0.087734
13191.18,0.087633
13224.83,0.087365
13258.66,0.086701
13292.65,0.085871
13326.83,0.084834
13361.17,0.083474
13395.7,0.081865
13430.4,0.08043
13465.29,0.079921
13500.35,0.08041
13535.6,0.081929
13571.03,0.084178
13606.65,0.086131
13642.46,0.088042
13678.46,0.089863
13714.64,0.091443
13751.02,0.092886
13787.59,0.094347
13824.36,0.09553
13861.32,0.096391
13898.48,0.096883
13935.85,0.096758
13973.41,0.096432
14011.17,0.096893
14049.15,0.097764
14087.32,0.099136
14125.71,0.100473
14164.3,0.102129
14203.11,0.103685
14242.13,0.104918
14281.36,0.106064
14320.81,0.107101
14360.48,0.107945
14400.38,0.108741
14440.49,0.109222
14480.82,0.109002
14521.39,0.108591
14562.18,0.108025
14603.2,0.106796
14644.45,0.105365
14685.93,0.103328
14727.66,0.101432
14769.62,0.099593
14811.81,0.097149
14854.25,0.094238
14896.94,0.091491
14939.87,0.089108
14983.05,0.087748
15026.48,0.086871
15070.16,0.086088
15114.1,0.085481
15158.29,0.085112
15202.74,0.084537
15247.46,0.083951
15292.43,0.083072
15337.68,0.082414
15383.19,0.081806
15428.97,0.080979
15475.03,0.079342
15521.36,0.077799
15567.97,0.07624
15614.86,0.074124
15662.04,0.071622
15709.5,0.069213
15757.25,0.066498
15805.29,0.063685
15853.62,0.060961
15902.25,0.058064
15951.18,0.054939
16000.42,0.051333
16049.95,0.047579
16099.8,0.04436
16149.95,0.041001
16200.42,0.037736
16251.21,0.034657
16302.31,0.032748
16353.74,0.031916
16405.49,0.031516
16457.57,0.031991
16509.98,0.033849
16562.73,0.036584
16615.82,0.039081
16669.24,0.040562
16723.02,0.041489
16777.13,0.041663
16831.61,0.041526
16886.43,0.041159
16941.62,0.040495
16997.16,0.040107
17053.07,0.0397
17109.36,0.03862
17166.01,0.037462
17223.04,0.036392
17280.45,0.035723
17338.24,0.035066
17396.43,0.035094
17455.0,0.036275
17513.97,0.039428
17573.34,0.043575
17633.11,0.048804
17693.29,0.055349
17753.89,0.063388
17814.9,0.071247
17876.33,0.079192
17938.18,0.08642
18000.47,0.09296
18063.19,0.098814
18126.35,0.104879
18189.95,0.111672
18254.0,0.118393
18318.5,0.124179
18383.46,0.128878
18448.88,0.131564
18514.77,0.133969
18581.13,0.135588
18647.97,0.136508
18715.29,0.136357
18783.1,0.135479
18851.4,0.133535
18920.2,0.129779
18989.51,0.125016
19059.32,0.11937
19129.65,0.112116
19200.5,0.104503
19271.88,0.096143
19343.79,0.088297
19416.23,0.081471
19489.23,0.076925
19562.77,0.075683
19636.88,0.079099
19711.54,0.087182
19786.77,0.095465
19862.59,0.104204
19938.98,0.115131
20015.96,0.125977
20093.54,0.136708
20171.73,0.145437
20250.53,0.15191
20329.94,0.155553
20409.98,0.157124
20490.65,0.156346
20571.96,0.154814
20653.92,0.154168
20736.54,0.155085
20819.82,0.15705
20903.77,0.160055
20988.4,0.162098
21073.72,0.164787
21159.73,0.167466
21246.46,0.168958
21333.89,0.169265
21422.04,0.16945
21510.93,0.168688
21600.56,0.168737
21690.94,0.168185
21782.08,0.166287
21873.99,0.164213
21966.67,0.162447
22060.15,0.15788
22154.42,0.151557
22249.51,0.145628
22345.41,0.144239
22442.14,0.147531
22539.72,0.151975
22638.14,0.155678
22737.43,0.158571
22837.6,0.159483
22938.65,0.160463
23040.6,0.160976
23143.46,0.161734
23247.24,0.162051
23351.96,0.16326
23457.62,0.163743
23564.25,0.164019
23671.85,0.162736
23780.44,0.159894
23890.02,0.157635
24000.63,0.155758
24112.26,0.152041
24224.93,0.148135
24338.66,0.142377
24453.47,0.135023
24569.36,0.129206
24686.36,0.126882
24804.47,0.121983
24923.72,0.117229
25044.13,0.113674
25165.7,0.112239
25288.46,0.108343
25412.43,0.104312
25537.61,0.099
25664.03,0.097399
25791.71,0.097606
25920.67,0.096913
