Database of Origin,University of Winnipeg Spectrophotometer Facility
Sample Description,See Master Clays in HOSERLab database
Date Added,2016-12-11 20:57:06.589921

Data ID,RLA_CLAY_32         
Sample ID,VER102
Mineral Name,Vermiculite
Grain Size,<45um
Viewing Geometry,"30/0,30"
Resolution,"5,0.6-129"
Material Class,Phyllosilicate

Wavelength
305.0,0.05312
310.0,0.05251
315.0,0.053436
320.0,0.054448
325.0,0.056342
330.0,0.05858
335.0,0.061149
340.0,0.063691
345.0,0.066458
350.0,0.069296
355.0,0.07298
360.0,0.076969
365.0,0.08195
370.0,0.087625
375.0,0.094591
380.0,0.100933
385.0,0.106486
390.0,0.111495
395.0,0.116745
400.0,0.120408
405.0,0.122473
410.0,0.126307
415.0,0.129904
420.0,0.135673
425.0,0.14318
430.0,0.153499
435.0,0.164412
440.0,0.175958
445.0,0.1856
450.0,0.192971
455.0,0.197553
460.0,0.199588
465.0,0.201473
470.0,0.203279
475.0,0.206992
480.0,0.21215
485.0,0.219888
490.0,0.227799
495.0,0.237638
500.0,0.248718
505.0,0.260981
510.0,0.272416
515.0,0.284395
520.0,0.295439
525.0,0.306159
530.0,0.315027
535.0,0.323284
540.0,0.330319
545.0,0.33779
550.0,0.343457
555.0,0.349535
560.0,0.35432
565.0,0.359024
570.0,0.363153
575.0,0.367122
580.0,0.370808
585.0,0.373963
590.0,0.377162
595.0,0.380862
600.0,0.38405
605.0,0.387604
610.0,0.389053
615.0,0.391113
620.0,0.39285
625.0,0.394013
630.0,0.394798
635.0,0.397341
640.0,0.397385
645.0,0.398833
650.0,0.398426
655.0,0.400576
660.0,0.400166
665.0,0.400642
670.0,0.400681
675.0,0.40185
680.0,0.400355
685.0,0.40101
690.0,0.39968
695.0,0.399994
700.0,0.400051
705.0,0.399887
710.0,0.401569
715.0,0.402537
720.0,0.405249
725.0,0.407634
730.0,0.40969
735.0,0.410952
740.0,0.415758
745.0,0.419171
750.0,0.421642
755.0,0.425258
760.0,0.4278
765.0,0.432174
770.0,0.436872
775.0,0.44064
780.0,0.444137
785.0,0.446977
790.0,0.453111
795.0,0.456749
800.0,0.458254
805.0,0.463067
810.0,0.461839
815.0,0.46855
820.0,0.467316
825.0,0.466998
830.0,0.464017
835.0,0.465382
840.0,0.463814
845.0,0.464589
850.0,0.460188
855.0,0.457821
860.0,0.460186
865.0,0.455931
870.0,0.457107
875.0,0.455044
880.0,0.456364
885.0,0.455515
890.0,0.453409
895.0,0.452842
900.0,0.453957
905.0,0.452407
910.0,0.453311
915.0,0.453736
920.0,0.455411
925.0,0.455691
930.0,0.455985
935.0,0.45672
940.0,0.458815
945.0,0.460187
950.0,0.463551
955.0,0.464122
960.0,0.465984
965.0,0.467254
970.0,0.470329
975.0,0.471816
980.0,0.473595
985.0,0.473349
990.0,0.475277
995.0,0.476668
1000.0,0.476503
1005.0,0.477901
1010.0,0.479025
1015.0,0.480398
1020.0,0.479129
1025.0,0.480806
1030.0,0.481642
1035.0,0.483034
1040.0,0.482288
1045.0,0.482949
1050.0,0.482966
1055.0,0.483542
1060.0,0.483627
1065.0,0.48484
1070.0,0.483923
1075.0,0.48398
1080.0,0.483877
1085.0,0.484733
1090.0,0.4857
1095.0,0.485966
1100.0,0.486407
1105.0,0.487077
1110.0,0.487728
1115.0,0.488614
1120.0,0.490041
1125.0,0.491446
1130.0,0.49289
1135.0,0.493507
1140.0,0.495666
1145.0,0.497751
1150.0,0.499412
1155.0,0.501043
1160.0,0.501969
1165.0,0.503367
1170.0,0.504885
1175.0,0.507815
1180.0,0.509903
1185.0,0.512085
1190.0,0.514363
1195.0,0.515535
1200.0,0.517967
1205.0,0.523378
1210.0,0.526193
1215.0,0.529001
1220.0,0.530916
1225.0,0.534155
1230.0,0.536178
1235.0,0.53868
1240.0,0.539324
1245.0,0.543032
1250.0,0.544786
1255.0,0.549075
1260.0,0.55165
1265.0,0.554566
1270.0,0.557479
1275.0,0.559987
1280.0,0.56192
1285.0,0.564094
1290.0,0.56776
1295.0,0.569771
1300.0,0.573679
1305.0,0.576103
1310.0,0.578787
1315.0,0.581174
1320.0,0.586546
1325.0,0.588865
1330.0,0.591395
1335.0,0.592442
1340.0,0.595917
1345.0,0.597403
1350.0,0.599979
1355.0,0.598793
1360.0,0.601706
1365.0,0.607508
1370.0,0.604808
1375.0,0.593725
1380.0,0.589247
1385.0,0.60916
1390.0,0.598811
1395.0,0.578888
1400.0,0.5835
1405.0,0.593318
1410.0,0.593086
1415.0,0.586456
1420.0,0.585424
1425.0,0.590323
1430.0,0.593067
1435.0,0.59671
1440.0,0.598875
1445.0,0.601826
1450.0,0.602648
1455.0,0.607384
1460.0,0.608716
1465.0,0.611274
1470.0,0.613427
1475.0,0.618843
1480.0,0.620957
1485.0,0.625527
1490.0,0.629866
1495.0,0.632673
1500.0,0.636864
1505.0,0.639672
1510.0,0.643849
1515.0,0.645541
1520.0,0.650515
1525.0,0.652706
1530.0,0.657173
1535.0,0.659114
1540.0,0.663575
1545.0,0.666397
1550.0,0.667933
1555.0,0.670648
1560.0,0.67448
1565.0,0.67701
1570.0,0.678036
1575.0,0.680392
1580.0,0.682557
1585.0,0.683693
1590.0,0.686694
1595.0,0.687722
1600.0,0.689658
1605.0,0.691842
1610.0,0.692903
1615.0,0.695509
1620.0,0.695952
1625.0,0.697267
1630.0,0.697543
1635.0,0.69915
1640.0,0.701818
1645.0,0.703914
1650.0,0.704852
1655.0,0.708164
1660.0,0.707585
1665.0,0.708284
1670.0,0.710281
1675.0,0.710675
1680.0,0.711789
1685.0,0.713825
1690.0,0.713771
1695.0,0.715411
1700.0,0.717586
1705.0,0.717954
1710.0,0.719902
1715.0,0.720892
1720.0,0.722482
1725.0,0.723814
1730.0,0.72536
1735.0,0.724799
1740.0,0.72695
1745.0,0.727051
1750.0,0.727212
1755.0,0.72866
1760.0,0.728894
1765.0,0.727903
1770.0,0.72996
1775.0,0.729361
1780.0,0.729512
1785.0,0.729661
1790.0,0.729637
1795.0,0.73003
1800.0,0.729757
1805.0,0.730596
1810.0,0.730735
1815.0,0.731373
1820.0,0.729312
1825.0,0.73448
1830.0,0.733268
1835.0,0.73229
1840.0,0.733135
1845.0,0.735927
1850.0,0.734345
1855.0,0.732455
1860.0,0.73139
1865.0,0.726035
1870.0,0.709323
1875.0,0.713231
1880.0,0.702867
1885.0,0.676531
1890.0,0.650755
1895.0,0.622083
1900.0,0.582392
1905.0,0.548881
1910.0,0.525414
1915.0,0.507377
1920.0,0.501229
1925.0,0.503105
1930.0,0.506238
1935.0,0.511928
1940.0,0.516653
1945.0,0.524805
1950.0,0.527104
1955.0,0.532093
1960.0,0.537059
1965.0,0.542563
1970.0,0.546356
1975.0,0.552637
1980.0,0.558508
1985.0,0.56478
1990.0,0.57185
1995.0,0.578349
2000.0,0.585656
2005.0,0.594356
2010.0,0.602109
2015.0,0.608635
2020.0,0.612986
2025.0,0.619357
2030.0,0.624498
2035.0,0.629478
2040.0,0.633788
2045.0,0.638715
2050.0,0.640875
2055.0,0.644783
2060.0,0.648247
2065.0,0.652216
2070.0,0.654348
2075.0,0.657996
2080.0,0.660898
2085.0,0.664498
2090.0,0.665017
2095.0,0.668274
2100.0,0.671522
2105.0,0.674735
2110.0,0.677128
2115.0,0.679558
2120.0,0.683319
2125.0,0.683864
2130.0,0.686155
2135.0,0.687184
2140.0,0.691379
2145.0,0.692967
2150.0,0.695039
2155.0,0.696804
2160.0,0.698296
2165.0,0.699055
2170.0,0.700128
2175.0,0.700971
2180.0,0.701345
2185.0,0.702709
2190.0,0.703533
2195.0,0.703741
2200.0,0.702879
2205.0,0.702582
2210.0,0.702549
2215.0,0.703219
2220.0,0.703629
2225.0,0.701451
2230.0,0.700974
2235.0,0.698392
2240.0,0.697749
2245.0,0.693989
2250.0,0.690029
2255.0,0.684369
2260.0,0.677443
2265.0,0.666121
2270.0,0.65706
2275.0,0.642693
2280.0,0.626284
2285.0,0.60216
2290.0,0.577094
2295.0,0.557602
2300.0,0.547554
2305.0,0.542478
2310.0,0.539209
2315.0,0.533202
2320.0,0.527652
2325.0,0.520786
2330.0,0.521033
2335.0,0.526716
2340.0,0.535816
2345.0,0.546203
2350.0,0.548433
2355.0,0.548909
2360.0,0.544796
2365.0,0.539334
2370.0,0.536198
2375.0,0.529133
2380.0,0.519805
2385.0,0.514878
2390.0,0.512091
2395.0,0.512801
2400.0,0.511964
2405.0,0.511971
2410.0,0.508884
2415.0,0.507515
2420.0,0.506148
2425.0,0.505213
2430.0,0.502077
2435.0,0.498615
2440.0,0.494323
2445.0,0.492615
2450.0,0.488462
2455.0,0.486234
2460.0,0.482723
2465.0,0.478277
2470.0,0.473429
2475.0,0.471458
2480.0,0.466291
2485.0,0.463275
2490.0,0.46133
2495.0,0.458794
2500.0,0.454477
2505.0,0.450768
2510.0,0.448644
2515.0,0.444396
2520.0,0.444595
2525.15,0.441834
2530.08,0.436214
2535.03,0.439976
2540.0,0.437315
2544.99,0.436242
2549.99,0.434221
2552.5,0.433225
2553.76,0.433489
2556.28,0.432864
2558.8,0.430323
2561.33,0.430279
2563.86,0.432338
2565.13,0.431492
2566.4,0.431103
2567.67,0.429862
2568.95,0.4283
2570.22,0.428567
2571.5,0.429838
2572.77,0.428009
2574.05,0.426973
2575.33,0.429184
2576.61,0.427777
2577.89,0.427687
2579.17,0.427745
2580.46,0.425509
2581.74,0.425278
2583.03,0.425982
2584.31,0.424071
2585.6,0.426227
2586.89,0.424759
2588.19,0.424013
2589.48,0.423959
2590.77,0.4237
2592.07,0.423428
2593.36,0.42195
2594.66,0.419225
2595.96,0.42365
2597.26,0.426471
2598.56,0.422828
2599.87,0.420651
2601.17,0.419544
2602.48,0.419077
2603.78,0.419143
2605.09,0.418128
2606.4,0.418684
2607.71,0.419321
2609.03,0.418251
2610.34,0.416981
2611.66,0.416398
2612.97,0.414694
2614.29,0.414505
2615.61,0.413525
2616.93,0.412452
2618.25,0.415251
2619.57,0.414048
2620.9,0.411082
2622.22,0.413338
2623.55,0.411961
2624.88,0.409849
2626.21,0.407816
2627.54,0.408075
2628.87,0.408091
2630.21,0.405105
2631.54,0.40617
2632.88,0.407148
2634.21,0.404395
2635.55,0.403724
2636.89,0.402976
2638.24,0.401947
2639.58,0.400492
2640.92,0.399541
2642.27,0.398011
2643.62,0.398033
2644.97,0.39738
2646.32,0.396223
2647.67,0.395962
2649.02,0.39512
2650.38,0.393991
2651.73,0.392313
2653.09,0.391661
2654.45,0.391695
2655.81,0.389696
2657.17,0.389145
2658.53,0.387342
2659.89,0.385822
2661.26,0.385299
2662.63,0.384194
2664.0,0.382023
2665.36,0.379585
2666.74,0.379182
2668.11,0.377784
2669.48,0.3739
2670.86,0.369713
2672.23,0.370285
2673.61,0.365018
2674.99,0.359115
2676.37,0.35343
2677.76,0.346062
2679.14,0.335405
2680.52,0.320082
2681.91,0.301501
2683.3,0.281486
2684.69,0.261549
2686.08,0.242928
2687.47,0.227294
2688.87,0.214259
2690.26,0.204946
2691.66,0.198479
2693.06,0.195229
2694.46,0.194221
2695.86,0.195247
2697.26,0.196442
2698.66,0.198804
2700.07,0.201477
2701.48,0.205708
2702.89,0.209914
2704.3,0.21279
2705.71,0.213686
2707.12,0.214424
2708.53,0.213806
2709.95,0.212082
2711.37,0.207661
2712.79,0.201058
2714.21,0.191891
2715.63,0.182014
2717.05,0.171731
2718.48,0.161965
2719.9,0.152314
2721.33,0.143676
2722.76,0.135913
2724.19,0.129643
2725.62,0.12461
2727.06,0.120307
2728.49,0.117324
2729.93,0.11588
2731.37,0.114865
2732.81,0.113939
2734.25,0.113512
2735.69,0.113819
2737.14,0.113993
2738.58,0.113566
2740.03,0.113973
2741.48,0.115062
2742.93,0.115274
2744.38,0.114498
2745.83,0.113462
2747.29,0.112581
2748.75,0.111717
2750.2,0.110446
2751.66,0.10866
2753.13,0.107174
2754.59,0.105622
2756.05,0.104002
2757.52,0.102476
2758.99,0.100753
2760.46,0.099396
2761.93,0.097974
2763.4,0.096645
2764.87,0.095171
2766.35,0.094259
2767.82,0.093798
2769.3,0.093273
2770.78,0.092589
2772.26,0.092855
2773.75,0.092767
2775.23,0.092354
2776.72,0.092212
2778.21,0.092478
2779.7,0.092438
2781.19,0.091648
2782.68,0.091614
2784.18,0.092184
2785.67,0.092388
2787.17,0.09219
2788.67,0.091913
2790.17,0.091787
2791.67,0.091592
2793.18,0.091448
2794.68,0.090915
2796.19,0.090491
2797.7,0.090044
2799.21,0.08994
2800.72,0.089555
2802.24,0.089174
2803.75,0.088791
2805.27,0.088629
2806.79,0.087935
2808.31,0.087644
2809.83,0.087746
2811.35,0.087698
2812.88,0.087189
2814.41,0.086453
2815.93,0.085868
2817.46,0.08607
2819.0,0.086283
2820.53,0.086459
2822.07,0.086736
2823.6,0.086568
2825.14,0.086
2826.68,0.085898
2828.22,0.086281
2829.77,0.086559
2831.31,0.087019
2832.86,0.087552
2834.41,0.087339
2835.96,0.087574
2837.51,0.087887
2839.07,0.088089
2840.62,0.088954
2842.18,0.09
2843.74,0.09001
2845.3,0.089619
2846.86,0.089878
2848.43,0.090243
2849.99,0.090209
2851.56,0.090981
2853.13,0.09151
2854.7,0.091763
2856.27,0.09244
2857.85,0.092849
2859.42,0.092687
2861.0,0.092735
2862.58,0.092713
2864.16,0.092839
2865.75,0.09292
2867.33,0.092988
2868.92,0.093275
2870.51,0.093345
2872.1,0.093433
2873.69,0.093988
2875.28,0.093944
2876.88,0.093976
2878.48,0.094341
2880.07,0.094207
2881.68,0.093828
2883.28,0.094271
2884.88,0.094624
2886.49,0.094608
2888.1,0.094688
2889.71,0.09472
2891.32,0.09469
2892.93,0.094772
2894.55,0.09457
2896.16,0.09464
2897.78,0.094698
2899.4,0.094959
2901.03,0.095205
2902.65,0.094915
2904.28,0.094684
2905.91,0.095007
2907.54,0.095189
2909.17,0.095171
2910.8,0.094967
2912.44,0.09529
2914.07,0.095205
2915.71,0.095141
2917.35,0.0954
2918.99,0.095496
2920.64,0.095099
2922.29,0.095221
2923.93,0.0954
2925.58,0.095528
2927.24,0.095512
2928.89,0.095252
2930.55,0.094802
2932.2,0.094857
2933.86,0.095005
2935.52,0.095177
2937.19,0.095494
2938.85,0.095855
2940.52,0.095925
2942.19,0.095829
2943.86,0.095763
2945.53,0.095877
2947.21,0.095865
2948.88,0.095935
2950.56,0.096304
2952.24,0.096671
2953.92,0.096645
2955.61,0.096557
2957.29,0.096569
2958.98,0.097002
2960.67,0.097301
2962.36,0.097439
2964.06,0.097421
2965.75,0.097403
2967.45,0.097425
2969.15,0.09798
2970.85,0.097948
2972.55,0.098047
2974.26,0.098351
2975.97,0.098684
2977.68,0.098937
2979.39,0.099041
2981.1,0.099145
2982.82,0.09943
2984.53,0.099845
2986.25,0.100332
2987.97,0.100731
2989.7,0.101054
2991.42,0.101058
2993.15,0.101485
2994.88,0.102243
2996.61,0.10262
2998.34,0.102897
3000.08,0.10331
3001.82,0.103651
3003.55,0.104254
3005.3,0.10471
3007.04,0.105151
3008.78,0.10577
3010.53,0.106414
3012.28,0.106719
3014.03,0.107216
3015.79,0.107753
3017.54,0.108267
3019.3,0.108645
3021.06,0.109151
3022.82,0.109574
3024.58,0.110099
3026.35,0.110625
3028.12,0.111286
3029.89,0.111912
3031.66,0.112339
3033.43,0.11265
3035.21,0.113099
3036.99,0.112914
3038.77,0.113273
3040.55,0.114208
3042.33,0.114703
3044.12,0.115002
3045.91,0.115637
3047.7,0.115956
3049.49,0.116281
3051.29,0.116337
3053.08,0.116676
3054.88,0.116886
3056.68,0.117382
3058.49,0.117899
3060.29,0.118204
3062.1,0.11838
3063.91,0.118713
3065.72,0.118988
3067.54,0.119058
3069.35,0.119172
3071.17,0.119409
3072.99,0.119637
3074.81,0.12003
3076.64,0.120279
3078.47,0.120546
3080.29,0.120883
3082.13,0.121296
3083.96,0.121929
3085.79,0.122023
3087.63,0.121971
3089.47,0.122013
3091.31,0.122188
3093.16,0.122695
3095.01,0.122721
3096.85,0.123036
3098.71,0.123623
3100.56,0.124115
3102.41,0.124405
3104.27,0.124798
3106.13,0.125316
3107.99,0.126094
3109.86,0.126527
3111.73,0.12708
3113.59,0.127479
3115.47,0.127768
3117.34,0.128319
3119.21,0.129133
3121.09,0.129855
3122.97,0.130395
3124.86,0.130842
3126.74,0.131341
3128.63,0.131987
3130.52,0.132755
3132.41,0.133621
3134.3,0.134355
3136.2,0.134874
3138.1,0.135756
3140.0,0.136466
3141.9,0.137058
3143.81,0.137691
3145.71,0.138806
3147.62,0.139522
3149.54,0.14028
3151.45,0.141094
3153.37,0.141958
3155.29,0.142698
3157.21,0.143626
3159.13,0.144532
3161.06,0.14584
3162.99,0.147091
3164.92,0.147837
3166.85,0.148499
3168.79,0.149361
3170.72,0.150205
3172.67,0.151512
3174.61,0.152783
3176.55,0.153898
3178.5,0.155037
3180.45,0.155929
3182.4,0.156731
3184.36,0.158175
3186.32,0.159248
3188.27,0.159877
3190.24,0.160946
3192.2,0.162464
3194.17,0.163561
3196.14,0.164287
3198.11,0.165127
3200.08,0.166538
3202.06,0.167868
3204.04,0.169061
3206.02,0.170125
3208.0,0.171126
3209.99,0.172229
3211.98,0.173554
3213.97,0.174567
3215.96,0.175732
3217.96,0.17664
3219.96,0.177983
3221.96,0.179593
3223.96,0.180752
3225.97,0.18159
3227.98,0.182695
3229.99,0.184209
3232.0,0.18541
3234.02,0.186565
3236.04,0.187838
3238.06,0.189091
3240.08,0.190355
3242.11,0.191439
3244.14,0.192562
3246.17,0.193733
3248.2,0.194934
3250.24,0.196077
3252.28,0.197383
3254.32,0.198772
3256.37,0.199989
3258.41,0.201264
3260.46,0.202385
3262.51,0.203446
3264.57,0.204884
3266.63,0.206042
3268.69,0.207334
3270.75,0.208864
3272.81,0.210189
3274.88,0.211131
3276.95,0.212306
3279.02,0.213531
3281.1,0.214863
3283.18,0.216044
3285.26,0.217267
3287.34,0.218458
3289.43,0.219912
3291.51,0.221211
3293.61,0.222392
3295.7,0.223539
3297.8,0.224888
3299.9,0.226021
3302.0,0.227236
3304.1,0.228554
3306.21,0.229807
3308.32,0.230855
3310.43,0.232089
3312.55,0.233356
3314.66,0.234691
3316.79,0.235852
3318.91,0.237097
3321.03,0.238473
3323.16,0.23969
3325.29,0.240945
3327.43,0.24221
3329.57,0.24358
3331.71,0.245049
3333.85,0.246096
3335.99,0.247191
3338.14,0.248657
3340.29,0.250269
3342.45,0.251243
3344.6,0.252354
3346.76,0.253641
3348.92,0.254768
3351.09,0.255971
3353.26,0.257224
3355.43,0.258137
3357.6,0.259239
3359.78,0.260601
3361.96,0.261906
3364.14,0.263073
3366.32,0.264306
3368.51,0.265221
3370.7,0.266253
3372.89,0.26731
3375.09,0.268603
3377.29,0.269682
3379.49,0.271049
3381.69,0.272481
3383.9,0.274227
3386.11,0.275521
3388.32,0.276615
3390.54,0.277822
3392.76,0.278779
3394.98,0.280184
3397.21,0.281714
3399.43,0.282779
3401.66,0.283858
3403.9,0.28481
3406.13,0.286134
3408.37,0.287038
3410.61,0.287924
3412.86,0.289342
3415.11,0.290797
3417.36,0.292059
3419.61,0.293424
3421.87,0.295189
3424.13,0.296871
3426.39,0.298455
3428.66,0.299842
3430.93,0.301474
3433.2,0.303167
3435.48,0.304632
3437.76,0.30618
3440.04,0.307496
3442.32,0.308767
3444.61,0.310102
3446.9,0.31154
3449.19,0.313092
3451.49,0.314289
3453.79,0.315526
3456.09,0.317084
3458.4,0.318492
3460.7,0.319823
3463.02,0.32108
3465.33,0.322426
3467.65,0.323504
3469.97,0.324479
3472.29,0.325632
3474.62,0.326849
3476.95,0.32796
3479.29,0.328918
3481.62,0.330067
3483.96,0.331322
3486.3,0.332317
3488.65,0.333299
3491.0,0.334594
3493.35,0.335755
3495.71,0.336722
3498.07,0.337827
3500.43,0.338763
3502.79,0.340106
3505.16,0.34141
3507.53,0.342697
3509.91,0.344089
3512.29,0.345596
3514.67,0.346878
3517.05,0.348297
3519.44,0.349755
3521.83,0.351078
3524.23,0.352454
3526.62,0.354024
3529.02,0.355766
3531.43,0.357254
3533.83,0.358409
3536.24,0.35974
3538.66,0.360891
3541.08,0.361996
3543.5,0.363281
3545.92,0.364623
3548.35,0.365755
3550.78,0.366898
3553.21,0.368168
3555.65,0.369397
3558.09,0.37051
3560.53,0.371765
3562.98,0.373036
3565.43,0.374145
3567.88,0.375075
3570.34,0.376018
3572.8,0.377186
3575.27,0.378418
3577.73,0.379314
3580.2,0.380457
3582.68,0.381816
3585.16,0.382851
3587.64,0.383867
3590.12,0.38479
3592.61,0.385712
3595.1,0.386767
3597.6,0.387715
3600.09,0.388513
3602.6,0.389596
3605.1,0.390653
3607.61,0.391561
3610.12,0.392656
3612.64,0.393365
3615.16,0.394222
3617.68,0.395268
3620.21,0.396161
3622.74,0.396898
3625.27,0.397815
3627.81,0.398687
3630.35,0.399533
3632.89,0.400425
3635.44,0.401292
3637.99,0.402021
3640.54,0.402791
3643.1,0.40363
3645.66,0.404351
3648.23,0.405193
3650.8,0.406138
3653.37,0.406948
3655.95,0.407804
3658.53,0.40857
3661.11,0.409081
3663.7,0.409703
3666.29,0.410479
3668.89,0.411441
3671.48,0.412293
3674.09,0.413029
3676.69,0.413605
3679.3,0.414266
3681.91,0.415028
3684.53,0.415754
3687.15,0.416454
3689.78,0.41727
3692.4,0.41808
3695.04,0.41891
3697.67,0.419592
3700.31,0.420107
3702.95,0.42058
3705.6,0.421316
3708.25,0.422134
3710.91,0.422854
3713.56,0.423644
3716.23,0.42443
3718.89,0.425126
3721.56,0.426022
3724.23,0.426562
3726.91,0.427043
3729.59,0.427879
3732.28,0.42887
3734.97,0.429722
3737.66,0.430355
3740.36,0.430861
3743.06,0.431412
3745.76,0.432118
3748.47,0.432595
3751.18,0.433299
3753.9,0.434155
3756.62,0.434967
3759.34,0.435532
3762.07,0.436298
3764.8,0.437006
3767.54,0.437668
3770.28,0.43836
3773.02,0.438969
3775.77,0.439639
3778.52,0.440391
3781.28,0.441107
3784.04,0.441834
3786.8,0.442584
3789.57,0.44325
3792.34,0.443781
3795.12,0.444287
3797.9,0.444978
3800.69,0.445708
3803.47,0.446382
3806.27,0.44702
3809.06,0.447647
3811.86,0.448148
3814.67,0.4486
3817.48,0.448987
3820.29,0.44957
3823.11,0.450061
3825.93,0.450823
3828.76,0.451583
3831.59,0.452175
3834.42,0.452842
3837.26,0.453322
3840.1,0.45349
3842.95,0.453901
3845.8,0.454523
3848.65,0.45511
3851.51,0.455547
3854.38,0.455998
3857.24,0.456357
3860.12,0.45672
3862.99,0.457201
3865.87,0.457779
3868.76,0.45826
3871.65,0.458749
3874.54,0.459397
3877.44,0.459692
3880.34,0.45989
3883.25,0.460301
3886.16,0.46056
3889.07,0.460867
3891.99,0.461129
3894.92,0.461318
3897.85,0.461665
3900.78,0.46216
3903.72,0.462549
3906.66,0.462972
3909.6,0.4631
3912.55,0.463054
3915.51,0.463375
3918.47,0.463944
3921.43,0.464163
3924.4,0.464289
3927.38,0.464464
3930.35,0.464847
3933.33,0.464957
3936.32,0.465023
3939.31,0.465248
3942.31,0.465488
3945.31,0.465502
3948.31,0.465565
3951.32,0.465815
3954.34,0.4662
3957.35,0.466298
3960.38,0.466308
3963.41,0.466555
3966.44,0.467042
3969.48,0.467108
3972.52,0.466982
3975.56,0.467
3978.61,0.467034
3981.67,0.467269
3984.73,0.46757
3987.8,0.467542
3990.87,0.46757
3993.94,0.467774
3997.02,0.467967
4000.1,0.467979
4003.19,0.467925
4006.29,0.468009
4009.39,0.467985
4012.49,0.468087
4015.6,0.468279
4018.71,0.468087
4021.83,0.4679
4024.95,0.46787
4028.08,0.468029
4031.21,0.468021
4034.35,0.468111
4037.49,0.468197
4040.64,0.468077
4043.79,0.467997
4046.94,0.468067
4050.11,0.468077
4053.27,0.468007
4056.44,0.467566
4059.62,0.467395
4062.8,0.467455
4065.99,0.467341
4069.18,0.467281
4072.38,0.467349
4075.58,0.467185
4078.78,0.466934
4082.0,0.46677
4085.21,0.466695
4088.43,0.466511
4091.66,0.466156
4094.89,0.465948
4098.13,0.465911
4101.37,0.465863
4104.62,0.465593
4107.87,0.465178
4111.13,0.465266
4114.39,0.465119
4117.66,0.464825
4120.93,0.464743
4124.21,0.464654
4127.5,0.464606
4130.79,0.464492
4134.08,0.464103
4137.38,0.463999
4140.68,0.463882
4143.99,0.463744
4147.31,0.463559
4150.63,0.463305
4153.95,0.463018
4157.29,0.462822
4160.62,0.462685
4163.96,0.462794
4167.31,0.462631
4170.66,0.462368
4174.02,0.462132
4177.39,0.461867
4180.75,0.461643
4184.13,0.461546
4187.51,0.461346
4190.89,0.461298
4194.28,0.461175
4197.68,0.460841
4201.08,0.460506
4204.49,0.460438
4207.9,0.460311
4211.32,0.460303
4214.74,0.460265
4218.17,0.460293
4221.61,0.460231
4225.05,0.460143
4228.5,0.460397
4231.95,0.460642
4235.4,0.46073
4238.87,0.460714
4242.34,0.460548
4245.81,0.46053
4249.29,0.460283
4252.78,0.45978
4256.27,0.459192
4259.77,0.458222
4263.27,0.457735
4266.78,0.457855
4270.29,0.457807
4273.81,0.457971
4277.34,0.458232
4280.87,0.458312
4284.41,0.45827
4287.95,0.457957
4291.5,0.45746
4295.06,0.457398
4298.62,0.45728
4302.19,0.457051
4305.76,0.456985
4309.34,0.456834
4312.92,0.456506
4316.52,0.456482
4320.11,0.456207
4323.72,0.45588
4327.32,0.455655
4330.94,0.455561
4334.56,0.455353
4338.19,0.455172
4341.82,0.455102
4345.46,0.455142
4349.11,0.455008
4352.76,0.454958
4356.42,0.454936
4360.08,0.454938
4363.75,0.454795
4367.43,0.454713
4371.11,0.454715
4374.8,0.454753
4378.49,0.454681
4382.19,0.454881
4385.9,0.455032
4389.61,0.454978
4393.33,0.454986
4397.06,0.455212
4400.79,0.455086
4404.53,0.455104
4408.28,0.455218
4412.03,0.45524
4415.79,0.455248
4419.55,0.455292
4423.32,0.45529
4427.1,0.455409
4430.88,0.455563
4434.68,0.455704
4438.47,0.455541
4442.28,0.455439
4446.08,0.455567
4449.9,0.455696
4453.72,0.455756
4457.55,0.455758
4461.39,0.455667
4465.23,0.45579
4469.08,0.455872
4472.94,0.455872
4476.8,0.455607
4480.67,0.455537
4484.55,0.455667
4488.43,0.455649
4492.32,0.455537
4496.21,0.455597
4500.12,0.455557
4504.03,0.455499
4507.94,0.455491
4511.87,0.455696
4515.8,0.455587
4519.73,0.455325
4523.68,0.455323
4527.63,0.455579
4531.59,0.455619
4535.55,0.455541
4539.52,0.455397
4543.5,0.455369
4547.49,0.455216
4551.48,0.45507
4555.48,0.455126
4559.49,0.455383
4563.5,0.455367
4567.52,0.455305
4571.55,0.455166
4575.58,0.455278
4579.63,0.455299
4583.67,0.45511
4587.73,0.455004
4591.79,0.455224
4595.86,0.455252
4599.94,0.455
4604.03,0.454799
4608.12,0.454825
4612.22,0.454789
4616.33,0.454609
4620.44,0.454448
4624.56,0.454402
4628.69,0.454338
4632.83,0.454404
4636.97,0.45432
4641.12,0.454314
4645.28,0.454166
4649.45,0.453987
4653.62,0.453692
4657.8,0.453588
4661.99,0.453412
4666.19,0.453243
4670.39,0.4529
4674.6,0.452544
4678.82,0.452225
4683.05,0.452121
4687.28,0.452024
4691.52,0.451894
4695.77,0.451583
4700.03,0.451176
4704.3,0.450883
4708.57,0.450785
4712.85,0.450478
4717.14,0.450306
4721.43,0.450159
4725.74,0.449881
4730.05,0.449412
4734.37,0.449181
4738.7,0.448948
4743.03,0.44875
4747.38,0.448413
4751.73,0.44804
4756.09,0.447661
4760.45,0.447282
4764.83,0.446893
4769.21,0.446665
4773.6,0.446318
4778.0,0.446181
4782.41,0.445666
4786.83,0.445044
4791.25,0.444658
4795.68,0.444507
4800.13,0.44393
4804.57,0.443426
4809.03,0.442947
4813.5,0.442604
4817.97,0.442279
4822.45,0.44184
4826.94,0.441275
4831.44,0.440922
4835.95,0.440549
4840.46,0.440234
4844.99,0.439803
4849.52,0.439494
4854.06,0.439182
4858.61,0.439015
4863.17,0.438528
4867.73,0.438067
4872.31,0.437838
4876.89,0.437533
4881.48,0.4371
4886.08,0.436758
4890.69,0.436334
4895.31,0.436148
4899.94,0.435996
4904.57,0.435843
4909.22,0.435591
4913.87,0.435372
4918.53,0.435021
4923.21,0.43477
4927.88,0.43459
4932.57,0.43443
4937.27,0.434101
4941.98,0.433962
4946.69,0.43387
4951.42,0.433686
4956.15,0.433463
4960.9,0.433814
4965.65,0.433974
4970.41,0.43379
4975.18,0.433573
4979.96,0.433393
4984.75,0.433283
4989.54,0.433301
4994.35,0.433277
4999.17,0.433267
5003.99,0.433166
5008.83,0.433299
5013.67,0.433443
5018.52,0.433531
5023.39,0.433587
5028.26,0.433602
5033.14,0.433421
5038.03,0.433453
5042.93,0.433391
5047.84,0.433499
5052.76,0.433381
5057.69,0.433321
5062.63,0.433211
5067.58,0.433327
5072.54,0.433247
5077.51,0.433086
5082.49,0.4329
5087.47,0.433012
5092.47,0.432884
5097.48,0.432689
5102.5,0.432461
5107.52,0.432435
5112.56,0.43233
5117.61,0.43209
5122.66,0.431727
5127.73,0.43146
5132.81,0.431083
5137.89,0.430736
5142.99,0.430151
5148.1,0.429722
5153.22,0.429563
5158.34,0.429098
5163.48,0.428242
5168.63,0.427606
5173.79,0.426788
5178.96,0.42609
5184.13,0.425355
5189.32,0.424689
5194.52,0.423777
5199.73,0.422894
5204.96,0.422197
5210.19,0.421264
5215.43,0.420089
5220.68,0.41966
5225.94,0.418265
5231.22,0.417007
5236.5,0.416009
5241.79,0.415303
5247.1,0.414305
5252.42,0.413206
5257.74,0.412061
5263.08,0.411058
5268.43,0.410042
5273.79,0.40914
5279.16,0.408163
5284.54,0.407419
5289.93,0.406348
5295.34,0.405701
5300.75,0.405053
5306.18,0.403876
5311.61,0.402807
5317.06,0.401987
5322.52,0.401021
5327.99,0.400203
5333.47,0.399353
5338.96,0.398358
5344.47,0.397177
5349.98,0.396261
5355.51,0.396132
5361.05,0.395479
5366.6,0.393696
5372.16,0.392239
5377.73,0.391128
5383.32,0.390246
5388.91,0.389051
5394.52,0.387795
5400.14,0.386564
5405.77,0.385331
5411.41,0.384074
5417.07,0.382957
5422.74,0.381722
5428.41,0.38168
5434.1,0.379963
5439.81,0.377708
5445.52,0.37626
5451.25,0.374961
5456.98,0.373511
5462.73,0.371961
5468.5,0.371161
5474.27,0.370106
5480.06,0.367969
5485.86,0.367011
5491.67,0.365381
5497.49,0.36361
5503.33,0.362283
5509.18,0.361136
5515.04,0.359714
5520.91,0.358375
5526.8,0.357362
5532.69,0.356384
5538.61,0.355004
5544.53,0.353681
5550.47,0.35248
5556.41,0.351702
5562.38,0.350781
5568.35,0.349354
5574.34,0.347946
5580.34,0.347006
5586.35,0.346858
5592.38,0.345512
5598.42,0.343471
5604.47,0.342244
5610.54,0.341418
5616.61,0.340191
5622.71,0.33923
5628.81,0.337999
5634.93,0.336688
5641.06,0.335709
5647.21,0.335771
5653.36,0.33511
5659.54,0.333263
5665.72,0.332371
5671.92,0.330675
5678.13,0.330043
5684.36,0.329618
5690.6,0.32827
5696.85,0.327506
5703.12,0.326961
5709.4,0.325545
5715.69,0.32583
5722.0,0.325652
5728.33,0.324816
5734.66,0.323689
5741.01,0.323107
5747.38,0.322261
5753.76,0.321916
5760.15,0.320537
5766.56,0.318656
5772.98,0.319181
5779.41,0.31772
5785.86,0.315023
5792.33,0.313351
5798.81,0.311347
5805.3,0.309711
5811.81,0.307712
5818.33,0.305519
5824.87,0.304241
5831.42,0.303419
5837.99,0.300396
5844.57,0.297093
5851.17,0.293677
5857.78,0.290839
5864.41,0.287804
5871.05,0.284766
5877.7,0.280477
5884.38,0.277738
5891.06,0.274478
5897.76,0.269181
5904.48,0.264384
5911.21,0.258668
5917.96,0.252965
5924.73,0.247516
5931.5,0.241432
5938.3,0.236325
5945.11,0.230823
5951.93,0.224152
5958.78,0.217345
5965.63,0.211228
5972.51,0.205569
5979.39,0.199811
5986.3,0.193721
5993.22,0.188719
6000.16,0.183018
6007.11,0.177484
6014.08,0.172391
6021.06,0.167938
6028.06,0.163122
6035.08,0.158718
6042.12,0.154466
6049.17,0.151382
6056.23,0.148238
6063.32,0.143769
6070.42,0.140272
6077.53,0.138108
6084.67,0.135363
6091.82,0.132656
6098.98,0.130365
6106.17,0.128963
6113.37,0.128133
6120.58,0.127818
6127.82,0.127032
6135.07,0.126262
6142.34,0.126204
6149.63,0.126946
6156.93,0.127896
6164.25,0.129214
6171.59,0.131201
6178.95,0.133003
6186.32,0.135443
6193.71,0.139295
6201.12,0.142674
6208.54,0.146036
6215.99,0.150546
6223.45,0.155338
6230.93,0.160563
6238.43,0.165762
6245.95,0.171587
6253.48,0.177424
6261.03,0.183359
6268.6,0.18944
6276.19,0.195981
6283.8,0.202034
6291.43,0.208437
6299.07,0.21469
6306.73,0.220982
6314.42,0.226725
6322.12,0.232538
6329.84,0.238046
6337.57,0.243309
6345.33,0.248262
6353.11,0.255295
6360.9,0.259757
6368.72,0.263155
6376.55,0.26806
6384.4,0.272633
6392.27,0.275737
6400.17,0.279699
6408.08,0.282406
6416.01,0.286633
6423.96,0.293488
6431.93,0.294767
6439.92,0.296101
6447.93,0.298832
6455.96,0.300799
6464.01,0.303474
6472.08,0.305306
6480.17,0.308354
6488.28,0.310682
6496.41,0.313713
6504.56,0.31706
6512.73,0.317417
6520.92,0.317373
6529.14,0.320082
6537.37,0.32115
6545.63,0.321816
6553.9,0.323147
6562.2,0.32498
6570.51,0.325674
6578.85,0.327549
6587.21,0.328651
6595.59,0.328738
6603.99,0.329455
6612.42,0.329149
6620.86,0.329279
6629.33,0.329752
6637.82,0.330534
6646.33,0.332678
6654.86,0.331669
6663.41,0.329941
6671.99,0.329608
6680.59,0.330035
6689.21,0.330296
6697.85,0.329872
6706.51,0.32873
6715.2,0.328708
6723.91,0.328591
6732.64,0.327711
6741.4,0.326454
6750.18,0.325227
6758.98,0.324086
6767.8,0.322799
6776.65,0.321547
6785.52,0.320595
6794.41,0.319542
6803.33,0.31854
6812.27,0.31618
6821.23,0.314333
6830.22,0.313164
6839.23,0.312264
6848.26,0.310227
6857.32,0.308641
6866.4,0.308378
6875.51,0.308089
6884.64,0.305156
6893.8,0.302607
6902.98,0.300735
6912.18,0.299211
6921.41,0.297454
6930.66,0.295327
6939.94,0.293322
6949.24,0.291351
6958.57,0.289568
6967.92,0.288614
6977.3,0.286699
6986.7,0.284163
6996.13,0.282613
7005.59,0.281191
7015.07,0.279593
7024.57,0.27831
7034.1,0.277283
7043.66,0.275809
7053.25,0.275378
7062.85,0.274458
7072.49,0.272681
7082.15,0.271326
7091.84,0.270327
7101.55,0.269399
7111.3,0.26835
7121.06,0.267342
7130.86,0.266287
7140.68,0.26508
7150.53,0.264044
7160.41,0.263155
7170.31,0.262038
7180.24,0.260777
7190.2,0.259197
7200.19,0.257525
7210.2,0.256166
7220.24,0.254866
7230.31,0.253232
7240.41,0.251578
7250.54,0.25015
7260.69,0.248667
7270.88,0.247065
7281.09,0.245629
7291.33,0.244173
7301.6,0.242431
7311.9,0.240903
7322.22,0.239421
7332.58,0.237889
7342.97,0.236415
7353.38,0.234962
7363.83,0.23337
7374.3,0.231846
7384.81,0.23024
7395.34,0.228826
7405.91,0.227236
7416.5,0.225807
7427.13,0.224393
7437.78,0.222939
7448.47,0.221462
7459.19,0.22011
7469.94,0.218672
7480.71,0.217237
7491.52,0.215739
7502.37,0.214259
7513.24,0.212667
7524.14,0.211133
7535.08,0.209383
7546.05,0.207727
7557.05,0.206087
7568.08,0.204479
7579.15,0.202772
7590.24,0.201152
7601.37,0.199428
7612.53,0.197763
7623.73,0.196007
7634.96,0.194188
7646.22,0.192406
7657.51,0.190834
7668.84,0.189013
7680.2,0.18699
7691.59,0.185147
7703.02,0.183584
7714.49,0.181821
7725.98,0.180159
7737.52,0.178525
7749.08,0.176792
7760.68,0.174839
7772.32,0.173061
7783.99,0.171226
7795.69,0.169289
7807.43,0.167282
7819.21,0.165524
7831.02,0.163615
7842.87,0.161594
7854.75,0.159424
7866.67,0.157333
7878.62,0.155079
7890.62,0.152952
7902.64,0.15063
7914.71,0.14827
7926.81,0.145912
7938.95,0.143855
7951.13,0.141529
7963.34,0.138864
7975.59,0.136143
7987.88,0.133667
8000.21,0.131221
8012.57,0.128606
8024.98,0.125755
8037.42,0.123253
8049.9,0.120516
8062.42,0.117634
8074.98,0.114719
8087.57,0.111737
8100.21,0.108501
8112.89,0.105447
8125.6,0.102289
8138.36,0.099244
8151.16,0.096124
8163.99,0.093114
8176.87,0.089934
8189.79,0.086924
8202.75,0.083746
8215.75,0.080709
8228.79,0.077476
8241.87,0.074401
8254.99,0.071034
8268.16,0.067788
8281.37,0.064592
8294.62,0.06169
8307.91,0.058514
8321.24,0.055541
8334.62,0.052581
8348.04,0.049778
8361.51,0.046925
8375.02,0.044489
8388.57,0.042129
8402.16,0.039863
8415.8,0.037485
8429.49,0.03556
8443.22,0.033575
8456.99,0.031891
8470.81,0.030072
8484.67,0.028568
8498.58,0.027329
8512.54,0.026465
8526.54,0.025208
8540.58,0.024492
8554.68,0.023957
8568.82,0.023893
8583.0,0.02369
8597.24,0.024011
8611.52,0.02436
8625.85,0.025042
8640.23,0.025872
8654.65,0.027067
8669.12,0.028528
8683.64,0.030207
8698.21,0.031608
8712.83,0.033308
8727.5,0.035029
8742.22,0.037114
8756.99,0.039047
8771.8,0.040807
8786.67,0.042113
8801.59,0.043663
8816.56,0.044998
8831.58,0.046368
8846.65,0.047166
8861.77,0.048108
8876.94,0.048808
8892.17,0.049443
8907.45,0.049945
8922.78,0.050448
8938.16,0.050586
8953.6,0.050971
8969.09,0.051013
8984.64,0.051202
9000.23,0.051204
9015.89,0.051593
9031.59,0.051747
9047.36,0.05192
9063.17,0.051773
9079.05,0.051789
9094.97,0.051725
9110.96,0.051916
9127.0,0.051833
9143.1,0.051747
9159.25,0.051607
9175.46,0.051795
9191.73,0.051653
9208.06,0.051966
9224.44,0.052004
9240.88,0.052279
9257.38,0.052706
9273.94,0.053091
9290.56,0.053229
9307.24,0.053788
9323.98,0.054434
9340.78,0.054799
9357.64,0.054983
9374.57,0.055549
9391.55,0.056058
9408.59,0.056413
9425.7,0.056604
9442.87,0.057011
9460.1,0.057285
9477.4,0.057634
9494.75,0.057925
9512.17,0.058599
9529.66,0.059102
9547.21,0.059699
9564.83,0.059982
9582.5,0.060608
9600.25,0.061033
9618.06,0.061733
9635.94,0.06231
9653.88,0.062793
9671.89,0.063142
9689.97,0.063597
9708.12,0.063669
9726.33,0.063683
9744.62,0.063315
9762.97,0.063132
9781.39,0.062821
9799.88,0.062537
9818.44,0.062166
9837.07,0.061945
9855.77,0.061452
9874.54,0.061187
9893.39,0.060868
9912.3,0.060347
9931.29,0.059294
9950.36,0.058829
9969.49,0.058362
9988.7,0.057662
10007.98,0.05684
10027.34,0.056279
10046.77,0.055104
10066.28,0.053959
10085.87,0.052716
10105.53,0.051442
10125.26,0.050438
10145.08,0.049588
10164.97,0.048367
10184.94,0.047338
10204.99,0.046137
10225.12,0.045493
10245.33,0.044657
10265.61,0.044098
10285.98,0.043925
10306.43,0.043741
10326.96,0.043528
10347.57,0.043677
10368.27,0.043488
10389.05,0.043418
10409.91,0.043374
10430.86,0.043334
10451.88,0.043304
10473.0,0.04339
10494.2,0.04334
10515.49,0.043532
10536.86,0.043661
10558.32,0.043564
10579.87,0.043298
10601.5,0.043308
10623.23,0.043332
10645.04,0.043378
10666.94,0.043534
10688.94,0.043883
10711.02,0.043871
10733.2,0.043931
10755.47,0.044136
10777.83,0.044565
10800.28,0.044934
10822.83,0.045311
10845.47,0.045333
10868.21,0.045572
10891.04,0.04586
10913.97,0.046356
10936.99,0.046813
10960.12,0.047436
10983.34,0.047968
11006.66,0.048726
11030.07,0.049494
11053.59,0.05063
11077.21,0.051815
11100.93,0.053018
11124.75,0.054079
11148.68,0.055074
11172.71,0.056269
11196.84,0.057857
11221.07,0.059278
11245.41,0.060648
11269.86,0.061749
11294.41,0.062992
11319.07,0.064056
11343.84,0.065141
11368.72,0.066066
11393.7,0.066948
11418.8,0.067553
11444.01,0.067806
11469.33,0.068139
11494.76,0.068861
11520.3,0.069258
11545.96,0.069861
11571.73,0.070641
11597.62,0.071525
11623.62,0.07193
11649.74,0.07255
11675.98,0.073366
11702.34,0.074419
11728.81,0.075058
11755.41,0.075578
11782.13,0.076279
11808.96,0.077196
11835.92,0.077912
11863.01,0.078493
11890.22,0.078627
11917.55,0.078521
11945.01,0.078256
11972.6,0.078028
12000.31,0.077368
12028.16,0.076482
12056.13,0.075477
12084.23,0.074481
12112.46,0.073198
12140.83,0.072023
12169.33,0.070491
12197.96,0.068991
12226.73,0.067802
12255.64,0.06697
12284.68,0.066168
12313.86,0.06548
12343.18,0.065123
12372.64,0.064995
12402.24,0.064391
12431.98,0.06389
12461.86,0.063038
12491.89,0.062081
12522.07,0.060568
12552.38,0.059126
12582.85,0.057764
12613.47,0.056571
12644.23,0.054953
12675.15,0.053243
12706.21,0.051503
12737.43,0.049987
12768.81,0.048272
12800.33,0.046614
12832.02,0.045028
12863.86,0.043534
12895.86,0.041926
12928.02,0.040254
12960.34,0.038714
12992.82,0.037399
13025.46,0.036083
13058.27,0.035306
13091.25,0.034435
13124.39,0.033709
13157.7,0.03297
13191.18,0.032334
13224.83,0.031805
13258.66,0.031462
13292.65,0.030674
13326.83,0.030213
13361.17,0.029493
13395.7,0.028977
13430.4,0.02841
13465.29,0.028019
13500.35,0.027754
13535.6,0.02755
13571.03,0.026996
13606.65,0.0269
13642.46,0.026329
13678.46,0.0259
13714.64,0.025565
13751.02,0.025384
13787.59,0.025641
13824.36,0.025836
13861.32,0.025599
13898.49,0.02514
13935.85,0.025068
13973.41,0.024971
14011.17,0.024288
14049.15,0.024071
14087.32,0.024055
14125.71,0.02382
14164.3,0.023018
14203.11,0.02272
14242.13,0.022527
14281.36,0.022453
14320.81,0.021968
14360.49,0.021964
14400.38,0.021885
14440.49,0.022102
14480.82,0.021948
14521.39,0.021954
14562.18,0.022297
14603.2,0.022611
14644.45,0.022922
14685.93,0.023466
14727.66,0.023359
14769.62,0.023552
14811.81,0.023756
14854.25,0.024253
14896.94,0.024556
14939.87,0.025005
14983.05,0.025416
15026.48,0.025447
15070.16,0.02519
15114.1,0.025503
15158.29,0.025505
15202.74,0.02611
15247.46,0.026351
15292.43,0.026247
15337.68,0.025888
15383.19,0.026224
15428.97,0.025946
15475.03,0.025811
15521.36,0.025904
15567.97,0.025932
15614.87,0.025846
15662.04,0.025699
15709.5,0.025158
15757.25,0.025477
15805.29,0.025408
15853.62,0.024879
15902.26,0.024107
15951.19,0.024157
16000.42,0.024037
16049.95,0.024009
16099.8,0.023947
16149.95,0.024221
16200.42,0.024125
16251.21,0.023933
16302.31,0.023488
16353.74,0.023464
16405.49,0.023309
16457.57,0.023062
16509.98,0.022946
16562.73,0.023229
16615.82,0.023121
16669.24,0.022904
16723.02,0.022395
16777.14,0.021767
16831.61,0.021555
16886.43,0.022048
16941.62,0.021865
16997.16,0.021847
17053.08,0.021619
17109.36,0.021789
17166.01,0.022074
17223.04,0.022509
17280.45,0.022982
17338.24,0.023788
17396.43,0.02446
17455.0,0.025144
17513.97,0.026008
17573.34,0.027851
17633.11,0.030347
17693.29,0.03329
17753.89,0.03613
17814.9,0.038836
17876.33,0.041876
17938.18,0.045501
18000.47,0.049165
18063.19,0.053468
18126.35,0.057207
18189.95,0.060776
18254.0,0.064506
18318.5,0.068399
18383.46,0.071217
18448.88,0.073723
18514.77,0.075732
18581.13,0.077843
18647.97,0.079676
18715.29,0.081182
18783.1,0.082355
18851.4,0.08367
18920.2,0.084434
18989.51,0.084071
19059.32,0.0844
19129.65,0.085485
19200.5,0.086213
19271.88,0.086946
19343.79,0.087456
19416.24,0.088017
19489.23,0.088482
19562.77,0.088986
19636.88,0.088691
19711.54,0.089437
19786.78,0.089477
19862.59,0.089278
19938.98,0.089433
20015.96,0.08913
20093.55,0.087957
20171.73,0.087337
20250.53,0.087193
20329.94,0.087071
20409.98,0.085523
20490.65,0.084314
20571.96,0.084737
20653.92,0.085948
20736.54,0.085735
20819.82,0.086632
20903.77,0.086662
20988.4,0.085477
21073.72,0.084189
21159.73,0.084314
21246.46,0.084238
21333.89,0.082365
21422.04,0.081276
21510.93,0.080865
21600.56,0.079959
21690.94,0.07904
21782.08,0.078407
21873.99,0.077781
21966.67,0.076536
22060.15,0.076328
22154.42,0.076129
22249.51,0.075309
22345.41,0.07345
22442.14,0.07262
22539.72,0.071106
22638.14,0.069831
22737.43,0.069572
22837.6,0.070108
22938.65,0.068829
23040.6,0.066745
23143.46,0.065388
23247.24,0.064044
23351.96,0.064325
23457.63,0.06465
23564.25,0.062432
23671.85,0.062573
23780.44,0.061941
23890.02,0.061462
24000.63,0.059818
24112.26,0.057969
24224.93,0.058059
24338.66,0.057163
24453.47,0.053413
24569.36,0.054179
24686.36,0.057357
24804.47,0.05984
24923.73,0.056475
25044.13,0.054999
25165.71,0.055066
25288.46,0.057899
25412.43,0.054849
25537.61,0.053151
25664.04,0.053768
25791.72,0.056842
25920.68,0.055459
