Database of Origin,University of Winnipeg Spectrophotometer Facility
Sample Description,8. Sulfates - RELAB sulfate spectra from their data base | RELAB Archived sulfate spectra (as of Sept. 2004  more coming out later)
Date Added,2016-07-15 22:05:15.674099

Data ID,RLA_SUL_27          
Sample ID,cc-jfm-033
Mineral Name,Gypsum (syn)
Grain Size,<25
Viewing Geometry,30 / 0
Resolution,5
Material Class,Sulfate

Wavelength
305.0,0.904659
310.0,0.907758
315.0,0.913286
320.0,0.91863
325.0,0.91668
330.0,0.921248
335.0,0.921435
340.0,0.923071
345.0,0.924127
350.0,0.926825
355.0,0.930007
360.0,0.930584
365.0,0.932598
370.0,0.934423
375.0,0.936397
380.0,0.937928
385.0,0.939786
390.0,0.942208
395.0,0.940658
400.0,0.940947
405.0,0.942467
410.0,0.942294
415.0,0.943424
420.0,0.94863
425.0,0.946483
430.0,0.948905
435.0,0.951232
440.0,0.952505
445.0,0.953473
450.0,0.954388
455.0,0.955598
460.0,0.954058
465.0,0.95735
470.0,0.957817
475.0,0.958457
480.0,0.958431
485.0,0.959499
490.0,0.959211
495.0,0.959952
500.0,0.960124
505.0,0.960813
510.0,0.960754
515.0,0.961515
520.0,0.960981
525.0,0.961884
530.0,0.96135
535.0,0.963001
540.0,0.96218
545.0,0.963629
550.0,0.962736
555.0,0.964182
560.0,0.963243
565.0,0.96483
570.0,0.964579
575.0,0.965215
580.0,0.964931
585.0,0.965303
590.0,0.964739
595.0,0.965765
600.0,0.964583
605.0,0.965218
610.0,0.964915
615.0,0.965495
620.0,0.965529
625.0,0.965947
630.0,0.96571
635.0,0.966342
640.0,0.965453
645.0,0.966208
650.0,0.966213
655.0,0.966132
660.0,0.965419
665.0,0.966031
670.0,0.966147
675.0,0.966923
680.0,0.967004
685.0,0.966838
690.0,0.966911
695.0,0.967451
700.0,0.967101
705.0,0.967222
710.0,0.966772
715.0,0.96747
720.0,0.967684
725.0,0.966335
730.0,0.965848
735.0,0.965841
740.0,0.965706
745.0,0.9663
750.0,0.966081
755.0,0.965957
760.0,0.965629
765.0,0.966161
770.0,0.966062
775.0,0.966191
780.0,0.967077
785.0,0.966074
790.0,0.966719
795.0,0.966434
800.0,0.966727
805.0,0.967545
810.0,0.967099
815.0,0.967029
820.0,0.964556
825.0,0.96711
830.0,0.966058
835.0,0.96628
840.0,0.965702
845.0,0.965311
850.0,0.964897
855.0,0.964792
860.0,0.96588
865.0,0.964823
870.0,0.965981
875.0,0.966435
880.0,0.965165
885.0,0.966527
890.0,0.965696
895.0,0.965607
900.0,0.966324
905.0,0.965692
910.0,0.965123
915.0,0.965043
920.0,0.964978
925.0,0.964997
930.0,0.964582
935.0,0.963369
940.0,0.963031
945.0,0.962337
950.0,0.96099
955.0,0.960469
960.0,0.958864
965.0,0.956772
970.0,0.954549
975.0,0.953382
980.0,0.952693
985.0,0.952597
990.0,0.952254
995.0,0.952144
1000.0,0.95254
1005.0,0.954486
1010.0,0.956355
1015.0,0.958002
1020.0,0.959632
1025.0,0.960799
1030.0,0.962494
1035.0,0.963215
1040.0,0.964273
1045.0,0.965348
1050.0,0.965134
1055.0,0.966825
1060.0,0.966464
1065.0,0.966182
1070.0,0.966944
1075.0,0.966531
1080.0,0.966421
1085.0,0.966009
1090.0,0.965697
1095.0,0.965307
1100.0,0.964771
1105.0,0.963862
1110.0,0.962605
1115.0,0.962444
1120.0,0.961911
1125.0,0.961503
1130.0,0.959726
1135.0,0.95999
1140.0,0.95682
1145.0,0.954337
1150.0,0.95052
1155.0,0.945344
1160.0,0.937833
1165.0,0.929618
1170.0,0.926732
1175.0,0.928034
1180.0,0.929478
1185.0,0.930709
1190.0,0.932103
1195.0,0.932207
1200.0,0.931467
1205.0,0.931116
1210.0,0.932671
1215.0,0.934985
1220.0,0.937516
1225.0,0.938572
1230.0,0.938981
1235.0,0.939308
1240.0,0.941465
1245.0,0.943702
1250.0,0.945131
1255.0,0.946301
1260.0,0.946566
1265.0,0.946609
1270.0,0.946162
1275.0,0.946539
1280.0,0.945592
1285.0,0.945485
1290.0,0.944923
1295.0,0.944465
1300.0,0.943488
1305.0,0.942171
1310.0,0.9401
1315.0,0.937614
1320.0,0.934758
1325.0,0.931163
1330.0,0.927549
1335.0,0.922289
1340.0,0.917517
1345.0,0.913553
1350.0,0.910245
1355.0,0.908302
1360.0,0.905782
1365.0,0.899885
1370.0,0.897392
1375.0,0.893696
1380.0,0.891364
1385.0,0.881701
1390.0,0.876339
1395.0,0.86969
1400.0,0.862076
1405.0,0.853044
1410.0,0.839215
1415.0,0.826709
1420.0,0.808744
1425.0,0.794254
1430.0,0.787756
1435.0,0.782266
1440.0,0.771138
1445.0,0.755743
1450.0,0.760313
1455.0,0.78182
1460.0,0.795994
1465.0,0.803136
1470.0,0.804649
1475.0,0.803351
1480.0,0.807079
1485.0,0.808724
1490.0,0.805407
1495.0,0.807862
1500.0,0.818653
1505.0,0.830399
1510.0,0.839051
1515.0,0.842697
1520.0,0.844308
1525.0,0.842443
1530.0,0.840091
1535.0,0.837447
1540.0,0.836172
1545.0,0.840952
1550.0,0.850409
1555.0,0.85923
1560.0,0.866357
1565.0,0.872674
1570.0,0.877228
1575.0,0.88167
1580.0,0.884805
1585.0,0.888526
1590.0,0.891232
1595.0,0.895395
1600.0,0.89805
1605.0,0.901859
1610.0,0.904927
1615.0,0.908814
1620.0,0.911267
1625.0,0.913058
1630.0,0.914865
1635.0,0.916774
1640.0,0.919931
1645.0,0.921228
1650.0,0.922746
1655.0,0.923659
1660.0,0.924857
1665.0,0.926204
1670.0,0.926696
1675.0,0.926537
1680.0,0.925916
1685.0,0.924577
1690.0,0.921382
1695.0,0.919303
1700.0,0.913934
1705.0,0.908068
1710.0,0.901401
1715.0,0.893429
1720.0,0.883838
1725.0,0.87396
1730.0,0.864081
1735.0,0.853985
1740.0,0.843965
1745.0,0.836854
1750.0,0.832201
1755.0,0.8337
1760.0,0.835664
1765.0,0.837873
1770.0,0.838694
1775.0,0.839459
1780.0,0.841004
1785.0,0.844389
1790.0,0.84957
1795.0,0.855392
1800.0,0.861265
1805.0,0.864943
1810.0,0.868787
1815.0,0.871403
1820.0,0.873861
1825.0,0.873722
1830.0,0.87521
1835.0,0.875957
1840.0,0.872068
1845.0,0.868371
1850.0,0.865082
1855.0,0.859764
1860.0,0.85243
1865.0,0.845629
1870.0,0.838342
1875.0,0.813917
1880.0,0.796307
1885.0,0.780689
1890.0,0.760719
1895.0,0.7376
1900.0,0.714541
1905.0,0.679917
1910.0,0.63537
1915.0,0.586253
1920.0,0.547695
1925.0,0.536545
1930.0,0.540857
1935.0,0.535651
1940.0,0.527319
1945.0,0.525818
1950.0,0.534132
1955.0,0.556945
1960.0,0.58841
1965.0,0.608757
1970.0,0.615991
1975.0,0.623516
1980.0,0.634281
1985.0,0.646058
1990.0,0.660775
1995.0,0.685389
2000.0,0.715823
2005.0,0.742599
2010.0,0.762691
2015.0,0.776934
2020.0,0.787041
2025.0,0.794639
2030.0,0.800666
2035.0,0.80525
2040.0,0.808697
2045.0,0.811431
2050.0,0.813531
2055.0,0.814071
2060.0,0.813054
2065.0,0.811302
2070.0,0.81122
2075.0,0.81056
2080.0,0.809481
2085.0,0.808911
2090.0,0.806586
2095.0,0.80312
2100.0,0.798604
2105.0,0.795236
2110.0,0.79205
2115.0,0.789766
2120.0,0.786936
2125.0,0.785008
2130.0,0.782492
2135.0,0.780231
2140.0,0.778358
2145.0,0.776358
2150.0,0.774046
2155.0,0.770971
2160.0,0.767495
2165.0,0.763993
2170.0,0.761506
2175.0,0.759338
2180.0,0.758247
2185.0,0.758713
2190.0,0.757743
2195.0,0.756329
2200.0,0.753485
2205.0,0.753349
2210.0,0.749459
2215.0,0.745287
2220.0,0.743866
2225.0,0.748327
2230.0,0.754948
2235.0,0.759104
2240.0,0.761325
2245.0,0.761846
2250.0,0.761901
2255.0,0.760603
2260.0,0.758318
2265.0,0.755092
2270.0,0.753116
2275.0,0.756017
2280.0,0.761402
2285.0,0.764939
2290.0,0.766315
2295.0,0.767617
2300.0,0.768357
2305.0,0.768465
2310.0,0.768022
2315.0,0.766882
2320.0,0.7649
2325.0,0.762405
2330.0,0.758426
2335.0,0.755252
2340.0,0.751117
2345.0,0.746629
2350.0,0.740873
2355.0,0.734664
2360.0,0.727809
2365.0,0.720724
2370.0,0.714487
2375.0,0.706041
2380.0,0.696139
2385.0,0.685304
2390.0,0.672711
2395.0,0.658821
2400.0,0.644558
2405.0,0.635406
2410.0,0.624109
2415.0,0.614768
2420.0,0.607135
2425.0,0.598774
2430.0,0.592397
2435.0,0.587134
2440.0,0.58053
2445.0,0.575883
2450.0,0.57111
2455.0,0.565152
2460.0,0.560453
2465.0,0.555199
2470.0,0.551457
2475.0,0.547945
2480.0,0.544337
2485.0,0.540079
2490.0,0.539171
2495.0,0.540378
2500.0,0.542844
2505.0,0.547904
2510.0,0.552092
2515.0,0.557697
2520.0,0.56242
2525.0,0.567428
2530.0,0.57148
2535.0,0.571424
2540.0,0.573826
2545.0,0.574068
2550.0,0.570554
2555.0,0.570624
2560.0,0.56889
2565.0,0.567596
2570.0,0.566898
2575.0,0.56479
2580.0,0.5643
2585.0,0.564077
2590.0,0.562971
2595.0,0.560888
2600.0,0.558469
