Database of Origin,University of Winnipeg Spectrophotometer Facility
Sample Description,Carbonates and Oxolates - RELAB+Nicolet spectra Newly merged spectra (merged by RELAB)
Other Information,dry seived
Date Added,2018-08-06 20:49:02.808715

Data ID,RLA_CARB_1_33       
Sample ID,CRB209
Mineral Name,Hydrotalcite
Locality,Snarum/ Norway
Grain Size,<45 um
Viewing Geometry,30/0/30
Resolution,5/ 0.6-129 nm
Formula,Mg6Al2(CO3)(OH)16*4(H2O)
Composition,Lamellar massive or foliated. Somewhat fibrous white/ pearly

Wavelength
305.0,0.553956
310.0,0.616078
315.0,0.657596
320.0,0.685773
325.0,0.707592
330.0,0.725476
335.0,0.740014
340.0,0.753028
345.0,0.763467
350.0,0.772889
355.0,0.779382
360.0,0.785135
365.0,0.792549
370.0,0.799918
375.0,0.810725
380.0,0.820153
385.0,0.826318
390.0,0.831088
395.0,0.835954
400.0,0.839143
405.0,0.841584
410.0,0.843726
415.0,0.845182
420.0,0.846094
425.0,0.846807
430.0,0.847277
435.0,0.850701
440.0,0.853407
445.0,0.857208
450.0,0.859297
455.0,0.862038
460.0,0.864027
465.0,0.866588
470.0,0.868098
475.0,0.871112
480.0,0.872755
485.0,0.874913
490.0,0.877292
495.0,0.879381
500.0,0.880507
505.0,0.882887
510.0,0.883695
515.0,0.885327
520.0,0.885224
525.0,0.88741
530.0,0.88752
535.0,0.889566
540.0,0.889752
545.0,0.89104
550.0,0.891508
555.0,0.892858
560.0,0.892946
565.0,0.894141
570.0,0.894165
575.0,0.895224
580.0,0.895539
585.0,0.896992
590.0,0.897209
595.0,0.897685
600.0,0.897569
605.0,0.898507
610.0,0.898056
615.0,0.898504
620.0,0.898146
625.0,0.89872
630.0,0.898545
635.0,0.898633
640.0,0.899558
645.0,0.898884
650.0,0.899929
655.0,0.900165
660.0,0.900146
665.0,0.900637
670.0,0.899933
675.0,0.900962
680.0,0.901091
685.0,0.902507
690.0,0.902279
695.0,0.902814
700.0,0.903053
705.0,0.903529
710.0,0.904177
715.0,0.904729
720.0,0.904291
725.0,0.904642
730.0,0.904064
735.0,0.904473
740.0,0.904323
745.0,0.905652
750.0,0.905109
755.0,0.905143
760.0,0.90489
765.0,0.905395
770.0,0.905469
775.0,0.907349
780.0,0.906997
785.0,0.905233
790.0,0.906309
795.0,0.905699
800.0,0.906353
805.0,0.90625
810.0,0.905854
815.0,0.905146
820.0,0.906574
825.0,0.903853
830.0,0.905788
835.0,0.90498
840.0,0.903914
845.0,0.903948
850.0,0.90403
855.0,0.902223
860.0,0.904072
865.0,0.90366
870.0,0.903428
875.0,0.903333
880.0,0.904171
885.0,0.903588
890.0,0.904149
895.0,0.90291
900.0,0.901296
905.0,0.901549
910.0,0.901603
915.0,0.902282
920.0,0.901393
925.0,0.900809
930.0,0.901272
935.0,0.899083
940.0,0.898792
945.0,0.895847
950.0,0.893114
955.0,0.891657
960.0,0.88997
965.0,0.888245
970.0,0.887274
975.0,0.887261
980.0,0.888936
985.0,0.890186
990.0,0.891586
995.0,0.892752
1000.0,0.893363
1005.0,0.894666
1010.0,0.895766
1015.0,0.896863
1020.0,0.897074
1025.0,0.898297
1030.0,0.897847
1035.0,0.898481
1040.0,0.899659
1045.0,0.899178
1050.0,0.899392
1055.0,0.899809
1060.0,0.900644
1065.0,0.900549
1070.0,0.900078
1075.0,0.900457
1080.0,0.900073
1085.0,0.900288
1090.0,0.900691
1095.0,0.90106
1100.0,0.901017
1105.0,0.89999
1110.0,0.900705
1115.0,0.899803
1120.0,0.899661
1125.0,0.899047
1130.0,0.898745
1135.0,0.897401
1140.0,0.896189
1145.0,0.894318
1150.0,0.891811
1155.0,0.88926
1160.0,0.886664
1165.0,0.88507
1170.0,0.884588
1175.0,0.88516
1180.0,0.885775
1185.0,0.885647
1190.0,0.885524
1195.0,0.886254
1200.0,0.887156
1205.0,0.887544
1210.0,0.888008
1215.0,0.888327
1220.0,0.888637
1225.0,0.888367
1230.0,0.888893
1235.0,0.887516
1240.0,0.886635
1245.0,0.886043
1250.0,0.883667
1255.0,0.881208
1260.0,0.878308
1265.0,0.87565
1270.0,0.871931
1275.0,0.869106
1280.0,0.866245
1285.0,0.865408
1290.0,0.864993
1295.0,0.864874
1300.0,0.864238
1305.0,0.864416
1310.0,0.864748
1315.0,0.865362
1320.0,0.865695
1325.0,0.866018
1330.0,0.866125
1335.0,0.865343
1340.0,0.864249
1345.0,0.863303
1350.0,0.861986
1355.0,0.859255
1360.0,0.854554
1365.0,0.846568
1370.0,0.81843
1375.0,0.808293
1380.0,0.79758
1385.0,0.785083
1420.0,0.720825
1425.0,0.721838
1430.0,0.724225
1435.0,0.728953
1440.0,0.733987
1445.0,0.739615
1450.0,0.745146
1455.0,0.751452
1460.0,0.756477
1465.0,0.761141
1470.0,0.765629
1475.0,0.770238
1480.0,0.775057
1485.0,0.779862
1490.0,0.783369
1495.0,0.787601
1500.0,0.791311
1505.0,0.794894
1510.0,0.797688
1515.0,0.800752
1520.0,0.803388
1525.0,0.805699
1530.0,0.808164
1535.0,0.810204
1540.0,0.812719
1545.0,0.81455
1550.0,0.816743
1555.0,0.818328
1560.0,0.82011
1565.0,0.821983
1570.0,0.823364
1575.0,0.824738
1580.0,0.82592
1585.0,0.827041
1590.0,0.828099
1595.0,0.828646
1600.0,0.829123
1605.0,0.829491
1610.0,0.829726
1615.0,0.829834
1620.0,0.830031
1625.0,0.830007
1630.0,0.829524
1635.0,0.829426
1640.0,0.829145
1645.0,0.828413
1650.0,0.828128
1655.0,0.827199
1660.0,0.826447
1665.0,0.825824
1670.0,0.824767
1675.0,0.823752
1680.0,0.822907
1685.0,0.821732
1690.0,0.820644
1695.0,0.819241
1700.0,0.818099
1705.31,0.816566
1709.81,0.815317
1715.46,0.813779
1720.02,0.812454
1724.6,0.810869
1730.35,0.808698
1734.98,0.807014
1739.64,0.804941
1745.5,0.802734
1750.21,0.800823
1754.95,0.799391
1759.72,0.797915
1764.51,0.796472
1770.54,0.794589
1775.39,0.792996
1780.27,0.791466
1785.17,0.789837
1790.1,0.787822
1795.06,0.785484
1800.05,0.783189
1805.06,0.780822
1810.1,0.778393
1815.17,0.776165
1820.27,0.774161
1825.4,0.772231
1830.56,0.770151
1834.44,0.768413
1839.65,0.765858
1844.89,0.763091
1850.16,0.760458
1855.45,0.757131
1859.45,0.754316
1864.8,0.750044
1870.18,0.744186
1875.59,0.736614
1879.67,0.729337
1885.14,0.717294
1890.64,0.701547
1894.79,0.687114
1900.34,0.664799
1904.53,0.646745
1910.15,0.624177
1914.38,0.611236
1920.05,0.601574
1924.33,0.599517
1930.06,0.601809
1934.38,0.605715
1940.17,0.61178
1944.54,0.616056
1950.39,0.621043
1954.8,0.623849
1960.72,0.627017
1965.18,0.628675
1969.66,0.630116
1975.66,0.631222
1980.19,0.631793
1984.74,0.632266
1989.31,0.632549
1995.43,0.632851
2000.05,0.63313
2004.69,0.633624
2009.35,0.634258
2015.6,0.635333
2020.32,0.636899
2025.05,0.638687
2029.81,0.640647
2034.59,0.643047
2039.39,0.645796
2044.22,0.648454
2050.69,0.65239
2055.57,0.655678
2060.47,0.658743
2065.39,0.66194
2070.34,0.665349
2075.31,0.668126
2080.31,0.671088
2085.33,0.673958
2090.38,0.676323
2095.45,0.678635
2100.54,0.680429
2105.66,0.682231
2110.8,0.683616
2114.25,0.684516
2119.43,0.68539
2124.65,0.686274
2129.88,0.686617
2135.15,0.686773
2140.44,0.686445
2145.75,0.685932
2149.31,0.685407
2154.67,0.684439
2160.06,0.682889
2165.47,0.680734
2170.91,0.677922
2174.55,0.675663
2180.04,0.671671
2185.55,0.66691
2189.25,0.663225
2194.81,0.657471
2200.4,0.651096
2204.14,0.646592
2209.78,0.640152
2215.44,0.633753
2219.24,0.629327
2224.95,0.622544
2230.7,0.615639
2234.54,0.611135
2240.33,0.604658
2244.21,0.600719
2250.06,0.595514
2255.93,0.592041
2259.87,0.590558
2265.79,0.588769
2269.76,0.587663
2275.74,0.586204
2279.74,0.585109
2285.77,0.583298
2289.81,0.58229
2295.9,0.580946
2299.97,0.580481
2304.06,0.579929
2310.22,0.579031
2314.35,0.578483
2320.56,0.577794
2324.72,0.577736
2331.0,0.577905
2335.2,0.578506
2339.41,0.579322
2345.76,0.58062
2350.02,0.581695
2354.28,0.582972
2360.72,0.585417
2365.03,0.587386
2369.35,0.589059
2375.86,0.591076
2380.23,0.591724
2384.61,0.591985
2389.0,0.591553
2395.63,0.589667
2400.06,0.587434
2404.52,0.584471
2408.98,0.580406
2415.72,0.57249
2420.23,0.565878
2424.76,0.558306
2429.3,0.550426
2433.87,0.542064
2440.74,0.530223
2445.35,0.523261
2449.97,0.51697
2454.61,0.511778
2459.27,0.507485
2463.94,0.504198
2470.99,0.500245
2475.71,0.498051
2480.45,0.496103
2485.2,0.494119
2489.98,0.492514
2494.77,0.490873
2499.58,0.489304
2504.41,0.487825
2509.26,0.486506
2514.13,0.485469
2519.02,0.484401
2523.92,0.483988
2528.85,0.483825
2533.79,0.483754
2541.24,0.484248
2543.74,0.48454
2548.74,0.485101
2553.76,0.48552
2556.28,0.485706
2558.8,0.485766
2561.33,0.485737
2563.86,0.485675
2566.4,0.48572
2568.95,0.485777
2571.5,0.48579
2574.05,0.485565
2576.61,0.485376
2579.17,0.485214
2581.74,0.485053
2584.31,0.484613
2586.89,0.484086
2589.48,0.483507
2592.07,0.482965
2594.66,0.482033
2597.26,0.480898
2599.87,0.479994
2602.48,0.479003
2605.09,0.477436
2607.71,0.475833
2610.34,0.474111
2612.97,0.47252
2615.61,0.470656
2618.25,0.468645
2620.9,0.466451
2623.55,0.464322
2626.21,0.461977
2628.87,0.459464
2631.54,0.456564
2634.22,0.453487
2636.89,0.450211
2639.58,0.446623
2642.27,0.442189
2644.97,0.437228
2647.67,0.431512
2650.38,0.425228
2653.09,0.41811
2655.81,0.41019
2658.53,0.401647
2661.26,0.392543
2664.0,0.382788
2666.74,0.372669
2669.48,0.361446
2672.23,0.34933
2674.99,0.335627
2677.76,0.319036
2680.52,0.295266
2683.3,0.271681
2686.08,0.258031
2688.87,0.249919
2691.66,0.238842
2694.46,0.226874
2697.26,0.216851
2700.07,0.206898
2702.89,0.195177
2705.71,0.182052
2708.53,0.169637
2711.37,0.15809
2714.21,0.145939
2717.05,0.133998
2719.9,0.123686
2722.76,0.113838
2725.62,0.10437
2728.49,0.095486
2731.37,0.087539
2734.25,0.081005
2737.14,0.075345
2740.03,0.070976
2742.93,0.067064
2745.83,0.062751
2748.75,0.059255
2751.66,0.056615
2754.59,0.054784
2757.52,0.053073
2760.46,0.050932
2763.4,0.049225
2766.35,0.047913
2769.3,0.04676
2772.26,0.04596
2775.23,0.044854
2778.21,0.043903
2781.19,0.043167
2784.18,0.042592
2787.17,0.042038
2790.17,0.04164
2793.18,0.04103
2796.19,0.040759
2799.21,0.040407
2802.24,0.040256
2805.27,0.040309
2808.31,0.040181
2811.35,0.039808
2814.41,0.039738
2817.46,0.039775
2820.53,0.039864
2823.6,0.039806
2826.68,0.039789
2829.77,0.039853
2832.86,0.040161
2835.96,0.040493
2839.07,0.040722
2842.18,0.040753
2845.3,0.040819
2848.43,0.041077
2851.56,0.041431
2854.7,0.04175
2857.85,0.042039
2861.0,0.042415
2864.16,0.042834
2867.33,0.043083
2870.51,0.043513
2873.69,0.043863
2876.88,0.044342
2880.07,0.044656
2883.28,0.045093
2886.49,0.045423
2889.71,0.04586
2892.93,0.046388
2896.17,0.046797
2899.4,0.047155
2902.65,0.047757
2905.91,0.048304
2909.17,0.049
2912.44,0.049433
2915.71,0.049744
2918.99,0.050528
2922.29,0.050597
2925.58,0.051708
2928.89,0.051977
2932.2,0.05242
2935.52,0.052972
2938.85,0.053065
2942.19,0.054162
2945.53,0.054644
2948.88,0.055025
2952.24,0.055748
2955.61,0.056455
2958.98,0.056955
2962.36,0.057956
2965.75,0.058178
2969.15,0.058772
2972.55,0.059718
2975.97,0.060117
2979.39,0.060524
2986.25,0.062155
2989.7,0.062532
2993.15,0.063571
2996.61,0.063795
3000.08,0.06458
3003.55,0.065114
3007.04,0.065796
3010.53,0.066854
3014.03,0.067208
3017.54,0.067907
3021.06,0.068683
3024.58,0.069369
3028.12,0.069949
3031.66,0.070539
3035.21,0.071036
3038.77,0.071932
3042.33,0.072902
3045.91,0.073499
3049.49,0.074377
3053.08,0.074669
3056.68,0.075505
3060.29,0.076447
3063.91,0.077125
3067.54,0.077523
3071.17,0.07871
3074.81,0.079441
3078.47,0.079928
3082.13,0.081142
3085.79,0.081723
3089.47,0.082393
3093.16,0.083319
3096.85,0.084033
3100.56,0.084893
3104.27,0.085821
3107.99,0.086575
3111.73,0.087183
3115.47,0.087893
3119.21,0.088795
3122.97,0.089599
3126.74,0.090234
3130.52,0.091081
3134.3,0.091828
3138.1,0.092881
3141.9,0.093565
3145.71,0.094191
3149.54,0.095225
3153.37,0.095333
3157.21,0.096623
3161.06,0.097101
3164.92,0.098012
3168.79,0.099009
3172.67,0.099533
3176.55,0.100372
3180.45,0.1012
3184.36,0.102022
3188.27,0.102932
3192.2,0.103654
3196.14,0.104593
3200.08,0.105438
3204.04,0.10605
3208.0,0.106836
3211.98,0.107857
3215.96,0.108418
3219.96,0.10915
3223.96,0.109854
3227.98,0.110723
3232.0,0.111598
3236.04,0.112261
3240.08,0.113118
3244.14,0.113927
3248.2,0.114683
3252.28,0.11559
3256.37,0.116653
3260.46,0.117292
3264.57,0.11821
3268.69,0.118789
3272.81,0.119741
3276.95,0.120379
3281.1,0.121415
3285.26,0.122224
3289.43,0.123076
3293.61,0.124109
3297.8,0.125041
3302.0,0.125643
3306.21,0.126681
3310.43,0.127957
3314.66,0.128772
3318.91,0.129811
3323.16,0.130659
3327.43,0.131559
3331.71,0.132639
3335.99,0.133545
3340.29,0.134874
3344.6,0.135832
3348.92,0.136836
3353.26,0.137531
3357.6,0.138845
3361.96,0.139526
3366.32,0.140907
3370.7,0.142001
3375.09,0.143563
3379.49,0.144338
3383.9,0.145537
3388.32,0.146837
3392.76,0.14797
3397.21,0.149177
3401.66,0.150361
3406.13,0.151473
3410.61,0.153052
3415.11,0.154097
3419.61,0.155916
3424.13,0.157077
3428.66,0.15827
3433.2,0.159497
3437.76,0.160806
3442.32,0.162031
3446.9,0.163273
3451.49,0.164549
3456.09,0.165801
3460.7,0.167224
3465.33,0.168655
3469.97,0.169915
3474.62,0.171378
3479.29,0.172945
3483.96,0.17415
3488.65,0.175417
3493.35,0.176936
3498.07,0.178565
3502.79,0.18011
3507.53,0.181835
3512.29,0.183215
3517.05,0.184664
3521.83,0.186014
3526.62,0.18769
3531.43,0.189433
3536.24,0.19087
3541.08,0.19273
3543.5,0.193732
3545.92,0.194653
3548.35,0.195417
3550.78,0.196159
3553.21,0.196979
3555.65,0.197909
3558.09,0.198898
3560.53,0.199754
3562.98,0.200573
3565.43,0.201546
3567.88,0.202393
3570.34,0.203153
3572.8,0.204089
3575.27,0.204974
3577.73,0.205535
3580.2,0.206308
3582.68,0.207279
3585.16,0.208087
3587.64,0.209077
3590.12,0.210068
3592.61,0.210918
3595.1,0.211724
3597.6,0.212646
3600.09,0.21373
3602.6,0.21468
3605.1,0.215341
3607.61,0.216114
3610.12,0.217115
3612.64,0.218128
3615.16,0.219027
3617.68,0.219905
3620.21,0.220781
3622.74,0.221968
3625.27,0.223167
3627.81,0.224144
3630.35,0.225043
3632.89,0.226118
3635.44,0.227274
3637.99,0.22831
3640.54,0.229347
3643.1,0.230316
3645.66,0.231228
3648.23,0.232331
3650.8,0.233438
3653.37,0.234509
3655.95,0.235367
3658.53,0.236079
3661.11,0.237065
3663.7,0.23822
3666.29,0.239018
3668.89,0.239692
3671.48,0.240622
3674.09,0.241645
3676.69,0.242548
3679.3,0.243427
3681.91,0.244224
3684.53,0.245087
3687.15,0.245883
3689.78,0.24669
3692.4,0.247641
3695.04,0.24846
3697.67,0.249203
3700.31,0.250111
3702.95,0.250978
3705.6,0.251655
3708.25,0.252369
3710.91,0.252879
3713.56,0.253396
3716.23,0.254306
3718.89,0.255101
3721.56,0.255615
3724.23,0.256069
3726.91,0.256609
3729.59,0.257303
3732.28,0.258005
3734.97,0.258718
3737.66,0.259453
3740.36,0.260047
3743.06,0.260654
3745.76,0.261482
3748.47,0.262152
3751.18,0.262707
3753.9,0.263289
3756.62,0.263819
3759.34,0.264441
3762.07,0.265126
3764.8,0.265662
3767.54,0.266225
3770.28,0.266805
3773.02,0.267266
3775.77,0.267908
3778.52,0.268498
3781.28,0.26904
3784.04,0.269565
3786.8,0.270154
3789.57,0.270762
3792.34,0.271264
3795.12,0.27152
3797.9,0.271903
3800.69,0.27249
3803.47,0.273042
3806.27,0.273545
3809.06,0.273941
3811.86,0.274332
3814.67,0.274888
3817.48,0.275316
3820.29,0.275664
3823.11,0.276105
3825.93,0.276512
3828.76,0.276824
3831.59,0.277262
3834.42,0.277692
3837.26,0.277947
3840.1,0.278243
3842.95,0.278673
3845.8,0.279114
3848.65,0.279585
3851.51,0.279995
3854.38,0.280378
3857.24,0.280697
3860.12,0.280998
3862.99,0.281292
3865.87,0.281564
3868.76,0.281811
3871.65,0.282089
3874.54,0.282434
3877.44,0.282886
3880.34,0.283326
3883.25,0.283545
3886.16,0.283772
3889.07,0.284082
3891.99,0.284208
3894.92,0.284455
3897.85,0.284803
3900.78,0.285063
3903.72,0.285118
3906.66,0.285353
3909.6,0.285574
3912.55,0.28584
3915.51,0.28609
3918.47,0.286156
3921.43,0.286294
3924.4,0.286663
3927.38,0.286941
3930.35,0.287136
3933.33,0.287299
3936.32,0.287443
3939.31,0.287712
3942.31,0.287909
3945.31,0.288221
3948.31,0.288387
3951.32,0.288387
3954.34,0.288642
3957.35,0.288732
3960.38,0.288885
3963.41,0.289067
3966.44,0.289254
3969.48,0.289426
3972.52,0.289596
3975.56,0.289765
3978.61,0.290092
3981.67,0.290423
3984.73,0.290695
3987.8,0.290924
3990.87,0.291193
3993.94,0.291465
3997.02,0.291772
4000.1,0.29205
4003.19,0.292374
4006.29,0.292616
4009.39,0.292997
4012.49,0.29326
4015.6,0.293626
4018.71,0.294035
4021.83,0.294345
4024.95,0.294792
4028.08,0.295238
4031.21,0.295488
4034.35,0.295904
4037.49,0.296299
4040.64,0.296665
4043.79,0.297094
4046.94,0.297568
4050.11,0.29803
4053.27,0.298478
4056.44,0.298873
4059.62,0.299378
4062.8,0.299863
4065.99,0.300474
4069.18,0.301004
4072.38,0.301475
4075.58,0.30201
4078.78,0.302587
4082.0,0.303137
4085.21,0.303569
4088.43,0.304115
4091.66,0.304835
4094.89,0.305488
4098.13,0.306123
4101.37,0.306746
4104.62,0.307336
4107.87,0.307933
4111.13,0.308696
4114.39,0.309459
4117.66,0.310181
4120.93,0.310903
4124.21,0.311618
4127.5,0.312418
4130.79,0.313266
4134.08,0.314103
4137.38,0.314993
4140.68,0.315867
4143.99,0.316736
4147.31,0.317615
4150.63,0.318668
4153.95,0.319827
4157.29,0.320851
4160.62,0.321637
4163.96,0.322611
4167.31,0.323708
4170.66,0.324886
4174.02,0.326011
4177.39,0.327038
4180.75,0.328006
4184.13,0.329117
4187.51,0.330255
4190.89,0.331288
4194.28,0.332343
4197.68,0.33332
4201.08,0.334245
4204.49,0.335365
4207.9,0.33623
4211.32,0.337117
4214.74,0.338105
4218.17,0.339052
4221.61,0.339901
4225.05,0.340863
4228.5,0.341661
4231.95,0.342453
4235.4,0.343241
4238.87,0.343896
4242.34,0.34462
4245.81,0.345313
4249.29,0.345927
4252.78,0.346565
4256.27,0.347106
4259.77,0.347745
4263.27,0.348337
4266.78,0.348727
4270.29,0.349221
4273.81,0.349877
4277.34,0.350314
4280.87,0.350613
4284.41,0.350841
4287.95,0.351441
4291.5,0.351848
4295.06,0.352051
4298.62,0.352277
4302.19,0.352585
4305.76,0.35275
4309.34,0.352873
4312.92,0.353122
4316.52,0.353424
4320.11,0.353576
4323.72,0.353736
4327.32,0.353886
4330.94,0.353907
4334.56,0.353892
4338.19,0.353987
4341.82,0.353935
4345.46,0.353845
4349.11,0.353756
4352.76,0.353769
4356.42,0.353751
4360.08,0.353637
4363.75,0.353409
4367.43,0.353333
4371.11,0.353198
4374.8,0.353044
4378.49,0.352873
4382.19,0.352684
4385.9,0.352382
4389.61,0.352177
4393.33,0.351987
4397.06,0.351791
4400.79,0.351405
4404.53,0.351078
4408.28,0.350756
4412.03,0.35032
4415.79,0.349902
4419.55,0.349602
4423.32,0.349185
4427.1,0.348695
4430.88,0.348297
4434.68,0.347986
4438.47,0.347645
4442.28,0.347235
4446.08,0.346572
4449.9,0.346069
4453.72,0.3456
4457.55,0.345031
4461.39,0.344554
4465.23,0.344079
4469.08,0.34344
4472.94,0.342877
4476.8,0.342249
4480.67,0.3416
4484.55,0.340982
4488.43,0.340439
4492.32,0.339769
4496.21,0.339192
4500.12,0.338543
4504.03,0.337932
4507.94,0.337301
4511.87,0.33659
4515.8,0.335766
4519.73,0.335052
4523.68,0.334247
4527.63,0.333565
4531.59,0.332891
4535.55,0.332252
4539.52,0.331367
4543.5,0.330458
4547.49,0.329662
4551.48,0.329022
4555.48,0.328331
4559.49,0.327676
4563.5,0.326974
4567.52,0.326114
4571.55,0.325123
4575.58,0.324339
4579.63,0.32354
4583.67,0.322715
4587.73,0.321832
4591.79,0.32111
4595.86,0.320269
4599.94,0.319396
4604.03,0.318554
4608.12,0.317677
4612.22,0.316758
4616.33,0.315901
4620.44,0.315033
4624.56,0.314279
4628.69,0.313481
4632.83,0.312498
4636.97,0.311536
4641.12,0.310749
4645.28,0.309929
4649.45,0.309175
4653.62,0.308336
4657.8,0.307496
4661.99,0.306468
4666.19,0.305467
4670.39,0.304602
4674.6,0.303783
4678.82,0.302899
4683.05,0.30201
4687.28,0.301074
4691.52,0.300271
4695.77,0.299498
4700.03,0.298612
4704.3,0.297614
4708.57,0.296779
4712.85,0.295941
4717.14,0.295121
4721.43,0.294213
4725.74,0.293272
4730.05,0.292293
4734.37,0.291481
4738.7,0.290642
4743.03,0.28973
4747.38,0.288753
4751.73,0.287846
4756.09,0.286978
4760.45,0.28635
4764.83,0.285679
4769.21,0.284698
4773.6,0.283749
4778.0,0.282928
4782.41,0.282082
4786.83,0.281316
4791.25,0.280553
4795.68,0.279801
4800.13,0.278967
4804.57,0.278163
4809.03,0.277304
4813.5,0.276482
4817.97,0.27578
4822.45,0.275193
4826.94,0.274421
4831.44,0.273576
4835.95,0.272868
4840.46,0.272227
4844.99,0.271639
4849.52,0.271058
4854.06,0.270337
4858.61,0.269492
4863.17,0.268682
4867.73,0.2681
4872.31,0.267481
4876.89,0.266892
4881.48,0.266126
4886.08,0.26557
4890.69,0.265033
4895.31,0.264248
4899.94,0.263486
4904.57,0.262863
4909.22,0.262336
4913.87,0.261807
4918.53,0.261114
4923.21,0.260467
4927.88,0.259862
4932.57,0.259361
4937.27,0.258719
4941.98,0.258151
4946.69,0.257575
4951.42,0.257004
4956.15,0.256461
4960.9,0.255887
4965.65,0.255174
4970.41,0.254706
4975.18,0.254171
4979.96,0.253738
4984.75,0.253285
4989.54,0.25284
4994.35,0.252269
4999.17,0.251807
5003.99,0.251387
5008.83,0.250977
5013.67,0.250497
5018.52,0.2501
5023.39,0.24964
5028.26,0.24924
5033.14,0.248848
5038.03,0.248545
5042.93,0.248263
5047.84,0.247963
5052.76,0.247693
5057.69,0.247447
5062.63,0.247205
5067.58,0.246938
5072.54,0.246596
5077.51,0.246339
5082.49,0.24609
5087.47,0.245895
5092.47,0.24564
5097.48,0.245445
5102.5,0.245309
5107.52,0.245184
5112.56,0.24488
5117.61,0.244715
5122.66,0.24462
5127.73,0.244427
5132.81,0.244294
5137.89,0.244265
5142.99,0.244102
5148.1,0.243991
5153.22,0.243772
5158.34,0.243614
5163.48,0.243405
5168.63,0.243177
5173.79,0.243017
5178.96,0.24287
5184.13,0.242611
5189.32,0.242417
5194.52,0.242232
5199.73,0.241938
5204.96,0.241724
5210.19,0.241651
5215.43,0.241364
5220.68,0.241078
5225.94,0.240868
5231.22,0.240697
5236.5,0.240362
5241.79,0.240185
5247.1,0.239869
5252.42,0.239568
5257.74,0.239245
5263.08,0.238967
5268.43,0.238563
5273.79,0.238267
5279.16,0.237902
5284.54,0.237499
5289.93,0.23713
5295.34,0.236828
5300.75,0.236425
5306.18,0.236001
5311.61,0.235484
5317.06,0.235143
5322.52,0.234767
5327.99,0.234337
5333.47,0.233754
5338.96,0.233261
5344.47,0.23279
5349.98,0.232296
5355.51,0.231693
5361.05,0.2311
5366.6,0.230503
5372.16,0.230085
5377.73,0.229517
5383.32,0.228958
5388.91,0.228298
5394.52,0.227619
5400.14,0.226991
5405.77,0.226426
5411.41,0.225768
5417.07,0.225066
5422.74,0.224309
5428.41,0.223642
5434.1,0.222939
5439.81,0.222358
5445.52,0.22149
5451.25,0.22081
5456.98,0.220143
5462.73,0.219459
5468.5,0.218594
5474.27,0.217802
5480.06,0.21698
5485.86,0.216298
5491.67,0.215477
5497.49,0.214689
5503.33,0.213803
5509.18,0.212985
5515.04,0.21216
5520.91,0.211393
5526.8,0.210499
5532.69,0.209739
5538.61,0.208907
5544.53,0.20808
5550.47,0.207097
5556.41,0.206072
5562.38,0.204895
5568.35,0.204021
5574.34,0.203074
5580.34,0.201992
5586.35,0.200836
5592.38,0.199996
5598.42,0.199031
5604.47,0.198084
5610.54,0.197035
5616.61,0.196013
5622.71,0.194879
5628.81,0.193896
5634.93,0.192794
5641.06,0.191758
5647.21,0.190569
5653.36,0.189313
5659.54,0.188045
5665.72,0.186678
5671.92,0.185255
5678.13,0.183853
5684.36,0.182177
5690.6,0.180703
5696.85,0.179168
5703.12,0.177651
5709.4,0.176112
5715.69,0.174661
5722.0,0.17303
5728.33,0.171609
5734.66,0.170188
5741.01,0.168872
5747.38,0.167481
5753.76,0.166017
5760.15,0.164481
5766.56,0.163118
5772.98,0.161331
5779.41,0.159679
5785.86,0.158193
5792.33,0.156501
5798.81,0.154649
5805.3,0.152701
5811.81,0.150614
5818.33,0.148546
5824.87,0.146094
5831.42,0.143611
5837.99,0.141138
5844.57,0.138809
5851.17,0.136297
5857.78,0.133719
5864.41,0.130998
5871.05,0.128253
5877.7,0.125463
5884.38,0.122634
5891.06,0.119327
5897.76,0.116663
5904.48,0.113548
5911.21,0.110374
5917.96,0.107499
5924.73,0.104535
5931.5,0.101584
5938.3,0.098755
5945.11,0.095589
5951.93,0.092854
5958.78,0.090363
5965.63,0.087868
5972.51,0.08546
5979.39,0.083066
5986.3,0.080957
5993.22,0.079108
6000.16,0.077099
6007.11,0.075392
6014.08,0.073962
6021.06,0.072627
6028.06,0.0714
6035.08,0.070402
6042.12,0.06942
6049.17,0.06879
6056.23,0.067847
6063.32,0.067107
6070.42,0.066989
6077.53,0.066819
6084.67,0.066465
6091.82,0.06649
6098.98,0.066656
6106.17,0.066779
6113.37,0.067062
6120.58,0.067297
6127.82,0.067571
6135.07,0.067867
6142.34,0.068186
6149.63,0.068604
6156.93,0.068958
6164.25,0.069297
6171.59,0.069546
6178.95,0.069859
6186.32,0.0701
6193.71,0.070175
6201.12,0.070557
6208.54,0.071055
6215.99,0.071526
6223.45,0.071967
6230.93,0.072589
6238.43,0.073379
6245.95,0.074131
6253.48,0.074927
6261.03,0.075812
6268.6,0.076755
6276.19,0.077737
6283.8,0.078881
6291.43,0.080029
6299.07,0.08112
6306.73,0.082173
6314.42,0.083235
6322.12,0.084344
6329.84,0.085448
6337.57,0.086514
6345.33,0.087496
6353.11,0.088473
6360.9,0.08947
6368.72,0.090488
6376.55,0.091319
6384.4,0.092094
6392.27,0.093058
6400.17,0.093989
6408.08,0.094817
6416.01,0.095597
6423.96,0.095977
6431.93,0.09656
6439.92,0.097258
6447.93,0.097682
6455.96,0.098185
6464.01,0.098659
6472.08,0.099168
6480.17,0.099521
6488.28,0.099729
6496.41,0.100039
6504.56,0.100086
6512.73,0.100189
6520.92,0.100461
6529.14,0.10065
6537.37,0.100837
6545.63,0.100967
6553.9,0.100928
6562.2,0.100992
6570.51,0.101166
6578.85,0.101203
6587.21,0.101074
6595.59,0.101151
6603.99,0.101007
6612.42,0.100973
6620.86,0.101014
6629.33,0.100806
6637.82,0.100484
6646.33,0.100051
6654.86,0.099562
6663.41,0.099457
6671.99,0.099167
6680.59,0.098636
6689.21,0.098094
6697.85,0.09739
6706.51,0.096805
6715.2,0.096168
6723.91,0.095346
6732.64,0.094501
6741.4,0.093666
6750.18,0.092888
6758.98,0.092024
6767.8,0.091
6776.65,0.089973
6785.52,0.088894
6794.41,0.087756
6803.33,0.086376
6812.27,0.085004
6821.23,0.0837
6830.22,0.082408
6839.23,0.080787
6848.26,0.079135
6857.32,0.077587
6866.4,0.075895
6875.51,0.073794
6884.64,0.072096
6893.8,0.070601
6902.98,0.069072
6912.18,0.067487
6921.41,0.065629
6930.66,0.06389
6939.94,0.062175
6949.24,0.060409
6958.57,0.058877
6967.92,0.057371
6977.3,0.055849
6986.7,0.054555
6996.13,0.053261
7005.59,0.051969
7015.07,0.050902
7024.57,0.049886
7034.1,0.048942
7043.66,0.048234
7053.25,0.047629
7062.85,0.046903
7072.49,0.046413
7082.15,0.04609
7091.84,0.045818
7101.55,0.04562
7111.3,0.045424
7121.06,0.045225
7130.86,0.045246
7140.68,0.045289
7150.53,0.045412
7160.41,0.045568
7170.31,0.045736
7180.24,0.045802
7190.2,0.045956
7200.19,0.046137
7210.2,0.046302
7220.24,0.046588
7230.31,0.046992
7240.41,0.047266
7250.54,0.047524
7260.69,0.047842
7270.88,0.0481
7281.09,0.048427
7291.33,0.048801
7301.6,0.049129
7311.9,0.049527
7322.22,0.049994
7332.58,0.050477
7342.97,0.051025
7353.38,0.051575
7363.83,0.052126
7374.3,0.052717
7384.81,0.053394
7395.34,0.054119
7405.91,0.054774
7416.5,0.055431
7427.13,0.056186
7437.78,0.05707
7448.47,0.05788
7459.19,0.058683
7469.94,0.059534
7480.71,0.060324
7491.52,0.061081
7502.37,0.061818
7513.24,0.062463
7524.14,0.063036
7535.08,0.063653
7546.05,0.064444
7557.05,0.065039
7568.08,0.065553
7579.15,0.066117
7590.24,0.066665
7601.37,0.067142
7612.53,0.067583
7623.73,0.067984
7634.96,0.068326
7646.22,0.06882
7657.51,0.069267
7668.84,0.069697
7680.2,0.06997
7691.59,0.070203
7703.02,0.070504
7714.49,0.070792
7725.98,0.071142
7737.52,0.071501
7749.08,0.071808
7760.68,0.072034
7772.32,0.072241
7783.99,0.072396
7795.69,0.07269
7807.43,0.073002
7819.21,0.07328
7831.02,0.073532
7842.87,0.073683
7854.75,0.073929
7866.67,0.074243
7878.62,0.074544
7890.62,0.074844
7902.64,0.075114
7914.71,0.075376
7926.81,0.075654
7938.95,0.075854
7951.13,0.076003
7963.34,0.076231
7975.59,0.076485
7987.88,0.076812
8000.21,0.077137
8012.57,0.077309
8024.98,0.077415
8037.42,0.077732
8049.9,0.078008
8062.42,0.078264
8074.98,0.078611
8087.57,0.078796
8100.21,0.079094
8112.89,0.079457
8125.6,0.079726
8138.36,0.080064
8151.16,0.080401
8163.99,0.080551
8176.87,0.080633
8189.79,0.080798
8202.75,0.080857
8215.75,0.080832
8228.79,0.080927
8241.87,0.080997
8254.99,0.081062
8268.16,0.081082
8281.37,0.081182
8294.62,0.081398
8307.91,0.081644
8321.24,0.081854
8334.62,0.081987
8348.04,0.082176
8361.51,0.082231
8375.02,0.082297
8388.57,0.082499
8402.16,0.082665
8415.8,0.082659
8429.49,0.08251
8443.22,0.082624
8456.99,0.082816
8470.81,0.082925
8484.67,0.082939
8498.58,0.082881
8512.54,0.082933
8526.54,0.083054
8540.58,0.083188
8554.68,0.083279
8568.82,0.083357
8583.0,0.083159
8597.24,0.083006
8611.52,0.083182
8625.85,0.083288
8640.23,0.083265
8654.65,0.083396
8669.12,0.08344
8683.64,0.083314
8698.21,0.08318
8712.83,0.083053
8727.5,0.083124
8742.22,0.083107
8756.99,0.082861
8771.8,0.082677
8786.67,0.082454
8801.59,0.082158
8816.56,0.082112
8831.58,0.082001
8846.65,0.081831
8861.77,0.081641
8876.94,0.081504
8892.17,0.081203
8907.45,0.081047
8922.78,0.080863
8938.16,0.080697
8953.6,0.080598
8969.09,0.080313
8984.64,0.080039
9000.23,0.079846
9015.89,0.079554
9031.59,0.079254
9047.36,0.078912
9063.17,0.078451
9079.05,0.077929
9094.97,0.077606
9110.96,0.077155
9127.0,0.076442
9143.1,0.075778
9159.25,0.075149
9175.46,0.074544
9191.73,0.073991
9208.06,0.073484
9224.44,0.072927
9240.88,0.072368
9257.38,0.07182
9273.94,0.071253
9290.56,0.07075
9307.24,0.070177
9323.98,0.069461
9340.78,0.068825
9357.64,0.068194
9374.57,0.067521
9391.55,0.066717
9408.59,0.065998
9425.7,0.065293
9442.87,0.064602
9460.1,0.063865
9477.4,0.063263
9494.75,0.062705
9512.17,0.062371
9529.66,0.062228
9547.21,0.061929
9564.83,0.061494
9582.5,0.061108
9600.25,0.060736
9618.06,0.060389
9635.94,0.060014
9653.88,0.059833
9671.89,0.05968
9689.97,0.059412
9708.12,0.058959
9726.33,0.058514
9744.62,0.058133
9762.97,0.057429
9781.39,0.056815
9799.88,0.056183
9818.44,0.055229
9837.07,0.054364
9855.77,0.053692
9874.54,0.052957
9893.39,0.052074
9912.3,0.051296
9931.29,0.050709
9950.36,0.049875
9969.49,0.048998
9988.7,0.048444
10007.98,0.047903
10027.34,0.04721
10046.77,0.046629
10066.28,0.046061
10085.87,0.045681
10105.53,0.045087
10125.26,0.044514
10145.08,0.044178
10164.97,0.043879
10184.94,0.043452
10204.99,0.04312
10225.12,0.042917
10245.33,0.042668
10265.61,0.042487
10285.98,0.042517
10306.43,0.042666
10326.96,0.042655
10347.57,0.042608
10368.27,0.042699
10389.05,0.042841
10409.91,0.042785
10430.86,0.042733
10451.88,0.042696
10473.0,0.042707
10494.2,0.042646
10515.49,0.042434
10536.86,0.042531
10558.32,0.042549
10579.87,0.042415
10601.5,0.042573
10623.23,0.042386
10645.04,0.042304
10666.94,0.042292
10688.94,0.042392
10711.02,0.042427
10733.2,0.042493
10755.47,0.042519
10777.83,0.042459
10800.28,0.042461
10822.83,0.04252
10845.47,0.042467
10868.21,0.042421
10891.04,0.042468
10913.97,0.042377
10936.99,0.042193
10960.12,0.042078
10983.34,0.042057
11006.66,0.041987
11030.07,0.041826
11053.59,0.041868
11077.21,0.041785
11100.93,0.041596
11124.75,0.041513
11148.68,0.041332
11172.71,0.041177
11196.84,0.041023
11221.07,0.040993
11245.41,0.040914
11269.86,0.040745
11294.41,0.040713
11319.07,0.040839
11343.84,0.04092
11368.72,0.041008
11393.7,0.041198
11418.8,0.041323
11444.01,0.041466
11469.33,0.041411
11494.76,0.041342
11520.3,0.041583
11545.96,0.041842
11571.73,0.042242
11597.62,0.042414
11623.62,0.042634
11649.74,0.043014
11675.98,0.043394
11702.34,0.043848
11728.81,0.044218
11755.41,0.044426
11782.13,0.04469
11808.96,0.044953
11835.92,0.045204
11863.01,0.045625
11890.22,0.046146
11917.55,0.046538
11945.01,0.047079
11972.6,0.047659
12000.31,0.047992
12028.16,0.04819
12056.13,0.048331
12084.23,0.048872
12112.46,0.049447
12140.83,0.049778
12169.33,0.05
12197.96,0.050267
12226.73,0.050618
12255.64,0.051051
12284.68,0.051392
12313.86,0.051923
12343.18,0.052518
12372.64,0.052951
12402.24,0.053072
12431.98,0.053356
12461.86,0.053972
12491.89,0.054479
12522.07,0.054791
12552.38,0.055522
12582.85,0.056163
12613.47,0.056592
12644.23,0.057058
12675.15,0.057695
12706.21,0.058399
12737.43,0.058911
12768.81,0.059692
12800.33,0.060252
12832.02,0.060766
12863.86,0.061144
12895.86,0.061233
12928.02,0.061731
12960.34,0.062438
12992.82,0.063108
13025.46,0.063538
13058.27,0.064173
13091.25,0.064886
13124.39,0.065269
13157.7,0.065828
13191.18,0.066522
13224.83,0.067167
13258.66,0.06772
13292.65,0.068174
13326.83,0.068698
13361.17,0.069247
13395.7,0.06959
13430.4,0.069741
13465.29,0.070045
13500.35,0.07053
13535.6,0.070859
13571.03,0.070957
13606.65,0.071137
13642.46,0.071343
13678.46,0.071452
13714.64,0.071663
13751.02,0.071871
13787.59,0.071861
13824.36,0.072051
13861.32,0.07209
13898.49,0.072075
13935.85,0.0723
13973.41,0.072271
14011.17,0.072011
14049.15,0.072116
14087.32,0.071958
14125.71,0.071449
14164.3,0.071095
14203.11,0.071057
14242.13,0.070803
14281.36,0.070533
14320.81,0.070414
14360.49,0.070198
14400.38,0.069941
14440.49,0.069905
14480.82,0.070055
14521.39,0.07011
14562.18,0.070362
14603.2,0.070934
14644.45,0.071368
14685.93,0.071729
14727.66,0.071952
14769.62,0.072592
14811.81,0.073298
14854.25,0.073683
14896.94,0.074152
14939.87,0.074754
14983.05,0.075143
15026.48,0.075537
15070.16,0.076087
15114.1,0.076026
15158.29,0.076058
15202.74,0.076392
15247.46,0.076331
15292.43,0.07621
15337.68,0.076198
15383.19,0.075743
15428.97,0.075072
15475.03,0.074582
15521.36,0.07443
15567.97,0.074034
15614.87,0.073728
15662.04,0.073274
15709.5,0.073104
15757.25,0.073111
15805.29,0.073038
15853.62,0.073256
15902.26,0.073389
15951.19,0.073374
16000.42,0.07335
16049.95,0.073622
16099.8,0.073747
16149.95,0.073616
16200.42,0.073979
16251.21,0.074575
16302.31,0.074962
16353.74,0.07495
16405.49,0.07506
16457.57,0.075482
16509.98,0.075687
16562.73,0.075711
16615.82,0.075655
16669.24,0.075991
16723.02,0.07631
16777.14,0.075941
16831.61,0.075771
16886.43,0.076093
16941.62,0.076233
16997.16,0.076494
17053.08,0.077293
17109.36,0.076953
17166.01,0.076224
17223.04,0.076383
17280.45,0.07674
17338.24,0.076336
17396.43,0.075933
17455.0,0.076006
17513.97,0.076125
17573.34,0.076085
17633.11,0.076296
17693.29,0.076658
17753.89,0.076737
17814.9,0.076725
17876.33,0.076727
17938.18,0.077044
18000.47,0.077391
18063.19,0.077331
18126.35,0.07759
18189.95,0.07754
18254.0,0.076813
18318.5,0.076328
18383.46,0.076161
18448.88,0.075482
18514.77,0.074968
18581.13,0.07436
18647.97,0.07405
18715.29,0.074082
18783.1,0.073634
18851.4,0.072739
18920.2,0.072537
18989.51,0.072545
19059.32,0.072084
19129.65,0.071109
19200.5,0.070256
19271.88,0.070134
19343.79,0.070495
19416.24,0.0708
19489.23,0.07033
19562.77,0.069631
19636.88,0.069299
19711.54,0.069589
19786.78,0.07013
19862.59,0.069697
19938.98,0.069748
20015.96,0.070669
20093.55,0.071162
20171.73,0.07109
20250.53,0.071221
20329.94,0.071309
20409.98,0.072257
20490.65,0.07361
20571.96,0.073976
20653.92,0.075335
20736.54,0.077508
20819.82,0.078179
20903.77,0.078614
20988.4,0.079743
21073.72,0.081486
21159.73,0.08432
21246.46,0.086782
21333.89,0.088683
21422.04,0.090809
21510.93,0.09302
21600.56,0.0951
21690.94,0.098592
21782.08,0.103052
21873.99,0.106664
21966.67,0.111073
22060.15,0.114624
22154.42,0.117815
22249.51,0.121844
22345.41,0.125857
22442.14,0.12913
22539.72,0.13234
22638.14,0.136353
22737.43,0.139509
22837.6,0.141083
22938.65,0.143527
23040.6,0.146244
23143.46,0.148431
23247.24,0.150663
23351.96,0.152701
23457.63,0.154667
23564.25,0.154816
23671.85,0.15485
23780.44,0.157176
23890.02,0.158434
24000.63,0.157088
24112.26,0.156076
24224.93,0.156134
24338.66,0.155202
24453.47,0.155056
24569.36,0.157029
24686.36,0.156861
24804.47,0.154998
24923.73,0.15298
25044.13,0.149557
25165.71,0.148204
25288.46,0.148257
25412.43,0.153573
25537.61,0.155746
25664.04,0.151946
25791.72,0.148411
25920.68,0.146086
