Database of Origin,University of Winnipeg Spectrophotometer Facility
Sample Description,See Master Clays in HOSERLab database
Date Added,2016-12-11 20:57:06.152846

Data ID,RLA_CLAY_14         
Sample ID,ILS103
Mineral Name,Illite-smectite
Grain Size,<45um
Viewing Geometry,"30/0,30"
Resolution,"5,0.6-129"
Material Class,Phyllosilicate

Wavelength
305.0,0.276619
310.0,0.300445
315.0,0.325424
320.0,0.35008
325.0,0.369152
330.0,0.388729
335.0,0.404381
340.0,0.420286
345.0,0.433406
350.0,0.446045
355.0,0.456916
360.0,0.46772
365.0,0.477901
370.0,0.487466
375.0,0.501518
380.0,0.512646
385.0,0.527278
390.0,0.539063
395.0,0.551973
400.0,0.574308
405.0,0.578174
410.0,0.589571
415.0,0.600084
420.0,0.609943
425.0,0.616587
430.0,0.628147
435.0,0.635301
440.0,0.646492
445.0,0.656795
450.0,0.663283
455.0,0.671614
460.0,0.676313
465.0,0.68187
470.0,0.686687
475.0,0.690847
480.0,0.696998
485.0,0.700566
490.0,0.706758
495.0,0.711689
500.0,0.717874
505.0,0.727107
510.0,0.734614
515.0,0.742664
520.0,0.748942
525.0,0.757928
530.0,0.760524
535.0,0.770116
540.0,0.776183
545.0,0.783573
550.0,0.788527
555.0,0.796733
560.0,0.798235
565.0,0.807177
570.0,0.809696
575.0,0.812709
580.0,0.816804
585.0,0.821292
590.0,0.823246
595.0,0.825725
600.0,0.826801
605.0,0.831025
610.0,0.831795
615.0,0.82906
620.0,0.831804
625.0,0.834164
630.0,0.834347
635.0,0.837133
640.0,0.835695
645.0,0.83984
650.0,0.841405
655.0,0.84191
660.0,0.84261
665.0,0.844021
670.0,0.850547
675.0,0.851498
680.0,0.851564
685.0,0.852878
690.0,0.860093
695.0,0.854228
700.0,0.859061
705.0,0.856285
710.0,0.861997
715.0,0.85832
720.0,0.862361
725.0,0.865162
730.0,0.866722
735.0,0.865388
740.0,0.866992
745.0,0.864047
750.0,0.866777
755.0,0.86684
760.0,0.86919
765.0,0.868518
770.0,0.871531
775.0,0.873089
780.0,0.86537
785.0,0.86909
790.0,0.870068
795.0,0.871485
800.0,0.868953
805.0,0.871592
810.0,0.871119
815.0,0.868893
820.0,0.871771
825.0,0.868701
830.0,0.869664
835.0,0.870215
840.0,0.869272
845.0,0.8688
850.0,0.871559
855.0,0.869218
860.0,0.866394
865.0,0.868751
870.0,0.868089
875.0,0.866021
880.0,0.869898
885.0,0.866241
890.0,0.867859
895.0,0.867306
900.0,0.869276
905.0,0.868985
910.0,0.872088
915.0,0.86977
920.0,0.868914
925.0,0.871999
930.0,0.870766
935.0,0.871313
940.0,0.871505
945.0,0.871343
950.0,0.870936
955.0,0.868832
960.0,0.869526
965.0,0.870347
970.0,0.870345
975.0,0.873487
980.0,0.873717
985.0,0.876333
990.0,0.875226
995.0,0.876749
1000.0,0.876225
1005.0,0.875971
1010.0,0.877814
1015.0,0.879344
1020.0,0.878798
1025.0,0.880426
1030.0,0.879542
1035.0,0.881744
1040.0,0.881876
1045.0,0.883606
1050.0,0.880732
1055.0,0.882347
1060.0,0.880796
1065.0,0.88077
1070.0,0.883489
1075.0,0.884574
1080.0,0.881122
1085.0,0.881762
1090.0,0.883888
1095.0,0.883839
1100.0,0.884445
1105.0,0.884727
1110.0,0.884497
1115.0,0.888829
1120.0,0.888762
1125.0,0.889101
1130.0,0.888781
1135.0,0.888395
1140.0,0.888318
1145.0,0.887785
1150.0,0.887175
1155.0,0.888081
1160.0,0.888536
1165.0,0.890026
1170.0,0.892661
1175.0,0.888866
1180.0,0.890681
1185.0,0.893394
1190.0,0.895147
1195.0,0.893352
1200.0,0.894147
1205.0,0.894861
1210.0,0.895575
1215.0,0.901422
1220.0,0.899828
1225.0,0.897078
1230.0,0.899243
1235.0,0.898891
1240.0,0.900556
1245.0,0.899949
1250.0,0.901359
1255.0,0.900092
1260.0,0.901558
1265.0,0.899495
1270.0,0.902247
1275.0,0.899295
1280.0,0.89957
1285.0,0.90046
1290.0,0.901843
1295.0,0.898364
1300.0,0.897774
1305.0,0.899315
1310.0,0.900195
1315.0,0.898564
1320.0,0.897142
1325.0,0.896524
1330.0,0.899209
1335.0,0.897311
1340.0,0.895808
1345.0,0.892508
1350.0,0.891937
1355.0,0.884675
1360.0,0.883299
1365.0,0.88772
1370.0,0.880612
1375.0,0.872559
1380.0,0.856817
1385.0,0.851341
1390.0,0.83014
1395.0,0.797491
1400.0,0.775351
1405.0,0.754947
1410.0,0.742963
1415.0,0.739032
1420.0,0.748822
1425.0,0.769069
1430.0,0.787244
1435.0,0.807336
1440.0,0.817461
1445.0,0.82265
1450.0,0.821821
1455.0,0.826981
1460.0,0.827143
1465.0,0.827096
1470.0,0.829928
1475.0,0.835621
1480.0,0.839611
1485.0,0.84329
1490.0,0.844605
1495.0,0.853564
1500.0,0.852558
1505.0,0.85636
1510.0,0.857908
1515.0,0.860937
1520.0,0.863191
1525.0,0.86503
1530.0,0.8653
1535.0,0.868197
1540.0,0.869379
1545.0,0.87311
1550.0,0.872666
1555.0,0.873484
1560.0,0.876369
1565.0,0.875562
1570.0,0.878326
1575.0,0.876154
1580.0,0.880633
1585.0,0.879228
1590.0,0.880537
1595.0,0.882343
1600.0,0.882167
1605.0,0.881734
1610.0,0.884695
1615.0,0.885795
1620.0,0.882513
1625.0,0.88067
1630.0,0.882064
1635.0,0.882037
1640.0,0.886788
1645.0,0.884525
1650.0,0.883104
1655.0,0.882233
1660.0,0.882662
1665.0,0.884432
1670.0,0.887567
1675.0,0.884449
1680.0,0.883507
1685.0,0.885831
1690.0,0.884334
1695.0,0.884317
1700.0,0.88442
1705.0,0.885643
1710.0,0.884627
1715.0,0.883015
1720.0,0.883472
1725.0,0.88263
1730.0,0.880834
1735.0,0.879818
1740.0,0.877889
1745.0,0.877555
1750.0,0.876434
1755.0,0.877245
1760.0,0.87572
1765.0,0.873037
1770.0,0.872561
1775.0,0.8703
1780.0,0.869297
1785.0,0.869224
1790.0,0.869624
1795.0,0.86611
1800.0,0.867522
1805.0,0.865681
1810.0,0.867501
1815.0,0.866511
1820.0,0.866349
1825.0,0.863072
1830.0,0.865395
1835.0,0.864312
1840.0,0.859877
1845.0,0.858346
1850.0,0.855698
1855.0,0.854527
1860.0,0.849933
1865.0,0.842789
1870.0,0.834358
1875.0,0.820057
1880.0,0.799533
1885.0,0.775796
1890.0,0.744267
1895.0,0.705174
1900.0,0.666203
1905.0,0.635391
1910.0,0.629006
1915.0,0.639055
1920.0,0.654442
1925.0,0.66702
1930.0,0.675601
1935.0,0.685204
1940.0,0.69089
1945.0,0.695697
1950.0,0.699669
1955.0,0.702463
1960.0,0.706946
1965.0,0.709438
1970.0,0.713635
1975.0,0.719083
1980.0,0.722953
1985.0,0.727498
1990.0,0.733466
1995.0,0.740174
2000.0,0.743672
2005.0,0.748136
2010.0,0.756024
2015.0,0.758976
2020.0,0.765108
2025.0,0.768356
2030.0,0.774297
2035.0,0.778009
2040.0,0.779074
2045.0,0.783488
2050.0,0.783901
2055.0,0.788326
2060.0,0.788645
2065.0,0.790122
2070.0,0.78882
2075.0,0.789955
2080.0,0.792002
2085.0,0.79223
2090.0,0.791014
2095.0,0.790468
2100.0,0.790555
2105.0,0.791744
2110.0,0.789791
2115.0,0.790101
2120.0,0.790558
2125.0,0.791247
2130.0,0.790922
2135.0,0.790854
2140.0,0.787673
2145.0,0.787763
2150.0,0.784317
2155.0,0.778751
2160.0,0.768921
2165.0,0.758085
2170.0,0.746177
2175.0,0.733744
2180.0,0.722651
2185.0,0.710179
2190.0,0.696846
2195.0,0.683254
2200.0,0.672158
2205.0,0.662922
2210.0,0.659238
2215.0,0.660497
2220.0,0.665743
2225.0,0.672906
2230.0,0.685718
2235.0,0.701506
2240.0,0.715624
2245.0,0.726985
2250.0,0.733223
2255.0,0.74021
2260.0,0.748076
2265.0,0.749596
2270.0,0.751547
2275.0,0.749215
2280.0,0.74805
2285.0,0.747237
2290.0,0.743776
2295.0,0.73866
2300.0,0.734098
2305.0,0.729618
2310.0,0.722212
2315.0,0.714031
2320.0,0.707756
2325.0,0.701726
2330.0,0.696414
2335.0,0.689389
2340.0,0.683935
2345.0,0.679094
2350.0,0.674271
2355.0,0.66965
2360.0,0.665802
2365.0,0.663829
2370.0,0.662645
2375.0,0.660925
2380.0,0.658431
2385.0,0.653398
2390.0,0.65094
2395.0,0.647522
2400.0,0.643155
2405.0,0.639413
2410.0,0.637798
2415.0,0.634006
2420.0,0.629065
2425.0,0.62437
2430.0,0.617637
2435.0,0.612174
2440.0,0.607894
2445.0,0.602964
2450.0,0.598101
2455.0,0.596413
2460.0,0.594253
2465.0,0.592964
2470.0,0.588746
2475.0,0.585537
2480.0,0.585763
2485.0,0.581722
2490.0,0.581046
2495.0,0.578545
2500.0,0.57565
2505.0,0.57366
2510.0,0.571331
2515.0,0.567651
2520.0,0.565533
2525.15,0.565267
2530.08,0.564072
2535.03,0.563925
2540.0,0.563538
2544.99,0.563414
2549.99,0.562071
2552.5,0.561476
2553.76,0.560698
2556.28,0.560655
2558.8,0.55971
2561.33,0.5576
2563.86,0.557751
2565.13,0.557598
2566.4,0.557397
2567.67,0.556898
2568.95,0.555498
2570.22,0.554683
2571.5,0.554679
2572.77,0.55423
2574.05,0.552588
2575.33,0.553059
2576.61,0.552801
2577.89,0.552082
2579.17,0.552242
2580.46,0.55119
2581.74,0.549591
2583.03,0.549778
2584.31,0.548749
2585.6,0.549438
2586.89,0.549362
2588.19,0.547831
2589.48,0.547898
2590.77,0.547733
2592.07,0.546365
2593.36,0.544752
2594.66,0.541634
2595.96,0.54138
2597.26,0.545656
2598.56,0.546052
2599.87,0.543807
2601.17,0.542165
2602.48,0.540618
2603.78,0.539957
2605.09,0.539248
2606.4,0.538618
2607.71,0.539444
2609.03,0.538978
2610.34,0.537795
2611.66,0.53731
2612.97,0.536068
2614.29,0.535143
2615.61,0.534903
2616.93,0.533299
2618.25,0.533295
2619.57,0.534416
2620.9,0.53248
2622.22,0.532865
2623.55,0.533306
2624.88,0.531801
2626.21,0.529907
2627.54,0.528996
2628.87,0.529616
2630.21,0.52782
2631.54,0.526365
2632.88,0.528703
2634.21,0.527529
2635.55,0.525967
2636.89,0.525278
2638.24,0.524182
2639.58,0.522945
2640.92,0.52208
2642.27,0.521602
2643.62,0.520378
2644.97,0.5189
2646.32,0.517319
2647.67,0.516219
2649.02,0.515052
2650.38,0.513469
2651.73,0.51175
2653.09,0.51014
2654.45,0.508968
2655.81,0.506919
2657.17,0.504587
2658.53,0.502435
2659.89,0.499392
2661.26,0.496578
2662.63,0.493693
2664.0,0.489984
2665.36,0.4852
2666.74,0.481371
2668.11,0.478472
2669.48,0.473713
2670.86,0.465345
2672.23,0.458628
2673.61,0.453446
2674.99,0.445804
2676.37,0.438657
2677.76,0.43219
2679.14,0.426461
2680.52,0.419401
2681.91,0.411661
2683.3,0.401913
2684.69,0.391252
2686.08,0.378827
2687.47,0.364843
2688.87,0.349579
2690.26,0.333507
2691.66,0.316864
2693.06,0.300451
2694.46,0.284674
2695.86,0.270753
2697.26,0.258435
2698.66,0.248037
2700.07,0.239092
2701.48,0.231677
2702.89,0.224557
2704.3,0.2176
2705.71,0.21073
2707.12,0.20456
2708.53,0.197769
2709.95,0.191359
2711.37,0.185459
2712.79,0.179341
2714.21,0.172462
2715.63,0.165461
2717.05,0.158177
2718.48,0.150934
2719.9,0.143871
2721.33,0.136765
2722.76,0.129394
2724.19,0.122974
2725.62,0.117042
2727.06,0.111382
2728.49,0.106376
2729.93,0.101984
2731.37,0.098108
2732.81,0.094949
2734.25,0.091949
2735.69,0.08943
2737.14,0.087294
2738.58,0.08501
2740.03,0.082871
2741.48,0.081192
2742.93,0.079824
2744.38,0.078627
2745.83,0.077694
2747.29,0.077067
2748.75,0.076424
2750.2,0.075797
2751.66,0.075349
2753.13,0.074949
2754.59,0.074576
2756.05,0.074491
2757.52,0.074823
2758.99,0.0745
2760.46,0.074427
2761.93,0.074985
2763.4,0.075532
2764.87,0.076548
2766.35,0.077616
2767.82,0.078264
2769.3,0.079252
2770.78,0.080446
2772.26,0.082205
2773.75,0.08461
2775.23,0.086891
2776.72,0.088865
2778.21,0.091686
2779.7,0.09493
2781.19,0.098227
2782.68,0.101913
2784.18,0.106246
2785.67,0.111265
2787.17,0.116397
2788.67,0.121526
2790.17,0.126973
2791.67,0.132693
2793.18,0.138467
2794.68,0.144466
2796.19,0.150943
2797.7,0.157037
2799.21,0.163233
2800.72,0.169639
2802.24,0.175257
2803.75,0.180389
2805.27,0.185585
2806.79,0.190558
2808.31,0.194676
2809.83,0.198627
2811.35,0.202633
2812.88,0.20604
2814.41,0.20882
2815.93,0.211576
2817.46,0.214075
2819.0,0.216513
2820.53,0.219042
2822.07,0.221357
2823.6,0.223633
2825.14,0.225294
2826.68,0.226717
2828.22,0.228316
2829.77,0.229826
2831.31,0.231247
2832.86,0.232457
2834.41,0.233622
2835.96,0.234846
2837.51,0.235974
2839.07,0.236994
2840.62,0.238193
2842.18,0.239254
2843.74,0.239904
2845.3,0.24076
2846.86,0.241542
2848.43,0.242432
2849.99,0.243478
2851.56,0.244562
2853.13,0.245328
2854.7,0.245996
2856.27,0.246518
2857.85,0.247037
2859.42,0.247724
2861.0,0.248266
2862.58,0.248527
2864.16,0.248829
2865.75,0.249284
2867.33,0.24971
2868.92,0.250078
2870.51,0.250506
2872.1,0.250776
2873.69,0.250984
2875.28,0.251121
2876.88,0.251288
2878.48,0.25138
2880.07,0.251819
2881.68,0.2524
2883.28,0.252803
2884.88,0.253391
2886.49,0.253835
2888.1,0.254555
2889.71,0.255013
2891.32,0.255155
2892.93,0.255564
2894.55,0.256024
2896.16,0.256358
2897.78,0.256724
2899.4,0.25685
2901.03,0.256907
2902.65,0.25709
2904.28,0.257628
2905.91,0.257888
2907.54,0.25822
2909.17,0.258875
2910.8,0.259037
2912.44,0.259293
2914.07,0.259922
2915.71,0.260407
2917.35,0.261183
2918.99,0.261913
2920.64,0.262423
2922.29,0.262926
2923.93,0.263768
2925.58,0.264503
2927.24,0.264873
2928.89,0.265312
2930.55,0.265983
2932.2,0.266424
2933.86,0.266934
2935.52,0.267454
2937.19,0.267946
2938.85,0.268415
2940.52,0.268925
2942.19,0.269296
2943.86,0.2696
2945.53,0.270018
2947.21,0.270508
2948.88,0.271176
2950.56,0.271682
2952.24,0.272235
2953.92,0.272677
2955.61,0.273153
2957.29,0.273757
2958.98,0.274427
2960.67,0.275209
2962.36,0.276184
2964.06,0.27723
2965.75,0.277889
2967.45,0.278655
2969.15,0.279856
2970.85,0.280831
2972.55,0.281364
2974.26,0.282151
2975.97,0.283205
2977.68,0.284191
2979.39,0.285111
2981.1,0.285733
2982.82,0.286218
2984.53,0.286902
2986.25,0.287923
2987.97,0.288817
2989.7,0.289447
2991.42,0.289874
2993.15,0.290419
2994.88,0.29116
2996.61,0.292023
2998.34,0.292858
3000.08,0.29332
3001.82,0.293951
3003.55,0.294848
3005.3,0.295601
3007.04,0.296212
3008.78,0.296866
3010.53,0.297635
3012.28,0.298072
3014.03,0.298689
3015.79,0.299449
3017.54,0.300252
3019.3,0.300815
3021.06,0.301364
3022.82,0.302055
3024.58,0.302681
3026.35,0.303402
3028.12,0.304182
3029.89,0.30491
3031.66,0.30553
3033.43,0.306113
3035.21,0.306662
3036.99,0.307404
3038.77,0.308053
3040.55,0.308669
3042.33,0.309504
3044.12,0.310185
3045.91,0.31073
3047.7,0.311274
3049.49,0.312009
3051.29,0.312329
3053.08,0.312791
3054.88,0.313674
3056.68,0.314198
3058.49,0.314606
3060.29,0.314866
3062.1,0.315354
3063.91,0.31604
3065.72,0.316626
3067.54,0.3169
3069.35,0.317333
3071.17,0.317822
3072.99,0.31838
3074.81,0.318625
3076.64,0.319042
3078.47,0.319671
3080.29,0.319957
3082.13,0.320158
3083.96,0.320373
3085.79,0.321018
3087.63,0.321679
3089.47,0.321968
3091.31,0.322256
3093.16,0.32297
3095.01,0.323521
3096.85,0.323942
3098.71,0.324374
3100.56,0.324912
3102.41,0.325596
3104.27,0.326417
3106.13,0.327081
3107.99,0.327429
3109.86,0.327891
3111.73,0.328449
3113.59,0.329101
3115.47,0.329925
3117.34,0.330561
3119.21,0.331078
3121.09,0.331643
3122.97,0.332194
3124.86,0.33283
3126.74,0.333601
3128.63,0.334175
3130.52,0.33499
3132.41,0.33583
3134.3,0.336628
3136.2,0.337307
3138.1,0.338101
3140.0,0.338797
3141.9,0.339577
3143.81,0.340343
3145.71,0.341101
3147.62,0.341922
3149.54,0.342885
3151.45,0.343599
3153.37,0.34423
3155.29,0.344841
3157.21,0.345598
3159.13,0.346568
3161.06,0.347527
3162.99,0.348294
3164.92,0.348897
3166.85,0.349723
3168.79,0.350712
3170.72,0.351657
3172.67,0.352476
3174.61,0.353119
3176.55,0.353876
3178.5,0.354667
3180.45,0.355516
3182.4,0.356491
3184.36,0.35752
3186.32,0.358195
3188.27,0.35906
3190.24,0.360094
3192.2,0.360913
3194.17,0.361508
3196.14,0.362345
3198.11,0.363352
3200.08,0.364187
3202.06,0.36518
3204.04,0.36609
3206.02,0.366749
3208.0,0.367587
3209.99,0.368543
3211.98,0.369364
3213.97,0.37025
3215.96,0.371149
3217.96,0.372068
3219.96,0.372766
3221.96,0.373393
3223.96,0.374148
3225.97,0.375132
3227.98,0.376109
3229.99,0.376864
3232.0,0.377557
3234.02,0.378417
3236.04,0.379236
3238.06,0.38016
3240.08,0.381005
3242.11,0.381782
3244.14,0.382576
3246.17,0.383418
3248.2,0.384153
3250.24,0.384761
3252.28,0.385342
3254.32,0.385949
3256.37,0.386585
3258.41,0.387383
3260.46,0.388252
3262.51,0.388911
3264.57,0.389671
3266.63,0.390451
3268.69,0.391197
3270.75,0.391963
3272.81,0.392693
3274.88,0.393398
3276.95,0.394123
3279.02,0.395015
3281.1,0.395983
3283.18,0.396603
3285.26,0.397312
3287.34,0.398026
3289.43,0.398968
3291.51,0.399833
3293.61,0.400501
3295.7,0.401069
3297.8,0.401714
3299.9,0.402688
3302.0,0.403453
3304.1,0.404123
3306.21,0.404878
3308.32,0.405571
3310.43,0.406321
3312.55,0.40709
3314.66,0.407701
3316.79,0.408387
3318.91,0.409
3321.03,0.409707
3323.16,0.410453
3325.29,0.411037
3327.43,0.411796
3329.57,0.412581
3331.71,0.413107
3333.85,0.41369
3335.99,0.414258
3338.14,0.414697
3340.29,0.415358
3342.45,0.415862
3344.6,0.416006
3346.76,0.416205
3348.92,0.41652
3351.09,0.416809
3353.26,0.417017
3355.43,0.417049
3357.6,0.416845
3359.78,0.416621
3361.96,0.41645
3364.14,0.415912
3366.32,0.415326
3368.51,0.414693
3370.7,0.41399
3372.89,0.413551
3375.09,0.413025
3377.29,0.412505
3379.49,0.412187
3381.69,0.412155
3383.9,0.412389
3386.11,0.412645
3388.32,0.41275
3390.54,0.413013
3392.76,0.413146
3394.98,0.412823
3397.21,0.412235
3399.43,0.411492
3401.66,0.410533
3403.9,0.409184
3406.13,0.407664
3408.37,0.406324
3410.61,0.405178
3412.86,0.404548
3415.11,0.404448
3417.36,0.404887
3419.61,0.406232
3421.87,0.408316
3424.13,0.411112
3426.39,0.414466
3428.66,0.417694
3430.93,0.420657
3433.2,0.423334
3435.48,0.425793
3437.76,0.428046
3440.04,0.430073
3442.32,0.431956
3444.61,0.433782
3446.9,0.43539
3449.19,0.436832
3451.49,0.438364
3453.79,0.440057
3456.09,0.4417
3458.4,0.442952
3460.7,0.44415
3463.02,0.445363
3465.33,0.446328
3467.65,0.447154
3469.97,0.447667
3472.29,0.448042
3474.62,0.448261
3476.95,0.448175
3479.29,0.4479
3481.62,0.447696
3483.96,0.447481
3486.3,0.447246
3488.65,0.446939
3491.0,0.446445
3493.35,0.445907
3495.71,0.445264
3498.07,0.444494
3500.43,0.443915
3502.79,0.444153
3505.16,0.445383
3507.53,0.447426
3509.91,0.449865
3512.29,0.452334
3514.67,0.454825
3517.05,0.456884
3519.44,0.458788
3521.83,0.46078
3524.23,0.462913
3526.62,0.464967
3529.02,0.466797
3531.43,0.468682
3533.83,0.470584
3536.24,0.472558
3538.66,0.474327
3541.08,0.475747
3543.5,0.477294
3545.92,0.478827
3548.35,0.480284
3550.78,0.481579
3553.21,0.482711
3555.65,0.483917
3558.09,0.485246
3560.53,0.486463
3562.98,0.487509
3565.43,0.488527
3567.88,0.489534
3570.34,0.490396
3572.8,0.491357
3575.27,0.492464
3577.73,0.493409
3580.2,0.49434
3582.68,0.49529
3585.16,0.496058
3587.64,0.496832
3590.12,0.497545
3592.61,0.498479
3595.1,0.499344
3597.6,0.500117
3600.09,0.500858
3602.6,0.501728
3605.1,0.502499
3607.61,0.503304
3610.12,0.503938
3612.64,0.5048
3615.16,0.505347
3617.68,0.505811
3620.21,0.506612
3622.74,0.507358
3625.27,0.507896
3627.81,0.508488
3630.35,0.50911
3632.89,0.509655
3635.44,0.510165
3637.99,0.510801
3640.54,0.511293
3643.1,0.511851
3645.66,0.512391
3648.23,0.512775
3650.8,0.513283
3653.37,0.513791
3655.95,0.514221
3658.53,0.514683
3661.11,0.515148
3663.7,0.515502
3666.29,0.515987
3668.89,0.516473
3671.48,0.516935
3674.09,0.517362
3676.69,0.517687
3679.3,0.518289
3681.91,0.51884
3684.53,0.519367
3687.15,0.519932
3689.78,0.520462
3692.4,0.520973
3695.04,0.52159
3697.67,0.522073
3700.31,0.52262
3702.95,0.523238
3705.6,0.523741
3708.25,0.524278
3710.91,0.524899
3713.56,0.525461
3716.23,0.526077
3718.89,0.526683
3721.56,0.52728
3724.23,0.527884
3726.91,0.528673
3729.59,0.529373
3732.28,0.529929
3734.97,0.530531
3737.66,0.531176
3740.36,0.531707
3743.06,0.532483
3745.76,0.533187
3748.47,0.53394
3751.18,0.534654
3753.9,0.535335
3756.62,0.535949
3759.34,0.536612
3762.07,0.537353
3764.8,0.538262
3767.54,0.538911
3770.28,0.53952
3773.02,0.540218
3775.77,0.540961
3778.52,0.541597
3781.28,0.542194
3784.04,0.54272
3786.8,0.543503
3789.57,0.544098
3792.34,0.544482
3795.12,0.544979
3797.9,0.545505
3800.69,0.546095
3803.47,0.546626
3806.27,0.547019
3809.06,0.547548
3811.86,0.547962
3814.67,0.548383
3817.48,0.548884
3820.29,0.549312
3823.11,0.549582
3825.93,0.55006
3828.76,0.550405
3831.59,0.550609
3834.42,0.550817
3837.26,0.551112
3840.1,0.551414
3842.95,0.551725
3845.8,0.551963
3848.65,0.55222
3851.51,0.552487
3854.38,0.552769
3857.24,0.553183
3860.12,0.553471
3862.99,0.553688
3865.87,0.553901
3868.76,0.554013
3871.65,0.554141
3874.54,0.554423
3877.44,0.55469
3880.34,0.554837
3883.25,0.555045
3886.16,0.555143
3889.07,0.555246
3891.99,0.55537
3894.92,0.555429
3897.85,0.555525
3900.78,0.555631
3903.72,0.555624
3906.66,0.555711
3909.6,0.555811
3912.55,0.55582
3915.51,0.555869
3918.47,0.556065
3921.43,0.556122
3924.4,0.55631
3927.38,0.556276
3930.35,0.556269
3933.33,0.556088
3936.32,0.555923
3939.31,0.555882
3942.31,0.555946
3945.31,0.555917
3948.31,0.555965
3951.32,0.556047
3954.34,0.55593
3957.35,0.555706
3960.38,0.555619
3963.41,0.555564
3966.44,0.555464
3969.48,0.555374
3972.52,0.55526
3975.56,0.555191
3978.61,0.555203
3981.67,0.55515
3984.73,0.554899
3987.8,0.554882
3990.87,0.554807
3993.94,0.554784
3997.02,0.554846
4000.1,0.554731
4003.19,0.554734
4006.29,0.554631
4009.39,0.554679
4012.49,0.554706
4015.6,0.554748
4018.71,0.554727
4021.83,0.55467
4024.95,0.55451
4028.08,0.554546
4031.21,0.554581
4034.35,0.55456
4037.49,0.554466
4040.64,0.554347
4043.79,0.55429
4046.94,0.554347
4050.11,0.554263
4053.27,0.554297
4056.44,0.554201
4059.62,0.554134
4062.8,0.554015
4065.99,0.553912
4069.18,0.553764
4072.38,0.553759
4075.58,0.553526
4078.78,0.553331
4082.0,0.553272
4085.21,0.553224
4088.43,0.55316
4091.66,0.552961
4094.89,0.552874
4098.13,0.552833
4101.37,0.552677
4104.62,0.552473
4107.87,0.552302
4111.13,0.552181
4114.39,0.552018
4117.66,0.55197
4120.93,0.551979
4124.21,0.551794
4127.5,0.55157
4130.79,0.551645
4134.08,0.551634
4137.38,0.551519
4140.68,0.551366
4143.99,0.551282
4147.31,0.551098
4150.63,0.550947
4153.95,0.550895
4157.29,0.550838
4160.62,0.550751
4163.96,0.550707
4167.31,0.550591
4170.66,0.55035
4174.02,0.550204
4177.39,0.550144
4180.75,0.550083
4184.13,0.549975
4187.51,0.549778
4190.89,0.549666
4194.28,0.549719
4197.68,0.549749
4201.08,0.5496
4204.49,0.549332
4207.9,0.549142
4211.32,0.549158
4214.74,0.549062
4218.17,0.549149
4221.61,0.549369
4225.05,0.54952
4228.5,0.549527
4231.95,0.549625
4235.4,0.54976
4238.87,0.549984
4242.34,0.55003
4245.81,0.550037
4249.29,0.55008
4252.78,0.550021
4256.27,0.54976
4259.77,0.549076
4263.27,0.548234
4266.78,0.547996
4270.29,0.548074
4273.81,0.548161
4277.34,0.5482
4280.87,0.548236
4284.41,0.548287
4287.95,0.548147
4291.5,0.54788
4295.06,0.547777
4298.62,0.547806
4302.19,0.547738
4305.76,0.547491
4309.34,0.547351
4312.92,0.547129
4316.52,0.546919
4320.11,0.546713
4323.72,0.546607
4327.32,0.546516
4330.94,0.546326
4334.56,0.546093
4338.19,0.545891
4341.82,0.545672
4345.46,0.545221
4349.11,0.54469
4352.76,0.544397
4356.42,0.5441
4360.08,0.543734
4363.75,0.543304
4367.43,0.542949
4371.11,0.542361
4374.8,0.54181
4378.49,0.54124
4382.19,0.540709
4385.9,0.540078
4389.61,0.53952
4393.33,0.538955
4397.06,0.538381
4400.79,0.537813
4404.53,0.537115
4408.28,0.536392
4412.03,0.535738
4415.79,0.535109
4419.55,0.534516
4423.32,0.533924
4427.1,0.533361
4430.88,0.532723
4434.68,0.531952
4438.47,0.531332
4442.28,0.530771
4446.08,0.530101
4449.9,0.529399
4453.72,0.528673
4457.55,0.528047
4461.39,0.52733
4465.23,0.526651
4469.08,0.525978
4472.94,0.52547
4476.8,0.525146
4480.67,0.524825
4484.55,0.52461
4488.43,0.524439
4492.32,0.524265
4496.21,0.524198
4500.12,0.524171
4504.03,0.524249
4507.94,0.524208
4511.87,0.524274
4515.8,0.524455
4519.73,0.524663
4523.68,0.524713
4527.63,0.524844
4531.59,0.524963
4535.55,0.524857
4539.52,0.524612
4543.5,0.524578
4547.49,0.524464
4551.48,0.524244
4555.48,0.52389
4559.49,0.523588
4563.5,0.523274
4567.52,0.522908
4571.55,0.52243
4575.58,0.521867
4579.63,0.521405
4583.67,0.520977
4587.73,0.520318
4591.79,0.519609
4595.86,0.519053
4599.94,0.518458
4604.03,0.51787
4608.12,0.517301
4612.22,0.51661
4616.33,0.515875
4620.44,0.515146
4624.56,0.514413
4628.69,0.513645
4632.83,0.512849
4636.97,0.512043
4641.12,0.511259
4645.28,0.510295
4649.45,0.509357
4653.62,0.508383
4657.8,0.507491
4661.99,0.506509
4666.19,0.505514
4670.39,0.504503
4674.6,0.503601
4678.82,0.502663
4683.05,0.501746
4687.28,0.501062
4691.52,0.500481
4695.77,0.499941
4700.03,0.499566
4704.3,0.49927
4708.57,0.499014
4712.85,0.498699
4717.14,0.498463
4721.43,0.498177
4725.74,0.497765
4730.05,0.497289
4734.37,0.4968
4738.7,0.49609
4743.03,0.4955
4747.38,0.494814
4751.73,0.494205
4756.09,0.493535
4760.45,0.492833
4764.83,0.492139
4769.21,0.491501
4773.6,0.490703
4778.0,0.489932
4782.41,0.489071
4786.83,0.488264
4791.25,0.487575
4795.68,0.486807
4800.13,0.485939
4804.57,0.485077
4809.03,0.484269
4813.5,0.483594
4817.97,0.482759
4822.45,0.481831
4826.94,0.480879
4831.44,0.480016
4835.95,0.47906
4840.46,0.477946
4844.99,0.476834
4849.52,0.475761
4854.06,0.474535
4858.61,0.473304
4863.17,0.471965
4867.73,0.470433
4872.31,0.468703
4876.89,0.466802
4881.48,0.464775
4886.08,0.462533
4890.69,0.460009
4895.31,0.457111
4899.94,0.453793
4904.57,0.45033
4909.22,0.446436
4913.87,0.442293
4918.53,0.43831
4923.21,0.434615
4927.88,0.431092
4932.57,0.427955
4937.27,0.425313
4941.98,0.42299
4946.69,0.420675
4951.42,0.41836
4956.15,0.41601
4960.9,0.413331
4965.65,0.410314
4970.41,0.406971
4975.18,0.403299
4979.96,0.399451
4984.75,0.395669
4989.54,0.392192
4994.35,0.389019
4999.17,0.38625
5003.99,0.383853
5008.83,0.381817
5013.67,0.37995
5018.52,0.378303
5023.39,0.376937
5028.26,0.375903
5033.14,0.37477
5038.03,0.373718
5042.93,0.372741
5047.84,0.37181
5052.76,0.370808
5057.69,0.369781
5062.63,0.368719
5067.58,0.367802
5072.54,0.367113
5077.51,0.366633
5082.49,0.366271
5087.47,0.366212
5092.47,0.366385
5097.48,0.366568
5102.5,0.366596
5107.52,0.36652
5112.56,0.366271
5117.61,0.365775
5122.66,0.364997
5127.73,0.364178
5132.81,0.363235
5137.89,0.362194
5142.99,0.361275
5148.1,0.360451
5153.22,0.359678
5158.34,0.358984
5163.48,0.358008
5168.63,0.356996
5173.79,0.355994
5178.96,0.355111
5184.13,0.354089
5189.32,0.353109
5194.52,0.351892
5199.73,0.350526
5204.96,0.348843
5210.19,0.346953
5215.43,0.344633
5220.68,0.34221
5225.94,0.339135
5231.22,0.335475
5236.5,0.331428
5241.79,0.326932
5247.1,0.32227
5252.42,0.317657
5257.74,0.313006
5263.08,0.308376
5268.43,0.303862
5273.79,0.299616
5279.16,0.295601
5284.54,0.291748
5289.93,0.28806
5295.34,0.284615
5300.75,0.281512
5306.18,0.278618
5311.61,0.275997
5317.06,0.273551
5322.52,0.271391
5327.99,0.269364
5333.47,0.26739
5338.96,0.265715
5344.47,0.264194
5349.98,0.262734
5355.51,0.261846
5361.05,0.261506
5366.6,0.261503
5372.16,0.262036
5377.73,0.263123
5383.32,0.264908
5388.91,0.267138
5394.52,0.269781
5400.14,0.27275
5405.77,0.275779
5411.41,0.278696
5417.07,0.281375
5422.74,0.283484
5428.41,0.285807
5434.1,0.287717
5439.81,0.288655
5445.52,0.289401
5451.25,0.290028
5456.98,0.290455
5462.73,0.290341
5468.5,0.289989
5474.27,0.289819
5480.06,0.289172
5485.86,0.288609
5491.67,0.287857
5497.49,0.286921
5503.33,0.28604
5509.18,0.285113
5515.04,0.284205
5520.91,0.283173
5526.8,0.282277
5532.69,0.281423
5538.61,0.280549
5544.53,0.279678
5550.47,0.278815
5556.41,0.278104
5562.38,0.277577
5568.35,0.27706
5574.34,0.276667
5580.34,0.276331
5586.35,0.276472
5592.38,0.276708
5598.42,0.276843
5604.47,0.277134
5610.54,0.277822
5616.61,0.278607
5622.71,0.279543
5628.81,0.280584
5634.93,0.281675
5641.06,0.28291
5647.21,0.284727
5653.36,0.286886
5659.54,0.288383
5665.72,0.290217
5671.92,0.291675
5678.13,0.292942
5684.36,0.294358
5690.6,0.295237
5696.85,0.295857
5703.12,0.296534
5709.4,0.29644
5715.69,0.296557
5722.0,0.296754
5728.33,0.296649
5734.66,0.296163
5741.01,0.29545
5747.38,0.294557
5753.76,0.293748
5760.15,0.292775
5766.56,0.291055
5772.98,0.290025
5779.41,0.289053
5785.86,0.287154
5792.33,0.28556
5798.81,0.283862
5805.3,0.282155
5811.81,0.280487
5818.33,0.278616
5824.87,0.276674
5831.42,0.275447
5837.99,0.273592
5844.57,0.271419
5851.17,0.269252
5857.78,0.267166
5864.41,0.264917
5871.05,0.262713
5877.7,0.26025
5884.38,0.257756
5891.06,0.255946
5897.76,0.253427
5904.48,0.251085
5911.21,0.248701
5917.96,0.246024
5924.73,0.243782
5931.5,0.241528
5938.3,0.239398
5945.11,0.237975
5951.93,0.236452
5958.78,0.234761
5965.63,0.233537
5972.51,0.232519
5979.39,0.231906
5986.3,0.230719
5993.22,0.229602
6000.16,0.228632
6007.11,0.227378
6014.08,0.22572
6021.06,0.224061
6028.06,0.222093
6035.08,0.219838
6042.12,0.217262
6049.17,0.214555
6056.23,0.212231
6063.32,0.209636
6070.42,0.20633
6077.53,0.203203
6084.67,0.199909
6091.82,0.196401
6098.98,0.192702
6106.17,0.189014
6113.37,0.185454
6120.58,0.182167
6127.82,0.17916
6135.07,0.176651
6142.34,0.174699
6149.63,0.173279
6156.93,0.172427
6164.25,0.172148
6171.59,0.172659
6178.95,0.173679
6186.32,0.175177
6193.71,0.177834
6201.12,0.180906
6208.54,0.183974
6215.99,0.187827
6223.45,0.191901
6230.93,0.196129
6238.43,0.200254
6245.95,0.204418
6253.48,0.20839
6261.03,0.212361
6268.6,0.216186
6276.19,0.219996
6283.8,0.223834
6291.43,0.227653
6299.07,0.23119
6306.73,0.234599
6314.42,0.237731
6322.12,0.240888
6329.84,0.243754
6337.57,0.246516
6345.33,0.248943
6353.11,0.251801
6360.9,0.25418
6368.72,0.255914
6376.55,0.257888
6384.4,0.259973
6392.27,0.261549
6400.17,0.263109
6408.08,0.264068
6416.01,0.264773
6423.96,0.266145
6431.93,0.266678
6439.92,0.266578
6447.93,0.266527
6455.96,0.265955
6464.01,0.265203
6472.08,0.264027
6480.17,0.262679
6488.28,0.261103
6496.41,0.25922
6504.56,0.256934
6512.73,0.254358
6520.92,0.251416
6529.14,0.24828
6537.37,0.245116
6545.63,0.24227
6553.9,0.239863
6562.2,0.237914
6570.51,0.236452
6578.85,0.235534
6587.21,0.23496
6595.59,0.234368
6603.99,0.23394
6612.42,0.233347
6620.86,0.23275
6629.33,0.231991
6637.82,0.231181
6646.33,0.230433
6654.86,0.229497
6663.41,0.22809
6671.99,0.226463
6680.59,0.224823
6689.21,0.223233
6697.85,0.221366
6706.51,0.219664
6715.2,0.218126
6723.91,0.216793
6732.64,0.215585
6741.4,0.214487
6750.18,0.213343
6758.98,0.212251
6767.8,0.211043
6776.65,0.209739
6785.52,0.208293
6794.41,0.20666
6803.33,0.204747
6812.27,0.202999
6821.23,0.20173
6830.22,0.200796
6839.23,0.199902
6848.26,0.19884
6857.32,0.197678
6866.4,0.196461
6875.51,0.195166
6884.64,0.193979
6893.8,0.192782
6902.98,0.191309
6912.18,0.1897
6921.41,0.188021
6930.66,0.186182
6939.94,0.184347
6949.24,0.182423
6958.57,0.180458
6967.92,0.178433
6977.3,0.176385
6986.7,0.174567
6996.13,0.172942
7005.59,0.171197
7015.07,0.1696
7024.57,0.168085
7034.1,0.16682
7043.66,0.16555
7053.25,0.164276
7062.85,0.162906
7072.49,0.161846
7082.15,0.160716
7091.84,0.159442
7101.55,0.15812
7111.3,0.156827
7121.06,0.155491
7130.86,0.154157
7140.68,0.15272
7150.53,0.151322
7160.41,0.149735
7170.31,0.148234
7180.24,0.146767
7190.2,0.145239
7200.19,0.14375
7210.2,0.142265
7220.24,0.14049
7230.31,0.138707
7240.41,0.136809
7250.54,0.134791
7260.69,0.13275
7270.88,0.130776
7281.09,0.128767
7291.33,0.126729
7301.6,0.124743
7311.9,0.122899
7322.22,0.120972
7332.58,0.11922
7342.97,0.117463
7353.38,0.115745
7363.83,0.114088
7374.3,0.112528
7384.81,0.110842
7395.34,0.10914
7405.91,0.107417
7416.5,0.105823
7427.13,0.104207
7437.78,0.10253
7448.47,0.100716
7459.19,0.099131
7469.94,0.097676
7480.71,0.096232
7491.52,0.094747
7502.37,0.093404
7513.24,0.092061
7524.14,0.090824
7535.08,0.089513
7546.05,0.088264
7557.05,0.087074
7568.08,0.08582
7579.15,0.084532
7590.24,0.083345
7601.37,0.08221
7612.53,0.081288
7623.73,0.080382
7634.96,0.0797
7646.22,0.079103
7657.51,0.078824
7668.84,0.078531
7680.2,0.078273
7691.59,0.078051
7703.02,0.077838
7714.49,0.077602
7725.98,0.077447
7737.52,0.077262
7749.08,0.077067
7760.68,0.076793
7772.32,0.076589
7783.99,0.076285
7795.69,0.075841
7807.43,0.075383
7819.21,0.075052
7831.02,0.074866
7842.87,0.075084
7854.75,0.075413
7866.67,0.0759
7878.62,0.076616
7890.62,0.077644
7902.64,0.078742
7914.71,0.080039
7926.81,0.081476
7938.95,0.083089
7951.13,0.08475
7963.34,0.086438
7975.59,0.087898
7987.88,0.089305
8000.21,0.090551
8012.57,0.091604
8024.98,0.092324
8037.42,0.093045
8049.9,0.093846
8062.42,0.094573
8074.98,0.095273
8087.57,0.096092
8100.21,0.096978
8112.89,0.097838
8125.6,0.098552
8138.36,0.099369
8151.16,0.100096
8163.99,0.100661
8176.87,0.100817
8189.79,0.100707
8202.75,0.100382
8215.75,0.099888
8228.79,0.099115
8241.87,0.098211
8254.99,0.097117
8268.16,0.096038
8281.37,0.095001
8294.62,0.094232
8307.91,0.093555
8321.24,0.092967
8334.62,0.092441
8348.04,0.092151
8361.51,0.092025
8375.02,0.091913
8388.57,0.091839
8402.16,0.09192
8415.8,0.091883
8429.49,0.091876
8443.22,0.09167
8456.99,0.091476
8470.81,0.091213
8484.67,0.090904
8498.58,0.090513
8512.54,0.090034
8526.54,0.089522
8540.58,0.089208
8554.68,0.088881
8568.82,0.088355
8583.0,0.087726
8597.24,0.087108
8611.52,0.086438
8625.85,0.086015
8640.23,0.08615
8654.65,0.087017
8669.12,0.08809
8683.64,0.088961
8698.21,0.089472
8712.83,0.089753
8727.5,0.08976
8742.22,0.089613
8756.99,0.089414
8771.8,0.089222
8786.67,0.088968
8801.59,0.08838
8816.56,0.087552
8831.58,0.086712
8846.65,0.085601
8861.77,0.084436
8876.94,0.083233
8892.17,0.082176
8907.45,0.08124
8922.78,0.080336
8938.16,0.079554
8953.6,0.079135
8969.09,0.078925
8984.64,0.07876
9000.23,0.078545
9015.89,0.078469
9031.59,0.078344
9047.36,0.078302
9063.17,0.07825
9079.05,0.078085
9094.97,0.077936
9110.96,0.07795
9127.0,0.077721
9143.1,0.077435
9159.25,0.077209
9175.46,0.077154
9191.73,0.077051
9208.06,0.077005
9224.44,0.077131
9240.88,0.077378
9257.38,0.077607
9273.94,0.077923
9290.56,0.078156
9307.24,0.078403
9323.98,0.078577
9340.78,0.078538
9357.64,0.078376
9374.57,0.077957
9391.55,0.077152
9408.59,0.076184
9425.7,0.074942
9442.87,0.073562
9460.1,0.072054
9477.4,0.070645
9494.75,0.069343
9512.17,0.06803
9529.66,0.066591
9547.21,0.065299
9564.83,0.064139
9582.5,0.063148
9600.25,0.062157
9618.06,0.061105
9635.94,0.060096
9653.88,0.059298
9671.89,0.058355
9689.97,0.057342
9708.12,0.056321
9726.33,0.055539
9744.62,0.05464
9762.97,0.053747
9781.39,0.052979
9799.88,0.052372
9818.44,0.051817
9837.07,0.05135
9855.77,0.050876
9874.54,0.05035
9893.39,0.049755
9912.3,0.049391
9931.29,0.049076
9950.36,0.048746
9969.49,0.048472
9988.7,0.048339
10007.98,0.047994
10027.34,0.047765
10046.77,0.047682
10066.28,0.047564
10085.87,0.047392
10105.53,0.047378
10125.26,0.047401
10145.08,0.047591
10164.97,0.047701
10184.94,0.047774
10204.99,0.048053
10225.12,0.048556
10245.33,0.049135
10265.61,0.049774
10285.98,0.050318
10306.43,0.050947
10326.96,0.051759
10347.57,0.052581
10368.27,0.053386
10389.05,0.054031
10409.91,0.054669
10430.86,0.055466
10451.88,0.056136
10473.0,0.056616
10494.2,0.057019
10515.49,0.057259
10536.86,0.057264
10558.32,0.057348
10579.87,0.057152
10601.5,0.056747
10623.23,0.056248
10645.04,0.05588
10666.94,0.055374
10688.94,0.054917
10711.02,0.0545
10733.2,0.054162
10755.47,0.053921
10777.83,0.053693
10800.28,0.053567
10822.83,0.053516
10845.47,0.053278
10868.21,0.053114
10891.04,0.053164
10913.97,0.053546
10936.99,0.053983
10960.12,0.054562
10983.34,0.055484
11006.66,0.056575
11030.07,0.057991
11053.59,0.059721
11077.21,0.061608
11100.93,0.063336
11124.75,0.064949
11148.68,0.066577
11172.71,0.067854
11196.84,0.068831
11221.07,0.069723
11245.41,0.070675
11269.86,0.071707
11294.41,0.072745
11319.07,0.073802
11343.84,0.075047
11368.72,0.076269
11393.7,0.077694
11418.8,0.079243
11444.01,0.080522
11469.33,0.081414
11494.76,0.082027
11520.3,0.082455
11545.96,0.082663
11571.73,0.082608
11597.62,0.082203
11623.62,0.081517
11649.74,0.080675
11675.98,0.079549
11702.34,0.078268
11728.81,0.077005
11755.41,0.075793
11782.13,0.074905
11808.96,0.074214
11835.92,0.073436
11863.01,0.072869
11890.22,0.072432
11917.55,0.071997
11945.01,0.071686
11972.6,0.071421
12000.31,0.070737
12028.16,0.06976
12056.13,0.068865
12084.23,0.067854
12112.46,0.066733
12140.83,0.065488
12169.33,0.063983
12197.96,0.062846
12226.73,0.06194
12255.64,0.061041
12284.68,0.060135
12313.86,0.05925
12343.18,0.058355
12372.64,0.057817
12402.24,0.057557
12431.98,0.057397
12461.86,0.057037
12491.89,0.056687
12522.07,0.056456
12552.38,0.056365
12582.85,0.056141
12613.47,0.056102
12644.23,0.055937
12675.15,0.055834
12706.21,0.056067
12737.43,0.056431
12768.81,0.057028
12800.33,0.057719
12832.02,0.058046
12863.86,0.058204
12895.86,0.058055
12928.02,0.057836
12960.34,0.0579
12992.82,0.05814
13025.46,0.05857
13058.27,0.059318
13091.25,0.059947
13124.39,0.060725
13157.7,0.061345
13191.18,0.061823
13224.83,0.062205
13258.66,0.062771
13292.65,0.063281
13326.83,0.063958
13361.17,0.064569
13395.7,0.065143
13430.4,0.065736
13465.29,0.066461
13500.35,0.067152
13535.6,0.067666
13571.03,0.067801
13606.65,0.06774
13642.46,0.067699
13678.46,0.06765
13714.64,0.067438
13751.02,0.067028
13787.59,0.066426
13824.36,0.0659
13861.32,0.065454
13898.49,0.065015
13935.85,0.064052
13973.41,0.06286
14011.17,0.061759
14049.15,0.060167
14087.32,0.05814
14125.71,0.056385
14164.3,0.054347
14203.11,0.052093
14242.13,0.049808
14281.36,0.047433
14320.81,0.044633
14360.49,0.042141
14400.38,0.040762
14440.49,0.04086
14480.82,0.042187
14521.39,0.044276
14562.18,0.046333
14603.2,0.048103
14644.45,0.049753
14685.93,0.051
14727.66,0.051677
14769.62,0.052187
14811.81,0.052597
14854.25,0.05253
14896.94,0.05235
14939.87,0.051984
14983.05,0.051354
15026.48,0.050755
15070.16,0.050217
15114.1,0.049689
15158.29,0.049016
15202.74,0.04803
15247.46,0.046799
15292.43,0.045768
15337.68,0.044724
15383.19,0.043539
15428.97,0.042148
15475.03,0.041171
15521.36,0.040188
15567.97,0.038964
15614.87,0.038149
15662.04,0.037879
15709.5,0.037646
15757.25,0.037191
15805.29,0.036566
15853.62,0.036326
15902.26,0.036527
15951.19,0.03633
16000.42,0.03593
16049.95,0.03572
16099.8,0.035621
16149.95,0.035665
16200.42,0.035678
16251.21,0.035658
16302.31,0.035928
16353.74,0.036358
16405.49,0.036648
16457.57,0.036971
16509.98,0.037145
16562.73,0.037765
16615.82,0.038387
16669.24,0.038646
16723.02,0.038922
16777.14,0.039334
16831.61,0.039725
16886.43,0.040485
16941.62,0.041311
16997.16,0.042295
17053.08,0.043256
17109.36,0.044358
17166.01,0.045402
17223.04,0.046044
17280.45,0.046909
17338.24,0.047774
17396.43,0.048518
17455.0,0.049545
17513.97,0.050391
17573.34,0.051082
17633.11,0.051789
17693.29,0.052821
17753.89,0.053821
17814.9,0.054841
17876.33,0.055507
17938.18,0.0562
18000.47,0.056886
18063.19,0.057584
18126.35,0.058538
18189.95,0.059252
18254.0,0.059881
18318.5,0.061135
18383.46,0.062336
18448.88,0.062862
18514.77,0.062203
18581.13,0.062356
18647.97,0.063313
18715.29,0.063057
18783.1,0.062665
18851.4,0.062523
18920.2,0.061549
18989.51,0.060448
19059.32,0.059494
19129.65,0.058604
19200.5,0.057451
19271.88,0.056186
19343.79,0.054926
19416.24,0.05386
19489.23,0.053006
19562.77,0.051638
19636.88,0.050581
19711.54,0.049909
19786.78,0.049286
19862.59,0.049348
19938.98,0.049712
20015.96,0.050599
20093.55,0.051695
20171.73,0.053757
20250.53,0.056351
20329.94,0.059375
20409.98,0.06356
20490.65,0.067682
20571.96,0.070467
20653.92,0.072716
20736.54,0.074189
20819.82,0.075221
20903.77,0.075909
20988.4,0.075944
21073.72,0.075257
21159.73,0.074917
21246.46,0.074223
21333.89,0.073077
21422.04,0.072322
21510.93,0.071972
21600.56,0.070675
21690.94,0.068943
21782.08,0.067975
21873.99,0.067159
21966.67,0.066626
22060.15,0.066378
22154.42,0.066211
22249.51,0.066044
22345.41,0.06536
22442.14,0.064905
22539.72,0.064793
22638.14,0.063416
22737.43,0.062306
22837.6,0.062539
22938.65,0.061629
23040.6,0.060545
23143.46,0.060524
23247.24,0.060469
23351.96,0.060007
23457.63,0.059796
23564.25,0.060265
23671.85,0.060625
23780.44,0.060645
23890.02,0.061613
24000.63,0.061821
24112.26,0.062144
24224.93,0.063052
24338.66,0.065287
24453.47,0.066719
24569.36,0.066122
24686.36,0.066269
24804.47,0.064438
24923.73,0.062459
25044.13,0.062658
25165.71,0.064432
25288.46,0.067632
25412.43,0.069316
25537.61,0.07038
25664.04,0.072164
25791.72,0.072075
25920.68,0.072455
