Database of Origin,University of Winnipeg Spectrophotometer Facility
Sample Description,"RELAB plus Nicolet merged plagioclase data. Merged @2500nm, different viewing geometries. See Master Plagioclase in PSF sample database for more information"
Date Added,2016-11-22 03:59:29.852600

Data ID,RLA_PLG_09          
Sample ID,PLG109
Mineral Name,Labradorite
Grain Size,<45
Viewing Geometry,"30/0,30"
Resolution,"5,0.6-129"
Composition,An67
Material Class,Tectosilicate

Wavelength
300.0,0.326113
305.0,0.335029
310.0,0.344752
315.0,0.353693
320.0,0.361779
325.0,0.369581
330.0,0.376459
335.0,0.383199
340.0,0.389433
345.0,0.395974
350.0,0.401686
355.0,0.408721
360.0,0.416055
365.0,0.423647
370.0,0.430821
375.0,0.437679
380.0,0.443841
385.0,0.44926
390.0,0.455014
395.0,0.459785
400.0,0.463713
405.0,0.466317
410.0,0.469534
415.0,0.471674
420.0,0.475513
425.0,0.478689
430.0,0.482126
435.0,0.484909
440.0,0.487583
445.0,0.489491
450.0,0.491443
455.0,0.49295
460.0,0.494096
465.0,0.496076
470.0,0.496975
475.0,0.497998
480.0,0.498675
485.0,0.500731
490.0,0.501602
495.0,0.503228
500.0,0.50438
505.0,0.505739
510.0,0.506842
515.0,0.508354
520.0,0.509441
525.0,0.510369
530.0,0.511336
535.0,0.512696
540.0,0.513791
545.0,0.514728
550.0,0.516246
555.0,0.518109
560.0,0.519816
565.0,0.521117
570.0,0.523376
575.0,0.524935
580.0,0.526807
585.0,0.528747
590.0,0.530678
595.0,0.531774
600.0,0.533218
605.0,0.534939
610.0,0.536323
615.0,0.537243
620.0,0.538637
625.0,0.540192
630.0,0.541659
635.0,0.542786
640.0,0.543738
645.0,0.545767
650.0,0.547269
655.0,0.548163
660.0,0.55033
665.0,0.55178
670.0,0.553974
675.0,0.555667
680.0,0.557025
685.0,0.559945
690.0,0.561311
695.0,0.563095
700.0,0.565074
705.0,0.566336
710.0,0.569097
715.0,0.570733
720.0,0.575166
725.0,0.576689
730.0,0.57844
735.0,0.579917
740.0,0.582082
745.0,0.584211
750.0,0.58578
755.0,0.589476
760.0,0.590466
765.0,0.592165
770.0,0.59419
775.0,0.596184
780.0,0.597523
785.0,0.599437
790.0,0.600581
795.0,0.601952
800.0,0.603072
805.0,0.604415
810.0,0.604914
815.0,0.605552
820.0,0.607105
825.0,0.608072
830.0,0.608126
835.0,0.60942
840.0,0.608568
845.0,0.610643
850.0,0.610418
855.0,0.612335
860.0,0.610204
865.0,0.610923
870.0,0.613082
875.0,0.614608
880.0,0.614142
885.0,0.614648
890.0,0.615963
895.0,0.616771
900.0,0.617545
905.0,0.618811
910.0,0.618424
915.0,0.616378
920.0,0.616313
925.0,0.617104
930.0,0.617984
935.0,0.618311
940.0,0.621292
945.0,0.621572
950.0,0.621762
955.0,0.622729
960.0,0.624228
965.0,0.622303
970.0,0.620978
975.0,0.619937
980.0,0.619092
985.0,0.618729
990.0,0.618145
995.0,0.618889
1000.0,0.619635
1005.0,0.618388
1010.0,0.617047
1015.0,0.617317
1020.0,0.616324
1025.0,0.61537
1030.0,0.614648
1035.0,0.615691
1040.0,0.616658
1045.0,0.616342
1050.0,0.6166
1055.0,0.61636
1060.0,0.615001
1065.0,0.614935
1070.0,0.614554
1075.0,0.614249
1080.0,0.613995
1085.0,0.613761
1090.0,0.613207
1095.0,0.613044
1100.0,0.612189
1105.0,0.612989
1110.0,0.612602
1115.0,0.611434
1120.0,0.609607
1125.0,0.610299
1130.0,0.610495
1135.0,0.610889
1140.0,0.610418
1145.0,0.611037
1150.0,0.610699
1155.0,0.610039
1160.0,0.611007
1165.0,0.611789
1170.0,0.611862
1175.0,0.610787
1180.0,0.609972
1185.0,0.608361
1190.0,0.608483
1195.0,0.60857
1200.0,0.612157
1205.0,0.613346
1210.0,0.614511
1215.0,0.613176
1220.0,0.612511
1225.0,0.611424
1230.0,0.609287
1235.0,0.608636
1240.0,0.609937
1245.0,0.609678
1250.0,0.610131
1255.0,0.610089
1260.0,0.610582
1265.0,0.610268
1270.0,0.610156
1275.0,0.609585
1280.0,0.609505
1285.0,0.608947
1290.0,0.608115
1295.0,0.607928
1300.0,0.607937
1305.0,0.607766
1310.0,0.607528
1315.0,0.608175
1320.0,0.60771
1325.0,0.607536
1330.0,0.60671
1335.0,0.606721
1340.0,0.606413
1345.0,0.607192
1350.0,0.607228
1355.0,0.607324
1360.0,0.607942
1365.0,0.608165
1370.0,0.6071
1375.0,0.605657
1380.0,0.606703
1385.0,0.605797
1390.0,0.605015
1395.0,0.604028
1400.0,0.605787
1405.0,0.605319
1410.0,0.606283
1415.0,0.607754
1420.0,0.608454
1425.0,0.607881
1430.0,0.607577
1435.0,0.607218
1440.0,0.607328
1445.0,0.607255
1450.0,0.606999
1455.0,0.607061
1460.0,0.607091
1465.0,0.606447
1470.0,0.606837
1475.0,0.60632
1480.0,0.606289
1485.0,0.606203
1490.0,0.605924
1495.0,0.605502
1500.0,0.605247
1505.0,0.605437
1510.0,0.606166
1515.0,0.60646
1520.0,0.606649
1525.0,0.607077
1530.0,0.607511
1535.0,0.606638
1540.0,0.606631
1545.0,0.60701
1550.0,0.607595
1555.0,0.607641
1560.0,0.607994
1565.0,0.608691
1570.0,0.608542
1575.0,0.608247
1580.0,0.608376
1585.0,0.608825
1590.0,0.609014
1595.0,0.610423
1600.0,0.610602
1605.0,0.6114
1610.0,0.61177
1615.0,0.611571
1620.0,0.610378
1625.0,0.61051
1630.0,0.610057
1635.0,0.608911
1640.0,0.609393
1645.0,0.609892
1650.0,0.609526
1655.0,0.60999
1660.0,0.612113
1665.0,0.611792
1670.0,0.612216
1675.0,0.611798
1680.0,0.612753
1685.0,0.610776
1690.0,0.611076
1695.0,0.611081
1700.0,0.611243
1705.0,0.611919
1710.0,0.614142
1715.0,0.614303
1720.0,0.614538
1725.0,0.614722
1730.0,0.613699
1735.0,0.612559
1740.0,0.612193
1745.0,0.611452
1750.0,0.611405
1755.0,0.612354
1760.0,0.613214
1765.0,0.613625
1770.0,0.613952
1775.0,0.614574
1780.0,0.613709
1785.0,0.613181
1790.0,0.613432
1795.0,0.614452
1800.0,0.615186
1805.0,0.615918
1810.0,0.61639
1815.0,0.615263
1820.0,0.615571
1825.0,0.615912
1830.0,0.616429
1835.0,0.61683
1840.0,0.618407
1845.0,0.617317
1850.0,0.616125
1855.0,0.615772
1860.0,0.616014
1865.0,0.615425
1870.0,0.616493
1875.0,0.616674
1880.0,0.616711
1885.0,0.616764
1890.0,0.617348
1895.0,0.617456
1900.0,0.618106
1905.0,0.6176
1910.0,0.616794
1915.0,0.614768
1920.0,0.614631
1925.0,0.614439
1930.0,0.615193
1935.0,0.615998
1940.0,0.617729
1945.0,0.618177
1950.0,0.61726
1955.0,0.616975
1960.0,0.617398
1965.0,0.617683
1970.0,0.617948
1975.0,0.619985
1980.0,0.620336
1985.0,0.620803
1990.0,0.622588
1995.0,0.622314
2000.0,0.621787
2005.0,0.623211
2010.0,0.624193
2015.0,0.623875
2020.0,0.625274
2025.0,0.626062
2030.0,0.625651
2035.0,0.625928
2040.0,0.625376
2045.0,0.625931
2050.0,0.625485
2055.0,0.625218
2060.0,0.62437
2065.0,0.624896
2070.0,0.625312
2075.0,0.626766
2080.0,0.626645
2085.0,0.626499
2090.0,0.627442
2095.0,0.62702
2100.0,0.62751
2105.0,0.630042
2110.0,0.631395
2115.0,0.632567
2120.0,0.633273
2125.0,0.633259
2130.0,0.631613
2135.0,0.630879
2140.0,0.628999
2145.0,0.629774
2150.0,0.628807
2155.0,0.629088
2160.0,0.629996
2165.0,0.631406
2170.0,0.630541
2175.0,0.630723
2180.0,0.632369
2185.0,0.630897
2190.0,0.630595
2195.0,0.62992
2200.0,0.630763
2205.0,0.630038
2210.0,0.632007
2215.0,0.630753
2220.0,0.631508
2225.0,0.630962
2230.0,0.630615
2235.0,0.630436
2240.0,0.630705
2245.0,0.630508
2250.0,0.63158
2255.0,0.63265
2260.0,0.632966
2265.0,0.634685
2270.0,0.634907
2275.0,0.634731
2280.0,0.634618
2285.0,0.635828
2290.0,0.635353
2295.0,0.635901
2300.0,0.63652
2305.0,0.63716
2310.0,0.636588
2315.0,0.635785
2320.0,0.637083
2325.0,0.636574
2330.0,0.637866
2335.0,0.637031
2340.0,0.638042
2345.0,0.636497
2350.0,0.63543
2355.0,0.633897
2360.0,0.634905
2365.0,0.635377
2370.0,0.636338
2375.0,0.639549
2380.0,0.640146
2385.0,0.640941
2390.0,0.643718
2395.0,0.643549
2400.0,0.641886
2405.0,0.641966
2410.0,0.643028
2415.0,0.639705
2420.0,0.641125
2425.0,0.640639
2430.0,0.639627
2435.0,0.637097
2440.0,0.638362
2445.0,0.639504
2450.0,0.642806
2455.0,0.643862
2460.0,0.643999
2465.0,0.643213
2470.0,0.638606
2475.0,0.640886
2480.0,0.642848
2485.0,0.643566
2490.0,0.645586
2495.0,0.645563
2500.0,0.645637
2505.0,0.646473
2510.0,0.648917
2515.0,0.648187
2520.0,0.646569
2525.0,0.644915
2530.08,0.645571
2535.03,0.645962
2540.0,0.644273
2544.99,0.645011
2549.99,0.645561
2552.5,0.645286
2553.76,0.645346
2555.02,0.64631
2556.28,0.645967
2557.54,0.644966
2558.8,0.645383
2560.07,0.645195
2561.33,0.643168
2562.6,0.643792
2563.86,0.646718
2565.13,0.64756
2566.4,0.648152
2567.67,0.647981
2568.95,0.646157
2570.22,0.644781
2571.5,0.647192
2572.77,0.646662
2574.05,0.643177
2575.33,0.646199
2576.61,0.646787
2577.89,0.646162
2579.17,0.648272
2580.46,0.648102
2581.74,0.645826
2583.03,0.645997
2584.31,0.644099
2585.6,0.646639
2586.89,0.648509
2588.19,0.646179
2589.48,0.647521
2590.77,0.64842
2592.07,0.647627
2593.36,0.645154
2594.66,0.641243
2595.96,0.643579
2597.26,0.654433
2598.56,0.654508
2599.87,0.64958
2601.17,0.646778
2602.48,0.646533
2603.78,0.647334
2605.09,0.646579
2606.4,0.64636
2607.71,0.649682
2609.03,0.650356
2610.34,0.649195
2611.65,0.649303
2612.97,0.648674
2614.29,0.647779
2615.61,0.648207
2616.93,0.645472
2618.25,0.646716
2619.57,0.65
2620.9,0.647076
2622.22,0.649835
2623.55,0.652237
2624.88,0.649849
2626.21,0.646601
2627.54,0.645603
2628.87,0.649424
2630.21,0.64743
2631.54,0.646303
2632.88,0.651137
2634.21,0.650388
2635.55,0.649028
2636.89,0.649907
2638.24,0.649482
2639.58,0.648665
2640.92,0.647806
2642.27,0.647606
2643.62,0.648317
2644.97,0.648559
2646.32,0.6472
2647.67,0.6483
2649.02,0.649025
2650.38,0.6482
2651.73,0.647002
2653.09,0.646216
2654.45,0.648614
2655.81,0.648871
2657.17,0.648211
2658.53,0.648376
2659.89,0.646021
2661.26,0.646639
2662.63,0.647961
2664.0,0.646798
2665.36,0.643058
2666.74,0.643457
2668.11,0.647642
2669.48,0.649597
2670.86,0.643509
2672.23,0.647723
2673.61,0.651507
2674.99,0.645759
2676.37,0.641089
2677.76,0.640795
2679.14,0.643496
2680.52,0.643398
2681.91,0.643376
2683.3,0.63974
2684.69,0.637108
2686.08,0.63638
2687.47,0.635007
2688.87,0.633701
2690.26,0.632038
2691.66,0.629636
2693.06,0.625483
2694.46,0.621333
2695.86,0.62154
2697.26,0.620544
2698.66,0.61599
2700.07,0.609251
2701.48,0.602787
2702.89,0.597753
2704.3,0.592756
2705.71,0.584875
2707.12,0.577093
2708.53,0.568924
2709.95,0.56029
2711.37,0.55217
2712.79,0.546345
2714.21,0.538821
2715.63,0.528435
2717.05,0.51832
2718.48,0.509319
2719.9,0.499978
2721.33,0.489626
2722.76,0.483642
2724.19,0.475765
2725.62,0.467725
2727.06,0.464766
2728.49,0.461355
2729.93,0.456395
2731.37,0.452074
2732.81,0.448327
2734.25,0.44398
2735.69,0.440447
2737.14,0.439584
2738.58,0.437177
2740.03,0.43387
2741.48,0.434187
2742.93,0.434875
2744.38,0.433473
2745.83,0.43051
2747.29,0.428506
2748.75,0.427706
2750.2,0.42696
2751.66,0.425671
2753.13,0.42473
2754.59,0.423107
2756.05,0.420936
2757.52,0.423611
2758.99,0.424938
2760.46,0.422779
2761.93,0.421266
2763.4,0.421103
2764.87,0.423262
2766.35,0.424691
2767.82,0.424496
2769.3,0.42551
2770.78,0.426466
2772.26,0.427832
2773.75,0.430475
2775.23,0.431564
2776.72,0.431658
2778.21,0.432742
2779.7,0.43474
2781.19,0.436168
2782.68,0.437808
2784.18,0.439545
2785.67,0.440308
2787.17,0.440215
2788.67,0.4421
2790.17,0.445592
2791.67,0.447125
2793.18,0.447459
2794.68,0.448429
2796.19,0.449427
2797.7,0.450405
2799.21,0.451384
2800.72,0.452447
2802.24,0.453016
2803.75,0.453828
2805.27,0.456283
2806.79,0.457949
2808.31,0.458065
2809.83,0.458268
2811.35,0.458731
2812.88,0.459831
2814.41,0.460213
2815.93,0.460922
2817.46,0.462177
2819.0,0.4629
2820.53,0.463277
2822.07,0.464574
2823.6,0.465694
2825.14,0.465899
2826.68,0.46654
2828.22,0.467275
2829.77,0.467785
2831.31,0.468557
2832.86,0.469605
2834.41,0.47003
2835.96,0.470492
2837.51,0.470665
2839.07,0.471357
2840.62,0.472771
2842.18,0.473549
2843.74,0.473643
2845.3,0.473979
2846.86,0.474212
2848.43,0.474648
2849.99,0.475137
2851.56,0.476124
2853.13,0.476441
2854.7,0.476147
2856.27,0.47689
2857.85,0.477676
2859.42,0.477546
2861.0,0.477517
2862.58,0.478084
2864.16,0.478507
2865.75,0.479007
2867.33,0.479042
2868.92,0.479551
2870.51,0.480206
2872.1,0.480589
2873.69,0.481045
2875.28,0.481397
2876.88,0.481764
2878.48,0.482163
2880.07,0.48256
2881.68,0.483036
2883.28,0.483015
2884.88,0.483198
2886.49,0.483982
2888.1,0.484229
2889.71,0.484363
2891.32,0.484842
2892.93,0.485391
2894.55,0.48559
2896.16,0.485586
2897.78,0.486132
2899.4,0.486402
2901.03,0.486232
2902.65,0.486734
2904.28,0.48715
2905.91,0.486957
2907.53,0.487869
2909.17,0.488875
2910.8,0.489057
2912.44,0.488922
2914.07,0.489402
2915.71,0.490057
2917.35,0.490484
2918.99,0.490621
2920.64,0.490869
2922.29,0.49096
2923.93,0.491324
2925.58,0.492284
2927.24,0.492763
2928.89,0.493071
2930.55,0.49342
2932.2,0.494049
2933.86,0.494962
2935.52,0.49523
2937.19,0.495673
2938.85,0.496231
2940.52,0.496758
2942.19,0.497323
2943.86,0.497851
2945.53,0.498341
2947.21,0.499129
2948.88,0.499708
2950.56,0.500365
2952.24,0.500912
2953.92,0.501643
2955.61,0.502399
2957.29,0.502957
2958.98,0.503188
2960.67,0.504124
2962.36,0.505097
2964.06,0.505676
2965.75,0.50591
2967.45,0.50646
2969.15,0.507155
2970.85,0.508128
2972.55,0.508877
2974.26,0.509529
2975.97,0.510527
2977.68,0.511319
2979.39,0.511935
2981.1,0.513284
2982.82,0.513993
2984.53,0.514227
2986.25,0.514944
2987.97,0.515818
2989.7,0.516435
2991.42,0.517132
2993.15,0.517829
2994.88,0.518539
2996.61,0.51944
2998.34,0.520652
3000.08,0.521467
3001.82,0.522021
3003.55,0.522566
3005.3,0.523498
3007.04,0.524377
3008.78,0.525039
3010.53,0.52573
3012.28,0.526158
3014.03,0.526665
3015.79,0.527787
3017.54,0.529068
3019.3,0.529782
3021.06,0.530259
3022.82,0.530776
3024.58,0.53162
3026.35,0.532729
3028.12,0.533482
3029.89,0.533956
3031.66,0.534437
3033.43,0.535327
3035.21,0.536531
3036.99,0.537172
3038.77,0.537087
3040.55,0.53753
3042.33,0.5383
3044.12,0.539272
3045.91,0.539877
3047.7,0.540472
3049.49,0.541534
3051.29,0.542216
3053.08,0.542577
3054.88,0.543197
3056.68,0.544155
3058.49,0.544726
3060.29,0.545027
3062.1,0.545315
3063.91,0.546102
3065.72,0.546872
3067.54,0.547548
3069.35,0.548147
3071.17,0.548691
3072.99,0.549363
3074.81,0.550045
3076.64,0.550783
3078.46,0.551321
3080.29,0.551561
3082.13,0.551772
3083.96,0.552363
3085.79,0.553154
3087.63,0.553666
3089.47,0.553944
3091.31,0.554484
3093.16,0.555015
3095.01,0.555593
3096.85,0.556165
3098.71,0.556841
3100.56,0.5574
3102.41,0.557806
3104.27,0.558549
3106.13,0.559339
3107.99,0.559614
3109.86,0.559981
3111.73,0.560432
3113.59,0.56122
3115.47,0.56184
3117.34,0.562405
3119.21,0.563007
3121.09,0.563376
3122.97,0.563877
3124.86,0.564455
3126.74,0.565234
3128.63,0.566101
3130.52,0.566676
3132.41,0.567322
3134.3,0.567692
3136.2,0.568186
3138.1,0.568869
3140.0,0.569699
3141.9,0.570294
3143.81,0.570523
3145.71,0.571127
3147.62,0.572226
3149.54,0.573047
3151.45,0.573551
3153.37,0.573744
3155.29,0.574308
3157.21,0.574981
3159.13,0.575605
3161.06,0.576162
3162.99,0.576954
3164.92,0.577699
3166.85,0.578149
3168.79,0.578737
3170.72,0.579332
3172.67,0.579993
3174.61,0.580452
3176.55,0.581122
3178.5,0.582057
3180.45,0.582852
3182.4,0.58352
3184.36,0.583733
3186.32,0.584052
3188.27,0.584758
3190.24,0.585174
3192.2,0.585424
3194.17,0.586136
3196.14,0.587083
3198.11,0.587826
3200.08,0.588217
3202.06,0.588771
3204.04,0.589208
3206.02,0.589823
3208.0,0.590153
3209.99,0.59048
3211.98,0.591137
3213.97,0.59164
3215.96,0.5922
3217.96,0.592701
3219.96,0.593231
3221.96,0.593836
3223.96,0.594343
3225.97,0.594847
3227.98,0.59513
3229.99,0.595412
3232.0,0.596043
3234.02,0.59679
3236.04,0.597317
3238.06,0.597879
3240.08,0.598634
3242.11,0.599199
3244.14,0.599692
3246.17,0.600351
3248.2,0.601005
3250.24,0.601604
3252.28,0.602073
3254.32,0.602548
3256.37,0.603037
3258.41,0.603568
3260.46,0.603961
3262.51,0.604532
3264.57,0.605361
3266.63,0.606037
3268.69,0.606511
3270.75,0.607113
3272.81,0.607859
3274.88,0.608613
3276.95,0.608884
3279.02,0.609003
3281.1,0.609354
3283.18,0.610124
3285.26,0.610705
3287.34,0.611228
3289.43,0.611818
3291.51,0.612423
3293.61,0.612853
3295.7,0.613328
3297.8,0.613766
3299.89,0.614178
3302.0,0.614859
3304.1,0.615382
3306.21,0.615715
3308.32,0.616199
3310.43,0.616885
3312.55,0.617268
3314.66,0.617436
3316.78,0.617944
3318.91,0.618627
3321.03,0.619022
3323.16,0.619422
3325.29,0.619813
3327.43,0.620148
3329.57,0.620599
3331.71,0.621123
3333.85,0.621433
3335.99,0.621681
3338.14,0.621939
3340.29,0.622219
3342.45,0.622488
3344.6,0.622243
3346.76,0.62209
3348.92,0.622255
3351.09,0.622364
3353.26,0.622492
3355.43,0.622488
3357.6,0.622338
3359.78,0.622456
3361.96,0.622611
3364.14,0.622798
3366.32,0.622745
3368.51,0.62279
3370.7,0.622965
3372.89,0.62317
3375.09,0.623309
3377.29,0.623445
3379.49,0.623795
3381.69,0.624333
3383.9,0.62493
3386.11,0.625626
3388.32,0.626277
3390.54,0.62708
3392.76,0.627413
3394.98,0.627493
3397.21,0.627485
3399.43,0.627329
3401.66,0.627006
3403.9,0.626742
3406.13,0.626504
3408.37,0.626066
3410.61,0.626009
3412.86,0.626099
3415.11,0.626087
3417.36,0.626306
3419.61,0.627175
3421.87,0.62857
3424.13,0.630153
3426.39,0.631632
3428.66,0.633129
3430.93,0.634473
3433.2,0.635718
3435.48,0.636792
3437.76,0.637643
3440.04,0.63849
3442.32,0.63952
3444.61,0.640391
3446.9,0.640928
3449.19,0.641735
3451.49,0.642716
3453.79,0.643218
3456.09,0.643743
3458.4,0.6446
3460.7,0.645311
3463.02,0.645644
3465.33,0.646044
3467.65,0.646365
3469.97,0.64645
3472.29,0.646379
3474.62,0.646371
3476.95,0.646753
3479.29,0.647081
3481.62,0.64748
3483.96,0.648011
3486.3,0.648621
3488.65,0.64908
3491.0,0.649369
3493.35,0.649701
3495.71,0.650005
3498.07,0.650325
3500.43,0.650611
3502.79,0.651136
3505.16,0.652175
3507.53,0.65356
3509.91,0.655317
3512.29,0.656818
3514.67,0.657949
3517.05,0.65913
3519.44,0.660382
3521.83,0.661361
3524.22,0.662247
3526.62,0.663321
3529.02,0.664354
3531.43,0.665184
3533.83,0.665888
3536.24,0.666595
3538.66,0.667321
3541.08,0.668056
3543.5,0.668763
3545.92,0.669173
3548.35,0.669836
3550.78,0.670724
3553.21,0.671467
3555.65,0.671632
3558.09,0.672114
3560.53,0.672698
3562.98,0.67328
3565.43,0.673938
3567.88,0.674503
3570.34,0.675013
3572.8,0.675346
3575.27,0.6758
3577.73,0.676646
3580.2,0.677128
3582.68,0.677591
3585.16,0.678127
3587.64,0.678574
3590.12,0.679066
3592.61,0.679644
3595.1,0.680152
3597.6,0.680639
3600.09,0.681065
3602.6,0.681529
3605.1,0.681869
3607.61,0.68247
3610.12,0.683061
3612.64,0.683478
3615.16,0.683775
3617.68,0.684098
3620.21,0.684463
3622.74,0.685059
3625.27,0.685339
3627.81,0.685733
3630.35,0.686066
3632.89,0.686516
3635.44,0.686968
3637.99,0.687262
3640.54,0.687607
3643.1,0.687955
3645.66,0.688257
3648.23,0.688746
3650.8,0.689094
3653.37,0.689651
3655.95,0.69003
3658.53,0.690275
3661.11,0.690349
3663.7,0.690766
3666.29,0.691328
3668.89,0.691815
3671.48,0.6921
3674.09,0.692483
3676.69,0.692826
3679.3,0.693209
3681.91,0.693626
3684.53,0.693908
3687.15,0.69404
3689.78,0.694568
3692.4,0.694895
3695.04,0.69528
3697.67,0.695643
3700.31,0.695999
3702.95,0.696468
3705.6,0.696764
3708.25,0.69697
3710.91,0.697311
3713.56,0.697765
3716.23,0.698333
3718.89,0.698765
3721.56,0.699019
3724.23,0.699202
3726.91,0.699368
3729.59,0.699851
3732.28,0.700226
3734.97,0.700423
3737.66,0.700669
3740.36,0.700873
3743.06,0.701469
3745.76,0.701906
3748.47,0.702331
3751.18,0.702723
3753.9,0.703062
3756.62,0.703223
3759.34,0.703415
3762.07,0.703889
3764.8,0.704373
3767.54,0.704543
3770.28,0.704827
3773.02,0.705065
3775.77,0.705542
3778.52,0.705869
3781.28,0.705946
3784.04,0.706218
3786.8,0.706713
3789.57,0.707065
3792.34,0.707232
3795.12,0.707395
3797.9,0.707388
3800.69,0.707512
3803.47,0.707804
3806.27,0.708166
3809.06,0.708468
3811.86,0.708562
3814.67,0.708845
3817.48,0.709118
3820.29,0.709196
3823.11,0.709212
3825.93,0.709202
3828.76,0.709327
3831.59,0.709443
3834.42,0.709364
3837.26,0.709466
3840.1,0.709522
3842.95,0.709842
3845.8,0.710114
3848.65,0.710284
3851.51,0.710572
3854.38,0.710644
3857.24,0.710506
3860.12,0.710659
3862.99,0.710781
3865.87,0.711045
3868.76,0.711118
3871.65,0.711233
3874.54,0.7115
3877.44,0.711695
3880.34,0.711704
3883.25,0.711699
3886.16,0.711806
3889.07,0.711911
3891.99,0.711939
3894.92,0.711892
3897.85,0.711926
3900.78,0.712115
3903.72,0.712138
3906.66,0.71209
3909.6,0.712224
3912.55,0.712401
3915.51,0.712481
3918.47,0.712592
3921.43,0.712415
3924.4,0.712287
3927.37,0.712479
3930.35,0.712409
3933.33,0.712413
3936.32,0.712428
3939.31,0.712398
3942.31,0.712265
3945.31,0.711917
3948.31,0.71142
3951.32,0.711052
3954.34,0.710778
3957.35,0.710272
3960.38,0.709927
3963.41,0.70949
3966.44,0.709084
3969.48,0.70862
3972.52,0.708383
3975.56,0.708286
3978.61,0.708413
3981.67,0.708578
3984.73,0.708736
3987.8,0.708807
3990.87,0.709085
3993.94,0.709606
3997.02,0.710262
4000.1,0.7111
4003.19,0.711943
4006.29,0.712389
4009.39,0.712789
4012.49,0.713487
4015.6,0.714043
4018.71,0.714312
4021.83,0.714616
4024.95,0.714766
4028.08,0.71503
4031.21,0.715292
4034.35,0.715645
4037.49,0.715993
4040.64,0.716207
4043.79,0.716195
4046.94,0.716232
4050.11,0.716616
4053.27,0.716917
4056.44,0.717123
4059.62,0.71712
4062.8,0.717143
4065.99,0.7173
4069.18,0.717181
4072.38,0.717109
4075.58,0.71715
4078.78,0.717203
4082.0,0.717171
4085.21,0.717143
4088.43,0.717187
4091.66,0.717401
4094.89,0.717238
4098.13,0.71714
4101.37,0.717305
4104.62,0.717554
4107.87,0.717377
4111.13,0.717118
4114.39,0.717177
4117.66,0.717203
4120.93,0.717127
4124.21,0.717117
4127.5,0.716953
4130.78,0.716891
4134.08,0.716807
4137.38,0.716855
4140.68,0.716902
4143.99,0.716795
4147.31,0.716753
4150.63,0.716765
4153.95,0.716491
4157.29,0.716314
4160.62,0.716215
4163.96,0.716224
4167.31,0.716176
4170.66,0.716091
4174.02,0.715704
4177.39,0.715663
4180.75,0.715734
4184.13,0.715588
4187.51,0.715072
4190.89,0.714761
4194.28,0.714681
4197.68,0.714396
4201.08,0.714108
4204.49,0.713775
4207.9,0.713231
4211.32,0.712746
4214.74,0.712341
4218.17,0.712061
4221.61,0.711605
4225.05,0.711418
4228.5,0.711053
4231.95,0.710768
4235.4,0.710285
4238.87,0.709945
4242.34,0.709609
4245.81,0.70916
4249.29,0.708676
4252.78,0.708263
4256.27,0.707419
4259.77,0.705913
4263.27,0.704194
4266.78,0.703545
4270.29,0.703311
4273.81,0.703144
4277.34,0.703121
4280.87,0.703013
4284.41,0.702728
4287.95,0.702545
4291.5,0.702281
4295.06,0.702171
4298.62,0.702349
4302.19,0.702252
4305.76,0.701963
4309.34,0.701869
4312.92,0.701758
4316.52,0.701566
4320.11,0.701101
4323.72,0.700823
4327.32,0.700712
4330.94,0.700442
4334.56,0.700121
4338.19,0.699836
4341.82,0.699397
4345.46,0.698995
4349.11,0.698661
4352.76,0.69817
4356.42,0.697549
4360.08,0.697083
4363.75,0.696543
4367.43,0.695916
4371.11,0.695389
4374.8,0.694919
4378.49,0.694401
4382.19,0.693732
4385.9,0.693032
4389.61,0.692517
4393.33,0.691841
4397.06,0.691224
4400.79,0.690626
4404.53,0.690174
4408.28,0.689651
4412.03,0.688931
4415.79,0.688205
4419.55,0.687661
4423.32,0.687188
4427.1,0.686747
4430.88,0.686048
4434.67,0.685403
4438.47,0.684889
4442.27,0.684328
4446.08,0.683834
4449.9,0.683165
4453.72,0.682401
4457.55,0.681942
4461.39,0.681397
4465.23,0.680691
4469.08,0.680072
4472.94,0.679374
4476.8,0.678643
4480.67,0.677937
4484.55,0.677142
4488.43,0.676372
4492.32,0.675622
4496.21,0.674951
4500.12,0.674307
4504.03,0.673547
4507.94,0.672653
4511.87,0.671898
4515.8,0.671139
4519.73,0.670264
4523.68,0.669194
4527.63,0.668402
4531.59,0.667581
4535.55,0.666765
4539.52,0.665864
4543.5,0.664876
4547.49,0.663725
4551.48,0.66277
4555.48,0.661911
4559.49,0.66093
4563.5,0.659854
4567.52,0.658868
4571.55,0.657715
4575.58,0.656725
4579.62,0.655789
4583.67,0.654782
4587.73,0.653633
4591.79,0.652502
4595.86,0.651521
4599.94,0.65049
4604.03,0.649295
4608.12,0.648157
4612.22,0.647049
4616.33,0.646021
4620.44,0.645053
4624.56,0.643883
4628.69,0.642509
4632.83,0.641534
4636.97,0.640574
4641.12,0.63948
4645.28,0.638377
4649.45,0.637509
4653.62,0.636573
4657.8,0.635548
4661.99,0.634554
4666.19,0.633709
4670.39,0.632703
4674.6,0.631641
4678.82,0.630805
4683.05,0.629914
4687.28,0.628866
4691.52,0.627978
4695.77,0.627018
4700.03,0.626124
4704.3,0.625231
4708.57,0.624354
4712.85,0.623653
4717.14,0.622931
4721.43,0.622058
4725.74,0.621191
4730.05,0.620304
4734.37,0.619767
4738.7,0.619098
4743.03,0.618458
4747.38,0.617712
4751.73,0.616932
4756.09,0.616128
4760.45,0.615544
4764.83,0.61489
4769.21,0.614212
4773.6,0.613491
4778.0,0.612874
4782.41,0.612271
4786.83,0.611526
4791.25,0.610853
4795.68,0.610204
4800.13,0.609552
4804.57,0.609156
4809.03,0.608744
4813.5,0.608112
4817.97,0.607329
4822.45,0.606637
4826.94,0.60596
4831.44,0.605364
4835.95,0.604919
4840.46,0.604285
4844.99,0.603449
4849.52,0.603029
4854.06,0.602497
4858.61,0.601895
4863.17,0.601383
4867.73,0.600835
4872.31,0.60013
4876.89,0.599384
4881.48,0.598629
4886.08,0.597969
4890.69,0.597405
4895.31,0.596676
4899.94,0.595991
4904.57,0.595395
4909.22,0.594643
4913.87,0.593862
4918.53,0.593032
4923.21,0.59216
4927.88,0.591403
4932.57,0.590707
4937.27,0.590033
4941.98,0.589291
4946.69,0.588436
4951.42,0.587576
4956.15,0.586629
4960.89,0.585859
4965.65,0.585181
4970.41,0.584153
4975.18,0.582987
4979.96,0.581934
4984.75,0.580848
4989.54,0.579857
4994.35,0.57868
4999.17,0.577429
5003.99,0.57633
5008.83,0.575139
5013.67,0.573752
5018.52,0.572292
5023.39,0.571142
5028.26,0.5701
5033.14,0.568462
5038.03,0.566887
5042.93,0.565288
5047.84,0.563528
5052.76,0.561702
5057.69,0.560047
5062.63,0.558312
5067.58,0.556494
5072.54,0.554559
5077.51,0.552702
5082.49,0.550671
5087.47,0.548791
5092.47,0.547011
5097.48,0.545015
5102.5,0.542895
5107.52,0.540969
5112.56,0.539252
5117.61,0.537436
5122.66,0.535535
5127.73,0.533532
5132.81,0.531569
5137.89,0.529625
5142.99,0.527586
5148.1,0.525521
5153.22,0.523807
5158.34,0.522089
5163.48,0.519743
5168.63,0.517821
5173.79,0.515907
5178.96,0.514119
5184.13,0.512325
5189.32,0.510662
5194.52,0.508829
5199.73,0.506904
5204.95,0.505364
5210.19,0.503906
5215.43,0.501639
5220.68,0.500631
5225.94,0.499267
5231.22,0.497352
5236.5,0.495676
5241.79,0.494237
5247.1,0.492961
5252.42,0.49165
5257.74,0.490214
5263.08,0.488849
5268.43,0.48761
5273.79,0.486304
5279.16,0.485218
5284.54,0.484359
5289.93,0.482771
5295.34,0.481376
5300.75,0.481028
5306.18,0.479843
5311.61,0.478516
5317.06,0.477371
5322.52,0.47621
5327.99,0.475202
5333.47,0.474093
5338.96,0.472883
5344.47,0.47161
5349.98,0.469891
5355.51,0.469236
5361.05,0.469199
5366.6,0.46753
5372.16,0.465774
5377.73,0.464359
5383.32,0.463253
5388.91,0.462006
5394.52,0.460788
5400.14,0.45935
5405.77,0.457959
5411.41,0.456509
5417.07,0.455156
5422.74,0.45314
5428.41,0.452724
5434.1,0.452256
5439.81,0.44988
5445.52,0.448216
5451.25,0.446817
5456.98,0.445402
5462.73,0.443561
5468.5,0.44227
5474.27,0.44202
5480.06,0.440225
5485.86,0.439116
5491.67,0.438006
5497.49,0.436246
5503.33,0.434937
5509.18,0.433712
5515.04,0.432715
5520.91,0.431414
5526.8,0.430353
5532.69,0.429241
5538.61,0.427891
5544.53,0.426364
5550.47,0.424829
5556.41,0.423307
5562.38,0.42246
5568.35,0.421072
5574.34,0.419322
5580.34,0.417599
5586.35,0.417952
5592.38,0.417979
5598.42,0.416489
5604.47,0.415225
5610.54,0.41487
5616.61,0.413916
5622.71,0.4131
5628.81,0.41222
5634.93,0.410884
5641.06,0.409329
5647.21,0.40906
5653.36,0.409823
5659.54,0.40826
5665.72,0.407749
5671.92,0.4062
5678.13,0.404821
5684.36,0.405123
5690.6,0.404265
5696.85,0.403136
5703.12,0.402985
5709.4,0.401253
5715.69,0.400802
5722.0,0.401424
5728.33,0.400959
5734.66,0.400062
5741.01,0.399144
5747.38,0.398124
5753.76,0.397583
5760.15,0.397018
5766.56,0.393689
5772.98,0.394123
5779.41,0.394748
5785.86,0.39217
5792.33,0.390553
5798.81,0.388924
5805.3,0.387548
5811.81,0.386366
5818.33,0.384133
5824.87,0.382282
5831.42,0.382756
5837.99,0.381712
5844.57,0.379683
5851.17,0.377453
5857.78,0.375531
5864.41,0.373565
5871.05,0.372532
5877.7,0.370371
5884.38,0.3676
5891.06,0.369027
5897.76,0.36631
5904.48,0.365311
5911.21,0.364364
5917.96,0.361569
5924.73,0.36005
5931.5,0.35824
5938.3,0.355942
5945.11,0.356985
5951.93,0.356394
5958.78,0.35368
5965.63,0.351874
5972.51,0.350147
5979.39,0.350407
5986.3,0.348662
5993.22,0.347375
6000.16,0.347358
6007.11,0.346136
6014.08,0.34405
6021.06,0.343721
6028.06,0.343412
6035.08,0.342225
6042.12,0.340636
6049.17,0.338357
6056.23,0.340189
6063.32,0.341889
6070.42,0.338679
6077.53,0.337909
6084.67,0.338795
6091.82,0.33787
6098.98,0.336485
6106.17,0.335907
6113.37,0.334791
6120.58,0.335856
6127.82,0.336654
6135.07,0.335149
6142.34,0.334068
6149.63,0.333913
6156.93,0.3337
6164.25,0.333319
6171.59,0.333587
6178.94,0.332703
6186.32,0.331432
6193.71,0.332444
6201.12,0.332644
6208.54,0.331259
6215.99,0.330717
6223.45,0.330381
6230.93,0.33003
6238.43,0.329352
6245.95,0.328963
6253.48,0.328548
6261.03,0.328168
6268.6,0.327815
6276.19,0.327579
6283.8,0.327381
6291.43,0.327249
6299.07,0.327155
6306.73,0.32713
6314.42,0.327112
6322.12,0.327282
6329.83,0.327328
6337.57,0.327231
6345.33,0.326754
6353.11,0.328371
6360.9,0.329327
6368.72,0.328219
6376.55,0.328592
6384.4,0.329838
6392.27,0.329373
6400.17,0.32946
6408.08,0.328801
6416.01,0.327916
6423.96,0.331156
6431.93,0.331561
6439.92,0.329936
6447.93,0.329686
6455.96,0.328939
6464.01,0.328797
6472.08,0.327828
6480.17,0.327147
6488.28,0.326412
6496.41,0.32581
6504.56,0.326725
6512.73,0.32615
6520.92,0.323839
6529.14,0.323524
6537.37,0.323035
6545.63,0.321574
6553.9,0.32056
6562.2,0.319848
6570.51,0.318515
6578.85,0.317641
6587.21,0.317714
6595.59,0.315991
6603.99,0.315119
6612.42,0.313775
6620.86,0.312421
6629.33,0.311041
6637.82,0.309529
6646.33,0.309963
6654.86,0.309728
6663.41,0.307594
6671.99,0.30608
6680.59,0.304916
6689.21,0.304404
6697.85,0.303929
6706.51,0.302345
6715.2,0.301286
6723.91,0.301054
6732.64,0.300223
6741.4,0.29928
6750.18,0.298076
6758.98,0.297127
6767.8,0.296189
6776.65,0.295127
6785.52,0.294105
6794.41,0.293211
6803.33,0.293026
6812.27,0.291792
6821.23,0.290238
6830.22,0.289209
6839.23,0.288743
6848.26,0.287681
6857.32,0.286275
6866.4,0.28527
6875.51,0.285503
6884.64,0.284247
6893.8,0.282435
6902.98,0.281172
6912.18,0.280052
6921.41,0.279229
6930.66,0.277968
6939.94,0.276639
6949.24,0.275257
6958.57,0.273868
6967.92,0.273003
6977.3,0.272371
6986.7,0.270644
6996.13,0.269475
7005.59,0.26851
7015.07,0.267495
7024.57,0.266244
7034.1,0.265405
7043.66,0.264052
7053.24,0.263301
7062.85,0.262837
7072.49,0.261681
7082.15,0.260533
7091.84,0.259519
7101.55,0.258386
7111.3,0.257265
7121.06,0.256009
7130.86,0.254892
7140.68,0.25358
7150.53,0.252247
7160.41,0.251032
7170.31,0.249632
7180.24,0.248399
7190.2,0.247112
7200.19,0.245473
7210.2,0.243913
7220.24,0.242438
7230.31,0.240838
7240.41,0.239024
7250.54,0.237272
7260.69,0.235314
7270.88,0.233253
7281.09,0.231067
7291.33,0.22914
7301.6,0.226891
7311.9,0.224706
7322.22,0.222483
7332.58,0.220279
7342.97,0.217913
7353.38,0.215515
7363.83,0.212885
7374.3,0.210379
7384.81,0.207659
7395.34,0.204919
7405.91,0.202103
7416.5,0.199277
7427.13,0.19635
7437.78,0.19354
7448.47,0.190572
7459.19,0.187653
7469.94,0.184415
7480.71,0.181117
7491.52,0.177896
7502.37,0.174611
7513.24,0.171002
7524.14,0.16737
7535.08,0.163606
7546.05,0.160042
7557.05,0.156237
7568.08,0.152427
7579.14,0.148583
7590.24,0.144676
7601.37,0.140488
7612.53,0.136501
7623.73,0.132365
7634.96,0.128219
7646.22,0.123959
7657.51,0.119827
7668.84,0.115467
7680.2,0.111257
7691.59,0.107092
7703.02,0.102869
7714.49,0.098638
7725.98,0.094579
7737.51,0.090309
7749.08,0.086112
7760.68,0.081893
7772.32,0.07799
7783.99,0.074197
7795.69,0.070366
7807.43,0.066546
7819.21,0.063119
7831.02,0.059671
7842.87,0.056511
7854.75,0.053265
7866.67,0.050217
7878.62,0.047443
7890.62,0.045148
7902.64,0.042817
7914.71,0.040886
7926.81,0.039191
7938.95,0.037944
7951.13,0.036835
7963.34,0.036306
7975.59,0.035966
7987.88,0.036056
8000.21,0.036592
8012.57,0.037758
8024.98,0.03936
8037.42,0.041698
8049.9,0.044628
8062.42,0.048274
8074.98,0.05256
8087.57,0.057619
8100.21,0.063242
8112.89,0.069664
8125.6,0.076594
8138.36,0.084126
8151.16,0.091954
8163.99,0.100475
8176.87,0.109301
8189.79,0.118201
8202.75,0.12697
8215.74,0.135757
8228.79,0.143949
8241.87,0.151363
8254.99,0.157837
8268.16,0.163389
8281.37,0.167603
8294.62,0.170325
8307.91,0.171471
8321.24,0.171118
8334.62,0.169254
8348.04,0.166583
8361.51,0.163227
8375.02,0.15944
8388.57,0.155407
8402.16,0.151314
8415.8,0.147275
8429.49,0.143531
8443.22,0.139884
8456.99,0.136641
8470.81,0.133695
8484.67,0.131177
8498.58,0.128746
8512.54,0.126502
8526.54,0.124392
8540.58,0.122534
8554.68,0.120793
8568.82,0.119304
8583.0,0.117676
8597.24,0.116125
8611.52,0.114595
8625.85,0.113271
8640.22,0.112024
8654.65,0.110767
8669.12,0.109573
8683.64,0.108504
8698.21,0.107219
8712.83,0.105905
8727.5,0.104578
8742.22,0.103541
8756.98,0.10245
8771.8,0.101153
8786.67,0.099726
8801.59,0.098627
8816.56,0.097542
8831.58,0.096356
8846.65,0.095071
8861.77,0.093927
8876.94,0.092589
8892.17,0.091469
8907.45,0.090369
8922.78,0.089458
8938.16,0.088356
8953.6,0.087276
8969.09,0.086095
8984.64,0.085241
9000.23,0.08427
9015.89,0.083448
9031.59,0.082508
9047.36,0.081496
9063.17,0.080417
9079.04,0.079564
9094.97,0.0788
9110.96,0.07822
9127.0,0.077423
9143.09,0.076753
9159.25,0.075986
9175.46,0.075307
9191.73,0.074779
9208.05,0.074486
9224.44,0.074233
9240.88,0.07415
9257.38,0.073835
9273.94,0.073897
9290.56,0.074012
9307.24,0.074302
9323.98,0.074724
9340.78,0.075336
9357.64,0.07585
9374.57,0.076583
9391.55,0.07735
9408.59,0.078125
9425.7,0.078855
9442.87,0.079768
9460.1,0.080489
9477.39,0.081268
9494.75,0.082015
9512.17,0.082831
9529.66,0.083727
9547.21,0.084734
9564.82,0.0854
9582.5,0.086102
9600.25,0.086759
9618.06,0.08711
9635.94,0.087348
9653.88,0.087885
9671.89,0.088437
9689.97,0.088836
9708.12,0.089014
9726.33,0.08918
9744.61,0.089327
9762.97,0.089471
9781.39,0.089319
9799.88,0.089441
9818.44,0.089595
9837.07,0.089849
9855.77,0.090309
9874.54,0.090717
9893.39,0.090828
9912.3,0.090881
9931.29,0.090833
9950.35,0.090921
9969.49,0.090631
9988.7,0.090403
10007.98,0.089993
10027.34,0.08953
10046.77,0.08897
10066.28,0.088451
10085.87,0.087898
10105.53,0.087591
10125.26,0.087033
10145.08,0.086519
10164.97,0.085961
10184.94,0.085389
10204.99,0.084831
10225.12,0.084504
10245.33,0.084477
10265.61,0.08449
10285.98,0.084212
10306.43,0.084249
10326.96,0.084427
10347.57,0.084776
10368.27,0.084934
10389.05,0.085149
10409.91,0.085354
10430.85,0.08561
10451.88,0.085838
10473.0,0.086282
10494.2,0.086708
10515.49,0.086793
10536.86,0.086651
10558.32,0.086812
10579.87,0.086842
10601.5,0.086932
10623.23,0.08697
10645.04,0.086795
10666.94,0.086495
10688.94,0.086456
10711.02,0.086508
10733.2,0.086812
10755.47,0.086992
10777.83,0.08738
10800.28,0.087698
10822.83,0.087835
10845.47,0.087956
10868.21,0.088438
10891.04,0.088823
10913.97,0.089068
10936.99,0.089181
10960.12,0.089646
10983.34,0.089989
11006.66,0.090688
11030.07,0.09147
11053.59,0.092302
11077.21,0.093188
11100.93,0.094347
11124.75,0.095666
11148.68,0.097373
11172.7,0.099344
11196.84,0.101791
11221.07,0.104414
11245.41,0.107198
11269.86,0.11035
11294.41,0.113582
11319.07,0.116821
11343.84,0.119837
11368.72,0.122449
11393.7,0.124969
11418.8,0.127487
11444.01,0.12987
11469.33,0.131586
11494.76,0.133206
11520.3,0.13455
11545.96,0.135827
11571.73,0.136833
11597.62,0.13787
11623.62,0.138874
11649.74,0.139805
11675.98,0.140921
11702.34,0.142136
11728.81,0.143271
11755.41,0.1447
11782.13,0.146003
11808.96,0.147499
11835.92,0.149027
11863.01,0.150731
11890.22,0.15229
11917.55,0.153993
11945.01,0.155414
11972.6,0.157121
12000.31,0.15872
12028.16,0.160026
12056.13,0.161101
12084.23,0.162255
12112.46,0.163277
12140.83,0.163802
12169.33,0.163471
12197.96,0.162598
12226.73,0.160643
12255.64,0.157653
12284.68,0.153522
12313.86,0.148748
12343.18,0.143143
12372.64,0.136996
12402.24,0.130646
12431.98,0.12437
12461.86,0.118039
12491.89,0.112171
12522.06,0.106692
12552.38,0.101936
12582.85,0.097152
12613.47,0.092532
12644.23,0.088309
12675.15,0.08449
12706.21,0.081174
12737.43,0.078447
12768.8,0.076149
12800.33,0.074289
12832.02,0.072792
12863.86,0.071701
12895.86,0.070509
12928.02,0.06939
12960.34,0.068519
12992.82,0.067908
13025.46,0.067095
13058.27,0.066228
13091.25,0.065695
13124.39,0.06529
13157.7,0.064543
13191.18,0.064172
13224.83,0.06399
13258.66,0.063841
13292.65,0.063752
13326.83,0.064123
13361.17,0.06482
13395.7,0.065649
13430.4,0.06618
13465.29,0.066621
13500.35,0.066868
13535.6,0.067311
13571.03,0.067634
13606.65,0.06768
13642.46,0.067487
13678.46,0.067455
13714.64,0.067273
13751.02,0.067119
13787.59,0.067113
13824.36,0.067253
13861.32,0.067503
13898.48,0.06778
13935.85,0.067588
13973.41,0.067453
14011.17,0.067614
14049.15,0.067355
14087.32,0.066862
14125.71,0.066687
14164.3,0.066434
14203.11,0.065986
14242.13,0.065426
14281.36,0.064846
14320.81,0.06385
14360.48,0.063119
14400.38,0.062303
14440.49,0.061399
14480.82,0.060342
14521.39,0.059039
14562.18,0.058149
14603.2,0.057837
14644.45,0.057311
14685.93,0.057017
14727.66,0.057032
14769.62,0.057045
14811.81,0.056818
14854.25,0.056855
14896.94,0.056889
14939.87,0.056824
14983.05,0.056598
15026.48,0.056713
15070.16,0.0572
15114.1,0.057973
15158.29,0.059206
15202.74,0.061303
15247.46,0.063949
15292.43,0.067285
15337.68,0.070989
15383.19,0.074744
15428.97,0.077978
15475.03,0.080674
15521.36,0.082206
15567.97,0.083152
15614.86,0.083879
15662.04,0.084135
15709.5,0.083984
15757.25,0.083773
15805.29,0.083346
15853.62,0.083106
15902.25,0.082884
15951.18,0.082664
16000.42,0.082344
16049.95,0.081668
16099.8,0.08096
16149.95,0.080957
16200.42,0.081279
16251.21,0.082506
16302.31,0.084858
16353.74,0.087475
16405.49,0.089474
16457.57,0.091261
16509.98,0.092796
16562.73,0.094145
16615.82,0.095139
16669.24,0.095858
16723.02,0.095442
16777.13,0.094959
16831.61,0.094647
16886.43,0.094386
16941.62,0.094349
16997.16,0.094536
17053.07,0.093838
17109.36,0.093698
17166.01,0.094345
17223.04,0.094791
17280.45,0.094472
17338.24,0.094266
17396.43,0.09406
17455.0,0.093783
17513.97,0.093349
17573.34,0.093122
17633.11,0.092613
17693.29,0.092031
17753.89,0.091017
17814.9,0.090321
17876.33,0.089789
17938.18,0.089339
18000.47,0.089083
18063.19,0.089572
18126.35,0.090683
18189.95,0.092282
18254.0,0.094271
18318.5,0.096712
18383.46,0.098531
18448.88,0.100653
18514.77,0.102432
18581.13,0.103177
18647.97,0.102065
18715.29,0.10087
18783.1,0.099854
18851.4,0.099676
18920.2,0.099659
18989.51,0.099497
19059.32,0.09881
19129.65,0.097185
19200.5,0.092851
19271.88,0.09409
19343.79,0.098117
19416.23,0.098785
19489.23,0.098989
19562.77,0.098192
19636.88,0.097411
19711.54,0.09752
19786.77,0.097359
19862.59,0.097018
19938.98,0.096339
20015.96,0.095723
20093.54,0.094222
20171.73,0.09169
20250.53,0.090182
20329.94,0.088619
20409.98,0.085532
20490.65,0.083125
20571.96,0.082081
20653.92,0.081228
20736.54,0.081537
20819.82,0.081485
20903.77,0.081341
20988.4,0.081415
21073.72,0.081991
21159.73,0.082519
21246.46,0.082513
21333.89,0.082812
21422.04,0.082892
21510.93,0.082527
21600.56,0.082036
21690.94,0.081992
21782.08,0.081604
21873.99,0.079876
21966.67,0.079189
22060.15,0.080035
22154.42,0.080223
22249.51,0.080935
22345.41,0.081217
22442.14,0.081129
22539.72,0.081476
22638.14,0.082738
22737.43,0.083859
22837.6,0.085702
22938.65,0.086882
23040.6,0.088509
23143.46,0.089499
23247.24,0.09084
23351.96,0.091417
23457.62,0.092183
23564.25,0.092935
23671.85,0.093527
23780.44,0.092599
23890.02,0.093655
24000.63,0.096584
24112.26,0.096671
24224.93,0.095237
24338.66,0.096381
24453.47,0.098551
24569.36,0.100135
24686.36,0.098932
24804.47,0.098795
24923.72,0.103403
25044.13,0.103707
25165.7,0.103243
25288.46,0.104767
25412.43,0.103988
25537.61,0.103452
25664.03,0.104557
25791.71,0.106928
25920.67,0.106192
