Database of Origin,University of Winnipeg Spectrophotometer Facility
Sample Description,Carbonates and Oxolates - RELAB+Nicolet spectra Newly merged spectra (merged by RELAB)
Other Information,Baked
Date Added,2018-08-06 20:49:02.935473

Data ID,RLA_CARB_1_38       
Sample ID,CRB210Bk
Mineral Name,Manasseite
Locality,Snarum/ Norway
Grain Size,<45 um
Viewing Geometry,30/0/30
Resolution,5/ 0.6-129 nm
Formula,Mg6Al2(CO3)(OH)16*4(H2O)
Composition,Grey with hydrtalcite and lizardite.

Wavelength
305.0,0.342441
310.0,0.360398
315.0,0.380534
320.0,0.39521
325.0,0.411039
330.0,0.422988
335.0,0.435534
340.0,0.448067
345.0,0.459012
350.0,0.471449
355.0,0.482706
360.0,0.495313
365.0,0.506948
370.0,0.518085
375.0,0.528873
380.0,0.539956
385.0,0.550885
390.0,0.561451
395.0,0.57225
400.0,0.580911
405.0,0.588024
410.0,0.595377
415.0,0.602019
420.0,0.607373
425.0,0.61391
430.0,0.618666
435.0,0.624038
440.0,0.627536
445.0,0.631848
450.0,0.634121
455.0,0.637404
460.0,0.639121
465.0,0.641674
470.0,0.643492
475.0,0.646663
480.0,0.647454
485.0,0.649766
490.0,0.651221
495.0,0.65372
500.0,0.654465
505.0,0.65627
510.0,0.657266
515.0,0.657885
520.0,0.658978
525.0,0.65949
530.0,0.659788
535.0,0.660536
540.0,0.660954
545.0,0.661841
550.0,0.662053
555.0,0.662727
560.0,0.663928
565.0,0.664885
570.0,0.66544
575.0,0.666808
580.0,0.667333
585.0,0.66852
590.0,0.669648
595.0,0.670249
600.0,0.670889
605.0,0.671737
610.0,0.671993
615.0,0.672734
620.0,0.67257
625.0,0.672491
630.0,0.673399
635.0,0.673258
640.0,0.673069
645.0,0.673618
650.0,0.673771
655.0,0.674424
660.0,0.674664
665.0,0.675085
670.0,0.675631
675.0,0.675291
680.0,0.676295
685.0,0.676219
690.0,0.676878
695.0,0.677942
700.0,0.678349
705.0,0.67952
710.0,0.679248
715.0,0.680046
720.0,0.679654
725.0,0.681915
730.0,0.681874
735.0,0.682802
740.0,0.682752
745.0,0.682935
750.0,0.684089
755.0,0.684519
760.0,0.68447
765.0,0.685538
770.0,0.683754
775.0,0.685319
780.0,0.684645
785.0,0.685142
790.0,0.683905
795.0,0.683386
800.0,0.684386
805.0,0.68375
810.0,0.684034
815.0,0.682669
820.0,0.682297
825.0,0.681366
830.0,0.680772
835.0,0.681589
840.0,0.681234
845.0,0.679851
850.0,0.679048
855.0,0.678213
860.0,0.678699
865.0,0.678074
870.0,0.679096
875.0,0.67956
880.0,0.679408
885.0,0.679174
890.0,0.678841
895.0,0.680712
900.0,0.679267
905.0,0.679293
910.0,0.680684
915.0,0.681371
920.0,0.680956
925.0,0.681352
930.0,0.68176
935.0,0.682579
940.0,0.681845
945.0,0.681972
950.0,0.682357
955.0,0.682395
960.0,0.682702
965.0,0.682971
970.0,0.682172
975.0,0.683064
980.0,0.68422
985.0,0.684089
990.0,0.684167
995.0,0.683373
1000.0,0.683024
1005.0,0.682812
1010.0,0.682373
1015.0,0.682431
1020.0,0.682295
1025.0,0.681311
1030.0,0.682413
1035.0,0.682511
1040.0,0.681342
1045.0,0.681626
1050.0,0.681748
1055.0,0.680021
1060.0,0.680622
1065.0,0.68008
1070.0,0.679866
1075.0,0.679334
1080.0,0.679498
1085.0,0.679369
1090.0,0.679096
1095.0,0.67855
1100.0,0.678385
1105.0,0.678255
1110.0,0.678504
1115.0,0.678514
1120.0,0.678048
1125.0,0.678136
1130.0,0.677894
1135.0,0.678015
1140.0,0.677473
1145.0,0.677338
1150.0,0.677181
1155.0,0.677568
1160.0,0.676943
1165.0,0.677571
1170.0,0.677189
1175.0,0.677071
1180.0,0.67724
1185.0,0.67715
1190.0,0.677147
1195.0,0.67745
1200.0,0.677537
1205.0,0.677594
1210.0,0.677413
1215.0,0.67737
1220.0,0.676836
1225.0,0.677076
1230.0,0.677421
1235.0,0.677332
1240.0,0.676627
1245.0,0.676317
1250.0,0.676314
1255.0,0.676329
1260.0,0.675808
1265.0,0.675485
1270.0,0.675336
1275.0,0.674354
1280.0,0.673616
1285.0,0.673241
1290.0,0.673027
1295.0,0.672712
1300.0,0.672581
1305.0,0.672052
1310.0,0.672439
1315.0,0.672562
1320.0,0.672146
1325.0,0.67237
1330.0,0.672286
1335.0,0.672017
1340.0,0.67178
1345.0,0.671835
1350.0,0.671021
1355.0,0.669612
1360.0,0.668442
1365.0,0.666896
1370.0,0.662834
1375.0,0.652658
1380.0,0.642154
1385.0,0.636383
1420.0,0.588764
1425.0,0.626064
1430.0,0.637035
1435.0,0.640269
1440.0,0.641113
1445.0,0.64132
1450.0,0.641358
1455.0,0.642054
1460.0,0.64131
1465.0,0.641225
1470.0,0.641527
1475.0,0.642449
1480.0,0.641767
1485.0,0.642417
1490.0,0.642383
1495.0,0.642765
1500.0,0.643046
1505.0,0.642954
1510.0,0.642664
1515.0,0.64244
1520.0,0.643032
1525.0,0.641534
1530.0,0.641415
1535.0,0.640654
1540.0,0.639894
1545.0,0.637459
1550.0,0.637129
1555.0,0.636481
1560.0,0.637105
1565.0,0.637347
1570.0,0.63735
1575.0,0.636986
1580.0,0.636859
1585.0,0.636852
1590.0,0.637038
1595.0,0.636706
1600.0,0.637821
1605.0,0.638117
1610.0,0.638563
1615.0,0.639617
1620.0,0.640236
1625.0,0.640485
1630.0,0.640542
1635.0,0.64106
1640.0,0.641674
1645.0,0.641846
1650.0,0.642848
1655.0,0.642709
1660.0,0.643079
1665.0,0.644097
1670.0,0.644518
1675.0,0.645203
1680.0,0.645361
1685.0,0.644987
1690.0,0.645092
1695.0,0.645384
1700.0,0.6448
1705.31,0.645696
1709.81,0.645612
1715.46,0.64583
1720.02,0.645855
1724.6,0.645303
1730.35,0.645332
1734.98,0.644961
1739.64,0.644616
1745.5,0.644384
1750.21,0.64419
1754.95,0.643264
1759.72,0.642744
1764.51,0.642338
1770.54,0.641932
1775.39,0.641584
1780.27,0.641395
1785.17,0.641037
1790.1,0.640467
1795.06,0.640064
1800.05,0.639518
1805.06,0.63891
1810.1,0.638245
1815.17,0.637778
1820.27,0.637284
1825.4,0.63678
1830.56,0.636171
1834.44,0.635632
1839.65,0.634849
1844.89,0.634228
1850.16,0.633424
1855.45,0.632586
1859.45,0.631878
1864.8,0.63119
1870.18,0.630173
1875.59,0.629137
1879.67,0.628302
1885.14,0.627094
1890.64,0.626273
1894.79,0.624297
1900.34,0.621716
1904.53,0.61961
1910.15,0.617469
1914.38,0.616466
1920.05,0.614998
1924.33,0.613883
1930.06,0.612428
1934.38,0.611223
1940.17,0.609709
1944.54,0.608484
1950.39,0.607106
1954.8,0.606145
1960.72,0.604881
1965.18,0.60372
1969.66,0.602541
1975.66,0.601441
1980.19,0.600984
1984.74,0.600685
1989.31,0.600086
1995.43,0.600153
2000.05,0.600401
2004.69,0.601587
2009.35,0.603192
2015.6,0.605686
2020.32,0.607491
2025.05,0.609133
2029.81,0.610418
2034.59,0.611624
2039.39,0.612762
2044.22,0.613646
2050.69,0.614567
2055.57,0.615215
2060.47,0.615731
2065.39,0.616281
2070.34,0.616536
2075.31,0.616809
2080.31,0.617023
2085.33,0.617123
2090.38,0.617149
2095.45,0.616969
2100.54,0.616731
2105.66,0.616444
2110.8,0.616227
2114.25,0.615982
2119.43,0.615873
2124.65,0.615747
2129.88,0.61511
2135.15,0.614378
2140.44,0.614182
2145.75,0.613905
2149.31,0.613732
2154.67,0.613245
2160.06,0.612591
2165.47,0.611757
2170.91,0.610719
2174.55,0.610182
2180.04,0.608753
2185.55,0.607066
2189.25,0.605909
2194.81,0.603976
2200.4,0.601625
2204.14,0.599678
2209.78,0.596436
2215.44,0.59289
2219.24,0.589866
2224.95,0.583911
2230.7,0.575604
2234.54,0.567853
2240.33,0.550923
2244.21,0.535754
2250.06,0.509566
2255.93,0.482271
2259.87,0.471048
2265.79,0.500603
2269.76,0.518021
2275.74,0.529592
2279.74,0.531852
2285.77,0.530723
2289.81,0.528241
2295.9,0.522044
2299.97,0.516165
2304.06,0.510847
2310.22,0.506483
2314.35,0.504325
2320.56,0.49974
2324.72,0.498019
2331.0,0.498737
2335.2,0.499563
2339.41,0.499391
2345.76,0.498052
2350.02,0.496416
2354.28,0.495967
2360.72,0.498173
2365.03,0.502789
2369.35,0.508818
2375.86,0.515404
2380.23,0.51734
2384.61,0.518336
2389.0,0.519306
2395.63,0.519443
2400.06,0.520633
2404.52,0.521906
2408.98,0.523287
2415.72,0.525102
2420.23,0.525557
2424.76,0.5243
2429.3,0.522242
2433.87,0.519973
2440.74,0.518611
2445.35,0.520917
2449.97,0.522226
2454.61,0.521839
2459.27,0.520678
2463.94,0.518441
2470.99,0.51574
2475.71,0.514301
2480.45,0.512535
2485.2,0.510826
2489.98,0.50975
2494.77,0.508703
2499.58,0.507217
2504.41,0.505816
2509.26,0.504489
2514.13,0.503535
2519.02,0.502669
2523.92,0.501531
2528.85,0.499586
2533.79,0.49758
2541.24,0.494532
2543.74,0.493711
2548.74,0.492638
2553.76,0.491376
2556.28,0.490254
2558.8,0.489126
2561.33,0.487941
2563.86,0.486642
2566.4,0.485986
2568.95,0.485238
2571.5,0.484281
2574.05,0.483696
2576.61,0.483486
2579.17,0.483341
2581.74,0.483022
2584.31,0.482187
2586.89,0.481656
2589.48,0.481546
2592.07,0.481686
2594.66,0.481287
2597.26,0.480676
2599.87,0.480888
2602.48,0.480914
2605.09,0.480377
2607.71,0.479673
2610.34,0.479235
2612.97,0.478966
2615.61,0.478444
2618.25,0.477665
2620.9,0.476659
2623.55,0.475836
2626.21,0.475004
2628.87,0.473968
2631.54,0.473163
2634.22,0.472599
2636.89,0.47155
2639.58,0.470335
2642.27,0.468662
2644.97,0.46632
2647.67,0.463596
2650.38,0.460837
2653.09,0.457913
2655.81,0.454885
2658.53,0.451429
2661.26,0.447515
2664.0,0.442738
2666.74,0.436861
2669.48,0.429838
2672.23,0.420673
2674.99,0.407829
2677.76,0.390894
2680.52,0.367979
2683.3,0.342811
2686.08,0.317164
2688.87,0.292125
2691.66,0.269571
2694.46,0.250315
2697.26,0.232184
2700.07,0.215595
2702.89,0.201811
2705.71,0.190454
2708.53,0.178667
2711.37,0.16757
2714.21,0.15779
2717.05,0.150409
2719.9,0.143883
2722.76,0.137511
2725.62,0.131647
2728.49,0.126661
2731.37,0.12274
2734.25,0.119927
2737.14,0.116987
2740.03,0.113603
2742.93,0.109975
2745.83,0.105932
2748.75,0.10227
2751.66,0.098948
2754.59,0.095686
2757.52,0.092164
2760.46,0.088297
2763.4,0.084334
2766.35,0.078494
2769.3,0.072216
2772.26,0.071061
2775.23,0.074109
2778.21,0.07642
2781.19,0.077332
2784.18,0.077258
2787.17,0.076813
2790.17,0.076143
2793.18,0.074982
2796.19,0.073841
2799.21,0.072736
2802.24,0.071677
2805.27,0.070807
2808.31,0.069916
2811.35,0.069013
2814.41,0.068295
2817.46,0.067663
2820.53,0.067198
2823.6,0.066627
2826.68,0.066103
2829.77,0.065706
2832.86,0.065326
2835.96,0.064999
2839.07,0.064794
2842.18,0.064507
2845.3,0.063976
2848.43,0.063537
2851.56,0.06332
2854.7,0.062987
2857.85,0.062693
2861.0,0.062093
2864.16,0.061354
2867.33,0.060785
2870.51,0.060332
2873.69,0.059668
2876.88,0.059054
2880.07,0.058273
2883.28,0.057589
2886.49,0.057042
2889.71,0.056472
2892.93,0.05587
2896.17,0.05535
2899.4,0.054562
2902.65,0.053883
2905.91,0.05312
2909.17,0.052067
2912.44,0.051308
2915.71,0.051162
2918.99,0.050537
2922.29,0.050359
2925.58,0.050321
2928.89,0.050361
2932.2,0.050451
2935.52,0.050809
2938.85,0.051626
2942.19,0.051869
2945.53,0.053193
2948.88,0.054262
2952.24,0.055087
2955.61,0.056995
2958.98,0.058076
2962.36,0.059735
2965.75,0.060845
2969.15,0.062263
2972.55,0.063324
2975.97,0.064519
2979.39,0.065838
2986.25,0.068696
2989.7,0.069566
2993.15,0.070411
2996.61,0.071159
3000.08,0.07219
3003.55,0.072785
3007.04,0.074207
3010.53,0.076054
3014.03,0.077519
3017.54,0.079413
3021.06,0.081021
3024.58,0.082694
3028.12,0.084503
3031.66,0.08564
3035.21,0.087132
3038.77,0.088369
3042.33,0.089498
3045.91,0.090813
3049.49,0.092231
3053.08,0.093855
3056.68,0.095674
3060.29,0.097392
3063.91,0.098789
3067.54,0.100517
3071.17,0.101649
3074.81,0.103151
3078.47,0.104316
3082.13,0.105437
3085.79,0.106528
3089.47,0.108016
3093.16,0.10937
3096.85,0.111385
3100.56,0.113991
3104.27,0.116332
3107.99,0.119045
3111.73,0.121947
3115.47,0.12475
3119.21,0.127437
3122.97,0.130017
3126.74,0.132837
3130.52,0.135649
3134.3,0.137897
3138.1,0.140305
3141.9,0.142623
3145.71,0.144736
3149.54,0.147322
3153.37,0.149286
3157.21,0.151498
3161.06,0.15372
3164.92,0.155639
3168.79,0.157661
3172.67,0.159775
3176.55,0.161839
3180.45,0.163766
3184.36,0.1658
3188.27,0.167748
3192.2,0.169522
3196.14,0.171532
3200.08,0.173414
3204.04,0.175462
3208.0,0.177574
3211.98,0.179374
3215.96,0.181451
3219.96,0.183087
3223.96,0.185093
3227.98,0.187276
3232.0,0.18917
3236.04,0.191049
3240.08,0.193276
3244.14,0.194969
3248.2,0.197071
3252.28,0.199109
3256.37,0.201085
3260.46,0.203029
3264.57,0.204995
3268.69,0.207083
3272.81,0.208681
3276.95,0.210793
3281.1,0.212905
3285.26,0.214746
3289.43,0.216902
3293.61,0.218724
3297.8,0.220612
3302.0,0.222737
3306.21,0.224539
3310.43,0.226661
3314.66,0.228578
3318.91,0.230475
3323.16,0.232397
3327.43,0.234163
3331.71,0.236257
3335.99,0.23804
3340.29,0.239685
3344.6,0.24148
3348.92,0.243563
3353.26,0.244861
3357.6,0.246787
3361.96,0.248436
3366.32,0.250201
3370.7,0.252051
3375.09,0.253664
3379.49,0.255279
3383.9,0.257272
3388.32,0.259077
3392.76,0.26087
3397.21,0.262464
3401.66,0.264059
3406.13,0.26573
3410.61,0.267292
3415.11,0.268803
3419.61,0.27039
3424.13,0.272503
3428.66,0.274175
3433.2,0.275486
3437.76,0.277043
3442.32,0.278888
3446.9,0.280201
3451.49,0.281681
3456.09,0.283133
3460.7,0.284803
3465.33,0.286171
3469.97,0.287821
3474.62,0.289677
3479.29,0.291514
3483.96,0.293742
3488.65,0.29571
3493.35,0.297735
3498.07,0.300205
3502.79,0.302212
3507.53,0.304703
3512.29,0.306959
3517.05,0.308857
3521.83,0.311094
3526.62,0.313228
3531.43,0.315388
3536.24,0.317456
3541.08,0.319509
3543.5,0.320478
3545.92,0.321473
3548.35,0.322541
3550.78,0.323637
3553.21,0.324518
3555.65,0.325311
3558.09,0.326167
3560.53,0.327056
3562.98,0.32784
3565.43,0.328716
3567.88,0.329693
3570.34,0.330516
3572.8,0.331402
3575.27,0.332377
3577.73,0.333031
3580.2,0.333622
3582.68,0.334394
3585.16,0.33525
3587.64,0.33606
3590.12,0.336722
3592.61,0.337338
3595.1,0.338026
3597.6,0.338843
3600.09,0.339548
3602.6,0.34035
3605.1,0.341244
3607.61,0.342207
3610.12,0.343137
3612.64,0.344174
3615.16,0.345239
3617.68,0.346317
3620.21,0.34729
3622.74,0.348246
3625.27,0.349248
3627.81,0.350457
3630.35,0.35157
3632.89,0.352409
3635.44,0.353291
3637.99,0.354225
3640.54,0.355172
3643.1,0.356216
3645.66,0.357131
3648.23,0.357862
3650.8,0.358598
3653.37,0.359461
3655.95,0.360206
3658.53,0.360928
3661.11,0.361717
3663.7,0.362517
3666.29,0.363286
3668.89,0.364071
3671.48,0.364827
3674.09,0.365546
3676.69,0.366203
3679.3,0.366836
3681.91,0.367586
3684.53,0.368274
3687.15,0.368756
3689.78,0.369502
3692.4,0.370299
3695.04,0.370992
3697.67,0.371579
3700.31,0.372073
3702.95,0.372617
3705.6,0.373239
3708.25,0.373737
3710.91,0.374292
3713.56,0.374863
3716.23,0.375406
3718.89,0.375973
3721.56,0.376497
3724.23,0.377001
3726.91,0.377614
3729.59,0.377994
3732.28,0.378449
3734.97,0.378978
3737.66,0.379457
3740.36,0.379849
3743.06,0.380285
3745.76,0.380781
3748.47,0.381251
3751.18,0.381675
3753.9,0.382161
3756.62,0.382525
3759.34,0.382895
3762.07,0.38339
3764.8,0.383972
3767.54,0.384428
3770.28,0.384871
3773.02,0.385372
3775.77,0.385812
3778.52,0.386194
3781.28,0.386681
3784.04,0.387215
3786.8,0.387665
3789.57,0.387983
3792.34,0.388287
3795.12,0.388717
3797.9,0.389313
3800.69,0.389688
3803.47,0.390043
3806.27,0.390568
3809.06,0.391001
3811.86,0.391293
3814.67,0.391722
3817.48,0.392149
3820.29,0.392598
3823.11,0.392999
3825.93,0.39347
3828.76,0.393945
3831.59,0.394315
3834.42,0.394537
3837.26,0.394931
3840.1,0.395257
3842.95,0.395561
3845.8,0.396011
3848.65,0.396445
3851.51,0.396694
3854.38,0.397033
3857.24,0.397411
3860.12,0.397755
3862.99,0.398073
3865.87,0.398446
3868.76,0.398847
3871.65,0.399134
3874.54,0.399375
3877.44,0.399716
3880.34,0.400182
3883.25,0.400527
3886.16,0.400829
3889.07,0.401213
3891.99,0.401475
3894.92,0.401774
3897.85,0.40214
3900.78,0.402624
3903.72,0.403197
3906.66,0.403701
3909.6,0.403977
3912.55,0.404238
3915.51,0.404738
3918.47,0.405318
3921.43,0.405702
3924.4,0.406007
3927.38,0.406332
3930.35,0.406737
3933.33,0.407226
3936.32,0.407725
3939.31,0.408039
3942.31,0.408294
3945.31,0.408689
3948.31,0.409084
3951.32,0.409388
3954.34,0.409778
3957.35,0.410098
3960.38,0.41042
3963.41,0.410725
3966.44,0.411061
3969.48,0.411338
3972.52,0.411524
3975.56,0.411811
3978.61,0.41219
3981.67,0.412358
3984.73,0.412502
3987.8,0.412767
3990.87,0.413162
3993.94,0.413425
3997.02,0.413682
4000.1,0.413788
4003.19,0.414001
4006.29,0.414342
4009.39,0.41473
4012.49,0.414915
4015.6,0.415052
4018.71,0.41522
4021.83,0.41544
4024.95,0.415672
4028.08,0.415783
4031.21,0.415954
4034.35,0.416078
4037.49,0.416166
4040.64,0.416401
4043.79,0.416557
4046.94,0.416675
4050.11,0.416801
4053.27,0.41695
4056.44,0.417053
4059.62,0.417196
4062.8,0.417353
4065.99,0.417582
4069.18,0.417671
4072.38,0.417846
4075.58,0.418117
4078.78,0.418143
4082.0,0.418167
4085.21,0.418316
4088.43,0.418364
4091.66,0.418454
4094.89,0.418526
4098.13,0.418622
4101.37,0.418714
4104.62,0.418849
4107.87,0.418858
4111.13,0.418906
4114.39,0.418974
4117.66,0.419086
4120.93,0.41915
4124.21,0.419193
4127.5,0.419233
4130.79,0.419344
4134.08,0.419335
4137.38,0.419409
4140.68,0.419418
4143.99,0.41953
4147.31,0.419589
4150.63,0.41961
4153.95,0.419578
4157.29,0.419528
4160.62,0.419633
4163.96,0.419849
4167.31,0.419856
4170.66,0.419929
4174.02,0.42
4177.39,0.419937
4180.75,0.419886
4184.13,0.419999
4187.51,0.420002
4190.89,0.420034
4194.28,0.420051
4197.68,0.420033
4201.08,0.4201
4204.49,0.420195
4207.9,0.420157
4211.32,0.42011
4214.74,0.420122
4218.17,0.420135
4221.61,0.420083
4225.05,0.420108
4228.5,0.420102
4231.95,0.420132
4235.4,0.420067
4238.87,0.420054
4242.34,0.42
4245.81,0.419873
4249.29,0.419775
4252.78,0.419601
4256.27,0.419261
4259.77,0.418997
4263.27,0.418903
4266.78,0.419026
4270.29,0.418997
4273.81,0.418867
4277.34,0.418813
4280.87,0.418761
4284.41,0.418486
4287.95,0.418362
4291.5,0.418219
4295.06,0.418063
4298.62,0.417885
4302.19,0.417754
4305.76,0.417403
4309.34,0.417114
4312.92,0.416958
4316.52,0.416898
4320.11,0.416628
4323.72,0.416436
4327.32,0.416285
4330.94,0.416146
4334.56,0.415843
4338.19,0.415634
4341.82,0.415369
4345.46,0.415121
4349.11,0.414914
4352.76,0.414942
4356.42,0.414786
4360.08,0.414564
4363.75,0.414401
4367.43,0.414336
4371.11,0.414044
4374.8,0.413823
4378.49,0.413574
4382.19,0.413432
4385.9,0.413297
4389.61,0.413063
4393.33,0.412756
4397.06,0.41251
4400.79,0.412329
4404.53,0.412201
4408.28,0.412003
4412.03,0.411855
4415.79,0.411542
4419.55,0.411327
4423.32,0.411065
4427.1,0.410713
4430.88,0.410432
4434.68,0.410085
4438.47,0.409657
4442.28,0.40942
4446.08,0.409153
4449.9,0.408854
4453.72,0.408395
4457.55,0.407971
4461.39,0.407626
4465.23,0.407268
4469.08,0.406663
4472.94,0.406222
4476.8,0.405839
4480.67,0.405335
4484.55,0.40473
4488.43,0.404254
4492.32,0.403684
4496.21,0.40303
4500.12,0.402372
4504.03,0.401587
4507.94,0.400831
4511.87,0.400209
4515.8,0.399358
4519.73,0.398475
4523.68,0.397612
4527.63,0.39675
4531.59,0.395746
4535.55,0.394726
4539.52,0.393583
4543.5,0.392472
4547.49,0.391176
4551.48,0.389878
4555.48,0.38857
4559.49,0.387258
4563.5,0.385825
4567.52,0.384393
4571.55,0.382851
4575.58,0.381318
4579.63,0.379754
4583.67,0.378218
4587.73,0.376488
4591.79,0.37479
4595.86,0.373118
4599.94,0.371495
4604.03,0.369811
4608.12,0.368251
4612.22,0.36679
4616.33,0.365553
4620.44,0.364363
4624.56,0.363224
4628.69,0.362142
4632.83,0.361238
4636.97,0.36041
4641.12,0.359738
4645.28,0.359032
4649.45,0.358393
4653.62,0.357737
4657.8,0.357239
4661.99,0.356762
4666.19,0.356114
4670.39,0.355297
4674.6,0.354647
4678.82,0.354003
4683.05,0.353345
4687.28,0.352587
4691.52,0.351797
4695.77,0.350932
4700.03,0.350105
4704.3,0.34937
4708.57,0.348536
4712.85,0.347583
4717.14,0.346765
4721.43,0.345893
4725.74,0.344911
4730.05,0.343869
4734.37,0.342831
4738.7,0.341659
4743.03,0.340396
4747.38,0.339072
4751.73,0.337773
4756.09,0.336396
4760.45,0.334955
4764.83,0.333423
4769.21,0.332118
4773.6,0.330814
4778.0,0.329395
4782.41,0.328003
4786.83,0.326885
4791.25,0.325796
4795.68,0.324779
4800.13,0.323832
4804.57,0.322998
4809.03,0.32225
4813.5,0.321603
4817.97,0.321014
4822.45,0.320529
4826.94,0.320016
4831.44,0.319684
4835.95,0.319341
4840.46,0.319014
4844.99,0.318745
4849.52,0.318453
4854.06,0.317973
4858.61,0.317633
4863.17,0.317173
4867.73,0.316615
4872.31,0.316007
4876.89,0.315355
4881.48,0.314624
4886.08,0.313866
4890.69,0.312985
4895.31,0.312205
4899.94,0.311456
4904.57,0.310775
4909.22,0.310026
4913.87,0.309317
4918.53,0.308505
4923.21,0.307697
4927.88,0.306848
4932.57,0.30607
4937.27,0.30522
4941.98,0.304461
4946.69,0.303734
4951.42,0.303003
4956.15,0.302166
4960.9,0.301464
4965.65,0.300877
4970.41,0.300267
4975.18,0.299681
4979.96,0.29928
4984.75,0.298946
4989.54,0.29867
4994.35,0.298416
4999.17,0.298245
5003.99,0.298044
5008.83,0.297821
5013.67,0.297539
5018.52,0.297205
5023.39,0.296765
5028.26,0.29626
5033.14,0.295481
5038.03,0.294838
5042.93,0.294278
5047.84,0.293574
5052.76,0.292657
5057.69,0.2918
5062.63,0.290904
5067.58,0.290021
5072.54,0.289223
5077.51,0.288511
5082.49,0.287592
5087.47,0.286807
5092.47,0.286139
5097.48,0.285588
5102.5,0.285089
5107.52,0.284554
5112.56,0.283872
5117.61,0.2834
5122.66,0.282882
5127.73,0.282326
5132.81,0.281652
5137.89,0.280861
5142.99,0.280013
5148.1,0.279098
5153.22,0.278099
5158.34,0.277123
5163.48,0.276149
5168.63,0.275303
5173.79,0.274422
5178.96,0.273738
5184.13,0.273038
5189.32,0.272421
5194.52,0.271995
5199.73,0.271659
5204.96,0.271157
5210.19,0.270838
5215.43,0.270587
5220.68,0.270418
5225.94,0.270204
5231.22,0.269962
5236.5,0.269776
5241.79,0.269684
5247.1,0.269671
5252.42,0.269839
5257.74,0.27013
5263.08,0.270485
5268.43,0.270886
5273.79,0.27152
5279.16,0.272267
5284.54,0.273114
5289.93,0.274046
5295.34,0.275028
5300.75,0.275856
5306.18,0.276719
5311.61,0.277528
5317.06,0.278437
5322.52,0.27918
5327.99,0.279831
5333.47,0.280342
5338.96,0.280867
5344.47,0.281286
5349.98,0.281633
5355.51,0.281944
5361.05,0.282288
5366.6,0.28242
5372.16,0.282553
5377.73,0.282562
5383.32,0.282592
5388.91,0.282505
5394.52,0.282322
5400.14,0.282098
5405.77,0.281993
5411.41,0.281721
5417.07,0.281344
5422.74,0.281007
5428.41,0.28078
5434.1,0.280438
5439.81,0.280055
5445.52,0.279553
5451.25,0.279117
5456.98,0.278578
5462.73,0.277929
5468.5,0.277183
5474.27,0.276534
5480.06,0.275854
5485.86,0.27507
5491.67,0.274127
5497.49,0.273198
5503.33,0.272207
5509.18,0.271308
5515.04,0.270282
5520.91,0.26927
5526.8,0.268118
5532.69,0.266954
5538.61,0.265828
5544.53,0.264796
5550.47,0.263719
5556.41,0.26262
5562.38,0.261409
5568.35,0.260341
5574.34,0.259207
5580.34,0.258059
5586.35,0.256892
5592.38,0.256014
5598.42,0.255131
5604.47,0.254171
5610.54,0.253133
5616.61,0.252278
5622.71,0.251365
5628.81,0.250467
5634.93,0.249543
5641.06,0.248658
5647.21,0.247569
5653.36,0.246625
5659.54,0.245707
5665.72,0.244786
5671.92,0.243704
5678.13,0.242527
5684.36,0.241236
5690.6,0.240081
5696.85,0.238764
5703.12,0.237399
5709.4,0.236064
5715.69,0.234666
5722.0,0.233186
5728.33,0.231845
5734.66,0.230473
5741.01,0.229077
5747.38,0.227629
5753.76,0.226344
5760.15,0.225052
5766.56,0.223825
5772.98,0.222358
5779.41,0.221144
5785.86,0.220145
5792.33,0.219108
5798.81,0.218025
5805.3,0.217015
5811.81,0.21597
5818.33,0.214942
5824.87,0.213773
5831.42,0.212514
5837.99,0.211359
5844.57,0.210332
5851.17,0.209201
5857.78,0.208084
5864.41,0.206828
5871.05,0.205739
5877.7,0.204616
5884.38,0.203408
5891.06,0.202087
5897.76,0.201067
5904.48,0.199942
5911.21,0.19889
5917.96,0.197802
5924.73,0.196627
5931.5,0.195364
5938.3,0.194115
5945.11,0.19248
5951.93,0.191097
5958.78,0.189756
5965.63,0.188366
5972.51,0.186783
5979.39,0.185125
5986.3,0.183679
5993.22,0.182209
6000.16,0.180549
6007.11,0.179211
6014.08,0.177847
6021.06,0.176418
6028.06,0.175137
6035.08,0.174011
6042.12,0.172754
6049.17,0.171585
6056.23,0.170315
6063.32,0.169321
6070.42,0.168414
6077.53,0.167441
6084.67,0.166336
6091.82,0.165345
6098.98,0.164181
6106.17,0.162935
6113.37,0.161514
6120.58,0.159899
6127.82,0.158135
6135.07,0.156445
6142.34,0.154451
6149.63,0.152139
6156.93,0.14955
6164.25,0.146998
6171.59,0.144154
6178.95,0.141284
6186.32,0.138305
6193.71,0.134846
6201.12,0.131265
6208.54,0.127995
6215.99,0.124404
6223.45,0.120766
6230.93,0.11715
6238.43,0.113711
6245.95,0.110146
6253.48,0.106765
6261.03,0.103566
6268.6,0.100565
6276.19,0.097619
6283.8,0.094999
6291.43,0.092622
6299.07,0.090472
6306.73,0.08854
6314.42,0.086915
6322.12,0.085571
6329.84,0.084513
6337.57,0.083761
6345.33,0.083343
6353.11,0.083053
6360.9,0.083072
6368.72,0.083322
6376.55,0.083818
6384.4,0.08447
6392.27,0.085287
6400.17,0.086291
6408.08,0.087318
6416.01,0.088192
6423.96,0.088887
6431.93,0.089751
6439.92,0.090638
6447.93,0.091218
6455.96,0.09174
6464.01,0.092165
6472.08,0.092405
6480.17,0.092569
6488.28,0.092811
6496.41,0.092943
6504.56,0.092878
6512.73,0.093051
6520.92,0.093407
6529.14,0.093661
6537.37,0.094017
6545.63,0.094592
6553.9,0.095206
6562.2,0.095866
6570.51,0.096646
6578.85,0.097561
6587.21,0.09854
6595.59,0.0997
6603.99,0.100925
6612.42,0.102171
6620.86,0.103571
6629.33,0.10504
6637.82,0.106498
6646.33,0.107997
6654.86,0.109614
6663.41,0.111257
6671.99,0.11279
6680.59,0.114208
6689.21,0.115588
6697.85,0.116998
6706.51,0.118448
6715.2,0.119799
6723.91,0.12095
6732.64,0.122186
6741.4,0.123388
6750.18,0.124501
6758.98,0.125494
6767.8,0.126375
6776.65,0.127153
6785.52,0.127914
6794.41,0.128694
6803.33,0.129316
6812.27,0.129777
6821.23,0.130179
6830.22,0.130411
6839.23,0.130434
6848.26,0.130357
6857.32,0.130092
6866.4,0.129668
6875.51,0.129157
6884.64,0.128625
6893.8,0.128052
6902.98,0.12733
6912.18,0.126376
6921.41,0.125276
6930.66,0.124093
6939.94,0.122775
6949.24,0.121456
6958.57,0.120224
6967.92,0.118797
6977.3,0.117344
6986.7,0.116075
6996.13,0.114829
7005.59,0.113551
7015.07,0.112408
7024.57,0.111377
7034.1,0.110456
7043.66,0.109622
7053.25,0.108735
7062.85,0.107834
7072.49,0.107193
7082.15,0.106447
7091.84,0.105702
7101.55,0.104996
7111.3,0.104293
7121.06,0.103577
7130.86,0.102774
7140.68,0.102033
7150.53,0.101374
7160.41,0.100525
7170.31,0.099607
7180.24,0.098681
7190.2,0.097815
7200.19,0.096888
7210.2,0.095937
7220.24,0.094865
7230.31,0.093814
7240.41,0.09274
7250.54,0.091727
7260.69,0.09082
7270.88,0.089941
7281.09,0.088902
7291.33,0.087819
7301.6,0.086918
7311.9,0.086087
7322.22,0.08526
7332.58,0.08452
7342.97,0.083887
7353.38,0.083318
7363.83,0.082624
7374.3,0.082001
7384.81,0.081437
7395.34,0.081063
7405.91,0.08053
7416.5,0.079774
7427.13,0.079072
7437.78,0.078575
7448.47,0.078029
7459.19,0.077535
7469.94,0.077214
7480.71,0.077074
7491.52,0.077099
7502.37,0.077598
7513.24,0.078483
7524.14,0.079656
7535.08,0.081064
7546.05,0.082781
7557.05,0.084694
7568.08,0.086747
7579.15,0.089068
7590.24,0.091629
7601.37,0.094269
7612.53,0.097075
7623.73,0.100069
7634.96,0.102964
7646.22,0.106076
7657.51,0.109361
7668.84,0.112544
7680.2,0.115796
7691.59,0.119145
7703.02,0.122406
7714.49,0.125522
7725.98,0.12858
7737.52,0.131568
7749.08,0.13431
7760.68,0.136754
7772.32,0.139023
7783.99,0.14107
7795.69,0.142789
7807.43,0.144247
7819.21,0.145552
7831.02,0.146569
7842.87,0.14745
7854.75,0.148266
7866.67,0.148802
7878.62,0.149115
7890.62,0.149429
7902.64,0.149573
7914.71,0.149462
7926.81,0.149186
7938.95,0.148757
7951.13,0.148205
7963.34,0.147616
7975.59,0.146944
7987.88,0.146105
8000.21,0.145165
8012.57,0.144168
8024.98,0.143031
8037.42,0.141844
8049.9,0.140672
8062.42,0.139568
8074.98,0.138452
8087.57,0.137358
8100.21,0.136303
8112.89,0.135221
8125.6,0.134228
8138.36,0.133319
8151.16,0.132373
8163.99,0.131417
8176.87,0.130355
8189.79,0.129262
8202.75,0.128181
8215.75,0.12708
8228.79,0.125985
8241.87,0.124954
8254.99,0.123882
8268.16,0.122715
8281.37,0.121634
8294.62,0.120501
8307.91,0.119276
8321.24,0.118021
8334.62,0.116582
8348.04,0.115079
8361.51,0.113538
8375.02,0.111921
8388.57,0.110313
8402.16,0.108664
8415.8,0.106863
8429.49,0.104924
8443.22,0.103009
8456.99,0.101281
8470.81,0.099561
8484.67,0.097606
8498.58,0.095676
8512.54,0.093782
8526.54,0.091905
8540.58,0.089991
8554.68,0.088122
8568.82,0.086336
8583.0,0.08441
8597.24,0.082506
8611.52,0.080762
8625.85,0.079063
8640.23,0.077394
8654.65,0.075899
8669.12,0.074284
8683.64,0.072757
8698.21,0.071361
8712.83,0.069934
8727.5,0.068539
8742.22,0.067314
8756.99,0.066266
8771.8,0.06531
8786.67,0.064465
8801.59,0.063786
8816.56,0.063276
8831.58,0.062902
8846.65,0.062436
8861.77,0.062191
8876.94,0.062266
8892.17,0.062517
8907.45,0.062908
8922.78,0.063591
8938.16,0.064476
8953.6,0.065681
8969.09,0.067087
8984.64,0.068665
9000.23,0.070478
9015.89,0.072588
9031.59,0.074787
9047.36,0.077064
9063.17,0.079184
9079.05,0.081109
9094.97,0.08313
9110.96,0.08502
9127.0,0.086643
9143.1,0.088154
9159.25,0.089519
9175.46,0.090979
9191.73,0.09243
9208.06,0.093862
9224.44,0.095363
9240.88,0.096996
9257.38,0.098764
9273.94,0.100505
9290.56,0.102093
9307.24,0.103359
9323.98,0.104196
9340.78,0.104991
9357.64,0.105689
9374.57,0.106025
9391.55,0.106051
9408.59,0.105905
9425.7,0.105626
9442.87,0.105211
9460.1,0.10454
9477.4,0.103574
9494.75,0.102614
9512.17,0.101682
9529.66,0.100636
9547.21,0.099797
9564.83,0.099013
9582.5,0.098176
9600.25,0.097365
9618.06,0.096606
9635.94,0.095932
9653.88,0.095637
9671.89,0.095452
9689.97,0.095098
9708.12,0.094378
9726.33,0.0934
9744.62,0.092355
9762.97,0.091185
9781.39,0.089701
9799.88,0.088098
9818.44,0.086374
9837.07,0.084467
9855.77,0.082528
9874.54,0.080587
9893.39,0.078578
9912.3,0.076781
9931.29,0.075469
9950.36,0.074351
9969.49,0.073077
9988.7,0.071831
10007.98,0.070663
10027.34,0.069504
10046.77,0.068529
10066.28,0.06759
10085.87,0.066468
10105.53,0.065452
10125.26,0.064573
10145.08,0.063566
10164.97,0.062448
10184.94,0.061268
10204.99,0.059874
10225.12,0.058644
10245.33,0.05763
10265.61,0.056675
10285.98,0.055781
10306.43,0.055169
10326.96,0.054524
10347.57,0.053943
10368.27,0.053505
10389.05,0.053227
10409.91,0.052857
10430.86,0.052664
10451.88,0.052491
10473.0,0.052234
10494.2,0.052141
10515.49,0.051939
10536.86,0.051608
10558.32,0.051307
10579.87,0.05078
10601.5,0.050267
10623.23,0.049742
10645.04,0.049042
10666.94,0.048227
10688.94,0.047826
10711.02,0.047586
10733.2,0.047146
10755.47,0.046892
10777.83,0.046933
10800.28,0.046851
10822.83,0.046756
10845.47,0.046622
10868.21,0.046561
10891.04,0.046554
10913.97,0.046542
10936.99,0.046465
10960.12,0.046434
10983.34,0.04628
11006.66,0.046049
11030.07,0.045942
11053.59,0.046048
11077.21,0.045999
11100.93,0.045808
11124.75,0.045538
11148.68,0.045368
11172.71,0.045153
11196.84,0.045025
11221.07,0.044878
11245.41,0.044711
11269.86,0.044336
11294.41,0.043974
11319.07,0.043665
11343.84,0.043304
11368.72,0.042795
11393.7,0.042256
11418.8,0.041891
11444.01,0.041571
11469.33,0.041023
11494.76,0.040467
11520.3,0.039824
11545.96,0.039248
11571.73,0.038681
11597.62,0.038056
11623.62,0.037566
11649.74,0.037358
11675.98,0.037252
11702.34,0.03703
11728.81,0.036838
11755.41,0.03703
11782.13,0.03746
11808.96,0.037952
11835.92,0.038486
11863.01,0.038873
11890.22,0.039204
11917.55,0.039643
11945.01,0.040026
11972.6,0.040486
12000.31,0.040735
12028.16,0.041012
12056.13,0.041043
12084.23,0.041203
12112.46,0.041386
12140.83,0.041299
12169.33,0.041217
12197.96,0.041108
12226.73,0.040801
12255.64,0.040674
12284.68,0.04054
12313.86,0.040329
12343.18,0.040138
12372.64,0.040171
12402.24,0.040145
12431.98,0.040086
12461.86,0.040042
12491.89,0.03988
12522.07,0.039759
12552.38,0.03967
12582.85,0.039619
12613.47,0.039576
12644.23,0.039505
12675.15,0.0395
12706.21,0.039582
12737.43,0.039638
12768.81,0.03971
12800.33,0.039814
12832.02,0.039788
12863.86,0.039829
12895.86,0.040076
12928.02,0.040296
12960.34,0.040204
12992.82,0.04
13025.46,0.039903
13058.27,0.040024
13091.25,0.040047
13124.39,0.039941
13157.7,0.039771
13191.18,0.039604
13224.83,0.039324
13258.66,0.039033
13292.65,0.038802
13326.83,0.038514
13361.17,0.038067
13395.7,0.037621
13430.4,0.037203
13465.29,0.036939
13500.35,0.036646
13535.6,0.03611
13571.03,0.035618
13606.65,0.035347
13642.46,0.03505
13678.46,0.034838
13714.64,0.034612
13751.02,0.034384
13787.59,0.034358
13824.36,0.034562
13861.32,0.03445
13898.49,0.034342
13935.85,0.034574
13973.41,0.035251
14011.17,0.036206
14049.15,0.037736
14087.32,0.039006
14125.71,0.039453
14164.3,0.04009
14203.11,0.040436
14242.13,0.040633
14281.36,0.040775
14320.81,0.040761
14360.49,0.040844
14400.38,0.041354
14440.49,0.042204
14480.82,0.0431
14521.39,0.044293
14562.18,0.045862
14603.2,0.047319
14644.45,0.048052
14685.93,0.048323
14727.66,0.048454
14769.62,0.048323
14811.81,0.048215
14854.25,0.048129
14896.94,0.047839
14939.87,0.047332
14983.05,0.046956
15026.48,0.046634
15070.16,0.046229
15114.1,0.045946
15158.29,0.045335
15202.74,0.044799
15247.46,0.044457
15292.43,0.04413
15337.68,0.043379
15383.19,0.042901
15428.97,0.042652
15475.03,0.042166
15521.36,0.041449
15567.97,0.040988
15614.87,0.040486
15662.04,0.040036
15709.5,0.039472
15757.25,0.039137
15805.29,0.038932
15853.62,0.038851
15902.26,0.038727
15951.19,0.038668
16000.42,0.038986
16049.95,0.039697
16099.8,0.040601
16149.95,0.041807
16200.42,0.04301
16251.21,0.044084
16302.31,0.045226
16353.74,0.04618
16405.49,0.046345
16457.57,0.046596
16509.98,0.047283
16562.73,0.047845
16615.82,0.047895
16669.24,0.047712
16723.02,0.047667
16777.14,0.047791
16831.61,0.048042
16886.43,0.048345
16941.62,0.04882
16997.16,0.049297
17053.08,0.049583
17109.36,0.049722
17166.01,0.049963
17223.04,0.050669
17280.45,0.051925
17338.24,0.053234
17396.43,0.054233
17455.0,0.055086
17513.97,0.05624
17573.34,0.058049
17633.11,0.059459
17693.29,0.061145
17753.89,0.062967
17814.9,0.064257
17876.33,0.065064
17938.18,0.065687
18000.47,0.066184
18063.19,0.066542
18126.35,0.066158
18189.95,0.065372
18254.0,0.064454
18318.5,0.064233
18383.46,0.064419
18448.88,0.064856
18514.77,0.065664
18581.13,0.066637
18647.97,0.067083
18715.29,0.067934
18783.1,0.06882
18851.4,0.069433
18920.2,0.069894
18989.51,0.070183
19059.32,0.070414
19129.65,0.070959
19200.5,0.071514
19271.88,0.071462
19343.79,0.071382
19416.24,0.072545
19489.23,0.074198
19562.77,0.07604
19636.88,0.07807
19711.54,0.080693
19786.78,0.083569
19862.59,0.086208
19938.98,0.088311
20015.96,0.090694
20093.55,0.09258
20171.73,0.093954
20250.53,0.094235
20329.94,0.093991
20409.98,0.093576
20490.65,0.092967
20571.96,0.091851
20653.92,0.091127
20736.54,0.090771
20819.82,0.09069
20903.77,0.090019
20988.4,0.090109
21073.72,0.090013
21159.73,0.090315
21246.46,0.092573
21333.89,0.095922
21422.04,0.097051
21510.93,0.09806
21600.56,0.099463
21690.94,0.09995
21782.08,0.099912
21873.99,0.099386
21966.67,0.098129
22060.15,0.097225
22154.42,0.096008
22249.51,0.095496
22345.41,0.094777
22442.14,0.095058
22539.72,0.09636
22638.14,0.096097
22737.43,0.095015
22837.6,0.093874
22938.65,0.092046
23040.6,0.090191
23143.46,0.087977
23247.24,0.085824
23351.96,0.083668
23457.63,0.082645
23564.25,0.081267
23671.85,0.080599
23780.44,0.081406
23890.02,0.084088
24000.63,0.086373
24112.26,0.088226
24224.93,0.088914
24338.66,0.089583
24453.47,0.087288
24569.36,0.086817
24686.36,0.087982
24804.47,0.091091
24923.73,0.092028
25044.13,0.09279
25165.71,0.089514
25288.46,0.088533
25412.43,0.091143
25537.61,0.09427
25664.04,0.096
25791.72,0.100638
25920.68,0.103595
