Database of Origin,University of Winnipeg Spectrophotometer Facility
Sample Description,"RELAB + Nicolet merged data for spinels. Merged @2500nm, different viewing geometries. See Master Spinels in the PSF database for additional information."
Date Added,2016-11-08 17:54:00.475627

Data ID,RLA_SPI_13          
Sample ID,SPI122
Mineral Name,Spinel
Grain Size,<45
Viewing Geometry,"30/0,30/30"
Resolution,5/1.2-129
Composition,Mg
Material Class,Oxide

Wavelength
300.0,0.435019
305.0,0.452879
310.0,0.467123
315.0,0.480863
320.0,0.491805
325.0,0.498701
330.0,0.50367
335.0,0.50835
340.0,0.513041
345.0,0.512865
350.0,0.515114
355.0,0.517437
360.0,0.517375
365.0,0.515297
370.0,0.513718
375.0,0.511275
380.0,0.509294
385.0,0.50837
390.0,0.508551
395.0,0.511053
400.0,0.516448
405.0,0.52163
410.0,0.525005
415.0,0.528164
420.0,0.532445
425.0,0.54197
430.0,0.550398
435.0,0.55864
440.0,0.566193
445.0,0.573256
450.0,0.579061
455.0,0.58297
460.0,0.587463
465.0,0.590336
470.0,0.592133
475.0,0.593576
480.0,0.594995
485.0,0.595776
490.0,0.594204
495.0,0.592912
500.0,0.591023
505.0,0.589056
510.0,0.588558
515.0,0.583523
520.0,0.580806
525.0,0.579255
530.0,0.577954
535.0,0.578295
540.0,0.578641
545.0,0.579911
550.0,0.582874
555.0,0.588484
560.0,0.592087
565.0,0.597329
570.0,0.601822
575.0,0.606503
580.0,0.610421
585.0,0.613946
590.0,0.617957
595.0,0.620819
600.0,0.622327
605.0,0.624813
610.0,0.626301
615.0,0.626785
620.0,0.627814
625.0,0.628348
630.0,0.628949
635.0,0.629396
640.0,0.629065
645.0,0.630057
650.0,0.629927
655.0,0.630159
660.0,0.629018
665.0,0.628918
670.0,0.629842
675.0,0.628932
680.0,0.629073
685.0,0.628448
690.0,0.628005
695.0,0.628492
700.0,0.628769
705.0,0.627696
710.0,0.625382
715.0,0.626113
720.0,0.626333
725.0,0.62686
730.0,0.626192
735.0,0.625382
740.0,0.625592
745.0,0.623876
750.0,0.62126
755.0,0.621816
760.0,0.621428
765.0,0.621493
770.0,0.620914
775.0,0.620719
780.0,0.620672
785.0,0.621686
790.0,0.62042
795.0,0.620803
800.0,0.621637
805.0,0.620995
810.0,0.621468
815.0,0.620803
820.0,0.620639
825.0,0.619851
830.0,0.620381
835.0,0.620333
840.0,0.620486
845.0,0.620341
850.0,0.619858
855.0,0.619671
860.0,0.620232
865.0,0.620268
870.0,0.620385
875.0,0.619533
880.0,0.620692
885.0,0.619567
890.0,0.619822
895.0,0.620472
900.0,0.620713
905.0,0.619177
910.0,0.619974
915.0,0.619183
920.0,0.619293
925.0,0.61927
930.0,0.619332
935.0,0.620037
940.0,0.618981
945.0,0.618873
950.0,0.618661
955.0,0.619158
960.0,0.619673
965.0,0.619369
970.0,0.619413
975.0,0.619206
980.0,0.619206
985.0,0.618665
990.0,0.619309
995.0,0.618717
1000.0,0.618289
1005.0,0.618238
1010.0,0.618388
1015.0,0.618173
1020.0,0.618404
1025.0,0.61781
1030.0,0.618065
1035.0,0.618097
1040.0,0.618682
1045.0,0.617827
1050.0,0.6181
1055.0,0.617978
1060.0,0.618149
1065.0,0.61819
1070.0,0.617954
1075.0,0.61775
1080.0,0.618063
1085.0,0.617888
1090.0,0.61796
1095.0,0.617901
1100.0,0.618025
1105.0,0.618223
1110.0,0.61811
1115.0,0.618435
1120.0,0.618306
1125.0,0.618433
1130.0,0.618204
1135.0,0.618762
1140.0,0.61859
1145.0,0.617951
1150.0,0.618804
1155.0,0.618231
1160.0,0.617755
1165.0,0.618404
1170.0,0.61881
1175.0,0.618765
1180.0,0.618862
1185.0,0.618705
1190.0,0.618713
1195.0,0.619351
1200.0,0.618817
1205.0,0.619259
1210.0,0.618301
1215.0,0.618968
1220.0,0.618426
1225.0,0.618746
1230.0,0.619644
1235.0,0.619292
1240.0,0.619481
1245.0,0.619406
1250.0,0.619834
1255.0,0.619342
1260.0,0.620051
1265.0,0.619966
1270.0,0.61978
1275.0,0.619166
1280.0,0.61892
1285.0,0.618803
1290.0,0.619372
1295.0,0.619208
1300.0,0.619602
1305.0,0.619252
1310.0,0.619246
1315.0,0.619408
1320.0,0.619396
1325.0,0.619078
1330.0,0.618776
1335.0,0.619428
1340.0,0.619129
1345.0,0.619782
1350.0,0.619759
1355.0,0.6219
1360.0,0.619884
1365.0,0.62052
1370.0,0.621341
1375.0,0.619301
1380.0,0.617725
1385.0,0.620744
1390.0,0.620602
1395.0,0.62086
1400.0,0.619482
1405.0,0.620226
1410.0,0.621141
1415.0,0.619452
1420.0,0.619032
1425.0,0.618155
1430.0,0.617917
1435.0,0.617839
1440.0,0.618225
1445.0,0.618163
1450.0,0.616484
1455.0,0.6173
1460.0,0.616667
1465.0,0.616883
1470.0,0.616637
1475.0,0.616049
1480.0,0.616662
1485.0,0.615519
1490.0,0.614863
1495.0,0.615064
1500.0,0.614945
1505.0,0.614599
1510.0,0.613248
1515.0,0.613907
1520.0,0.613142
1525.0,0.613054
1530.0,0.612337
1535.0,0.611976
1540.0,0.61185
1545.0,0.611073
1550.0,0.610934
1555.0,0.61093
1560.0,0.609813
1565.0,0.609837
1570.0,0.609202
1575.0,0.608654
1580.0,0.607919
1585.0,0.607408
1590.0,0.606296
1595.0,0.606511
1600.0,0.605511
1605.0,0.605174
1610.0,0.604268
1615.0,0.604428
1620.0,0.603047
1625.0,0.602092
1630.0,0.602015
1635.0,0.60078
1640.0,0.599322
1645.0,0.598841
1650.0,0.598084
1655.0,0.5975
1660.0,0.596454
1665.0,0.596265
1670.0,0.595589
1675.0,0.594806
1680.0,0.59278
1685.0,0.593123
1690.0,0.591235
1695.0,0.590207
1700.0,0.591127
1705.0,0.588545
1710.0,0.587712
1715.0,0.587144
1720.0,0.585778
1725.0,0.584781
1730.0,0.584189
1735.0,0.582812
1740.0,0.581927
1745.0,0.580377
1750.0,0.57971
1755.0,0.578687
1760.0,0.577185
1765.0,0.576394
1770.0,0.575537
1775.0,0.574599
1780.0,0.573248
1785.0,0.572436
1790.0,0.571252
1795.0,0.570354
1800.0,0.569459
1805.0,0.568647
1810.0,0.567428
1815.0,0.566521
1820.0,0.564396
1825.0,0.56447
1830.0,0.563523
1835.0,0.562152
1840.0,0.560353
1845.0,0.560949
1850.0,0.559348
1855.0,0.559245
1860.0,0.558629
1865.0,0.558895
1870.0,0.556979
1875.0,0.555477
1880.0,0.556915
1885.0,0.557764
1890.0,0.557384
1895.0,0.556813
1900.0,0.555275
1905.0,0.554074
1910.0,0.553752
1915.0,0.553784
1920.0,0.554125
1925.0,0.554244
1930.0,0.554036
1935.0,0.554463
1940.0,0.554198
1945.0,0.554267
1950.0,0.554181
1955.0,0.554107
1960.0,0.554291
1965.0,0.554665
1970.0,0.554671
1975.0,0.554442
1980.0,0.554474
1985.0,0.55474
1990.0,0.554676
1995.0,0.554925
2000.0,0.555194
2005.0,0.556228
2010.0,0.555774
2015.0,0.555548
2020.0,0.556219
2025.0,0.555493
2030.0,0.555951
2035.0,0.556108
2040.0,0.556164
2045.0,0.556046
2050.0,0.556391
2055.0,0.556405
2060.0,0.556243
2065.0,0.556789
2070.0,0.557039
2075.0,0.557183
2080.0,0.557744
2085.0,0.558445
2090.0,0.558897
2095.0,0.55927
2100.0,0.558756
2105.0,0.559393
2110.0,0.559918
2115.0,0.56018
2120.0,0.56127
2125.0,0.561899
2130.0,0.562365
2135.0,0.562919
2140.0,0.562827
2145.0,0.563654
2150.0,0.564102
2155.0,0.5644
2160.0,0.56466
2165.0,0.564558
2170.0,0.564638
2175.0,0.56522
2180.0,0.566007
2185.0,0.566641
2190.0,0.567762
2195.0,0.568255
2200.0,0.568455
2205.0,0.569723
2210.0,0.570795
2215.0,0.57072
2220.0,0.571853
2225.0,0.573258
2230.0,0.573892
2235.0,0.57456
2240.0,0.576078
2245.0,0.577241
2250.0,0.577613
2255.0,0.578653
2260.0,0.579522
2265.0,0.580639
2270.0,0.58075
2275.0,0.582063
2280.0,0.582585
2285.0,0.583941
2290.0,0.584827
2295.0,0.585651
2300.0,0.587025
2305.0,0.587647
2310.0,0.587739
2315.0,0.588721
2320.0,0.588754
2325.0,0.589781
2330.0,0.590249
2335.0,0.590424
2340.0,0.590724
2345.0,0.591244
2350.0,0.591327
2355.0,0.591014
2360.0,0.591226
2365.0,0.592152
2370.0,0.592148
2375.0,0.592789
2380.0,0.592305
2385.0,0.593635
2390.0,0.59428
2395.0,0.593885
2400.0,0.594642
2405.0,0.59513
2410.0,0.595128
2415.0,0.594806
2420.0,0.595289
2425.0,0.594805
2430.0,0.595481
2435.0,0.595491
2440.0,0.595485
2445.0,0.595649
2450.0,0.595056
2455.0,0.59475
2460.0,0.595387
2465.0,0.595495
2470.0,0.595207
2475.0,0.594789
2480.0,0.594753
2485.0,0.594418
2490.0,0.595091
2495.0,0.595221
2500.0,0.595465
2502.0,0.596088
2503.2,0.595565
2504.41,0.595001
2505.62,0.594785
2506.83,0.595511
2508.05,0.596145
2509.26,0.595526
2510.48,0.595249
2511.69,0.59541
2512.91,0.595569
2514.13,0.595585
2515.35,0.595371
2516.57,0.595269
2517.79,0.595768
2519.02,0.596009
2520.24,0.59575
2521.47,0.595319
2522.69,0.595652
2523.92,0.595282
2525.15,0.59528
2526.38,0.595803
2527.61,0.595657
2528.85,0.595513
2530.08,0.595264
2531.32,0.594537
2532.55,0.594617
2533.79,0.595119
2535.03,0.595853
2536.27,0.595996
2537.51,0.595565
2538.75,0.595663
2540.0,0.595567
2541.24,0.595452
2542.49,0.596107
2543.74,0.596047
2544.99,0.595077
2546.24,0.595288
2547.49,0.595874
2548.74,0.59609
2549.99,0.596506
2551.25,0.596332
2552.5,0.595127
2553.76,0.594779
2555.02,0.595175
2556.28,0.595502
2557.54,0.595177
2558.8,0.594892
2560.07,0.595302
2561.33,0.595977
2562.6,0.595182
2563.86,0.594759
2565.13,0.594955
2566.4,0.595193
2567.67,0.595389
2568.95,0.594443
2570.22,0.59414
2571.5,0.594336
2572.77,0.595158
2574.05,0.595471
2575.33,0.59526
2576.61,0.595238
2577.89,0.594637
2579.17,0.594811
2580.46,0.594914
2581.74,0.594931
2583.03,0.594829
2584.31,0.594899
2585.6,0.594387
2586.89,0.595365
2588.19,0.595136
2589.48,0.595005
2590.77,0.594811
2592.07,0.594779
2593.36,0.594648
2594.66,0.594833
2595.96,0.594032
2597.26,0.594243
2598.56,0.595413
2599.87,0.595578
2601.17,0.595661
2602.48,0.595099
2603.78,0.594903
2605.09,0.594528
2606.4,0.594275
2607.71,0.594842
2609.03,0.59536
2610.34,0.59492
2611.66,0.594672
2612.97,0.594526
2614.29,0.594452
2615.61,0.595051
2616.93,0.595195
2618.25,0.594411
2619.57,0.595082
2620.9,0.595099
2622.22,0.594103
2623.55,0.595001
2624.88,0.59501
2626.21,0.594755
2627.54,0.593994
2628.87,0.594238
2630.21,0.594628
2631.54,0.593284
2632.88,0.593698
2634.21,0.594256
2635.55,0.593981
2636.89,0.595051
2638.24,0.594933
2639.58,0.594777
2640.92,0.594408
2642.27,0.594086
2643.62,0.593755
2644.97,0.593746
2646.32,0.593324
2647.67,0.593328
2649.02,0.593663
2650.38,0.593914
2651.73,0.594245
2653.09,0.594193
2654.45,0.593663
2655.81,0.593729
2657.17,0.59382
2658.53,0.593877
2659.89,0.593511
2661.26,0.593345
2662.63,0.593454
2664.0,0.593066
2665.36,0.592827
2666.74,0.592045
2668.11,0.592494
2669.48,0.592602
2670.86,0.592374
2672.23,0.591679
2673.61,0.593428
2674.99,0.592539
2676.37,0.592095
2677.76,0.591709
2679.14,0.591908
2680.52,0.592119
2681.91,0.591884
2683.3,0.59203
2684.69,0.59143
2686.08,0.590947
2687.47,0.590276
2688.87,0.589476
2690.26,0.589102
2691.66,0.58854
2693.06,0.58771
2694.46,0.586594
2695.86,0.58591
2697.26,0.585477
2698.66,0.583767
2700.07,0.58229
2701.48,0.580131
2702.89,0.578563
2704.3,0.577393
2705.71,0.575785
2707.12,0.574234
2708.53,0.573703
2709.95,0.57286
2711.37,0.572916
2712.79,0.573437
2714.21,0.573666
2715.63,0.572781
2717.05,0.57259
2718.48,0.573171
2719.9,0.572642
2721.33,0.571873
2722.76,0.571378
2724.19,0.571252
2725.62,0.569633
2727.06,0.569165
2728.49,0.569037
2729.93,0.567886
2731.37,0.566527
2732.81,0.565758
2734.25,0.565255
2735.69,0.564386
2737.14,0.562917
2738.58,0.562562
2740.03,0.561844
2741.48,0.560654
2742.93,0.560014
2744.38,0.559837
2745.83,0.558972
2747.29,0.557955
2748.75,0.55743
2750.2,0.55674
2751.66,0.556014
2753.13,0.555045
2754.59,0.554001
2756.05,0.55245
2757.52,0.550708
2758.99,0.550734
2760.46,0.549703
2761.93,0.548255
2763.4,0.547468
2764.87,0.547845
2766.35,0.548178
2767.82,0.547849
2769.3,0.54725
2770.78,0.547057
2772.26,0.546603
2773.75,0.546336
2775.23,0.546076
2776.72,0.545506
2778.21,0.545181
2779.7,0.544991
2781.19,0.544185
2782.68,0.543247
2784.18,0.543131
2785.67,0.543262
2787.17,0.542732
2788.67,0.541981
2790.17,0.542244
2791.67,0.542033
2793.18,0.541332
2794.68,0.540879
2796.19,0.540863
2797.7,0.540134
2799.21,0.539458
2800.72,0.539129
2802.24,0.53875
2803.75,0.537862
2805.27,0.537315
2806.79,0.537117
2808.31,0.536583
2809.83,0.536433
2811.35,0.535936
2812.88,0.535315
2814.41,0.535197
2815.93,0.534572
2817.46,0.533882
2819.0,0.533775
2820.53,0.533455
2822.07,0.53333
2823.6,0.533063
2825.14,0.532487
2826.68,0.531882
2828.22,0.531494
2829.77,0.531261
2831.31,0.53118
2832.86,0.531128
2834.41,0.530237
2835.96,0.529799
2837.51,0.530008
2839.07,0.529902
2840.62,0.529172
2842.18,0.528889
2843.74,0.528579
2845.3,0.528608
2846.86,0.528566
2848.43,0.527982
2849.99,0.527438
2851.56,0.52768
2853.13,0.527723
2854.7,0.527527
2856.27,0.527161
2857.85,0.526477
2859.42,0.526194
2861.0,0.526172
2862.58,0.525987
2864.16,0.525787
2865.75,0.525545
2867.33,0.525238
2868.92,0.524902
2870.51,0.5249
2872.1,0.524961
2873.69,0.524695
2875.28,0.524336
2876.88,0.524048
2878.48,0.524358
2880.07,0.524077
2881.68,0.52387
2883.28,0.524149
2884.88,0.524233
2886.49,0.523944
2888.1,0.523885
2889.71,0.523512
2891.32,0.523434
2892.93,0.523547
2894.55,0.523475
2896.16,0.523608
2897.78,0.5238
2899.4,0.524044
2901.03,0.524273
2902.65,0.524212
2904.28,0.524011
2905.91,0.52392
2907.54,0.524007
2909.17,0.524129
2910.8,0.524571
2912.44,0.524968
2914.07,0.524552
2915.71,0.52458
2917.35,0.524573
2918.99,0.524279
2920.64,0.524233
2922.29,0.524517
2923.93,0.524894
2925.58,0.525046
2927.24,0.525172
2928.89,0.525573
2930.55,0.525811
2932.2,0.526076
2933.86,0.526127
2935.52,0.525952
2937.19,0.525845
2938.85,0.526072
2940.52,0.526832
2942.19,0.526819
2943.86,0.526455
2945.53,0.526294
2947.21,0.526453
2948.88,0.52695
2950.56,0.527229
2952.24,0.527187
2953.92,0.527261
2955.61,0.527612
2957.29,0.527475
2958.98,0.527695
2960.67,0.528409
2962.36,0.528599
2964.06,0.528967
2965.75,0.529318
2967.45,0.5293
2969.15,0.529144
2970.85,0.529028
2972.55,0.529442
2974.26,0.52974
2975.97,0.52978
2977.68,0.529775
2979.39,0.529945
2981.1,0.529893
2982.82,0.530026
2984.53,0.530385
2986.25,0.530825
2987.97,0.531204
2989.7,0.531348
2991.42,0.53149
2993.15,0.531954
2994.88,0.53201
2996.61,0.531982
2998.34,0.532355
3000.08,0.532725
3001.82,0.532653
3003.55,0.53271
3005.3,0.533198
3007.04,0.533505
3008.78,0.533642
3010.53,0.533938
3012.28,0.534354
3014.03,0.534485
3015.79,0.534881
3017.54,0.535247
3019.3,0.535367
3021.06,0.536136
3022.82,0.536653
3024.58,0.536838
3026.35,0.537164
3028.12,0.537378
3029.89,0.537818
3031.66,0.538356
3033.43,0.538689
3035.21,0.539227
3036.99,0.539535
3038.77,0.539975
3040.55,0.540245
3042.33,0.540473
3044.12,0.541053
3045.91,0.541645
3047.7,0.541985
3049.49,0.542286
3051.29,0.54278
3053.08,0.543785
3054.88,0.544517
3056.68,0.545229
3058.49,0.54576
3060.29,0.546142
3062.1,0.546675
3063.91,0.547425
3065.72,0.547765
3067.54,0.548486
3069.35,0.549102
3071.17,0.549621
3072.99,0.550285
3074.81,0.550936
3076.64,0.551514
3078.47,0.552034
3080.29,0.552557
3082.13,0.552975
3083.96,0.553317
3085.79,0.55399
3087.63,0.554324
3089.47,0.55455
3091.31,0.555014
3093.16,0.556012
3095.01,0.556559
3096.85,0.556705
3098.71,0.557219
3100.56,0.557711
3102.41,0.557983
3104.27,0.558541
3106.13,0.559166
3107.99,0.559402
3109.86,0.559741
3111.73,0.560275
3113.59,0.560321
3115.47,0.560408
3117.34,0.561199
3119.21,0.561782
3121.09,0.562149
3122.97,0.5628
3124.86,0.56327
3126.74,0.563704
3128.63,0.564301
3130.52,0.565122
3132.41,0.565353
3134.3,0.565503
3136.2,0.565826
3138.1,0.566261
3140.0,0.566828
3141.9,0.567303
3143.81,0.567703
3145.71,0.568093
3147.62,0.568514
3149.54,0.569106
3151.45,0.569731
3153.37,0.570198
3155.29,0.57023
3157.21,0.570348
3159.13,0.570788
3161.06,0.571489
3162.99,0.571845
3164.92,0.572112
3166.85,0.572701
3168.79,0.573189
3170.72,0.573901
3172.67,0.574441
3174.61,0.574596
3176.55,0.574942
3178.5,0.5756
3180.45,0.576018
3182.4,0.576485
3184.36,0.576874
3186.32,0.577171
3188.27,0.577336
3190.24,0.577478
3192.2,0.577711
3194.17,0.577972
3196.14,0.578571
3198.11,0.579064
3200.08,0.579388
3202.06,0.579822
3204.04,0.579983
3206.02,0.580098
3208.0,0.580475
3209.99,0.581033
3211.98,0.581362
3213.97,0.581336
3215.96,0.581449
3217.96,0.582085
3219.96,0.58244
3221.96,0.582447
3223.96,0.582652
3225.97,0.583092
3227.98,0.583623
3229.99,0.583856
3232.0,0.58383
3234.02,0.584096
3236.04,0.584298
3238.06,0.584349
3240.08,0.584573
3242.11,0.584791
3244.14,0.585192
3246.17,0.585438
3248.2,0.585697
3250.24,0.586035
3252.28,0.586202
3254.32,0.586405
3256.37,0.586812
3258.41,0.586886
3260.46,0.586902
3262.51,0.587176
3264.57,0.587514
3266.63,0.588041
3268.69,0.588542
3270.75,0.588762
3272.81,0.588895
3274.88,0.589178
3276.95,0.589474
3279.02,0.590041
3281.1,0.590317
3283.18,0.590139
3285.26,0.590365
3287.34,0.591045
3289.43,0.591539
3291.51,0.591581
3293.61,0.591515
3295.7,0.591772
3297.8,0.592141
3299.9,0.592335
3302.0,0.592578
3304.1,0.592679
3306.21,0.592711
3308.32,0.592979
3310.43,0.593149
3312.55,0.593607
3314.66,0.594029
3316.79,0.594114
3318.91,0.594347
3321.03,0.594668
3323.16,0.594759
3325.29,0.594829
3327.43,0.594864
3329.57,0.595142
3331.71,0.595153
3333.85,0.594877
3335.99,0.594888
3338.14,0.594883
3340.29,0.594905
3342.45,0.594916
3344.6,0.594892
3346.76,0.594663
3348.92,0.594177
3351.09,0.593496
3353.26,0.592925
3355.43,0.592396
3357.6,0.591337
3359.78,0.590265
3361.96,0.589267
3364.14,0.588333
3366.32,0.587161
3368.51,0.585839
3370.7,0.584817
3372.89,0.58378
3375.09,0.582715
3377.29,0.581776
3379.49,0.581386
3381.69,0.581284
3383.9,0.581475
3386.11,0.581782
3388.32,0.581774
3390.54,0.58175
3392.76,0.581695
3394.98,0.581146
3397.21,0.580321
3399.43,0.57934
3401.66,0.578399
3403.9,0.577197
3406.13,0.575774
3408.37,0.574467
3410.61,0.573348
3412.86,0.572685
3415.11,0.572126
3417.36,0.572099
3419.61,0.572833
3421.87,0.573914
3424.13,0.575478
3426.39,0.577432
3428.66,0.579497
3430.93,0.581375
3433.2,0.58297
3435.48,0.584264
3437.76,0.585503
3440.04,0.58659
3442.32,0.587331
3444.61,0.588013
3446.9,0.589002
3449.19,0.589932
3451.49,0.590544
3453.79,0.591332
3456.09,0.59211
3458.4,0.592788
3460.7,0.593406
3463.02,0.59394
3465.33,0.594206
3467.65,0.594121
3469.97,0.594101
3472.29,0.593971
3474.62,0.593846
3476.95,0.593574
3479.29,0.593406
3481.62,0.593374
3483.96,0.593306
3486.3,0.593367
3488.65,0.593324
3491.0,0.593204
3493.35,0.592899
3495.71,0.592391
3498.07,0.591799
3500.43,0.591629
3502.79,0.592154
3505.16,0.593138
3507.53,0.594417
3509.91,0.596317
3512.29,0.598458
3514.67,0.600159
3517.05,0.601861
3519.44,0.603542
3521.83,0.604821
3524.23,0.605801
3526.62,0.606723
3529.02,0.607344
3531.43,0.608143
3533.83,0.608871
3536.24,0.609363
3538.66,0.609644
3541.08,0.610065
3543.5,0.610629
3545.92,0.610955
3548.35,0.611339
3550.78,0.611548
3553.21,0.611757
3555.65,0.612199
3558.09,0.612803
3560.53,0.613075
3562.98,0.613095
3565.43,0.613411
3567.88,0.613602
3570.34,0.613646
3572.8,0.61399
3575.27,0.614404
3577.73,0.61463
3580.2,0.61482
3582.68,0.615079
3585.16,0.615201
3587.64,0.615399
3590.12,0.615811
3592.61,0.61611
3595.1,0.616199
3597.6,0.616293
3600.09,0.616458
3602.6,0.616491
3605.1,0.616628
3607.61,0.61702
3610.12,0.617271
3612.64,0.617436
3615.16,0.617569
3617.68,0.61768
3620.21,0.617545
3622.74,0.617778
3625.27,0.618051
3627.81,0.618133
3630.35,0.618342
3632.89,0.618721
3635.44,0.618769
3637.99,0.618769
3640.54,0.618846
3643.1,0.618983
3645.66,0.619085
3648.23,0.618989
3650.8,0.619
3653.37,0.619268
3655.95,0.61941
3658.53,0.619419
3661.11,0.619499
3663.7,0.619682
3666.29,0.619689
3668.89,0.619889
3671.48,0.620039
3674.09,0.620046
3676.69,0.620225
3679.3,0.620309
3681.91,0.620325
3684.53,0.620445
3687.15,0.620647
3689.78,0.620787
3692.4,0.620841
3695.04,0.621024
3697.67,0.621218
3700.31,0.621238
3702.95,0.621359
3705.6,0.621516
3708.25,0.621693
3710.91,0.621717
3713.56,0.621451
3716.23,0.621314
3718.89,0.621527
3721.56,0.622024
3724.23,0.622231
3726.91,0.622242
3729.59,0.622192
3732.28,0.622233
3734.97,0.622277
3737.66,0.622272
3740.36,0.622318
3743.06,0.622473
3745.76,0.622534
3748.47,0.622516
3751.18,0.622625
3753.9,0.62269
3756.62,0.62259
3759.34,0.622616
3762.07,0.622806
3764.8,0.623067
3767.54,0.623231
3770.28,0.623324
3773.02,0.623065
3775.77,0.622738
3778.52,0.622706
3781.28,0.62288
3784.04,0.622904
3786.8,0.622971
3789.57,0.623048
3792.34,0.623048
3795.12,0.623093
3797.9,0.622976
3800.69,0.622856
3803.47,0.62298
3806.27,0.623102
3809.06,0.623122
3811.86,0.623102
3814.67,0.623113
3817.48,0.623178
3820.29,0.623248
3823.11,0.623351
3825.93,0.62329
3828.76,0.623309
3831.59,0.62354
3834.42,0.623778
3837.26,0.623688
3840.1,0.623621
3842.95,0.623747
3845.8,0.623634
3848.65,0.623701
3851.51,0.623577
3854.38,0.623625
3857.24,0.623769
3860.12,0.623812
3862.99,0.623793
3865.87,0.623825
3868.76,0.623991
3871.65,0.624002
3874.54,0.623804
3877.44,0.623712
3880.34,0.623856
3883.25,0.623974
3886.16,0.623974
3889.07,0.624089
3891.99,0.624106
3894.92,0.624316
3897.85,0.6242
3900.78,0.624246
3903.72,0.624287
3906.66,0.624144
3909.6,0.624072
3912.55,0.624257
3915.51,0.624178
3918.47,0.624157
3921.43,0.624152
3924.4,0.624165
3927.38,0.624074
3930.35,0.623854
3933.33,0.623828
3936.32,0.62395
3939.31,0.624059
3942.31,0.624237
3945.31,0.623974
3948.31,0.623488
3951.32,0.623429
3954.34,0.623847
3957.35,0.623749
3960.38,0.623555
3963.41,0.623562
3966.44,0.623551
3969.48,0.623372
3972.52,0.623425
3975.56,0.623577
3978.61,0.623579
3981.67,0.623401
3984.73,0.623272
3987.8,0.62337
3990.87,0.623451
3993.94,0.623364
3997.02,0.623272
4000.1,0.623176
4003.19,0.623015
4006.29,0.622873
4009.39,0.623078
4012.49,0.623148
4015.6,0.623096
4018.71,0.623015
4021.83,0.622834
4024.95,0.622843
4028.08,0.62278
4031.21,0.622732
4034.35,0.622906
4037.49,0.622991
4040.64,0.622937
4043.79,0.622786
4046.94,0.622606
4050.11,0.622758
4053.27,0.623028
4056.44,0.623056
4059.62,0.623054
4062.8,0.622993
4065.99,0.623183
4069.18,0.623109
4072.38,0.623048
4075.58,0.623231
4078.78,0.623209
4082.0,0.623035
4085.21,0.623122
4088.43,0.623259
4091.66,0.623202
4094.89,0.623013
4098.13,0.622961
4101.37,0.622935
4104.62,0.623046
4107.87,0.622961
4111.13,0.622906
4114.39,0.622928
4117.66,0.62295
4120.93,0.623067
4124.21,0.623133
4127.5,0.622937
4130.79,0.622884
4134.08,0.622976
4137.38,0.623117
4140.68,0.62308
4143.99,0.623148
4147.31,0.623059
4150.63,0.622991
4153.95,0.623037
4157.29,0.622948
4160.62,0.622908
4163.96,0.623019
4167.31,0.623056
4170.66,0.622915
4174.02,0.622808
4177.39,0.622767
4180.75,0.62259
4184.13,0.622551
4187.51,0.622549
4190.89,0.622653
4194.28,0.622677
4197.68,0.622455
4201.08,0.622161
4204.49,0.62215
4207.9,0.62217
4211.32,0.622189
4214.74,0.622187
4218.17,0.622128
4221.61,0.622057
4225.05,0.62195
4228.5,0.621771
4231.95,0.621632
4235.4,0.621545
4238.87,0.621556
4242.34,0.621351
4245.81,0.621246
4249.29,0.621198
4252.78,0.621292
4256.27,0.621235
4259.77,0.621126
4263.27,0.620978
4266.78,0.620699
4270.29,0.620534
4273.81,0.620523
4277.34,0.620466
4280.87,0.620429
4284.41,0.620168
4287.95,0.620229
4291.5,0.620155
4295.06,0.619926
4298.62,0.619787
4302.19,0.619909
4305.76,0.619747
4309.34,0.619558
4312.92,0.619573
4316.52,0.619741
4320.11,0.619649
4323.72,0.619558
4327.32,0.619429
4330.94,0.619242
4334.56,0.619135
4338.19,0.619007
4341.82,0.61888
4345.46,0.619018
4349.11,0.619087
4352.76,0.618976
4356.42,0.618697
4360.08,0.618608
4363.75,0.618517
4367.43,0.61836
4371.11,0.618355
4374.8,0.618532
4378.49,0.618251
4382.19,0.618035
4385.9,0.618031
4389.61,0.617983
4393.33,0.617772
4397.06,0.617639
4400.79,0.6176
4404.53,0.617501
4408.28,0.61739
4412.03,0.617284
4415.79,0.617123
4419.55,0.617129
4423.32,0.616987
4427.1,0.616789
4430.88,0.616682
4434.68,0.616534
4438.47,0.616386
4442.28,0.616441
4446.08,0.616177
4449.9,0.61599
4453.72,0.61594
4457.55,0.615879
4461.39,0.615574
4465.23,0.61529
4469.08,0.615188
4472.94,0.615092
4476.8,0.614864
4480.67,0.614922
4484.55,0.61487
4488.43,0.614885
4492.32,0.614822
4496.21,0.614587
4500.12,0.614278
4504.03,0.614084
4507.94,0.614027
4511.87,0.614134
4515.8,0.613827
4519.73,0.613609
4523.68,0.613617
4527.63,0.613598
4531.59,0.613476
4535.55,0.613378
4539.52,0.61311
4543.5,0.61289
4547.49,0.61267
4551.48,0.612533
4555.48,0.612393
4559.49,0.612219
4563.5,0.612106
4567.52,0.612114
4571.55,0.611807
4575.58,0.611546
4579.63,0.611428
4583.67,0.611311
4587.73,0.61108
4591.79,0.610977
4595.86,0.610844
4599.94,0.610807
4604.03,0.610616
4608.12,0.610404
4612.22,0.61028
4616.33,0.610226
4620.44,0.610043
4624.56,0.609993
4628.69,0.609773
4632.83,0.609542
4636.97,0.609346
4641.12,0.609195
4645.28,0.609028
4649.45,0.608864
4653.62,0.608755
4657.8,0.608598
4661.99,0.608298
4666.19,0.608143
4670.39,0.608056
4674.6,0.607975
4678.82,0.607721
4683.05,0.60759
4687.28,0.607359
4691.52,0.607148
4695.77,0.606995
4700.03,0.60701
4704.3,0.606862
4708.57,0.606784
4712.85,0.606618
4717.14,0.606531
4721.43,0.60627
4725.74,0.606104
4730.05,0.605978
4734.37,0.605808
4738.7,0.605527
4743.03,0.60537
4747.38,0.605246
4751.73,0.605133
4756.09,0.605011
4760.45,0.604891
4764.83,0.604603
4769.21,0.604431
4773.6,0.604346
4778.0,0.604207
4782.41,0.604059
4786.83,0.603991
4791.25,0.603706
4795.68,0.603588
4800.13,0.603492
4804.57,0.603377
4809.03,0.603244
4813.5,0.603102
4817.97,0.602889
4822.45,0.602854
4826.94,0.602606
4831.44,0.602403
4835.95,0.602307
4840.46,0.602205
4844.99,0.602028
4849.52,0.601959
4854.06,0.601808
4858.61,0.601697
4863.17,0.60149
4867.73,0.601418
4872.31,0.60124
4876.89,0.6011
4881.48,0.600922
4886.08,0.600867
4890.69,0.600743
4895.31,0.600582
4899.94,0.600408
4904.57,0.600299
4909.22,0.600177
4913.87,0.60014
4918.53,0.599861
4923.21,0.599791
4927.88,0.599512
4932.57,0.599451
4937.27,0.599379
4941.98,0.599266
4946.69,0.599059
4951.42,0.598924
4956.15,0.598735
4960.9,0.5987
4965.65,0.598428
4970.41,0.598249
4975.18,0.598081
4979.96,0.598103
4984.75,0.597813
4989.54,0.597622
4994.35,0.597534
4999.17,0.597482
5003.99,0.597253
5008.83,0.597079
5013.67,0.596981
5018.52,0.59682
5023.39,0.596389
5028.26,0.59619
5033.14,0.596066
5038.03,0.596103
5042.93,0.595853
5047.84,0.595626
5052.76,0.59553
5057.69,0.595402
5062.63,0.595038
5067.58,0.594763
5072.54,0.594557
5077.51,0.594319
5082.49,0.594047
5087.47,0.593951
5092.47,0.593757
5097.48,0.593737
5102.5,0.593522
5107.52,0.593317
5112.56,0.593032
5117.61,0.592907
5122.66,0.592694
5127.73,0.592587
5132.81,0.592306
5137.89,0.592158
5142.99,0.591877
5148.1,0.591598
5153.22,0.591217
5158.34,0.591228
5163.48,0.591032
5168.63,0.590638
5173.79,0.590435
5178.96,0.59035
5184.13,0.590054
5189.32,0.589823
5194.52,0.58957
5199.73,0.589278
5204.96,0.588923
5210.19,0.588797
5215.43,0.588411
5220.68,0.587952
5225.94,0.587769
5231.22,0.587614
5236.5,0.58727
5241.79,0.587067
5247.1,0.586893
5252.42,0.586636
5257.74,0.586259
5263.08,0.586041
5268.43,0.585714
5273.79,0.585442
5279.16,0.585056
5284.54,0.584815
5289.93,0.584497
5295.34,0.584192
5300.75,0.583832
5306.18,0.583625
5311.61,0.583279
5317.06,0.58305
5322.52,0.582658
5327.99,0.582325
5333.47,0.581894
5338.96,0.581669
5344.47,0.581318
5349.98,0.580854
5355.51,0.580105
5361.05,0.57992
5366.6,0.579817
5372.16,0.579571
5377.73,0.579242
5383.32,0.578937
5388.91,0.578415
5394.52,0.578118
5400.14,0.577809
5405.77,0.577347
5411.41,0.576955
5417.07,0.576615
5422.74,0.576184
5428.41,0.575548
5434.1,0.575365
5439.81,0.575201
5445.52,0.574652
5451.25,0.574317
5456.98,0.573714
5462.73,0.573389
5468.5,0.572661
5474.27,0.572154
5480.06,0.57191
5485.86,0.571241
5491.67,0.570812
5497.49,0.570559
5503.33,0.570097
5509.18,0.569612
5515.04,0.569204
5520.91,0.568904
5526.8,0.568174
5532.69,0.567701
5538.61,0.567257
5544.53,0.566917
5550.47,0.566231
5556.41,0.565627
5562.38,0.565044
5568.35,0.564586
5574.34,0.563983
5580.34,0.563521
5586.35,0.56263
5592.38,0.562595
5598.42,0.562124
5604.47,0.56151
5610.54,0.560763
5616.61,0.560334
5622.71,0.559589
5628.81,0.559116
5634.93,0.558389
5641.06,0.55777
5647.21,0.556513
5653.36,0.555844
5659.54,0.555247
5665.72,0.554494
5671.92,0.553797
5678.13,0.55264
5684.36,0.55118
5690.6,0.550361
5696.85,0.548954
5703.12,0.547675
5709.4,0.546292
5715.69,0.544453
5722.0,0.542959
5728.33,0.541776
5734.66,0.540576
5741.01,0.539554
5747.38,0.538539
5753.76,0.537633
5760.15,0.53677
5766.56,0.536433
5772.98,0.534759
5779.41,0.534572
5785.86,0.534322
5792.33,0.533611
5798.81,0.53269
5805.3,0.531612
5811.81,0.530274
5818.33,0.528952
5824.87,0.526994
5831.42,0.524989
5837.99,0.52348
5844.57,0.521944
5851.17,0.519888
5857.78,0.517485
5864.41,0.514788
5871.05,0.51196
5877.7,0.509301
5884.38,0.506077
5891.06,0.50187
5897.76,0.500014
5904.48,0.496115
5911.21,0.493616
5917.96,0.491263
5924.73,0.48851
5931.5,0.485691
5938.3,0.483001
5945.11,0.479276
5951.93,0.477361
5958.78,0.475328
5965.63,0.473224
5972.51,0.470721
5979.39,0.468183
5986.3,0.466652
5993.22,0.464613
6000.16,0.462517
6007.11,0.461206
6014.08,0.459759
6021.06,0.458354
6028.06,0.457326
6035.08,0.456638
6042.12,0.455908
6049.17,0.455448
6056.23,0.453904
6063.32,0.453913
6070.42,0.454509
6077.53,0.454054
6084.67,0.453952
6091.82,0.454442
6098.98,0.45493
6106.17,0.455163
6113.37,0.455292
6120.58,0.454784
6127.82,0.454869
6135.07,0.455198
6142.34,0.45488
6149.63,0.454525
6156.93,0.454065
6164.25,0.45342
6171.59,0.452682
6178.95,0.452309
6186.32,0.451545
6193.71,0.450238
6201.12,0.449506
6208.54,0.448987
6215.99,0.447913
6223.45,0.44707
6230.93,0.446044
6238.43,0.445042
6245.95,0.443859
6253.48,0.442853
6261.03,0.441757
6268.6,0.440818
6276.19,0.439625
6283.8,0.438596
6291.43,0.437549
6299.07,0.436692
6306.73,0.435865
6314.42,0.435078
6322.12,0.434146
6329.84,0.433547
6337.57,0.432904
6345.33,0.432501
6353.11,0.431471
6360.9,0.431231
6368.72,0.431144
6376.55,0.430562
6384.4,0.429944
6392.27,0.429643
6400.17,0.428924
6408.08,0.428639
6416.01,0.427724
6423.96,0.425914
6431.93,0.425458
6439.92,0.424866
6447.93,0.423727
6455.96,0.423104
6464.01,0.421908
6472.08,0.421202
6480.17,0.419914
6488.28,0.418636
6496.41,0.417207
6504.56,0.415656
6512.73,0.414625
6520.92,0.414055
6529.14,0.412477
6537.37,0.411508
6545.63,0.410166
6553.9,0.408861
6562.2,0.407169
6570.51,0.405657
6578.85,0.403616
6587.21,0.401492
6595.59,0.399912
6603.99,0.397967
6612.42,0.396357
6620.86,0.394658
6629.33,0.392796
6637.82,0.391316
6646.33,0.3887
6654.86,0.38682
6663.41,0.385461
6671.99,0.383714
6680.59,0.381583
6689.21,0.379403
6697.85,0.377146
6706.51,0.375543
6715.2,0.373377
6723.91,0.371127
6732.64,0.369099
6741.4,0.367308
6750.18,0.365365
6758.98,0.3634
6767.8,0.361483
6776.65,0.359721
6785.52,0.357556
6794.41,0.355414
6803.33,0.352598
6812.27,0.350458
6821.23,0.348215
6830.22,0.345999
6839.23,0.343424
6848.26,0.341226
6857.32,0.338908
6866.4,0.336484
6875.51,0.333053
6884.64,0.330713
6893.8,0.328284
6902.98,0.325749
6912.18,0.323185
6921.41,0.320776
6930.66,0.318464
6939.94,0.316238
6949.24,0.313792
6958.57,0.311766
6967.92,0.309415
6977.3,0.307455
6986.7,0.306041
6996.13,0.304446
7005.59,0.303133
7015.07,0.302464
7024.57,0.302128
7034.1,0.302179
7043.66,0.302682
7053.25,0.303684
7062.85,0.305028
7072.49,0.306866
7082.15,0.308581
7091.84,0.310626
7101.55,0.312641
7111.3,0.314809
7121.06,0.316745
7130.86,0.318776
7140.68,0.320612
7150.53,0.322237
7160.41,0.323499
7170.31,0.324766
7180.24,0.325566
7190.2,0.326411
7200.19,0.327075
7210.2,0.327404
7220.24,0.32737
7230.31,0.32752
7240.41,0.327387
7250.54,0.327108
7260.69,0.326725
7270.88,0.326287
7281.09,0.325912
7291.33,0.325581
7301.6,0.32513
7311.9,0.324599
7322.22,0.324043
7332.58,0.323581
7342.97,0.322943
7353.38,0.322198
7363.83,0.32142
7374.3,0.320486
7384.81,0.319309
7395.34,0.318236
7405.91,0.317207
7416.5,0.316003
7427.13,0.314467
7437.78,0.31294
7448.47,0.311191
7459.19,0.309461
7469.94,0.307455
7480.71,0.305435
7491.52,0.303551
7502.37,0.301819
7513.24,0.299713
7524.14,0.29741
7535.08,0.294903
7546.05,0.292304
7557.05,0.289587
7568.08,0.286899
7579.15,0.284065
7590.24,0.281092
7601.37,0.277813
7612.53,0.274631
7623.73,0.2713
7634.96,0.268004
7646.22,0.264712
7657.51,0.261612
7668.84,0.258301
7680.2,0.25514
7691.59,0.251929
7703.02,0.248915
7714.49,0.245961
7725.98,0.243307
7737.52,0.240597
7749.08,0.237859
7760.68,0.235134
7772.32,0.232709
7783.99,0.230322
7795.69,0.228015
7807.43,0.225802
7819.21,0.22365
7831.02,0.221364
7842.87,0.219356
7854.75,0.217201
7866.67,0.215132
7878.62,0.212995
7890.62,0.211074
7902.64,0.208917
7914.71,0.206915
7926.81,0.204758
7938.95,0.202534
7951.13,0.19999
7963.34,0.197692
7975.59,0.195411
7987.88,0.193128
8000.21,0.19086
8012.57,0.188771
8024.98,0.186445
8037.42,0.184386
8049.9,0.182341
8062.42,0.18065
8074.98,0.17904
8087.57,0.17745
8100.21,0.175849
8112.89,0.174551
8125.6,0.172915
8138.36,0.171483
8151.16,0.169817
8163.99,0.168301
8176.87,0.166654
8189.79,0.165118
8202.75,0.163539
8215.75,0.161992
8228.79,0.160223
8241.87,0.158701
8254.99,0.156938
8268.16,0.155206
8281.37,0.153154
8294.62,0.151203
8307.91,0.149105
8321.24,0.147037
8334.62,0.144829
8348.04,0.142458
8361.51,0.139692
8375.02,0.137163
8388.57,0.13473
8402.16,0.132525
8415.8,0.130042
8429.49,0.127728
8443.22,0.125452
8456.99,0.123585
8470.81,0.121594
8484.67,0.119816
8498.58,0.118082
8512.54,0.116429
8526.54,0.114666
8540.58,0.113285
8554.68,0.111802
8568.82,0.110395
8583.0,0.108593
8597.24,0.10697
8611.52,0.105021
8625.85,0.103084
8640.23,0.100919
8654.65,0.098875
8669.12,0.096701
8683.64,0.094756
8698.21,0.092639
8712.83,0.090791
8727.5,0.088829
8742.22,0.087073
8756.99,0.085106
8771.8,0.083461
8786.67,0.081723
8801.59,0.080315
8816.56,0.078891
8831.58,0.078021
8846.65,0.077046
8861.77,0.076183
8876.94,0.075322
8892.17,0.074895
8907.45,0.074259
8922.78,0.073484
8938.16,0.072591
8953.6,0.071885
8969.09,0.070558
8984.64,0.069182
9000.23,0.067796
9015.89,0.066844
9031.59,0.065345
9047.36,0.063744
9063.17,0.062176
9079.05,0.061132
9094.97,0.059817
9110.96,0.058597
9127.0,0.057187
9143.1,0.055745
9159.25,0.053867
9175.46,0.052292
9191.73,0.050715
9208.06,0.049458
9224.44,0.048241
9240.88,0.046905
9257.38,0.045282
9273.94,0.043927
9290.56,0.042161
9307.24,0.040725
9323.98,0.039353
9340.78,0.037926
9357.64,0.036379
9374.57,0.03539
9391.55,0.033892
9408.59,0.032606
9425.7,0.031225
9442.87,0.030003
9460.1,0.02857
9477.4,0.027409
9494.75,0.025971
9512.17,0.024988
9529.66,0.023527
9547.21,0.022385
9564.83,0.021337
9582.5,0.020451
9600.25,0.019407
9618.06,0.018505
9635.94,0.017495
9653.88,0.016874
9671.89,0.015922
9689.97,0.015179
9708.12,0.014123
9726.33,0.013576
9744.62,0.012903
9762.97,0.012227
9781.39,0.01153
9799.88,0.010968
9818.44,0.010032
9837.07,0.009626
9855.77,0.009082
9874.54,0.008696
9893.39,0.007995
9912.3,0.007459
9931.29,0.006932
9950.36,0.006662
9969.49,0.006248
9988.7,0.005921
10007.98,0.005514
10027.34,0.005424
10046.77,0.005008
10066.28,0.00484
10085.87,0.004642
10105.53,0.004588
10125.26,0.00423
10145.08,0.003925
10164.97,0.003503
10184.94,0.003564
10204.99,0.003638
10225.12,0.003714
10245.33,0.003603
10265.61,0.003799
10285.98,0.003788
10306.43,0.003925
10326.96,0.003923
10347.57,0.004333
10368.27,0.004437
10389.05,0.004832
10409.91,0.005167
10430.86,0.005829
10451.88,0.006468
10473.0,0.007343
10494.2,0.007979
10515.49,0.009086
10536.86,0.010053
10558.32,0.011485
10579.87,0.012883
10601.5,0.014735
10623.23,0.016547
10645.04,0.01868
10666.94,0.020882
10688.94,0.023383
10711.02,0.025951
10733.2,0.028652
10755.47,0.031275
10777.83,0.034257
10800.28,0.037218
10822.83,0.040599
10845.47,0.043967
10868.21,0.04733
10891.04,0.050545
10913.97,0.054142
10936.99,0.057854
10960.12,0.061847
10983.34,0.065796
11006.66,0.069874
11030.07,0.073887
11053.59,0.078405
11077.21,0.082847
11100.93,0.087393
11124.75,0.091743
11148.68,0.09605
11172.71,0.100154
11196.84,0.104254
11221.07,0.107911
11245.41,0.111325
11269.86,0.114292
11294.41,0.117342
11319.07,0.120141
11343.84,0.123114
11368.72,0.125961
11393.7,0.128802
11418.8,0.13166
11444.01,0.134629
11469.33,0.13723
11494.76,0.139694
11520.3,0.141511
11545.96,0.143042
11571.73,0.14409
11597.62,0.145005
11623.62,0.145715
11649.74,0.146114
11675.98,0.146031
11702.34,0.145977
11728.81,0.145526
11755.41,0.14485
11782.13,0.143624
11808.96,0.142395
11835.92,0.141049
11863.01,0.139812
11890.22,0.138261
11917.55,0.13696
11945.01,0.135455
11972.6,0.134157
12000.31,0.132808
12028.16,0.131471
12056.13,0.129813
12084.23,0.128488
12112.46,0.127271
12140.83,0.126092
12169.33,0.124718
12197.96,0.123428
12226.73,0.122058
12255.64,0.121221
12284.68,0.120461
12313.86,0.120093
12343.18,0.119877
12372.64,0.120117
12402.24,0.120448
12431.98,0.120812
12461.86,0.121254
12491.89,0.121542
12522.07,0.12191
12552.38,0.122883
12582.85,0.123748
12613.47,0.124615
12644.23,0.125308
12675.15,0.126447
12706.21,0.127438
12737.43,0.128454
12768.81,0.129702
12800.33,0.131606
12832.02,0.133571
12863.86,0.135594
12895.86,0.137237
12928.02,0.13876
12960.34,0.139912
12992.82,0.141655
13025.46,0.143156
13058.27,0.144482
13091.25,0.145839
13124.39,0.147458
13157.7,0.148954
13191.18,0.149926
13224.83,0.150405
13258.66,0.151292
13292.65,0.151961
13326.83,0.15259
13361.17,0.152812
13395.7,0.153263
13430.4,0.153638
13465.29,0.15361
13500.35,0.153202
13535.6,0.153246
13571.03,0.153174
13606.65,0.153163
13642.46,0.152987
13678.46,0.152852
13714.64,0.152481
13751.02,0.152152
13787.59,0.151919
13824.36,0.151706
13861.32,0.150911
13898.49,0.150192
13935.85,0.149246
13973.41,0.148336
14011.17,0.147528
14049.15,0.146759
14087.32,0.145811
14125.71,0.145384
14164.3,0.145033
14203.11,0.144715
14242.13,0.143938
14281.36,0.143247
14320.81,0.142336
14360.49,0.141343
14400.38,0.140071
14440.49,0.13862
14480.82,0.136773
14521.39,0.134917
14562.18,0.133187
14603.2,0.131253
14644.45,0.128695
14685.93,0.126508
14727.66,0.124238
14769.62,0.121576
14811.81,0.119084
14854.25,0.116864
14896.94,0.114527
14939.87,0.112074
14983.05,0.109279
15026.48,0.106317
15070.16,0.102404
15114.1,0.098257
15158.29,0.093628
15202.74,0.08868
15247.46,0.083777
15292.43,0.079111
15337.68,0.074327
15383.19,0.070107
15428.97,0.065507
15475.03,0.061318
15521.36,0.057475
15567.97,0.054016
15614.87,0.05058
15662.04,0.047544
15709.5,0.044439
15757.25,0.041583
15805.29,0.038307
15853.62,0.035375
15902.26,0.031887
15951.19,0.028803
16000.42,0.02594
16049.95,0.023827
16099.8,0.021771
16149.95,0.020662
16200.42,0.020571
16251.21,0.022414
16302.31,0.026319
16353.74,0.033329
16405.49,0.042416
16457.57,0.052345
16509.98,0.061969
16562.73,0.071351
16615.82,0.078947
16669.24,0.08609
16723.02,0.093105
16777.14,0.099803
16831.61,0.106031
16886.43,0.111259
16941.62,0.115096
16997.16,0.118969
17053.08,0.121038
17109.36,0.121463
17166.01,0.120363
17223.04,0.118376
17280.45,0.114542
17338.24,0.109142
17396.43,0.103173
17455.0,0.099947
17513.97,0.102633
17573.34,0.109907
17633.11,0.11837
17693.29,0.126149
17753.89,0.132314
17814.9,0.137644
17876.33,0.141332
17938.18,0.144467
18000.47,0.146915
18063.19,0.149255
18126.35,0.15163
18189.95,0.153285
18254.0,0.153971
18318.5,0.155304
18383.46,0.156479
18448.88,0.157633
18514.77,0.15825
18581.13,0.158905
18647.97,0.159217
18715.29,0.158916
18783.1,0.159012
18851.4,0.159868
18920.2,0.159818
18989.51,0.159169
19059.32,0.159254
19129.65,0.158903
19200.5,0.158685
19271.88,0.158838
19343.79,0.159193
19416.24,0.160252
19489.23,0.160966
19562.77,0.160905
19636.88,0.161482
19711.54,0.162548
19786.78,0.163175
19862.59,0.163602
19938.98,0.163778
20015.96,0.164465
20093.55,0.165556
20171.73,0.166506
20250.53,0.16658
20329.94,0.165038
20409.98,0.164308
20490.65,0.165388
20571.96,0.165569
20653.92,0.166085
20736.54,0.168172
20819.82,0.169636
20903.77,0.170688
20988.4,0.172139
21073.72,0.170852
21159.73,0.166127
21246.46,0.159768
21333.89,0.150375
21422.04,0.141511
21510.93,0.135821
21600.56,0.130606
21690.94,0.126354
21782.08,0.122659
21873.99,0.119171
21966.67,0.116241
22060.15,0.113126
22154.42,0.110817
22249.51,0.110281
22345.41,0.109924
22442.14,0.108094
22539.72,0.105171
22638.14,0.103075
22737.43,0.10238
22837.6,0.102718
22938.65,0.102622
23040.6,0.099649
23143.46,0.097677
23247.24,0.097252
23351.96,0.096712
23457.63,0.094492
23564.25,0.092288
23671.85,0.090053
23780.44,0.08809
23890.02,0.088728
24000.63,0.087896
24112.26,0.087735
24224.93,0.090312
24338.66,0.087362
24453.47,0.084796
24569.36,0.085315
24686.36,0.085962
24804.47,0.085648
24923.73,0.082653
25044.13,0.083108
25165.71,0.080514
25288.46,0.07475
25412.43,0.078082
25537.61,0.080546
25664.04,0.085363
25791.72,0.076174
25920.68,0.074778
