Database of Origin,University of Winnipeg Spectrophotometer Facility
Sample Description,Carbonates and Oxolates - RELAB+Nicolet spectra Newly merged spectra (merged by RELAB)
Other Information,dry seived
Date Added,2018-08-06 20:49:02.884837

Data ID,RLA_CARB_1_36       
Sample ID,CRB210
Mineral Name,Manasseite
Locality,Snarum/ Norway
Grain Size,<45 um
Viewing Geometry,30/0/30
Resolution,5/ 0.6-129 nm
Formula,Mg6Al2(CO3)(OH)16*4(H2O)
Composition,Grey with hydrtalcite and lizardite.

Wavelength
305.0,0.460451
310.0,0.497376
315.0,0.530888
320.0,0.556936
325.0,0.574133
330.0,0.586577
335.0,0.596757
340.0,0.60565
345.0,0.612073
350.0,0.619551
355.0,0.627316
360.0,0.634362
365.0,0.639481
370.0,0.642239
375.0,0.645071
380.0,0.646747
385.0,0.649895
390.0,0.651692
395.0,0.655837
400.0,0.658131
405.0,0.65887
410.0,0.658491
415.0,0.661663
420.0,0.662727
425.0,0.66594
430.0,0.666107
435.0,0.667274
440.0,0.667512
445.0,0.668987
450.0,0.667628
455.0,0.669498
460.0,0.669383
465.0,0.671067
470.0,0.671462
475.0,0.674175
480.0,0.674269
485.0,0.675768
490.0,0.674894
495.0,0.676495
500.0,0.675613
505.0,0.67663
510.0,0.67555
515.0,0.676501
520.0,0.675053
525.0,0.675519
530.0,0.674338
535.0,0.674775
540.0,0.674361
545.0,0.675282
550.0,0.673534
555.0,0.674508
560.0,0.673494
565.0,0.674378
570.0,0.674324
575.0,0.674319
580.0,0.674408
585.0,0.675398
590.0,0.675131
595.0,0.675294
600.0,0.674606
605.0,0.675323
610.0,0.674243
615.0,0.675123
620.0,0.673462
625.0,0.674002
630.0,0.672742
635.0,0.672912
640.0,0.673745
645.0,0.672742
650.0,0.671611
655.0,0.671866
660.0,0.671681
665.0,0.671135
670.0,0.671704
675.0,0.671687
680.0,0.670973
685.0,0.670615
690.0,0.671671
695.0,0.67118
700.0,0.671283
705.0,0.671379
710.0,0.672149
715.0,0.672191
720.0,0.671891
725.0,0.673131
730.0,0.671913
735.0,0.673527
740.0,0.672582
745.0,0.674104
750.0,0.673331
755.0,0.673477
760.0,0.673564
765.0,0.673068
770.0,0.67402
775.0,0.673743
780.0,0.67412
785.0,0.672998
790.0,0.673944
795.0,0.672793
800.0,0.671782
805.0,0.672086
810.0,0.671208
815.0,0.671164
820.0,0.670684
825.0,0.669142
830.0,0.669249
835.0,0.66847
840.0,0.668156
845.0,0.668926
850.0,0.668337
855.0,0.66803
860.0,0.667034
865.0,0.665142
870.0,0.666538
875.0,0.66643
880.0,0.666536
885.0,0.666697
890.0,0.665016
895.0,0.665714
900.0,0.666055
905.0,0.666827
910.0,0.666534
915.0,0.667135
920.0,0.667361
925.0,0.667296
930.0,0.667645
935.0,0.667067
940.0,0.668164
945.0,0.667982
950.0,0.66747
955.0,0.667341
960.0,0.667876
965.0,0.668215
970.0,0.666771
975.0,0.668154
980.0,0.668926
985.0,0.668699
990.0,0.668941
995.0,0.66854
1000.0,0.668336
1005.0,0.667552
1010.0,0.668508
1015.0,0.668003
1020.0,0.667918
1025.0,0.666682
1030.0,0.666014
1035.0,0.666438
1040.0,0.666277
1045.0,0.665583
1050.0,0.666463
1055.0,0.665711
1060.0,0.665585
1065.0,0.665753
1070.0,0.664614
1075.0,0.664282
1080.0,0.664037
1085.0,0.664256
1090.0,0.664023
1095.0,0.664608
1100.0,0.663567
1105.0,0.663505
1110.0,0.663202
1115.0,0.662868
1120.0,0.662273
1125.0,0.662296
1130.0,0.662442
1135.0,0.662659
1140.0,0.662242
1145.0,0.662077
1150.0,0.662259
1155.0,0.661704
1160.0,0.661781
1165.0,0.662393
1170.0,0.661486
1175.0,0.661925
1180.0,0.662082
1185.0,0.661405
1190.0,0.661386
1195.0,0.661888
1200.0,0.661831
1205.0,0.662229
1210.0,0.662821
1215.0,0.662135
1220.0,0.662575
1225.0,0.662944
1230.0,0.663004
1235.0,0.66319
1240.0,0.663036
1245.0,0.662277
1250.0,0.661825
1255.0,0.662001
1260.0,0.661218
1265.0,0.661375
1270.0,0.660499
1275.0,0.659908
1280.0,0.658956
1285.0,0.659297
1290.0,0.658313
1295.0,0.658339
1300.0,0.658023
1305.0,0.658277
1310.0,0.657416
1315.0,0.657762
1320.0,0.655889
1325.0,0.658042
1330.0,0.658335
1335.0,0.658002
1340.0,0.657698
1345.0,0.656875
1350.0,0.656777
1355.0,0.655766
1360.0,0.655232
1365.0,0.652947
1370.0,0.653219
1375.0,0.649909
1380.0,0.64561
1385.0,0.637501
1420.0,0.571704
1425.0,0.603907
1430.0,0.611567
1435.0,0.612464
1440.0,0.612447
1445.0,0.612942
1450.0,0.613438
1455.0,0.614172
1460.0,0.614054
1465.0,0.614605
1470.0,0.614962
1475.0,0.61646
1480.0,0.616958
1485.0,0.618116
1490.0,0.618512
1495.0,0.618152
1500.0,0.618664
1505.0,0.61901
1510.0,0.618727
1515.0,0.619127
1520.0,0.619148
1525.0,0.619446
1530.0,0.618737
1535.0,0.618596
1540.0,0.618317
1545.0,0.616985
1550.0,0.616543
1555.0,0.616053
1560.0,0.617003
1565.0,0.617417
1570.0,0.618972
1575.0,0.619094
1580.0,0.61936
1585.0,0.620019
1590.0,0.620752
1595.0,0.621611
1600.0,0.622715
1605.0,0.623318
1610.0,0.623983
1615.0,0.624631
1620.0,0.62524
1625.0,0.625751
1630.0,0.626331
1635.0,0.626774
1640.0,0.626989
1645.0,0.627427
1650.0,0.627818
1655.0,0.62835
1660.0,0.628679
1665.0,0.628952
1670.0,0.629144
1675.0,0.62942
1680.0,0.629834
1685.0,0.629826
1690.0,0.629871
1695.0,0.629899
1700.0,0.630053
1705.31,0.629996
1709.81,0.62979
1715.46,0.629573
1720.02,0.629431
1724.6,0.629294
1730.35,0.629089
1734.98,0.628856
1739.64,0.628707
1745.5,0.628466
1750.21,0.628195
1754.95,0.628051
1759.72,0.627653
1764.51,0.627453
1770.54,0.627055
1775.39,0.626786
1780.27,0.626374
1785.17,0.62591
1790.1,0.625455
1795.06,0.624872
1800.05,0.624313
1805.06,0.623482
1810.1,0.622758
1815.17,0.622063
1820.27,0.621626
1825.4,0.620949
1830.56,0.620235
1834.44,0.619666
1839.65,0.61884
1844.89,0.618103
1850.16,0.617211
1855.45,0.616416
1859.45,0.615737
1864.8,0.61476
1870.18,0.613626
1875.59,0.612291
1879.67,0.611047
1885.14,0.609047
1890.64,0.606638
1894.79,0.604225
1900.34,0.600125
1904.53,0.596422
1910.15,0.592066
1914.38,0.589308
1920.05,0.58627
1924.33,0.584449
1930.06,0.582708
1934.38,0.581757
1940.17,0.580705
1944.54,0.580212
1950.39,0.579561
1954.8,0.579046
1960.72,0.578429
1965.18,0.577459
1969.66,0.576825
1975.66,0.576003
1980.19,0.57564
1984.74,0.575316
1989.31,0.575175
1995.43,0.574909
2000.05,0.575068
2004.69,0.576109
2009.35,0.577674
2015.6,0.580067
2020.32,0.58182
2025.05,0.58336
2029.81,0.585036
2034.59,0.586546
2039.39,0.587855
2044.22,0.589139
2050.69,0.59036
2055.57,0.591322
2060.47,0.592269
2065.39,0.593013
2070.34,0.593834
2075.31,0.594462
2080.31,0.595143
2085.33,0.595538
2090.38,0.59622
2095.45,0.596592
2100.54,0.596992
2105.66,0.597271
2110.8,0.597453
2114.25,0.597686
2119.43,0.597947
2124.65,0.597865
2129.88,0.597719
2135.15,0.59742
2140.44,0.597466
2145.75,0.59738
2149.31,0.597225
2154.67,0.596947
2160.06,0.596538
2165.47,0.595599
2170.91,0.594829
2174.55,0.594229
2180.04,0.592894
2185.55,0.591254
2189.25,0.58998
2194.81,0.588091
2200.4,0.585195
2204.14,0.583188
2209.78,0.57968
2215.44,0.575686
2219.24,0.572538
2224.95,0.566648
2230.7,0.558706
2234.54,0.551463
2240.33,0.5361
2244.21,0.522058
2250.06,0.497663
2255.93,0.471327
2259.87,0.459224
2265.79,0.48826
2269.76,0.505896
2275.74,0.517325
2279.74,0.519662
2285.77,0.518986
2289.81,0.516841
2295.9,0.511188
2299.97,0.505746
2304.06,0.500864
2310.22,0.497617
2314.35,0.496282
2320.56,0.492483
2324.72,0.491407
2331.0,0.493481
2335.2,0.495267
2339.41,0.49575
2345.76,0.495538
2350.02,0.494509
2354.28,0.495039
2360.72,0.498541
2365.03,0.503802
2369.35,0.510617
2375.86,0.518059
2380.23,0.520453
2384.61,0.52142
2389.0,0.522182
2395.63,0.521599
2400.06,0.522152
2404.52,0.52256
2408.98,0.523076
2415.72,0.523268
2420.23,0.522417
2424.76,0.520263
2429.3,0.516965
2433.87,0.513407
2440.74,0.510143
2445.35,0.511257
2449.97,0.511616
2454.61,0.510579
2459.27,0.508562
2463.94,0.505695
2470.99,0.502095
2475.71,0.49994
2480.45,0.49767
2485.2,0.495282
2489.98,0.493344
2494.77,0.491952
2499.58,0.490101
2504.41,0.488584
2509.26,0.487292
2514.13,0.486372
2519.02,0.485226
2523.92,0.484023
2528.85,0.482381
2533.79,0.480631
2541.24,0.478064
2543.74,0.477436
2548.74,0.476546
2553.76,0.475559
2556.28,0.474777
2558.8,0.473857
2561.33,0.4729
2563.86,0.471887
2566.4,0.471153
2568.95,0.470479
2571.5,0.469795
2574.05,0.469413
2576.61,0.469235
2579.17,0.469169
2581.74,0.46923
2584.31,0.468832
2586.89,0.468585
2589.48,0.468655
2592.07,0.468782
2594.66,0.46867
2597.26,0.468511
2599.87,0.468637
2602.48,0.468795
2605.09,0.468602
2607.71,0.468214
2610.34,0.46801
2612.97,0.467714
2615.61,0.467227
2618.25,0.466771
2620.9,0.465994
2623.55,0.465099
2626.21,0.4642
2628.87,0.463216
2631.54,0.462522
2634.22,0.461906
2636.89,0.46084
2639.58,0.459741
2642.27,0.458176
2644.97,0.455915
2647.67,0.453085
2650.38,0.449955
2653.09,0.44685
2655.81,0.443746
2658.53,0.440223
2661.26,0.436158
2664.0,0.431494
2666.74,0.426209
2669.48,0.42026
2672.23,0.413383
2674.99,0.404973
2677.76,0.394962
2680.52,0.381753
2683.3,0.367037
2686.08,0.351808
2688.87,0.336718
2691.66,0.321822
2694.46,0.306685
2697.26,0.289137
2700.07,0.269287
2702.89,0.251167
2705.71,0.234939
2708.53,0.217475
2711.37,0.201085
2714.21,0.186452
2717.05,0.174811
2719.9,0.164647
2722.76,0.154989
2725.62,0.145887
2728.49,0.137876
2731.37,0.131234
2734.25,0.125996
2737.14,0.120585
2740.03,0.115143
2742.93,0.109206
2745.83,0.103063
2748.75,0.097501
2751.66,0.092639
2754.59,0.088349
2757.52,0.084147
2760.46,0.07966
2763.4,0.075516
2766.35,0.070451
2769.3,0.065146
2772.26,0.062852
2775.23,0.063333
2778.21,0.063786
2781.19,0.063679
2784.18,0.063132
2787.17,0.062239
2790.17,0.061221
2793.18,0.059994
2796.19,0.058766
2799.21,0.057662
2802.24,0.056806
2805.27,0.056018
2808.31,0.055119
2811.35,0.054421
2814.41,0.053808
2817.46,0.053132
2820.53,0.052719
2823.6,0.052324
2826.68,0.051734
2829.77,0.051339
2832.86,0.051043
2835.96,0.050579
2839.07,0.050135
2842.18,0.04968
2845.3,0.04935
2848.43,0.049102
2851.56,0.04876
2854.7,0.04837
2857.85,0.048239
2861.0,0.047961
2864.16,0.047487
2867.33,0.047074
2870.51,0.046864
2873.69,0.046575
2876.88,0.046168
2880.07,0.045767
2883.28,0.045458
2886.49,0.045086
2889.71,0.04478
2892.93,0.04458
2896.17,0.044404
2899.4,0.044217
2902.65,0.04409
2905.91,0.043653
2909.17,0.043472
2912.44,0.043348
2915.71,0.043169
2918.99,0.043333
2922.29,0.043449
2925.58,0.043447
2928.89,0.043774
2932.2,0.044224
2935.52,0.044863
2938.85,0.045551
2942.19,0.046582
2945.53,0.047379
2948.88,0.048841
2952.24,0.049926
2955.61,0.050739
2958.98,0.052108
2962.36,0.052968
2965.75,0.054298
2969.15,0.055319
2972.55,0.056429
2975.97,0.057648
2979.39,0.058842
2986.25,0.06081
2989.7,0.061989
2993.15,0.062873
2996.61,0.063917
3000.08,0.064613
3003.55,0.065548
3007.04,0.066522
3010.53,0.067919
3014.03,0.06981
3017.54,0.07102
3021.06,0.072545
3024.58,0.073559
3028.12,0.074853
3031.66,0.075973
3035.21,0.077002
3038.77,0.078239
3042.33,0.07927
3045.91,0.080191
3049.49,0.081353
3053.08,0.082995
3056.68,0.084161
3060.29,0.085463
3063.91,0.086689
3067.54,0.088005
3071.17,0.089323
3074.81,0.090245
3078.47,0.091169
3082.13,0.092523
3085.79,0.093436
3089.47,0.09446
3093.16,0.095707
3096.85,0.097395
3100.56,0.099193
3104.27,0.101156
3107.99,0.103534
3111.73,0.105885
3115.47,0.108145
3119.21,0.109949
3122.97,0.112011
3126.74,0.113873
3130.52,0.115535
3134.3,0.117474
3138.1,0.119357
3141.9,0.120796
3145.71,0.122379
3149.54,0.124118
3153.37,0.125445
3157.21,0.126702
3161.06,0.128141
3164.92,0.12966
3168.79,0.130817
3172.67,0.131934
3176.55,0.132948
3180.45,0.13427
3184.36,0.135169
3188.27,0.136106
3192.2,0.137411
3196.14,0.138029
3200.08,0.138934
3204.04,0.139847
3208.0,0.141373
3211.98,0.142027
3215.96,0.142693
3219.96,0.143617
3223.96,0.144581
3227.98,0.145427
3232.0,0.14632
3236.04,0.147121
3240.08,0.14811
3244.14,0.148906
3248.2,0.150156
3252.28,0.150879
3256.37,0.151799
3260.46,0.152768
3264.57,0.153804
3268.69,0.154471
3272.81,0.155646
3276.95,0.156508
3281.1,0.15755
3285.26,0.158481
3289.43,0.159515
3293.61,0.160514
3297.8,0.161606
3302.0,0.162713
3306.21,0.163702
3310.43,0.164747
3314.66,0.166131
3318.91,0.167177
3323.16,0.168359
3327.43,0.16968
3331.71,0.170624
3335.99,0.17211
3340.29,0.173107
3344.6,0.17398
3348.92,0.175352
3353.26,0.176677
3357.6,0.177827
3361.96,0.179165
3366.32,0.180225
3370.7,0.181596
3375.09,0.183008
3379.49,0.184301
3383.9,0.185491
3388.32,0.18683
3392.76,0.188478
3397.21,0.189602
3401.66,0.191108
3406.13,0.192232
3410.61,0.193398
3415.11,0.194915
3419.61,0.196512
3424.13,0.198003
3428.66,0.199447
3433.2,0.200789
3437.76,0.202045
3442.32,0.203644
3446.9,0.204989
3451.49,0.206554
3456.09,0.208025
3460.7,0.209464
3465.33,0.211073
3469.97,0.212646
3474.62,0.214081
3479.29,0.215772
3483.96,0.217227
3488.65,0.218999
3493.35,0.220708
3498.07,0.222406
3502.79,0.224201
3507.53,0.225967
3512.29,0.227681
3517.05,0.229334
3521.83,0.230772
3526.62,0.232654
3531.43,0.234591
3536.24,0.236366
3541.08,0.238236
3543.5,0.239021
3545.92,0.239978
3548.35,0.241095
3550.78,0.242017
3553.21,0.242793
3555.65,0.243549
3558.09,0.244391
3560.53,0.245333
3562.98,0.246176
3565.43,0.247072
3567.88,0.247922
3570.34,0.248626
3572.8,0.249396
3575.27,0.250207
3577.73,0.251028
3580.2,0.251864
3582.68,0.252679
3585.16,0.253502
3587.64,0.254367
3590.12,0.255329
3592.61,0.256246
3595.1,0.257062
3597.6,0.25784
3600.09,0.258904
3602.6,0.260062
3605.1,0.261075
3607.61,0.262168
3610.12,0.263204
3612.64,0.264377
3615.16,0.265707
3617.68,0.266875
3620.21,0.267922
3622.74,0.269105
3625.27,0.27037
3627.81,0.271628
3630.35,0.272841
3632.89,0.273953
3635.44,0.275065
3637.99,0.276265
3640.54,0.277367
3643.1,0.27847
3645.66,0.279533
3648.23,0.280638
3650.8,0.281813
3653.37,0.283041
3655.95,0.284041
3658.53,0.285083
3661.11,0.286141
3663.7,0.287138
3666.29,0.288197
3668.89,0.289306
3671.48,0.290381
3674.09,0.291422
3676.69,0.29246
3679.3,0.293455
3681.91,0.294428
3684.53,0.295415
3687.15,0.296417
3689.78,0.297408
3692.4,0.298244
3695.04,0.299241
3697.67,0.300239
3700.31,0.301198
3702.95,0.302127
3705.6,0.303068
3708.25,0.303833
3710.91,0.304546
3713.56,0.305591
3716.23,0.30659
3718.89,0.307493
3721.56,0.308377
3724.23,0.309272
3726.91,0.310158
3729.59,0.310973
3732.28,0.311938
3734.97,0.312843
3737.66,0.313662
3740.36,0.314494
3743.06,0.315419
3745.76,0.31642
3748.47,0.317371
3751.18,0.318115
3753.9,0.3188
3756.62,0.319549
3759.34,0.320451
3762.07,0.321304
3764.8,0.322208
3767.54,0.323121
3770.28,0.323924
3773.02,0.324757
3775.77,0.325745
3778.52,0.32664
3781.28,0.327321
3784.04,0.32805
3786.8,0.328882
3789.57,0.329536
3792.34,0.330269
3795.12,0.331246
3797.9,0.332054
3800.69,0.332743
3803.47,0.333565
3806.27,0.334397
3809.06,0.335162
3811.86,0.335878
3814.67,0.336652
3817.48,0.337456
3820.29,0.338164
3823.11,0.338844
3825.93,0.339704
3828.76,0.340567
3831.59,0.341367
3834.42,0.342075
3837.26,0.342834
3840.1,0.343612
3842.95,0.344325
3845.8,0.344908
3848.65,0.345637
3851.51,0.346312
3854.38,0.347022
3857.24,0.347815
3860.12,0.34844
3862.99,0.349061
3865.87,0.349783
3868.76,0.350508
3871.65,0.351261
3874.54,0.352019
3877.44,0.352631
3880.34,0.353105
3883.25,0.353733
3886.16,0.354496
3889.07,0.355117
3891.99,0.355716
3894.92,0.356322
3897.85,0.356828
3900.78,0.35742
3903.72,0.357969
3906.66,0.358586
3909.6,0.359114
3912.55,0.35957
3915.51,0.360023
3918.47,0.360694
3921.43,0.361269
3924.4,0.361723
3927.38,0.362291
3930.35,0.362805
3933.33,0.363158
3936.32,0.363647
3939.31,0.364096
3942.31,0.364593
3945.31,0.365068
3948.31,0.365501
3951.32,0.366036
3954.34,0.366364
3957.35,0.366653
3960.38,0.367081
3963.41,0.367426
3966.44,0.367811
3969.48,0.368202
3972.52,0.36852
3975.56,0.368824
3978.61,0.369145
3981.67,0.369511
3984.73,0.369864
3987.8,0.370268
3990.87,0.370623
3993.94,0.370686
3997.02,0.370891
4000.1,0.371172
4003.19,0.371527
4006.29,0.371806
4009.39,0.372017
4012.49,0.372196
4015.6,0.372423
4018.71,0.372555
4021.83,0.372675
4024.95,0.372746
4028.08,0.372756
4031.21,0.372886
4034.35,0.372983
4037.49,0.37293
4040.64,0.372914
4043.79,0.372858
4046.94,0.372737
4050.11,0.372531
4053.27,0.372414
4056.44,0.372386
4059.62,0.372242
4062.8,0.37189
4065.99,0.371641
4069.18,0.371438
4072.38,0.371361
4075.58,0.371244
4078.78,0.371127
4082.0,0.370935
4085.21,0.370986
4088.43,0.371044
4091.66,0.370953
4094.89,0.37093
4098.13,0.371094
4101.37,0.371164
4104.62,0.371209
4107.87,0.37136
4111.13,0.371548
4114.39,0.371654
4117.66,0.37191
4120.93,0.372176
4124.21,0.372412
4127.5,0.372758
4130.79,0.373139
4134.08,0.373469
4137.38,0.373953
4140.68,0.374654
4143.99,0.375352
4147.31,0.376056
4150.63,0.376884
4153.95,0.377705
4157.29,0.378479
4160.62,0.379293
4163.96,0.38021
4167.31,0.381041
4170.66,0.381875
4174.02,0.382707
4177.39,0.383557
4180.75,0.384313
4184.13,0.385008
4187.51,0.385764
4190.89,0.386434
4194.28,0.387022
4197.68,0.38755
4201.08,0.388021
4204.49,0.388501
4207.9,0.388777
4211.32,0.389048
4214.74,0.389369
4218.17,0.389696
4221.61,0.389888
4225.05,0.390136
4228.5,0.390433
4231.95,0.390747
4235.4,0.390879
4238.87,0.391118
4242.34,0.391497
4245.81,0.391688
4249.29,0.391896
4252.78,0.392232
4256.27,0.392526
4259.77,0.39258
4263.27,0.392166
4266.78,0.391851
4270.29,0.391798
4273.81,0.391932
4277.34,0.392064
4280.87,0.392078
4284.41,0.392
4287.95,0.391956
4291.5,0.391811
4295.06,0.391622
4298.62,0.391595
4302.19,0.391551
4305.76,0.391349
4309.34,0.391214
4312.92,0.391004
4316.52,0.390829
4320.11,0.390594
4323.72,0.390442
4327.32,0.390287
4330.94,0.390043
4334.56,0.389752
4338.19,0.389551
4341.82,0.389207
4345.46,0.388939
4349.11,0.388644
4352.76,0.388378
4356.42,0.388052
4360.08,0.387727
4363.75,0.387338
4367.43,0.38699
4371.11,0.386585
4374.8,0.386277
4378.49,0.385885
4382.19,0.385457
4385.9,0.385024
4389.61,0.384599
4393.33,0.384193
4397.06,0.383767
4400.79,0.383295
4404.53,0.382821
4408.28,0.382261
4412.03,0.381799
4415.79,0.381369
4419.55,0.380953
4423.32,0.380465
4427.1,0.380038
4430.88,0.37953
4434.68,0.378996
4438.47,0.378451
4442.28,0.377987
4446.08,0.377371
4449.9,0.376743
4453.72,0.376171
4457.55,0.375621
4461.39,0.375101
4465.23,0.374521
4469.08,0.373899
4472.94,0.373266
4476.8,0.372576
4480.67,0.371937
4484.55,0.371226
4488.43,0.370506
4492.32,0.369719
4496.21,0.368896
4500.12,0.36811
4504.03,0.367416
4507.94,0.366603
4511.87,0.365703
4515.8,0.364731
4519.73,0.363879
4523.68,0.362989
4527.63,0.361979
4531.59,0.360898
4535.55,0.359885
4539.52,0.358775
4543.5,0.357613
4547.49,0.35642
4551.48,0.355218
4555.48,0.353996
4559.49,0.3527
4563.5,0.351192
4567.52,0.349853
4571.55,0.348415
4575.58,0.346924
4579.63,0.345373
4583.67,0.343769
4587.73,0.342175
4591.79,0.340531
4595.86,0.338875
4599.94,0.337303
4604.03,0.335634
4608.12,0.33411
4612.22,0.332684
4616.33,0.331371
4620.44,0.330109
4624.56,0.328847
4628.69,0.327697
4632.83,0.326768
4636.97,0.325891
4641.12,0.325019
4645.28,0.324122
4649.45,0.323302
4653.62,0.322499
4657.8,0.321805
4661.99,0.321075
4666.19,0.320282
4670.39,0.319503
4674.6,0.31873
4678.82,0.317813
4683.05,0.316928
4687.28,0.316105
4691.52,0.315268
4695.77,0.314379
4700.03,0.313468
4704.3,0.312551
4708.57,0.311692
4712.85,0.310696
4717.14,0.309718
4721.43,0.308753
4725.74,0.307856
4730.05,0.306831
4734.37,0.305704
4738.7,0.304563
4743.03,0.30346
4747.38,0.302297
4751.73,0.301099
4756.09,0.299823
4760.45,0.298574
4764.83,0.297293
4769.21,0.296018
4773.6,0.294771
4778.0,0.293616
4782.41,0.292484
4786.83,0.291282
4791.25,0.290172
4795.68,0.289301
4800.13,0.288491
4804.57,0.287732
4809.03,0.286998
4813.5,0.286408
4817.97,0.285851
4822.45,0.285253
4826.94,0.284767
4831.44,0.284468
4835.95,0.284142
4840.46,0.283774
4844.99,0.283452
4849.52,0.283222
4854.06,0.282932
4858.61,0.282626
4863.17,0.282187
4867.73,0.28173
4872.31,0.281202
4876.89,0.28077
4881.48,0.280284
4886.08,0.279725
4890.69,0.279173
4895.31,0.278713
4899.94,0.278126
4904.57,0.277505
4909.22,0.276886
4913.87,0.276353
4918.53,0.275797
4923.21,0.275179
4927.88,0.274428
4932.57,0.273803
4937.27,0.273239
4941.98,0.272662
4946.69,0.27211
4951.42,0.271468
4956.15,0.270809
4960.9,0.270388
4965.65,0.269981
4970.41,0.269545
4975.18,0.269054
4979.96,0.268702
4984.75,0.268423
4989.54,0.268167
4994.35,0.267997
4999.17,0.267916
5003.99,0.267755
5008.83,0.267612
5013.67,0.267442
5018.52,0.267314
5023.39,0.267012
5028.26,0.266567
5033.14,0.26602
5038.03,0.26551
5042.93,0.264863
5047.84,0.264231
5052.76,0.263507
5057.69,0.26272
5062.63,0.261922
5067.58,0.261227
5072.54,0.260473
5077.51,0.259827
5082.49,0.259152
5087.47,0.258475
5092.47,0.257914
5097.48,0.257437
5102.5,0.256839
5107.52,0.256302
5112.56,0.255748
5117.61,0.255268
5122.66,0.254805
5127.73,0.254285
5132.81,0.253639
5137.89,0.252957
5142.99,0.252241
5148.1,0.251437
5153.22,0.250525
5158.34,0.249595
5163.48,0.248649
5168.63,0.247859
5173.79,0.247066
5178.96,0.246167
5184.13,0.245467
5189.32,0.245014
5194.52,0.244498
5199.73,0.243914
5204.96,0.24345
5210.19,0.243114
5215.43,0.242736
5220.68,0.242449
5225.94,0.242204
5231.22,0.241993
5236.5,0.241761
5241.79,0.241612
5247.1,0.241382
5252.42,0.241389
5257.74,0.241485
5263.08,0.241583
5268.43,0.241713
5273.79,0.242112
5279.16,0.242634
5284.54,0.243297
5289.93,0.243936
5295.34,0.244594
5300.75,0.245262
5306.18,0.245996
5311.61,0.246582
5317.06,0.247152
5322.52,0.247722
5327.99,0.248173
5333.47,0.248607
5338.96,0.249137
5344.47,0.249519
5349.98,0.249868
5355.51,0.250225
5361.05,0.250503
5366.6,0.250661
5372.16,0.250877
5377.73,0.250894
5383.32,0.250938
5388.91,0.250935
5394.52,0.25097
5400.14,0.250878
5405.77,0.250824
5411.41,0.250694
5417.07,0.250545
5422.74,0.250248
5428.41,0.25015
5434.1,0.249938
5439.81,0.249559
5445.52,0.249213
5451.25,0.248851
5456.98,0.248387
5462.73,0.247934
5468.5,0.2476
5474.27,0.247218
5480.06,0.246473
5485.86,0.245912
5491.67,0.245336
5497.49,0.244639
5503.33,0.243863
5509.18,0.243143
5515.04,0.242297
5520.91,0.241424
5526.8,0.240504
5532.69,0.239572
5538.61,0.23863
5544.53,0.237734
5550.47,0.236761
5556.41,0.235797
5562.38,0.234822
5568.35,0.233867
5574.34,0.232832
5580.34,0.231889
5586.35,0.231037
5592.38,0.230042
5598.42,0.228997
5604.47,0.228092
5610.54,0.227154
5616.61,0.226234
5622.71,0.225341
5628.81,0.224394
5634.93,0.2234
5641.06,0.222424
5647.21,0.221324
5653.36,0.220129
5659.54,0.218787
5665.72,0.217442
5671.92,0.215804
5678.13,0.2142
5684.36,0.212442
5690.6,0.210679
5696.85,0.208817
5703.12,0.207085
5709.4,0.205446
5715.69,0.203944
5722.0,0.202567
5728.33,0.201433
5734.66,0.200358
5741.01,0.199451
5747.38,0.198509
5753.76,0.197598
5760.15,0.196578
5766.56,0.195598
5772.98,0.194732
5779.41,0.193656
5785.86,0.192514
5792.33,0.191352
5798.81,0.190117
5805.3,0.189078
5811.81,0.187999
5818.33,0.186832
5824.87,0.18567
5831.42,0.184353
5837.99,0.182976
5844.57,0.181754
5851.17,0.180453
5857.78,0.179057
5864.41,0.177519
5871.05,0.176049
5877.7,0.174616
5884.38,0.173234
5891.06,0.171707
5897.76,0.170303
5904.48,0.168948
5911.21,0.167245
5917.96,0.165577
5924.73,0.164074
5931.5,0.162483
5938.3,0.160946
5945.11,0.159246
5951.93,0.157486
5958.78,0.155826
5965.63,0.154243
5972.51,0.152601
5979.39,0.150881
5986.3,0.149238
5993.22,0.147662
6000.16,0.145923
6007.11,0.144498
6014.08,0.143252
6021.06,0.142025
6028.06,0.1408
6035.08,0.139805
6042.12,0.138898
6049.17,0.138228
6056.23,0.137665
6063.32,0.137015
6070.42,0.136627
6077.53,0.136455
6084.67,0.136178
6091.82,0.135808
6098.98,0.13557
6106.17,0.13547
6113.37,0.135395
6120.58,0.135334
6127.82,0.135181
6135.07,0.135018
6142.34,0.134814
6149.63,0.134696
6156.93,0.134567
6164.25,0.134528
6171.59,0.134443
6178.95,0.134356
6186.32,0.134288
6193.71,0.134208
6201.12,0.134093
6208.54,0.134074
6215.99,0.133991
6223.45,0.133982
6230.93,0.134031
6238.43,0.134028
6245.95,0.134169
6253.48,0.134375
6261.03,0.134416
6268.6,0.134586
6276.19,0.134712
6283.8,0.134732
6291.43,0.134777
6299.07,0.134878
6306.73,0.134946
6314.42,0.134944
6322.12,0.134974
6329.84,0.134967
6337.57,0.134887
6345.33,0.134983
6353.11,0.135161
6360.9,0.135292
6368.72,0.135514
6376.55,0.13577
6384.4,0.135914
6392.27,0.136222
6400.17,0.136545
6408.08,0.13676
6416.01,0.137164
6423.96,0.137398
6431.93,0.137449
6439.92,0.137668
6447.93,0.137978
6455.96,0.138283
6464.01,0.138462
6472.08,0.13863
6480.17,0.13893
6488.28,0.139251
6496.41,0.139539
6504.56,0.139729
6512.73,0.139846
6520.92,0.140114
6529.14,0.1403
6537.37,0.140469
6545.63,0.140791
6553.9,0.141061
6562.2,0.141301
6570.51,0.141538
6578.85,0.141757
6587.21,0.14194
6595.59,0.142176
6603.99,0.142382
6612.42,0.142527
6620.86,0.142606
6629.33,0.142655
6637.82,0.142942
6646.33,0.143021
6654.86,0.142762
6663.41,0.142702
6671.99,0.142683
6680.59,0.14258
6689.21,0.142526
6697.85,0.142254
6706.51,0.14203
6715.2,0.141819
6723.91,0.141511
6732.64,0.141138
6741.4,0.140733
6750.18,0.14036
6758.98,0.139908
6767.8,0.139367
6776.65,0.138891
6785.52,0.138278
6794.41,0.137486
6803.33,0.136564
6812.27,0.135662
6821.23,0.134769
6830.22,0.13381
6839.23,0.132475
6848.26,0.131092
6857.32,0.129807
6866.4,0.128351
6875.51,0.126358
6884.64,0.124519
6893.8,0.122766
6902.98,0.120948
6912.18,0.119024
6921.41,0.11688
6930.66,0.114654
6939.94,0.112387
6949.24,0.110054
6958.57,0.107928
6967.92,0.105607
6977.3,0.10308
6986.7,0.100794
6996.13,0.098526
7005.59,0.096168
7015.07,0.094044
7024.57,0.0919
7034.1,0.089718
7043.66,0.087757
7053.25,0.085789
7062.85,0.083689
7072.49,0.081998
7082.15,0.080249
7091.84,0.078526
7101.55,0.076813
7111.3,0.075297
7121.06,0.073762
7130.86,0.072285
7140.68,0.070865
7150.53,0.069701
7160.41,0.068417
7170.31,0.067229
7180.24,0.065964
7190.2,0.064773
7200.19,0.06372
7210.2,0.06277
7220.24,0.061688
7230.31,0.060725
7240.41,0.05976
7250.54,0.05891
7260.69,0.058083
7270.88,0.057299
7281.09,0.056545
7291.33,0.055973
7301.6,0.055593
7311.9,0.055403
7322.22,0.055339
7332.58,0.055607
7342.97,0.056029
7353.38,0.056626
7363.83,0.05746
7374.3,0.058535
7384.81,0.059815
7395.34,0.061261
7405.91,0.0627
7416.5,0.064363
7427.13,0.066216
7437.78,0.06821
7448.47,0.070263
7459.19,0.072405
7469.94,0.074603
7480.71,0.076936
7491.52,0.079249
7502.37,0.081553
7513.24,0.083874
7524.14,0.086286
7535.08,0.088635
7546.05,0.09103
7557.05,0.093321
7568.08,0.095563
7579.15,0.097774
7590.24,0.099909
7601.37,0.101967
7612.53,0.103945
7623.73,0.105731
7634.96,0.10741
7646.22,0.108898
7657.51,0.11035
7668.84,0.111688
7680.2,0.112821
7691.59,0.113876
7703.02,0.114811
7714.49,0.115598
7725.98,0.116318
7737.52,0.11693
7749.08,0.117474
7760.68,0.117947
7772.32,0.118249
7783.99,0.118525
7795.69,0.118778
7807.43,0.118995
7819.21,0.119185
7831.02,0.11937
7842.87,0.119573
7854.75,0.11971
7866.67,0.119853
7878.62,0.120003
7890.62,0.120066
7902.64,0.120135
7914.71,0.120135
7926.81,0.119882
7938.95,0.119664
7951.13,0.11946
7963.34,0.119218
7975.59,0.118845
7987.88,0.118471
8000.21,0.118114
8012.57,0.117576
8024.98,0.116998
8037.42,0.116504
8049.9,0.115932
8062.42,0.115247
8074.98,0.114638
8087.57,0.114061
8100.21,0.113618
8112.89,0.113196
8125.6,0.112794
8138.36,0.112335
8151.16,0.111818
8163.99,0.111274
8176.87,0.110748
8189.79,0.110281
8202.75,0.109698
8215.75,0.109127
8228.79,0.10861
8241.87,0.10803
8254.99,0.107347
8268.16,0.106723
8281.37,0.106134
8294.62,0.105618
8307.91,0.105072
8321.24,0.104368
8334.62,0.103629
8348.04,0.102919
8361.51,0.102037
8375.02,0.10106
8388.57,0.100036
8402.16,0.099075
8415.8,0.098131
8429.49,0.097109
8443.22,0.096021
8456.99,0.094921
8470.81,0.093742
8484.67,0.092608
8498.58,0.091513
8512.54,0.090315
8526.54,0.089101
8540.58,0.087898
8554.68,0.086725
8568.82,0.085552
8583.0,0.084272
8597.24,0.083031
8611.52,0.081712
8625.85,0.080481
8640.23,0.079393
8654.65,0.07824
8669.12,0.077061
8683.64,0.075947
8698.21,0.07491
8712.83,0.073904
8727.5,0.07292
8742.22,0.072128
8756.99,0.071231
8771.8,0.070264
8786.67,0.069535
8801.59,0.068958
8816.56,0.068408
8831.58,0.067924
8846.65,0.067455
8861.77,0.067129
8876.94,0.067002
8892.17,0.066978
8907.45,0.067112
8922.78,0.067525
8938.16,0.068
8953.6,0.068739
8969.09,0.069586
8984.64,0.07066
9000.23,0.072015
9015.89,0.073523
9031.59,0.075265
9047.36,0.077029
9063.17,0.078802
9079.05,0.08063
9094.97,0.082412
9110.96,0.08424
9127.0,0.08604
9143.1,0.087765
9159.25,0.08948
9175.46,0.091317
9191.73,0.093045
9208.06,0.094821
9224.44,0.096881
9240.88,0.099083
9257.38,0.1013
9273.94,0.103592
9290.56,0.105972
9307.24,0.108217
9323.98,0.110173
9340.78,0.111804
9357.64,0.113139
9374.57,0.114427
9391.55,0.115529
9408.59,0.116259
9425.7,0.11667
9442.87,0.117023
9460.1,0.117163
9477.4,0.116992
9494.75,0.116781
9512.17,0.116581
9529.66,0.116186
9547.21,0.115709
9564.83,0.115051
9582.5,0.114439
9600.25,0.114006
9618.06,0.113794
9635.94,0.113648
9653.88,0.113758
9671.89,0.113817
9689.97,0.113724
9708.12,0.113705
9726.33,0.113354
9744.62,0.112534
9762.97,0.111404
9781.39,0.110139
9799.88,0.108681
9818.44,0.106846
9837.07,0.104795
9855.77,0.102607
9874.54,0.100417
9893.39,0.098316
9912.3,0.096442
9931.29,0.094813
9950.36,0.093237
9969.49,0.091677
9988.7,0.090396
10007.98,0.089234
10027.34,0.088063
10046.77,0.086983
10066.28,0.085876
10085.87,0.084738
10105.53,0.083636
10125.26,0.082406
10145.08,0.081049
10164.97,0.079621
10184.94,0.077943
10204.99,0.076081
10225.12,0.07431
10245.33,0.072801
10265.61,0.071721
10285.98,0.070787
10306.43,0.069964
10326.96,0.069274
10347.57,0.06857
10368.27,0.067771
10389.05,0.067258
10409.91,0.066755
10430.86,0.066073
10451.88,0.065465
10473.0,0.06512
10494.2,0.064784
10515.49,0.064408
10536.86,0.063944
10558.32,0.063517
10579.87,0.063041
10601.5,0.06248
10623.23,0.061801
10645.04,0.061295
10666.94,0.060801
10688.94,0.060305
10711.02,0.060034
10733.2,0.059956
10755.47,0.059773
10777.83,0.059767
10800.28,0.059827
10822.83,0.059757
10845.47,0.059751
10868.21,0.059741
10891.04,0.059681
10913.97,0.059606
10936.99,0.059425
10960.12,0.059206
10983.34,0.058969
11006.66,0.058767
11030.07,0.058536
11053.59,0.058306
11077.21,0.05787
11100.93,0.05755
11124.75,0.057577
11148.68,0.057494
11172.71,0.057173
11196.84,0.056845
11221.07,0.056617
11245.41,0.056429
11269.86,0.056008
11294.41,0.055713
11319.07,0.055422
11343.84,0.055049
11368.72,0.054565
11393.7,0.054097
11418.8,0.053608
11444.01,0.053297
11469.33,0.052864
11494.76,0.052461
11520.3,0.052152
11545.96,0.051774
11571.73,0.051349
11597.62,0.051023
11623.62,0.050841
11649.74,0.050784
11675.98,0.05084
11702.34,0.051126
11728.81,0.051493
11755.41,0.052055
11782.13,0.052725
11808.96,0.053381
11835.92,0.054348
11863.01,0.055312
11890.22,0.056154
11917.55,0.056915
11945.01,0.05758
11972.6,0.05823
12000.31,0.058733
12028.16,0.059032
12056.13,0.059339
12084.23,0.059483
12112.46,0.059415
12140.83,0.059393
12169.33,0.059457
12197.96,0.059463
12226.73,0.059286
12255.64,0.059357
12284.68,0.059227
12313.86,0.058967
12343.18,0.059018
12372.64,0.058937
12402.24,0.058687
12431.98,0.058747
12461.86,0.058867
12491.89,0.058687
12522.07,0.058669
12552.38,0.058663
12582.85,0.058686
12613.47,0.05874
12644.23,0.058683
12675.15,0.058726
12706.21,0.058776
12737.43,0.058879
12768.81,0.059039
12800.33,0.059224
12832.02,0.059097
12863.86,0.059192
12895.86,0.059408
12928.02,0.059409
12960.34,0.059288
12992.82,0.059165
13025.46,0.059044
13058.27,0.058893
13091.25,0.058894
13124.39,0.058963
13157.7,0.058915
13191.18,0.058878
13224.83,0.058603
13258.66,0.0582
13292.65,0.057849
13326.83,0.05758
13361.17,0.057254
13395.7,0.05695
13430.4,0.056613
13465.29,0.056129
13500.35,0.055813
13535.6,0.05557
13571.03,0.055207
13606.65,0.055096
13642.46,0.054931
13678.46,0.054528
13714.64,0.053858
13751.02,0.053632
13787.59,0.053873
13824.36,0.054108
13861.32,0.053971
13898.49,0.05373
13935.85,0.053839
13973.41,0.054567
14011.17,0.05543
14049.15,0.055766
14087.32,0.056426
14125.71,0.058129
14164.3,0.059316
14203.11,0.060134
14242.13,0.060459
14281.36,0.060283
14320.81,0.060307
14360.49,0.060581
14400.38,0.060957
14440.49,0.061805
14480.82,0.063152
14521.39,0.064912
14562.18,0.066943
14603.2,0.068957
14644.45,0.07031
14685.93,0.071078
14727.66,0.071524
14769.62,0.071721
14811.81,0.071663
14854.25,0.071555
14896.94,0.071205
14939.87,0.07082
14983.05,0.070384
15026.48,0.069589
15070.16,0.069189
15114.1,0.068619
15158.29,0.06781
15202.74,0.067023
15247.46,0.066114
15292.43,0.065401
15337.68,0.064899
15383.19,0.064685
15428.97,0.064079
15475.03,0.063129
15521.36,0.062076
15567.97,0.06128
15614.87,0.060166
15662.04,0.059323
15709.5,0.058958
15757.25,0.058387
15805.29,0.057802
15853.62,0.057233
15902.26,0.056717
15951.19,0.056798
16000.42,0.05717
16049.95,0.057849
16099.8,0.058739
16149.95,0.059999
16200.42,0.061715
16251.21,0.063458
16302.31,0.064987
16353.74,0.066162
16405.49,0.066698
16457.57,0.067084
16509.98,0.067399
16562.73,0.06752
16615.82,0.067361
16669.24,0.067039
16723.02,0.067013
16777.14,0.066914
16831.61,0.066547
16886.43,0.066523
16941.62,0.066918
16997.16,0.067337
17053.08,0.067554
17109.36,0.067856
17166.01,0.067907
17223.04,0.06829
17280.45,0.069233
17338.24,0.070482
17396.43,0.07203
17455.0,0.073886
17513.97,0.075786
17573.34,0.078163
17633.11,0.081184
17693.29,0.084319
17753.89,0.087259
17814.9,0.089805
17876.33,0.091935
17938.18,0.093248
18000.47,0.093974
18063.19,0.094244
18126.35,0.093706
18189.95,0.092591
18254.0,0.091624
18318.5,0.090778
18383.46,0.090645
18448.88,0.09134
18514.77,0.092245
18581.13,0.093005
18647.97,0.093885
18715.29,0.094569
18783.1,0.094856
18851.4,0.095359
18920.2,0.095931
18989.51,0.096625
19059.32,0.097017
19129.65,0.097659
19200.5,0.097995
19271.88,0.09828
19343.79,0.099059
19416.24,0.100672
19489.23,0.102498
19562.77,0.104709
19636.88,0.107291
19711.54,0.111119
19786.78,0.116014
19862.59,0.120923
19938.98,0.12478
20015.96,0.127834
20093.55,0.130253
20171.73,0.131403
20250.53,0.131608
20329.94,0.131545
20409.98,0.130665
20490.65,0.13012
20571.96,0.129922
20653.92,0.129043
20736.54,0.128499
20819.82,0.127736
20903.77,0.126918
20988.4,0.127062
21073.72,0.128303
21159.73,0.130173
21246.46,0.132517
21333.89,0.13636
21422.04,0.14074
21510.93,0.143868
21600.56,0.14547
21690.94,0.146113
21782.08,0.145612
21873.99,0.144036
21966.67,0.142478
22060.15,0.141494
22154.42,0.140772
22249.51,0.139915
22345.41,0.138984
22442.14,0.139036
22539.72,0.138966
22638.14,0.138421
22737.43,0.135462
22837.6,0.131501
22938.65,0.127903
23040.6,0.124752
23143.46,0.121994
23247.24,0.11789
23351.96,0.114121
23457.63,0.112831
23564.25,0.112049
23671.85,0.112156
23780.44,0.114905
23890.02,0.117842
24000.63,0.119109
24112.26,0.120298
24224.93,0.121786
24338.66,0.123768
24453.47,0.123105
24569.36,0.120468
24686.36,0.120518
24804.47,0.12359
24923.73,0.125306
25044.13,0.125371
25165.71,0.125607
25288.46,0.128104
25412.43,0.132775
25537.61,0.136413
25664.04,0.138667
25791.72,0.142148
25920.68,0.141931
