Database of Origin,University of Winnipeg Spectrophotometer Facility
Date Added,2016-11-30 00:29:54.373698

Data ID,RLA_SCA_01          
Sample ID,SCA101
Mineral Name,Wernerite
Grain Size,<45
Viewing Geometry,"30/0,30"
Resolution,"5,0.6-129"
Composition,Scapolite
Material Class,Tectosilicate

Wavelength
305.0,0.522687
310.0,0.535875
315.0,0.549228
320.0,0.56262
325.0,0.574805
330.0,0.584313
335.0,0.597221
340.0,0.609491
345.0,0.622462
350.0,0.635944
355.0,0.650912
360.0,0.6636
365.0,0.676595
370.0,0.68645
375.0,0.694546
380.0,0.696589
385.0,0.695256
390.0,0.690895
395.0,0.685216
400.0,0.682202
405.0,0.677969
410.0,0.676165
415.0,0.67725
420.0,0.680568
425.0,0.686706
430.0,0.693271
435.0,0.700903
440.0,0.707766
445.0,0.715366
450.0,0.722698
455.0,0.729417
460.0,0.735164
465.0,0.740791
470.0,0.745267
475.0,0.749215
480.0,0.752615
485.0,0.755907
490.0,0.759052
495.0,0.761363
500.0,0.763038
505.0,0.765901
510.0,0.767452
515.0,0.769177
520.0,0.770844
525.0,0.773065
530.0,0.773469
535.0,0.775636
540.0,0.776096
545.0,0.777617
550.0,0.778382
555.0,0.779603
560.0,0.780198
565.0,0.781459
570.0,0.781946
575.0,0.782752
580.0,0.782852
585.0,0.783782
590.0,0.783392
595.0,0.784248
600.0,0.783538
605.0,0.784014
610.0,0.782893
615.0,0.783076
620.0,0.782402
625.0,0.782523
630.0,0.781548
635.0,0.781686
640.0,0.781169
645.0,0.781186
650.0,0.780314
655.0,0.780398
660.0,0.77976
665.0,0.779409
670.0,0.778869
675.0,0.778909
680.0,0.778446
685.0,0.776995
690.0,0.776261
695.0,0.776372
700.0,0.775719
705.0,0.774574
710.0,0.773345
715.0,0.7727
720.0,0.771149
725.0,0.770024
730.0,0.768861
735.0,0.767862
740.0,0.767012
745.0,0.766243
750.0,0.764961
755.0,0.76394
760.0,0.763528
765.0,0.762794
770.0,0.761941
775.0,0.760686
780.0,0.759722
785.0,0.75903
790.0,0.75849
795.0,0.757848
800.0,0.756287
805.0,0.756272
810.0,0.755087
815.0,0.754241
820.0,0.753876
825.0,0.752848
830.0,0.752849
835.0,0.751743
840.0,0.75124
845.0,0.750446
850.0,0.750332
855.0,0.749466
860.0,0.749301
865.0,0.74827
870.0,0.74751
875.0,0.747693
880.0,0.745813
885.0,0.745669
890.0,0.745225
895.0,0.744699
900.0,0.744172
905.0,0.743646
910.0,0.742508
915.0,0.741897
920.0,0.741401
925.0,0.741057
930.0,0.740032
935.0,0.741184
940.0,0.741708
945.0,0.742567
950.0,0.741794
955.0,0.741853
960.0,0.740435
965.0,0.739098
970.0,0.740375
975.0,0.739914
980.0,0.739294
985.0,0.739299
990.0,0.740053
995.0,0.739652
1000.0,0.739462
1005.0,0.739059
1010.0,0.740767
1015.0,0.740935
1020.0,0.739923
1025.0,0.738878
1030.0,0.738573
1035.0,0.737169
1040.0,0.7378
1045.0,0.737522
1050.0,0.738321
1055.0,0.738306
1060.0,0.73866
1065.0,0.737901
1070.0,0.737412
1075.0,0.738882
1080.0,0.739862
1085.0,0.738925
1090.0,0.739087
1095.0,0.739466
1100.0,0.737877
1105.0,0.738459
1110.0,0.738493
1115.0,0.738021
1120.0,0.739716
1125.0,0.740043
1130.0,0.73952
1135.0,0.739827
1140.0,0.740524
1145.0,0.738648
1150.0,0.739733
1155.0,0.738868
1160.0,0.738349
1165.0,0.736683
1170.0,0.737472
1175.0,0.735837
1180.0,0.736409
1185.0,0.73867
1190.0,0.740219
1195.0,0.741056
1200.0,0.739272
1205.0,0.739138
1210.0,0.739975
1215.0,0.740129
1220.0,0.739603
1225.0,0.73971
1230.0,0.738994
1235.0,0.738465
1240.0,0.738207
1245.0,0.738518
1250.0,0.73858
1255.0,0.738656
1260.0,0.739904
1265.0,0.73969
1270.0,0.739205
1275.0,0.738939
1280.0,0.738804
1285.0,0.737952
1290.0,0.738184
1295.0,0.738521
1300.0,0.738705
1305.0,0.738341
1310.0,0.738916
1315.0,0.739317
1320.0,0.740539
1325.0,0.740168
1330.0,0.740331
1335.0,0.738987
1340.0,0.739144
1345.0,0.737186
1350.0,0.736145
1355.0,0.735975
1360.0,0.736439
1365.0,0.735608
1370.0,0.736108
1375.0,0.736142
1380.0,0.735493
1385.0,0.7344
1390.0,0.732024
1395.0,0.727024
1400.0,0.72021
1405.0,0.712716
1410.0,0.707988
1415.0,0.705965
1420.0,0.7075
1425.0,0.712993
1430.0,0.720364
1435.0,0.726734
1440.0,0.731885
1445.0,0.734678
1450.0,0.736041
1455.0,0.735669
1460.0,0.735613
1465.0,0.735269
1470.0,0.734901
1475.0,0.73475
1480.0,0.735399
1485.0,0.736384
1490.0,0.736514
1495.0,0.736845
1500.0,0.737059
1505.0,0.737435
1510.0,0.737153
1515.0,0.737575
1520.0,0.737777
1525.0,0.738385
1530.0,0.739124
1535.0,0.738681
1540.0,0.738913
1545.0,0.738864
1550.0,0.73856
1555.0,0.739209
1560.0,0.739426
1565.0,0.73941
1570.0,0.739481
1575.0,0.739592
1580.0,0.738307
1585.0,0.7393
1590.0,0.740005
1595.0,0.740622
1600.0,0.740693
1605.0,0.740944
1610.0,0.740542
1615.0,0.739834
1620.0,0.740426
1625.0,0.739645
1630.0,0.739342
1635.0,0.739622
1640.0,0.740138
1645.0,0.739858
1650.0,0.740005
1655.0,0.741227
1660.0,0.740921
1665.0,0.741121
1670.0,0.74081
1675.0,0.742066
1680.0,0.741305
1685.0,0.741554
1690.0,0.741434
1695.0,0.742329
1700.0,0.742313
1705.0,0.741672
1710.0,0.74165
1715.0,0.741992
1720.0,0.741219
1725.0,0.7408
1730.0,0.741414
1735.0,0.740886
1740.0,0.739966
1745.0,0.740388
1750.0,0.74003
1755.0,0.740492
1760.0,0.740105
1765.0,0.740498
1770.0,0.740206
1775.0,0.740467
1780.0,0.740546
1785.0,0.741308
1790.0,0.741269
1795.0,0.741486
1800.0,0.740872
1805.0,0.740383
1810.0,0.741395
1815.0,0.741734
1820.0,0.741288
1825.0,0.741591
1830.0,0.741991
1835.0,0.740954
1840.0,0.740442
1845.0,0.74032
1850.0,0.741062
1855.0,0.740045
1860.0,0.739222
1865.0,0.737848
1870.0,0.737825
1875.0,0.735036
1880.0,0.733747
1885.0,0.733182
1890.0,0.731822
1895.0,0.728577
1900.0,0.726329
1901.04,0.7285
1901.74,0.727424
1902.43,0.727229
1903.13,0.726096
1903.83,0.72555
1904.53,0.72498
1905.23,0.723234
1905.93,0.719516
1906.63,0.721466
1907.33,0.723574
1908.04,0.725508
1908.74,0.721877
1909.44,0.722462
1910.15,0.72304
1910.85,0.722797
1911.55,0.722685
1912.26,0.722127
1912.96,0.720016
1913.67,0.720385
1914.38,0.720088
1915.08,0.720606
1915.79,0.721729
1916.5,0.722265
1917.21,0.722205
1917.92,0.722156
1918.63,0.721411
1919.34,0.721204
1920.05,0.722238
1920.76,0.723763
1921.47,0.723908
1922.19,0.724103
1922.9,0.721284
1923.61,0.720229
1924.33,0.720887
1925.04,0.721726
1925.76,0.723614
1926.47,0.723093
1927.19,0.721114
1927.9,0.720368
1928.62,0.721479
1929.34,0.722674
1930.06,0.72441
1930.78,0.723392
1931.5,0.720744
1932.22,0.723109
1932.94,0.724418
1933.66,0.723059
1934.38,0.721993
1935.1,0.722529
1935.82,0.72337
1936.55,0.723388
1937.27,0.723101
1937.99,0.723533
1938.72,0.723292
1939.44,0.722735
1940.17,0.721727
1940.9,0.722687
1941.62,0.721238
1942.35,0.721572
1943.08,0.723122
1943.81,0.722359
1944.54,0.722214
1945.27,0.720779
1946.0,0.719947
1946.73,0.720367
1947.46,0.720222
1948.19,0.72013
1948.92,0.71991
1949.66,0.720499
1950.39,0.719876
1951.12,0.720346
1951.86,0.721174
1952.59,0.719613
1953.33,0.718133
1954.07,0.718156
1954.8,0.718587
1955.54,0.718451
1956.28,0.718761
1957.02,0.719173
1957.75,0.719388
1958.49,0.719754
1959.23,0.719281
1959.98,0.719252
1960.72,0.718778
1961.46,0.719871
1962.2,0.719688
1962.94,0.718651
1963.69,0.718033
1964.43,0.719394
1965.18,0.71931
1965.92,0.717529
1966.67,0.718875
1967.41,0.718931
1968.16,0.717222
1968.91,0.717965
1969.66,0.716772
1970.4,0.717041
1971.15,0.718623
1971.9,0.718302
1972.65,0.718128
1973.4,0.7182
1974.16,0.717583
1974.91,0.718614
1975.66,0.717453
1976.41,0.716142
1977.17,0.718537
1977.92,0.719495
1978.68,0.720009
1979.43,0.718839
1980.19,0.717331
1980.95,0.716835
1981.7,0.716989
1982.46,0.717088
1983.22,0.716786
1983.98,0.716434
1984.74,0.717505
1985.5,0.71788
1986.26,0.71569
1987.02,0.71422
1987.78,0.713123
1988.54,0.713513
1989.31,0.715065
1990.07,0.715958
1990.84,0.71617
1991.6,0.714541
1992.37,0.713797
1993.13,0.711296
1993.9,0.710974
1994.67,0.711859
1995.43,0.71191
1996.2,0.71215
1996.97,0.713225
1997.74,0.714584
1998.51,0.714734
1999.28,0.713526
2000.05,0.713438
2000.82,0.714357
2001.6,0.713285
2002.37,0.712055
2003.14,0.711011
2003.92,0.711349
2004.69,0.710529
2005.47,0.711974
2006.24,0.712501
2007.02,0.71306
2007.8,0.712526
2008.58,0.711954
2009.35,0.71075
2010.13,0.711572
2010.91,0.712159
2011.69,0.712552
2012.47,0.711818
2013.26,0.711678
2014.04,0.710898
2014.82,0.710913
2015.6,0.711274
2016.39,0.711852
2017.17,0.711395
2017.96,0.711325
2018.74,0.710246
2019.53,0.710753
2020.32,0.710174
2021.11,0.709509
2021.89,0.709505
2022.68,0.709465
2023.47,0.711028
2024.26,0.710662
2025.05,0.710336
2025.84,0.711946
2026.64,0.710489
2027.43,0.709361
2028.22,0.709113
2029.02,0.708305
2029.81,0.709769
2030.61,0.710778
2031.4,0.711322
2032.2,0.711131
2032.99,0.710584
2033.79,0.711805
2034.59,0.710719
2035.39,0.708373
2036.19,0.706502
2036.99,0.707651
2037.79,0.708296
2038.59,0.708786
2039.39,0.709462
2040.19,0.709508
2041.0,0.707935
2041.8,0.710227
2042.61,0.709518
2043.41,0.709558
2044.22,0.709717
2045.02,0.707995
2045.83,0.707509
2046.64,0.708719
2047.45,0.709419
2048.26,0.70942
2049.07,0.709809
2049.88,0.707788
2050.69,0.705615
2051.5,0.705147
2052.31,0.707071
2053.12,0.706237
2053.94,0.706048
2054.75,0.705477
2055.56,0.705513
2056.38,0.705376
2057.2,0.705097
2058.01,0.706382
2058.83,0.706577
2059.65,0.705674
2060.47,0.704974
2061.29,0.704407
2062.11,0.704536
2062.93,0.706351
2063.75,0.705554
2064.57,0.704615
2065.39,0.704624
2066.22,0.70447
2067.04,0.703923
2067.86,0.705151
2068.69,0.707201
2069.51,0.706823
2070.34,0.705716
2071.17,0.70509
2072.0,0.703506
2072.82,0.702364
2073.65,0.702181
2074.48,0.703321
2075.31,0.703318
2076.15,0.702706
2076.98,0.703199
2077.81,0.704287
2078.64,0.702752
2079.48,0.702004
2080.31,0.70124
2081.15,0.7012
2081.98,0.701196
2082.82,0.701628
2083.66,0.703091
2084.49,0.701882
2085.33,0.700277
2086.17,0.700341
2087.01,0.69935
2087.85,0.700254
2088.69,0.700738
2089.53,0.70051
2090.38,0.70177
2091.22,0.700831
2092.06,0.699221
2092.91,0.700647
2093.75,0.700419
2094.6,0.699916
2095.45,0.700092
2096.29,0.699559
2097.14,0.697974
2097.99,0.697543
2098.84,0.697221
2099.69,0.69794
2100.54,0.699153
2101.39,0.699065
2102.24,0.696572
2103.1,0.69639
2103.95,0.697325
2104.8,0.697097
2105.66,0.695707
2106.52,0.695698
2107.37,0.695149
2108.23,0.697106
2109.09,0.698451
2109.95,0.697794
2110.8,0.696415
2111.66,0.696299
2112.52,0.695691
2113.39,0.695028
2114.25,0.693361
2115.11,0.693475
2115.97,0.693729
2116.84,0.693823
2117.7,0.693859
2118.57,0.694957
2119.43,0.693721
2120.3,0.692934
2121.17,0.692541
2122.04,0.692651
2122.91,0.692599
2123.78,0.692085
2124.65,0.691456
2125.52,0.692104
2126.39,0.692707
2127.26,0.693744
2128.13,0.696029
2129.01,0.696077
2129.88,0.694735
2130.76,0.694181
2131.63,0.693068
2132.51,0.692397
2133.39,0.692832
2134.27,0.692626
2135.15,0.692597
2136.03,0.69219
2136.91,0.692182
2137.79,0.692009
2138.67,0.691939
2139.55,0.691952
2140.44,0.691392
2141.32,0.691073
2142.2,0.691102
2143.09,0.691962
2143.98,0.693132
2144.86,0.692911
2145.75,0.692209
2146.64,0.69224
2147.53,0.691411
2148.42,0.69078
2149.31,0.691378
2150.2,0.692085
2151.09,0.69153
2151.99,0.69192
2152.88,0.692206
2153.77,0.692947
2154.67,0.69132
2155.57,0.69083
2156.46,0.690726
2157.36,0.691462
2158.26,0.69053
2159.16,0.688379
2160.06,0.688019
2160.96,0.688398
2161.86,0.688847
2162.76,0.68818
2163.66,0.687611
2164.57,0.688316
2165.47,0.689421
2166.37,0.688835
2167.28,0.687988
2168.19,0.68779
2169.09,0.687469
2170.0,0.687207
2170.91,0.687391
2171.82,0.68835
2172.73,0.686789
2173.64,0.685808
2174.55,0.684959
2175.47,0.685046
2176.38,0.684571
2177.29,0.683419
2178.21,0.682481
2179.12,0.683064
2180.04,0.683432
2180.96,0.681905
2181.88,0.681036
2182.79,0.679837
2183.71,0.679122
2184.63,0.678352
2185.55,0.677463
2186.48,0.67706
2187.4,0.676769
2188.32,0.676151
2189.25,0.676138
2190.17,0.675606
2191.1,0.673557
2192.02,0.672536
2192.95,0.671994
2193.88,0.670765
2194.81,0.669324
2195.74,0.669261
2196.67,0.669218
2197.6,0.667639
2198.53,0.666897
2199.46,0.665815
2200.4,0.663702
2201.33,0.66327
2202.27,0.662673
2203.2,0.662549
2204.14,0.661307
2205.08,0.659507
2206.01,0.658466
2206.95,0.658786
2207.89,0.658072
2208.83,0.656913
2209.78,0.656532
2210.72,0.655894
2211.66,0.655076
2212.61,0.655947
2213.55,0.655171
2214.5,0.654247
2215.44,0.653892
2216.39,0.653725
2217.34,0.652875
2218.29,0.652614
2219.24,0.652507
2220.19,0.651977
2221.14,0.651818
2222.09,0.651407
2223.04,0.652721
2224.0,0.652991
2224.95,0.652645
2225.91,0.652404
2226.86,0.652705
2227.82,0.653432
2228.78,0.653865
2229.74,0.655662
2230.69,0.657894
2231.66,0.658149
2232.62,0.658385
2233.58,0.65865
2234.54,0.659622
2235.5,0.661437
2236.47,0.662473
2237.43,0.662434
2238.4,0.662761
2239.37,0.664531
2240.33,0.665678
2241.3,0.666392
2242.27,0.666382
2243.24,0.66762
2244.21,0.669102
2245.19,0.670156
2246.16,0.669829
2247.13,0.669796
2248.11,0.670072
2249.08,0.672495
2250.06,0.673567
2251.04,0.673765
2252.01,0.673629
2252.99,0.673554
2253.97,0.673552
2254.95,0.673576
2255.93,0.674322
2256.92,0.675435
2257.9,0.675357
2258.88,0.675497
2259.87,0.675757
2260.85,0.675856
2261.84,0.675418
2262.83,0.675646
2263.81,0.67657
2264.8,0.677031
2265.79,0.677718
2266.78,0.678194
2267.78,0.677161
2268.77,0.676838
2269.76,0.677821
2270.76,0.677563
2271.75,0.676295
2272.75,0.67628
2273.74,0.675828
2274.74,0.676455
2275.74,0.678081
2276.74,0.677221
2277.74,0.675841
2278.74,0.676385
2279.74,0.676601
2280.75,0.675904
2281.75,0.675631
2282.75,0.675559
2283.76,0.675486
2284.77,0.675121
2285.77,0.674945
2286.78,0.675331
2287.79,0.675756
2288.8,0.676548
2289.81,0.675635
2290.82,0.674338
2291.84,0.67431
2292.85,0.673728
2293.86,0.672966
2294.88,0.672576
2295.9,0.672891
2296.91,0.673432
2297.93,0.673255
2298.95,0.672813
2299.97,0.672321
2300.99,0.672816
2302.01,0.67219
2303.04,0.671237
2304.06,0.670456
2305.08,0.670049
2306.11,0.669425
2307.14,0.66968
2308.16,0.669303
2309.19,0.668084
2310.22,0.668146
2311.25,0.668644
2312.28,0.667655
2313.31,0.666285
2314.35,0.665232
2315.38,0.66472
2316.41,0.664486
2317.45,0.663676
2318.49,0.662193
2319.52,0.662188
2320.56,0.661244
2321.6,0.65966
2322.64,0.659027
2323.68,0.65789
2324.72,0.655974
2325.77,0.655064
2326.81,0.654596
2327.86,0.652944
2328.9,0.650914
2329.95,0.649328
2331.0,0.648638
2332.04,0.648339
2333.09,0.646573
2334.14,0.64592
2335.2,0.646434
2336.25,0.645777
2337.3,0.644392
2338.36,0.6429
2339.41,0.642527
2340.47,0.642268
2341.52,0.64218
2342.58,0.641536
2343.64,0.641015
2344.7,0.640554
2345.76,0.639032
2346.82,0.638909
2347.89,0.638053
2348.95,0.637293
2350.02,0.637025
2351.08,0.63621
2352.15,0.635709
2353.22,0.635666
2354.28,0.635382
2355.35,0.634205
2356.42,0.633746
2357.5,0.633847
2358.57,0.63443
2359.64,0.634543
2360.72,0.634188
2361.79,0.633978
2362.87,0.634669
2363.95,0.636149
2365.02,0.636799
2366.1,0.636658
2367.18,0.637491
2368.27,0.638896
2369.35,0.639578
2370.43,0.6402
2371.52,0.641046
2372.6,0.641354
2373.69,0.641056
2374.78,0.641751
2375.86,0.641841
2376.95,0.641287
2378.04,0.64086
2379.13,0.641599
2380.23,0.642189
2381.32,0.6425
2382.41,0.641889
2383.51,0.641498
2384.61,0.642114
2385.7,0.642287
2386.8,0.641853
2387.9,0.641943
2389.0,0.641415
2390.1,0.641374
2391.21,0.64152
2392.31,0.641984
2393.41,0.641169
2394.52,0.640815
2395.63,0.640532
2396.73,0.641015
2397.84,0.640674
2398.95,0.641564
2400.06,0.641248
2401.17,0.640687
2402.29,0.640711
2403.4,0.641034
2404.52,0.64091
2405.63,0.64053
2406.75,0.640177
2407.87,0.640495
2408.98,0.640873
2410.1,0.64004
2411.23,0.639028
2412.35,0.639277
2413.47,0.639346
2414.59,0.639047
2415.72,0.638314
2416.85,0.637784
2417.97,0.637494
2419.1,0.636964
2420.23,0.636232
2421.36,0.636553
2422.49,0.636164
2423.63,0.636337
2424.76,0.637065
2425.89,0.636818
2427.03,0.635436
2428.17,0.634787
2429.3,0.634004
2430.44,0.63408
2431.58,0.634011
2432.72,0.633704
2433.87,0.63271
2435.01,0.632647
2436.15,0.632277
2437.3,0.63187
2438.45,0.631421
2439.59,0.631798
2440.74,0.631497
2441.89,0.631347
2443.04,0.631302
2444.19,0.631433
2445.35,0.6312
2446.5,0.631059
2447.66,0.63098
2448.81,0.630281
2449.97,0.630087
2451.13,0.630356
2452.29,0.630462
2453.45,0.630112
2454.61,0.629897
2455.77,0.630566
2456.94,0.630364
2458.1,0.630154
2459.27,0.630296
2460.43,0.630916
2461.6,0.630444
2462.77,0.630094
2463.94,0.629913
2465.11,0.629578
2466.29,0.629738
2467.46,0.630166
2468.64,0.629974
2469.81,0.630443
2470.99,0.630198
2472.17,0.629751
2473.35,0.629638
2474.53,0.630007
2475.71,0.630164
2476.89,0.63089
2478.08,0.631773
2479.26,0.631308
2480.45,0.630938
2481.63,0.631236
2482.82,0.631521
2484.01,0.631414
2485.2,0.630927
2486.4,0.630948
2487.59,0.631233
2488.78,0.631867
2489.98,0.63181
2491.17,0.632056
2492.37,0.63259
2493.57,0.632689
2494.77,0.632317
2495.97,0.632205
2497.17,0.63196
2498.38,0.631742
2499.58,0.631625
2500.79,0.631961
2502.0,0.632244
2503.2,0.632681
2504.41,0.632776
2505.62,0.632651
2506.83,0.632621
2508.05,0.633471
2509.26,0.634215
2510.48,0.633926
2511.69,0.633696
2512.91,0.633873
2514.13,0.633642
2515.35,0.63367
2516.57,0.633393
2517.79,0.633059
2519.02,0.633414
2520.24,0.632847
2521.47,0.632622
2522.69,0.632951
2523.92,0.632414
2525.15,0.632219
2526.38,0.632397
2527.61,0.632443
2528.85,0.632353
2530.08,0.631928
2531.32,0.631212
2532.55,0.630931
2533.79,0.630934
2535.03,0.632143
2536.27,0.631512
2537.51,0.631248
2538.75,0.632446
2540.0,0.632893
2541.24,0.632517
2542.49,0.631702
2543.74,0.63094
2544.99,0.631913
2546.24,0.632983
2547.49,0.632802
2548.74,0.631405
2549.99,0.632114
2551.25,0.631706
2552.5,0.631094
2553.76,0.631364
2555.02,0.632996
2556.28,0.63286
2557.54,0.631769
2558.8,0.630661
2560.07,0.630028
2561.33,0.628587
2562.6,0.628914
2563.86,0.631532
2565.13,0.632982
2566.4,0.634138
2567.67,0.63357
2568.95,0.630797
2570.22,0.628836
2571.5,0.630727
2572.77,0.631487
2574.05,0.627534
2575.33,0.630882
2576.61,0.632549
2577.89,0.630167
2579.17,0.63225
2580.46,0.631517
2581.74,0.628316
2583.03,0.628962
2584.31,0.627504
2585.6,0.630309
2586.89,0.633354
2588.19,0.630009
2589.48,0.631112
2590.77,0.632409
2592.07,0.631601
2593.36,0.628667
2594.66,0.621895
2595.96,0.620756
2597.26,0.634611
2598.56,0.636759
2599.87,0.631629
2601.17,0.627905
2602.48,0.625866
2603.78,0.626417
2605.09,0.626493
2606.4,0.626162
2607.71,0.629752
2609.03,0.630793
2610.34,0.628408
2611.65,0.628636
2612.97,0.628224
2614.29,0.626889
2615.61,0.626629
2616.93,0.623571
2618.25,0.625167
2619.57,0.630504
2620.9,0.626394
2622.22,0.628523
2623.55,0.63274
2624.88,0.630102
2626.21,0.626545
2627.54,0.624342
2628.87,0.6296
2630.21,0.628946
2631.54,0.625315
2632.88,0.631753
2634.21,0.631998
2635.55,0.630865
2636.89,0.631654
2638.24,0.62998
2639.58,0.629277
2640.92,0.62947
2642.27,0.628907
2643.62,0.628914
2644.97,0.628953
2646.32,0.627839
2647.67,0.628975
2649.02,0.630223
2650.38,0.629359
2651.73,0.627142
2653.09,0.624427
2654.45,0.626403
2655.81,0.626827
2657.17,0.625992
2658.53,0.625749
2659.89,0.622774
2661.26,0.622342
2662.63,0.62303
2664.0,0.62118
2665.36,0.615568
2666.74,0.614456
2668.11,0.619528
2669.48,0.621042
2670.86,0.612505
2672.23,0.613934
2673.61,0.619284
2674.99,0.612679
2676.37,0.606344
2677.76,0.603581
2679.14,0.605862
2680.52,0.605402
2681.91,0.604896
2683.3,0.599947
2684.69,0.595989
2686.08,0.594161
2687.47,0.591323
2688.87,0.588578
2690.26,0.584888
2691.66,0.579685
2693.06,0.572407
2694.46,0.56436
2695.86,0.561184
2697.26,0.557924
2698.66,0.551865
2700.07,0.544415
2701.48,0.537278
2702.89,0.532435
2704.3,0.529116
2705.71,0.522737
2707.12,0.516946
2708.53,0.510602
2709.95,0.502344
2711.37,0.494055
2712.79,0.487881
2714.21,0.480369
2715.63,0.467955
2717.05,0.455187
2718.48,0.44264
2719.9,0.430019
2721.33,0.416628
2722.76,0.405578
2724.19,0.393151
2725.62,0.377467
2727.06,0.365481
2728.49,0.352921
2729.93,0.339707
2731.37,0.327471
2732.81,0.316646
2734.25,0.306781
2735.69,0.297695
2737.14,0.289648
2738.58,0.281552
2740.03,0.273027
2741.48,0.266569
2742.93,0.261232
2744.38,0.255582
2745.83,0.248991
2747.29,0.242937
2748.75,0.237662
2750.2,0.233342
2751.66,0.229294
2753.13,0.225491
2754.59,0.222015
2756.05,0.218493
2757.52,0.216451
2758.99,0.215423
2760.46,0.213798
2761.93,0.213085
2763.4,0.21285
2764.87,0.213526
2766.35,0.215269
2767.82,0.216659
2769.3,0.218378
2770.78,0.220685
2772.26,0.223706
2773.75,0.228214
2775.23,0.232551
2776.72,0.237198
2778.21,0.242701
2779.7,0.249996
2781.19,0.257234
2782.68,0.264714
2784.18,0.273625
2785.67,0.28247
2787.17,0.290673
2788.67,0.301749
2790.17,0.314335
2791.67,0.324837
2793.18,0.335048
2794.68,0.346156
2796.19,0.357148
2797.7,0.367703
2799.21,0.377711
2800.72,0.386688
2802.24,0.394068
2803.75,0.400884
2805.27,0.409423
2806.79,0.416464
2808.31,0.421135
2809.83,0.425275
2811.35,0.429842
2812.88,0.433708
2814.41,0.43654
2815.93,0.439181
2817.46,0.441974
2819.0,0.443704
2820.53,0.444934
2822.07,0.446971
2823.6,0.448399
2825.14,0.448966
2826.68,0.448867
2828.22,0.449376
2829.77,0.450482
2831.31,0.450831
2832.86,0.450337
2834.41,0.449638
2835.96,0.448729
2837.51,0.447617
2839.07,0.446355
2840.62,0.444542
2842.18,0.441496
2843.74,0.43757
2845.3,0.433504
2846.86,0.429592
2848.43,0.425565
2849.99,0.421417
2851.56,0.417019
2853.13,0.412704
2854.7,0.408302
2856.27,0.403561
2857.85,0.397631
2859.42,0.389926
2861.0,0.381034
2862.58,0.37237
2864.16,0.365197
2865.75,0.361142
2867.33,0.360795
2868.92,0.363199
2870.51,0.365523
2872.1,0.366259
2873.69,0.366828
2875.28,0.368176
2876.88,0.371368
2878.48,0.376458
2880.07,0.383045
2881.68,0.38936
2883.28,0.394746
2884.88,0.399713
2886.49,0.405043
2888.1,0.409853
2889.71,0.414002
2891.32,0.418087
2892.93,0.421839
2894.55,0.42554
2896.16,0.429547
2897.78,0.4327
2899.4,0.435764
2901.03,0.439082
2902.65,0.442182
2904.28,0.44531
2905.91,0.447395
2907.53,0.449482
2909.17,0.451625
2910.8,0.453484
2912.44,0.455064
2914.07,0.456118
2915.71,0.457465
2917.35,0.4587
2918.99,0.459558
2920.64,0.459985
2922.29,0.460438
2923.93,0.461383
2925.58,0.462329
2927.24,0.462947
2928.89,0.463203
2930.55,0.463871
2932.2,0.464484
2933.86,0.464795
2935.52,0.464922
2937.19,0.465178
2938.85,0.465147
2940.52,0.46542
2942.19,0.465713
2943.86,0.466014
2945.53,0.466375
2947.21,0.466702
2948.88,0.466508
2950.56,0.466282
2952.24,0.466671
2953.92,0.467422
2955.61,0.467904
2957.29,0.468563
2958.98,0.468725
2960.67,0.468953
2962.36,0.469335
2964.06,0.469574
2965.75,0.46995
2967.45,0.470391
2969.15,0.470787
2970.85,0.471204
2972.55,0.471701
2974.26,0.472492
2975.97,0.472778
2977.68,0.472819
2979.39,0.472621
2981.1,0.472738
2982.82,0.473221
2984.53,0.474026
2986.25,0.474226
2987.97,0.474216
2989.7,0.474344
2991.42,0.47486
2993.15,0.475141
2994.88,0.47531
2996.61,0.475758
2998.34,0.475939
3000.08,0.475996
3001.82,0.476379
3003.55,0.47667
3005.3,0.476992
3007.04,0.477289
3008.78,0.477593
3010.53,0.477883
3012.28,0.478225
3014.03,0.478665
3015.79,0.478846
3017.54,0.479263
3019.3,0.479778
3021.06,0.480035
3022.82,0.480034
3024.58,0.480229
3026.35,0.480538
3028.12,0.48108
3029.89,0.481724
3031.66,0.482124
3033.43,0.482531
3035.21,0.482768
3036.99,0.482888
3038.77,0.483456
3040.55,0.484245
3042.33,0.484588
3044.12,0.485196
3045.91,0.4858
3047.7,0.486178
3049.49,0.486661
3051.29,0.487446
3053.08,0.487872
3054.88,0.48823
3056.68,0.489074
3058.49,0.489771
3060.29,0.490543
3062.1,0.491452
3063.91,0.492058
3065.72,0.4924
3067.54,0.492909
3069.35,0.493636
3071.17,0.4944
3072.99,0.495235
3074.81,0.495866
3076.64,0.496405
3078.46,0.496923
3080.29,0.497295
3082.13,0.497664
3083.96,0.498236
3085.79,0.498873
3087.63,0.499498
3089.47,0.500026
3091.31,0.500461
3093.16,0.500918
3095.01,0.501626
3096.85,0.502177
3098.71,0.502623
3100.56,0.503064
3102.41,0.503711
3104.27,0.504256
3106.13,0.504809
3107.99,0.505733
3109.86,0.506439
3111.73,0.506849
3113.59,0.507302
3115.47,0.507995
3117.34,0.508505
3119.21,0.508876
3121.09,0.509555
3122.97,0.510689
3124.86,0.511422
3126.74,0.512082
3128.63,0.513013
3130.52,0.513589
3132.41,0.51415
3134.3,0.514699
3136.2,0.515316
3138.1,0.515904
3140.0,0.516504
3141.9,0.517082
3143.81,0.517944
3145.71,0.518576
3147.62,0.519057
3149.54,0.519436
3151.45,0.519979
3153.37,0.520741
3155.29,0.521155
3157.21,0.521609
3159.13,0.522283
3161.06,0.522891
3162.99,0.523582
3164.92,0.524034
3166.85,0.524208
3168.79,0.524468
3170.72,0.524969
3172.67,0.525738
3174.61,0.526288
3176.55,0.526498
3178.5,0.526962
3180.45,0.527353
3182.4,0.527658
3184.36,0.527978
3186.32,0.528393
3188.27,0.528862
3190.24,0.52932
3192.2,0.529773
3194.17,0.530113
3196.14,0.530508
3198.11,0.530899
3200.08,0.531151
3202.06,0.531405
3204.04,0.531914
3206.02,0.532484
3208.0,0.532529
3209.99,0.533022
3211.98,0.533438
3213.97,0.53385
3215.96,0.534238
3217.96,0.534192
3219.96,0.534162
3221.96,0.534497
3223.96,0.534687
3225.97,0.535153
3227.98,0.535706
3229.99,0.536139
3232.0,0.536411
3234.02,0.536779
3236.04,0.536966
3238.06,0.537449
3240.08,0.537892
3242.11,0.538414
3244.14,0.538602
3246.17,0.538748
3248.2,0.539088
3250.24,0.539485
3252.28,0.539883
3254.32,0.540226
3256.37,0.540308
3258.41,0.540448
3260.46,0.540197
3262.51,0.540225
3264.57,0.540076
3266.63,0.540202
3268.69,0.540041
3270.75,0.539708
3272.81,0.539294
3274.88,0.538626
3276.95,0.538005
3279.02,0.537306
3281.1,0.536461
3283.18,0.536106
3285.26,0.535536
3287.34,0.534908
3289.43,0.53439
3291.51,0.533969
3293.61,0.533598
3295.7,0.53345
3297.8,0.533264
3299.89,0.533293
3302.0,0.533528
3304.1,0.533969
3306.21,0.534276
3308.32,0.534663
3310.43,0.535027
3312.55,0.535466
3314.66,0.535657
3316.78,0.536028
3318.91,0.536571
3321.03,0.537296
3323.16,0.537972
3325.29,0.538357
3327.43,0.53865
3329.57,0.539054
3331.71,0.539327
3333.85,0.539716
3335.99,0.539702
3338.14,0.539392
3340.29,0.538909
3342.45,0.538504
3344.6,0.537758
3346.76,0.536687
3348.92,0.535478
3351.09,0.534585
3353.26,0.534027
3355.43,0.533924
3357.6,0.53388
3359.78,0.534048
3361.96,0.534176
3364.14,0.534291
3366.32,0.534298
3368.51,0.534276
3370.7,0.534115
3372.89,0.533865
3375.09,0.533177
3377.29,0.532221
3379.49,0.531467
3381.69,0.530721
3383.9,0.529928
3386.11,0.52896
3388.32,0.527938
3390.54,0.526755
3392.76,0.526011
3394.98,0.525301
3397.21,0.524671
3399.43,0.524493
3401.66,0.524719
3403.9,0.525172
3406.13,0.525823
3408.37,0.527093
3410.61,0.528845
3412.86,0.530734
3415.11,0.532936
3417.36,0.535272
3419.61,0.538137
3421.87,0.541119
3424.13,0.544052
3426.39,0.546844
3428.66,0.549565
3430.93,0.552493
3433.2,0.554999
3435.48,0.557043
3437.76,0.558816
3440.04,0.56071
3442.32,0.562588
3444.61,0.564321
3446.9,0.565567
3449.19,0.566737
3451.49,0.567708
3453.79,0.56868
3456.09,0.569295
3458.4,0.569781
3460.7,0.57004
3463.02,0.569913
3465.33,0.569428
3467.65,0.568851
3469.97,0.567779
3472.29,0.566157
3474.62,0.564531
3476.95,0.563194
3479.29,0.562161
3481.62,0.561765
3483.96,0.562015
3486.3,0.562494
3488.65,0.563145
3491.0,0.564015
3493.35,0.564836
3495.71,0.565867
3498.07,0.566846
3500.43,0.567804
3502.79,0.568618
3505.16,0.56972
3507.53,0.570628
3509.91,0.571453
3512.29,0.572264
3514.67,0.573068
3517.05,0.573646
3519.44,0.574482
3521.83,0.57554
3524.22,0.57679
3526.62,0.578123
3529.02,0.579584
3531.43,0.580815
3533.83,0.581907
3536.24,0.582853
3538.66,0.583851
3541.08,0.584942
3543.5,0.586122
3545.92,0.587033
3548.35,0.588218
3550.78,0.589482
3553.21,0.590635
3555.65,0.591779
3558.09,0.592984
3560.53,0.594107
3562.98,0.595524
3565.43,0.596961
3567.88,0.598245
3570.34,0.599362
3572.8,0.600534
3575.27,0.601922
3577.73,0.603271
3580.2,0.604632
3582.68,0.605998
3585.16,0.60729
3587.64,0.608646
3590.12,0.609708
3592.61,0.610748
3595.1,0.611751
3597.6,0.6127
3600.09,0.613666
3602.6,0.614527
3605.1,0.615347
3607.61,0.61626
3610.12,0.617062
3612.64,0.617937
3615.16,0.6186
3617.68,0.619
3620.21,0.619541
3622.74,0.620102
3625.27,0.620577
3627.81,0.621222
3630.35,0.621856
3632.89,0.622467
3635.44,0.622845
3637.99,0.623194
3640.54,0.623389
3643.1,0.623646
3645.66,0.624048
3648.23,0.624613
3650.8,0.624919
3653.37,0.625188
3655.95,0.625479
3658.53,0.62569
3661.11,0.625759
3663.7,0.626016
3666.29,0.626207
3668.89,0.626547
3671.48,0.626734
3674.09,0.627039
3676.69,0.627321
3679.3,0.627686
3681.91,0.627821
3684.53,0.627919
3687.15,0.628235
3689.78,0.628699
3692.4,0.628898
3695.04,0.629287
3697.67,0.629538
3700.31,0.629937
3702.95,0.630221
3705.6,0.63041
3708.25,0.630557
3710.91,0.630881
3713.56,0.631075
3716.23,0.631441
3718.89,0.631666
3721.56,0.631864
3724.23,0.631873
3726.91,0.631897
3729.59,0.631929
3732.28,0.631953
3734.97,0.631757
3737.66,0.631542
3740.36,0.631425
3743.06,0.631425
3745.76,0.631163
3748.47,0.630884
3751.18,0.63049
3753.9,0.630161
3756.62,0.629639
3759.34,0.629076
3762.07,0.628294
3764.8,0.62739
3767.54,0.626282
3770.28,0.625183
3773.02,0.624043
3775.77,0.622604
3778.52,0.62062
3781.28,0.618295
3784.04,0.615574
3786.8,0.612494
3789.57,0.608868
3792.34,0.604755
3795.12,0.599937
3797.9,0.594434
3800.69,0.588188
3803.47,0.581345
3806.27,0.574296
3809.06,0.567311
3811.86,0.560136
3814.67,0.553126
3817.48,0.546645
3820.29,0.541031
3823.11,0.536149
3825.93,0.532103
3828.76,0.529117
3831.59,0.527616
3834.42,0.527401
3837.26,0.52814
3840.1,0.529855
3842.95,0.532706
3845.8,0.536229
3848.65,0.540403
3851.51,0.544959
3854.38,0.54976
3857.24,0.554445
3860.12,0.558969
3862.99,0.562946
3865.87,0.566271
3868.76,0.569494
3871.65,0.572216
3874.54,0.574286
3877.44,0.576284
3880.34,0.577987
3883.25,0.57911
3886.16,0.579718
3889.07,0.579923
3891.99,0.579127
3894.92,0.577371
3897.85,0.574613
3900.78,0.571132
3903.72,0.567276
3906.66,0.563378
3909.6,0.559727
3912.55,0.557981
3915.51,0.559578
3918.47,0.563849
3921.43,0.568473
3924.4,0.571905
3927.37,0.573951
3930.35,0.574943
3933.33,0.575122
3936.32,0.574995
3939.31,0.574396
3942.31,0.573047
3945.31,0.570873
3948.31,0.567817
3951.32,0.56428
3954.34,0.560607
3957.35,0.556501
3960.38,0.552493
3963.41,0.548523
3966.44,0.544743
3969.48,0.541088
3972.52,0.537775
3975.56,0.535046
3978.61,0.532466
3981.67,0.530339
3984.73,0.528949
3987.8,0.528394
3990.87,0.529168
3993.94,0.530863
3997.02,0.533329
4000.1,0.536407
4003.19,0.540139
4006.29,0.544264
4009.39,0.548606
4012.49,0.552987
4015.6,0.557451
4018.71,0.561829
4021.83,0.565907
4024.95,0.569614
4028.08,0.573272
4031.21,0.577016
4034.35,0.580881
4037.49,0.584554
4040.64,0.588345
4043.79,0.591993
4046.94,0.595683
4050.11,0.599596
4053.27,0.603349
4056.44,0.606492
4059.62,0.60945
4062.8,0.612489
4065.99,0.615589
4069.18,0.618277
4072.38,0.620892
4075.58,0.623347
4078.78,0.625663
4082.0,0.627898
4085.21,0.630064
4088.43,0.631842
4091.66,0.633501
4094.89,0.634956
4098.13,0.636364
4101.37,0.63757
4104.62,0.638973
4107.87,0.640351
4111.13,0.641544
4114.39,0.642853
4117.66,0.644177
4120.93,0.645377
4124.21,0.646502
4127.5,0.647669
4130.78,0.648943
4134.08,0.64997
4137.38,0.65107
4140.68,0.65197
4143.99,0.652765
4147.31,0.653523
4150.63,0.65426
4153.95,0.654827
4157.29,0.655634
4160.62,0.656232
4163.96,0.656614
4167.31,0.656857
4170.66,0.657176
4174.02,0.657342
4177.39,0.657558
4180.75,0.657655
4184.13,0.657925
4187.51,0.65806
4190.89,0.658168
4194.28,0.65818
4197.68,0.658139
4201.08,0.657903
4204.49,0.657971
4207.9,0.65794
4211.32,0.658024
4214.74,0.658135
4218.17,0.658229
4221.61,0.658138
4225.05,0.658281
4228.5,0.658313
4231.95,0.658657
4235.4,0.658737
4238.87,0.658831
4242.34,0.658863
4245.81,0.658734
4249.29,0.658496
4252.78,0.657952
4256.27,0.657115
4259.77,0.656021
4263.27,0.654926
4266.78,0.654976
4270.29,0.655399
4273.81,0.655618
4277.34,0.655788
4280.87,0.655908
4284.41,0.655909
4287.95,0.655805
4291.5,0.655473
4295.06,0.655353
4298.62,0.65526
4302.19,0.655164
4305.76,0.65492
4309.34,0.654582
4312.92,0.654116
4316.52,0.653846
4320.11,0.653474
4323.72,0.653077
4327.32,0.65267
4330.94,0.652271
4334.56,0.651849
4338.19,0.651444
4341.82,0.650975
4345.46,0.650425
4349.11,0.649802
4352.76,0.649348
4356.42,0.64888
4360.08,0.648412
4363.75,0.647891
4367.43,0.647659
4371.11,0.647314
4374.8,0.646911
4378.49,0.646578
4382.19,0.646329
4385.9,0.646045
4389.61,0.645937
4393.33,0.645906
4397.06,0.645816
4400.79,0.645439
4404.53,0.645199
4408.28,0.644941
4412.03,0.644782
4415.79,0.64461
4419.55,0.644378
4423.32,0.644011
4427.1,0.643776
4430.88,0.643498
4434.67,0.643264
4438.47,0.642792
4442.27,0.642309
4446.08,0.641815
4449.9,0.641481
4453.72,0.640995
4457.55,0.640571
4461.39,0.639981
4465.23,0.639333
4469.08,0.638629
4472.94,0.638036
4476.8,0.637344
4480.67,0.636919
4484.55,0.636336
4488.43,0.635514
4492.32,0.634563
4496.21,0.633681
4500.12,0.63282
4504.03,0.631938
4507.94,0.630943
4511.87,0.629986
4515.8,0.628949
4519.73,0.627824
4523.68,0.626441
4527.63,0.625172
4531.59,0.623784
4535.55,0.622201
4539.52,0.620174
4543.5,0.618383
4547.49,0.616594
4551.48,0.615012
4555.48,0.61338
4559.49,0.611977
4563.5,0.610872
4567.52,0.610023
4571.55,0.609312
4575.58,0.608812
4579.62,0.608519
4583.67,0.608332
4587.73,0.607923
4591.79,0.607676
4595.86,0.607371
4599.94,0.60705
4604.03,0.606473
4608.12,0.605868
4612.22,0.605108
4616.33,0.604407
4620.44,0.603637
4624.56,0.60295
4628.69,0.602112
4632.83,0.6014
4636.97,0.600585
4641.12,0.59964
4645.28,0.598547
4649.45,0.597628
4653.62,0.596641
4657.8,0.595699
4661.99,0.59453
4666.19,0.593635
4670.39,0.592694
4674.6,0.591703
4678.82,0.590703
4683.05,0.5897
4687.28,0.588628
4691.52,0.587651
4695.77,0.586636
4700.03,0.585615
4704.3,0.584633
4708.57,0.58377
4712.85,0.582706
4717.14,0.581898
4721.43,0.581084
4725.74,0.580311
4730.05,0.579511
4734.37,0.578712
4738.7,0.577495
4743.03,0.576402
4747.38,0.575413
4751.73,0.57444
4756.09,0.573366
4760.45,0.572364
4764.83,0.571294
4769.21,0.570306
4773.6,0.569293
4778.0,0.568334
4782.41,0.567429
4786.83,0.566744
4791.25,0.566063
4795.68,0.565375
4800.13,0.564778
4804.57,0.564295
4809.03,0.563753
4813.5,0.563171
4817.97,0.562642
4822.45,0.562049
4826.94,0.561439
4831.44,0.560863
4835.95,0.560201
4840.46,0.559596
4844.99,0.558865
4849.52,0.558296
4854.06,0.557646
4858.61,0.557006
4863.17,0.55637
4867.73,0.555675
4872.31,0.554825
4876.89,0.554028
4881.48,0.553236
4886.08,0.552447
4890.69,0.551476
4895.31,0.550605
4899.94,0.549791
4904.57,0.549086
4909.22,0.5481
4913.87,0.547359
4918.53,0.546587
4923.21,0.545693
4927.88,0.544757
4932.57,0.543972
4937.27,0.543118
4941.98,0.542236
4946.69,0.541492
4951.42,0.540873
4956.15,0.539968
4960.89,0.539267
4965.65,0.538733
4970.41,0.537953
4975.18,0.537001
4979.96,0.536262
4984.75,0.53556
4989.54,0.53473
4994.35,0.533774
4999.17,0.532848
5003.99,0.531904
5008.83,0.530965
5013.67,0.529961
5018.52,0.528673
5023.39,0.527449
5028.26,0.526539
5033.14,0.525072
5038.03,0.523758
5042.93,0.522355
5047.84,0.520934
5052.76,0.5195
5057.69,0.518218
5062.63,0.516882
5067.58,0.515394
5072.54,0.513872
5077.51,0.512603
5082.49,0.511097
5087.47,0.509636
5092.47,0.508462
5097.48,0.507071
5102.5,0.50548
5107.52,0.504204
5112.56,0.503147
5117.61,0.502118
5122.66,0.500953
5127.73,0.499732
5132.81,0.498583
5137.89,0.497514
5142.99,0.496524
5148.1,0.495505
5153.22,0.495001
5158.34,0.494592
5163.48,0.493424
5168.63,0.492751
5173.79,0.49222
5178.96,0.491774
5184.13,0.491232
5189.32,0.490878
5194.52,0.490587
5199.73,0.490139
5204.95,0.489894
5210.19,0.489651
5215.43,0.488574
5220.68,0.48901
5225.94,0.488638
5231.22,0.487381
5236.5,0.486216
5241.79,0.485472
5247.1,0.484417
5252.42,0.483008
5257.74,0.481375
5263.08,0.479799
5268.43,0.478022
5273.79,0.476357
5279.16,0.474569
5284.54,0.473088
5289.93,0.471124
5295.34,0.469055
5300.75,0.467668
5306.18,0.465526
5311.61,0.463131
5317.06,0.460834
5322.52,0.458341
5327.99,0.455844
5333.47,0.453064
5338.96,0.450175
5344.47,0.447107
5349.98,0.443689
5355.51,0.441206
5361.05,0.439494
5366.6,0.436829
5372.16,0.434449
5377.73,0.432515
5383.32,0.43114
5388.91,0.429832
5394.52,0.428763
5400.14,0.427712
5405.77,0.426917
5411.41,0.425753
5417.07,0.424597
5422.74,0.422713
5428.41,0.422534
5434.1,0.422242
5439.81,0.419902
5445.52,0.417966
5451.25,0.416375
5456.98,0.414817
5462.73,0.412746
5468.5,0.411172
5474.27,0.410669
5480.06,0.408676
5485.86,0.407608
5491.67,0.406592
5497.49,0.404718
5503.33,0.403232
5509.18,0.401997
5515.04,0.400792
5520.91,0.399122
5526.8,0.397719
5532.69,0.396294
5538.61,0.394323
5544.53,0.391616
5550.47,0.388041
5556.41,0.38342
5562.38,0.378642
5568.35,0.374829
5574.34,0.372674
5580.34,0.370992
5586.35,0.37228
5592.38,0.37542
5598.42,0.377289
5604.47,0.377896
5610.54,0.377787
5616.61,0.375769
5622.71,0.372989
5628.81,0.369826
5634.93,0.365999
5641.06,0.362473
5647.21,0.361201
5653.36,0.361792
5659.54,0.360881
5665.72,0.361398
5671.92,0.36121
5678.13,0.360971
5684.36,0.362695
5690.6,0.363517
5696.85,0.363986
5703.12,0.365609
5709.4,0.365351
5715.69,0.366018
5722.0,0.36756
5728.33,0.367822
5734.66,0.367287
5741.01,0.366721
5747.38,0.36597
5753.76,0.365391
5760.15,0.36476
5766.56,0.361598
5772.98,0.361688
5779.41,0.362579
5785.86,0.360234
5792.33,0.358725
5798.81,0.357061
5805.3,0.355682
5811.81,0.354472
5818.33,0.352485
5824.87,0.350907
5831.42,0.351586
5837.99,0.350623
5844.57,0.348962
5851.17,0.346771
5857.78,0.344792
5864.41,0.342704
5871.05,0.341399
5877.7,0.339079
5884.38,0.336494
5891.06,0.338535
5897.76,0.336753
5904.48,0.336058
5911.21,0.335414
5917.96,0.332472
5924.73,0.330747
5931.5,0.328749
5938.3,0.326117
5945.11,0.326571
5951.93,0.325881
5958.78,0.322686
5965.63,0.320344
5972.51,0.317907
5979.39,0.317558
5986.3,0.315472
5993.22,0.314424
6000.16,0.315135
6007.11,0.314905
6014.08,0.313629
6021.06,0.31393
6028.06,0.313871
6035.08,0.312585
6042.12,0.310423
6049.17,0.307399
6056.23,0.307289
6063.32,0.307389
6070.42,0.303007
6077.53,0.3007
6084.67,0.299904
6091.82,0.298137
6098.98,0.295562
6106.17,0.293705
6113.37,0.291345
6120.58,0.290785
6127.82,0.290174
6135.07,0.288261
6142.34,0.286549
6149.63,0.28579
6156.93,0.28474
6164.25,0.28346
6171.59,0.282685
6178.94,0.281293
6186.32,0.278968
6193.71,0.278065
6201.12,0.276395
6208.54,0.273681
6215.99,0.271039
6223.45,0.268618
6230.93,0.265878
6238.43,0.263012
6245.95,0.259951
6253.48,0.256845
6261.03,0.253446
6268.6,0.250117
6276.19,0.246368
6283.8,0.24267
6291.43,0.238417
6299.07,0.23419
6306.73,0.229775
6314.42,0.225506
6322.12,0.220834
6329.83,0.216208
6337.57,0.21113
6345.33,0.206157
6353.11,0.200701
6360.9,0.195016
6368.72,0.188873
6376.55,0.182708
6384.4,0.17569
6392.27,0.169128
6400.17,0.162087
6408.08,0.155717
6416.01,0.149623
6423.96,0.14323
6431.93,0.137108
6439.92,0.132277
6447.93,0.127275
6455.96,0.122922
6464.01,0.118479
6472.08,0.114503
6480.17,0.110355
6488.28,0.106656
6496.41,0.103138
6504.56,0.099962
6512.73,0.097002
6520.92,0.095065
6529.14,0.093033
6537.37,0.091637
6545.63,0.09056
6553.9,0.090177
6562.2,0.090005
6570.51,0.09025
6578.85,0.090654
6587.21,0.092003
6595.59,0.09307
6603.99,0.094945
6612.42,0.096665
6620.86,0.098801
6629.33,0.100759
6637.82,0.102596
6646.33,0.104919
6654.86,0.106947
6663.41,0.107487
6671.99,0.108065
6680.59,0.108328
6689.21,0.108461
6697.85,0.108068
6706.51,0.107646
6715.2,0.107139
6723.91,0.107009
6732.64,0.106595
6741.4,0.106315
6750.18,0.10596
6758.98,0.105933
6767.8,0.1058
6776.65,0.105598
6785.52,0.105295
6794.41,0.105203
6803.33,0.104857
6812.27,0.104162
6821.23,0.103173
6830.22,0.102308
6839.23,0.101521
6848.26,0.100703
6857.32,0.099684
6866.4,0.098963
6875.51,0.098331
6884.64,0.097596
6893.8,0.09674
6902.98,0.096158
6912.18,0.095394
6921.41,0.094616
6930.66,0.093529
6939.94,0.092245
6949.24,0.090543
6958.57,0.088896
6967.92,0.087179
6977.3,0.08529
6986.7,0.08336
6996.13,0.081913
7005.59,0.080757
7015.07,0.080111
7024.57,0.07971
7034.1,0.079887
7043.66,0.080192
7053.24,0.081036
7062.85,0.082203
7072.49,0.083225
7082.15,0.084498
7091.84,0.086189
7101.55,0.087895
7111.3,0.089943
7121.06,0.092192
7130.86,0.094789
7140.68,0.097303
7150.53,0.100234
7160.41,0.103919
7170.31,0.107469
7180.24,0.111157
7190.2,0.115078
7200.19,0.118645
7210.2,0.122332
7220.24,0.126255
7230.31,0.130084
7240.41,0.133786
7250.54,0.137989
7260.69,0.142481
7270.88,0.14725
7281.09,0.152331
7291.33,0.157874
7301.6,0.163061
7311.9,0.168021
7322.22,0.17299
7332.58,0.177394
7342.97,0.181414
7353.38,0.18537
7363.83,0.188661
7374.3,0.191276
7384.81,0.193497
7395.34,0.195381
7405.91,0.19698
7416.5,0.198397
7427.13,0.199706
7437.78,0.200873
7448.47,0.201887
7459.19,0.20257
7469.94,0.203057
7480.71,0.203486
7491.52,0.203715
7502.37,0.203512
7513.24,0.203002
7524.14,0.202436
7535.08,0.201772
7546.05,0.200888
7557.05,0.199704
7568.08,0.198197
7579.14,0.196426
7590.24,0.194626
7601.37,0.192607
7612.53,0.190311
7623.73,0.188023
7634.96,0.185697
7646.22,0.183132
7657.51,0.180431
7668.84,0.177743
7680.2,0.174909
7691.59,0.171955
7703.02,0.168995
7714.49,0.166121
7725.98,0.163245
7737.51,0.160415
7749.08,0.157638
7760.68,0.154736
7772.32,0.151638
7783.99,0.148529
7795.69,0.145372
7807.43,0.142075
7819.21,0.138682
7831.02,0.135282
7842.87,0.131744
7854.75,0.127947
7866.67,0.124075
7878.62,0.120078
7890.62,0.116026
7902.64,0.112004
7914.71,0.107978
7926.81,0.103876
7938.95,0.099804
7951.13,0.095658
7963.34,0.091615
7975.59,0.087742
7987.88,0.083795
8000.21,0.079772
8012.57,0.076068
8024.98,0.072395
8037.42,0.069021
8049.9,0.0659
8062.42,0.062984
8074.98,0.060331
8087.57,0.058163
8100.21,0.056255
8112.89,0.054987
8125.6,0.054263
8138.36,0.054201
8151.16,0.054958
8163.99,0.056604
8176.87,0.05914
8189.79,0.062767
8202.75,0.067313
8215.74,0.072646
8228.79,0.07851
8241.87,0.084633
8254.99,0.090191
8268.16,0.094723
8281.37,0.098057
8294.62,0.100332
8307.91,0.101437
8321.24,0.101511
8334.62,0.100957
8348.04,0.099993
8361.51,0.098536
8375.02,0.096847
8388.57,0.095114
8402.16,0.093333
8415.8,0.091445
8429.49,0.089927
8443.22,0.088732
8456.99,0.087776
8470.81,0.087006
8484.67,0.086686
8498.58,0.086795
8512.54,0.087314
8526.54,0.08807
8540.58,0.089018
8554.68,0.089945
8568.82,0.090803
8583.0,0.091487
8597.24,0.09192
8611.52,0.091991
8625.85,0.091968
8640.22,0.091782
8654.65,0.091728
8669.12,0.091854
8683.64,0.092263
8698.21,0.092927
8712.83,0.093949
8727.5,0.095387
8742.22,0.09729
8756.98,0.099311
8771.8,0.101563
8786.67,0.103853
8801.59,0.106072
8816.56,0.108377
8831.58,0.110992
8846.65,0.113856
8861.77,0.116811
8876.94,0.119829
8892.17,0.122626
8907.45,0.125104
8922.78,0.127368
8938.16,0.129131
8953.6,0.130392
8969.09,0.131392
8984.64,0.132023
9000.23,0.132486
9015.89,0.132865
9031.59,0.132967
9047.36,0.133041
9063.17,0.132974
9079.04,0.13281
9094.97,0.13235
9110.96,0.131688
9127.0,0.131066
9143.09,0.130322
9159.25,0.129388
9175.46,0.128441
9191.73,0.127749
9208.05,0.127149
9224.44,0.126495
9240.88,0.125906
9257.38,0.125428
9273.94,0.125099
9290.56,0.124988
9307.24,0.12506
9323.98,0.125079
9340.78,0.12529
9357.64,0.125567
9374.57,0.126006
9391.55,0.126574
9408.59,0.127556
9425.7,0.128687
9442.87,0.129845
9460.1,0.131039
9477.39,0.132526
9494.75,0.134176
9512.17,0.135588
9529.66,0.136658
9547.21,0.137774
9564.82,0.138442
9582.5,0.138391
9600.25,0.137899
9618.06,0.137074
9635.94,0.135891
9653.88,0.1345
9671.89,0.132939
9689.97,0.131005
9708.12,0.12873
9726.33,0.126728
9744.61,0.1249
9762.97,0.123157
9781.39,0.12135
9799.88,0.119959
9818.44,0.11884
9837.07,0.118001
9855.77,0.117365
9874.54,0.11687
9893.39,0.116461
9912.3,0.116305
9931.29,0.116119
9950.35,0.115979
9969.49,0.115744
9988.7,0.115298
10007.98,0.114546
10027.34,0.113662
10046.77,0.112621
10066.28,0.111532
10085.87,0.110391
10105.53,0.109104
10125.26,0.10768
10145.08,0.106259
10164.97,0.10503
10184.94,0.103742
10204.99,0.102419
10225.12,0.101508
10245.33,0.100857
10265.61,0.100307
10285.98,0.099898
10306.43,0.099515
10326.96,0.099228
10347.57,0.09903
10368.27,0.098835
10389.05,0.098837
10409.91,0.098802
10430.85,0.098676
10451.88,0.098635
10473.0,0.098691
10494.2,0.098492
10515.49,0.098186
10536.86,0.097914
10558.32,0.097866
10579.87,0.097908
10601.5,0.097616
10623.23,0.097193
10645.04,0.096819
10666.94,0.096537
10688.94,0.096249
10711.02,0.095856
10733.2,0.095659
10755.47,0.095431
10777.83,0.095375
10800.28,0.095426
10822.83,0.095557
10845.47,0.095371
10868.21,0.095226
10891.04,0.095382
10913.97,0.095468
10936.99,0.095605
10960.12,0.095921
10983.34,0.09635
11006.66,0.097092
11030.07,0.09803
11053.59,0.099083
11077.21,0.100604
11100.93,0.102398
11124.75,0.104059
11148.68,0.105689
11172.7,0.107197
11196.84,0.108508
11221.07,0.109408
11245.41,0.109879
11269.86,0.110282
11294.41,0.11025
11319.07,0.109473
11343.84,0.108467
11368.72,0.10775
11393.7,0.107023
11418.8,0.106025
11444.01,0.105317
11469.33,0.104898
11494.76,0.104814
11520.3,0.105071
11545.96,0.105544
11571.73,0.106013
11597.62,0.1064
11623.62,0.10703
11649.74,0.108088
11675.98,0.109119
11702.34,0.109865
11728.81,0.109044
11755.41,0.107961
11782.13,0.109744
11808.96,0.114959
11835.92,0.121038
11863.01,0.125431
11890.22,0.128286
11917.55,0.130292
11945.01,0.131641
11972.6,0.132712
12000.31,0.133461
12028.16,0.133557
12056.13,0.133571
12084.23,0.13368
12112.46,0.133857
12140.83,0.134376
12169.33,0.135468
12197.96,0.137038
12226.73,0.138381
12255.64,0.139633
12284.68,0.141161
12313.86,0.142734
12343.18,0.144051
12372.64,0.145308
12402.24,0.146329
12431.98,0.147133
12461.86,0.147951
12491.89,0.14843
12522.06,0.148849
12552.38,0.149423
12582.85,0.149748
12613.47,0.14948
12644.23,0.148505
12675.15,0.147147
12706.21,0.145234
12737.43,0.142324
12768.8,0.139015
12800.33,0.135341
12832.02,0.131062
12863.86,0.12684
12895.86,0.122504
12928.02,0.117855
12960.34,0.113115
12992.82,0.108677
13025.46,0.104832
13058.27,0.101419
13091.25,0.098449
13124.39,0.095527
13157.7,0.092023
13191.18,0.088351
13224.83,0.084605
13258.66,0.081313
13292.65,0.078359
13326.83,0.075758
13361.17,0.07356
13395.7,0.072053
13430.4,0.070993
13465.29,0.070221
13500.35,0.069749
13535.6,0.069625
13571.03,0.069615
13606.65,0.069777
13642.46,0.069962
13678.46,0.070141
13714.64,0.070153
13751.02,0.07011
13787.59,0.069944
13824.36,0.069741
13861.32,0.069208
13898.48,0.068485
13935.85,0.067901
13973.41,0.066983
14011.17,0.065756
14049.15,0.064618
14087.32,0.063876
14125.71,0.063499
14164.3,0.06306
14203.11,0.062702
14242.13,0.062444
14281.36,0.062469
14320.81,0.062211
14360.48,0.062089
14400.38,0.062547
14440.49,0.063238
14480.82,0.063398
14521.39,0.063543
14562.18,0.064031
14603.2,0.064701
14644.45,0.064955
14685.93,0.065352
14727.66,0.065832
14769.62,0.06616
14811.81,0.066498
14854.25,0.066995
14896.94,0.067496
14939.87,0.068021
14983.05,0.068034
15026.48,0.067519
15070.16,0.066969
15114.1,0.06672
15158.29,0.065896
15202.74,0.064815
15247.46,0.063423
15292.43,0.061766
15337.68,0.059824
15383.19,0.057841
15428.97,0.055859
15475.03,0.054013
15521.36,0.052464
15567.97,0.05088
15614.86,0.049595
15662.04,0.049109
15709.5,0.049108
15757.25,0.049242
15805.29,0.050367
15853.62,0.052407
15902.25,0.05546
15951.18,0.059983
16000.42,0.065599
16049.95,0.07203
16099.8,0.078714
16149.95,0.08541
16200.42,0.091542
16251.21,0.096903
16302.31,0.100264
16353.74,0.101914
16405.49,0.102055
16457.57,0.101026
16509.98,0.099153
16562.73,0.096704
16615.82,0.094175
16669.24,0.091989
16723.02,0.090139
16777.13,0.088534
16831.61,0.0873
16886.43,0.086492
16941.62,0.085933
16997.16,0.085253
17053.07,0.08507
17109.36,0.085271
17166.01,0.08538
17223.04,0.085594
17280.45,0.085786
17338.24,0.086172
17396.43,0.087068
17455.0,0.087987
17513.97,0.089112
17573.34,0.091093
17633.11,0.093536
17693.29,0.097046
17753.89,0.101414
17814.9,0.107288
17876.33,0.114466
17938.18,0.12193
18000.47,0.12907
18063.19,0.134869
18126.35,0.138721
18189.95,0.141161
18254.0,0.142006
18318.5,0.142375
18383.46,0.142102
18448.88,0.140897
18514.77,0.139334
18581.13,0.137589
18647.97,0.135188
18715.29,0.133062
18783.1,0.131058
18851.4,0.128836
18920.2,0.12627
18989.51,0.123659
19059.32,0.120736
19129.65,0.118768
19200.5,0.116583
19271.88,0.112965
19343.79,0.109695
19416.23,0.107044
19489.23,0.104215
19562.77,0.101625
19636.88,0.099415
19711.54,0.097325
19786.77,0.095852
19862.59,0.094446
19938.98,0.092954
20015.96,0.091688
20093.54,0.090946
20171.73,0.09101
20250.53,0.091427
20329.94,0.092646
20409.98,0.094159
20490.65,0.096312
20571.96,0.100191
20653.92,0.105879
20736.54,0.113038
20819.82,0.12141
20903.77,0.129187
20988.4,0.134821
21073.72,0.139461
21159.73,0.143257
21246.46,0.14549
21333.89,0.146125
21422.04,0.145735
21510.93,0.145959
21600.56,0.145591
21690.94,0.144589
21782.08,0.142385
21873.99,0.140841
21966.67,0.139374
22060.15,0.136895
22154.42,0.133585
22249.51,0.130358
22345.41,0.127778
22442.14,0.125677
22539.72,0.123738
22638.14,0.122276
22737.43,0.121093
22837.6,0.120982
22938.65,0.121217
23040.6,0.121715
23143.46,0.122959
23247.24,0.12492
23351.96,0.125588
23457.62,0.127002
23564.25,0.128078
23671.85,0.128396
23780.44,0.129896
23890.02,0.133
24000.63,0.134333
24112.26,0.133442
24224.93,0.131784
24338.66,0.131115
24453.47,0.130945
24569.36,0.130006
24686.36,0.130309
24804.47,0.130595
24923.72,0.12977
25044.13,0.129841
25165.7,0.129259
25288.46,0.133962
25412.43,0.134154
25537.61,0.13104
25664.03,0.132399
25791.71,0.13455
25920.67,0.134462
