Database of Origin,University of Winnipeg Spectrophotometer Facility
Sample Description,Carbonates and Oxolates - RELAB+Nicolet spectra - Newly merged spectra (merged by RELAB)
Other Information,merged at 2.545 um
Date Added,2018-08-06 20:58:22.553802

Data ID,RLA_CARB_22_1       
Sample ID,CRB313
Mineral Name,Pyroaurite
Locality,Langban/ Bermland/ Sweden
Grain Size,<45 um
Viewing Geometry,30/0 and 30
Resolution,1.2-129 nm
Formula,Mg6Fe2+3(CO3)(OH)16*4(H2O)
Composition,XRD suggests that sjogrenite matches the major peaks; pyroaurite also matches the 2 major peaks but not the others.

Wavelength
305.0,0.12993
310.0,0.15339
315.0,0.17343
320.0,0.1883
325.0,0.19782
330.0,0.20746
335.0,0.21611
340.0,0.22221
345.0,0.22752
350.0,0.23419
355.0,0.24215
360.0,0.25499
365.0,0.26107
370.0,0.27097
375.0,0.2774
380.0,0.28282
385.0,0.28623
390.0,0.29071
395.0,0.29662
400.0,0.29758
405.0,0.30762
410.0,0.32575
415.0,0.32064
420.0,0.32078
425.0,0.32824
430.0,0.33976
435.0,0.34817
440.0,0.35061
445.0,0.35597
450.0,0.36095
455.0,0.36657
460.0,0.37312
465.0,0.37921
470.0,0.38665
475.0,0.39327
480.0,0.40071
485.0,0.40804
490.0,0.41538
495.0,0.42148
500.0,0.42901
505.0,0.43433
510.0,0.44135
515.0,0.44743
520.0,0.45429
525.0,0.46075
530.0,0.46658
535.0,0.47182
540.0,0.47781
545.0,0.48319
550.0,0.48873
555.0,0.49337
560.0,0.49855
565.0,0.50274
570.0,0.5075
575.0,0.51067
580.0,0.51377
585.0,0.51731
590.0,0.52088
595.0,0.52301
600.0,0.52575
605.0,0.52709
610.0,0.52977
615.0,0.53235
620.0,0.53449
625.0,0.53601
630.0,0.53892
635.0,0.54076
640.0,0.54277
645.0,0.54414
650.0,0.54563
655.0,0.54687
660.0,0.54847
665.0,0.54889
670.0,0.55055
675.0,0.55235
680.0,0.5536
685.0,0.55612
690.0,0.55811
695.0,0.55951
700.0,0.56083
705.0,0.56305
710.0,0.56508
715.0,0.56639
720.0,0.56836
725.0,0.57053
730.0,0.57177
735.0,0.57244
740.0,0.57531
745.0,0.57556
750.0,0.57732
755.0,0.5773
760.0,0.57924
765.0,0.57972
770.0,0.58158
775.0,0.58125
780.0,0.58262
785.0,0.58233
790.0,0.58282
795.0,0.58378
800.0,0.58515
805.0,0.58593
810.0,0.58566
815.0,0.58576
820.0,0.58537
825.0,0.58442
830.0,0.58404
835.0,0.58405
840.0,0.58333
845.0,0.58202
850.0,0.58124
855.0,0.58068
860.0,0.57961
865.0,0.57958
870.0,0.57713
875.0,0.57682
880.0,0.57647
885.0,0.5753
890.0,0.57402
895.0,0.57219
900.0,0.57031
905.0,0.56974
910.0,0.57013
915.0,0.56966
920.0,0.56816
925.0,0.56763
930.0,0.5672
935.0,0.56587
940.0,0.56533
945.0,0.56493
950.0,0.56424
955.0,0.56385
960.0,0.56445
965.0,0.56307
970.0,0.564
975.0,0.5643
980.0,0.56318
985.0,0.56429
990.0,0.56501
995.0,0.56481
1000.0,0.56539
1005.0,0.56704
1010.0,0.56712
1015.0,0.56889
1020.0,0.56949
1025.0,0.56939
1030.0,0.57073
1035.0,0.5714
1040.0,0.57219
1045.0,0.57243
1050.0,0.57305
1055.0,0.57526
1060.0,0.57568
1065.0,0.57678
1070.0,0.57842
1075.0,0.57863
1080.0,0.57973
1085.0,0.58119
1090.0,0.58198
1095.0,0.58368
1100.0,0.58447
1105.0,0.58467
1110.0,0.58615
1115.0,0.58739
1120.0,0.58833
1125.0,0.58879
1130.0,0.58971
1135.0,0.59068
1140.0,0.59099
1145.0,0.59154
1150.0,0.59204
1155.0,0.59096
1160.0,0.5918
1165.0,0.59175
1170.0,0.59269
1175.0,0.5929
1180.0,0.59367
1185.0,0.59351
1190.0,0.59437
1195.0,0.59542
1200.0,0.59578
1205.0,0.59784
1210.0,0.59869
1215.0,0.59803
1220.0,0.59867
1225.0,0.59974
1230.0,0.60065
1235.0,0.60025
1240.0,0.60094
1245.0,0.60172
1250.0,0.60182
1255.0,0.60039
1260.0,0.60073
1265.0,0.60019
1270.0,0.59984
1275.0,0.59931
1280.0,0.59873
1285.0,0.59708
1290.0,0.59751
1295.0,0.59681
1300.0,0.59686
1305.0,0.59556
1310.0,0.59516
1315.0,0.59472
1320.0,0.59548
1325.0,0.59596
1330.0,0.59626
1335.0,0.59808
1340.0,0.59714
1345.0,0.59626
1350.0,0.59639
1355.0,0.59884
1360.0,0.59646
1365.0,0.59086
1370.0,0.5886
1375.0,0.58242
1380.0,0.57845
1385.0,0.56361
1390.0,0.55317
1395.0,0.54338
1400.0,0.53338
1405.0,0.52117
1410.0,0.50863
1415.0,0.49938
1420.0,0.49321
1425.0,0.48856
1430.0,0.48692
1435.0,0.48714
1440.0,0.48965
1445.0,0.49124
1450.0,0.49416
1455.0,0.49755
1460.0,0.50122
1465.0,0.50363
1470.0,0.50721
1475.0,0.51105
1480.0,0.51515
1485.0,0.51923
1490.0,0.52249
1495.0,0.5252
1500.0,0.52815
1505.0,0.53159
1510.0,0.53427
1515.0,0.53604
1520.0,0.53772
1525.0,0.54043
1530.0,0.54275
1535.0,0.54346
1540.0,0.54544
1545.0,0.5478
1550.0,0.54896
1555.0,0.54994
1560.0,0.55129
1565.0,0.55252
1570.0,0.55502
1575.0,0.55806
1580.0,0.55951
1585.0,0.56151
1590.0,0.56296
1595.0,0.5637
1600.0,0.56514
1605.0,0.56788
1610.0,0.56892
1615.0,0.56886
1620.0,0.56944
1625.0,0.57051
1630.0,0.57036
1635.0,0.57062
1640.0,0.57126
1645.0,0.57139
1650.0,0.57054
1655.0,0.57227
1660.0,0.57135
1665.0,0.57041
1670.0,0.57037
1675.0,0.56918
1680.0,0.56915
1685.0,0.56762
1690.0,0.56587
1695.0,0.56601
1700.0,0.56599
1705.0,0.56342
1710.0,0.56318
1715.0,0.56192
1720.0,0.56076
1725.0,0.55923
1730.0,0.55788
1735.0,0.55537
1740.0,0.55365
1745.0,0.55294
1750.0,0.55132
1755.0,0.54969
1760.0,0.54819
1765.0,0.54737
1770.0,0.54645
1775.0,0.54584
1780.0,0.54546
1785.0,0.54383
1790.0,0.54256
1795.0,0.5421
1800.0,0.54133
1805.0,0.53954
1810.0,0.53809
1815.0,0.53876
1820.0,0.53815
1825.0,0.53507
1830.0,0.53518
1835.0,0.53474
1840.0,0.5302
1845.0,0.52952
1850.0,0.52727
1855.0,0.52385
1860.0,0.52147
1865.0,0.5165
1870.0,0.51078
1875.0,0.50464
1880.0,0.4965
1885.0,0.48547
1890.0,0.47477
1895.0,0.46245
1900.0,0.45
1905.0,0.42775
1910.0,0.40733
1915.0,0.39347
1920.0,0.38504
1925.0,0.37747
1930.0,0.37681
1935.0,0.3772
1940.0,0.37911
1945.0,0.38166
1950.0,0.38454
1955.0,0.38646
1960.0,0.38831
1965.0,0.39242
1970.0,0.39418
1975.0,0.39575
1980.0,0.3978
1985.0,0.39852
1990.0,0.40001
1995.0,0.40043
2000.0,0.40145
2005.0,0.40166
2010.0,0.40232
2015.0,0.40325
2020.0,0.40505
2025.0,0.4071
2030.0,0.40907
2035.0,0.41107
2040.0,0.41386
2045.0,0.41521
2050.0,0.41831
2055.0,0.42082
2060.0,0.42408
2065.0,0.4268
2070.0,0.4289
2075.0,0.43137
2080.0,0.43338
2085.0,0.43689
2090.0,0.43896
2095.0,0.44115
2100.0,0.44203
2105.0,0.44422
2110.0,0.44616
2115.0,0.44835
2120.0,0.44991
2125.0,0.4515
2130.0,0.45256
2135.0,0.4542
2140.0,0.45461
2145.0,0.45567
2150.0,0.45598
2155.0,0.45623
2160.0,0.4566
2165.0,0.45703
2170.0,0.45776
2175.0,0.45691
2180.0,0.45705
2185.0,0.45671
2190.0,0.456
2195.0,0.45476
2200.0,0.45293
2205.0,0.45035
2210.0,0.44721
2215.0,0.44492
2220.0,0.44109
2225.0,0.43618
2230.0,0.43151
2235.0,0.42672
2240.0,0.42052
2245.0,0.41403
2250.0,0.40725
2255.0,0.39881
2260.0,0.39021
2265.0,0.38258
2270.0,0.37472
2275.0,0.36801
2280.0,0.36168
2285.0,0.35747
2290.0,0.35315
2295.0,0.34857
2300.0,0.34542
2305.0,0.34296
2310.0,0.34125
2315.0,0.34056
2320.0,0.34128
2325.0,0.34211
2330.0,0.34476
2335.0,0.34773
2340.0,0.34971
2345.0,0.35254
2350.0,0.35321
2355.0,0.35383
2360.0,0.35437
2365.0,0.35458
2370.0,0.35494
2375.0,0.35505
2380.0,0.3564
2385.0,0.35835
2390.0,0.36076
2395.0,0.36231
2400.0,0.36385
2405.0,0.36337
2410.0,0.36134
2415.0,0.36004
2420.0,0.35452
2425.0,0.34719
2430.0,0.34019
2435.0,0.33281
2440.0,0.32352
2445.0,0.31675
2450.0,0.30955
2455.0,0.30338
2460.0,0.29994
2465.0,0.29633
2470.0,0.29471
2475.0,0.29092
2480.0,0.2883
2485.0,0.28696
2490.0,0.28538
2495.0,0.28378
2500.0,0.28217
2505.0,0.28042
2510.0,0.27865
2515.0,0.2768
2520.0,0.27541
2525.0,0.27374
2530.0,0.27223
2535.0,0.27157
2540.0,0.27129
2545.0,0.27054
2546.9,0.27059
2548.1,0.27062
2549.4,0.27073
2550.6,0.27087
2551.9,0.27102
2553.1,0.27108
2554.4,0.2711
2555.7,0.27124
2556.9,0.27143
2558.2,0.27153
2559.4,0.27176
2560.7,0.27199
2562.0,0.27219
2563.2,0.27234
2564.5,0.27246
2565.8,0.27258
2567.1,0.27289
2568.3,0.27311
2569.6,0.27341
2570.9,0.27361
2572.1,0.27393
2573.4,0.27421
2574.7,0.27432
2576.0,0.27458
2577.3,0.27483
2578.5,0.27499
2579.8,0.27527
2581.1,0.27551
2582.4,0.27577
2583.7,0.27607
2585.0,0.27618
2586.3,0.27644
2587.5,0.27674
2588.8,0.27681
2590.1,0.27696
2591.4,0.27711
2592.7,0.27734
2594.0,0.27756
2595.3,0.27749
2596.6,0.27724
2597.9,0.27736
2599.2,0.27731
2600.5,0.27729
2601.8,0.27717
2603.1,0.27704
2604.4,0.27691
2605.8,0.27668
2607.1,0.27625
2608.4,0.27607
2609.7,0.27576
2611.0,0.27528
2612.3,0.2748
2613.6,0.2744
2614.9,0.27407
2616.3,0.27386
2617.6,0.27309
2618.9,0.27257
2620.2,0.27212
2621.6,0.27136
2622.9,0.27071
2624.2,0.27018
2625.5,0.26967
2626.9,0.26908
2628.2,0.26824
2629.5,0.26785
2630.9,0.26702
2632.2,0.26602
2633.5,0.26519
2634.9,0.26432
2636.2,0.26334
2637.6,0.26243
2638.9,0.26135
2640.2,0.2603
2641.6,0.25911
2642.9,0.2579
2644.3,0.25662
2645.6,0.25527
2647.0,0.25364
2648.3,0.2522
2649.7,0.2505
2651.0,0.24879
2652.4,0.24691
2653.8,0.24483
2655.1,0.24263
2656.5,0.24036
2657.8,0.23802
2659.2,0.23565
2660.6,0.23291
2661.9,0.23017
2663.3,0.22738
2664.7,0.22442
2666.0,0.22084
2667.4,0.21691
2668.8,0.21298
2670.1,0.20883
2671.5,0.20278
2672.9,0.1973
2674.3,0.19166
2675.7,0.18585
2677.0,0.17959
2678.4,0.17385
2679.8,0.16807
2681.2,0.16237
2682.6,0.15652
2684.0,0.15031
2685.4,0.14454
2686.8,0.14008
2688.1,0.13702
2689.5,0.13552
2690.9,0.13457
2692.3,0.13359
2693.7,0.13173
2695.1,0.12914
2696.5,0.12616
2697.9,0.12307
2699.3,0.11963
2700.8,0.11595
2702.1,0.11197
2703.6,0.10811
2705.0,0.10438
2706.4,0.1013
2707.8,0.09897
2709.2,0.09714
2710.6,0.09525
2712.1,0.09319
2713.5,0.09109
2714.9,0.08891
2716.3,0.0864
2717.7,0.08385
2719.2,0.08145
2720.6,0.07894
2722.0,0.07619
2723.4,0.07388
2724.9,0.0713
2726.3,0.06877
2727.7,0.06644
2729.2,0.06416
2730.6,0.06185
2732.1,0.05958
2733.5,0.05742
2734.9,0.05535
2736.4,0.0533
2737.8,0.05152
2739.3,0.04973
2740.7,0.04794
2742.2,0.04629
2743.6,0.04491
2745.1,0.04356
2746.5,0.04226
2748.0,0.04098
2749.4,0.03975
2750.9,0.03855
2752.4,0.03744
2753.8,0.03642
2755.3,0.03551
2756.7,0.03451
2758.2,0.03365
2759.7,0.03282
2761.1,0.03202
2762.6,0.0312
2764.1,0.03041
2765.6,0.02969
2767.0,0.02908
2768.5,0.0284
2770.0,0.02768
2771.5,0.02693
2773.0,0.02629
2774.4,0.0257
2775.9,0.02515
2777.4,0.02464
2778.9,0.02416
2780.4,0.02364
2781.9,0.02314
2783.4,0.02263
2784.9,0.02218
2786.4,0.02181
2787.9,0.02152
2789.4,0.02116
2790.9,0.0208
2792.4,0.02042
2793.9,0.02011
2795.4,0.01982
2796.9,0.01951
2798.4,0.0192
2799.9,0.01895
2801.4,0.01871
2802.9,0.01846
2804.4,0.01817
2806.0,0.01788
2807.5,0.01772
2809.0,0.01748
2810.5,0.01719
2812.1,0.01696
2813.6,0.01678
2815.1,0.01658
2816.6,0.0164
2818.2,0.01624
2819.7,0.01599
2821.2,0.01579
2822.8,0.0157
2824.3,0.01559
2825.9,0.01538
2827.4,0.01523
2828.9,0.01512
2830.5,0.01493
2832.0,0.01473
2833.6,0.01465
2835.1,0.01461
2836.7,0.01447
2838.2,0.01431
2839.8,0.01419
2841.3,0.01405
2842.9,0.01395
2844.4,0.01383
2846.0,0.01372
2847.6,0.01361
2849.1,0.01351
2850.7,0.01345
2852.3,0.0134
2853.8,0.01329
2855.4,0.01317
2857.0,0.01311
2858.6,0.01302
2860.1,0.01294
2861.7,0.01292
2863.3,0.01286
2864.9,0.01284
2866.5,0.01284
2868.1,0.01278
2869.6,0.01264
2871.2,0.01259
2872.8,0.01267
2874.4,0.01268
2876.0,0.01259
2877.6,0.01253
2879.2,0.01257
2880.8,0.01261
2882.4,0.01258
2884.0,0.01255
2885.6,0.01253
2887.2,0.01251
2888.8,0.01247
2890.4,0.01247
2892.0,0.01252
2893.6,0.0125
2895.3,0.01252
2896.9,0.01253
2898.5,0.01256
2900.1,0.01257
2901.8,0.01257
2903.4,0.0126
2905.0,0.01265
2906.6,0.01266
2908.3,0.01263
2909.9,0.01265
2911.5,0.01269
2913.2,0.0127
2914.8,0.01276
2916.4,0.01284
2918.1,0.01284
2919.7,0.01281
2921.4,0.01286
2923.0,0.01291
2924.7,0.01301
2926.3,0.01306
2928.0,0.01307
2929.6,0.0131
2931.3,0.01313
2932.9,0.01321
2934.6,0.01326
2936.3,0.01329
2937.9,0.01334
2939.6,0.01336
2941.3,0.01338
2942.9,0.01341
2944.6,0.01348
2946.3,0.01355
2947.9,0.0136
2949.6,0.01367
2951.3,0.01374
2953.0,0.01377
2954.7,0.01379
2956.3,0.01384
2958.0,0.01393
2959.7,0.01402
2961.4,0.01407
2963.1,0.01409
2964.8,0.01417
2966.5,0.01424
2968.2,0.01428
2969.9,0.01434
2971.6,0.0144
2973.3,0.01445
2975.0,0.01455
2976.7,0.01463
2978.4,0.01473
2980.1,0.01481
2981.9,0.01483
2983.6,0.01486
2985.3,0.01492
2987.0,0.015
2988.7,0.01506
2990.4,0.01512
2992.2,0.01524
2993.9,0.01531
2995.6,0.01539
2997.4,0.01544
2999.1,0.01554
3000.8,0.01565
3002.6,0.01576
3004.3,0.01587
3006.1,0.01596
3007.8,0.01596
3009.5,0.01596
3011.3,0.01603
3013.0,0.01614
3014.8,0.0162
3016.5,0.01624
3018.3,0.01634
3020.1,0.01641
3021.8,0.01642
3023.6,0.01646
3025.3,0.01657
3027.1,0.01665
3028.9,0.0167
3030.6,0.01676
3032.4,0.0168
3034.2,0.01687
3036.0,0.01693
3037.7,0.01702
3039.5,0.01712
3041.3,0.01721
3043.1,0.01729
3044.9,0.01735
3046.7,0.01746
3048.5,0.01758
3050.3,0.01758
3052.1,0.01763
3053.8,0.01774
3055.6,0.01786
3057.4,0.01797
3059.3,0.01806
3061.1,0.01814
3062.9,0.01822
3064.7,0.01833
3066.5,0.01845
3068.3,0.01862
3070.1,0.0188
3071.9,0.01889
3073.8,0.01902
3075.6,0.01916
3077.4,0.01925
3079.2,0.01933
3081.1,0.01946
3082.9,0.01964
3084.7,0.01979
3086.6,0.01995
3088.4,0.02013
3090.2,0.02023
3092.1,0.02032
3093.9,0.02045
3095.8,0.02058
3097.6,0.02073
3099.5,0.02091
3101.3,0.02103
3103.2,0.02111
3105.1,0.02129
3106.9,0.02149
3108.8,0.02167
3110.6,0.02189
3112.5,0.02205
3114.4,0.02218
3116.2,0.02236
3118.1,0.02255
3120.0,0.02275
3121.9,0.02292
3123.8,0.02308
3125.6,0.02325
3127.5,0.02342
3129.4,0.02359
3131.3,0.02375
3133.2,0.02392
3135.1,0.02411
3137.0,0.02432
3138.9,0.02451
3140.8,0.02467
3142.7,0.02484
3144.6,0.02505
3146.5,0.02523
3148.4,0.0254
3150.3,0.02557
3152.2,0.02578
3154.1,0.02599
3156.1,0.02615
3158.0,0.0263
3159.9,0.02649
3161.9,0.02668
3163.8,0.02686
3165.7,0.02707
3167.6,0.02726
3169.6,0.02743
3171.5,0.02763
3173.5,0.02784
3175.4,0.028
3177.3,0.02817
3179.3,0.02835
3181.2,0.02854
3183.2,0.02874
3185.1,0.0289
3187.1,0.02909
3189.1,0.02932
3191.0,0.02952
3193.0,0.02961
3195.0,0.02975
3196.9,0.02992
3198.9,0.03012
3200.9,0.0303
3202.9,0.03047
3204.8,0.03061
3206.8,0.03077
3208.8,0.03093
3210.8,0.0311
3212.8,0.03129
3214.8,0.03145
3216.8,0.03158
3218.8,0.03176
3220.8,0.03193
3222.8,0.0321
3224.8,0.03227
3226.8,0.03243
3228.8,0.03259
3230.8,0.03274
3232.8,0.03291
3234.8,0.03307
3236.8,0.03317
3238.9,0.0333
3240.9,0.03349
3242.9,0.03366
3244.9,0.03377
3247.0,0.03395
3249.0,0.03408
3251.1,0.03417
3253.1,0.03436
3255.1,0.03452
3257.2,0.03465
3259.2,0.03478
3261.3,0.03493
3263.3,0.03513
3265.4,0.03527
3267.4,0.03537
3269.5,0.03551
3271.6,0.03566
3273.6,0.03578
3275.7,0.03588
3277.8,0.03604
3279.8,0.03623
3281.9,0.03637
3284.0,0.03649
3286.1,0.03659
3288.2,0.03673
3290.2,0.03687
3292.3,0.03696
3294.4,0.03709
3296.5,0.03727
3298.6,0.03742
3300.7,0.03753
3302.8,0.03759
3304.9,0.03769
3307.0,0.03783
3309.1,0.03793
3311.3,0.038
3313.4,0.03811
3315.5,0.03819
3317.6,0.0382
3319.7,0.03823
3321.9,0.03834
3324.0,0.03843
3326.1,0.03849
3328.3,0.03853
3330.4,0.03856
3332.5,0.03853
3334.7,0.03851
3336.8,0.03849
3339.0,0.03845
3341.1,0.03834
3343.3,0.03826
3345.4,0.03818
3347.6,0.03804
3349.8,0.03787
3351.9,0.0377
3354.1,0.03751
3356.3,0.03727
3358.4,0.03696
3360.6,0.03658
3362.8,0.03618
3365.0,0.03574
3367.2,0.03537
3369.4,0.0352
3371.5,0.0351
3373.7,0.035
3375.9,0.03497
3378.1,0.03491
3380.3,0.03482
3382.5,0.03475
3384.7,0.03461
3386.9,0.03439
3389.2,0.03421
3391.4,0.03399
3393.6,0.03377
3395.8,0.03364
3398.1,0.03353
3400.3,0.03348
3402.5,0.03346
3404.7,0.03344
3407.0,0.03338
3409.2,0.03333
3411.5,0.0333
3413.7,0.03325
3416.0,0.03319
3418.2,0.0331
3420.5,0.033
3422.7,0.03299
3425.0,0.03301
3427.3,0.033
3429.5,0.03299
3431.8,0.03304
3434.1,0.03312
3436.3,0.03323
3438.6,0.03327
3440.9,0.03333
3443.2,0.03345
3445.5,0.03364
3447.8,0.03386
3450.1,0.03414
3452.3,0.03441
3454.6,0.03469
3456.9,0.03495
3459.3,0.03521
3461.6,0.03552
3463.9,0.03581
3466.2,0.03608
3468.5,0.03639
3470.8,0.03664
3473.2,0.03687
3475.5,0.03716
3477.8,0.03742
3480.1,0.03766
3482.5,0.03793
3484.8,0.03821
3487.2,0.03852
3489.5,0.03887
3491.9,0.03923
3494.2,0.03953
3496.6,0.03987
3498.9,0.04028
3501.3,0.0407
3503.7,0.04109
3506.0,0.04156
3508.4,0.04211
3510.8,0.04266
3513.2,0.04325
3515.5,0.04391
3517.9,0.04451
3520.3,0.04504
3522.7,0.04555
3525.1,0.04607
3527.5,0.04654
3529.9,0.04699
3532.3,0.04745
3534.7,0.04792
3537.1,0.04835
3539.5,0.04876
3541.9,0.04919
3544.4,0.04961
3546.8,0.04999
3549.2,0.0504
3551.7,0.05084
3554.1,0.05129
3556.5,0.05176
3559.0,0.05218
3561.4,0.05257
3563.9,0.05301
3566.3,0.05344
3568.8,0.05387
3571.2,0.05427
3573.7,0.05466
3576.1,0.05507
3578.6,0.05546
3581.1,0.05586
3583.6,0.05624
3586.0,0.05656
3588.5,0.05693
3591.0,0.05732
3593.5,0.05768
3596.0,0.05803
3598.5,0.05843
3601.0,0.05884
3603.5,0.05918
3606.0,0.05957
3608.5,0.05997
3611.0,0.06039
3613.5,0.06082
3616.1,0.06125
3618.6,0.06167
3621.1,0.06214
3623.6,0.06258
3626.2,0.06301
3628.7,0.06349
3631.3,0.06394
3633.8,0.06436
3636.3,0.06476
3638.9,0.06518
3641.4,0.06559
3644.0,0.06592
3646.6,0.06628
3649.1,0.06667
3651.7,0.067
3654.3,0.06737
3656.9,0.06774
3659.4,0.0681
3662.0,0.06846
3664.6,0.06885
3667.2,0.06927
3669.8,0.06969
3672.4,0.07011
3675.0,0.07054
3677.6,0.07099
3680.2,0.07152
3682.8,0.07202
3685.4,0.07251
3688.1,0.07304
3690.7,0.07358
3693.3,0.07409
3695.9,0.07462
3698.6,0.07517
3701.2,0.0757
3703.9,0.07619
3706.5,0.07668
3709.2,0.07718
3711.8,0.07766
3714.5,0.07812
3717.1,0.07857
3719.8,0.07905
3722.5,0.07952
3725.2,0.08004
3727.8,0.08054
3730.5,0.08106
3733.2,0.08166
3735.9,0.08228
3738.6,0.08295
3741.3,0.08362
3744.0,0.08428
3746.7,0.08493
3749.4,0.08561
3752.1,0.08628
3754.8,0.08693
3757.6,0.08763
3760.3,0.08829
3763.0,0.08889
3765.7,0.08949
3768.5,0.0901
3771.2,0.0907
3774.0,0.09131
3776.7,0.09191
3779.5,0.09248
3782.2,0.09305
3785.0,0.09357
3787.7,0.0941
3790.5,0.09465
3793.3,0.09515
3796.1,0.09565
3798.8,0.09615
3801.6,0.09665
3804.4,0.09718
3807.2,0.09769
3810.0,0.09819
3812.8,0.09867
3815.6,0.09913
3818.4,0.09961
3821.2,0.10009
3824.1,0.10056
3826.9,0.101
3829.7,0.10142
3832.5,0.10186
3835.4,0.10234
3838.2,0.1028
3841.1,0.10323
3843.9,0.10365
3846.8,0.10405
3849.6,0.10445
3852.5,0.10486
3855.3,0.10527
3858.2,0.10566
3861.1,0.10606
3863.9,0.10645
3866.8,0.10681
3869.7,0.10715
3872.6,0.1075
3875.5,0.10785
3878.4,0.10821
3881.3,0.10858
3884.2,0.10894
3887.1,0.10921
3890.0,0.10951
3893.0,0.1098
3895.9,0.11009
3898.8,0.11037
3901.7,0.11066
3904.7,0.11093
3907.6,0.1112
3910.6,0.11149
3913.5,0.11176
3916.5,0.11204
3919.4,0.11228
3922.4,0.1125
3925.4,0.11276
3928.4,0.11303
3931.3,0.11324
3934.3,0.1135
3937.3,0.11377
3940.3,0.11404
3943.3,0.11425
3946.3,0.11448
3949.3,0.11475
3952.3,0.11502
3955.3,0.11529
3958.3,0.11554
3961.4,0.11579
3964.4,0.11603
3967.4,0.11622
3970.5,0.11642
3973.5,0.11664
3976.6,0.11688
3979.6,0.11715
3982.6,0.11742
3985.7,0.11767
3988.8,0.11792
3991.9,0.11819
3994.9,0.11847
3998.0,0.11867
4001.1,0.11887
4004.2,0.11914
4007.3,0.11944
4010.4,0.11967
4013.5,0.11983
4016.6,0.11995
4019.7,0.12015
4022.8,0.12035
4025.9,0.12051
4029.1,0.12068
4032.2,0.12084
4035.3,0.12098
4038.5,0.12112
4041.6,0.12127
4044.8,0.12137
4047.9,0.12143
4051.1,0.1215
4054.3,0.12161
4057.4,0.12165
4060.6,0.12166
4063.8,0.12172
4067.0,0.12175
4070.2,0.12174
4073.4,0.12172
4076.6,0.12168
4079.8,0.12164
4083.0,0.12163
4086.2,0.12157
4089.4,0.12154
4092.7,0.12154
4095.9,0.12158
4099.1,0.12158
4102.4,0.1216
4105.6,0.12162
4108.9,0.12165
4112.1,0.12168
4115.4,0.12175
4118.7,0.12185
4122.0,0.12201
4125.2,0.12218
4128.5,0.12232
4131.8,0.1225
4135.1,0.12276
4138.4,0.123
4141.7,0.1233
4145.0,0.12366
4148.3,0.12409
4151.6,0.12457
4155.0,0.12509
4158.3,0.12566
4161.6,0.12628
4165.0,0.12691
4168.3,0.12754
4171.7,0.12821
4175.0,0.12894
4178.4,0.12963
4181.8,0.13031
4185.2,0.13097
4188.5,0.13165
4191.9,0.13232
4195.3,0.13299
4198.7,0.13359
4202.1,0.13415
4205.5,0.13468
4208.9,0.13519
4212.4,0.13567
4215.8,0.13611
4219.2,0.13656
4222.6,0.13705
4226.1,0.13745
4229.5,0.13778
4233.0,0.13812
4236.5,0.13845
4239.9,0.13868
4243.4,0.1389
4246.9,0.13915
4250.3,0.13939
4253.8,0.13958
4257.3,0.13979
4260.8,0.13997
4264.3,0.14011
4267.8,0.14028
4271.3,0.14041
4274.9,0.14047
4278.4,0.1406
4281.9,0.14068
4285.5,0.14073
4289.0,0.14076
4292.6,0.14076
4296.1,0.14074
4299.7,0.14077
4303.3,0.14078
4306.8,0.14079
4310.4,0.14075
4314.0,0.1407
4317.6,0.14064
4321.2,0.14056
4324.8,0.14046
4328.4,0.14038
4332.0,0.14031
4335.6,0.14026
4339.3,0.14011
4342.9,0.13994
4346.5,0.13978
4350.2,0.13962
4353.8,0.13942
4357.5,0.13923
4361.1,0.13903
4364.8,0.13886
4368.5,0.13867
4372.2,0.13844
4375.9,0.13819
4379.6,0.13797
4383.3,0.13774
4387.0,0.13752
4390.7,0.13724
4394.4,0.13694
4398.1,0.13664
4401.9,0.13635
4405.6,0.13604
4409.4,0.13576
4413.1,0.13546
4416.9,0.13516
4420.6,0.13483
4424.4,0.13454
4428.2,0.13421
4432.0,0.1339
4435.8,0.1336
4439.6,0.13328
4443.4,0.133
4447.2,0.13279
4451.0,0.13252
4454.8,0.13224
4458.6,0.13197
4462.5,0.13171
4466.3,0.13141
4470.2,0.13115
4474.0,0.13087
4477.9,0.13059
4481.8,0.13035
4485.6,0.13016
4489.5,0.12991
4493.4,0.1297
4497.3,0.12948
4501.2,0.12926
4505.1,0.12906
4509.0,0.1289
4513.0,0.1287
4516.9,0.1285
4520.9,0.12826
4524.8,0.12807
4528.7,0.12783
4532.7,0.12763
4536.7,0.12739
4540.6,0.12715
4544.6,0.12691
4548.6,0.12668
4552.6,0.12644
4556.6,0.12622
4560.6,0.12593
4564.6,0.12568
4568.6,0.12542
4572.7,0.12515
4576.7,0.12491
4580.8,0.12465
4584.8,0.12435
4588.9,0.12405
4592.9,0.12375
4597.0,0.12343
4601.1,0.1231
4605.2,0.12285
4609.3,0.12258
4613.4,0.12232
4617.5,0.122
4621.6,0.12172
4625.7,0.12147
4629.8,0.12125
4634.0,0.12099
4638.1,0.12077
4642.3,0.1205
4646.4,0.12024
4650.6,0.12001
4654.8,0.11981
4659.0,0.11959
4663.1,0.11938
4667.3,0.11916
4671.5,0.11897
4675.8,0.11876
4680.0,0.11856
4684.2,0.11834
4688.4,0.11817
4692.7,0.11801
4696.9,0.11786
4701.2,0.1177
4705.5,0.1176
4709.7,0.11747
4714.0,0.11735
4718.3,0.11721
4722.6,0.1171
4726.9,0.11693
4731.2,0.1168
4735.5,0.11665
4739.9,0.11653
4744.2,0.1164
4748.5,0.11626
4752.9,0.11613
4757.3,0.11601
4761.6,0.11587
4766.0,0.11577
4770.4,0.11563
4774.8,0.11551
4779.2,0.11538
4783.6,0.11524
4788.0,0.11512
4792.4,0.11501
4796.9,0.11487
4801.3,0.11473
4805.8,0.11457
4810.2,0.11442
4814.7,0.11425
4819.1,0.11411
4823.6,0.11388
4828.1,0.11368
4832.6,0.11347
4837.1,0.11328
4841.6,0.11313
4846.2,0.11298
4850.7,0.11276
4855.3,0.11259
4859.8,0.11241
4864.4,0.11224
4868.9,0.11205
4873.5,0.11187
4878.1,0.11168
4882.7,0.11154
4887.3,0.11136
4891.9,0.11122
4896.5,0.11103
4901.1,0.11088
4905.8,0.11072
4910.4,0.11058
4915.1,0.11043
4919.7,0.11027
4924.4,0.11013
4929.1,0.11001
4933.8,0.10983
4938.5,0.10973
4943.2,0.1096
4947.9,0.10947
4952.6,0.10933
4957.4,0.10922
4962.1,0.10903
4966.9,0.10886
4971.6,0.10869
4976.4,0.10851
4981.2,0.10832
4986.0,0.10816
4990.8,0.1079
4995.6,0.10767
5000.4,0.10747
5005.2,0.10729
5010.0,0.10704
5014.9,0.10691
5019.8,0.10672
5024.6,0.10651
5029.5,0.1063
5034.4,0.10613
5039.3,0.10592
5044.2,0.10577
5049.1,0.10561
5054.0,0.10543
5058.9,0.10517
5063.9,0.10497
5068.8,0.10473
5073.8,0.10453
5078.8,0.10435
5083.7,0.10419
5088.7,0.104
5093.7,0.10387
5098.7,0.10367
5103.7,0.1035
5108.8,0.10333
5113.8,0.10322
5118.9,0.10307
5123.9,0.10294
5129.0,0.10276
5134.1,0.1026
5139.1,0.10246
5144.3,0.10237
5149.4,0.1022
5154.5,0.10203
5159.6,0.10184
5164.7,0.10171
5169.9,0.10159
5175.0,0.10147
5180.2,0.10127
5185.4,0.10113
5190.6,0.10096
5195.8,0.10081
5201.0,0.10064
5206.2,0.10049
5211.5,0.10028
5216.7,0.1001
5222.0,0.09992
5227.2,0.09977
5232.5,0.09958
5237.8,0.09941
5243.1,0.09919
5248.4,0.09903
5253.7,0.09885
5259.0,0.09869
5264.4,0.09849
5269.7,0.09835
5275.1,0.09818
5280.5,0.09801
5285.8,0.09781
5291.2,0.09762
5296.6,0.09734
5302.0,0.09713
5307.5,0.09695
5312.9,0.09679
5318.4,0.09656
5323.8,0.09637
5329.3,0.09619
5334.8,0.09603
5340.3,0.09578
5345.8,0.09561
5351.3,0.09536
5356.8,0.09512
5362.4,0.09488
5367.9,0.09469
5373.5,0.0944
5379.0,0.09416
5384.6,0.09393
5390.2,0.09371
5395.8,0.09343
5401.5,0.09321
5407.1,0.09294
5412.7,0.09264
5418.4,0.0923
5424.1,0.09202
5429.7,0.0917
5435.4,0.09145
5441.1,0.09112
5446.8,0.09083
5452.6,0.09048
5458.3,0.09019
5464.1,0.08984
5469.8,0.08948
5475.6,0.0891
5481.4,0.08873
5487.2,0.08828
5493.0,0.08792
5498.8,0.08753
5504.7,0.08715
5510.5,0.0867
5516.4,0.08632
5522.3,0.08588
5528.1,0.08546
5534.0,0.085
5540.0,0.0846
5545.9,0.08414
5551.8,0.08372
5557.8,0.0832
5563.7,0.08276
5569.7,0.0823
5575.7,0.08189
5581.7,0.08134
5587.7,0.08085
5593.7,0.08033
5599.8,0.07982
5605.8,0.07923
5611.9,0.07874
5618.0,0.07814
5624.1,0.0776
5630.2,0.07705
5636.3,0.07649
5642.4,0.07578
5648.6,0.07509
5654.7,0.07435
5660.9,0.07361
5667.1,0.07278
5673.3,0.07192
5679.5,0.07099
5685.7,0.07014
5692.0,0.06917
5698.2,0.06825
5704.5,0.06739
5710.8,0.06653
5717.1,0.06565
5723.4,0.06495
5729.7,0.06427
5736.0,0.06369
5742.4,0.06314
5748.8,0.06269
5755.1,0.06219
5761.5,0.06174
5768.0,0.06105
5774.4,0.06037
5780.8,0.05965
5787.3,0.05891
5793.7,0.05807
5800.2,0.05726
5806.7,0.05633
5813.2,0.05548
5819.8,0.05453
5826.3,0.05355
5832.8,0.05251
5839.4,0.0515
5846.0,0.05049
5852.6,0.04951
5859.2,0.04843
5865.8,0.04738
5872.5,0.04632
5879.1,0.04531
5885.8,0.04411
5892.5,0.04316
5899.2,0.04199
5905.9,0.04094
5912.6,0.03997
5919.4,0.03899
5926.2,0.03801
5932.9,0.03706
5939.7,0.03601
5946.5,0.03516
5953.4,0.03428
5960.2,0.03347
5967.1,0.03266
5974.0,0.03187
5980.8,0.03119
5987.8,0.0306
5994.7,0.02993
6001.6,0.02939
6008.6,0.02897
6015.5,0.02861
6022.5,0.02822
6029.5,0.02794
6036.5,0.02767
6043.6,0.02747
6050.6,0.02731
6057.7,0.02711
6064.8,0.0269
6071.9,0.02674
6079.0,0.0266
6086.1,0.02651
6093.3,0.0264
6100.5,0.02631
6107.6,0.02617
6114.8,0.02604
6122.1,0.02594
6129.3,0.02582
6136.5,0.02565
6143.8,0.02551
6151.1,0.02539
6158.4,0.02524
6165.7,0.02502
6173.1,0.02482
6180.4,0.02457
6187.8,0.02426
6195.2,0.02392
6202.6,0.0236
6210.0,0.02325
6217.5,0.02294
6225.0,0.02259
6232.4,0.02226
6239.9,0.02198
6247.5,0.02177
6255.0,0.0216
6262.5,0.02151
6270.1,0.02144
6277.7,0.02147
6285.3,0.0216
6292.9,0.02179
6300.6,0.02204
6308.3,0.02236
6315.9,0.02274
6323.6,0.02313
6331.4,0.02356
6339.1,0.02404
6346.9,0.02459
6354.6,0.02513
6362.4,0.02566
6370.3,0.02623
6378.1,0.02679
6385.9,0.02735
6393.8,0.02789
6401.7,0.02835
6409.6,0.02887
6417.6,0.02954
6425.5,0.03006
6433.5,0.03056
6441.5,0.03103
6449.5,0.03145
6457.5,0.03188
6465.6,0.03227
6473.6,0.03266
6481.7,0.03299
6489.8,0.03329
6498.0,0.03361
6506.1,0.03386
6514.3,0.03409
6522.5,0.03428
6530.7,0.03441
6538.9,0.03451
6547.2,0.03456
6555.5,0.03456
6563.8,0.03449
6572.1,0.03437
6580.4,0.03423
6588.8,0.03411
6597.2,0.03398
6605.6,0.03386
6614.0,0.03385
6622.5,0.03384
6630.9,0.03384
6639.4,0.03381
6647.9,0.03375
6656.5,0.03373
6665.0,0.03372
6673.6,0.0336
6682.2,0.03344
6690.8,0.03322
6699.5,0.03298
6708.1,0.03263
6716.8,0.03213
6725.5,0.03152
6734.3,0.03084
6743.0,0.03012
6751.8,0.02954
6760.6,0.02906
6769.4,0.02859
6778.3,0.02802
6787.1,0.02739
6796.0,0.02664
6805.0,0.02591
6813.9,0.02523
6822.9,0.02461
6831.9,0.02395
6840.9,0.02343
6849.9,0.02293
6859.0,0.02247
6868.0,0.02194
6877.2,0.02147
6886.3,0.02102
6895.5,0.02057
6904.6,0.02006
6913.8,0.01958
6923.1,0.01907
6932.3,0.01858
6941.6,0.01806
6950.9,0.01754
6960.2,0.01696
6969.6,0.01642
6979.0,0.01593
6988.4,0.01555
6997.8,0.01525
7007.3,0.01506
7016.8,0.01484
7026.3,0.01471
7035.8,0.01463
7045.4,0.0146
7054.9,0.01449
7064.5,0.01447
7074.2,0.0144
7083.9,0.01425
7093.5,0.01408
7103.3,0.01397
7113.0,0.01388
7122.8,0.0138
7132.6,0.01375
7142.4,0.01374
7152.2,0.01367
7162.1,0.01359
7172.0,0.01352
7182.0,0.01354
7191.9,0.01349
7201.9,0.01341
7211.9,0.01336
7222.0,0.01335
7232.0,0.01334
7242.1,0.01338
7252.3,0.01344
7262.4,0.01357
7272.6,0.01371
7282.8,0.01391
7293.1,0.01412
7303.3,0.0144
7313.6,0.01468
7324.0,0.01491
7334.3,0.01509
7344.7,0.01538
7355.1,0.01567
7365.6,0.01587
7376.1,0.01603
7386.6,0.01627
7397.1,0.01647
7407.7,0.01666
7418.3,0.01685
7428.9,0.01705
7439.6,0.01723
7450.2,0.01753
7461.0,0.01785
7471.7,0.01816
7482.5,0.01848
7493.3,0.01885
7504.1,0.01928
7515.0,0.01968
7525.9,0.02003
7536.9,0.02038
7547.9,0.02065
7558.9,0.02088
7569.9,0.02114
7581.0,0.02148
7592.0,0.02185
7603.2,0.0222
7614.4,0.02269
7625.5,0.02322
7636.8,0.02371
7648.0,0.02418
7659.3,0.02468
7670.7,0.02521
7682.0,0.0257
7693.4,0.02608
7704.9,0.02637
7716.3,0.0266
7727.8,0.02678
7739.4,0.02697
7750.9,0.02712
7762.5,0.02717
7774.2,0.02721
7785.8,0.02723
7797.5,0.02728
7809.3,0.02751
7821.1,0.0278
7832.9,0.02806
7844.7,0.02831
7856.6,0.02849
7868.5,0.02869
7880.5,0.02884
7892.5,0.0289
7904.5,0.02897
7916.6,0.02907
7928.7,0.02914
7940.8,0.02922
7953.0,0.0293
7965.2,0.02938
7977.5,0.02945
7989.8,0.02951
8002.1,0.02957
8014.5,0.02958
8026.9,0.02964
8039.3,0.02969
8051.8,0.02979
8064.3,0.02991
8076.9,0.02997
8089.5,0.03002
8102.1,0.03006
8114.8,0.03016
8127.5,0.03032
8140.3,0.03048
8153.1,0.03063
8165.9,0.03078
8178.8,0.03091
8191.7,0.03096
8204.7,0.03093
8217.7,0.03085
8230.7,0.03065
8243.8,0.03035
8257.0,0.03003
8270.1,0.02969
8283.3,0.02937
8296.6,0.02923
8309.9,0.02921
8323.2,0.02922
8336.6,0.0293
8350.0,0.02946
8363.5,0.02963
8377.0,0.02974
8390.5,0.02976
8404.2,0.02978
8417.8,0.0297
8431.5,0.02946
8445.2,0.02917
8459.0,0.02888
8472.8,0.02858
8486.7,0.0283
8500.6,0.02805
8514.5,0.02793
8528.5,0.02792
8542.6,0.02793
8556.7,0.02794
8570.8,0.028
8585.0,0.02803
8599.3,0.02799
8613.5,0.02803
8627.9,0.02807
8642.3,0.02807
8656.7,0.02804
8671.2,0.02799
8685.7,0.02789
8700.3,0.02777
8714.9,0.02772
8729.5,0.02766
8744.3,0.0276
8759.0,0.02751
8773.9,0.02733
8788.7,0.02704
8803.7,0.02676
8818.6,0.02653
8833.7,0.02635
8848.7,0.02618
8863.8,0.026
8879.0,0.02595
8894.3,0.02598
8909.5,0.02603
8924.9,0.02596
8940.3,0.02586
8955.7,0.02586
8971.2,0.0259
8986.8,0.02591
9002.3,0.02591
9018.0,0.02585
9033.7,0.02572
9049.5,0.02559
9065.3,0.02543
9081.2,0.02519
9097.1,0.02498
9113.1,0.02479
9129.1,0.0246
9145.2,0.0244
9161.4,0.02423
9177.6,0.02404
9193.9,0.02389
9210.2,0.02378
9226.6,0.02374
9243.0,0.02374
9259.5,0.02383
9276.1,0.02398
9292.7,0.02405
9309.4,0.02413
9326.2,0.02421
9343.0,0.02431
9359.8,0.02444
9376.8,0.02455
9393.8,0.02471
9410.8,0.02479
9427.9,0.02466
9445.1,0.02438
9462.3,0.02418
9479.6,0.02405
9497.0,0.02388
9514.4,0.02366
9531.9,0.0234
9549.4,0.02314
9567.0,0.02292
9584.7,0.0227
9602.5,0.02256
9620.3,0.02262
9638.2,0.02274
9656.1,0.02284
9674.2,0.02293
9692.2,0.023
9710.4,0.02292
9728.6,0.02274
9746.9,0.02257
9765.2,0.02237
9783.7,0.02212
9802.2,0.0219
9820.7,0.02172
9839.4,0.0215
9858.1,0.02123
9876.8,0.02097
9895.7,0.02074
9914.6,0.02051
9933.6,0.02026
9952.7,0.02
9971.8,0.0198
9991.0,0.01967
10010.3,0.01953
10029.7,0.01948
10049.1,0.01941
10068.6,0.01923
10088.2,0.01914
10107.9,0.01906
10127.6,0.01902
10147.5,0.01914
10167.3,0.01949
10187.3,0.01981
10207.4,0.0201
10227.5,0.02031
10247.7,0.02043
10268.0,0.0206
10288.4,0.02069
10308.8,0.02074
10329.4,0.02087
10350.0,0.021
10370.7,0.0212
10391.5,0.02147
10412.3,0.02174
10433.3,0.02206
10454.3,0.02241
10475.4,0.02272
10496.7,0.02298
10517.9,0.0232
10539.3,0.02341
10560.8,0.02349
10582.3,0.02351
10604.0,0.02359
10625.7,0.02366
10647.5,0.02354
10669.4,0.02352
10691.4,0.0235
10713.5,0.02345
10735.7,0.02344
10758.0,0.02344
10780.3,0.02341
10802.8,0.02339
10825.4,0.02329
10848.0,0.02317
10870.8,0.02297
10893.6,0.02272
10916.5,0.02244
10939.5,0.02211
10962.7,0.02166
10985.9,0.02122
11009.2,0.02083
11032.7,0.02039
11056.2,0.01992
11079.8,0.01943
11103.5,0.01913
11127.4,0.01902
11151.3,0.01904
11175.3,0.01929
11199.5,0.01975
11223.7,0.02023
11248.0,0.02068
11272.5,0.0212
11297.1,0.02173
11321.7,0.02217
11346.5,0.02242
11371.4,0.02261
11396.4,0.02283
11421.5,0.02308
11446.7,0.02331
11472.0,0.02355
11497.5,0.02385
11523.0,0.02401
11548.7,0.02415
11574.4,0.02443
11600.3,0.02477
11626.3,0.0251
11652.5,0.02531
11678.7,0.02537
11705.1,0.02542
11731.6,0.02547
11758.2,0.02556
11784.9,0.02569
11811.7,0.0258
11838.7,0.02594
11865.8,0.02618
11893.0,0.02627
11920.3,0.02635
11947.8,0.02649
11975.4,0.02662
12003.1,0.02663
12031.0,0.0266
12059.0,0.02659
12087.1,0.02654
12115.3,0.02648
12143.7,0.02634
12172.2,0.0261
12200.8,0.02596
12229.6,0.02592
12258.5,0.02587
12287.6,0.02585
12316.8,0.02599
12346.1,0.02608
12375.5,0.02617
12405.2,0.02632
12434.9,0.02652
12464.8,0.02668
12494.8,0.0268
12525.0,0.027
12555.3,0.02714
12585.8,0.02714
12616.4,0.02722
12647.2,0.02749
12678.1,0.02765
12709.2,0.0277
12740.4,0.02781
12771.8,0.02797
12803.3,0.02816
12835.0,0.02839
12866.9,0.02859
12898.9,0.02866
12931.1,0.02876
12963.4,0.0289
12995.9,0.02897
13028.5,0.02905
13061.3,0.02926
13094.3,0.02942
13127.5,0.02946
13160.8,0.02955
13194.3,0.02968
13228.0,0.02976
13261.8,0.02975
13295.8,0.02983
13330.0,0.02995
13364.3,0.02991
13398.8,0.02984
13433.6,0.02991
13468.5,0.0299
13503.5,0.02989
13538.8,0.02984
13574.2,0.02997
13609.9,0.03004
13645.7,0.02987
13681.7,0.02986
13717.9,0.03005
13754.3,0.02999
13790.8,0.02977
13827.6,0.0298
13864.6,0.02969
13901.8,0.02945
13939.2,0.02954
13976.7,0.02956
14014.5,0.02943
14052.5,0.02936
14090.7,0.02945
14129.0,0.02941
14167.6,0.02932
14206.5,0.02935
14245.5,0.02948
14284.7,0.02947
14324.2,0.02936
14363.9,0.02943
14403.8,0.02949
14443.9,0.02941
14484.3,0.02944
14524.8,0.02932
14565.6,0.02914
14606.7,0.02902
14647.9,0.02864
14689.4,0.02828
14731.2,0.02798
14773.1,0.0278
14815.3,0.02772
14857.8,0.02746
14900.5,0.02723
14943.4,0.02725
14986.6,0.02709
15030.0,0.02691
15073.7,0.02692
15117.7,0.0269
15161.9,0.02675
15206.3,0.02676
15251.1,0.02669
15296.1,0.02648
15341.3,0.02628
15386.8,0.02604
15432.6,0.02591
15478.7,0.02563
15525.0,0.02551
15571.7,0.02532
15618.6,0.02499
15665.8,0.02468
15713.2,0.02419
15761.0,0.0238
15809.0,0.02368
15857.4,0.02351
15906.0,0.02344
15955.0,0.02328
16004.2,0.02292
16053.8,0.02271
16103.6,0.02256
16153.8,0.02244
16204.3,0.02234
16255.1,0.02235
16306.2,0.02254
16357.6,0.02242
16409.4,0.02231
16461.5,0.02248
16513.9,0.02266
16566.7,0.02287
16619.8,0.02273
16673.2,0.02245
16727.0,0.02244
16781.1,0.02249
16835.6,0.02259
16890.5,0.02246
16945.7,0.02252
17001.2,0.0227
17057.2,0.02284
17113.4,0.02276
17170.1,0.02299
17227.2,0.02316
17284.6,0.02297
17342.4,0.02293
17400.6,0.0233
17459.2,0.02351
17518.2,0.02333
17577.5,0.02308
17637.3,0.02325
17697.5,0.02327
17758.1,0.02297
17819.2,0.02278
17880.6,0.02304
17942.5,0.02333
18004.8,0.02375
18067.5,0.02348
18130.7,0.0233
18194.3,0.02345
18258.4,0.02412
18322.9,0.02434
18387.9,0.02399
18453.3,0.02393
18519.2,0.02415
18585.6,0.02403
18652.4,0.02357
18719.8,0.02363
18787.6,0.02369
18855.9,0.02314
18924.7,0.02295
18994.1,0.02322
19063.9,0.02317
19134.2,0.02284
19205.1,0.0227
19276.5,0.02278
19348.4,0.02306
19420.9,0.02335
19493.9,0.02325
19567.5,0.02311
19641.6,0.02339
19716.3,0.02329
19791.5,0.02328
19867.3,0.02347
19943.8,0.02364
20020.8,0.02375
20098.4,0.02395
20176.6,0.02421
20255.4,0.02455
20334.8,0.02441
20414.9,0.0241
20495.6,0.0246
20576.9,0.02519
20658.9,0.0253
20741.5,0.0256
20824.8,0.02635
20908.8,0.02681
20993.4,0.02708
21078.8,0.02804
21164.8,0.02899
21251.6,0.0298
21339.0,0.03164
21427.2,0.03306
21516.1,0.0338
21605.8,0.03532
21696.2,0.03685
21787.3,0.03827
21879.3,0.03974
21972.0,0.04147
22065.5,0.04309
22159.7,0.0445
22254.8,0.04563
22350.8,0.04687
22447.5,0.04828
22545.1,0.04923
22643.6,0.04989
22742.9,0.05085
22843.1,0.05107
22944.2,0.05097
23046.2,0.05134
23149.0,0.05216
23252.8,0.05189
23357.6,0.05106
23463.3,0.05047
23569.9,0.05023
23677.5,0.05111
23786.1,0.0527
23895.8,0.05285
24006.4,0.05334
24118.0,0.05555
24230.7,0.05933
24344.5,0.06142
24459.4,0.06297
24575.3,0.06466
24692.3,0.06701
24810.4,0.06774
24929.7,0.06809
25050.2,0.07037
