Database of Origin,University of Winnipeg Spectrophotometer Facility
Sample Description,See Master Clays in HOSERLab database
Date Added,2016-12-11 20:57:06.200820

Data ID,RLA_CLAY_16         
Sample ID,KAO101
Mineral Name,Kaolinite
Grain Size,<45um
Viewing Geometry,"30/0,30"
Resolution,"5,0.6-129"
Material Class,Phyllosilicate

Wavelength
305.0,0.341039
310.0,0.350413
315.0,0.360647
320.0,0.381115
325.0,0.399735
330.0,0.418753
335.0,0.439932
340.0,0.460498
345.0,0.480499
350.0,0.499567
355.0,0.517944
360.0,0.532944
365.0,0.546038
370.0,0.560192
375.0,0.573964
380.0,0.589091
385.0,0.60028
390.0,0.612955
395.0,0.620746
400.0,0.638811
405.0,0.639289
410.0,0.648102
415.0,0.655999
420.0,0.663183
425.0,0.670079
430.0,0.675652
435.0,0.684585
440.0,0.686709
445.0,0.693511
450.0,0.697478
455.0,0.706462
460.0,0.706429
465.0,0.716173
470.0,0.717113
475.0,0.72332
480.0,0.727817
485.0,0.728929
490.0,0.7363
495.0,0.741026
500.0,0.747156
505.0,0.752257
510.0,0.754009
515.0,0.758981
520.0,0.765621
525.0,0.766142
530.0,0.772661
535.0,0.775229
540.0,0.782555
545.0,0.786197
550.0,0.786618
555.0,0.795632
560.0,0.795412
565.0,0.802284
570.0,0.804608
575.0,0.804275
580.0,0.811278
585.0,0.81057
590.0,0.812799
595.0,0.816306
600.0,0.820548
605.0,0.820511
610.0,0.819391
615.0,0.826205
620.0,0.829938
625.0,0.833943
630.0,0.835892
635.0,0.836516
640.0,0.834248
645.0,0.838153
650.0,0.839765
655.0,0.851802
660.0,0.844645
665.0,0.851441
670.0,0.847165
675.0,0.85451
680.0,0.855061
685.0,0.853064
690.0,0.859093
695.0,0.859149
700.0,0.862365
705.0,0.86156
710.0,0.863524
715.0,0.866213
720.0,0.864573
725.0,0.868356
730.0,0.868129
735.0,0.87217
740.0,0.872081
745.0,0.874388
750.0,0.871135
755.0,0.870283
760.0,0.874061
765.0,0.875447
770.0,0.876006
775.0,0.877458
780.0,0.879913
785.0,0.876377
790.0,0.879723
795.0,0.876341
800.0,0.882027
805.0,0.87639
810.0,0.878867
815.0,0.880616
820.0,0.879885
825.0,0.879202
830.0,0.880602
835.0,0.884026
840.0,0.880879
845.0,0.880605
850.0,0.880151
855.0,0.883322
860.0,0.882296
865.0,0.881663
870.0,0.879481
875.0,0.884474
880.0,0.88476
885.0,0.884469
890.0,0.88216
895.0,0.877238
900.0,0.882859
905.0,0.883927
910.0,0.878576
915.0,0.88009
920.0,0.878926
925.0,0.882923
930.0,0.882509
935.0,0.883532
940.0,0.881368
945.0,0.882433
950.0,0.881837
955.0,0.878682
960.0,0.881411
965.0,0.878744
970.0,0.876153
975.0,0.881825
980.0,0.885071
985.0,0.885832
990.0,0.885343
995.0,0.881104
1000.0,0.885992
1005.0,0.88327
1010.0,0.882004
1015.0,0.886794
1020.0,0.883045
1025.0,0.882975
1030.0,0.885016
1035.0,0.885484
1040.0,0.883896
1045.0,0.882225
1050.0,0.885432
1055.0,0.881862
1060.0,0.880329
1065.0,0.884981
1070.0,0.883174
1075.0,0.88146
1080.0,0.885447
1085.0,0.881628
1090.0,0.882882
1095.0,0.884021
1100.0,0.882979
1105.0,0.883949
1110.0,0.883497
1115.0,0.886097
1120.0,0.882141
1125.0,0.885403
1130.0,0.88566
1135.0,0.884602
1140.0,0.880822
1145.0,0.885526
1150.0,0.88138
1155.0,0.885938
1160.0,0.883687
1165.0,0.887143
1170.0,0.882032
1175.0,0.881993
1180.0,0.883903
1185.0,0.878659
1190.0,0.883392
1195.0,0.882188
1200.0,0.885629
1205.0,0.889309
1210.0,0.89323
1215.0,0.898316
1220.0,0.895625
1225.0,0.892941
1230.0,0.888637
1235.0,0.882769
1240.0,0.887283
1245.0,0.887156
1250.0,0.890878
1255.0,0.88974
1260.0,0.890422
1265.0,0.894191
1270.0,0.884647
1275.0,0.890687
1280.0,0.889184
1285.0,0.885719
1290.0,0.883649
1295.0,0.88124
1300.0,0.87806
1305.0,0.874427
1310.0,0.870892
1315.0,0.872087
1320.0,0.871377
1325.0,0.86835
1330.0,0.867221
1335.0,0.863849
1340.0,0.863718
1345.0,0.865739
1350.0,0.858759
1355.0,0.841436
1360.0,0.835981
1365.0,0.83402
1370.0,0.837835
1375.0,0.828479
1380.0,0.816302
1385.0,0.791201
1390.0,0.761847
1395.0,0.720131
1400.0,0.726753
1405.0,0.735381
1410.0,0.750161
1415.0,0.680967
1420.0,0.751045
1425.0,0.828891
1430.0,0.842475
1435.0,0.852555
1440.0,0.85831
1445.0,0.864438
1450.0,0.867371
1455.0,0.871947
1460.0,0.867889
1465.0,0.872953
1470.0,0.8721
1475.0,0.877657
1480.0,0.875824
1485.0,0.87498
1490.0,0.881086
1495.0,0.880548
1500.0,0.879314
1505.0,0.883795
1510.0,0.88764
1515.0,0.88618
1520.0,0.889092
1525.0,0.883734
1530.0,0.886302
1535.0,0.889735
1540.0,0.89011
1545.0,0.887586
1550.0,0.889693
1555.0,0.886761
1560.0,0.889639
1565.0,0.889344
1570.0,0.892054
1575.0,0.895424
1580.0,0.890506
1585.0,0.895292
1590.0,0.893811
1595.0,0.894665
1600.0,0.895975
1605.0,0.891347
1610.0,0.896118
1615.0,0.897364
1620.0,0.898202
1625.0,0.895841
1630.0,0.893908
1635.0,0.893849
1640.0,0.89386
1645.0,0.893901
1650.0,0.891296
1655.0,0.894658
1660.0,0.892026
1665.0,0.891842
1670.0,0.894133
1675.0,0.892892
1680.0,0.893811
1685.0,0.894737
1690.0,0.891729
1695.0,0.891883
1700.0,0.893588
1705.0,0.89139
1710.0,0.891997
1715.0,0.893128
1720.0,0.889977
1725.0,0.889907
1730.0,0.889826
1735.0,0.889345
1740.0,0.887159
1745.0,0.885823
1750.0,0.885388
1755.0,0.884749
1760.0,0.886464
1765.0,0.885005
1770.0,0.880811
1775.0,0.881364
1780.0,0.879708
1785.0,0.876035
1790.0,0.87576
1795.0,0.874062
1800.0,0.874254
1805.0,0.870567
1810.0,0.870048
1815.0,0.86928
1820.0,0.869141
1825.0,0.868717
1830.0,0.871371
1835.0,0.872278
1840.0,0.868707
1845.0,0.865242
1850.0,0.867341
1855.0,0.871285
1860.0,0.872306
1865.0,0.872359
1870.0,0.874273
1875.0,0.859989
1880.0,0.850495
1885.0,0.845738
1890.0,0.835954
1895.0,0.823714
1900.0,0.812272
1905.0,0.793907
1910.0,0.778907
1915.0,0.774569
1920.0,0.772073
1925.0,0.777464
1930.0,0.781687
1935.0,0.785717
1940.0,0.787595
1945.0,0.791341
1950.0,0.792055
1955.0,0.792987
1960.0,0.795965
1965.0,0.797294
1970.0,0.799945
1975.0,0.801886
1980.0,0.802993
1985.0,0.804927
1990.0,0.8081
1995.0,0.809232
2000.0,0.809826
2005.0,0.811146
2010.0,0.813739
2015.0,0.816367
2020.0,0.817397
2025.0,0.816524
2030.0,0.818422
2035.0,0.817681
2040.0,0.816626
2045.0,0.817234
2050.0,0.814743
2055.0,0.813176
2060.0,0.813818
2065.0,0.809996
2070.0,0.809264
2075.0,0.804811
2080.0,0.79842
2085.0,0.79618
2090.0,0.790084
2095.0,0.787981
2100.0,0.78733
2105.0,0.785278
2110.0,0.774835
2115.0,0.765288
2120.0,0.763978
2125.0,0.76229
2130.0,0.753845
2135.0,0.745849
2140.0,0.731915
2145.0,0.709868
2150.0,0.672733
2155.0,0.637207
2160.0,0.615123
2165.0,0.606412
2170.0,0.609143
2175.0,0.615057
2180.0,0.62124
2185.0,0.621252
2190.0,0.610416
2195.0,0.594262
2200.0,0.582443
2205.0,0.548674
2210.0,0.492084
2215.0,0.539876
2220.0,0.634447
2225.0,0.680207
2230.0,0.695472
2235.0,0.700247
2240.0,0.699211
2245.0,0.697435
2250.0,0.697858
2255.0,0.698883
2260.0,0.698073
2265.0,0.69334
2270.0,0.690358
2275.0,0.684768
2280.0,0.675369
2285.0,0.670441
2290.0,0.664202
2295.0,0.658944
2300.0,0.653832
2305.0,0.648963
2310.0,0.638032
2315.0,0.628478
2320.0,0.620699
2325.0,0.617862
2330.0,0.616867
2335.0,0.620735
2340.0,0.623791
2345.0,0.617424
2350.0,0.609245
2355.0,0.597375
2360.0,0.592235
2365.0,0.591459
2370.0,0.591931
2375.0,0.583281
2380.0,0.571876
2385.0,0.562468
2390.0,0.564007
2395.0,0.573371
2400.0,0.580993
2405.0,0.587643
2410.0,0.587137
2415.0,0.584066
2420.0,0.577713
2425.0,0.572431
2430.0,0.563474
2435.0,0.552105
2440.0,0.539084
2445.0,0.529349
2450.0,0.523884
2455.0,0.518513
2460.0,0.514836
2465.0,0.511617
2470.0,0.510168
2475.0,0.502998
2480.0,0.49717
2485.0,0.491246
2490.0,0.481398
2495.0,0.477382
2500.0,0.476077
2505.0,0.474028
2510.0,0.47076
2515.0,0.46828
2520.0,0.466002
2525.15,0.463263
2530.08,0.460802
2535.03,0.458556
2540.0,0.453067
2544.99,0.451566
2549.99,0.447055
2552.5,0.446381
2553.76,0.446161
2556.28,0.445141
2558.8,0.444032
2561.33,0.443988
2563.86,0.442964
2565.13,0.442159
2566.4,0.440928
2567.67,0.440321
2568.95,0.439628
2570.22,0.438794
2571.5,0.437857
2572.77,0.436811
2574.05,0.435775
2575.33,0.435331
2576.61,0.434473
2577.89,0.434036
2579.17,0.433419
2580.46,0.432417
2581.74,0.43192
2583.03,0.431888
2584.31,0.43156
2585.6,0.431356
2586.89,0.431503
2588.19,0.431537
2589.48,0.43131
2590.77,0.430453
2592.07,0.430164
2593.36,0.429353
2594.66,0.428314
2595.96,0.427725
2597.26,0.426696
2598.56,0.425119
2599.87,0.423742
2601.17,0.423265
2602.48,0.422662
2603.78,0.422062
2605.09,0.420776
2606.4,0.419616
2607.71,0.418273
2609.03,0.417088
2610.34,0.416297
2611.66,0.416239
2612.97,0.41532
2614.29,0.413892
2615.61,0.412354
2616.93,0.41235
2618.25,0.411045
2619.57,0.409544
2620.9,0.408916
2622.22,0.407561
2623.55,0.405744
2624.88,0.404222
2626.21,0.402883
2627.54,0.401526
2628.87,0.399097
2630.21,0.396798
2631.54,0.395046
2632.88,0.393224
2634.21,0.39059
2635.55,0.387941
2636.89,0.384784
2638.24,0.382256
2639.58,0.379652
2640.92,0.376326
2642.27,0.372881
2643.62,0.370307
2644.97,0.367623
2646.32,0.364895
2647.67,0.36168
2649.02,0.358246
2650.38,0.354475
2651.73,0.350897
2653.09,0.3474
2654.45,0.343948
2655.81,0.340315
2657.17,0.336349
2658.53,0.332065
2659.89,0.327932
2661.26,0.323403
2662.63,0.318372
2664.0,0.31258
2665.36,0.307168
2666.74,0.301768
2668.11,0.295432
2669.48,0.288306
2670.86,0.28197
2672.23,0.27423
2673.61,0.26653
2674.99,0.259312
2676.37,0.252679
2677.76,0.244964
2679.14,0.236015
2680.52,0.226539
2681.91,0.216663
2683.3,0.206781
2684.69,0.196824
2686.08,0.185964
2687.47,0.174831
2688.87,0.162829
2690.26,0.150298
2691.66,0.137203
2693.06,0.124537
2694.46,0.111421
2695.86,0.09754
2697.26,0.083739
2698.66,0.071231
2700.07,0.060767
2701.48,0.051848
2702.89,0.043124
2704.3,0.035547
2705.71,0.029949
2707.12,0.026486
2708.53,0.024228
2709.95,0.023504
2711.37,0.024212
2712.79,0.025926
2714.21,0.028452
2715.63,0.031063
2717.05,0.033708
2718.48,0.036457
2719.9,0.038872
2721.33,0.040046
2722.76,0.039193
2724.19,0.037591
2725.62,0.035881
2727.06,0.034508
2728.49,0.034041
2729.93,0.035024
2731.37,0.03689
2732.81,0.038843
2734.25,0.039679
2735.69,0.039439
2737.14,0.039074
2738.58,0.038955
2740.03,0.039739
2741.48,0.041605
2742.93,0.044992
2744.38,0.049272
2745.83,0.053638
2747.29,0.057437
2748.75,0.060359
2750.2,0.062229
2751.66,0.062818
2753.13,0.06156
2754.59,0.058026
2756.05,0.052249
2757.52,0.043888
2758.99,0.035258
2760.46,0.028604
2761.93,0.025908
2763.4,0.029878
2764.87,0.041483
2766.35,0.057253
2767.82,0.072182
2769.3,0.085637
2770.78,0.096838
2772.26,0.106933
2773.75,0.11606
2775.23,0.123349
2776.72,0.128447
2778.21,0.132392
2779.7,0.135901
2781.19,0.13966
2782.68,0.14399
2784.18,0.149005
2785.67,0.15347
2787.17,0.157234
2788.67,0.160473
2790.17,0.163366
2791.67,0.166295
2793.18,0.16947
2794.68,0.1723
2796.19,0.175686
2797.7,0.179136
2799.21,0.181517
2800.72,0.183511
2802.24,0.185714
2803.75,0.187841
2805.27,0.189666
2806.79,0.191068
2808.31,0.192281
2809.83,0.193342
2811.35,0.194133
2812.88,0.194614
2814.41,0.195185
2815.93,0.195632
2817.46,0.196473
2819.0,0.197409
2820.53,0.198775
2822.07,0.200627
2823.6,0.2023
2825.14,0.203533
2826.68,0.205186
2828.22,0.207084
2829.77,0.208998
2831.31,0.210295
2832.86,0.211262
2834.41,0.212887
2835.96,0.214781
2837.51,0.21628
2839.07,0.217905
2840.62,0.219257
2842.18,0.220662
2843.74,0.222095
2845.3,0.223294
2846.86,0.224474
2848.43,0.225934
2849.99,0.227422
2851.56,0.22893
2853.13,0.230349
2854.7,0.231708
2856.27,0.233019
2857.85,0.234161
2859.42,0.23514
2861.0,0.236272
2862.58,0.237973
2864.16,0.239476
2865.75,0.24067
2867.33,0.241498
2868.92,0.242497
2870.51,0.243554
2872.1,0.244521
2873.69,0.245734
2875.28,0.246362
2876.88,0.247267
2878.48,0.248342
2880.07,0.248961
2881.68,0.249433
2883.28,0.250128
2884.88,0.250887
2886.49,0.251563
2888.1,0.252739
2889.71,0.254084
2891.32,0.254753
2892.93,0.255134
2894.55,0.255601
2896.16,0.256388
2897.78,0.257706
2899.4,0.258998
2901.03,0.259798
2902.65,0.260346
2904.28,0.260763
2905.91,0.260958
2907.54,0.259968
2909.17,0.258609
2910.8,0.25697
2912.44,0.254987
2914.07,0.253541
2915.71,0.254238
2917.35,0.25725
2918.99,0.261481
2920.64,0.265845
2922.29,0.270239
2923.93,0.274003
2925.58,0.276685
2927.24,0.278963
2928.89,0.281232
2930.55,0.283589
2932.2,0.285578
2933.86,0.287199
2935.52,0.288528
2937.19,0.289734
2938.85,0.290786
2940.52,0.292118
2942.19,0.293385
2943.86,0.294391
2945.53,0.295269
2947.21,0.295948
2948.88,0.297007
2950.56,0.298336
2952.24,0.299473
2953.92,0.300259
2955.61,0.301162
2957.29,0.30227
2958.98,0.303386
2960.67,0.304351
2962.36,0.305174
2964.06,0.306203
2965.75,0.307337
2967.45,0.308027
2969.15,0.308914
2970.85,0.310058
2972.55,0.31095
2974.26,0.311642
2975.97,0.312566
2977.68,0.3134
2979.39,0.314264
2981.1,0.314753
2982.82,0.315314
2984.53,0.315938
2986.25,0.316589
2987.97,0.317537
2989.7,0.318544
2991.42,0.319646
2993.15,0.320302
2994.88,0.320614
2996.61,0.321184
2998.34,0.322328
3000.08,0.323538
3001.82,0.324045
3003.55,0.324602
3005.3,0.325718
3007.04,0.326543
3008.78,0.326871
3010.53,0.32744
3012.28,0.328191
3014.03,0.32884
3015.79,0.32948
3017.54,0.329998
3019.3,0.330694
3021.06,0.331361
3022.82,0.331946
3024.58,0.332294
3026.35,0.33287
3028.12,0.333404
3029.89,0.333981
3031.66,0.334756
3033.43,0.334997
3035.21,0.335402
3036.99,0.336028
3038.77,0.336769
3040.55,0.337337
3042.33,0.337653
3044.12,0.337995
3045.91,0.338655
3047.7,0.339407
3049.49,0.340127
3051.29,0.340569
3053.08,0.341204
3054.88,0.341784
3056.68,0.342095
3058.49,0.342377
3060.29,0.343173
3062.1,0.343764
3063.91,0.344207
3065.72,0.34486
3067.54,0.345137
3069.35,0.345717
3071.17,0.346515
3072.99,0.347129
3074.81,0.347812
3076.64,0.34831
3078.47,0.3488
3080.29,0.34941
3082.13,0.350178
3083.96,0.350902
3085.79,0.351562
3087.63,0.352147
3089.47,0.352479
3091.31,0.352995
3093.16,0.353763
3095.01,0.354423
3096.85,0.355032
3098.71,0.355621
3100.56,0.356268
3102.41,0.356696
3104.27,0.357221
3106.13,0.358053
3107.99,0.358785
3109.86,0.359591
3111.73,0.360554
3113.59,0.361113
3115.47,0.361599
3117.34,0.362404
3119.21,0.363213
3121.09,0.363752
3122.97,0.364254
3124.86,0.364873
3126.74,0.365748
3128.63,0.366358
3130.52,0.367305
3132.41,0.368134
3134.3,0.36865
3136.2,0.369365
3138.1,0.370222
3140.0,0.370938
3141.9,0.37166
3143.81,0.372375
3145.71,0.373133
3147.62,0.373872
3149.54,0.374678
3151.45,0.375201
3153.37,0.375921
3155.29,0.376581
3157.21,0.377282
3159.13,0.378137
3161.06,0.378857
3162.99,0.379322
3164.92,0.379964
3166.85,0.380519
3168.79,0.381206
3170.72,0.382167
3172.67,0.382974
3174.61,0.38362
3176.55,0.384133
3178.5,0.38467
3180.45,0.385667
3182.4,0.386526
3184.36,0.387251
3186.32,0.387911
3188.27,0.388903
3190.24,0.389845
3192.2,0.390732
3194.17,0.391734
3196.14,0.392385
3198.11,0.393146
3200.08,0.394086
3202.06,0.395
3204.04,0.395791
3206.02,0.396594
3208.0,0.397403
3209.99,0.398237
3211.98,0.399078
3213.97,0.400311
3215.96,0.401441
3217.96,0.402349
3219.96,0.403326
3221.96,0.404119
3223.96,0.405097
3225.97,0.406007
3227.98,0.406929
3229.99,0.408206
3232.0,0.40912
3234.02,0.409883
3236.04,0.410738
3238.06,0.411573
3240.08,0.412657
3242.11,0.413764
3244.14,0.414697
3246.17,0.415444
3248.2,0.416446
3250.24,0.417502
3252.28,0.418284
3254.32,0.419079
3256.37,0.41995
3258.41,0.420835
3260.46,0.421809
3262.51,0.422715
3264.57,0.423533
3266.63,0.424801
3268.69,0.425876
3270.75,0.426705
3272.81,0.427505
3274.88,0.428406
3276.95,0.429412
3279.02,0.430338
3281.1,0.431281
3283.18,0.432296
3285.26,0.433353
3287.34,0.434311
3289.43,0.435008
3291.51,0.435952
3293.61,0.437137
3295.7,0.438109
3297.8,0.439039
3299.9,0.440195
3302.0,0.441336
3304.1,0.442264
3306.21,0.442881
3308.32,0.443709
3310.43,0.444726
3312.55,0.445719
3314.66,0.44651
3316.79,0.447172
3318.91,0.447883
3321.03,0.44882
3323.16,0.449558
3325.29,0.450658
3327.43,0.45169
3329.57,0.452467
3331.71,0.453569
3333.85,0.454259
3335.99,0.454587
3338.14,0.454917
3340.29,0.45546
3342.45,0.455949
3344.6,0.456439
3346.76,0.456808
3348.92,0.456904
3351.09,0.456973
3353.26,0.456998
3355.43,0.457257
3357.6,0.457452
3359.78,0.456962
3361.96,0.456274
3364.14,0.455559
3366.32,0.454502
3368.51,0.453629
3370.7,0.452957
3372.89,0.452636
3375.09,0.452767
3377.29,0.453342
3379.49,0.454394
3381.69,0.455596
3383.9,0.456829
3386.11,0.457929
3388.32,0.458777
3390.54,0.459504
3392.76,0.460026
3394.98,0.460361
3397.21,0.460258
3399.43,0.459843
3401.66,0.45913
3403.9,0.458507
3406.13,0.457805
3408.37,0.457251
3410.61,0.456762
3412.86,0.456517
3415.11,0.456902
3417.36,0.457679
3419.61,0.459176
3421.87,0.461243
3424.13,0.463618
3426.39,0.466073
3428.66,0.468562
3430.93,0.471008
3433.2,0.473284
3435.48,0.475315
3437.76,0.477084
3440.04,0.478581
3442.32,0.480101
3444.61,0.481783
3446.9,0.483406
3449.19,0.484878
3451.49,0.486347
3453.79,0.487557
3456.09,0.488529
3458.4,0.489716
3460.7,0.49072
3463.02,0.491445
3465.33,0.492217
3467.65,0.492815
3469.97,0.493441
3472.29,0.493829
3474.62,0.494044
3476.95,0.494175
3479.29,0.494232
3481.62,0.494376
3483.96,0.494755
3486.3,0.495497
3488.65,0.49569
3491.0,0.495683
3493.35,0.495747
3495.71,0.495703
3498.07,0.495435
3500.43,0.495747
3502.79,0.496513
3505.16,0.497592
3507.53,0.499486
3509.91,0.501482
3512.29,0.503465
3514.67,0.505697
3517.05,0.507861
3519.44,0.509633
3521.83,0.511354
3524.23,0.512846
3526.62,0.514485
3529.02,0.51622
3531.43,0.517885
3533.83,0.519253
3536.24,0.520431
3538.66,0.521272
3541.08,0.522169
3543.5,0.523134
3545.92,0.523993
3548.35,0.5248
3550.78,0.525339
3553.21,0.526003
3555.65,0.526764
3558.09,0.527104
3560.53,0.527447
3562.98,0.52814
3565.43,0.528658
3567.88,0.528933
3570.34,0.529192
3572.8,0.529843
3575.27,0.53037
3577.73,0.530704
3580.2,0.531039
3582.68,0.531477
3585.16,0.531876
3587.64,0.532208
3590.12,0.532671
3592.61,0.533368
3595.1,0.533758
3597.6,0.534404
3600.09,0.534915
3602.6,0.535422
3605.1,0.535921
3607.61,0.536364
3610.12,0.536889
3612.64,0.537446
3615.16,0.538055
3617.68,0.538601
3620.21,0.539167
3622.74,0.539777
3625.27,0.540251
3627.81,0.540611
3630.35,0.541097
3632.89,0.541759
3635.44,0.542326
3637.99,0.542651
3640.54,0.54297
3643.1,0.543135
3645.66,0.543371
3648.23,0.543712
3650.8,0.543965
3653.37,0.544143
3655.95,0.544214
3658.53,0.544263
3661.11,0.544102
3663.7,0.543921
3666.29,0.543394
3668.89,0.542901
3671.48,0.542225
3674.09,0.54134
3676.69,0.540302
3679.3,0.538899
3681.91,0.537072
3684.53,0.534954
3687.15,0.532559
3689.78,0.530533
3692.4,0.529036
3695.04,0.528495
3697.67,0.528903
3700.31,0.530255
3702.95,0.532337
3705.6,0.53478
3708.25,0.53726
3710.91,0.539894
3713.56,0.542809
3716.23,0.545429
3718.89,0.547772
3721.56,0.549917
3724.23,0.551607
3726.91,0.552957
3729.59,0.554334
3732.28,0.555391
3734.97,0.556338
3737.66,0.557094
3740.36,0.556901
3743.06,0.556438
3745.76,0.557225
3748.47,0.559384
3751.18,0.561642
3753.9,0.563109
3756.62,0.564213
3759.34,0.564867
3762.07,0.565405
3764.8,0.566155
3767.54,0.566771
3770.28,0.56745
3773.02,0.568202
3775.77,0.568715
3778.52,0.569167
3781.28,0.569536
3784.04,0.569896
3786.8,0.570379
3789.57,0.570927
3792.34,0.57153
3795.12,0.57191
3797.9,0.572312
3800.69,0.572632
3803.47,0.572857
3806.27,0.573171
3809.06,0.573751
3811.86,0.574342
3814.67,0.574739
3817.48,0.574973
3820.29,0.575273
3823.11,0.575704
3825.93,0.575883
3828.76,0.575972
3831.59,0.576169
3834.42,0.576536
3837.26,0.577004
3840.1,0.577169
3842.95,0.577283
3845.8,0.577538
3848.65,0.577941
3851.51,0.578402
3854.38,0.578665
3857.24,0.578821
3860.12,0.578995
3862.99,0.579277
3865.87,0.579426
3868.76,0.579653
3871.65,0.579825
3874.54,0.579995
3877.44,0.580233
3880.34,0.580705
3883.25,0.581045
3886.16,0.581015
3889.07,0.581093
3891.99,0.581228
3894.92,0.581498
3897.85,0.581666
3900.78,0.581808
3903.72,0.581982
3906.66,0.582358
3909.6,0.582493
3912.55,0.582608
3915.51,0.582727
3918.47,0.58281
3921.43,0.582991
3924.4,0.583071
3927.38,0.583197
3930.35,0.583465
3933.33,0.583456
3936.32,0.583481
3939.31,0.583499
3942.31,0.583529
3945.31,0.583444
3948.31,0.583548
3951.32,0.583543
3954.34,0.58369
3957.35,0.583667
3960.38,0.583674
3963.41,0.583584
3966.44,0.583559
3969.48,0.583669
3972.52,0.583788
3975.56,0.583752
3978.61,0.583823
3981.67,0.583866
3984.73,0.584199
3987.8,0.58435
3990.87,0.584497
3993.94,0.584632
3997.02,0.584893
4000.1,0.585237
4003.19,0.585514
4006.29,0.585773
4009.39,0.586035
4012.49,0.586055
4015.6,0.586028
4018.71,0.58606
4021.83,0.586197
4024.95,0.586337
4028.08,0.586534
4031.21,0.586447
4034.35,0.586447
4037.49,0.586466
4040.64,0.586511
4043.79,0.586727
4046.94,0.586885
4050.11,0.586821
4053.27,0.586672
4056.44,0.586708
4059.62,0.586706
4062.8,0.586656
4065.99,0.586452
4069.18,0.58617
4072.38,0.585989
4075.58,0.585927
4078.78,0.585812
4082.0,0.585601
4085.21,0.585432
4088.43,0.58548
4091.66,0.585384
4094.89,0.585042
4098.13,0.584774
4101.37,0.58457
4104.62,0.584384
4107.87,0.584309
4111.13,0.584224
4114.39,0.583969
4117.66,0.583687
4120.93,0.583506
4124.21,0.583486
4127.5,0.583273
4130.79,0.583036
4134.08,0.582729
4137.38,0.582596
4140.68,0.582553
4143.99,0.582344
4147.31,0.582175
4150.63,0.58212
4153.95,0.581959
4157.29,0.581831
4160.62,0.581693
4163.96,0.581533
4167.31,0.581379
4170.66,0.581443
4174.02,0.581292
4177.39,0.581239
4180.75,0.581157
4184.13,0.581216
4187.51,0.581212
4190.89,0.581294
4194.28,0.5812
4197.68,0.581038
4201.08,0.581026
4204.49,0.581219
4207.9,0.581501
4211.32,0.58165
4214.74,0.581702
4218.17,0.581918
4221.61,0.58225
4225.05,0.582557
4228.5,0.582775
4231.95,0.582924
4235.4,0.583153
4238.87,0.583231
4242.34,0.583156
4245.81,0.583286
4249.29,0.583201
4252.78,0.582899
4256.27,0.582479
4259.77,0.581895
4263.27,0.581177
4266.78,0.581166
4270.29,0.581228
4273.81,0.581356
4277.34,0.581528
4280.87,0.581817
4284.41,0.581975
4287.95,0.581941
4291.5,0.581961
4295.06,0.581941
4298.62,0.581893
4302.19,0.58178
4305.76,0.581457
4309.34,0.58126
4312.92,0.581058
4316.52,0.580978
4320.11,0.580753
4323.72,0.580673
4327.32,0.580357
4330.94,0.580102
4334.56,0.57972
4338.19,0.579461
4341.82,0.579124
4345.46,0.578961
4349.11,0.578814
4352.76,0.578535
4356.42,0.578344
4360.08,0.578202
4363.75,0.577957
4367.43,0.577799
4371.11,0.577648
4374.8,0.577687
4378.49,0.577668
4382.19,0.577588
4385.9,0.577519
4389.61,0.577393
4393.33,0.577354
4397.06,0.577421
4400.79,0.577304
4404.53,0.577017
4408.28,0.576747
4412.03,0.576634
4415.79,0.576405
4419.55,0.576052
4423.32,0.57594
4427.1,0.575878
4430.88,0.57577
4434.68,0.575456
4438.47,0.575126
4442.28,0.575142
4446.08,0.575048
4449.9,0.574656
4453.72,0.574209
4457.55,0.573847
4461.39,0.573247
4465.23,0.572554
4469.08,0.571816
4472.94,0.571012
4476.8,0.570125
4480.67,0.569306
4484.55,0.568325
4488.43,0.567571
4492.32,0.566943
4496.21,0.566405
4500.12,0.56596
4504.03,0.565767
4507.94,0.565648
4511.87,0.565545
4515.8,0.565378
4519.73,0.565231
4523.68,0.565075
4527.63,0.565064
4531.59,0.564935
4535.55,0.56491
4539.52,0.564761
4543.5,0.5645
4547.49,0.564071
4551.48,0.563638
4555.48,0.563033
4559.49,0.562359
4563.5,0.561504
4567.52,0.560523
4571.55,0.559514
4575.58,0.558563
4579.63,0.557307
4583.67,0.556097
4587.73,0.554939
4591.79,0.553816
4595.86,0.552324
4599.94,0.550797
4604.03,0.549209
4608.12,0.547591
4612.22,0.545723
4616.33,0.54382
4620.44,0.541918
4624.56,0.539825
4628.69,0.537675
4632.83,0.535626
4636.97,0.533391
4641.12,0.531284
4645.28,0.529256
4649.45,0.527248
4653.62,0.52524
4657.8,0.523422
4661.99,0.521767
4666.19,0.520372
4670.39,0.519138
4674.6,0.518171
4678.82,0.517378
4683.05,0.516791
4687.28,0.516298
4691.52,0.516003
4695.77,0.515826
4700.03,0.515664
4704.3,0.515531
4708.57,0.51559
4712.85,0.515661
4717.14,0.51568
4721.43,0.515629
4725.74,0.515576
4730.05,0.515586
4734.37,0.515531
4738.7,0.515304
4743.03,0.51509
4747.38,0.514797
4751.73,0.514527
4756.09,0.514075
4760.45,0.513582
4764.83,0.513174
4769.21,0.512617
4773.6,0.51168
4778.0,0.510687
4782.41,0.509674
4786.83,0.508501
4791.25,0.507208
4795.68,0.505936
4800.13,0.504349
4804.57,0.502729
4809.03,0.501097
4813.5,0.499433
4817.97,0.497595
4822.45,0.495669
4826.94,0.493728
4831.44,0.49191
4835.95,0.489975
4840.46,0.488059
4844.99,0.486235
4849.52,0.484591
4854.06,0.482865
4858.61,0.481068
4863.17,0.479493
4867.73,0.477962
4872.31,0.47633
4876.89,0.474705
4881.48,0.472961
4886.08,0.471189
4890.69,0.469575
4895.31,0.467994
4899.94,0.466272
4904.57,0.464572
4909.22,0.462933
4913.87,0.461638
4918.53,0.4604
4923.21,0.459192
4927.88,0.457918
4932.57,0.456675
4937.27,0.455609
4941.98,0.454417
4946.69,0.452962
4951.42,0.451435
4956.15,0.449686
4960.9,0.447658
4965.65,0.445558
4970.41,0.443307
4975.18,0.44074
4979.96,0.438136
4984.75,0.435551
4989.54,0.433057
4994.35,0.430602
4999.17,0.428232
5003.99,0.425807
5008.83,0.423526
5013.67,0.421333
5018.52,0.418827
5023.39,0.416306
5028.26,0.413849
5033.14,0.411135
5038.03,0.408224
5042.93,0.405081
5047.84,0.401918
5052.76,0.39853
5057.69,0.394925
5062.63,0.391173
5067.58,0.387313
5072.54,0.383473
5077.51,0.379675
5082.49,0.375559
5087.47,0.371327
5092.47,0.367206
5097.48,0.363004
5102.5,0.358711
5107.52,0.354308
5112.56,0.35012
5117.61,0.345953
5122.66,0.341765
5127.73,0.337885
5132.81,0.334307
5137.89,0.330896
5142.99,0.327813
5148.1,0.325124
5153.22,0.32272
5158.34,0.320497
5163.48,0.318631
5168.63,0.316932
5173.79,0.315479
5178.96,0.31453
5184.13,0.313749
5189.32,0.313375
5194.52,0.313176
5199.73,0.31304
5204.96,0.313153
5210.19,0.313451
5215.43,0.313799
5220.68,0.314583
5225.94,0.315083
5231.22,0.315573
5236.5,0.316231
5241.79,0.316914
5247.1,0.317652
5252.42,0.318626
5257.74,0.319612
5263.08,0.320556
5268.43,0.321569
5273.79,0.322548
5279.16,0.323318
5284.54,0.324086
5289.93,0.324588
5295.34,0.324975
5300.75,0.325372
5306.18,0.325278
5311.61,0.325024
5317.06,0.324586
5322.52,0.324109
5327.99,0.323582
5333.47,0.322892
5338.96,0.321906
5344.47,0.320657
5349.98,0.319351
5355.51,0.318349
5361.05,0.317017
5366.6,0.315204
5372.16,0.313464
5377.73,0.311649
5383.32,0.309822
5388.91,0.30792
5394.52,0.305939
5400.14,0.303902
5405.77,0.301733
5411.41,0.299675
5417.07,0.297644
5422.74,0.29548
5428.41,0.29366
5434.1,0.291572
5439.81,0.289019
5445.52,0.286676
5451.25,0.284173
5456.98,0.281528
5462.73,0.278624
5468.5,0.275825
5474.27,0.272852
5480.06,0.269879
5485.86,0.267787
5491.67,0.266352
5497.49,0.265602
5503.33,0.266033
5509.18,0.267358
5515.04,0.269755
5520.91,0.272854
5526.8,0.276646
5532.69,0.280868
5538.61,0.285021
5544.53,0.288954
5550.47,0.292569
5556.41,0.296092
5562.38,0.299425
5568.35,0.302031
5574.34,0.304106
5580.34,0.306015
5586.35,0.307988
5592.38,0.308997
5598.42,0.30943
5604.47,0.309891
5610.54,0.310145
5616.61,0.309857
5622.71,0.309533
5628.81,0.308843
5634.93,0.307693
5641.06,0.306533
5647.21,0.305822
5653.36,0.304892
5659.54,0.303473
5665.72,0.302368
5671.92,0.300952
5678.13,0.300067
5684.36,0.299572
5690.6,0.298877
5696.85,0.298469
5703.12,0.298465
5709.4,0.298098
5715.69,0.298467
5722.0,0.298923
5728.33,0.299088
5734.66,0.299265
5741.01,0.299423
5747.38,0.29932
5753.76,0.299267
5760.15,0.298962
5766.56,0.297914
5772.98,0.297896
5779.41,0.29722
5785.86,0.295978
5792.33,0.295125
5798.81,0.294219
5805.3,0.293651
5811.81,0.293216
5818.33,0.292574
5824.87,0.292434
5831.42,0.292929
5837.99,0.292686
5844.57,0.292466
5851.17,0.292333
5857.78,0.292296
5864.41,0.292326
5871.05,0.292679
5877.7,0.2924
5884.38,0.292519
5891.06,0.293514
5897.76,0.292849
5904.48,0.293552
5911.21,0.293697
5917.96,0.293337
5924.73,0.293422
5931.5,0.293002
5938.3,0.292427
5945.11,0.29283
5951.93,0.291808
5958.78,0.290419
5965.63,0.289301
5972.51,0.288067
5979.39,0.287047
5986.3,0.285101
5993.22,0.283598
6000.16,0.281649
6007.11,0.278853
6014.08,0.275644
6021.06,0.27243
6028.06,0.268199
6035.08,0.263289
6042.12,0.258574
6049.17,0.255223
6056.23,0.254737
6063.32,0.254916
6070.42,0.25429
6077.53,0.25465
6084.67,0.254751
6091.82,0.254135
6098.98,0.25341
6106.17,0.25261
6113.37,0.251409
6120.58,0.25101
6127.82,0.250167
6135.07,0.248929
6142.34,0.248086
6149.63,0.247641
6156.93,0.246981
6164.25,0.246651
6171.59,0.246939
6178.95,0.247004
6186.32,0.247157
6193.71,0.248312
6201.12,0.248952
6208.54,0.249305
6215.99,0.250004
6223.45,0.250595
6230.93,0.251063
6238.43,0.251338
6245.95,0.251714
6253.48,0.251962
6261.03,0.252104
6268.6,0.252227
6276.19,0.252525
6283.8,0.252894
6291.43,0.253316
6299.07,0.253846
6306.73,0.254435
6314.42,0.255083
6322.12,0.255874
6329.84,0.256803
6337.57,0.257763
6345.33,0.258661
6353.11,0.260587
6360.9,0.261992
6368.72,0.262716
6376.55,0.264048
6384.4,0.265428
6392.27,0.266141
6400.17,0.267003
6408.08,0.2675
6416.01,0.268043
6423.96,0.269572
6431.93,0.269513
6439.92,0.269176
6447.93,0.269095
6455.96,0.26866
6464.01,0.268394
6472.08,0.267917
6480.17,0.267835
6488.28,0.267803
6496.41,0.268064
6504.56,0.268875
6512.73,0.268804
6520.92,0.268449
6529.14,0.269017
6537.37,0.269258
6545.63,0.269166
6553.9,0.269098
6562.2,0.268962
6570.51,0.268483
6578.85,0.268098
6587.21,0.267397
6595.59,0.26601
6603.99,0.26471
6612.42,0.263083
6620.86,0.261563
6629.33,0.259725
6637.82,0.2581
6646.33,0.256881
6654.86,0.254806
6663.41,0.252578
6671.99,0.250953
6680.59,0.249408
6689.21,0.247856
6697.85,0.246046
6706.51,0.244191
6715.2,0.242461
6723.91,0.240709
6732.64,0.238828
6741.4,0.236753
6750.18,0.234477
6758.98,0.232256
6767.8,0.229758
6776.65,0.227335
6785.52,0.224735
6794.41,0.222051
6803.33,0.219232
6812.27,0.216578
6821.23,0.214547
6830.22,0.212917
6839.23,0.211551
6848.26,0.21008
6857.32,0.208741
6866.4,0.207721
6875.51,0.206618
6884.64,0.205096
6893.8,0.203898
6902.98,0.202951
6912.18,0.201979
6921.41,0.200851
6930.66,0.199322
6939.94,0.197626
6949.24,0.195563
6958.57,0.193296
6967.92,0.191222
6977.3,0.188999
6986.7,0.186608
6996.13,0.184511
7005.59,0.182588
7015.07,0.18096
7024.57,0.179534
7034.1,0.178343
7043.66,0.177125
7053.25,0.17619
7062.85,0.175033
7072.49,0.174029
7082.15,0.173215
7091.84,0.172527
7101.55,0.171785
7111.3,0.1712
7121.06,0.170689
7130.86,0.170114
7140.68,0.169405
7150.53,0.168777
7160.41,0.167849
7170.31,0.166818
7180.24,0.165676
7190.2,0.164665
7200.19,0.163687
7210.2,0.162625
7220.24,0.161333
7230.31,0.159893
7240.41,0.158334
7250.54,0.156778
7260.69,0.15521
7270.88,0.153723
7281.09,0.152203
7291.33,0.15069
7301.6,0.148978
7311.9,0.147364
7322.22,0.145716
7332.58,0.144091
7342.97,0.142548
7353.38,0.141111
7363.83,0.139569
7374.3,0.138209
7384.81,0.136742
7395.34,0.135372
7405.91,0.134056
7416.5,0.132743
7427.13,0.131445
7437.78,0.130237
7448.47,0.128867
7459.19,0.127517
7469.94,0.126098
7480.71,0.124489
7491.52,0.122678
7502.37,0.120954
7513.24,0.119171
7524.14,0.117291
7535.08,0.115256
7546.05,0.113303
7557.05,0.111274
7568.08,0.109122
7579.15,0.106915
7590.24,0.104769
7601.37,0.102507
7612.53,0.100329
7623.73,0.098147
7634.96,0.096084
7646.22,0.094019
7657.51,0.092204
7668.84,0.090363
7680.2,0.088617
7691.59,0.086895
7703.02,0.085323
7714.49,0.083746
7725.98,0.082196
7737.52,0.080427
7749.08,0.078616
7760.68,0.076576
7772.32,0.074547
7783.99,0.072436
7795.69,0.07025
7807.43,0.067962
7819.21,0.065702
7831.02,0.063348
7842.87,0.061049
7854.75,0.058777
7866.67,0.056646
7878.62,0.054526
7890.62,0.052584
7902.64,0.050691
7914.71,0.048917
7926.81,0.047248
7938.95,0.045847
7951.13,0.04436
7963.34,0.04292
7975.59,0.041403
7987.88,0.040005
8000.21,0.038616
8012.57,0.037293
8024.98,0.035893
8037.42,0.03466
8049.9,0.033307
8062.42,0.031973
8074.98,0.030763
8087.57,0.029844
8100.21,0.028915
8112.89,0.028021
8125.6,0.027178
8138.36,0.026532
8151.16,0.025897
8163.99,0.025518
8176.87,0.025092
8189.79,0.024861
8202.75,0.024592
8215.75,0.02443
8228.79,0.02431
8241.87,0.02443
8254.99,0.024544
8268.16,0.024936
8281.37,0.025385
8294.62,0.025922
8307.91,0.026571
8321.24,0.027542
8334.62,0.028617
8348.04,0.029906
8361.51,0.031322
8375.02,0.033142
8388.57,0.035148
8402.16,0.037321
8415.8,0.039691
8429.49,0.042577
8443.22,0.045632
8456.99,0.04907
8470.81,0.052765
8484.67,0.056712
8498.58,0.060905
8512.54,0.065411
8526.54,0.070165
8540.58,0.075081
8554.68,0.080044
8568.82,0.085036
8583.0,0.090045
8597.24,0.095122
8611.52,0.09999
8625.85,0.105088
8640.23,0.110589
8654.65,0.116324
8669.12,0.122054
8683.64,0.127764
8698.21,0.133277
8712.83,0.138636
8727.5,0.143481
8742.22,0.147843
8756.99,0.151747
8771.8,0.154699
8786.67,0.156354
8801.59,0.156815
8816.56,0.155623
8831.58,0.152726
8846.65,0.148286
8861.77,0.142729
8876.94,0.135812
8892.17,0.127915
8907.45,0.119132
8922.78,0.109496
8938.16,0.098681
8953.6,0.087454
8969.09,0.076638
8984.64,0.067006
9000.23,0.059692
9015.89,0.056031
9031.59,0.056052
9047.36,0.058949
9063.17,0.063346
9079.05,0.068384
9094.97,0.073035
9110.96,0.077119
9127.0,0.080486
9143.1,0.083363
9159.25,0.085953
9175.46,0.088374
9191.73,0.090707
9208.06,0.093075
9224.44,0.094915
9240.88,0.096552
9257.38,0.097737
9273.94,0.098395
9290.56,0.098739
9307.24,0.098652
9323.98,0.097941
9340.78,0.096618
9357.64,0.094484
9374.57,0.092146
9391.55,0.089825
9408.59,0.087812
9425.7,0.086097
9442.87,0.084585
9460.1,0.082994
9477.4,0.081337
9494.75,0.079501
9512.17,0.077495
9529.66,0.075496
9547.21,0.073463
9564.83,0.071341
9582.5,0.069434
9600.25,0.067742
9618.06,0.066124
9635.94,0.064324
9653.88,0.062592
9671.89,0.060833
9689.97,0.059156
9708.12,0.057407
9726.33,0.055495
9744.62,0.053386
9762.97,0.05128
9781.39,0.049302
9799.88,0.047906
9818.44,0.047005
9837.07,0.046767
9855.77,0.046955
9874.54,0.047404
9893.39,0.047906
9912.3,0.048765
9931.29,0.049581
9950.36,0.050352
9969.49,0.051236
9988.7,0.052213
10007.98,0.053265
10027.34,0.054546
10046.77,0.055986
10066.28,0.057634
10085.87,0.059357
10105.53,0.061083
10125.26,0.062633
10145.08,0.064166
10164.97,0.065553
10184.94,0.0668
10204.99,0.067724
10225.12,0.068285
10245.33,0.068418
10265.61,0.068148
10285.98,0.067196
10306.43,0.065927
10326.96,0.064166
10347.57,0.061879
10368.27,0.059199
10389.05,0.056233
10409.91,0.052893
10430.86,0.049387
10451.88,0.045682
10473.0,0.042235
10494.2,0.038838
10515.49,0.035634
10536.86,0.033103
10558.32,0.031579
10579.87,0.030887
10601.5,0.030955
10623.23,0.031561
10645.04,0.032273
10666.94,0.032954
10688.94,0.03358
10711.02,0.033976
10733.2,0.034224
10755.47,0.034293
10777.83,0.034174
10800.28,0.034302
10822.83,0.034955
10845.47,0.03579
10868.21,0.036679
10891.04,0.037328
10913.97,0.038215
10936.99,0.039386
10960.12,0.040653
10983.34,0.042253
11006.66,0.044165
11030.07,0.046223
11053.59,0.048836
11077.21,0.051837
11100.93,0.055011
11124.75,0.058289
11148.68,0.061787
11172.71,0.06492
11196.84,0.067992
11221.07,0.071077
11245.41,0.074126
11269.86,0.076846
11294.41,0.079315
11319.07,0.081577
11343.84,0.083746
11368.72,0.08557
11393.7,0.087232
11418.8,0.088798
11444.01,0.090634
11469.33,0.092619
11494.76,0.094622
11520.3,0.096639
11545.96,0.098445
11571.73,0.099917
11597.62,0.101338
11623.62,0.102351
11649.74,0.103078
11675.98,0.103761
11702.34,0.10427
11728.81,0.104446
11755.41,0.10468
11782.13,0.104781
11808.96,0.104593
11835.92,0.104139
11863.01,0.103529
11890.22,0.102846
11917.55,0.101904
11945.01,0.10057
11972.6,0.09944
12000.31,0.09806
12028.16,0.096307
12056.13,0.094627
12084.23,0.092937
12112.46,0.091
12140.83,0.088942
12169.33,0.086544
12197.96,0.084014
12226.73,0.080984
12255.64,0.077516
12284.68,0.073683
12313.86,0.069168
12343.18,0.064221
12372.64,0.059302
12402.24,0.054122
12431.98,0.048836
12461.86,0.043984
12491.89,0.040289
12522.07,0.037742
12552.38,0.036415
12582.85,0.03628
12613.47,0.036881
12644.23,0.037325
12675.15,0.037699
12706.21,0.03821
12737.43,0.039292
12768.81,0.040951
12800.33,0.042847
12832.02,0.044429
12863.86,0.04546
12895.86,0.046168
12928.02,0.046487
12960.34,0.046065
12992.82,0.045183
13025.46,0.044011
13058.27,0.042645
13091.25,0.040896
13124.39,0.039203
13157.7,0.037804
13191.18,0.036624
13224.83,0.035469
13258.66,0.034829
13292.65,0.034469
13326.83,0.034036
13361.17,0.034135
13395.7,0.034591
13430.4,0.034907
13465.29,0.035521
13500.35,0.036241
13535.6,0.036876
13571.03,0.037039
13606.65,0.037108
13642.46,0.036871
13678.46,0.036466
13714.64,0.035792
13751.02,0.034689
13787.59,0.033236
13824.36,0.031803
13861.32,0.030178
13898.49,0.02867
13935.85,0.027073
13973.41,0.025649
14011.17,0.024469
14049.15,0.023632
14087.32,0.023006
14125.71,0.022552
14164.3,0.022513
14203.11,0.023148
14242.13,0.023795
14281.36,0.024372
14320.81,0.025044
14360.49,0.025768
14400.38,0.026151
14440.49,0.026568
14480.82,0.026836
14521.39,0.027148
14562.18,0.027425
14603.2,0.027591
14644.45,0.027806
14685.93,0.027875
14727.66,0.027744
14769.62,0.02795
14811.81,0.02796
14854.25,0.028003
14896.94,0.028136
14939.87,0.028299
14983.05,0.028159
15026.48,0.028104
15070.16,0.028251
15114.1,0.028661
15158.29,0.028679
15202.74,0.028808
15247.46,0.029266
15292.43,0.029791
15337.68,0.029967
15383.19,0.030382
15428.97,0.030827
15475.03,0.031219
15521.36,0.031407
15567.97,0.032021
15614.87,0.032755
15662.04,0.033394
15709.5,0.033921
15757.25,0.034517
15805.29,0.035572
15853.62,0.036713
15902.26,0.037726
15951.19,0.039388
16000.42,0.041582
16049.95,0.044378
16099.8,0.04744
16149.95,0.05095
16200.42,0.054867
16251.21,0.059337
16302.31,0.063634
16353.74,0.067586
16405.49,0.070797
16457.57,0.073151
16509.98,0.0748
16562.73,0.076095
16615.82,0.077282
16669.24,0.078545
16723.02,0.080136
16777.14,0.08205
16831.61,0.084057
16886.43,0.086606
16941.62,0.08852
16997.16,0.090299
17053.08,0.092307
17109.36,0.093772
17166.01,0.094725
17223.04,0.095649
17280.45,0.096614
17338.24,0.097778
17396.43,0.098661
17455.0,0.099176
17513.97,0.09952
17573.34,0.099843
17633.11,0.099722
17693.29,0.099335
17753.89,0.098748
17814.9,0.097737
17876.33,0.096515
17938.18,0.095731
18000.47,0.09536
18063.19,0.095167
18126.35,0.094537
18189.95,0.093409
18254.0,0.092703
18318.5,0.092419
18383.46,0.091495
18448.88,0.090466
18514.77,0.089925
18581.13,0.089185
18647.97,0.087691
18715.29,0.085763
18783.1,0.083876
18851.4,0.082146
18920.2,0.080567
18989.51,0.078845
19059.32,0.077273
19129.65,0.075964
19200.5,0.07471
19271.88,0.073864
19343.79,0.072381
19416.24,0.070903
19489.23,0.069218
19562.77,0.067533
19636.88,0.065723
19711.54,0.063634
19786.78,0.061271
19862.59,0.059245
19938.98,0.057338
20015.96,0.055248
20093.55,0.05321
20171.73,0.051399
20250.53,0.049038
20329.94,0.047337
20409.98,0.047842
20490.65,0.052139
20571.96,0.05952
20653.92,0.068945
20736.54,0.078185
20819.82,0.084851
20903.77,0.088578
20988.4,0.091392
21073.72,0.093008
21159.73,0.094012
21246.46,0.093824
21333.89,0.093283
21422.04,0.091842
21510.93,0.089969
21600.56,0.088197
21690.94,0.085937
21782.08,0.08414
21873.99,0.083035
21966.67,0.081722
22060.15,0.081004
22154.42,0.080106
22249.51,0.078112
22345.41,0.07534
22442.14,0.072677
22539.72,0.07027
22638.14,0.068718
22737.43,0.068404
22837.6,0.069126
22938.65,0.071192
23040.6,0.074206
23143.46,0.076581
23247.24,0.078538
23351.96,0.079127
23457.63,0.08006
23564.25,0.080285
23671.85,0.079794
23780.44,0.079196
23890.02,0.079207
24000.63,0.078788
24112.26,0.078417
24224.93,0.078953
24338.66,0.080661
24453.47,0.082212
24569.36,0.081681
24686.36,0.084355
24804.47,0.087897
24923.73,0.088949
25044.13,0.09255
25165.71,0.094489
25288.46,0.094028
25412.43,0.093907
25537.61,0.092419
25664.04,0.091427
25791.72,0.089918
25920.68,0.08612
