Database of Origin,University of Winnipeg Spectrophotometer Facility
Sample Description,Carbonates and Oxolates - RELAB+Nicolet spectra Newly merged spectra (merged by RELAB)
Other Information,Baked
Date Added,2018-08-06 20:49:03.221403

Data ID,RLA_CARB_1_49       
Sample ID,CRB214Bk
Mineral Name,Trona
Locality,Green River/ Sweetwater County/ Wyoming/ USA
Grain Size,45-90 um
Viewing Geometry,30/0/30
Resolution,5/ 0.6-129 nm
Formula,Na3(CO3)(HCO3)*2(H2O)
Composition,Natrite and a bit of trona. Tan fibrous masses.

Wavelength
305.0,0.751768
310.0,0.758608
315.0,0.766782
320.0,0.778517
325.0,0.786393
330.0,0.793555
335.0,0.799892
340.0,0.807211
345.0,0.811472
350.0,0.817244
355.0,0.823003
360.0,0.828225
365.0,0.833822
370.0,0.837471
375.0,0.842506
380.0,0.846971
385.0,0.852176
390.0,0.856262
395.0,0.860112
400.0,0.864343
405.0,0.866683
410.0,0.868976
415.0,0.873171
420.0,0.875275
425.0,0.879323
430.0,0.880656
435.0,0.886309
440.0,0.885585
445.0,0.891658
450.0,0.890639
455.0,0.896125
460.0,0.894687
465.0,0.899904
470.0,0.898796
475.0,0.903055
480.0,0.902998
485.0,0.905643
490.0,0.906175
495.0,0.908833
500.0,0.910119
505.0,0.911754
510.0,0.912195
515.0,0.914898
520.0,0.915676
525.0,0.916443
530.0,0.918158
535.0,0.919557
540.0,0.920254
545.0,0.921522
550.0,0.92282
555.0,0.924444
560.0,0.924338
565.0,0.925688
570.0,0.926587
575.0,0.927746
580.0,0.927496
585.0,0.928397
590.0,0.928955
595.0,0.929177
600.0,0.929632
605.0,0.929371
610.0,0.929461
615.0,0.930255
620.0,0.929438
625.0,0.93064
630.0,0.931445
635.0,0.932055
640.0,0.931808
645.0,0.931131
650.0,0.931415
655.0,0.930809
660.0,0.931549
665.0,0.931366
670.0,0.931962
675.0,0.930756
680.0,0.932286
685.0,0.931963
690.0,0.93106
695.0,0.931404
700.0,0.931698
705.0,0.932708
710.0,0.931223
715.0,0.932946
720.0,0.929752
725.0,0.933
730.0,0.93244
735.0,0.933006
740.0,0.933284
745.0,0.932827
750.0,0.933064
755.0,0.933065
760.0,0.934781
765.0,0.93367
770.0,0.933478
775.0,0.933421
780.0,0.934068
785.0,0.933499
790.0,0.935125
795.0,0.934059
800.0,0.935386
805.0,0.933982
810.0,0.934484
815.0,0.934553
820.0,0.935397
825.0,0.933383
830.0,0.933326
835.0,0.932979
840.0,0.933717
845.0,0.935109
850.0,0.935346
855.0,0.936332
860.0,0.933899
865.0,0.935872
870.0,0.93579
875.0,0.93708
880.0,0.934524
885.0,0.937162
890.0,0.93565
895.0,0.937208
900.0,0.936822
905.0,0.938093
910.0,0.936583
915.0,0.93827
920.0,0.93806
925.0,0.938229
930.0,0.937271
935.0,0.938673
940.0,0.938777
945.0,0.938934
950.0,0.939586
955.0,0.939998
960.0,0.94079
965.0,0.93944
970.0,0.940915
975.0,0.940459
980.0,0.941656
985.0,0.941196
990.0,0.942139
995.0,0.941936
1000.0,0.940377
1005.0,0.941927
1010.0,0.941935
1015.0,0.941578
1020.0,0.941467
1025.0,0.941606
1030.0,0.942428
1035.0,0.943216
1040.0,0.942412
1045.0,0.942453
1050.0,0.943458
1055.0,0.942681
1060.0,0.941999
1065.0,0.943877
1070.0,0.943036
1075.0,0.943571
1080.0,0.943444
1085.0,0.944525
1090.0,0.944101
1095.0,0.944178
1100.0,0.944136
1105.0,0.945276
1110.0,0.94417
1115.0,0.945402
1120.0,0.94469
1125.0,0.944405
1130.0,0.943573
1135.0,0.946025
1140.0,0.946047
1145.0,0.94585
1150.0,0.944838
1155.0,0.94538
1160.0,0.947039
1165.0,0.946029
1170.0,0.945017
1175.0,0.943977
1180.0,0.94487
1185.0,0.943508
1190.0,0.945414
1195.0,0.946503
1200.0,0.945352
1205.0,0.946648
1210.0,0.949455
1215.0,0.946113
1220.0,0.947079
1225.0,0.947777
1230.0,0.948233
1235.0,0.948514
1240.0,0.946509
1245.0,0.948742
1250.0,0.950151
1255.0,0.948107
1260.0,0.949585
1265.0,0.947311
1270.0,0.948998
1275.0,0.949161
1280.0,0.948673
1285.0,0.947049
1290.0,0.948763
1295.0,0.947272
1300.0,0.945234
1305.0,0.94591
1310.0,0.944909
1315.0,0.94698
1320.0,0.945838
1325.0,0.944374
1330.0,0.944338
1335.0,0.946256
1340.0,0.94389
1345.0,0.947456
1350.0,0.946953
1355.0,0.946912
1360.0,0.947087
1365.0,0.943976
1370.0,0.943369
1375.0,0.944246
1380.0,0.945473
1385.0,0.940845
1420.0,0.942351
1425.0,0.942405
1430.0,0.942277
1435.0,0.942099
1440.0,0.941885
1445.0,0.941894
1450.0,0.94186
1455.0,0.941659
1460.0,0.941353
1465.0,0.941324
1470.0,0.941081
1475.0,0.941013
1480.0,0.940733
1485.0,0.940537
1490.0,0.940429
1495.0,0.940232
1500.0,0.940017
1505.0,0.940091
1510.0,0.940075
1515.0,0.939961
1520.0,0.939774
1525.0,0.939586
1530.0,0.939507
1535.0,0.939592
1540.0,0.939571
1545.0,0.93972
1550.0,0.939718
1555.0,0.939851
1560.0,0.939695
1565.0,0.939596
1570.0,0.939579
1575.0,0.939569
1580.0,0.939385
1585.0,0.939443
1590.0,0.939461
1595.0,0.939088
1600.0,0.93903
1605.0,0.938929
1610.0,0.938629
1615.0,0.938411
1620.0,0.938249
1625.0,0.938044
1630.0,0.937738
1635.0,0.937247
1640.0,0.937004
1645.0,0.936863
1650.0,0.936356
1655.0,0.936004
1660.0,0.935477
1665.0,0.935175
1670.0,0.934719
1675.0,0.934023
1680.0,0.933609
1685.0,0.932855
1690.0,0.932357
1695.0,0.931974
1700.0,0.931371
1705.31,0.930874
1709.81,0.930487
1715.46,0.930178
1720.02,0.930052
1724.6,0.92947
1730.35,0.92907
1734.98,0.928695
1739.64,0.92849
1745.5,0.928247
1750.21,0.927719
1754.95,0.927661
1759.72,0.927535
1764.51,0.927429
1770.54,0.927075
1775.39,0.926955
1780.27,0.927017
1785.17,0.926768
1790.1,0.926538
1795.06,0.926493
1800.05,0.926186
1805.06,0.925728
1810.1,0.925308
1815.17,0.92486
1820.27,0.924404
1825.4,0.923893
1830.56,0.92341
1834.44,0.922867
1839.65,0.922192
1844.89,0.921591
1850.16,0.921036
1855.45,0.920607
1859.45,0.919971
1864.8,0.91931
1870.18,0.918218
1875.59,0.917037
1879.67,0.91579
1885.14,0.914473
1890.64,0.914094
1894.79,0.914077
1900.34,0.913244
1904.53,0.912239
1910.15,0.910739
1914.38,0.909298
1920.05,0.907387
1924.33,0.905856
1930.06,0.90337
1934.38,0.901732
1940.17,0.900103
1944.54,0.899581
1950.39,0.899482
1954.8,0.89982
1960.72,0.900462
1965.18,0.900971
1969.66,0.901278
1975.66,0.901541
1980.19,0.901458
1984.74,0.901322
1989.31,0.900982
1995.43,0.900437
2000.05,0.899614
2004.69,0.89857
2009.35,0.897969
2015.6,0.897493
2020.32,0.897711
2025.05,0.897624
2029.81,0.896946
2034.59,0.896484
2039.39,0.89614
2044.22,0.895819
2050.69,0.895442
2055.57,0.895376
2060.47,0.89522
2065.39,0.895241
2070.34,0.895003
2075.31,0.894955
2080.31,0.894779
2085.33,0.894748
2090.38,0.894686
2095.45,0.894589
2100.54,0.894317
2105.66,0.894381
2110.8,0.894151
2114.25,0.893849
2119.43,0.893665
2124.65,0.893321
2129.88,0.893039
2135.15,0.892759
2140.44,0.892245
2145.75,0.891713
2149.31,0.891367
2154.67,0.890501
2160.06,0.889273
2165.47,0.888154
2170.91,0.887787
2174.55,0.887555
2180.04,0.887433
2185.55,0.887621
2189.25,0.887657
2194.81,0.887052
2200.4,0.886505
2204.14,0.885751
2209.78,0.885077
2215.44,0.884218
2219.24,0.883656
2224.95,0.882689
2230.7,0.881827
2234.54,0.881002
2240.33,0.879985
2244.21,0.879067
2250.06,0.877381
2255.93,0.875293
2259.87,0.87366
2265.79,0.870959
2269.76,0.868779
2275.74,0.865865
2279.74,0.86372
2285.77,0.860327
2289.81,0.858117
2295.9,0.85505
2299.97,0.853577
2304.06,0.852479
2310.22,0.851354
2314.35,0.850708
2320.56,0.849552
2324.72,0.847969
2331.0,0.84503
2335.2,0.842196
2339.41,0.839339
2345.76,0.833813
2350.02,0.830524
2354.28,0.829078
2360.72,0.833039
2365.03,0.839417
2369.35,0.846718
2375.86,0.85365
2380.23,0.85578
2384.61,0.856542
2389.0,0.856919
2395.63,0.856737
2400.06,0.856498
2404.52,0.856287
2408.98,0.856043
2415.72,0.855635
2420.23,0.855285
2424.76,0.854775
2429.3,0.853836
2433.87,0.852529
2440.74,0.850569
2445.35,0.849196
2449.97,0.84734
2454.61,0.845268
2459.27,0.843192
2463.94,0.841118
2470.99,0.836233
2475.71,0.832811
2480.45,0.828765
2485.2,0.824928
2489.98,0.821789
2494.77,0.819643
2499.58,0.818402
2504.41,0.817621
2509.26,0.816502
2514.13,0.81505
2519.02,0.812585
2523.92,0.808537
2528.85,0.802517
2533.79,0.796063
2541.24,0.786194
2543.74,0.783011
2548.74,0.777785
2553.76,0.777161
2556.28,0.779208
2558.8,0.78215
2561.33,0.785448
2563.86,0.790511
2566.4,0.79846
2568.95,0.806654
2571.5,0.813536
2574.05,0.81887
2576.61,0.822805
2579.17,0.825891
2581.74,0.827868
2584.31,0.828466
2586.89,0.829096
2589.48,0.82966
2592.07,0.829884
2594.66,0.829051
2597.26,0.828315
2599.87,0.829987
2602.48,0.83087
2605.09,0.830501
2607.71,0.830188
2610.34,0.830793
2612.97,0.831085
2615.61,0.830994
2618.25,0.830356
2620.9,0.829819
2623.55,0.830134
2626.21,0.830246
2628.87,0.829353
2631.54,0.828522
2634.22,0.828292
2636.89,0.828458
2639.58,0.828311
2642.27,0.827787
2644.97,0.826904
2647.67,0.826343
2650.38,0.825659
2653.09,0.824938
2655.81,0.824116
2658.53,0.823474
2661.26,0.822649
2664.0,0.821624
2666.74,0.819651
2669.48,0.818199
2672.23,0.817184
2674.99,0.816672
2677.76,0.815346
2680.52,0.813494
2683.3,0.811959
2686.08,0.809635
2688.87,0.806264
2691.66,0.802278
2694.46,0.797201
2697.26,0.791599
2700.07,0.78691
2702.89,0.781744
2705.71,0.776479
2708.53,0.771178
2711.37,0.765777
2714.21,0.761996
2717.05,0.759427
2719.9,0.75614
2722.76,0.752686
2725.62,0.749384
2728.49,0.746641
2731.37,0.743813
2734.25,0.740016
2737.14,0.735899
2740.03,0.731603
2742.93,0.727161
2745.83,0.723981
2748.75,0.720556
2751.66,0.716108
2754.59,0.711008
2757.52,0.70592
2760.46,0.70125
2763.4,0.696413
2766.35,0.691404
2769.3,0.686939
2772.26,0.681973
2775.23,0.676802
2778.21,0.67149
2781.19,0.665938
2784.18,0.65993
2787.17,0.653001
2790.17,0.645951
2793.18,0.639075
2796.19,0.632182
2799.21,0.625275
2802.24,0.616993
2805.27,0.607664
2808.31,0.5998
2811.35,0.594799
2814.41,0.592652
2817.46,0.592265
2820.53,0.591055
2823.6,0.588689
2826.68,0.585838
2829.77,0.582774
2832.86,0.57959
2835.96,0.576205
2839.07,0.573189
2842.18,0.570531
2845.3,0.567715
2848.43,0.565327
2851.56,0.563008
2854.7,0.560446
2857.85,0.557889
2861.0,0.555439
2864.16,0.552816
2867.33,0.550288
2870.51,0.54769
2873.69,0.544972
2876.88,0.542403
2880.07,0.539888
2883.28,0.537719
2886.49,0.535965
2889.71,0.534415
2892.93,0.53346
2896.17,0.533271
2899.4,0.533392
2902.65,0.534009
2905.91,0.535086
2909.17,0.536474
2912.44,0.538384
2915.71,0.540446
2918.99,0.542482
2922.29,0.544778
2925.58,0.546949
2928.89,0.548971
2932.2,0.551189
2935.52,0.552884
2938.85,0.553974
2942.19,0.554865
2945.53,0.555497
2948.88,0.555938
2952.24,0.556043
2955.61,0.555801
2958.98,0.555805
2962.36,0.555602
2965.75,0.554956
2969.15,0.554653
2972.55,0.55455
2975.97,0.554334
2979.39,0.554287
2986.25,0.553489
2989.7,0.553678
2993.15,0.55356
2996.61,0.553417
3000.08,0.55317
3003.55,0.552577
3007.04,0.551762
3010.53,0.551377
3014.03,0.550873
3017.54,0.550305
3021.06,0.549585
3024.58,0.548695
3028.12,0.547554
3031.66,0.547122
3035.21,0.546208
3038.77,0.544721
3042.33,0.544187
3045.91,0.543136
3049.49,0.542025
3053.08,0.541405
3056.68,0.539981
3060.29,0.538768
3063.91,0.538164
3067.54,0.537227
3071.17,0.536588
3074.81,0.53478
3078.47,0.53385
3082.13,0.532496
3085.79,0.531876
3089.47,0.530464
3093.16,0.528945
3096.85,0.527664
3100.56,0.525799
3104.27,0.523778
3107.99,0.521526
3111.73,0.51943
3115.47,0.516829
3119.21,0.51433
3122.97,0.511709
3126.74,0.509426
3130.52,0.506614
3134.3,0.503894
3138.1,0.501802
3141.9,0.50006
3145.71,0.500684
3149.54,0.501913
3153.37,0.502855
3157.21,0.504346
3161.06,0.505689
3164.92,0.506714
3168.79,0.506438
3172.67,0.505062
3176.55,0.504657
3180.45,0.503457
3184.36,0.502321
3188.27,0.500553
3192.2,0.499444
3196.14,0.498113
3200.08,0.496732
3204.04,0.494594
3208.0,0.492828
3211.98,0.491101
3215.96,0.490205
3219.96,0.488702
3223.96,0.487769
3227.98,0.485764
3232.0,0.484533
3236.04,0.482955
3240.08,0.481504
3244.14,0.480411
3248.2,0.478922
3252.28,0.477804
3256.37,0.476543
3260.46,0.475169
3264.57,0.473908
3268.69,0.472317
3272.81,0.471009
3276.95,0.469447
3281.1,0.467553
3285.26,0.465586
3289.43,0.463214
3293.61,0.461381
3297.8,0.458995
3302.0,0.456865
3306.21,0.453975
3310.43,0.451539
3314.66,0.447988
3318.91,0.444231
3323.16,0.440886
3327.43,0.436551
3331.71,0.431579
3335.99,0.425952
3340.29,0.418559
3344.6,0.409232
3348.92,0.397533
3353.26,0.381467
3357.6,0.361834
3361.96,0.340162
3366.32,0.321003
3370.7,0.306787
3375.09,0.297255
3379.49,0.292765
3383.9,0.292554
3388.32,0.294261
3392.76,0.296327
3397.21,0.298756
3401.66,0.301524
3406.13,0.304745
3410.61,0.308314
3415.11,0.311221
3419.61,0.313744
3424.13,0.315616
3428.66,0.317191
3433.2,0.31725
3437.76,0.317126
3442.32,0.316071
3446.9,0.314631
3451.49,0.314097
3456.09,0.312096
3460.7,0.308301
3465.33,0.301083
3469.97,0.292591
3474.62,0.283702
3479.29,0.274818
3483.96,0.266808
3488.65,0.260715
3493.35,0.254511
3498.07,0.244973
3502.79,0.231683
3507.53,0.219904
3512.29,0.223836
3517.05,0.251257
3521.83,0.291162
3526.62,0.32909
3531.43,0.360445
3536.24,0.385292
3541.08,0.404083
3543.5,0.411729
3545.92,0.41836
3548.35,0.424207
3550.78,0.429354
3553.21,0.433584
3555.65,0.437411
3558.09,0.440881
3560.53,0.443441
3562.98,0.445528
3565.43,0.44725
3567.88,0.448746
3570.34,0.450143
3572.8,0.451485
3575.27,0.452255
3577.73,0.452734
3580.2,0.453169
3582.68,0.453755
3585.16,0.454971
3587.64,0.457236
3590.12,0.460351
3592.61,0.463875
3595.1,0.467001
3597.6,0.469583
3600.09,0.471679
3602.6,0.473528
3605.1,0.475171
3607.61,0.476457
3610.12,0.47734
3612.64,0.47829
3615.16,0.479268
3617.68,0.480054
3620.21,0.480515
3622.74,0.481183
3625.27,0.481826
3627.81,0.482199
3630.35,0.482426
3632.89,0.48238
3635.44,0.48238
3637.99,0.482362
3640.54,0.482579
3643.1,0.482629
3645.66,0.482276
3648.23,0.48207
3650.8,0.481661
3653.37,0.481246
3655.95,0.480739
3658.53,0.480226
3661.11,0.479662
3663.7,0.479162
3666.29,0.478591
3668.89,0.477906
3671.48,0.477034
3674.09,0.476213
3676.69,0.475205
3679.3,0.474008
3681.91,0.472944
3684.53,0.472012
3687.15,0.470839
3689.78,0.469524
3692.4,0.468166
3695.04,0.466847
3697.67,0.465398
3700.31,0.464266
3702.95,0.463035
3705.6,0.462107
3708.25,0.46141
3710.91,0.460815
3713.56,0.46029
3716.23,0.459864
3718.89,0.459083
3721.56,0.458311
3724.23,0.457297
3726.91,0.456272
3729.59,0.455165
3732.28,0.454233
3734.97,0.453006
3737.66,0.451666
3740.36,0.450256
3743.06,0.449025
3745.76,0.447698
3748.47,0.446542
3751.18,0.445394
3753.9,0.44412
3756.62,0.442674
3759.34,0.441137
3762.07,0.439632
3764.8,0.438142
3767.54,0.436535
3770.28,0.434693
3773.02,0.433174
3775.77,0.43176
3778.52,0.429972
3781.28,0.428231
3784.04,0.426316
3786.8,0.424426
3789.57,0.422496
3792.34,0.420264
3795.12,0.417966
3797.9,0.415504
3800.69,0.412564
3803.47,0.40918
3806.27,0.405335
3809.06,0.400704
3811.86,0.395242
3814.67,0.388606
3817.48,0.380378
3820.29,0.370542
3823.11,0.3597
3825.93,0.348474
3828.76,0.337188
3831.59,0.326546
3834.42,0.317228
3837.26,0.309598
3840.1,0.304134
3842.95,0.300397
3845.8,0.297466
3848.65,0.29499
3851.51,0.292339
3854.38,0.289191
3857.24,0.285459
3860.12,0.281509
3862.99,0.277836
3865.87,0.275242
3868.76,0.273809
3871.65,0.273521
3874.54,0.274008
3877.44,0.274692
3880.34,0.275459
3883.25,0.276208
3886.16,0.276894
3889.07,0.277881
3891.99,0.278924
3894.92,0.279854
3897.85,0.281102
3900.78,0.282817
3903.72,0.285085
3906.66,0.287976
3909.6,0.290988
3912.55,0.293532
3915.51,0.294213
3918.47,0.292242
3921.43,0.287668
3924.4,0.280662
3927.38,0.271792
3930.35,0.262116
3933.33,0.253063
3936.32,0.245227
3939.31,0.239383
3942.31,0.235325
3945.31,0.23169
3948.31,0.227502
3951.32,0.222294
3954.34,0.216052
3957.35,0.208981
3960.38,0.200975
3963.41,0.192343
3966.44,0.183493
3969.48,0.174908
3972.52,0.166185
3975.56,0.157301
3978.61,0.148116
3981.67,0.139099
3984.73,0.131469
3987.8,0.12584
3990.87,0.12285
3993.94,0.122811
3997.02,0.12472
4000.1,0.125181
4003.19,0.121721
4006.29,0.115032
4009.39,0.107468
4012.49,0.101518
4015.6,0.099381
4018.71,0.101966
4021.83,0.110741
4024.95,0.126913
4028.08,0.149929
4031.21,0.177787
4034.35,0.206808
4037.49,0.23312
4040.64,0.254828
4043.79,0.271976
4046.94,0.285323
4050.11,0.295673
4053.27,0.304596
4056.44,0.313389
4059.62,0.322275
4062.8,0.330944
4065.99,0.339266
4069.18,0.347222
4072.38,0.354938
4075.58,0.361746
4078.78,0.367287
4082.0,0.3718
4085.21,0.375741
4088.43,0.379052
4091.66,0.382094
4094.89,0.384749
4098.13,0.387069
4101.37,0.389226
4104.62,0.391295
4107.87,0.393042
4111.13,0.394869
4114.39,0.396716
4117.66,0.398291
4120.93,0.399712
4124.21,0.401231
4127.5,0.402505
4130.79,0.403825
4134.08,0.404927
4137.38,0.406136
4140.68,0.407385
4143.99,0.408542
4147.31,0.409492
4150.63,0.410633
4153.95,0.411606
4157.29,0.412496
4160.62,0.413288
4163.96,0.414144
4167.31,0.414829
4170.66,0.41561
4174.02,0.416307
4177.39,0.417143
4180.75,0.417912
4184.13,0.418578
4187.51,0.418999
4190.89,0.419836
4194.28,0.420502
4197.68,0.420893
4201.08,0.421298
4204.49,0.421506
4207.9,0.421803
4211.32,0.422088
4214.74,0.422663
4218.17,0.423129
4221.61,0.423129
4225.05,0.42348
4228.5,0.42391
4231.95,0.424365
4235.4,0.424827
4238.87,0.425481
4242.34,0.425879
4245.81,0.426597
4249.29,0.427486
4252.78,0.428267
4256.27,0.428862
4259.77,0.429372
4263.27,0.429354
4266.78,0.429657
4270.29,0.430209
4273.81,0.430531
4277.34,0.430886
4280.87,0.431375
4284.41,0.43183
4287.95,0.432479
4291.5,0.432957
4295.06,0.433294
4298.62,0.433645
4302.19,0.434061
4305.76,0.434566
4309.34,0.435336
4312.92,0.435766
4316.52,0.436092
4320.11,0.436388
4323.72,0.436945
4327.32,0.437339
4330.94,0.437762
4334.56,0.438174
4338.19,0.438509
4341.82,0.438828
4345.46,0.439222
4349.11,0.439301
4352.76,0.439604
4356.42,0.439919
4360.08,0.44022
4363.75,0.440548
4367.43,0.440976
4371.11,0.44142
4374.8,0.441868
4378.49,0.442232
4382.19,0.442839
4385.9,0.443201
4389.61,0.443346
4393.33,0.443509
4397.06,0.444009
4400.79,0.444582
4404.53,0.445021
4408.28,0.445252
4412.03,0.445564
4415.79,0.445917
4419.55,0.446458
4423.32,0.446718
4427.1,0.446992
4430.88,0.447153
4434.68,0.447436
4438.47,0.447673
4442.28,0.44783
4446.08,0.447925
4449.9,0.448149
4453.72,0.448002
4457.55,0.447884
4461.39,0.447524
4465.23,0.447126
4469.08,0.446519
4472.94,0.445686
4476.8,0.444668
4480.67,0.443833
4484.55,0.443183
4488.43,0.442612
4492.32,0.442033
4496.21,0.441642
4500.12,0.441431
4504.03,0.441322
4507.94,0.441148
4511.87,0.440951
4515.8,0.440603
4519.73,0.440408
4523.68,0.440213
4527.63,0.440327
4531.59,0.440356
4535.55,0.440474
4539.52,0.440616
4543.5,0.440824
4547.49,0.441026
4551.48,0.441261
4555.48,0.441318
4559.49,0.441449
4563.5,0.441519
4567.52,0.44194
4571.55,0.442282
4575.58,0.442515
4579.63,0.442742
4583.67,0.443038
4587.73,0.442884
4591.79,0.442612
4595.86,0.44211
4599.94,0.441368
4604.03,0.440331
4608.12,0.439217
4612.22,0.438007
4616.33,0.436913
4620.44,0.435687
4624.56,0.434539
4628.69,0.433324
4632.83,0.432074
4636.97,0.430438
4641.12,0.428801
4645.28,0.42693
4649.45,0.424942
4653.62,0.422993
4657.8,0.420909
4661.99,0.418494
4666.19,0.416138
4670.39,0.413707
4674.6,0.411364
4678.82,0.408786
4683.05,0.406222
4687.28,0.403671
4691.52,0.401423
4695.77,0.399647
4700.03,0.398535
4704.3,0.39751
4708.57,0.396238
4712.85,0.394563
4717.14,0.39292
4721.43,0.391256
4725.74,0.390156
4730.05,0.389876
4734.37,0.391252
4738.7,0.394316
4743.03,0.39904
4747.38,0.404699
4751.73,0.410966
4756.09,0.416896
4760.45,0.421943
4764.83,0.425739
4769.21,0.428154
4773.6,0.429444
4778.0,0.430343
4782.41,0.430813
4786.83,0.431099
4791.25,0.430988
4795.68,0.431096
4800.13,0.431042
4804.57,0.430766
4809.03,0.430413
4813.5,0.430214
4817.97,0.429745
4822.45,0.429059
4826.94,0.428172
4831.44,0.427554
4835.95,0.426875
4840.46,0.426099
4844.99,0.425042
4849.52,0.424112
4854.06,0.422849
4858.61,0.421771
4863.17,0.420689
4867.73,0.419768
4872.31,0.418743
4876.89,0.417862
4881.48,0.416903
4886.08,0.416099
4890.69,0.415137
4895.31,0.414313
4899.94,0.413227
4904.57,0.412186
4909.22,0.411219
4913.87,0.41021
4918.53,0.409049
4923.21,0.407996
4927.88,0.406887
4932.57,0.405966
4937.27,0.40497
4941.98,0.404223
4946.69,0.403422
4951.42,0.402775
4956.15,0.401971
4960.9,0.401378
4965.65,0.400631
4970.41,0.399939
4975.18,0.399221
4979.96,0.398601
4984.75,0.397707
4989.54,0.39694
4994.35,0.396256
4999.17,0.395509
5003.99,0.394538
5008.83,0.393787
5013.67,0.393033
5018.52,0.392293
5023.39,0.391229
5028.26,0.390333
5033.14,0.38955
5038.03,0.388771
5042.93,0.387789
5047.84,0.387096
5052.76,0.386118
5057.69,0.385116
5062.63,0.384127
5067.58,0.383307
5072.54,0.382119
5077.51,0.38108
5082.49,0.379896
5087.47,0.378574
5092.47,0.376795
5097.48,0.374949
5102.5,0.373079
5107.52,0.371628
5112.56,0.370551
5117.61,0.370094
5122.66,0.369888
5127.73,0.369962
5132.81,0.369571
5137.89,0.368908
5142.99,0.367982
5148.1,0.367156
5153.22,0.366049
5158.34,0.365046
5163.48,0.363982
5168.63,0.363084
5173.79,0.361932
5178.96,0.360913
5184.13,0.359881
5189.32,0.358985
5194.52,0.357833
5199.73,0.356826
5204.96,0.35571
5210.19,0.354802
5215.43,0.353686
5220.68,0.352616
5225.94,0.351402
5231.22,0.350382
5236.5,0.3492
5241.79,0.34813
5247.1,0.346959
5252.42,0.345837
5257.74,0.344626
5263.08,0.343605
5268.43,0.342403
5273.79,0.341258
5279.16,0.340024
5284.54,0.338965
5289.93,0.337777
5295.34,0.336618
5300.75,0.335332
5306.18,0.334287
5311.61,0.333141
5317.06,0.331998
5322.52,0.330679
5327.99,0.329461
5333.47,0.32818
5338.96,0.327123
5344.47,0.325813
5349.98,0.324547
5355.51,0.32318
5361.05,0.321913
5366.6,0.320507
5372.16,0.31938
5377.73,0.317904
5383.32,0.316338
5388.91,0.314817
5394.52,0.313464
5400.14,0.311904
5405.77,0.310356
5411.41,0.308575
5417.07,0.306938
5422.74,0.305078
5428.41,0.303312
5434.1,0.301483
5439.81,0.299847
5445.52,0.298061
5451.25,0.296309
5456.98,0.294243
5462.73,0.292407
5468.5,0.290338
5474.27,0.288378
5480.06,0.286149
5485.86,0.284046
5491.67,0.281708
5497.49,0.279594
5503.33,0.27722
5509.18,0.274938
5515.04,0.272288
5520.91,0.269552
5526.8,0.2665
5532.69,0.263522
5538.61,0.26007
5544.53,0.256349
5550.47,0.251931
5556.41,0.247081
5562.38,0.241146
5568.35,0.234161
5574.34,0.225411
5580.34,0.214232
5586.35,0.197942
5592.38,0.174591
5598.42,0.142086
5604.47,0.10561
5610.54,0.075735
5616.61,0.05754
5622.71,0.047045
5628.81,0.040266
5634.93,0.036173
5641.06,0.035814
5647.21,0.043326
5653.36,0.062884
5659.54,0.093946
5665.72,0.127594
5671.92,0.151747
5678.13,0.166346
5684.36,0.174557
5690.6,0.178647
5696.85,0.180021
5703.12,0.179715
5709.4,0.178072
5715.69,0.175481
5722.0,0.171816
5728.33,0.167826
5734.66,0.163457
5741.01,0.159026
5747.38,0.154433
5753.76,0.15035
5760.15,0.146763
5766.56,0.143433
5772.98,0.139506
5779.41,0.135756
5785.86,0.13213
5792.33,0.128886
5798.81,0.125745
5805.3,0.122524
5811.81,0.119428
5818.33,0.116608
5824.87,0.113532
5831.42,0.110453
5837.99,0.107484
5844.57,0.104677
5851.17,0.101819
5857.78,0.099001
5864.41,0.096212
5871.05,0.09336
5877.7,0.090517
5884.38,0.087826
5891.06,0.085029
5897.76,0.082659
5904.48,0.080031
5911.21,0.077718
5917.96,0.075724
5924.73,0.073721
5931.5,0.071958
5938.3,0.070509
5945.11,0.068941
5951.93,0.067782
5958.78,0.066589
5965.63,0.065165
5972.51,0.063481
5979.39,0.061675
5986.3,0.059932
5993.22,0.05816
6000.16,0.056281
6007.11,0.05443
6014.08,0.052479
6021.06,0.050342
6028.06,0.048414
6035.08,0.046965
6042.12,0.045555
6049.17,0.044186
6056.23,0.042706
6063.32,0.041574
6070.42,0.040691
6077.53,0.039682
6084.67,0.038604
6091.82,0.037421
6098.98,0.036198
6106.17,0.034815
6113.37,0.033177
6120.58,0.031529
6127.82,0.029994
6135.07,0.028765
6142.34,0.027521
6149.63,0.026267
6156.93,0.025085
6164.25,0.023863
6171.59,0.022573
6178.95,0.02164
6186.32,0.020739
6193.71,0.019698
6201.12,0.018879
6208.54,0.018207
6215.99,0.017473
6223.45,0.016894
6230.93,0.016299
6238.43,0.015837
6245.95,0.015423
6253.48,0.015036
6261.03,0.014787
6268.6,0.014621
6276.19,0.014542
6283.8,0.014531
6291.43,0.014667
6299.07,0.014963
6306.73,0.015321
6314.42,0.015769
6322.12,0.0165
6329.84,0.017362
6337.57,0.018535
6345.33,0.019913
6353.11,0.021647
6360.9,0.023526
6368.72,0.025667
6376.55,0.028363
6384.4,0.031805
6392.27,0.035544
6400.17,0.040028
6408.08,0.04477
6416.01,0.050025
6423.96,0.056612
6431.93,0.063461
6439.92,0.070328
6447.93,0.077616
6455.96,0.084558
6464.01,0.091271
6472.08,0.096556
6480.17,0.099861
6488.28,0.100094
6496.41,0.097271
6504.56,0.092136
6512.73,0.087319
6520.92,0.083644
6529.14,0.080482
6537.37,0.077994
6545.63,0.076224
6553.9,0.074843
6562.2,0.07373
6570.51,0.072716
6578.85,0.071657
6587.21,0.070853
6595.59,0.070251
6603.99,0.069574
6612.42,0.068852
6620.86,0.067963
6629.33,0.066949
6637.82,0.065957
6646.33,0.06495
6654.86,0.064079
6663.41,0.063149
6671.99,0.062293
6680.59,0.061535
6689.21,0.060763
6697.85,0.059819
6706.51,0.058796
6715.2,0.057796
6723.91,0.05685
6732.64,0.055978
6741.4,0.055206
6750.18,0.054425
6758.98,0.053755
6767.8,0.053255
6776.65,0.052789
6785.52,0.052364
6794.41,0.051979
6803.33,0.051684
6812.27,0.051467
6821.23,0.051372
6830.22,0.051282
6839.23,0.051304
6848.26,0.051399
6857.32,0.051413
6866.4,0.051585
6875.51,0.052035
6884.64,0.052547
6893.8,0.053187
6902.98,0.053885
6912.18,0.054502
6921.41,0.055575
6930.66,0.057083
6939.94,0.05919
6949.24,0.061978
6958.57,0.064715
6967.92,0.067487
6977.3,0.070889
6986.7,0.074882
6996.13,0.078101
7005.59,0.078128
7015.07,0.074764
7024.57,0.070993
7034.1,0.068409
7043.66,0.065457
7053.25,0.060951
7062.85,0.056218
7072.49,0.053074
7082.15,0.052069
7091.84,0.052481
7101.55,0.052945
7111.3,0.053255
7121.06,0.053674
7130.86,0.054179
7140.68,0.054342
7150.53,0.053758
7160.41,0.053054
7170.31,0.053323
7180.24,0.054579
7190.2,0.056644
7200.19,0.059885
7210.2,0.064083
7220.24,0.068436
7230.31,0.072408
7240.41,0.075848
7250.54,0.078875
7260.69,0.081557
7270.88,0.083881
7281.09,0.086095
7291.33,0.088182
7301.6,0.090149
7311.9,0.092063
7322.22,0.094019
7332.58,0.095678
7342.97,0.097224
7353.38,0.098901
7363.83,0.100585
7374.3,0.102296
7384.81,0.104195
7395.34,0.106022
7405.91,0.107848
7416.5,0.109573
7427.13,0.111184
7437.78,0.112841
7448.47,0.114405
7459.19,0.115786
7469.94,0.117402
7480.71,0.118946
7491.52,0.120487
7502.37,0.122121
7513.24,0.123798
7524.14,0.125333
7535.08,0.126996
7546.05,0.128674
7557.05,0.130301
7568.08,0.131784
7579.15,0.133171
7590.24,0.134522
7601.37,0.135944
7612.53,0.1372
7623.73,0.138535
7634.96,0.13973
7646.22,0.140925
7657.51,0.142007
7668.84,0.143103
7680.2,0.144119
7691.59,0.144956
7703.02,0.145606
7714.49,0.146312
7725.98,0.146869
7737.52,0.147319
7749.08,0.147856
7760.68,0.14875
7772.32,0.149553
7783.99,0.150368
7795.69,0.151493
7807.43,0.15289
7819.21,0.1542
7831.02,0.155594
7842.87,0.157018
7854.75,0.1586
7866.67,0.160153
7878.62,0.161737
7890.62,0.163324
7902.64,0.165083
7914.71,0.166699
7926.81,0.168134
7938.95,0.169455
7951.13,0.170743
7963.34,0.17192
7975.59,0.173079
7987.88,0.174089
8000.21,0.175057
8012.57,0.175863
8024.98,0.176628
8037.42,0.177357
8049.9,0.178104
8062.42,0.178848
8074.98,0.179686
8087.57,0.180551
8100.21,0.181483
8112.89,0.182368
8125.6,0.183273
8138.36,0.184242
8151.16,0.185306
8163.99,0.186302
8176.87,0.187431
8189.79,0.188586
8202.75,0.189772
8215.75,0.190969
8228.79,0.192092
8241.87,0.193226
8254.99,0.194604
8268.16,0.195996
8281.37,0.197408
8294.62,0.198965
8307.91,0.200559
8321.24,0.202105
8334.62,0.203669
8348.04,0.20502
8361.51,0.206451
8375.02,0.208003
8388.57,0.209569
8402.16,0.210968
8415.8,0.212256
8429.49,0.213367
8443.22,0.214329
8456.99,0.215137
8470.81,0.215798
8484.67,0.216129
8498.58,0.216536
8512.54,0.217061
8526.54,0.217756
8540.58,0.218315
8554.68,0.218929
8568.82,0.219621
8583.0,0.220572
8597.24,0.221251
8611.52,0.22181
8625.85,0.222342
8640.23,0.222987
8654.65,0.223784
8669.12,0.224813
8683.64,0.225789
8698.21,0.226733
8712.83,0.227609
8727.5,0.228242
8742.22,0.228684
8756.99,0.229277
8771.8,0.229702
8786.67,0.230155
8801.59,0.230624
8816.56,0.230965
8831.58,0.231244
8846.65,0.231676
8861.77,0.231979
8876.94,0.23228
8892.17,0.232357
8907.45,0.232466
8922.78,0.232321
8938.16,0.232221
8953.6,0.231991
8969.09,0.231635
8984.64,0.231135
9000.23,0.230728
9015.89,0.230035
9031.59,0.229191
9047.36,0.228104
9063.17,0.227111
9079.05,0.226223
9094.97,0.225162
9110.96,0.224166
9127.0,0.223145
9143.1,0.222025
9159.25,0.221228
9175.46,0.220454
9191.73,0.219542
9208.06,0.218718
9224.44,0.217561
9240.88,0.215178
9257.38,0.210169
9273.94,0.204352
9290.56,0.201374
9307.24,0.20485
9323.98,0.209873
9340.78,0.211118
9357.64,0.21105
9374.57,0.210597
9391.55,0.210205
9408.59,0.209606
9425.7,0.209119
9442.87,0.208277
9460.1,0.207213
9477.4,0.206394
9494.75,0.206131
9512.17,0.206249
9529.66,0.206609
9547.21,0.2071
9564.83,0.207813
9582.5,0.208755
9600.25,0.210941
9618.06,0.213752
9635.94,0.21497
9653.88,0.213186
9671.89,0.209855
9689.97,0.207763
9708.12,0.208546
9726.33,0.210099
9744.62,0.210486
9762.97,0.209481
9781.39,0.207021
9799.88,0.202736
9818.44,0.197365
9837.07,0.193979
9855.77,0.195163
9874.54,0.198934
9893.39,0.202512
9912.3,0.204803
9931.29,0.206514
9950.36,0.208116
9969.49,0.209173
9988.7,0.20992
10007.98,0.210504
10027.34,0.210991
10046.77,0.21169
10066.28,0.212319
10085.87,0.212765
10105.53,0.213261
10125.26,0.213845
10145.08,0.214524
10164.97,0.215445
10184.94,0.216256
10204.99,0.21693
10225.12,0.217328
10245.33,0.217949
10265.61,0.218657
10285.98,0.219384
10306.43,0.220228
10326.96,0.22102
10347.57,0.2215
10368.27,0.222086
10389.05,0.222645
10409.91,0.2232
10430.86,0.223752
10451.88,0.224309
10473.0,0.224718
10494.2,0.225144
10515.49,0.225454
10536.86,0.225798
10558.32,0.226303
10579.87,0.226859
10601.5,0.227043
10623.23,0.227369
10645.04,0.227849
10666.94,0.228455
10688.94,0.228951
10711.02,0.229046
10733.2,0.229184
10755.47,0.229349
10777.83,0.229315
10800.28,0.229331
10822.83,0.229093
10845.47,0.228512
10868.21,0.227511
10891.04,0.226269
10913.97,0.224669
10936.99,0.222699
10960.12,0.220151
10983.34,0.216953
11006.66,0.212912
11030.07,0.20815
11053.59,0.2022
11077.21,0.194758
11100.93,0.185252
11124.75,0.173425
11148.68,0.159146
11172.71,0.141116
11196.84,0.118708
11221.07,0.091961
11245.41,0.062257
11269.86,0.034933
11294.41,0.019624
11319.07,0.01782
11343.84,0.021532
11368.72,0.024868
11393.7,0.027991
11418.8,0.034186
11444.01,0.049933
11469.33,0.076964
11494.76,0.108041
11520.3,0.136713
11545.96,0.160988
11571.73,0.180575
11597.62,0.195847
11623.62,0.206742
11649.74,0.212786
11675.98,0.208836
11702.34,0.181771
11728.81,0.150821
11755.41,0.16214
11782.13,0.185813
11808.96,0.184439
11835.92,0.176608
11863.01,0.178452
11890.22,0.181682
11917.55,0.178645
11945.01,0.17824
11972.6,0.18802
12000.31,0.203422
12028.16,0.224252
12056.13,0.246827
12084.23,0.262884
12112.46,0.272096
12140.83,0.277152
12169.33,0.27999
12197.96,0.282055
12226.73,0.284628
12255.64,0.286753
12284.68,0.288987
12313.86,0.291574
12343.18,0.293491
12372.64,0.294345
12402.24,0.295121
12431.98,0.295882
12461.86,0.296712
12491.89,0.297468
12522.07,0.298353
12552.38,0.298985
12582.85,0.299689
12613.47,0.300345
12644.23,0.301076
12675.15,0.301667
12706.21,0.302287
12737.43,0.302776
12768.81,0.303077
12800.33,0.303335
12832.02,0.303763
12863.86,0.303693
12895.86,0.303183
12928.02,0.301855
12960.34,0.300211
12992.82,0.299292
13025.46,0.299512
13058.27,0.300931
13091.25,0.303487
13124.39,0.306126
13157.7,0.309971
13191.18,0.314401
13224.83,0.317642
13258.66,0.319921
13292.65,0.321643
13326.83,0.322549
13361.17,0.323678
13395.7,0.325469
13430.4,0.327637
13465.29,0.32997
13500.35,0.33217
13535.6,0.333741
13571.03,0.334619
13606.65,0.335237
13642.46,0.335624
13678.46,0.335208
13714.64,0.334502
13751.02,0.333934
13787.59,0.332877
13824.36,0.331046
13861.32,0.327852
13898.49,0.323192
13935.85,0.317017
13973.41,0.308858
14011.17,0.297681
14049.15,0.282283
14087.32,0.260577
14125.71,0.22674
14164.3,0.173674
14203.11,0.116241
14242.13,0.072064
14281.36,0.04769
14320.81,0.063877
14360.49,0.080966
14400.38,0.066815
14440.49,0.074045
14480.82,0.130788
14521.39,0.182454
14562.18,0.198597
14603.2,0.191218
14644.45,0.180297
14685.93,0.172674
14727.66,0.169498
14769.62,0.171465
14811.81,0.176687
14854.25,0.182832
14896.94,0.188631
14939.87,0.192784
14983.05,0.195127
15026.48,0.19902
15070.16,0.207046
15114.1,0.215862
15158.29,0.21961
15202.74,0.21736
15247.46,0.213177
15292.43,0.21011
15337.68,0.209133
15383.19,0.20925
15428.97,0.209001
15475.03,0.208587
15521.36,0.208311
15567.97,0.207824
15614.87,0.207374
15662.04,0.207066
15709.5,0.20715
15757.25,0.207449
15805.29,0.207589
15853.62,0.207186
15902.26,0.207148
15951.19,0.207028
16000.42,0.206457
16049.95,0.205808
16099.8,0.205482
16149.95,0.205301
16200.42,0.205296
16251.21,0.20524
16302.31,0.20533
16353.74,0.205439
16405.49,0.205638
16457.57,0.205627
16509.98,0.205274
16562.73,0.205045
16615.82,0.204735
16669.24,0.204101
16723.02,0.204226
16777.14,0.20428
16831.61,0.204264
16886.43,0.204323
16941.62,0.204676
16997.16,0.205077
17053.08,0.205584
17109.36,0.206299
17166.01,0.206602
17223.04,0.206505
17280.45,0.206765
17338.24,0.207227
17396.43,0.206991
17455.0,0.206496
17513.97,0.206905
17573.34,0.207016
17633.11,0.206736
17693.29,0.206629
17753.89,0.206677
17814.9,0.206312
17876.33,0.205808
17938.18,0.205321
18000.47,0.204839
18063.19,0.204719
18126.35,0.204592
18189.95,0.204336
18254.0,0.204128
18318.5,0.203218
18383.46,0.202295
18448.88,0.201711
18514.77,0.200788
18581.13,0.199923
18647.97,0.198655
18715.29,0.196756
18783.1,0.195407
18851.4,0.193875
18920.2,0.192024
18989.51,0.190313
19059.32,0.188882
19129.65,0.187341
19200.5,0.185736
19271.88,0.184453
19343.79,0.18252
19416.24,0.18017
19489.23,0.178031
19562.77,0.175981
19636.88,0.17355
19711.54,0.171798
19786.78,0.170503
19862.59,0.16855
19938.98,0.165983
20015.96,0.163371
20093.55,0.161242
20171.73,0.159189
20250.53,0.15647
20329.94,0.153462
20409.98,0.151131
20490.65,0.148263
20571.96,0.144576
20653.92,0.140862
20736.54,0.137487
20819.82,0.135115
20903.77,0.132739
20988.4,0.129455
21073.72,0.126014
21159.73,0.12311
21246.46,0.120944
21333.89,0.117698
21422.04,0.113233
21510.93,0.109958
21600.56,0.106836
21690.94,0.103546
21782.08,0.100694
21873.99,0.097572
21966.67,0.093254
22060.15,0.089259
22154.42,0.086423
22249.51,0.08282
22345.41,0.078673
22442.14,0.075518
22539.72,0.072759
22638.14,0.069606
22737.43,0.065532
22837.6,0.063287
22938.65,0.061392
23040.6,0.058586
23143.46,0.055933
23247.24,0.05354
23351.96,0.051134
23457.63,0.048006
23564.25,0.044727
23671.85,0.042907
23780.44,0.040709
23890.02,0.037251
24000.63,0.034401
24112.26,0.032117
24224.93,0.031212
24338.66,0.029291
24453.47,0.025429
24569.36,0.024406
24686.36,0.022204
24804.47,0.022718
24923.73,0.021253
25044.13,0.020866
25165.71,0.020101
25288.46,0.01791
25412.43,0.016903
25537.61,0.016525
25664.04,0.011294
25791.72,0.008949
25920.68,0.008476
