Database of Origin,University of Winnipeg Spectrophotometer Facility
Sample Description,"Zeolites: RELAB + Nicolet spectra, Merged at 2.5 microns; note change in viewing geometry"
Date Added,2018-07-23 23:09:47.950675

Data ID,RLA_ZEO_1_26        
Sample ID,zeo130
Mineral Name,mordenite
Grain Size,<45 um
Viewing Geometry,"30/0,30"
Resolution,5/.6-129 nm

Wavelength
305.0,0.188797
310.0,0.200623
315.0,0.210375
320.0,0.221219
325.0,0.229761
330.0,0.239528
335.0,0.247626
340.0,0.256303
345.0,0.261479
350.0,0.266917
355.0,0.272246
360.0,0.277843
365.0,0.283901
370.0,0.294897
375.0,0.309953
380.0,0.328497
385.0,0.344526
390.0,0.357869
395.0,0.367451
400.0,0.381476
405.0,0.392377
410.0,0.404872
415.0,0.419027
420.0,0.432722
425.0,0.447488
430.0,0.459365
435.0,0.474762
440.0,0.483002
445.0,0.49771
450.0,0.505817
455.0,0.520333
460.0,0.525745
465.0,0.539482
470.0,0.543571
475.0,0.553122
480.0,0.556333
485.0,0.565282
490.0,0.56883
495.0,0.575856
500.0,0.580533
505.0,0.588146
510.0,0.595308
515.0,0.603984
520.0,0.612051
525.0,0.620229
530.0,0.628139
535.0,0.634933
540.0,0.640523
545.0,0.645968
550.0,0.649325
555.0,0.652248
560.0,0.655202
565.0,0.656632
570.0,0.65725
575.0,0.656427
580.0,0.656659
585.0,0.654146
590.0,0.653791
595.0,0.651186
600.0,0.650206
605.0,0.647266
610.0,0.64422
615.0,0.642974
620.0,0.641438
625.0,0.638043
630.0,0.636636
635.0,0.635222
640.0,0.633525
645.0,0.63128
650.0,0.631283
655.0,0.630589
660.0,0.630286
665.0,0.627797
670.0,0.62813
675.0,0.626652
680.0,0.626406
685.0,0.623861
690.0,0.625126
695.0,0.621579
700.0,0.622618
705.0,0.620571
710.0,0.619802
715.0,0.619959
720.0,0.619412
725.0,0.617098
730.0,0.61816
735.0,0.617767
740.0,0.616922
745.0,0.619378
750.0,0.617432
755.0,0.619718
760.0,0.617873
765.0,0.622934
770.0,0.619417
775.0,0.624093
780.0,0.621161
785.0,0.627143
790.0,0.622797
795.0,0.628399
800.0,0.626165
805.0,0.629309
810.0,0.629136
815.0,0.629861
820.0,0.629805
825.0,0.630866
830.0,0.63017
835.0,0.630097
840.0,0.629557
845.0,0.629483
850.0,0.629011
855.0,0.629422
860.0,0.626296
865.0,0.629049
870.0,0.624784
875.0,0.625694
880.0,0.623996
885.0,0.622555
890.0,0.621817
895.0,0.620624
900.0,0.620714
905.0,0.620066
910.0,0.62022
915.0,0.61638
920.0,0.617331
925.0,0.616078
930.0,0.615544
935.0,0.614493
940.0,0.616111
945.0,0.613194
950.0,0.614401
955.0,0.612139
960.0,0.61289
965.0,0.61249
970.0,0.613507
975.0,0.611973
980.0,0.613222
985.0,0.611767
990.0,0.611623
995.0,0.611741
1000.0,0.611235
1005.0,0.610129
1010.0,0.609623
1015.0,0.608834
1020.0,0.609147
1025.0,0.608404
1030.0,0.60895
1035.0,0.607513
1040.0,0.607538
1045.0,0.60662
1050.0,0.607828
1055.0,0.60732
1060.0,0.606771
1065.0,0.606096
1070.0,0.606403
1075.0,0.606341
1080.0,0.605834
1085.0,0.606268
1090.0,0.606339
1095.0,0.606732
1100.0,0.606183
1105.0,0.608197
1110.0,0.606693
1115.0,0.609278
1120.0,0.607324
1125.0,0.610964
1130.0,0.609109
1135.0,0.613175
1140.0,0.611058
1145.0,0.614213
1150.0,0.612108
1155.0,0.616216
1160.0,0.615454
1165.0,0.620285
1170.0,0.618673
1175.0,0.620871
1180.0,0.621599
1185.0,0.6235
1190.0,0.625169
1195.0,0.626871
1200.0,0.628473
1205.0,0.627944
1210.0,0.631337
1215.0,0.63328
1220.0,0.635539
1225.0,0.635677
1230.0,0.638497
1235.0,0.637893
1240.0,0.640118
1245.0,0.640951
1250.0,0.643375
1255.0,0.643945
1260.0,0.64567
1265.0,0.6479
1270.0,0.650185
1275.0,0.65102
1280.0,0.653016
1285.0,0.653949
1290.0,0.655604
1295.0,0.656592
1300.0,0.658804
1305.0,0.661151
1310.0,0.664151
1315.0,0.66341
1320.0,0.667685
1325.0,0.667102
1330.0,0.670698
1335.0,0.669848
1340.0,0.674848
1345.0,0.672963
1350.0,0.674244
1355.0,0.673469
1360.0,0.67547
1365.0,0.680024
1370.0,0.679516
1375.0,0.682417
1380.0,0.677312
1385.0,0.685511
1390.0,0.683036
1395.0,0.682378
1400.0,0.676864
1405.0,0.677947
1410.0,0.6747
1415.0,0.677359
1420.0,0.675577
1425.0,0.680472
1430.0,0.680081
1435.0,0.686433
1440.0,0.687312
1445.0,0.69149
1450.0,0.693275
1455.0,0.695729
1460.0,0.697414
1465.0,0.699531
1470.0,0.702531
1475.0,0.703973
1480.0,0.707642
1485.0,0.708249
1490.0,0.712354
1495.0,0.711718
1500.0,0.715932
1505.0,0.716032
1510.0,0.719497
1515.0,0.717965
1520.0,0.722373
1525.0,0.721158
1530.0,0.724953
1535.0,0.723806
1540.0,0.726117
1545.0,0.727396
1550.0,0.730401
1555.0,0.729547
1560.0,0.732037
1565.0,0.731446
1570.0,0.733612
1575.0,0.734641
1580.0,0.73774
1585.0,0.735672
1590.0,0.7384
1595.0,0.740589
1600.0,0.74052
1605.0,0.739808
1610.0,0.742604
1615.0,0.742401
1620.0,0.745237
1625.0,0.7452
1630.0,0.744484
1635.0,0.748128
1640.0,0.746351
1645.0,0.74917
1650.0,0.748143
1655.0,0.752256
1660.0,0.75
1665.0,0.7537
1670.0,0.751307
1675.0,0.756222
1680.0,0.753774
1685.0,0.758366
1690.0,0.754806
1695.0,0.7595
1700.0,0.758293
1705.0,0.76048
1710.0,0.760543
1715.0,0.761218
1720.0,0.762781
1725.0,0.761375
1730.0,0.762775
1735.0,0.761642
1740.0,0.76302
1745.0,0.761871
1750.0,0.763134
1755.0,0.76306
1760.0,0.763083
1765.0,0.762974
1770.0,0.763792
1775.0,0.763623
1780.0,0.76444
1785.0,0.764046
1790.0,0.764829
1795.0,0.764406
1800.0,0.764173
1805.0,0.76491
1810.0,0.765442
1815.0,0.763746
1820.0,0.765019
1825.0,0.766195
1830.0,0.765429
1835.0,0.763662
1840.0,0.766384
1845.0,0.767588
1850.0,0.767395
1855.0,0.765779
1860.0,0.76531
1865.0,0.763247
1870.0,0.752631
1875.0,0.756085
1880.0,0.748153
1885.0,0.730782
1890.0,0.71275
1895.0,0.687746
1900.0,0.656002
1905.0,0.639692
1910.0,0.634318
1915.0,0.634039
1920.0,0.640853
1925.0,0.654109
1930.0,0.663352
1935.0,0.671845
1940.0,0.677839
1945.0,0.682297
1950.0,0.687454
1955.0,0.691036
1960.0,0.694887
1965.0,0.698615
1970.0,0.702368
1975.0,0.706113
1980.0,0.710493
1985.0,0.714126
1990.0,0.718446
1995.0,0.723338
2000.0,0.726651
2005.0,0.731329
2010.0,0.734078
2015.0,0.736701
2020.0,0.739886
2025.0,0.741699
2030.0,0.744411
2035.0,0.746184
2040.0,0.74624
2045.0,0.748051
2050.0,0.749794
2055.0,0.750068
2060.0,0.750862
2065.0,0.752077
2070.0,0.751675
2075.0,0.753244
2080.0,0.754161
2085.0,0.754203
2090.0,0.755039
2095.0,0.7554
2100.0,0.75707
2105.0,0.757
2110.0,0.756928
2115.0,0.756905
2120.0,0.756328
2125.0,0.756844
2130.0,0.757467
2135.0,0.757073
2140.0,0.756958
2145.0,0.756901
2150.0,0.756636
2155.0,0.756182
2160.0,0.755146
2165.0,0.754312
2170.0,0.752243
2175.0,0.75029
2180.0,0.748296
2185.0,0.747133
2190.0,0.745008
2195.0,0.743606
2200.0,0.742824
2205.0,0.740751
2210.0,0.738698
2215.0,0.737796
2220.0,0.736974
2225.0,0.736107
2230.0,0.735382
2235.0,0.735188
2240.0,0.734373
2245.0,0.733244
2250.0,0.731689
2255.0,0.730897
2260.0,0.729293
2265.0,0.729349
2270.0,0.729017
2275.0,0.728393
2280.0,0.726652
2285.0,0.722971
2290.0,0.71836
2295.0,0.71395
2300.0,0.711333
2305.0,0.708682
2310.0,0.706858
2315.0,0.706425
2320.0,0.708006
2325.0,0.708827
2330.0,0.709751
2335.0,0.708696
2340.0,0.707587
2345.0,0.704944
2350.0,0.700636
2355.0,0.697229
2360.0,0.694268
2365.0,0.692591
2370.0,0.689116
2375.0,0.6868
2380.0,0.685321
2385.0,0.68338
2390.0,0.681877
2395.0,0.679478
2400.0,0.677271
2405.0,0.674205
2410.0,0.670613
2415.0,0.667113
2420.0,0.663508
2425.0,0.660556
2430.0,0.656206
2435.0,0.650464
2440.0,0.64625
2445.0,0.641411
2450.0,0.636064
2455.0,0.632141
2460.0,0.627069
2465.0,0.623124
2470.0,0.618487
2475.0,0.615008
2480.0,0.611888
2485.0,0.608767
2490.0,0.605691
2495.0,0.602426
2500.0,0.59929
2505.0,0.595051
2510.0,0.593953
2515.0,0.5897
2520.0,0.588635
2525.0,0.586116
2530.0,0.583245
2535.0,0.581682
2540.0,0.581161
2545.0,0.58015
2550.0,0.57966
2555.0,0.579082
2560.0,0.578408
2565.0,0.576842
2570.0,0.576899
2575.0,0.575119
2580.0,0.574452
2581.74,0.573558
2583.03,0.573388
2584.31,0.572702
2585.6,0.573533
2586.89,0.574326
2588.19,0.572373
2589.48,0.572149
2590.77,0.572432
2592.07,0.572145
2593.36,0.570799
2594.66,0.568193
2595.96,0.568241
2597.26,0.571613
2598.56,0.571733
2599.87,0.570357
2601.17,0.569242
2602.48,0.568254
2603.78,0.56763
2605.09,0.566621
2606.4,0.565984
2607.71,0.566556
2609.03,0.566933
2610.34,0.56625
2611.66,0.56534
2612.97,0.565036
2614.29,0.564515
2615.61,0.564201
2616.93,0.563374
2618.25,0.563506
2619.57,0.564446
2620.9,0.562648
2622.22,0.562177
2623.55,0.562855
2624.88,0.561733
2626.21,0.559769
2627.54,0.558951
2628.87,0.560079
2630.21,0.558748
2631.54,0.556977
2632.88,0.558047
2634.21,0.557354
2635.55,0.555821
2636.89,0.555606
2638.24,0.555187
2639.58,0.554329
2640.92,0.553343
2642.27,0.552401
2643.62,0.551662
2644.97,0.55068
2646.32,0.548914
2647.67,0.547612
2649.02,0.547337
2650.38,0.546127
2651.73,0.544943
2653.09,0.543705
2654.45,0.542835
2655.81,0.541671
2657.17,0.540212
2658.53,0.538822
2659.89,0.536471
2661.26,0.534286
2662.63,0.532213
2664.0,0.530267
2665.36,0.526823
2666.74,0.524267
2668.11,0.520809
2669.48,0.514018
2670.86,0.501984
2672.23,0.490161
2673.61,0.479326
2674.99,0.468456
2676.37,0.46124
2677.76,0.456844
2679.14,0.455101
2680.52,0.452953
2681.91,0.452011
2683.3,0.450227
2684.69,0.447276
2686.08,0.444329
2687.47,0.442275
2688.87,0.440307
2690.26,0.437609
2691.66,0.433044
2693.06,0.428254
2694.46,0.423536
2695.86,0.420812
2697.26,0.419536
2698.66,0.418234
2700.07,0.415732
2701.48,0.412561
2702.89,0.409492
2704.3,0.406266
2705.71,0.401619
2707.12,0.396474
2708.53,0.390991
2709.95,0.384527
2711.37,0.377691
2712.79,0.371026
2714.21,0.364199
2715.63,0.35587
2717.05,0.346957
2718.48,0.338624
2719.9,0.331213
2721.33,0.323529
2722.76,0.316246
2724.19,0.308993
2725.62,0.301721
2727.06,0.295347
2728.49,0.28905
2729.93,0.28236
2731.37,0.275783
2732.81,0.269706
2734.25,0.26369
2735.69,0.257362
2737.14,0.25211
2738.58,0.247295
2740.03,0.241696
2741.48,0.237584
2742.93,0.234438
2744.38,0.230733
2745.83,0.226917
2747.29,0.224033
2748.75,0.221629
2750.2,0.218881
2751.66,0.215772
2753.13,0.213522
2754.59,0.2111
2756.05,0.208647
2757.52,0.207098
2758.99,0.205252
2760.46,0.203317
2761.93,0.202011
2763.4,0.20032
2764.87,0.198693
2766.35,0.197843
2767.82,0.197284
2769.3,0.1961
2770.78,0.195032
2772.26,0.193816
2773.75,0.193096
2775.23,0.192715
2776.72,0.192089
2778.21,0.191254
2779.7,0.190613
2781.19,0.19006
2782.68,0.189357
2784.18,0.188719
2785.67,0.187787
2787.17,0.186517
2788.67,0.185803
2790.17,0.184804
2791.67,0.183504
2793.18,0.183213
2794.68,0.182987
2796.19,0.182236
2797.7,0.18165
2799.21,0.181193
2800.72,0.180459
2802.24,0.179387
2803.75,0.178983
2805.27,0.178809
2806.79,0.178991
2808.31,0.179385
2809.83,0.179035
2811.35,0.178738
2812.88,0.178799
2814.41,0.179263
2815.93,0.180032
2817.46,0.180611
2819.0,0.181057
2820.53,0.181683
2822.07,0.182661
2823.6,0.183802
2825.14,0.184819
2826.68,0.185512
2828.22,0.186366
2829.77,0.187335
2831.31,0.188593
2832.86,0.189755
2834.41,0.191007
2835.96,0.19208
2837.51,0.193083
2839.07,0.194752
2840.62,0.196577
2842.18,0.198092
2843.74,0.199212
2845.3,0.200238
2846.86,0.201178
2848.43,0.202595
2849.99,0.204065
2851.56,0.205415
2853.13,0.206916
2854.7,0.208427
2856.27,0.209451
2857.85,0.210483
2859.42,0.21136
2861.0,0.21281
2862.58,0.214284
2864.16,0.21501
2865.75,0.216189
2867.33,0.217809
2868.92,0.218736
2870.51,0.219482
2872.1,0.220143
2873.69,0.221089
2875.28,0.222025
2876.88,0.223168
2878.48,0.22415
2880.07,0.224987
2881.68,0.2255
2883.28,0.226023
2884.88,0.226595
2886.49,0.22738
2888.1,0.227974
2889.71,0.228489
2891.32,0.229031
2892.93,0.2295
2894.55,0.229988
2896.16,0.230442
2897.78,0.231146
2899.4,0.231887
2901.03,0.232456
2902.65,0.232713
2904.28,0.23295
2905.91,0.233496
2907.54,0.233618
2909.17,0.234141
2910.8,0.234922
2912.44,0.235102
2914.07,0.235445
2915.71,0.235728
2917.35,0.236021
2918.99,0.236567
2920.64,0.237193
2922.29,0.238089
2923.93,0.238568
2925.58,0.238612
2927.24,0.238843
2928.89,0.239424
2930.55,0.239661
2932.2,0.239864
2933.86,0.240754
2935.52,0.24107
2937.19,0.240867
2938.85,0.241459
2940.52,0.242495
2942.19,0.243169
2943.86,0.243697
2945.53,0.244635
2947.21,0.245282
2948.88,0.245866
2950.56,0.246561
2952.24,0.246644
2953.92,0.247153
2955.61,0.247953
2957.29,0.248373
2958.98,0.249355
2960.67,0.250197
2962.36,0.251032
2964.06,0.251796
2965.75,0.252135
2967.45,0.252866
2969.15,0.25399
2970.85,0.254599
2972.55,0.254982
2974.26,0.255773
2975.97,0.25647
2977.68,0.257069
2979.39,0.257793
2981.1,0.258509
2982.82,0.259229
2984.53,0.26001
2986.25,0.260743
2987.97,0.261534
2989.7,0.262179
2991.42,0.262763
2993.15,0.263489
2994.88,0.264427
2996.61,0.265339
2998.34,0.265848
3000.08,0.266403
3001.82,0.26684
3003.55,0.267355
3005.3,0.268027
3007.04,0.268567
3008.78,0.269099
3010.53,0.269737
3012.28,0.270755
3014.03,0.271598
3015.79,0.27227
3017.54,0.272869
3019.3,0.273357
3021.06,0.273966
3022.82,0.27456
3024.58,0.274983
3026.35,0.27519
3028.12,0.275634
3029.89,0.276227
3031.66,0.276936
3033.43,0.277516
3035.21,0.278056
3036.99,0.278249
3038.77,0.278565
3040.55,0.278977
3042.33,0.279126
3044.12,0.279651
3045.91,0.280126
3047.7,0.280667
3049.49,0.281475
3051.29,0.281816
3053.08,0.282224
3054.88,0.282364
3056.68,0.282475
3058.49,0.282672
3060.29,0.283141
3062.1,0.283666
3063.91,0.284183
3065.72,0.284868
3067.54,0.285088
3069.35,0.285224
3071.17,0.285565
3072.99,0.285906
3074.81,0.286511
3076.64,0.286898
3078.47,0.287373
3080.29,0.287855
3082.13,0.288305
3083.96,0.289059
3085.79,0.289496
3087.63,0.289961
3089.47,0.290706
3091.31,0.291535
3093.16,0.292018
3095.01,0.292806
3096.85,0.293737
3098.71,0.294756
3100.56,0.295468
3102.41,0.296128
3104.27,0.296797
3106.13,0.297878
3107.99,0.298744
3109.86,0.299364
3111.73,0.300285
3113.59,0.301191
3115.47,0.302083
3117.34,0.302797
3119.21,0.303676
3121.09,0.304691
3122.97,0.30539
3124.86,0.306247
3126.74,0.307251
3128.63,0.307835
3130.52,0.30865
3132.41,0.309887
3134.3,0.31094
3136.2,0.311955
3138.1,0.312887
3140.0,0.313636
3141.9,0.314559
3143.81,0.315442
3145.71,0.316137
3147.62,0.316889
3149.54,0.317994
3151.45,0.319003
3153.37,0.319943
3155.29,0.320944
3157.21,0.321785
3159.13,0.322614
3161.06,0.323585
3162.99,0.324452
3164.92,0.325243
3166.85,0.326464
3168.79,0.32772
3170.72,0.328653
3172.67,0.329482
3174.61,0.330514
3176.55,0.331337
3178.5,0.332168
3180.45,0.33316
3182.4,0.334169
3184.36,0.335255
3186.32,0.336248
3188.27,0.33698
3190.24,0.337759
3192.2,0.338531
3194.17,0.339408
3196.14,0.340696
3198.11,0.341784
3200.08,0.342488
3202.06,0.343497
3204.04,0.344566
3206.02,0.345293
3208.0,0.345984
3209.99,0.346708
3211.98,0.347742
3213.97,0.348816
3215.96,0.349846
3217.96,0.350616
3219.96,0.351407
3221.96,0.352397
3223.96,0.353092
3225.97,0.35371
3227.98,0.354708
3229.99,0.355887
3232.0,0.356871
3234.02,0.357696
3236.04,0.358363
3238.06,0.359314
3240.08,0.360256
3242.11,0.360957
3244.14,0.361949
3246.17,0.362648
3248.2,0.363228
3250.24,0.36404
3252.28,0.36484
3254.32,0.365784
3256.37,0.366653
3258.41,0.367406
3260.46,0.368072
3262.51,0.36892
3264.57,0.369753
3266.63,0.370603
3268.69,0.371379
3270.75,0.371991
3272.81,0.372767
3274.88,0.373862
3276.95,0.374706
3279.02,0.375258
3281.1,0.375913
3283.18,0.376709
3285.26,0.377442
3287.34,0.378287
3289.43,0.378953
3291.51,0.379729
3293.61,0.380558
3295.7,0.381461
3297.8,0.382258
3299.9,0.382859
3302.0,0.38342
3304.1,0.384182
3306.21,0.384977
3308.32,0.385614
3310.43,0.386357
3312.55,0.387121
3314.66,0.387969
3316.79,0.388789
3318.91,0.389373
3321.03,0.389911
3323.16,0.390554
3325.29,0.390958
3327.43,0.391349
3329.57,0.391869
3331.71,0.392367
3333.85,0.3929
3335.99,0.393386
3338.14,0.393528
3340.29,0.393583
3342.45,0.393865
3344.6,0.393985
3346.76,0.393955
3348.92,0.393822
3351.09,0.393616
3353.26,0.393443
3355.43,0.393371
3357.6,0.393265
3359.78,0.393047
3361.96,0.392729
3364.14,0.392333
3366.32,0.391925
3368.51,0.39167
3370.7,0.391454
3372.89,0.391379
3375.09,0.391521
3377.29,0.391659
3379.49,0.391854
3381.69,0.392457
3383.9,0.393376
3386.11,0.394374
3388.32,0.395207
3390.54,0.395708
3392.76,0.396325
3394.98,0.397005
3397.21,0.39743
3399.43,0.397211
3401.66,0.396865
3403.9,0.396386
3406.13,0.396124
3408.37,0.396235
3410.61,0.396426
3412.86,0.396327
3415.11,0.396689
3417.36,0.398052
3419.61,0.39943
3421.87,0.400648
3424.13,0.402343
3426.39,0.404365
3428.66,0.406262
3430.93,0.407884
3433.2,0.40914
3435.48,0.410719
3437.76,0.412173
3440.04,0.413157
3442.32,0.414225
3444.61,0.415223
3446.9,0.416109
3449.19,0.417009
3451.49,0.417907
3453.79,0.418905
3456.09,0.42022
3458.4,0.421258
3460.7,0.421901
3463.02,0.42224
3465.33,0.422452
3467.65,0.42259
3469.97,0.422617
3472.29,0.422648
3474.62,0.422514
3476.95,0.42205
3479.29,0.421771
3481.62,0.421744
3483.96,0.422156
3486.3,0.4225
3488.65,0.422989
3491.0,0.423624
3493.35,0.424072
3495.71,0.424549
3498.07,0.425233
3500.43,0.426163
3502.79,0.427272
3505.16,0.428369
3507.53,0.430025
3509.91,0.432066
3512.29,0.433799
3514.67,0.435399
3517.05,0.437046
3519.44,0.438585
3521.83,0.440466
3524.23,0.442478
3526.62,0.444226
3529.02,0.445917
3531.43,0.447747
3533.83,0.449493
3536.24,0.451086
3538.66,0.452365
3541.08,0.453495
3543.5,0.454523
3545.92,0.455712
3548.35,0.456915
3550.78,0.458035
3553.21,0.459235
3555.65,0.460384
3558.09,0.46132
3560.53,0.462111
3562.98,0.462764
3565.43,0.463685
3567.88,0.464847
3570.34,0.465529
3572.8,0.466254
3575.27,0.467053
3577.73,0.467715
3580.2,0.468571
3582.68,0.469582
3585.16,0.470315
3587.64,0.470989
3590.12,0.471763
3592.61,0.472448
3595.1,0.472871
3597.6,0.473455
3600.09,0.47411
3602.6,0.474865
3605.1,0.475745
3607.61,0.476467
3610.12,0.47712
3612.64,0.477499
3615.16,0.478066
3617.68,0.47878
3620.21,0.479278
3622.74,0.479667
3625.27,0.480394
3627.81,0.48108
3630.35,0.48151
3632.89,0.481939
3635.44,0.482516
3637.99,0.483023
3640.54,0.483444
3643.1,0.483879
3645.66,0.484467
3648.23,0.485192
3650.8,0.485761
3653.37,0.486253
3655.95,0.486636
3658.53,0.487134
3661.11,0.487658
3663.7,0.488229
3666.29,0.488888
3668.89,0.489399
3671.48,0.48992
3674.09,0.490521
3676.69,0.491105
3679.3,0.491578
3681.91,0.492095
3684.53,0.492761
3687.15,0.493178
3689.78,0.493615
3692.4,0.494285
3695.04,0.494777
3697.67,0.495219
3700.31,0.495815
3702.95,0.496397
3705.6,0.496841
3708.25,0.497396
3710.91,0.497994
3713.56,0.498317
3716.23,0.498664
3718.89,0.499043
3721.56,0.499575
3724.23,0.500201
3726.91,0.500808
3729.59,0.501249
3732.28,0.501653
3734.97,0.502114
3737.66,0.502505
3740.36,0.50302
3743.06,0.50341
3745.76,0.503692
3748.47,0.504123
3751.18,0.504615
3753.9,0.505248
3756.62,0.505788
3759.34,0.506219
3762.07,0.506761
3764.8,0.507016
3767.54,0.507033
3770.28,0.507529
3773.02,0.50813
3775.77,0.508517
3778.52,0.508842
3781.28,0.509143
3784.04,0.509675
3786.8,0.510271
3789.57,0.510458
3792.34,0.5106
3795.12,0.510736
3797.9,0.511121
3800.69,0.511285
3803.47,0.511339
3806.27,0.511473
3809.06,0.511419
3811.86,0.511205
3814.67,0.511387
3817.48,0.511517
3820.29,0.511463
3823.11,0.51145
3825.93,0.5114
3828.76,0.511483
3831.59,0.511448
3834.42,0.51131
3837.26,0.511109
3840.1,0.511096
3842.95,0.511169
3845.8,0.511115
3848.65,0.511073
3851.51,0.511201
3854.38,0.511414
3857.24,0.511563
3860.12,0.511666
3862.99,0.511714
3865.87,0.511751
3868.76,0.511925
3871.65,0.512063
3874.54,0.512312
3877.44,0.512553
3880.34,0.512689
3883.25,0.512773
3886.16,0.51285
3889.07,0.512951
3891.99,0.512829
3894.92,0.512888
3897.85,0.51312
3900.78,0.513386
3903.72,0.513497
3906.66,0.513493
3909.6,0.513537
3912.55,0.513694
3915.51,0.513671
3918.47,0.51375
3921.43,0.51375
3924.4,0.513535
3927.38,0.513365
3930.35,0.51333
3933.33,0.513053
3936.32,0.512748
3939.31,0.512505
3942.31,0.512137
3945.31,0.511318
3948.31,0.510299
3951.32,0.509277
3954.34,0.508193
3957.35,0.50706
3960.38,0.506102
3963.41,0.505231
3966.44,0.504331
3969.48,0.5036
3972.52,0.503133
3975.56,0.50274
3978.61,0.502323
3981.67,0.502158
3984.73,0.502231
3987.8,0.50235
3990.87,0.502673
3993.94,0.503219
3997.02,0.504201
4000.1,0.505373
4003.19,0.506447
4006.29,0.507617
4009.39,0.509009
4012.49,0.510324
4015.6,0.511481
4018.71,0.512555
4021.83,0.51355
4024.95,0.514259
4028.08,0.514812
4031.21,0.515348
4034.35,0.515907
4037.49,0.516568
4040.64,0.517108
4043.79,0.517575
4046.94,0.517904
4050.11,0.518245
4053.27,0.518598
4056.44,0.518716
4059.62,0.518825
4062.8,0.518795
4065.99,0.518806
4069.18,0.518802
4072.38,0.518753
4075.58,0.51872
4078.78,0.518741
4082.0,0.518741
4085.21,0.518684
4088.43,0.518483
4091.66,0.518375
4094.89,0.518312
4098.13,0.518232
4101.37,0.518289
4104.62,0.518322
4107.87,0.518146
4111.13,0.518054
4114.39,0.517979
4117.66,0.517914
4120.93,0.51788
4124.21,0.517458
4127.5,0.517309
4130.79,0.517313
4134.08,0.517043
4137.38,0.5168
4140.68,0.51662
4143.99,0.516516
4147.31,0.516428
4150.63,0.51626
4153.95,0.515898
4157.29,0.515886
4160.62,0.51581
4163.96,0.51553
4167.31,0.515314
4170.66,0.515113
4174.02,0.514912
4177.39,0.514611
4180.75,0.514435
4184.13,0.514391
4187.51,0.514096
4190.89,0.513767
4194.28,0.513522
4197.68,0.513342
4201.08,0.513079
4204.49,0.51284
4207.9,0.512494
4211.32,0.512091
4214.74,0.511737
4218.17,0.511381
4221.61,0.511132
4225.05,0.510962
4228.5,0.510682
4231.95,0.510531
4235.4,0.510506
4238.87,0.510336
4242.34,0.510123
4245.81,0.509838
4249.29,0.509604
4252.78,0.509422
4256.27,0.508995
4259.77,0.508247
4263.27,0.50732
4266.78,0.506882
4270.29,0.506663
4273.81,0.506459
4277.34,0.506483
4280.87,0.506353
4284.41,0.506154
4287.95,0.505785
4291.5,0.50539
4295.06,0.505174
4298.62,0.504961
4302.19,0.504565
4305.76,0.504232
4309.34,0.503931
4312.92,0.50355
4316.52,0.503221
4320.11,0.502857
4323.72,0.502461
4327.32,0.502051
4330.94,0.501737
4334.56,0.501369
4338.19,0.501
4341.82,0.500494
4345.46,0.500027
4349.11,0.499512
4352.76,0.499106
4356.42,0.498687
4360.08,0.498291
4363.75,0.497883
4367.43,0.497347
4371.11,0.49695
4374.8,0.496611
4378.49,0.496024
4382.19,0.495489
4385.9,0.494938
4389.61,0.494517
4393.33,0.49399
4397.06,0.493496
4400.79,0.492958
4404.53,0.492516
4408.28,0.491943
4412.03,0.491369
4415.79,0.490846
4419.55,0.490345
4423.32,0.489719
4427.1,0.489385
4430.88,0.489006
4434.68,0.48856
4438.47,0.488055
4442.28,0.487492
4446.08,0.487019
4449.9,0.486661
4453.72,0.486163
4457.55,0.485539
4461.39,0.484901
4465.23,0.484417
4469.08,0.484055
4472.94,0.48367
4476.8,0.483274
4480.67,0.482914
4484.55,0.482606
4488.43,0.482447
4492.32,0.482213
4496.21,0.481928
4500.12,0.481547
4504.03,0.481298
4507.94,0.48102
4511.87,0.48076
4515.8,0.48062
4519.73,0.480406
4523.68,0.480187
4527.63,0.479998
4531.59,0.479688
4535.55,0.479343
4539.52,0.479098
4543.5,0.478914
4547.49,0.478765
4551.48,0.478598
4555.48,0.478118
4559.49,0.477616
4563.5,0.477417
4567.52,0.477187
4571.55,0.476764
4575.58,0.476381
4579.63,0.476002
4583.67,0.475556
4587.73,0.475152
4591.79,0.474692
4595.86,0.474317
4599.94,0.47393
4604.03,0.473432
4608.12,0.472898
4612.22,0.472423
4616.33,0.472065
4620.44,0.471592
4624.56,0.471095
4628.69,0.470463
4632.83,0.469758
4636.97,0.469067
4641.12,0.468452
4645.28,0.468064
4649.45,0.467577
4653.62,0.466894
4657.8,0.466262
4661.99,0.465674
4666.19,0.464883
4670.39,0.46429
4674.6,0.464008
4678.82,0.46344
4683.05,0.462714
4687.28,0.462197
4691.52,0.461772
4695.77,0.461456
4700.03,0.461131
4704.3,0.460932
4708.57,0.460916
4712.85,0.460669
4717.14,0.460418
4721.43,0.460185
4725.74,0.459986
4730.05,0.459534
4734.37,0.459101
4738.7,0.458695
4743.03,0.45827
4747.38,0.457805
4751.73,0.457543
4756.09,0.457242
4760.45,0.456792
4764.83,0.456329
4769.21,0.455802
4773.6,0.455159
4778.0,0.454584
4782.41,0.454058
4786.83,0.453361
4791.25,0.452796
4795.68,0.452342
4800.13,0.451517
4804.57,0.450803
4809.03,0.450217
4813.5,0.449602
4817.97,0.448722
4822.45,0.447962
4826.94,0.447238
4831.44,0.446537
4835.95,0.445802
4840.46,0.444915
4844.99,0.443912
4849.52,0.442962
4854.06,0.441961
4858.61,0.440983
4863.17,0.439962
4867.73,0.438863
4872.31,0.437663
4876.89,0.436267
4881.48,0.434854
4886.08,0.43351
4890.69,0.432039
4895.31,0.430136
4899.94,0.428277
4904.57,0.426544
4909.22,0.424515
4913.87,0.42233
4918.53,0.420065
4923.21,0.417905
4927.88,0.415822
4932.57,0.413879
4937.27,0.412155
4941.98,0.410283
4946.69,0.408615
4951.42,0.407093
4956.15,0.405234
4960.9,0.403446
4965.65,0.401623
4970.41,0.399607
4975.18,0.397399
4979.96,0.395151
4984.75,0.392953
4989.54,0.390845
4994.35,0.388881
4999.17,0.387002
5003.99,0.385168
5008.83,0.383299
5013.67,0.381662
5018.52,0.380201
5023.39,0.378777
5028.26,0.377536
5033.14,0.376232
5038.03,0.375049
5042.93,0.373937
5047.84,0.37279
5052.76,0.371654
5057.69,0.37058
5062.63,0.369477
5067.58,0.368396
5072.54,0.367454
5077.51,0.366492
5082.49,0.365593
5087.47,0.364836
5092.47,0.364122
5097.48,0.363471
5102.5,0.362728
5107.52,0.362001
5112.56,0.361463
5117.61,0.360785
5122.66,0.359927
5127.73,0.359127
5132.81,0.358233
5137.89,0.357428
5142.99,0.356707
5148.1,0.355956
5153.22,0.355225
5158.34,0.354486
5163.48,0.353616
5168.63,0.352854
5173.79,0.352152
5178.96,0.351282
5184.13,0.350306
5189.32,0.349561
5194.52,0.348673
5199.73,0.347656
5204.96,0.346494
5210.19,0.345257
5215.43,0.343729
5220.68,0.342151
5225.94,0.340323
5231.22,0.338155
5236.5,0.335775
5241.79,0.333261
5247.1,0.330468
5252.42,0.327521
5257.74,0.324529
5263.08,0.321423
5268.43,0.318323
5273.79,0.31538
5279.16,0.312372
5284.54,0.309558
5289.93,0.306701
5295.34,0.303833
5300.75,0.301156
5306.18,0.298698
5311.61,0.296293
5317.06,0.294049
5322.52,0.29191
5327.99,0.289913
5333.47,0.288018
5338.96,0.286251
5344.47,0.284606
5349.98,0.283225
5355.51,0.282146
5361.05,0.281307
5366.6,0.280824
5372.16,0.280694
5377.73,0.280842
5383.32,0.281481
5388.91,0.282396
5394.52,0.283413
5400.14,0.284633
5405.77,0.285812
5411.41,0.286896
5417.07,0.287995
5422.74,0.288709
5428.41,0.289389
5434.1,0.289896
5439.81,0.290093
5445.52,0.290197
5451.25,0.290065
5456.98,0.289754
5462.73,0.289249
5468.5,0.288678
5474.27,0.28805
5480.06,0.28712
5485.86,0.286155
5491.67,0.285203
5497.49,0.28407
5503.33,0.282829
5509.18,0.281671
5515.04,0.280503
5520.91,0.279172
5526.8,0.277767
5532.69,0.27634
5538.61,0.274694
5544.53,0.272792
5550.47,0.270466
5556.41,0.267839
5562.38,0.265522
5568.35,0.263774
5574.34,0.262671
5580.34,0.261904
5586.35,0.261886
5592.38,0.262587
5598.42,0.263499
5604.47,0.264393
5610.54,0.265252
5616.61,0.2659
5622.71,0.266323
5628.81,0.266731
5634.93,0.267081
5641.06,0.267284
5647.21,0.267682
5653.36,0.268463
5659.54,0.268812
5665.72,0.269197
5671.92,0.26956
5678.13,0.269811
5684.36,0.270294
5690.6,0.270581
5696.85,0.270663
5703.12,0.270748
5709.4,0.270688
5715.69,0.270807
5722.0,0.270834
5728.33,0.270502
5734.66,0.270014
5741.01,0.269361
5747.38,0.268492
5753.76,0.26765
5760.15,0.266717
5766.56,0.265434
5772.98,0.264245
5779.41,0.263179
5785.86,0.261848
5792.33,0.260514
5798.81,0.258974
5805.3,0.257387
5811.81,0.25565
5818.33,0.253793
5824.87,0.251718
5831.42,0.249797
5837.99,0.247735
5844.57,0.245612
5851.17,0.243381
5857.78,0.240965
5864.41,0.238436
5871.05,0.235845
5877.7,0.233059
5884.38,0.22999
5891.06,0.227066
5897.76,0.223924
5904.48,0.220633
5911.21,0.217185
5917.96,0.213524
5924.73,0.210039
5931.5,0.206371
5938.3,0.202681
5945.11,0.199179
5951.93,0.195802
5958.78,0.192292
5965.63,0.18874
5972.51,0.18506
5979.39,0.181551
5986.3,0.177802
5993.22,0.173854
6000.16,0.169852
6007.11,0.165759
6014.08,0.161435
6021.06,0.157137
6028.06,0.152794
6035.08,0.14837
6042.12,0.143849
6049.17,0.139319
6056.23,0.134982
6063.32,0.130877
6070.42,0.126619
6077.53,0.122487
6084.67,0.11856
6091.82,0.114999
6098.98,0.111819
6106.17,0.108989
6113.37,0.106622
6120.58,0.105087
6127.82,0.104323
6135.07,0.10416
6142.34,0.104468
6149.63,0.105267
6156.93,0.106429
6164.25,0.10766
6171.59,0.108998
6178.95,0.11036
6186.32,0.111688
6193.71,0.113345
6201.12,0.115081
6208.54,0.116797
6215.99,0.118907
6223.45,0.121352
6230.93,0.124007
6238.43,0.126849
6245.95,0.130025
6253.48,0.133343
6261.03,0.136573
6268.6,0.139476
6276.19,0.142541
6283.8,0.145593
6291.43,0.148532
6299.07,0.151462
6306.73,0.154364
6314.42,0.157047
6322.12,0.159708
6329.84,0.162278
6337.57,0.164577
6345.33,0.166695
6353.11,0.169186
6360.9,0.171384
6368.72,0.173019
6376.55,0.17452
6384.4,0.175918
6392.27,0.176965
6400.17,0.177991
6408.08,0.178916
6416.01,0.179573
6423.96,0.180272
6431.93,0.180854
6439.92,0.181162
6447.93,0.181396
6455.96,0.18139
6464.01,0.181273
6472.08,0.180976
6480.17,0.180461
6488.28,0.179544
6496.41,0.178485
6504.56,0.177392
6512.73,0.176276
6520.92,0.175102
6529.14,0.173641
6537.37,0.172012
6545.63,0.170557
6553.9,0.169071
6562.2,0.167518
6570.51,0.165981
6578.85,0.164357
6587.21,0.162965
6595.59,0.161598
6603.99,0.160143
6612.42,0.158753
6620.86,0.15746
6629.33,0.156111
6637.82,0.154715
6646.33,0.15348
6654.86,0.152239
6663.41,0.150979
6671.99,0.149769
6680.59,0.148481
6689.21,0.147221
6697.85,0.145988
6706.51,0.144893
6715.2,0.143811
6723.91,0.142748
6732.64,0.14172
6741.4,0.140717
6750.18,0.139738
6758.98,0.138572
6767.8,0.137416
6776.65,0.136265
6785.52,0.13495
6794.41,0.133594
6803.33,0.132214
6812.27,0.130776
6821.23,0.129483
6830.22,0.128239
6839.23,0.127057
6848.26,0.125958
6857.32,0.124766
6866.4,0.123745
6875.51,0.122824
6884.64,0.12174
6893.8,0.120588
6902.98,0.119414
6912.18,0.118223
6921.41,0.117082
6930.66,0.115721
6939.94,0.114208
6949.24,0.112577
6958.57,0.110884
6967.92,0.109115
6977.3,0.107354
6986.7,0.105623
6996.13,0.103963
7005.59,0.102341
7015.07,0.100867
7024.57,0.099657
7034.1,0.098674
7043.66,0.097679
7053.25,0.096651
7062.85,0.095875
7072.49,0.095138
7082.15,0.094351
7091.84,0.093648
7101.55,0.093066
7111.3,0.092526
7121.06,0.091875
7130.86,0.091255
7140.68,0.090742
7150.53,0.090194
7160.41,0.089771
7170.31,0.089296
7180.24,0.088753
7190.2,0.088276
7200.19,0.087816
7210.2,0.087464
7220.24,0.087119
7230.31,0.086681
7240.41,0.086149
7250.54,0.085727
7260.69,0.085471
7270.88,0.085136
7281.09,0.084571
7291.33,0.084104
7301.6,0.083748
7311.9,0.08343
7322.22,0.083043
7332.58,0.082622
7342.97,0.082151
7353.38,0.08164
7363.83,0.081153
7374.3,0.080715
7384.81,0.080089
7395.34,0.079516
7405.91,0.078917
7416.5,0.078285
7427.13,0.077502
7437.78,0.076769
7448.47,0.076095
7459.19,0.075461
7469.94,0.074758
7480.71,0.073979
7491.52,0.073079
7502.37,0.072112
7513.24,0.071021
7524.14,0.069887
7535.08,0.068712
7546.05,0.067431
7557.05,0.066144
7568.08,0.064882
7579.15,0.063674
7590.24,0.062518
7601.37,0.061193
7612.53,0.059814
7623.73,0.058539
7634.96,0.057409
7646.22,0.05619
7657.51,0.055026
7668.84,0.053865
7680.2,0.052743
7691.59,0.051556
7703.02,0.050331
7714.49,0.049104
7725.98,0.048005
7737.52,0.046911
7749.08,0.045734
7760.68,0.044539
7772.32,0.043381
7783.99,0.042282
7795.69,0.041305
7807.43,0.040334
7819.21,0.039322
7831.02,0.038343
7842.87,0.037552
7854.75,0.036884
7866.67,0.036298
7878.62,0.035856
7890.62,0.035425
7902.64,0.034887
7914.71,0.03446
7926.81,0.034163
7938.95,0.033807
7951.13,0.033436
7963.34,0.033225
7975.59,0.033007
7987.88,0.032733
8000.21,0.032385
8012.57,0.031975
8024.98,0.031349
8037.42,0.030669
8049.9,0.029961
8062.42,0.029101
8074.98,0.028207
8087.57,0.027343
8100.21,0.026382
8112.89,0.025536
8125.6,0.024864
8138.36,0.024464
8151.16,0.024297
8163.99,0.024052
8176.87,0.023767
8189.79,0.023757
8202.75,0.023851
8215.75,0.023987
8228.79,0.024056
8241.87,0.024178
8254.99,0.024395
8268.16,0.024563
8281.37,0.024695
8294.62,0.024755
8307.91,0.024755
8321.24,0.024791
8334.62,0.024845
8348.04,0.024916
8361.51,0.025038
8375.02,0.025222
8388.57,0.025373
8402.16,0.025484
8415.8,0.025473
8429.49,0.025668
8443.22,0.026007
8456.99,0.026223
8470.81,0.026296
8484.67,0.026342
8498.58,0.026457
8512.54,0.026704
8526.54,0.026867
8540.58,0.02697
8554.68,0.027106
8568.82,0.027163
8583.0,0.027179
8597.24,0.027125
8611.52,0.027209
8625.85,0.027424
8640.23,0.027797
8654.65,0.028132
8669.12,0.028433
8683.64,0.028657
8698.21,0.028762
8712.83,0.028917
8727.5,0.028883
8742.22,0.028797
8756.99,0.028839
8771.8,0.028936
8786.67,0.028879
8801.59,0.028879
8816.56,0.028892
8831.58,0.029019
8846.65,0.02913
8861.77,0.029149
8876.94,0.029185
8892.17,0.029505
8907.45,0.029884
8922.78,0.029934
8938.16,0.030158
8953.6,0.030503
8969.09,0.03082
8984.64,0.0311
9000.23,0.031393
9015.89,0.031611
9031.59,0.031515
9047.36,0.031546
9063.17,0.031584
9079.05,0.031762
9094.97,0.031709
9110.96,0.031561
9127.0,0.031448
9143.1,0.031366
9159.25,0.031303
9175.46,0.031129
9191.73,0.030935
9208.06,0.030671
9224.44,0.030633
9240.88,0.030619
9257.38,0.03038
9273.94,0.030148
9290.56,0.029947
9307.24,0.029794
9323.98,0.029637
9340.78,0.029549
9357.64,0.029547
9374.57,0.029649
9391.55,0.029624
9408.59,0.029576
9425.7,0.029568
9442.87,0.029511
9460.1,0.029419
9477.4,0.029438
9494.75,0.029679
9512.17,0.029796
9529.66,0.029842
9547.21,0.030102
9564.83,0.030171
9582.5,0.030053
9600.25,0.030131
9618.06,0.030219
9635.94,0.030141
9653.88,0.030158
9671.89,0.030311
9689.97,0.030118
9708.12,0.030068
9726.33,0.030288
9744.62,0.030231
9762.97,0.030252
9781.39,0.030464
9799.88,0.030715
9818.44,0.030688
9837.07,0.03066
9855.77,0.030843
9874.54,0.030939
9893.39,0.031165
9912.3,0.031389
9931.29,0.031736
9950.36,0.032224
9969.49,0.032356
9988.7,0.032547
10007.98,0.032898
10027.34,0.033365
10046.77,0.033798
10066.28,0.034089
10085.87,0.03452
10105.53,0.035012
10125.26,0.03537
10145.08,0.035864
10164.97,0.036513
10184.94,0.037064
10204.99,0.037792
10225.12,0.038435
10245.33,0.039052
10265.61,0.039825
10285.98,0.040633
10306.43,0.041336
10326.96,0.042052
10347.57,0.042988
10368.27,0.043869
10389.05,0.04469
10409.91,0.045697
10430.86,0.046873
10451.88,0.047821
10473.0,0.048941
10494.2,0.050325
10515.49,0.051782
10536.86,0.053188
10558.32,0.054825
10579.87,0.056477
10601.5,0.057919
10623.23,0.059722
10645.04,0.061756
10666.94,0.063393
10688.94,0.065313
10711.02,0.067446
10733.2,0.069441
10755.47,0.071553
10777.83,0.073571
10800.28,0.075472
10822.83,0.077399
10845.47,0.078976
10868.21,0.08056
10891.04,0.081967
10913.97,0.083198
10936.99,0.08432
10960.12,0.085256
10983.34,0.086122
11006.66,0.086874
11030.07,0.087592
11053.59,0.08832
11077.21,0.088996
11100.93,0.089457
11124.75,0.09016
11148.68,0.090859
11172.71,0.091108
11196.84,0.091286
11221.07,0.091485
11245.41,0.091646
11269.86,0.091579
11294.41,0.091259
11319.07,0.090751
11343.84,0.090074
11368.72,0.089495
11393.7,0.088913
11418.8,0.088245
11444.01,0.087719
11469.33,0.087401
11494.76,0.087137
11520.3,0.087156
11545.96,0.087451
11571.73,0.087979
11597.62,0.08859
11623.62,0.088984
11649.74,0.0894
11675.98,0.089806
11702.34,0.090382
11728.81,0.090845
11755.41,0.09087
11782.13,0.090397
11808.96,0.089754
11835.92,0.089394
11863.01,0.089013
11890.22,0.088117
11917.55,0.087198
11945.01,0.086189
11972.6,0.084774
12000.31,0.082915
12028.16,0.080485
12056.13,0.07787
12084.23,0.074973
12112.46,0.071739
12140.83,0.068392
12169.33,0.065022
12197.96,0.06176
12226.73,0.0586
12255.64,0.055261
12284.68,0.05183
12313.86,0.048311
12343.18,0.044914
12372.64,0.04134
12402.24,0.037535
12431.98,0.034148
12461.86,0.031385
12491.89,0.029974
12522.07,0.029821
12552.38,0.030261
12582.85,0.031098
12613.47,0.032289
12644.23,0.033442
12675.15,0.034073
12706.21,0.033999
12737.43,0.033727
12768.81,0.033413
12800.33,0.033036
12832.02,0.032729
12863.86,0.032909
12895.86,0.033851
12928.02,0.035902
12960.34,0.038378
12992.82,0.040614
13025.46,0.042121
13058.27,0.043189
13091.25,0.043681
13124.39,0.043735
13157.7,0.043869
13191.18,0.043819
13224.83,0.043591
13258.66,0.043197
13292.65,0.04259
13326.83,0.042081
13361.17,0.04152
13395.7,0.040863
13430.4,0.040078
13465.29,0.039676
13500.35,0.039163
13535.6,0.038535
13571.03,0.038
13606.65,0.037537
13642.46,0.037194
13678.46,0.036924
13714.64,0.036352
13751.02,0.035871
13787.59,0.035705
13824.36,0.035607
13861.32,0.03537
13898.49,0.035132
13935.85,0.034631
13973.41,0.033964
14011.17,0.033482
14049.15,0.033411
14087.32,0.033551
14125.71,0.033581
14164.3,0.03356
14203.11,0.033566
14242.13,0.033064
14281.36,0.032494
14320.81,0.032214
14360.49,0.031736
14400.38,0.031358
14440.49,0.031215
14480.82,0.031217
14521.39,0.03118
14562.18,0.03154
14603.2,0.031711
14644.45,0.031803
14685.93,0.031657
14727.66,0.031353
14769.62,0.031075
14811.81,0.030876
14854.25,0.030974
14896.94,0.030612
14939.87,0.029909
14983.05,0.029474
15026.48,0.029289
15070.16,0.028921
15114.1,0.028477
15158.29,0.027872
15202.74,0.027087
15247.46,0.025934
15292.43,0.024967
15337.68,0.02427
15383.19,0.023727
15428.97,0.022848
15475.03,0.021954
15521.36,0.021523
15567.97,0.021343
15614.87,0.020937
15662.04,0.020592
15709.5,0.0202
15757.25,0.019698
15805.29,0.019587
15853.62,0.019721
15902.26,0.019815
15951.19,0.019666
16000.42,0.019551
16049.95,0.019367
16099.8,0.019105
16149.95,0.018733
16200.42,0.018536
16251.21,0.018281
16302.31,0.018245
16353.74,0.01809
16405.49,0.017592
16457.57,0.016937
16509.98,0.016602
16562.73,0.016483
16615.82,0.016527
16669.24,0.016453
16723.02,0.016529
16777.14,0.016895
16831.61,0.017268
16886.43,0.01759
16941.62,0.018002
16997.16,0.017983
17053.08,0.017879
17109.36,0.01804
17166.01,0.018318
17223.04,0.018473
17280.45,0.018408
17338.24,0.018287
17396.43,0.018387
17455.0,0.018367
17513.97,0.017864
17573.34,0.0176
17633.11,0.0175
17693.29,0.0176
17753.89,0.01755
17814.9,0.017175
17876.33,0.016855
17938.18,0.016376
18000.47,0.016531
18063.19,0.017014
18126.35,0.016847
18189.95,0.016813
18254.0,0.016987
18318.5,0.017402
18383.46,0.017716
18448.88,0.018417
18514.77,0.018639
18581.13,0.018459
18647.97,0.018467
18715.29,0.018919
18783.1,0.019491
18851.4,0.020274
18920.2,0.020732
18989.51,0.021278
19059.32,0.022057
19129.65,0.02239
19200.5,0.022631
19271.88,0.023918
19343.79,0.025006
19416.24,0.02531
19489.23,0.025701
19562.77,0.026145
19636.88,0.027068
19711.54,0.028146
19786.78,0.028957
19862.59,0.029695
19938.98,0.030508
20015.96,0.031263
20093.55,0.032032
20171.73,0.032944
20250.53,0.033934
20329.94,0.034527
20409.98,0.035552
20490.65,0.03604
20571.96,0.036566
20653.92,0.037891
20736.54,0.039262
20819.82,0.040137
20903.77,0.041363
20988.4,0.042391
21073.72,0.043224
21159.73,0.04349
21246.46,0.043291
21333.89,0.043074
21422.04,0.0438
21510.93,0.043993
21600.56,0.043993
21690.94,0.045393
21782.08,0.045527
21873.99,0.044654
21966.67,0.044474
22060.15,0.045081
22154.42,0.045634
22249.51,0.045586
22345.41,0.046119
22442.14,0.046216
22539.72,0.046038
22638.14,0.04554
22737.43,0.045456
22837.6,0.045983
22938.65,0.046038
23040.6,0.045977
23143.46,0.046737
23247.24,0.045483
23351.96,0.044114
23457.63,0.043955
23564.25,0.044723
23671.85,0.044053
23780.44,0.043947
23890.02,0.044388
24000.63,0.045083
24112.26,0.045324
24224.93,0.04403
24338.66,0.04137
24453.47,0.041596
24569.36,0.043651
24686.36,0.044485
24804.47,0.044397
24923.73,0.042142
25044.13,0.044104
25165.71,0.048795
25288.46,0.045874
25412.43,0.042381
25537.61,0.043021
25664.04,0.042984
25791.72,0.044039
25920.68,0.045669
