Database of Origin,University of Winnipeg Spectrophotometer Facility
Sample Description,16.12. Meteorites - Ureilites 16.12.3. Pierre Hudon (JSC) samples (b) RELAB + Nicolet FTIR merged spectra from RELAB
Other Information,bkr1ph040
Date Added,2018-07-23 23:49:08.001079

Data ID,RLA_MET2_10_14      
Sample ID,MET01085
Mineral Name,ureilite
Grain Size,<75 um
Viewing Geometry,30/0/30
Resolution,5/0.8-121 nm

Wavelength
305.0,0.06441
310.0,0.06519
315.0,0.06531
320.0,0.06596
325.0,0.06601
330.0,0.06578
335.0,0.06551
340.0,0.06549
345.0,0.06543
350.0,0.06567
355.0,0.06594
360.0,0.06642
365.0,0.06672
370.0,0.06762
375.0,0.06891
380.0,0.06994
385.0,0.07139
390.0,0.07283
395.0,0.07463
400.0,0.07578
405.0,0.07726
410.0,0.07845
415.0,0.07989
420.0,0.08154
425.0,0.08314
430.0,0.08494
435.0,0.08671
440.0,0.08838
445.0,0.09025
450.0,0.09147
455.0,0.09268
460.0,0.09329
465.0,0.0942
470.0,0.09474
475.0,0.09543
480.0,0.09622
485.0,0.09706
490.0,0.09837
495.0,0.09948
500.0,0.10086
505.0,0.10209
510.0,0.10378
515.0,0.10572
520.0,0.10691
525.0,0.10876
530.0,0.11038
535.0,0.11218
540.0,0.11327
545.0,0.11485
550.0,0.11584
555.0,0.1169
560.0,0.11772
565.0,0.11844
570.0,0.11911
575.0,0.11959
580.0,0.12012
585.0,0.1203
590.0,0.12092
595.0,0.121
600.0,0.12121
605.0,0.12138
610.0,0.12183
615.0,0.12221
620.0,0.12232
625.0,0.12271
630.0,0.12261
635.0,0.12288
640.0,0.1227
645.0,0.12277
650.0,0.12258
655.0,0.12256
660.0,0.12244
665.0,0.12222
670.0,0.12225
675.0,0.12205
680.0,0.12198
685.0,0.12188
690.0,0.12178
695.0,0.12168
700.0,0.12157
705.0,0.12145
710.0,0.12134
715.0,0.12133
720.0,0.12126
725.0,0.12128
730.0,0.12129
735.0,0.12129
740.0,0.12123
745.0,0.12113
750.0,0.12105
755.0,0.12083
760.0,0.12068
765.0,0.12046
770.0,0.12035
775.0,0.12005
780.0,0.12014
785.0,0.12011
790.0,0.11966
795.0,0.11977
800.0,0.11966
805.0,0.11934
810.0,0.11885
815.0,0.11847
820.0,0.11809
825.0,0.11752
830.0,0.11728
835.0,0.1166
840.0,0.11623
845.0,0.11556
850.0,0.11519
855.0,0.1145
860.0,0.11402
865.0,0.11349
870.0,0.11302
875.0,0.11243
880.0,0.11204
885.0,0.11159
890.0,0.1113
895.0,0.11085
900.0,0.11064
905.0,0.11023
910.0,0.11004
915.0,0.10978
920.0,0.10975
925.0,0.10972
930.0,0.10986
935.0,0.10988
940.0,0.11007
945.0,0.11026
950.0,0.11052
955.0,0.11073
960.0,0.11112
965.0,0.1114
970.0,0.11179
975.0,0.11217
980.0,0.11267
985.0,0.11306
990.0,0.11356
995.0,0.11394
1000.0,0.11446
1005.0,0.11499
1010.0,0.11554
1015.0,0.11596
1020.0,0.1164
1025.0,0.11669
1030.0,0.11701
1035.0,0.11737
1040.0,0.11773
1045.0,0.11798
1050.0,0.11828
1055.0,0.11846
1060.0,0.11866
1065.0,0.1188
1070.0,0.11894
1075.0,0.11905
1080.0,0.11912
1085.0,0.11912
1090.0,0.11919
1095.0,0.11928
1100.0,0.11934
1105.0,0.11928
1110.0,0.11936
1115.0,0.11927
1120.0,0.11932
1125.0,0.11926
1130.0,0.11941
1135.0,0.1194
1140.0,0.11955
1145.0,0.11943
1150.0,0.11954
1155.0,0.11952
1160.0,0.11957
1165.0,0.11953
1170.0,0.11964
1175.0,0.11959
1180.0,0.11969
1185.0,0.11969
1190.0,0.11974
1195.0,0.11976
1200.0,0.11987
1205.0,0.11978
1210.0,0.11981
1215.0,0.1198
1220.0,0.11974
1225.0,0.11957
1230.0,0.11953
1235.0,0.11943
1240.0,0.11944
1245.0,0.1194
1250.0,0.11943
1255.0,0.11936
1260.0,0.11932
1265.0,0.11916
1270.0,0.11912
1275.0,0.11894
1280.0,0.11891
1285.0,0.11879
1290.0,0.11888
1295.0,0.11881
1300.0,0.11888
1305.0,0.11876
1310.0,0.11888
1315.0,0.11874
1320.0,0.11889
1325.0,0.11877
1330.0,0.1189
1335.0,0.11883
1340.0,0.11893
1345.0,0.11878
1350.0,0.11883
1355.0,0.11865
1360.0,0.11872
1365.0,0.11862
1370.0,0.1187
1375.0,0.11857
1380.0,0.11867
1385.0,0.11853
1390.0,0.11862
1395.0,0.11845
1400.0,0.11862
1405.0,0.11857
1410.0,0.11868
1415.0,0.11856
1420.0,0.11866
1425.0,0.11848
1430.0,0.11854
1435.0,0.11846
1440.0,0.11861
1445.0,0.11848
1450.0,0.11861
1455.0,0.11849
1460.0,0.11858
1465.0,0.11843
1470.0,0.11857
1475.0,0.11848
1480.0,0.11847
1485.0,0.11831
1490.0,0.11839
1495.0,0.11821
1500.0,0.11822
1505.0,0.11817
1510.0,0.11825
1515.0,0.118
1520.0,0.118
1525.0,0.11785
1530.0,0.1179
1535.0,0.11772
1540.0,0.11781
1545.0,0.11763
1550.0,0.11761
1555.0,0.1174
1560.0,0.11737
1565.0,0.11715
1570.0,0.1172
1575.0,0.11699
1580.0,0.11697
1585.0,0.11682
1590.0,0.11684
1595.0,0.11665
1600.0,0.11668
1605.0,0.1166
1610.0,0.1166
1615.0,0.11648
1620.0,0.11646
1625.0,0.11629
1630.0,0.11629
1635.0,0.11618
1640.0,0.11621
1645.0,0.116
1650.0,0.11598
1655.0,0.11597
1660.0,0.11595
1665.0,0.11593
1670.0,0.11593
1675.0,0.11585
1680.0,0.11586
1685.0,0.11567
1690.0,0.11558
1695.0,0.11547
1700.0,0.1156
1705.0,0.11556
1710.0,0.11553
1715.0,0.11543
1720.0,0.11545
1725.0,0.11528
1730.0,0.11528
1735.0,0.11514
1740.0,0.11511
1745.0,0.11501
1750.0,0.11496
1755.0,0.11466
1760.0,0.11452
1765.0,0.11436
1770.0,0.11419
1775.0,0.11403
1780.0,0.11394
1785.0,0.1138
1790.0,0.11377
1795.0,0.11363
1800.0,0.11359
1805.0,0.11345
1810.0,0.11344
1815.0,0.11334
1820.0,0.11334
1825.0,0.11327
1830.0,0.11321
1835.0,0.11308
1840.0,0.1129
1845.0,0.1128
1850.0,0.11268
1855.0,0.11267
1860.0,0.11272
1865.0,0.11262
1870.0,0.11263
1875.0,0.11259
1880.0,0.11256
1885.0,0.11241
1890.0,0.11253
1895.0,0.11239
1900.0,0.11246
1905.0,0.11235
1910.0,0.11236
1915.0,0.1123
1920.0,0.11235
1925.0,0.1124
1930.0,0.11251
1935.0,0.11249
1940.0,0.11256
1945.0,0.11245
1950.0,0.11241
1955.0,0.11226
1960.0,0.11237
1965.0,0.11228
1970.0,0.11237
1975.0,0.11234
1980.0,0.1125
1985.0,0.11238
1990.0,0.11242
1995.0,0.11239
2000.0,0.11249
2005.0,0.11238
2010.0,0.11251
2015.0,0.11252
2020.0,0.1126
2025.0,0.11244
2030.0,0.11249
2035.0,0.11241
2040.0,0.11251
2045.0,0.11252
2050.0,0.1126
2055.0,0.11259
2060.0,0.11263
2065.0,0.11258
2070.0,0.11255
2075.0,0.11249
2080.0,0.11254
2085.0,0.11245
2090.0,0.11245
2095.0,0.11239
2100.0,0.11241
2105.0,0.11234
2110.0,0.11238
2115.0,0.1123
2120.0,0.11237
2125.0,0.11231
2130.0,0.11234
2135.0,0.11229
2140.0,0.11223
2145.0,0.11213
2150.0,0.11211
2155.0,0.11203
2160.0,0.11205
2165.0,0.11217
2170.0,0.11214
2175.0,0.11222
2180.0,0.11232
2185.0,0.11232
2190.0,0.11235
2195.0,0.1124
2200.0,0.11248
2205.0,0.1125
2210.0,0.11255
2215.0,0.11253
2220.0,0.11263
2225.0,0.11257
2230.0,0.11262
2235.0,0.1126
2240.0,0.11263
2245.0,0.11266
2250.0,0.11277
2255.0,0.1127
2260.0,0.11282
2265.0,0.11278
2270.0,0.11279
2275.0,0.1127
2280.0,0.11279
2285.0,0.11275
2290.0,0.11283
2295.0,0.11278
2300.0,0.11282
2305.0,0.11289
2310.0,0.11283
2315.0,0.11288
2320.0,0.11296
2325.0,0.11301
2330.0,0.11296
2335.0,0.11292
2340.0,0.11317
2345.0,0.11295
2350.0,0.1131
2355.0,0.11301
2360.0,0.11298
2365.0,0.11313
2370.0,0.11307
2375.0,0.1131
2380.0,0.1132
2385.0,0.11304
2390.0,0.1131
2395.0,0.11317
2400.0,0.11316
2405.0,0.11316
2410.0,0.11313
2415.0,0.11316
2420.0,0.11313
2425.0,0.11318
2430.0,0.11319
2435.0,0.11319
2440.0,0.11313
2445.0,0.11322
2450.0,0.11319
2455.0,0.11317
2460.0,0.11328
2465.0,0.11324
2470.0,0.11328
2475.0,0.11324
2480.0,0.1132
2485.0,0.11322
2490.0,0.11322
2495.0,0.11325
2500.0,0.11325
2505.0,0.11322
2510.0,0.11325
2515.0,0.11315
2520.0,0.11317
2525.0,0.11307
2530.0,0.11322
2535.0,0.1131
2540.0,0.1131
2545.0,0.11307
2550.0,0.11304
2551.9,0.11316
2553.1,0.11326
2554.4,0.11325
2555.7,0.11316
2556.9,0.11308
2558.2,0.11307
2559.4,0.11311
2560.7,0.11319
2562.0,0.1133
2563.2,0.11329
2564.5,0.1133
2565.8,0.11317
2567.1,0.11306
2568.3,0.11308
2569.6,0.1132
2570.9,0.11316
2572.1,0.11303
2573.4,0.11326
2574.7,0.11328
2576.0,0.11315
2577.3,0.11319
2578.5,0.11308
2579.8,0.11302
2581.1,0.11314
2582.4,0.11308
2583.7,0.11315
2585.0,0.11323
2586.3,0.11309
2587.5,0.11322
2588.8,0.11315
2590.1,0.113
2591.4,0.11298
2592.7,0.11309
2594.0,0.1134
2595.3,0.11369
2596.6,0.11329
2597.9,0.11299
2599.2,0.11292
2600.5,0.11298
2601.8,0.11306
2603.1,0.11304
2604.4,0.11311
2605.8,0.11325
2607.1,0.11322
2608.4,0.11308
2609.7,0.11303
2611.0,0.11295
2612.3,0.11285
2613.6,0.11292
2614.9,0.11295
2616.3,0.1131
2617.6,0.11324
2618.9,0.11303
2620.2,0.11306
2621.6,0.11303
2622.9,0.11283
2624.2,0.11286
2625.5,0.11294
2626.9,0.11307
2628.2,0.11296
2629.5,0.11292
2630.9,0.11318
2632.2,0.113
2633.5,0.11287
2634.9,0.11291
2636.2,0.11283
2637.6,0.11275
2638.9,0.11267
2640.2,0.1127
2641.6,0.11272
2642.9,0.11271
2644.3,0.11272
2645.6,0.11283
2647.0,0.1128
2648.3,0.11269
2649.7,0.11266
2651.0,0.11263
2652.4,0.11269
2653.8,0.11271
2655.1,0.11269
2656.5,0.11273
2657.8,0.1126
2659.2,0.11265
2660.6,0.11268
2661.9,0.11267
2663.3,0.11264
2664.7,0.11287
2666.0,0.11304
2667.4,0.11297
2668.8,0.11267
2670.1,0.11277
2671.5,0.11285
2672.9,0.11249
2674.3,0.1125
2675.7,0.1126
2677.0,0.11275
2678.4,0.11262
2679.8,0.11252
2681.2,0.11235
2682.6,0.1123
2684.0,0.11237
2685.4,0.11233
2686.8,0.11231
2688.1,0.11226
2689.5,0.11221
2690.9,0.11222
2692.3,0.11224
2693.7,0.11243
2695.1,0.11247
2696.5,0.11231
2697.9,0.11219
2699.3,0.11213
2700.8,0.11217
2702.1,0.11218
2703.6,0.11215
2705.0,0.11213
2706.4,0.11207
2707.8,0.11204
2709.2,0.11208
2710.6,0.11215
2712.1,0.1121
2713.5,0.11184
2714.9,0.11172
2716.3,0.11166
2717.7,0.1117
2719.2,0.11178
2720.6,0.11201
2722.0,0.11185
2723.4,0.11163
2724.9,0.11176
2726.3,0.11158
2727.7,0.1113
2729.2,0.11116
2730.6,0.11112
2732.1,0.11102
2733.5,0.11096
2734.9,0.11104
2736.4,0.11095
2737.8,0.11085
2739.3,0.11101
2740.7,0.11103
2742.2,0.11075
2743.6,0.11041
2745.1,0.11026
2746.5,0.11018
2748.0,0.11008
2749.4,0.11001
2750.9,0.10998
2752.4,0.10991
2753.8,0.10979
2755.3,0.10989
2756.7,0.10978
2758.2,0.10937
2759.7,0.10914
2761.1,0.10899
2762.6,0.10901
2764.1,0.109
2765.6,0.10878
2767.0,0.10863
2768.5,0.10853
2770.0,0.1084
2771.5,0.10833
2773.0,0.10814
2774.4,0.10788
2775.9,0.10778
2777.4,0.10771
2778.9,0.10758
2780.4,0.10744
2781.9,0.10728
2783.4,0.10716
2784.9,0.10705
2786.4,0.10701
2787.9,0.10693
2789.4,0.10664
2790.9,0.10644
2792.4,0.10631
2793.9,0.10621
2795.4,0.1061
2796.9,0.10595
2798.4,0.10581
2799.9,0.10569
2801.4,0.10566
2802.9,0.10565
2804.4,0.1055
2806.0,0.10531
2807.5,0.10516
2809.0,0.10503
2810.5,0.1049
2812.1,0.10482
2813.6,0.10474
2815.1,0.10467
2816.6,0.10456
2818.2,0.10442
2819.7,0.10435
2821.2,0.10427
2822.8,0.10417
2824.3,0.10408
2825.9,0.10399
2827.4,0.10389
2828.9,0.1038
2830.5,0.10375
2832.0,0.10373
2833.6,0.1036
2835.1,0.10348
2836.7,0.10344
2838.2,0.10336
2839.8,0.10327
2841.3,0.10316
2842.9,0.10308
2844.4,0.10297
2846.0,0.10286
2847.6,0.10283
2849.1,0.10282
2850.7,0.10276
2852.3,0.10264
2853.8,0.10258
2855.4,0.10253
2857.0,0.1024
2858.6,0.10227
2860.1,0.1022
2861.7,0.10218
2863.3,0.10213
2864.9,0.10206
2866.5,0.10198
2868.1,0.10197
2869.6,0.10191
2871.2,0.10186
2872.8,0.10185
2874.4,0.1018
2876.0,0.10171
2877.6,0.10167
2879.2,0.10167
2880.8,0.10159
2882.4,0.1015
2884.0,0.10144
2885.6,0.10142
2887.2,0.10147
2888.8,0.10145
2890.4,0.10142
2892.0,0.10138
2893.6,0.10138
2895.3,0.10131
2896.9,0.10128
2898.5,0.10129
2900.1,0.10126
2901.8,0.10119
2903.4,0.10115
2905.0,0.10113
2906.6,0.1011
2908.3,0.10105
2909.9,0.10101
2911.5,0.10102
2913.2,0.10101
2914.8,0.10096
2916.4,0.1009
2918.1,0.10088
2919.7,0.10087
2921.4,0.10084
2923.0,0.1008
2924.7,0.10078
2926.3,0.10073
2928.0,0.10066
2929.6,0.10062
2931.3,0.10065
2932.9,0.10067
2934.6,0.10066
2936.3,0.10063
2937.9,0.1006
2939.6,0.10057
2941.3,0.10052
2942.9,0.10053
2944.6,0.10056
2946.3,0.10061
2947.9,0.10058
2949.6,0.10056
2951.3,0.10061
2953.0,0.10061
2954.7,0.10058
2956.3,0.10055
2958.0,0.10055
2959.7,0.10055
2961.4,0.10053
2963.1,0.10051
2964.8,0.10052
2966.5,0.10046
2968.2,0.10042
2969.9,0.10044
2971.6,0.10048
2973.3,0.10052
2975.0,0.10051
2976.7,0.1005
2978.4,0.1005
2980.1,0.10053
2981.9,0.10054
2983.6,0.10052
2985.3,0.1005
2987.0,0.10054
2988.7,0.10059
2990.4,0.1006
2992.2,0.1006
2993.9,0.10057
2995.6,0.10056
2997.4,0.10058
2999.1,0.10058
3000.8,0.10058
3002.6,0.1006
3004.3,0.10061
3006.1,0.1006
3007.8,0.1006
3009.5,0.10061
3011.3,0.10061
3013.0,0.1006
3014.8,0.10062
3016.5,0.10065
3018.3,0.10065
3020.1,0.10062
3021.8,0.10061
3023.6,0.10058
3025.3,0.10055
3027.1,0.10056
3028.9,0.10059
3030.6,0.10061
3032.4,0.10064
3034.2,0.10062
3036.0,0.10057
3037.7,0.10059
3039.5,0.1006
3041.3,0.10058
3043.1,0.1006
3044.9,0.10063
3046.7,0.10065
3048.5,0.1006
3050.3,0.10056
3052.1,0.10056
3053.8,0.10054
3055.6,0.10052
3057.4,0.1005
3059.3,0.10054
3061.1,0.10053
3062.9,0.10051
3064.7,0.1005
3066.5,0.10052
3068.3,0.10052
3070.1,0.1005
3071.9,0.10046
3073.8,0.10043
3075.6,0.10044
3077.4,0.10043
3079.2,0.1004
3081.1,0.10043
3082.9,0.10048
3084.7,0.10047
3086.6,0.10044
3088.4,0.10043
3090.2,0.10042
3092.1,0.10038
3093.9,0.10037
3095.8,0.10041
3097.6,0.10042
3099.5,0.10042
3101.3,0.10041
3103.2,0.10043
3105.1,0.10042
3106.9,0.10038
3108.8,0.10038
3110.6,0.10042
3112.5,0.10045
3114.4,0.10048
3116.2,0.10046
3118.1,0.1005
3120.0,0.10053
3121.9,0.1005
3123.8,0.10055
3125.6,0.10063
3127.5,0.10062
3129.4,0.1006
3131.3,0.10059
3133.2,0.10061
3135.1,0.10065
3137.0,0.10071
3138.9,0.10078
3140.8,0.10078
3142.7,0.10072
3144.6,0.10075
3146.5,0.10083
3148.4,0.10088
3150.3,0.10086
3152.2,0.10085
3154.1,0.10088
3156.1,0.10093
3158.0,0.10099
3159.9,0.101
3161.8,0.10099
3163.8,0.10104
3165.7,0.10109
3167.6,0.10114
3169.6,0.10117
3171.5,0.1012
3173.5,0.10123
3175.4,0.10128
3177.3,0.1013
3179.3,0.10134
3181.2,0.1014
3183.2,0.10144
3185.1,0.10143
3187.1,0.10145
3189.1,0.10149
3191.0,0.10156
3193.0,0.10164
3195.0,0.10168
3196.9,0.10172
3198.9,0.10176
3200.9,0.10182
3202.9,0.10186
3204.8,0.10186
3206.8,0.1019
3208.8,0.10193
3210.8,0.10197
3212.8,0.10205
3214.8,0.1021
3216.8,0.10211
3218.8,0.10213
3220.8,0.10223
3222.8,0.10231
3224.8,0.10235
3226.8,0.10239
3228.8,0.10244
3230.8,0.10249
3232.8,0.10249
3234.8,0.10251
3236.8,0.10258
3238.9,0.10261
3240.9,0.10264
3242.9,0.10271
3244.9,0.10276
3247.0,0.10278
3249.0,0.10281
3251.1,0.10289
3253.1,0.10297
3255.1,0.10302
3257.2,0.10305
3259.2,0.10304
3261.3,0.10304
3263.3,0.1031
3265.4,0.10317
3267.4,0.1032
3269.5,0.10322
3271.6,0.10323
3273.6,0.10326
3275.7,0.10334
3277.8,0.10339
3279.8,0.10343
3281.9,0.10344
3284.0,0.10345
3286.1,0.10346
3288.2,0.10348
3290.2,0.10354
3292.3,0.10359
3294.4,0.1036
3296.5,0.10364
3298.6,0.10368
3300.7,0.10374
3302.8,0.10381
3304.9,0.10382
3307.0,0.10382
3309.1,0.10386
3311.3,0.10387
3313.4,0.10389
3315.5,0.1039
3317.6,0.10389
3319.7,0.1039
3321.9,0.10397
3324.0,0.10403
3326.1,0.10405
3328.3,0.10405
3330.4,0.10409
3332.5,0.10414
3334.7,0.10416
3336.8,0.10416
3339.0,0.10422
3341.1,0.10425
3343.3,0.10428
3345.4,0.10433
3347.6,0.10436
3349.8,0.10439
3351.9,0.10444
3354.1,0.10447
3356.3,0.10447
3358.4,0.10447
3360.6,0.1045
3362.8,0.10457
3365.0,0.10462
3367.2,0.10466
3369.4,0.1047
3371.5,0.10472
3373.7,0.10474
3375.9,0.10477
3378.1,0.10481
3380.3,0.10488
3382.5,0.10491
3384.7,0.10493
3386.9,0.10498
3389.2,0.10501
3391.4,0.10498
3393.6,0.10497
3395.8,0.10497
3398.1,0.10498
3400.3,0.10504
3402.5,0.10509
3404.7,0.10515
3407.0,0.10519
3409.2,0.10524
3411.5,0.10527
3413.7,0.10531
3416.0,0.10535
3418.2,0.10539
3420.5,0.10543
3422.7,0.10548
3425.0,0.10553
3427.3,0.10553
3429.5,0.10546
3431.8,0.10541
3434.1,0.10543
3436.3,0.10546
3438.6,0.10547
3440.9,0.10544
3443.2,0.10539
3445.5,0.10539
3447.8,0.10541
3450.1,0.10545
3452.4,0.10547
3454.6,0.10547
3456.9,0.10546
3459.3,0.10547
3461.6,0.10546
3463.9,0.10546
3466.2,0.10547
3468.5,0.10546
3470.8,0.10544
3473.2,0.10546
3475.5,0.10551
3477.8,0.10549
3480.1,0.10547
3482.5,0.1055
3484.8,0.10555
3487.2,0.10556
3489.5,0.10557
3491.9,0.10556
3494.2,0.10558
3496.6,0.10561
3498.9,0.10563
3501.3,0.10568
3503.7,0.10572
3506.0,0.10574
3508.4,0.10574
3510.8,0.10574
3513.2,0.10569
3515.5,0.10566
3517.9,0.10564
3520.3,0.10561
3522.7,0.10556
3525.1,0.10556
3527.5,0.10559
3529.9,0.10559
3532.3,0.10561
3534.7,0.10563
3537.1,0.10564
3539.5,0.10564
3541.9,0.10566
3544.4,0.10566
3546.8,0.10565
3549.2,0.10566
3551.7,0.10564
3554.1,0.10562
3556.5,0.10566
3559.0,0.10567
3561.4,0.10563
3563.9,0.1056
3566.3,0.10563
3568.8,0.10565
3571.2,0.10567
3573.7,0.10565
3576.1,0.10563
3578.6,0.10565
3581.1,0.10569
3583.6,0.10568
3586.0,0.10566
3588.5,0.10568
3591.0,0.10569
3593.5,0.10568
3596.0,0.10572
3598.5,0.10575
3601.0,0.10571
3603.5,0.10569
3606.0,0.1057
3608.5,0.10573
3611.0,0.10576
3613.5,0.10575
3616.1,0.10574
3618.6,0.10572
3621.1,0.10574
3623.6,0.10575
3626.2,0.10574
3628.7,0.10573
3631.3,0.10575
3633.8,0.10573
3636.3,0.10575
3638.9,0.10575
3641.4,0.10575
3644.0,0.10574
3646.6,0.10573
3649.1,0.10579
3651.7,0.1058
3654.3,0.10579
3656.9,0.10582
3659.4,0.10581
3662.0,0.10578
3664.6,0.10578
3667.2,0.10579
3669.8,0.10579
3672.4,0.10582
3675.0,0.10582
3677.6,0.10581
3680.2,0.10581
3682.8,0.10579
3685.4,0.10582
3688.1,0.10585
3690.7,0.10583
3693.3,0.10585
3695.9,0.10587
3698.6,0.10587
3701.2,0.10587
3703.9,0.10586
3706.5,0.10585
3709.2,0.10584
3711.8,0.10583
3714.5,0.10583
3717.1,0.10583
3719.8,0.10586
3722.5,0.10588
3725.2,0.10588
3727.8,0.10587
3730.5,0.10586
3733.2,0.10584
3735.9,0.10585
3738.6,0.10589
3741.3,0.1059
3744.0,0.1059
3746.7,0.10589
3749.4,0.10587
3752.1,0.10587
3754.8,0.10588
3757.6,0.10589
3760.3,0.10587
3763.0,0.10587
3765.7,0.10585
3768.5,0.10586
3771.2,0.10589
3774.0,0.1059
3776.7,0.1059
3779.5,0.10588
3782.2,0.10585
3785.0,0.10583
3787.7,0.10582
3790.5,0.10583
3793.3,0.10585
3796.1,0.10587
3798.8,0.10586
3801.6,0.10584
3804.4,0.10581
3807.2,0.10581
3810.0,0.10582
3812.8,0.10583
3815.6,0.10581
3818.4,0.10582
3821.2,0.10584
3824.1,0.10583
3826.9,0.10582
3829.7,0.10582
3832.5,0.10578
3835.4,0.10575
3838.2,0.10576
3841.1,0.10576
3843.9,0.10576
3846.8,0.10576
3849.6,0.10576
3852.5,0.10578
3855.3,0.10579
3858.2,0.10578
3861.1,0.10575
3863.9,0.10574
3866.8,0.10576
3869.7,0.10574
3872.6,0.10571
3875.5,0.10572
3878.4,0.10571
3881.3,0.10568
3884.2,0.10567
3887.1,0.10567
3890.0,0.10567
3893.0,0.10563
3895.9,0.10559
3898.8,0.10561
3901.7,0.10563
3904.7,0.10563
3907.6,0.10559
3910.6,0.10555
3913.5,0.10556
3916.5,0.10557
3919.4,0.10554
3922.4,0.10555
3925.4,0.10554
3928.4,0.10552
3931.3,0.10553
3934.3,0.10551
3937.3,0.1055
3940.3,0.1055
3943.3,0.10549
3946.3,0.10549
3949.3,0.10548
3952.3,0.10547
3955.3,0.10546
3958.3,0.10542
3961.4,0.10544
3964.4,0.10545
3967.4,0.10542
3970.5,0.1054
3973.5,0.10538
3976.6,0.10539
3979.6,0.10539
3982.6,0.10536
3985.7,0.10532
3988.8,0.10533
3991.9,0.10534
3994.9,0.10532
3998.0,0.1053
4001.1,0.10528
4004.2,0.10528
4007.3,0.10526
4010.4,0.10524
4013.5,0.10525
4016.6,0.10525
4019.7,0.10521
4022.8,0.1052
4025.9,0.1052
4029.1,0.10516
4032.2,0.10513
4035.3,0.10511
4038.5,0.10509
4041.6,0.10506
4044.8,0.10506
4047.9,0.10506
4051.1,0.10503
4054.3,0.10505
4057.4,0.10506
4060.6,0.10501
4063.8,0.10498
4067.0,0.10498
4070.2,0.10496
4073.4,0.10492
4076.6,0.1049
4079.8,0.1049
4083.0,0.1049
4086.2,0.10486
4089.4,0.10485
4092.7,0.10483
4095.9,0.10482
4099.1,0.10483
4102.4,0.10482
4105.6,0.10479
4108.9,0.10478
4112.1,0.10477
4115.4,0.10476
4118.7,0.10473
4122.0,0.10469
4125.2,0.10468
4128.5,0.10469
4131.8,0.10468
4135.1,0.10464
4138.4,0.10463
4141.7,0.10462
4145.0,0.10458
4148.3,0.10452
4151.6,0.10449
4155.0,0.10448
4158.3,0.10445
4161.6,0.10445
4165.0,0.10445
4168.3,0.10444
4171.7,0.10442
4175.0,0.10441
4178.4,0.1044
4181.8,0.10438
4185.2,0.10435
4188.5,0.10434
4191.9,0.10432
4195.3,0.1043
4198.7,0.10431
4202.1,0.1043
4205.5,0.10429
4208.9,0.10436
4212.4,0.10444
4215.8,0.10446
4219.2,0.10446
4222.6,0.10451
4226.1,0.10457
4229.5,0.10456
4233.0,0.10452
4236.5,0.10453
4239.9,0.10451
4243.4,0.10447
4246.9,0.10439
4250.3,0.10427
4253.8,0.10413
4257.3,0.10406
4260.8,0.10408
4264.3,0.10411
4267.8,0.10407
4271.3,0.10406
4274.9,0.10409
4278.4,0.1041
4281.9,0.10409
4285.5,0.10406
4289.0,0.10399
4292.6,0.10396
4296.1,0.10395
4299.7,0.10396
4303.3,0.10393
4306.8,0.10388
4310.4,0.10384
4314.0,0.10379
4317.6,0.10372
4321.2,0.1037
4324.8,0.10367
4328.4,0.10362
4332.0,0.10358
4335.6,0.10357
4339.3,0.10353
4342.9,0.10348
4346.5,0.10347
4350.2,0.10347
4353.8,0.10344
4357.5,0.10343
4361.1,0.10338
4364.8,0.10333
4368.5,0.10333
4372.2,0.10334
4375.9,0.10331
4379.6,0.10326
4383.3,0.10326
4387.0,0.10325
4390.7,0.1032
4394.4,0.10317
4398.1,0.10317
4401.9,0.10317
4405.6,0.10315
4409.4,0.10315
4413.1,0.10312
4416.9,0.10307
4420.6,0.10303
4424.4,0.10301
4428.2,0.10301
4432.0,0.103
4435.8,0.10296
4439.6,0.10293
4443.4,0.10291
4447.2,0.10288
4451.0,0.10284
4454.8,0.10284
4458.6,0.10283
4462.5,0.10282
4466.3,0.10279
4470.2,0.10278
4474.0,0.10278
4477.9,0.10274
4481.8,0.10269
4485.6,0.10266
4489.5,0.10267
4493.4,0.10265
4497.3,0.10258
4501.2,0.10254
4505.1,0.10253
4509.0,0.10255
4513.0,0.1025
4516.9,0.10244
4520.9,0.10239
4524.8,0.10238
4528.7,0.10234
4532.7,0.10229
4536.7,0.10225
4540.6,0.10222
4544.6,0.10215
4548.6,0.10211
4552.6,0.10206
4556.6,0.102
4560.6,0.10195
4564.6,0.10192
4568.6,0.10187
4572.7,0.10181
4576.7,0.10176
4580.8,0.10171
4584.8,0.10163
4588.9,0.10159
4592.9,0.10151
4597.0,0.10145
4601.1,0.10139
4605.2,0.10129
4609.3,0.1012
4613.4,0.10113
4617.5,0.10105
4621.6,0.10097
4625.7,0.1009
4629.8,0.10082
4634.0,0.10075
4638.1,0.10068
4642.3,0.1006
4646.4,0.10052
4650.6,0.10044
4654.8,0.10037
4659.0,0.1003
4663.1,0.10021
4667.3,0.10014
4671.5,0.10009
4675.8,0.10003
4680.0,0.09996
4684.2,0.09991
4688.4,0.09987
4692.7,0.09981
4696.9,0.09976
4701.2,0.09971
4705.5,0.09967
4709.7,0.09959
4714.0,0.09953
4718.3,0.09948
4722.6,0.09943
4726.9,0.09939
4731.2,0.09932
4735.5,0.09925
4739.9,0.09919
4744.2,0.09913
4748.5,0.09904
4752.9,0.09895
4757.3,0.09889
4761.6,0.0988
4766.0,0.09869
4770.4,0.09862
4774.8,0.09855
4779.2,0.09845
4783.6,0.09833
4788.0,0.09823
4792.4,0.09816
4796.9,0.09807
4801.3,0.09797
4805.8,0.09788
4810.2,0.09782
4814.7,0.09772
4819.1,0.09762
4823.6,0.09752
4828.1,0.09745
4832.6,0.09737
4837.1,0.09731
4841.6,0.09726
4846.2,0.0972
4850.7,0.09712
4855.3,0.09705
4859.8,0.097
4864.4,0.09698
4868.9,0.09695
4873.5,0.0969
4878.1,0.09687
4882.7,0.09687
4887.3,0.09686
4891.9,0.09684
4896.5,0.0968
4901.1,0.09677
4905.8,0.09675
4910.4,0.09676
4915.1,0.09675
4919.7,0.09672
4924.4,0.09668
4929.1,0.09665
4933.8,0.09659
4938.5,0.09657
4943.2,0.09655
4947.9,0.09653
4952.6,0.09652
4957.4,0.0965
4962.1,0.09642
4966.9,0.09639
4971.6,0.09637
4976.4,0.09631
4981.2,0.09624
4986.0,0.09621
4990.8,0.09615
4995.6,0.09608
5000.4,0.09599
5005.2,0.09589
5010.0,0.09578
5014.9,0.09569
5019.8,0.09564
5024.6,0.09559
5029.5,0.09548
5034.4,0.09537
5039.3,0.09525
5044.2,0.09514
5049.1,0.09501
5054.0,0.0949
5058.9,0.09477
5063.9,0.09464
5068.8,0.09452
5073.8,0.09441
5078.8,0.0943
5083.7,0.09419
5088.7,0.09407
5093.7,0.09396
5098.7,0.09385
5103.7,0.09373
5108.8,0.09363
5113.8,0.09354
5118.9,0.09342
5123.9,0.09332
5129.0,0.09325
5134.1,0.09317
5139.1,0.09314
5144.3,0.09311
5149.4,0.09308
5154.5,0.09303
5159.6,0.09302
5164.7,0.09305
5169.9,0.0931
5175.0,0.09312
5180.2,0.09316
5185.4,0.09324
5190.6,0.09332
5195.8,0.09343
5201.0,0.09354
5206.2,0.09362
5211.5,0.09372
5216.7,0.09378
5222.0,0.09379
5227.2,0.09384
5232.5,0.09391
5237.8,0.09399
5243.1,0.09402
5248.4,0.09405
5253.7,0.09408
5259.0,0.09413
5264.4,0.09416
5269.7,0.09422
5275.1,0.09427
5280.5,0.09432
5285.8,0.09434
5291.2,0.0944
5296.6,0.09442
5302.0,0.0944
5307.5,0.0944
5312.9,0.09441
5318.4,0.09443
5323.8,0.09445
5329.3,0.09445
5334.8,0.09445
5340.3,0.09442
5345.8,0.09444
5351.3,0.09446
5356.8,0.09438
5362.4,0.0943
5367.9,0.09426
5373.5,0.0942
5379.0,0.09414
5384.6,0.09412
5390.2,0.09408
5395.8,0.094
5401.5,0.09397
5407.1,0.09392
5412.7,0.09386
5418.4,0.09388
5424.1,0.09388
5429.7,0.09372
5435.4,0.09363
5441.1,0.09358
5446.9,0.09355
5452.6,0.09351
5458.3,0.09351
5464.1,0.09357
5469.8,0.0935
5475.6,0.09345
5481.4,0.09346
5487.2,0.0934
5493.0,0.0934
5498.8,0.09338
5504.7,0.09338
5510.5,0.09335
5516.4,0.09336
5522.3,0.09337
5528.1,0.09333
5534.0,0.09326
5540.0,0.09321
5545.9,0.09318
5551.8,0.09317
5557.8,0.09308
5563.7,0.09298
5569.7,0.0929
5575.7,0.09289
5581.7,0.09281
5587.7,0.09258
5593.7,0.09241
5599.8,0.09235
5605.8,0.0923
5611.9,0.09223
5618.0,0.09215
5624.1,0.09203
5630.2,0.09194
5636.3,0.09198
5642.4,0.09206
5648.6,0.09186
5654.7,0.09169
5660.9,0.09158
5667.1,0.09147
5673.3,0.09148
5679.5,0.09141
5685.7,0.0913
5692.0,0.0913
5698.2,0.09122
5704.5,0.09118
5710.8,0.09127
5717.1,0.09124
5723.4,0.09114
5729.7,0.09105
5736.0,0.09101
5742.4,0.09096
5748.8,0.09092
5755.1,0.09076
5761.5,0.09081
5768.0,0.09093
5774.4,0.09066
5780.8,0.09044
5787.3,0.09027
5793.7,0.09014
5800.2,0.0901
5806.7,0.09001
5813.2,0.08999
5819.8,0.09011
5826.3,0.09005
5832.8,0.08981
5839.4,0.0896
5846.0,0.08946
5852.6,0.08941
5859.2,0.08941
5865.8,0.08936
5872.5,0.08928
5879.1,0.08947
5885.8,0.08933
5892.5,0.08914
5899.2,0.08904
5905.9,0.08867
5912.6,0.0885
5919.4,0.08842
5926.2,0.08828
5932.9,0.08833
5939.7,0.08824
5946.5,0.08781
5953.4,0.08751
5960.2,0.08732
5967.1,0.08726
5974.0,0.08702
5980.8,0.08676
5987.8,0.0867
5994.7,0.08647
6001.6,0.08617
6008.6,0.08606
6015.5,0.086
6022.5,0.08579
6029.5,0.08564
6036.5,0.08556
6043.6,0.08579
6050.6,0.08595
6057.7,0.08546
6064.8,0.08529
6071.9,0.0854
6079.0,0.08524
6086.1,0.08499
6093.3,0.08489
6100.5,0.08485
6107.6,0.0849
6114.9,0.08495
6122.1,0.08464
6129.3,0.08441
6136.5,0.08436
6143.8,0.08429
6151.1,0.08414
6158.4,0.08408
6165.7,0.08391
6173.1,0.08373
6180.4,0.08376
6187.8,0.08376
6195.2,0.08351
6202.6,0.08336
6210.0,0.08325
6217.5,0.08317
6225.0,0.08309
6232.4,0.08304
6239.9,0.08301
6247.5,0.08297
6255.0,0.08292
6262.5,0.08293
6270.1,0.08293
6277.7,0.0829
6285.3,0.0829
6292.9,0.08299
6300.6,0.08304
6308.3,0.08303
6315.9,0.08299
6323.6,0.08302
6331.4,0.08305
6339.1,0.08319
6346.9,0.0833
6354.6,0.08317
6362.4,0.08317
6370.3,0.08334
6378.1,0.08334
6385.9,0.08335
6393.8,0.08341
6401.7,0.08351
6409.6,0.08394
6417.6,0.08415
6425.5,0.08384
6433.5,0.08377
6441.5,0.08374
6449.5,0.0837
6457.5,0.08365
6465.6,0.08366
6473.6,0.08376
6481.7,0.08383
6489.8,0.08396
6498.0,0.08389
6506.1,0.08354
6514.3,0.08343
6522.5,0.08345
6530.7,0.08328
6538.9,0.08316
6547.2,0.08312
6555.5,0.08304
6563.8,0.08299
6572.1,0.08304
6580.4,0.08288
6588.8,0.0827
6597.2,0.08257
6605.6,0.08239
6614.0,0.08226
6622.5,0.08218
6630.9,0.08234
6639.4,0.0824
6647.9,0.08203
6656.5,0.08179
6665.0,0.0818
6673.6,0.08188
6682.2,0.08188
6690.8,0.08171
6699.5,0.08163
6708.1,0.08166
6716.8,0.08162
6725.5,0.0815
6734.3,0.08141
6743.0,0.08134
6751.8,0.08126
6760.6,0.08118
6769.4,0.08117
6778.3,0.08115
6787.1,0.08119
6796.0,0.08108
6805.0,0.08081
6813.9,0.08069
6822.9,0.08069
6831.9,0.08058
6840.9,0.08039
6849.9,0.08035
6859.0,0.08049
6868.0,0.08035
6877.2,0.07997
6886.3,0.07977
6895.5,0.07964
6904.6,0.07957
6913.8,0.07941
6923.1,0.07924
6932.3,0.0791
6941.6,0.07897
6950.9,0.07894
6960.2,0.07892
6969.6,0.07866
6979.0,0.07846
6988.4,0.07839
6997.8,0.07826
7007.3,0.07809
7016.8,0.07796
7026.3,0.07784
7035.8,0.07778
7045.4,0.07782
7054.9,0.0776
7064.5,0.07736
7074.2,0.07721
7083.9,0.07712
7093.5,0.07701
7103.3,0.07689
7113.0,0.0768
7122.8,0.07668
7132.6,0.07655
7142.4,0.07649
7152.2,0.07636
7162.1,0.07624
7172.0,0.07611
7182.0,0.07588
7191.9,0.07572
7201.9,0.07564
7211.9,0.07551
7222.0,0.0753
7232.0,0.07511
7242.1,0.07496
7252.3,0.07483
7262.4,0.07467
7272.6,0.07451
7282.8,0.07434
7293.1,0.07415
7303.3,0.07399
7313.6,0.07379
7324.0,0.07359
7334.3,0.07344
7344.7,0.07328
7355.1,0.07304
7365.6,0.07282
7376.1,0.07261
7386.6,0.07244
7397.1,0.07228
7407.7,0.07213
7418.3,0.07192
7428.9,0.07172
7439.6,0.07157
7450.3,0.07144
7461.0,0.07129
7471.7,0.07111
7482.5,0.07092
7493.3,0.07074
7504.2,0.07058
7515.0,0.07042
7525.9,0.07025
7536.9,0.07006
7547.9,0.06986
7558.9,0.06969
7569.9,0.06951
7581.0,0.06936
7592.0,0.06919
7603.2,0.06904
7614.4,0.06885
7625.5,0.06868
7636.8,0.06855
7648.0,0.06839
7659.3,0.06819
7670.7,0.06802
7682.0,0.06784
7693.4,0.06767
7704.9,0.06751
7716.3,0.06736
7727.8,0.06715
7739.4,0.06698
7750.9,0.0668
7762.5,0.06661
7774.2,0.06638
7785.8,0.06619
7797.5,0.06602
7809.3,0.06585
7821.1,0.06567
7832.9,0.06547
7844.7,0.06527
7856.6,0.06507
7868.5,0.06485
7880.5,0.0646
7892.5,0.06436
7904.5,0.06415
7916.6,0.06391
7928.7,0.06369
7940.8,0.06343
7953.0,0.06319
7965.2,0.0629
7977.5,0.06262
7989.8,0.06233
8002.1,0.06206
8014.5,0.06177
8026.9,0.06152
8039.3,0.06123
8051.8,0.06093
8064.3,0.06063
8076.9,0.06035
8089.5,0.06001
8102.1,0.05971
8114.8,0.05942
8127.5,0.05913
8140.3,0.05881
8153.1,0.0585
8165.9,0.05821
8178.8,0.05795
8191.7,0.05769
8204.7,0.05745
8217.7,0.05714
8230.7,0.0569
8243.8,0.05665
8257.0,0.05646
8270.1,0.05623
8283.3,0.05602
8296.6,0.05583
8309.9,0.05565
8323.2,0.05549
8336.6,0.05537
8350.0,0.05523
8363.5,0.05517
8377.0,0.05508
8390.5,0.055
8404.2,0.05493
8417.8,0.05494
8431.5,0.05495
8445.2,0.05499
8459.0,0.05504
8472.8,0.0552
8486.7,0.0554
8500.6,0.05564
8514.5,0.05596
8528.5,0.05637
8542.6,0.05682
8556.7,0.05739
8570.8,0.05801
8585.0,0.05876
8599.3,0.05963
8613.5,0.06059
8627.9,0.06163
8642.3,0.06274
8656.7,0.06388
8671.2,0.06512
8685.7,0.06634
8700.3,0.06742
8714.9,0.06816
8729.6,0.06839
8744.3,0.06822
8759.0,0.06832
8773.9,0.06918
8788.7,0.07067
8803.7,0.07224
8818.6,0.07339
8833.7,0.07394
8848.7,0.07393
8863.8,0.07363
8879.0,0.07339
8894.3,0.07345
8909.5,0.0739
8924.9,0.07465
8940.3,0.07556
8955.7,0.07646
8971.2,0.07724
8986.8,0.07782
9002.3,0.07817
9018.0,0.07832
9033.7,0.07831
9049.5,0.07819
9065.3,0.07803
9081.2,0.07777
9097.1,0.07746
9113.1,0.07719
9129.1,0.07699
9145.2,0.07679
9161.4,0.07664
9177.6,0.07653
9193.9,0.07642
9210.2,0.07631
9226.6,0.07618
9243.0,0.07609
9259.5,0.07601
9276.1,0.07591
9292.7,0.07578
9309.4,0.07561
9326.2,0.07538
9343.0,0.07509
9359.8,0.0748
9376.8,0.0745
9393.7,0.07419
9410.8,0.07389
9427.9,0.07355
9445.1,0.07318
9462.3,0.07277
9479.6,0.07227
9497.0,0.0717
9514.4,0.07101
9531.9,0.07021
9549.4,0.06926
9567.1,0.06819
9584.7,0.06693
9602.5,0.06548
9620.3,0.06385
9638.2,0.06209
9656.1,0.06035
9674.2,0.0587
9692.2,0.05716
9710.4,0.0559
9728.6,0.05505
9746.9,0.05476
9765.2,0.05492
9783.7,0.05551
9802.2,0.05647
9820.7,0.05772
9839.4,0.05908
9858.1,0.0605
9876.8,0.06176
9895.7,0.06275
9914.6,0.06342
9933.6,0.06376
9952.7,0.06387
9971.8,0.06394
9991.0,0.06416
10010.3,0.06463
10029.7,0.06528
10049.1,0.06611
10068.6,0.06702
10088.2,0.06792
10107.9,0.06887
10127.6,0.06993
10147.4,0.07104
10167.3,0.07217
10187.3,0.0731
10207.4,0.07368
10227.5,0.07377
10247.7,0.07341
10268.0,0.07276
10288.4,0.07197
10308.8,0.07129
10329.4,0.07099
10350.0,0.07113
10370.7,0.07159
10391.5,0.07214
10412.3,0.07266
10433.3,0.07299
10454.3,0.0731
10475.5,0.07303
10496.7,0.07282
10517.9,0.07248
10539.3,0.07196
10560.8,0.07137
10582.3,0.07084
10604.0,0.07028
10625.7,0.06981
10647.5,0.0694
10669.4,0.06907
10691.4,0.06887
10713.5,0.0687
10735.7,0.06848
10758.0,0.06824
10780.3,0.06789
10802.8,0.06744
10825.4,0.06681
10848.0,0.06587
10870.8,0.0647
10893.6,0.0635
10916.5,0.06229
10939.5,0.06122
10962.7,0.06031
10985.9,0.05952
11009.2,0.05882
11032.7,0.05826
11056.2,0.05787
11079.8,0.05762
11103.5,0.05745
11127.3,0.05743
11151.3,0.05758
11175.3,0.05799
11199.5,0.05859
11223.7,0.05941
11248.0,0.0605
11272.5,0.06172
11297.1,0.063
11321.7,0.06422
11346.5,0.06526
11371.4,0.06619
11396.4,0.067
11421.5,0.06763
11446.7,0.06804
11472.0,0.06829
11497.5,0.06842
11523.0,0.0685
11548.7,0.06855
11574.4,0.06853
11600.3,0.06843
11626.3,0.06826
11652.5,0.06809
11678.7,0.06795
11705.1,0.06784
11731.6,0.06778
11758.2,0.06771
11784.9,0.06768
11811.7,0.06779
11838.7,0.06798
11865.8,0.06834
11893.0,0.06883
11920.3,0.06937
11947.8,0.06991
11975.4,0.0704
12003.1,0.0709
12031.0,0.07152
12059.0,0.07217
12087.1,0.07281
12115.3,0.07342
12143.7,0.07399
12172.2,0.07456
12200.8,0.07507
12229.6,0.07547
12258.5,0.07573
12287.6,0.0759
12316.8,0.07602
12346.1,0.07611
12375.5,0.07614
12405.2,0.07607
12434.9,0.07591
12464.8,0.07569
12494.8,0.07546
12525.0,0.0752
12555.3,0.07491
12585.8,0.07468
12616.4,0.07455
12647.2,0.07451
12678.1,0.07439
12709.2,0.07422
12740.4,0.07417
12771.8,0.07413
12803.3,0.07399
12835.0,0.07388
12866.9,0.07364
12898.9,0.07334
12931.1,0.07297
12963.4,0.07256
12995.9,0.07212
13028.5,0.07165
13061.3,0.07099
13094.3,0.07024
13127.5,0.06948
13160.8,0.06865
13194.3,0.06774
13228.0,0.06676
13261.8,0.0656
13295.8,0.06438
13330.0,0.06307
13364.3,0.06178
13398.9,0.06064
13433.6,0.05972
13468.5,0.05916
13503.5,0.05892
13538.8,0.05856
13574.2,0.05781
13609.9,0.05695
13645.7,0.05609
13681.7,0.05533
13717.9,0.05494
13754.3,0.05482
13790.8,0.05501
13827.6,0.05541
13864.6,0.05584
13901.8,0.05625
13939.1,0.05669
13976.7,0.05703
14014.5,0.05715
14052.5,0.05713
14090.7,0.05697
14129.0,0.05665
14167.7,0.05624
14206.5,0.05579
14245.5,0.05524
14284.7,0.05472
14324.2,0.05434
14363.9,0.05399
14403.8,0.05386
14443.9,0.05388
14484.2,0.05369
14524.8,0.05342
14565.6,0.05322
14606.7,0.05298
14647.9,0.05273
14689.4,0.05242
14731.2,0.05204
14773.1,0.05174
14815.3,0.05172
14857.8,0.05185
14900.5,0.05196
14943.4,0.05185
14986.6,0.05139
15030.0,0.05066
15073.7,0.05
15117.7,0.04931
15161.9,0.04862
15206.3,0.04803
15251.1,0.04762
15296.1,0.04752
15341.3,0.04767
15386.8,0.0478
15432.6,0.0481
15478.7,0.04848
15525.0,0.04885
15571.7,0.04923
15618.6,0.04972
15665.8,0.05014
15713.2,0.05062
15761.0,0.05113
15809.0,0.05171
15857.4,0.05238
15906.0,0.05309
15955.0,0.05376
16004.2,0.05467
16053.8,0.05574
16103.6,0.05704
16153.8,0.05865
16204.3,0.06065
16255.1,0.06251
16306.2,0.06439
16357.6,0.06631
16409.4,0.06813
16461.5,0.06969
16513.9,0.07115
16566.7,0.07235
16619.8,0.07334
16673.2,0.0743
16727.0,0.07518
16781.1,0.07576
16835.6,0.07636
16890.5,0.07684
16945.7,0.07707
17001.2,0.07742
17057.2,0.07792
17113.4,0.07837
17170.1,0.07894
17227.2,0.0795
17284.6,0.07975
17342.4,0.07975
17400.6,0.07969
17459.2,0.07962
17518.2,0.0792
17577.5,0.07836
17637.3,0.07758
17697.5,0.07678
17758.1,0.0758
17819.2,0.07506
17880.6,0.07492
17942.5,0.07534
18004.8,0.07622
18067.5,0.07715
18130.7,0.07825
18194.3,0.07926
18258.4,0.08019
18322.9,0.08096
18387.9,0.08123
18453.3,0.08108
18519.2,0.08063
18585.6,0.08008
18652.4,0.07942
18719.8,0.07866
18787.6,0.07816
18855.9,0.07815
18924.8,0.07869
18994.1,0.08008
19063.9,0.08232
19134.3,0.08471
19205.1,0.08681
19276.5,0.08882
19348.4,0.09072
19420.9,0.09183
19493.9,0.09272
19567.5,0.09311
19641.6,0.09303
19716.3,0.09283
19791.5,0.0925
19867.4,0.09192
19943.8,0.09108
20020.8,0.08995
20098.4,0.08877
20176.6,0.08723
20255.4,0.08568
20334.8,0.08431
20414.9,0.08317
20495.6,0.08178
20576.9,0.08039
20658.9,0.07902
20741.5,0.07765
20824.8,0.07661
20908.8,0.07571
20993.4,0.07419
21078.8,0.07259
21164.8,0.07168
21251.6,0.0712
21339.0,0.07149
21427.2,0.07229
21516.1,0.07311
21605.8,0.07403
21696.2,0.07466
21787.3,0.07571
21879.3,0.0769
21972.0,0.07808
22065.5,0.07896
22159.8,0.07975
22254.9,0.08064
22350.8,0.0811
22447.5,0.08073
22545.1,0.08032
22643.6,0.07997
22742.9,0.07912
22843.1,0.07823
22944.2,0.07771
23046.2,0.07783
23149.0,0.07794
23252.8,0.07752
23357.6,0.07641
23463.3,0.07548
23569.9,0.07581
23677.6,0.07538
23786.2,0.07464
23895.8,0.07428
24006.4,0.07345
24118.1,0.07288
24230.8,0.07282
24344.5,0.07193
24459.4,0.07171
24575.3,0.07284
24692.3,0.0737
24810.4,0.07492
24929.7,0.0774
25050.2,0.07849
