Database of Origin,University of Winnipeg Spectrophotometer Facility
Sample Description,See Master Clays in HOSERLab database
Date Added,2016-12-11 20:57:06.518005

Data ID,RLA_CLAY_29         
Sample ID,SRP105
Mineral Name,Serpentinite
Grain Size,<45um
Viewing Geometry,"30/0,30"
Resolution,"5,0.6-129"
Material Class,Phyllosilicate

Wavelength
305.0,0.276802
310.0,0.305311
315.0,0.333824
320.0,0.357143
325.0,0.373979
330.0,0.390636
335.0,0.410692
340.0,0.428724
345.0,0.454102
350.0,0.488521
355.0,0.52656
360.0,0.541084
365.0,0.549979
370.0,0.583192
375.0,0.598617
380.0,0.601622
385.0,0.592799
390.0,0.638892
395.0,0.688954
400.0,0.701592
405.0,0.677025
410.0,0.656181
415.0,0.642612
420.0,0.638636
425.0,0.625668
430.0,0.612543
435.0,0.603904
440.0,0.606396
445.0,0.61571
450.0,0.622649
455.0,0.625662
460.0,0.634431
465.0,0.666493
470.0,0.715134
475.0,0.757883
480.0,0.785379
485.0,0.79886
490.0,0.804198
495.0,0.812447
500.0,0.820568
505.0,0.828906
510.0,0.836983
515.0,0.846346
520.0,0.854061
525.0,0.863012
530.0,0.868692
535.0,0.874788
540.0,0.877966
545.0,0.882068
550.0,0.884056
555.0,0.887039
560.0,0.888616
565.0,0.890629
570.0,0.891073
575.0,0.893134
580.0,0.894825
585.0,0.895984
590.0,0.894067
595.0,0.895107
600.0,0.892741
605.0,0.892591
610.0,0.887639
615.0,0.885734
620.0,0.881343
625.0,0.878122
630.0,0.873725
635.0,0.871643
640.0,0.868789
645.0,0.867848
650.0,0.864882
655.0,0.864772
660.0,0.864151
665.0,0.864178
670.0,0.864906
675.0,0.865334
680.0,0.864583
685.0,0.865602
690.0,0.86563
695.0,0.867011
700.0,0.866828
705.0,0.865154
710.0,0.865403
715.0,0.864896
720.0,0.866497
725.0,0.865074
730.0,0.860631
735.0,0.858964
740.0,0.858873
745.0,0.857608
750.0,0.862063
755.0,0.860803
760.0,0.858036
765.0,0.859957
770.0,0.859876
775.0,0.856579
780.0,0.855508
785.0,0.857629
790.0,0.8614
795.0,0.860244
800.0,0.860007
805.0,0.867134
810.0,0.865305
815.0,0.863336
820.0,0.870698
825.0,0.866816
830.0,0.858656
835.0,0.862625
840.0,0.861072
845.0,0.861083
850.0,0.857257
855.0,0.857378
860.0,0.855463
865.0,0.853644
870.0,0.857739
875.0,0.857433
880.0,0.85432
885.0,0.852768
890.0,0.8516
895.0,0.849583
900.0,0.847814
905.0,0.84563
910.0,0.844307
915.0,0.846152
920.0,0.844866
925.0,0.842987
930.0,0.842628
935.0,0.840334
940.0,0.835727
945.0,0.830231
950.0,0.829978
955.0,0.828995
960.0,0.835199
965.0,0.838015
970.0,0.839413
975.0,0.839807
980.0,0.838633
985.0,0.837971
990.0,0.839495
995.0,0.837408
1000.0,0.836408
1005.0,0.836078
1010.0,0.835909
1015.0,0.836494
1020.0,0.833364
1025.0,0.833805
1030.0,0.833099
1035.0,0.832213
1040.0,0.830996
1045.0,0.830702
1050.0,0.829974
1055.0,0.830786
1060.0,0.828498
1065.0,0.828886
1070.0,0.82655
1075.0,0.825672
1080.0,0.823685
1085.0,0.823848
1090.0,0.823913
1095.0,0.823393
1100.0,0.823938
1105.0,0.8224
1110.0,0.822631
1115.0,0.822395
1120.0,0.824076
1125.0,0.822644
1130.0,0.824548
1135.0,0.822684
1140.0,0.823788
1145.0,0.824311
1150.0,0.823152
1155.0,0.82397
1160.0,0.82475
1165.0,0.824124
1170.0,0.824235
1175.0,0.825231
1180.0,0.824734
1185.0,0.8268
1190.0,0.827352
1195.0,0.826417
1200.0,0.826248
1205.0,0.831276
1210.0,0.831223
1215.0,0.834153
1220.0,0.835159
1225.0,0.834588
1230.0,0.835073
1235.0,0.835916
1240.0,0.835256
1245.0,0.836113
1250.0,0.836252
1255.0,0.836513
1260.0,0.833376
1265.0,0.831104
1270.0,0.833035
1275.0,0.829013
1280.0,0.824174
1285.0,0.815584
1290.0,0.82592
1295.0,0.834149
1300.0,0.839701
1305.0,0.839195
1310.0,0.841559
1315.0,0.841892
1320.0,0.846357
1325.0,0.846585
1330.0,0.847293
1335.0,0.846556
1340.0,0.84645
1345.0,0.844713
1350.0,0.83937
1355.0,0.796403
1360.0,0.778615
1365.0,0.797368
1370.0,0.819029
1375.0,0.805735
1380.0,0.702961
1385.0,0.623889
1390.0,0.587904
1395.0,0.552678
1400.0,0.62076
1405.0,0.708799
1410.0,0.771076
1415.0,0.804309
1420.0,0.807504
1425.0,0.806458
1430.0,0.813316
1435.0,0.821344
1440.0,0.8253
1445.0,0.827823
1450.0,0.827322
1455.0,0.830865
1460.0,0.830937
1465.0,0.833925
1470.0,0.835764
1475.0,0.83831
1480.0,0.840055
1485.0,0.841466
1490.0,0.844114
1495.0,0.844865
1500.0,0.846997
1505.0,0.84752
1510.0,0.847899
1515.0,0.848484
1520.0,0.850509
1525.0,0.85232
1530.0,0.851236
1535.0,0.852269
1540.0,0.855907
1545.0,0.858611
1550.0,0.858599
1555.0,0.859481
1560.0,0.861827
1565.0,0.86152
1570.0,0.865062
1575.0,0.863645
1580.0,0.864322
1585.0,0.864597
1590.0,0.867108
1595.0,0.8662
1600.0,0.866791
1605.0,0.866879
1610.0,0.867483
1615.0,0.869241
1620.0,0.869725
1625.0,0.868072
1630.0,0.866946
1635.0,0.868221
1640.0,0.867838
1645.0,0.867209
1650.0,0.867803
1655.0,0.868622
1660.0,0.868644
1665.0,0.867827
1670.0,0.866197
1675.0,0.86511
1680.0,0.863631
1685.0,0.864004
1690.0,0.861936
1695.0,0.862491
1700.0,0.862584
1705.0,0.862274
1710.0,0.861538
1715.0,0.860905
1720.0,0.860401
1725.0,0.857236
1730.0,0.857422
1735.0,0.856692
1740.0,0.85535
1745.0,0.855394
1750.0,0.854579
1755.0,0.853152
1760.0,0.851982
1765.0,0.850426
1770.0,0.848927
1775.0,0.847452
1780.0,0.845395
1785.0,0.846418
1790.0,0.844434
1795.0,0.843988
1800.0,0.84133
1805.0,0.838808
1810.0,0.834231
1815.0,0.829667
1820.0,0.828305
1825.0,0.834978
1830.0,0.83232
1835.0,0.830989
1840.0,0.832629
1845.0,0.834151
1850.0,0.826528
1855.0,0.825191
1860.0,0.823954
1865.0,0.818565
1870.0,0.806082
1875.0,0.809316
1880.0,0.800313
1885.0,0.7818
1890.0,0.771175
1895.0,0.762088
1900.0,0.743545
1905.0,0.730588
1910.0,0.720858
1915.0,0.707383
1920.0,0.699062
1925.0,0.69866
1930.0,0.695573
1935.0,0.692588
1940.0,0.692036
1945.0,0.692197
1950.0,0.686534
1955.0,0.683588
1960.0,0.679797
1965.0,0.676155
1970.0,0.671624
1975.0,0.668841
1980.0,0.667458
1985.0,0.667168
1990.0,0.67112
1995.0,0.672057
2000.0,0.676933
2005.0,0.683762
2010.0,0.692891
2015.0,0.697438
2020.0,0.700745
2025.0,0.702379
2030.0,0.702528
2035.0,0.704843
2040.0,0.70865
2045.0,0.716323
2050.0,0.724889
2055.0,0.738611
2060.0,0.747824
2065.0,0.753067
2070.0,0.7546
2075.0,0.750961
2080.0,0.741507
2085.0,0.729547
2090.0,0.717895
2095.0,0.705363
2100.0,0.700107
2105.0,0.698915
2110.0,0.69319
2115.0,0.686097
2120.0,0.687934
2125.0,0.68932
2130.0,0.682274
2135.0,0.676584
2140.0,0.689389
2145.0,0.703906
2150.0,0.718287
2155.0,0.732537
2160.0,0.742993
2165.0,0.748529
2170.0,0.75295
2175.0,0.753679
2180.0,0.754819
2185.0,0.758168
2190.0,0.757799
2195.0,0.757792
2200.0,0.756298
2205.0,0.753796
2210.0,0.751731
2215.0,0.748516
2220.0,0.739147
2225.0,0.726186
2230.0,0.704983
2235.0,0.672093
2240.0,0.633753
2245.0,0.613737
2250.0,0.604983
2255.0,0.60287
2260.0,0.60443
2265.0,0.575855
2270.0,0.530937
2275.0,0.512108
2280.0,0.519912
2285.0,0.526265
2290.0,0.520499
2295.0,0.50973
2300.0,0.498161
2305.0,0.477316
2310.0,0.454917
2315.0,0.428079
2320.0,0.394327
2325.0,0.362646
2330.0,0.358798
2335.0,0.359176
2340.0,0.360996
2345.0,0.403139
2350.0,0.473328
2355.0,0.520955
2360.0,0.535774
2365.0,0.528145
2370.0,0.501688
2375.0,0.482919
2380.0,0.48208
2385.0,0.481557
2390.0,0.471365
2395.0,0.459793
2400.0,0.455016
2405.0,0.452626
2410.0,0.452787
2415.0,0.451558
2420.0,0.450408
2425.0,0.451349
2430.0,0.434473
2435.0,0.417877
2440.0,0.422422
2445.0,0.438323
2450.0,0.458175
2455.0,0.471864
2460.0,0.477237
2465.0,0.464917
2470.0,0.447873
2475.0,0.422684
2480.0,0.399254
2485.0,0.3943
2490.0,0.39448
2495.0,0.383579
2500.0,0.365833
2505.0,0.347615
2510.0,0.34209
2515.0,0.349977
2520.0,0.368896
2525.15,0.384824
2530.08,0.393687
2535.03,0.40162
2540.0,0.393906
2544.99,0.397266
2549.99,0.396647
2552.5,0.395224
2553.76,0.393713
2556.28,0.391052
2558.8,0.389145
2561.33,0.388204
2563.86,0.392216
2565.13,0.394766
2566.4,0.398406
2567.67,0.401118
2568.95,0.4024
2570.22,0.404486
2571.5,0.407065
2572.77,0.407291
2574.05,0.406593
2575.33,0.409315
2576.61,0.409914
2577.89,0.410576
2579.17,0.412916
2580.46,0.413659
2581.74,0.413419
2583.03,0.414904
2584.31,0.414337
2585.6,0.417021
2586.89,0.417527
2588.19,0.418471
2589.48,0.421256
2590.77,0.423714
2592.07,0.424951
2593.36,0.425049
2594.66,0.42325
2595.96,0.425378
2597.26,0.429866
2598.56,0.430661
2599.87,0.430637
2601.17,0.431006
2602.48,0.430613
2603.78,0.43033
2605.09,0.428839
2606.4,0.429023
2607.71,0.430378
2609.03,0.431258
2610.34,0.430988
2611.66,0.431795
2612.97,0.431977
2614.29,0.432394
2615.61,0.432077
2616.93,0.430437
2618.25,0.432291
2619.57,0.434767
2620.9,0.434452
2622.22,0.437723
2623.55,0.438787
2624.88,0.43871
2626.21,0.437538
2627.54,0.436599
2628.87,0.436747
2630.21,0.43532
2631.54,0.435936
2632.88,0.43822
2634.21,0.43668
2635.55,0.435823
2636.89,0.435344
2638.24,0.434608
2639.58,0.433242
2640.92,0.430931
2642.27,0.427537
2643.62,0.424559
2644.97,0.420207
2646.32,0.414032
2647.67,0.408419
2649.02,0.403645
2650.38,0.399472
2651.73,0.396199
2653.09,0.394488
2654.45,0.396025
2655.81,0.396312
2657.17,0.397371
2658.53,0.397938
2659.89,0.397337
2661.26,0.397325
2662.63,0.397523
2664.0,0.396056
2665.36,0.392587
2666.74,0.389254
2668.11,0.387294
2669.48,0.38322
2670.86,0.374544
2672.23,0.363071
2673.61,0.347344
2674.99,0.324896
2676.37,0.301552
2677.76,0.281998
2679.14,0.271168
2680.52,0.265329
2681.91,0.262278
2683.3,0.257019
2684.69,0.251392
2686.08,0.244943
2687.47,0.238807
2688.87,0.231066
2690.26,0.222771
2691.66,0.210733
2693.06,0.195004
2694.46,0.172197
2695.86,0.139006
2697.26,0.097888
2698.66,0.058082
2700.07,0.029914
2701.48,0.018729
2702.89,0.016433
2704.3,0.014502
2705.71,0.011988
2707.12,0.009512
2708.53,0.007785
2709.95,0.007147
2711.37,0.006992
2712.79,0.008172
2714.21,0.009264
2715.63,0.010186
2717.05,0.011588
2718.48,0.013665
2719.9,0.017105
2721.33,0.02157
2722.76,0.026502
2724.19,0.029603
2725.62,0.031885
2727.06,0.032753
2728.49,0.032866
2729.93,0.03358
2731.37,0.034631
2732.81,0.035586
2734.25,0.036
2735.69,0.03586
2737.14,0.035332
2738.58,0.034654
2740.03,0.033897
2741.48,0.033445
2742.93,0.034107
2744.38,0.035967
2745.83,0.038992
2747.29,0.043379
2748.75,0.049434
2750.2,0.05712
2751.66,0.065913
2753.13,0.075026
2754.59,0.083503
2756.05,0.091198
2757.52,0.099734
2758.99,0.105351
2760.46,0.109655
2761.93,0.113001
2763.4,0.116157
2764.87,0.118899
2766.35,0.119526
2767.82,0.118181
2769.3,0.116506
2770.78,0.11424
2772.26,0.11205
2773.75,0.110688
2775.23,0.110624
2776.72,0.111707
2778.21,0.113836
2779.7,0.116843
2781.19,0.120057
2782.68,0.122749
2784.18,0.125406
2785.67,0.127382
2787.17,0.128724
2788.67,0.129634
2790.17,0.13041
2791.67,0.13102
2793.18,0.131066
2794.68,0.130889
2796.19,0.129811
2797.7,0.127739
2799.21,0.125207
2800.72,0.121877
2802.24,0.117979
2803.75,0.113751
2805.27,0.110224
2806.79,0.107783
2808.31,0.106814
2809.83,0.106443
2811.35,0.106602
2812.88,0.107761
2814.41,0.109764
2815.93,0.111935
2817.46,0.113917
2819.0,0.116508
2820.53,0.119502
2822.07,0.122006
2823.6,0.12495
2825.14,0.128808
2826.68,0.132535
2828.22,0.135479
2829.77,0.138706
2831.31,0.142168
2832.86,0.145816
2834.41,0.14901
2835.96,0.152106
2837.51,0.155001
2839.07,0.157907
2840.62,0.160256
2842.18,0.162715
2843.74,0.164739
2845.3,0.166497
2846.86,0.168204
2848.43,0.169287
2849.99,0.17023
2851.56,0.172197
2853.13,0.173557
2854.7,0.174382
2856.27,0.175389
2857.85,0.177163
2859.42,0.179273
2861.0,0.181293
2862.58,0.183511
2864.16,0.186386
2865.75,0.189584
2867.33,0.192314
2868.92,0.19471
2870.51,0.197537
2872.1,0.200028
2873.69,0.201986
2875.28,0.203693
2876.88,0.205045
2878.48,0.205717
2880.07,0.206153
2881.68,0.206613
2883.28,0.207188
2884.88,0.207236
2886.49,0.206915
2888.1,0.206707
2889.71,0.206871
2891.32,0.206479
2892.93,0.206177
2894.55,0.205765
2896.16,0.205475
2897.78,0.205452
2899.4,0.204742
2901.03,0.203251
2902.65,0.202317
2904.28,0.201536
2905.91,0.200561
2907.54,0.199649
2909.17,0.199064
2910.8,0.198547
2912.44,0.198027
2914.07,0.197185
2915.71,0.196215
2917.35,0.195854
2918.99,0.195892
2920.64,0.196001
2922.29,0.195704
2923.93,0.195599
2925.58,0.195747
2927.24,0.195662
2928.89,0.195729
2930.55,0.195733
2932.2,0.195601
2933.86,0.195729
2935.52,0.196041
2937.19,0.196217
2938.85,0.196766
2940.52,0.197532
2942.19,0.198134
2943.86,0.198719
2945.53,0.199276
2947.21,0.199974
2948.88,0.200801
2950.56,0.202117
2952.24,0.203582
2953.92,0.204952
2955.61,0.206177
2957.29,0.207178
2958.98,0.208402
2960.67,0.210263
2962.36,0.212218
2964.06,0.213856
2965.75,0.215172
2967.45,0.216897
2969.15,0.218721
2970.85,0.21971
2972.55,0.220614
2974.26,0.221895
2975.97,0.223455
2977.68,0.224795
2979.39,0.22582
2981.1,0.226663
2982.82,0.227705
2984.53,0.229166
2986.25,0.230316
2987.97,0.231022
2989.7,0.231847
2991.42,0.232868
2993.15,0.233716
2994.88,0.234444
2996.61,0.235039
2998.34,0.235429
3000.08,0.236256
3001.82,0.237406
3003.55,0.238058
3005.3,0.238623
3007.04,0.239573
3008.78,0.240399
3010.53,0.241105
3012.28,0.241696
3014.03,0.242096
3015.79,0.242546
3017.54,0.242931
3019.3,0.2435
3021.06,0.244325
3022.82,0.244987
3024.58,0.245649
3026.35,0.246391
3028.12,0.247445
3029.89,0.248119
3031.66,0.248581
3033.43,0.249186
3035.21,0.249509
3036.99,0.250215
3038.77,0.251103
3040.55,0.251977
3042.33,0.252919
3044.12,0.253867
3045.91,0.254664
3047.7,0.255274
3049.49,0.256218
3051.29,0.257449
3053.08,0.258448
3054.88,0.259348
3056.68,0.260445
3058.49,0.261725
3060.29,0.263095
3062.1,0.264009
3063.91,0.264782
3065.72,0.265873
3067.54,0.266685
3069.35,0.267572
3071.17,0.268472
3072.99,0.269039
3074.81,0.26953
3076.64,0.269986
3078.47,0.27046
3080.29,0.270793
3082.13,0.271227
3083.96,0.271689
3085.79,0.271997
3087.63,0.271901
3089.47,0.271594
3091.31,0.27161
3093.16,0.271935
3095.01,0.272129
3096.85,0.272467
3098.71,0.272766
3100.56,0.273196
3102.41,0.273743
3104.27,0.274481
3106.13,0.275129
3107.99,0.275615
3109.86,0.276007
3111.73,0.276396
3113.59,0.276459
3115.47,0.276648
3117.34,0.27704
3119.21,0.277645
3121.09,0.278146
3122.97,0.278515
3124.86,0.278473
3126.74,0.2787
3128.63,0.279157
3130.52,0.279572
3132.41,0.280157
3134.3,0.280936
3136.2,0.281422
3138.1,0.281856
3140.0,0.282631
3141.9,0.283699
3143.81,0.284734
3145.71,0.285759
3147.62,0.286973
3149.54,0.288202
3151.45,0.288977
3153.37,0.289996
3155.29,0.291251
3157.21,0.292317
3159.13,0.293041
3161.06,0.29359
3162.99,0.294274
3164.92,0.295255
3166.85,0.296324
3168.79,0.297232
3170.72,0.297862
3172.67,0.298673
3174.61,0.299415
3176.55,0.300311
3178.5,0.301372
3180.45,0.302406
3182.4,0.303168
3184.36,0.303822
3186.32,0.304688
3188.27,0.305852
3190.24,0.306829
3192.2,0.307626
3194.17,0.308409
3196.14,0.308996
3198.11,0.309948
3200.08,0.310786
3202.06,0.311433
3204.04,0.312012
3206.02,0.312737
3208.0,0.313413
3209.99,0.313536
3211.98,0.313748
3213.97,0.314268
3215.96,0.314022
3217.96,0.313082
3219.96,0.312388
3221.96,0.311928
3223.96,0.311554
3225.97,0.311455
3227.98,0.311332
3229.99,0.311145
3232.0,0.311183
3234.02,0.311508
3236.04,0.312075
3238.06,0.312759
3240.08,0.313439
3242.11,0.31451
3244.14,0.315749
3246.17,0.316627
3248.2,0.3174
3250.24,0.318247
3252.28,0.319095
3254.32,0.320019
3256.37,0.32083
3258.41,0.321577
3260.46,0.322128
3262.51,0.322569
3264.57,0.323256
3266.63,0.323841
3268.69,0.324353
3270.75,0.324999
3272.81,0.325858
3274.88,0.326355
3276.95,0.326817
3279.02,0.327755
3281.1,0.329077
3283.18,0.329896
3285.26,0.33061
3287.34,0.331533
3289.43,0.332604
3291.51,0.333659
3293.61,0.334654
3295.7,0.335481
3297.8,0.336228
3299.9,0.337303
3302.0,0.338684
3304.1,0.339709
3306.21,0.340576
3308.32,0.341741
3310.43,0.342848
3312.55,0.343744
3314.66,0.344894
3316.79,0.346133
3318.91,0.347007
3321.03,0.347911
3323.16,0.349087
3325.29,0.350451
3327.43,0.351246
3329.57,0.35215
3331.71,0.353518
3333.85,0.354449
3335.99,0.355339
3338.14,0.356251
3340.29,0.357031
3342.45,0.357998
3344.6,0.35885
3346.76,0.359558
3348.92,0.359869
3351.09,0.360212
3353.26,0.36071
3355.43,0.360952
3357.6,0.361212
3359.78,0.361231
3361.96,0.360982
3364.14,0.360835
3366.32,0.360833
3368.51,0.36054
3370.7,0.36021
3372.89,0.35985
3375.09,0.359582
3377.29,0.359711
3379.49,0.359923
3381.69,0.360169
3383.9,0.36071
3386.11,0.361342
3388.32,0.36203
3390.54,0.362738
3392.76,0.362962
3394.98,0.363127
3397.21,0.363323
3399.43,0.363069
3401.66,0.362383
3403.9,0.361529
3406.13,0.360385
3408.37,0.358959
3410.61,0.35757
3412.86,0.357044
3415.11,0.35729
3417.36,0.358186
3419.61,0.359808
3421.87,0.362026
3424.13,0.364372
3426.39,0.36683
3428.66,0.369221
3430.93,0.371511
3433.2,0.373628
3435.48,0.375638
3437.76,0.377702
3440.04,0.379615
3442.32,0.38135
3444.61,0.382855
3446.9,0.384328
3449.19,0.385834
3451.49,0.386939
3453.79,0.388344
3456.09,0.389871
3458.4,0.390902
3460.7,0.391685
3463.02,0.392416
3465.33,0.393106
3467.65,0.393967
3469.97,0.394468
3472.29,0.394877
3474.62,0.395301
3476.95,0.395791
3479.29,0.396038
3481.62,0.396435
3483.96,0.397087
3486.3,0.397551
3488.65,0.398277
3491.0,0.398963
3493.35,0.399121
3495.71,0.399357
3498.07,0.399629
3500.43,0.400021
3502.79,0.401078
3505.16,0.402101
3507.53,0.403219
3509.91,0.404561
3512.29,0.406044
3514.67,0.407624
3517.05,0.40896
3519.44,0.41063
3521.83,0.412462
3524.23,0.414357
3526.62,0.416484
3529.02,0.418697
3531.43,0.420606
3533.83,0.422658
3536.24,0.4246
3538.66,0.426444
3541.08,0.427872
3543.5,0.429347
3545.92,0.431036
3548.35,0.432497
3550.78,0.433508
3553.21,0.434315
3555.65,0.435028
3558.09,0.435697
3560.53,0.436474
3562.98,0.437269
3565.43,0.438
3567.88,0.438668
3570.34,0.438928
3572.8,0.438894
3575.27,0.438992
3577.73,0.438958
3580.2,0.43868
3582.68,0.438202
3585.16,0.437162
3587.64,0.436363
3590.12,0.435748
3592.61,0.43511
3595.1,0.434249
3597.6,0.432877
3600.09,0.430469
3602.6,0.427106
3605.1,0.422985
3607.61,0.418247
3610.12,0.414222
3612.64,0.411722
3615.16,0.411431
3617.68,0.413613
3620.21,0.418021
3622.74,0.424073
3625.27,0.429801
3627.81,0.434608
3630.35,0.438427
3632.89,0.441499
3635.44,0.444386
3637.99,0.447096
3640.54,0.449033
3643.1,0.450847
3645.66,0.452457
3648.23,0.453688
3650.8,0.454554
3653.37,0.455492
3655.95,0.456277
3658.53,0.456828
3661.11,0.457082
3663.7,0.457326
3666.29,0.457532
3668.89,0.458224
3671.48,0.458896
3674.09,0.459098
3676.69,0.459035
3679.3,0.458737
3681.91,0.458226
3684.53,0.45772
3687.15,0.456634
3689.78,0.455228
3692.4,0.454209
3695.04,0.453831
3697.67,0.454108
3700.31,0.45554
3702.95,0.457358
3705.6,0.458186
3708.25,0.457845
3710.91,0.456648
3713.56,0.454467
3716.23,0.451277
3718.89,0.448864
3721.56,0.44873
3724.23,0.449441
3726.91,0.449092
3729.59,0.447247
3732.28,0.446743
3734.97,0.449717
3737.66,0.454808
3740.36,0.459199
3743.06,0.46209
3745.76,0.463842
3748.47,0.465462
3751.18,0.467302
3753.9,0.468858
3756.62,0.470295
3759.34,0.471418
3762.07,0.472579
3764.8,0.473709
3767.54,0.474429
3770.28,0.474923
3773.02,0.475539
3775.77,0.476291
3778.52,0.477129
3781.28,0.477777
3784.04,0.47819
3786.8,0.47881
3789.57,0.479403
3792.34,0.479669
3795.12,0.479827
3797.9,0.480369
3800.69,0.48085
3803.47,0.481173
3806.27,0.481372
3809.06,0.481951
3811.86,0.48264
3814.67,0.483192
3817.48,0.483501
3820.29,0.483897
3823.11,0.48428
3825.93,0.484454
3828.76,0.484702
3831.59,0.485198
3834.42,0.485543
3837.26,0.486046
3840.1,0.486352
3842.95,0.486649
3845.8,0.486978
3848.65,0.487385
3851.51,0.487603
3854.38,0.488081
3857.24,0.488324
3860.12,0.488655
3862.99,0.488981
3865.87,0.489476
3868.76,0.489839
3871.65,0.49015
3874.54,0.490533
3877.44,0.490872
3880.34,0.491157
3883.25,0.491615
3886.16,0.491776
3889.07,0.491835
3891.99,0.492093
3894.92,0.492593
3897.85,0.492874
3900.78,0.493134
3903.72,0.493255
3906.66,0.493701
3909.6,0.49421
3912.55,0.494421
3915.51,0.49475
3918.47,0.495196
3921.43,0.495315
3924.4,0.495293
3927.38,0.495362
3930.35,0.495719
3933.33,0.495892
3936.32,0.496068
3939.31,0.496256
3942.31,0.49631
3945.31,0.496546
3948.31,0.496835
3951.32,0.497002
3954.34,0.49739
3957.35,0.497733
3960.38,0.498134
3963.41,0.498072
3966.44,0.498179
3969.48,0.498201
3972.52,0.498399
3975.56,0.49856
3978.61,0.498723
3981.67,0.498947
3984.73,0.499192
3987.8,0.499341
3990.87,0.499761
3993.94,0.500136
3997.02,0.500164
4000.1,0.500096
4003.19,0.500578
4006.29,0.500773
4009.39,0.500818
4012.49,0.501022
4015.6,0.501407
4018.71,0.501294
4021.83,0.50134
4024.95,0.501516
4028.08,0.501758
4031.21,0.501694
4034.35,0.502039
4037.49,0.502287
4040.64,0.502622
4043.79,0.502876
4046.94,0.503072
4050.11,0.503068
4053.27,0.503263
4056.44,0.503338
4059.62,0.503613
4062.8,0.503951
4065.99,0.504066
4069.18,0.504066
4072.38,0.504383
4075.58,0.50442
4078.78,0.504658
4082.0,0.504845
4085.21,0.504759
4088.43,0.504619
4091.66,0.504868
4094.89,0.505205
4098.13,0.505429
4101.37,0.505332
4104.62,0.505451
4107.87,0.505598
4111.13,0.505701
4114.39,0.505646
4117.66,0.505759
4120.93,0.505927
4124.21,0.506163
4127.5,0.506292
4130.79,0.506474
4134.08,0.506395
4137.38,0.50645
4140.68,0.506573
4143.99,0.506768
4147.31,0.506768
4150.63,0.506809
4153.95,0.50675
4157.29,0.506849
4160.62,0.507089
4163.96,0.507471
4167.31,0.507592
4170.66,0.507795
4174.02,0.507937
4177.39,0.508165
4180.75,0.508167
4184.13,0.508272
4187.51,0.508227
4190.89,0.508342
4194.28,0.508328
4197.68,0.508453
4201.08,0.508492
4204.49,0.508272
4207.9,0.508078
4211.32,0.508197
4214.74,0.508054
4218.17,0.507828
4221.61,0.507462
4225.05,0.507241
4228.5,0.507263
4231.95,0.507577
4235.4,0.507654
4238.87,0.507826
4242.34,0.507874
4245.81,0.508209
4249.29,0.508552
4252.78,0.509004
4256.27,0.509165
4259.77,0.509069
4263.27,0.508619
4266.78,0.508278
4270.29,0.508058
4273.81,0.508266
4277.34,0.508292
4280.87,0.508237
4284.41,0.508203
4287.95,0.508429
4291.5,0.508457
4295.06,0.508633
4298.62,0.508699
4302.19,0.508931
4305.76,0.509107
4309.34,0.509248
4312.92,0.509252
4316.52,0.509482
4320.11,0.509819
4323.72,0.510166
4327.32,0.510166
4330.94,0.510285
4334.56,0.510245
4338.19,0.510269
4341.82,0.510362
4345.46,0.510523
4349.11,0.510612
4352.76,0.510693
4356.42,0.510602
4360.08,0.51098
4363.75,0.511032
4367.43,0.510808
4371.11,0.510701
4374.8,0.511072
4378.49,0.511145
4382.19,0.511173
4385.9,0.511139
4389.61,0.511415
4393.33,0.511506
4397.06,0.51151
4400.79,0.511389
4404.53,0.511494
4408.28,0.511548
4412.03,0.51146
4415.79,0.511393
4419.55,0.511589
4423.32,0.511781
4427.1,0.511954
4430.88,0.511954
4434.68,0.512011
4438.47,0.511734
4442.28,0.511631
4446.08,0.511589
4449.9,0.511579
4453.72,0.5117
4457.55,0.511643
4461.39,0.511393
4465.23,0.511347
4469.08,0.51102
4472.94,0.510984
4476.8,0.510824
4480.67,0.510578
4484.55,0.510322
4488.43,0.510326
4492.32,0.510088
4496.21,0.509761
4500.12,0.50927
4504.03,0.509012
4507.94,0.508621
4511.87,0.508102
4515.8,0.507337
4519.73,0.506851
4523.68,0.506274
4527.63,0.505661
4531.59,0.505021
4535.55,0.504704
4539.52,0.504083
4543.5,0.503485
4547.49,0.502765
4551.48,0.502238
4555.48,0.501629
4559.49,0.501205
4563.5,0.500683
4567.52,0.500053
4571.55,0.499537
4575.58,0.499244
4579.63,0.498624
4583.67,0.497932
4587.73,0.497224
4591.79,0.496873
4595.86,0.496373
4599.94,0.496062
4604.03,0.495511
4608.12,0.494841
4612.22,0.49405
4616.33,0.493526
4620.44,0.492918
4624.56,0.492224
4628.69,0.491542
4632.83,0.491153
4636.97,0.490529
4641.12,0.490297
4645.28,0.490063
4649.45,0.48976
4653.62,0.489024
4657.8,0.488693
4661.99,0.488398
4666.19,0.488088
4670.39,0.487593
4674.6,0.487299
4678.82,0.486841
4683.05,0.486469
4687.28,0.485947
4691.52,0.485604
4695.77,0.484998
4700.03,0.484328
4704.3,0.48362
4708.57,0.483031
4712.85,0.481875
4717.14,0.480577
4721.43,0.479127
4725.74,0.477563
4730.05,0.475622
4734.37,0.473662
4738.7,0.47133
4743.03,0.468826
4747.38,0.465878
4751.73,0.462776
4756.09,0.459475
4760.45,0.455912
4764.83,0.452019
4769.21,0.448192
4773.6,0.444166
4778.0,0.440264
4782.41,0.436297
4786.83,0.432872
4791.25,0.42965
4795.68,0.426597
4800.13,0.423952
4804.57,0.422257
4809.03,0.421107
4813.5,0.420792
4817.97,0.421236
4822.45,0.422549
4826.94,0.424287
4831.44,0.426611
4835.95,0.429037
4840.46,0.431329
4844.99,0.433337
4849.52,0.435298
4854.06,0.436807
4858.61,0.437905
4863.17,0.438312
4867.73,0.43828
4872.31,0.437804
4876.89,0.436831
4881.48,0.435165
4886.08,0.433405
4890.69,0.431062
4895.31,0.428288
4899.94,0.425169
4904.57,0.422218
4909.22,0.419212
4913.87,0.416211
4918.53,0.413596
4923.21,0.41155
4927.88,0.410007
4932.57,0.409299
4937.27,0.409069
4941.98,0.409412
4946.69,0.40969
4951.42,0.409728
4956.15,0.409357
4960.9,0.408891
4965.65,0.408048
4970.41,0.4067
4975.18,0.404863
4979.96,0.402803
4984.75,0.400594
4989.54,0.3986
4994.35,0.396669
4999.17,0.395144
5003.99,0.393893
5008.83,0.393162
5013.67,0.392634
5018.52,0.392264
5023.39,0.392307
5028.26,0.393081
5033.14,0.393804
5038.03,0.395013
5042.93,0.396076
5047.84,0.39723
5052.76,0.398378
5057.69,0.399684
5062.63,0.400804
5067.58,0.402006
5072.54,0.40311
5077.51,0.404242
5082.49,0.405174
5087.47,0.406385
5092.47,0.407481
5097.48,0.408449
5102.5,0.409206
5107.52,0.410271
5112.56,0.411224
5117.61,0.412093
5122.66,0.413017
5127.73,0.414212
5132.81,0.415156
5137.89,0.416339
5142.99,0.417295
5148.1,0.418395
5153.22,0.420011
5158.34,0.422063
5163.48,0.423732
5168.63,0.425503
5173.79,0.427055
5178.96,0.428532
5184.13,0.429723
5189.32,0.430929
5194.52,0.431706
5199.73,0.432261
5204.96,0.432493
5210.19,0.432499
5215.43,0.431684
5220.68,0.431668
5225.94,0.431026
5231.22,0.429779
5236.5,0.428389
5241.79,0.427071
5247.1,0.425489
5252.42,0.423802
5257.74,0.421722
5263.08,0.41972
5268.43,0.417604
5273.79,0.41516
5279.16,0.412287
5284.54,0.409777
5289.93,0.407002
5295.34,0.40427
5300.75,0.401615
5306.18,0.398715
5311.61,0.395444
5317.06,0.392208
5322.52,0.388679
5327.99,0.385289
5333.47,0.381723
5338.96,0.377958
5344.47,0.373872
5349.98,0.369623
5355.51,0.365625
5361.05,0.362417
5366.6,0.359116
5372.16,0.356045
5377.73,0.353317
5383.32,0.351115
5388.91,0.349229
5394.52,0.347984
5400.14,0.346957
5405.77,0.346321
5411.41,0.345881
5417.07,0.345693
5422.74,0.34504
5428.41,0.345145
5434.1,0.345296
5439.81,0.344937
5445.52,0.34444
5451.25,0.344101
5456.98,0.343651
5462.73,0.342796
5468.5,0.341682
5474.27,0.341299
5480.06,0.340403
5485.86,0.339634
5491.67,0.338789
5497.49,0.337772
5503.33,0.33667
5509.18,0.335368
5515.04,0.333901
5520.91,0.332545
5526.8,0.331218
5532.69,0.330041
5538.61,0.328724
5544.53,0.327426
5550.47,0.325982
5556.41,0.324726
5562.38,0.323927
5568.35,0.323522
5574.34,0.322977
5580.34,0.322333
5586.35,0.322499
5592.38,0.323094
5598.42,0.322876
5604.47,0.322543
5610.54,0.322257
5616.61,0.321627
5622.71,0.320969
5628.81,0.320653
5634.93,0.319739
5641.06,0.318451
5647.21,0.317337
5653.36,0.317129
5659.54,0.316145
5665.72,0.315186
5671.92,0.313554
5678.13,0.311621
5684.36,0.310081
5690.6,0.308691
5696.85,0.307043
5703.12,0.306001
5709.4,0.304407
5715.69,0.302902
5722.0,0.301746
5728.33,0.300977
5734.66,0.299795
5741.01,0.298614
5747.38,0.297359
5753.76,0.29632
5760.15,0.295436
5766.56,0.293614
5772.98,0.292407
5779.41,0.292274
5785.86,0.291245
5792.33,0.29064
5798.81,0.289869
5805.3,0.289102
5811.81,0.288434
5818.33,0.287415
5824.87,0.28572
5831.42,0.285218
5837.99,0.284712
5844.57,0.284126
5851.17,0.282809
5857.78,0.281431
5864.41,0.279518
5871.05,0.277924
5877.7,0.275908
5884.38,0.273194
5891.06,0.271616
5897.76,0.269973
5904.48,0.268248
5911.21,0.266884
5917.96,0.264673
5924.73,0.262508
5931.5,0.260088
5938.3,0.257645
5945.11,0.255913
5951.93,0.255183
5958.78,0.253803
5965.63,0.252602
5972.51,0.25122
5979.39,0.250796
5986.3,0.250173
5993.22,0.2501
6000.16,0.250853
6007.11,0.251652
6014.08,0.251757
6021.06,0.252366
6028.06,0.252998
6035.08,0.252881
6042.12,0.251999
6049.17,0.25027
6056.23,0.248617
6063.32,0.248088
6070.42,0.245956
6077.53,0.243863
6084.67,0.242279
6091.82,0.240873
6098.98,0.239085
6106.17,0.237432
6113.37,0.235057
6120.58,0.232743
6127.82,0.230889
6135.07,0.229091
6142.34,0.226736
6149.63,0.22428
6156.93,0.221641
6164.25,0.21903
6171.59,0.2165
6178.95,0.21429
6186.32,0.211524
6193.71,0.208953
6201.12,0.206756
6208.54,0.204579
6215.99,0.201861
6223.45,0.199215
6230.93,0.196382
6238.43,0.193406
6245.95,0.189907
6253.48,0.18632
6261.03,0.18272
6268.6,0.179223
6276.19,0.175827
6283.8,0.173097
6291.43,0.171004
6299.07,0.169802
6306.73,0.168843
6314.42,0.167865
6322.12,0.166622
6329.84,0.165326
6337.57,0.163964
6345.33,0.162699
6353.11,0.162007
6360.9,0.162056
6368.72,0.162064
6376.55,0.162627
6384.4,0.163855
6392.27,0.165038
6400.17,0.166337
6408.08,0.167556
6416.01,0.168089
6423.96,0.169705
6431.93,0.171799
6439.92,0.173402
6447.93,0.175292
6455.96,0.177126
6464.01,0.179275
6472.08,0.181251
6480.17,0.18325
6488.28,0.185508
6496.41,0.188123
6504.56,0.192093
6512.73,0.196068
6520.92,0.198652
6529.14,0.202085
6537.37,0.205824
6545.63,0.208957
6553.9,0.211867
6562.2,0.215031
6570.51,0.217376
6578.85,0.219585
6587.21,0.222464
6595.59,0.224418
6603.99,0.226226
6612.42,0.227892
6620.86,0.229075
6629.33,0.229926
6637.82,0.229777
6646.33,0.230437
6654.86,0.231823
6663.41,0.232479
6671.99,0.232336
6680.59,0.231906
6689.21,0.231553
6697.85,0.2317
6706.51,0.231411
6715.2,0.230471
6723.91,0.229622
6732.64,0.229053
6741.4,0.228401
6750.18,0.227529
6758.98,0.226393
6767.8,0.225416
6776.65,0.224399
6785.52,0.223407
6794.41,0.222547
6803.33,0.222485
6812.27,0.222874
6821.23,0.22312
6830.22,0.223241
6839.23,0.223742
6848.26,0.223952
6857.32,0.223629
6866.4,0.22286
6875.51,0.222705
6884.64,0.222707
6893.8,0.222075
6902.98,0.221048
6912.18,0.220013
6921.41,0.219056
6930.66,0.217842
6939.94,0.216639
6949.24,0.215305
6958.57,0.213667
6967.92,0.211934
6977.3,0.211046
6986.7,0.210281
6996.13,0.209078
7005.59,0.207702
7015.07,0.206354
7024.57,0.204611
7034.1,0.202579
7043.66,0.200259
7053.25,0.197252
7062.85,0.194389
7072.49,0.192105
7082.15,0.189875
7091.84,0.188345
7101.55,0.187645
7111.3,0.187506
7121.06,0.187524
7130.86,0.187829
7140.68,0.188376
7150.53,0.189011
7160.41,0.190034
7170.31,0.191195
7180.24,0.192609
7190.2,0.194385
7200.19,0.195603
7210.2,0.196409
7220.24,0.196972
7230.31,0.197484
7240.41,0.197413
7250.54,0.196889
7260.69,0.195979
7270.88,0.194936
7281.09,0.193705
7291.33,0.192296
7301.6,0.190781
7311.9,0.188987
7322.22,0.18612
7332.58,0.18318
7342.97,0.182387
7353.38,0.182928
7363.83,0.182677
7374.3,0.181093
7384.81,0.178527
7395.34,0.175647
7405.91,0.17319
7416.5,0.171348
7427.13,0.169237
7437.78,0.166763
7448.47,0.163995
7459.19,0.161396
7469.94,0.159416
7480.71,0.158423
7491.52,0.157861
7502.37,0.157215
7513.24,0.156488
7524.14,0.156085
7535.08,0.155266
7546.05,0.154148
7557.05,0.153074
7568.08,0.152114
7579.15,0.150869
7590.24,0.149632
7601.37,0.148334
7612.53,0.146944
7623.73,0.14559
7634.96,0.144622
7646.22,0.143685
7657.51,0.142765
7668.84,0.141898
7680.2,0.141202
7691.59,0.140497
7703.02,0.140187
7714.49,0.139884
7725.98,0.13949
7737.52,0.138936
7749.08,0.138433
7760.68,0.137674
7772.32,0.136571
7783.99,0.135096
7795.69,0.133496
7807.43,0.131696
7819.21,0.129858
7831.02,0.127816
7842.87,0.125939
7854.75,0.123849
7866.67,0.121802
7878.62,0.119676
7890.62,0.117668
7902.64,0.115664
7914.71,0.113743
7926.81,0.111643
7938.95,0.109536
7951.13,0.107248
7963.34,0.105014
7975.59,0.102716
7987.88,0.100648
8000.21,0.098471
8012.57,0.09657
8024.98,0.094488
8037.42,0.092468
8049.9,0.090315
8062.42,0.088186
8074.98,0.085886
8087.57,0.083811
8100.21,0.081568
8112.89,0.079445
8125.6,0.077199
8138.36,0.074977
8151.16,0.07256
8163.99,0.070302
8176.87,0.068024
8189.79,0.065673
8202.75,0.063206
8215.75,0.060972
8228.79,0.058603
8241.87,0.056442
8254.99,0.054053
8268.16,0.051956
8281.37,0.04988
8294.62,0.047965
8307.91,0.045893
8321.24,0.044162
8334.62,0.042382
8348.04,0.040725
8361.51,0.038843
8375.02,0.037043
8388.57,0.035088
8402.16,0.033459
8415.8,0.031748
8429.49,0.029964
8443.22,0.028084
8456.99,0.026564
8470.81,0.024777
8484.67,0.022858
8498.58,0.020753
8512.54,0.01887
8526.54,0.016933
8540.58,0.01514
8554.68,0.013142
8568.82,0.011378
8583.0,0.009504
8597.24,0.007938
8611.52,0.006421
8625.85,0.005244
8640.23,0.004272
8654.65,0.003533
8669.12,0.002563
8683.64,0.002058
8698.21,0.001834
8712.83,0.001879
8727.5,0.002046
8742.22,0.002891
8756.99,0.003931
8771.8,0.005585
8786.67,0.007508
8801.59,0.010194
8816.56,0.01355
8831.58,0.018297
8846.65,0.023818
8861.77,0.030083
8876.94,0.036952
8892.17,0.044751
8907.45,0.052971
8922.78,0.061501
8938.16,0.069673
8953.6,0.07757
8969.09,0.084762
8984.64,0.090317
9000.23,0.09301
9015.89,0.093198
9031.59,0.090533
9047.36,0.085179
9063.17,0.07801
9079.05,0.071037
9094.97,0.064559
9110.96,0.059166
9127.0,0.05552
9143.1,0.053554
9159.25,0.052114
9175.46,0.051551
9191.73,0.050901
9208.06,0.049561
9224.44,0.047553
9240.88,0.045594
9257.38,0.043225
9273.94,0.041163
9290.56,0.03856
9307.24,0.036042
9323.98,0.034067
9340.78,0.032811
9357.64,0.03193
9374.57,0.031203
9391.55,0.030691
9408.59,0.03104
9425.7,0.031839
9442.87,0.033417
9460.1,0.035414
9477.4,0.037876
9494.75,0.040901
9512.17,0.044121
9529.66,0.04648
9547.21,0.048488
9564.83,0.049757
9582.5,0.050691
9600.25,0.051
9618.06,0.051303
9635.94,0.051137
9653.88,0.050986
9671.89,0.050657
9689.97,0.050316
9708.12,0.049799
9726.33,0.049595
9744.62,0.049347
9762.97,0.049244
9781.39,0.04919
9799.88,0.049523
9818.44,0.049737
9837.07,0.049862
9855.77,0.050175
9874.54,0.051026
9893.39,0.051849
9912.3,0.05278
9931.29,0.053365
9950.36,0.05391
9969.49,0.054438
9988.7,0.055134
10007.98,0.055534
10027.34,0.055893
10046.77,0.056305
10066.28,0.056664
10085.87,0.056757
10105.53,0.056912
10125.26,0.056817
10145.08,0.056634
10164.97,0.05623
10184.94,0.05605
10204.99,0.055724
10225.12,0.055193
10245.33,0.054592
10265.61,0.054134
10285.98,0.05347
10306.43,0.053078
10326.96,0.052372
10347.57,0.051605
10368.27,0.050578
10389.05,0.049598
10409.91,0.048562
10430.86,0.047531
10451.88,0.046472
10473.0,0.045326
10494.2,0.043994
10515.49,0.042519
10536.86,0.041113
10558.32,0.040082
10579.87,0.039042
10601.5,0.03836
10623.23,0.037808
10645.04,0.037501
10666.94,0.037174
10688.94,0.037273
10711.02,0.037432
10733.2,0.037701
10755.47,0.038316
10777.83,0.039902
10800.28,0.042283
10822.83,0.045156
10845.47,0.048157
10868.21,0.051282
10891.04,0.054228
10913.97,0.057193
10936.99,0.06029
10960.12,0.063944
10983.34,0.067828
11006.66,0.071727
11030.07,0.075577
11053.59,0.080123
11077.21,0.084663
11100.93,0.088862
11124.75,0.092748
11148.68,0.096217
11172.71,0.099804
11196.84,0.103473
11221.07,0.106604
11245.41,0.109421
11269.86,0.112206
11294.41,0.114926
11319.07,0.116982
11343.84,0.118935
11368.72,0.120779
11393.7,0.12248
11418.8,0.123691
11444.01,0.124813
11469.33,0.125675
11494.76,0.126554
11520.3,0.12714
11545.96,0.127713
11571.73,0.128126
11597.62,0.128171
11623.62,0.128227
11649.74,0.128257
11675.98,0.128108
11702.34,0.127926
11728.81,0.12791
11755.41,0.12737
11782.13,0.126954
11808.96,0.126982
11835.92,0.126496
11863.01,0.125917
11890.22,0.125342
11917.55,0.124573
11945.01,0.123742
11972.6,0.123215
12000.31,0.122739
12028.16,0.121873
12056.13,0.120642
12084.23,0.119702
12112.46,0.118614
12140.83,0.117204
12169.33,0.116147
12197.96,0.114849
12226.73,0.113061
12255.64,0.111847
12284.68,0.110345
12313.86,0.108628
12343.18,0.107127
12372.64,0.105692
12402.24,0.104574
12431.98,0.104159
12461.86,0.104032
12491.89,0.103693
12522.07,0.103402
12552.38,0.102942
12582.85,0.101965
12613.47,0.101074
12644.23,0.099752
12675.15,0.098107
12706.21,0.096003
12737.43,0.093719
12768.81,0.09141
12800.33,0.089163
12832.02,0.08681
12863.86,0.084286
12895.86,0.081523
12928.02,0.079015
12960.34,0.076741
12992.82,0.074618
13025.46,0.072263
13058.27,0.069913
13091.25,0.067255
13124.39,0.064178
13157.7,0.060877
13191.18,0.057858
13224.83,0.054668
13258.66,0.051238
13292.65,0.047443
13326.83,0.044608
13361.17,0.042067
13395.7,0.039783
13430.4,0.037945
13465.29,0.036171
13500.35,0.033968
13535.6,0.031641
13571.03,0.029208
13606.65,0.026845
13642.46,0.024248
13678.46,0.021756
13714.64,0.019633
13751.02,0.018108
13787.59,0.016609
13824.36,0.015674
13861.32,0.014805
13898.49,0.01426
13935.85,0.013388
13973.41,0.012313
14011.17,0.011286
14049.15,0.010767
14087.32,0.010434
14125.71,0.010085
14164.3,0.010049
14203.11,0.01042
14242.13,0.010349
14281.36,0.0109
14320.81,0.011875
14360.49,0.013418
14400.38,0.015543
14440.49,0.018408
14480.82,0.020866
14521.39,0.022942
14562.18,0.025103
14603.2,0.027971
14644.45,0.031373
14685.93,0.035477
14727.66,0.039319
14769.62,0.043048
14811.81,0.046884
14854.25,0.049632
14896.94,0.051395
14939.87,0.052923
14983.05,0.053722
15026.48,0.054922
15070.16,0.055467
15114.1,0.054971
15158.29,0.054519
15202.74,0.054977
15247.46,0.055086
15292.43,0.055037
15337.68,0.055576
15383.19,0.05627
15428.97,0.05673
15475.03,0.057273
15521.36,0.057715
15567.97,0.057523
15614.87,0.057271
15662.04,0.057336
15709.5,0.057386
15757.25,0.057314
15805.29,0.056965
15853.62,0.056696
15902.26,0.056018
15951.19,0.055203
16000.42,0.0544
16049.95,0.053361
16099.8,0.052221
16149.95,0.051331
16200.42,0.050324
16251.21,0.049428
16302.31,0.048211
16353.74,0.047194
16405.49,0.045842
16457.57,0.044384
16509.98,0.042477
16562.73,0.040324
16615.82,0.03857
16669.24,0.037204
16723.02,0.035241
16777.14,0.033372
16831.61,0.032505
16886.43,0.032591
16941.62,0.032271
16997.16,0.03129
17053.08,0.031119
17109.36,0.031583
17166.01,0.031399
17223.04,0.03111
17280.45,0.031119
17338.24,0.031179
17396.43,0.031139
17455.0,0.030852
17513.97,0.030598
17573.34,0.030554
17633.11,0.030273
17693.29,0.030404
17753.89,0.030366
17814.9,0.030271
17876.33,0.030243
17938.18,0.030354
18000.47,0.030043
18063.19,0.030275
18126.35,0.031024
18189.95,0.031227
18254.0,0.031373
18318.5,0.03215
18383.46,0.032696
18448.88,0.033046
18514.77,0.033003
18581.13,0.032436
18647.97,0.031344
18715.29,0.031972
18783.1,0.033011
18851.4,0.032836
18920.2,0.031905
18989.51,0.032061
19059.32,0.032255
19129.65,0.032081
19200.5,0.032428
19271.88,0.033695
19343.79,0.035394
19416.24,0.038231
19489.23,0.041312
19562.77,0.04402
19636.88,0.04692
19711.54,0.050243
19786.78,0.053439
19862.59,0.056303
19938.98,0.05785
20015.96,0.059842
20093.55,0.061325
20171.73,0.062053
20250.53,0.063492
20329.94,0.066033
20409.98,0.068214
20490.65,0.069616
20571.96,0.070546
20653.92,0.072395
20736.54,0.073563
20819.82,0.074804
20903.77,0.075843
20988.4,0.075904
21073.72,0.075431
21159.73,0.075613
21246.46,0.076733
21333.89,0.077209
21422.04,0.077102
21510.93,0.076228
21600.56,0.074156
21690.94,0.073751
21782.08,0.074219
21873.99,0.0746
21966.67,0.072631
22060.15,0.070585
22154.42,0.070724
22249.51,0.07232
22345.41,0.073246
22442.14,0.073591
22539.72,0.073732
22638.14,0.073432
22737.43,0.072084
22837.6,0.070258
22938.65,0.067401
23040.6,0.064368
23143.46,0.060488
23247.24,0.055911
23351.96,0.051706
23457.63,0.05128
23564.25,0.052919
23671.85,0.054686
23780.44,0.053086
23890.02,0.053581
24000.63,0.054696
24112.26,0.052931
24224.93,0.049789
24338.66,0.04962
24453.47,0.049024
24569.36,0.050677
24686.36,0.053173
24804.47,0.051742
24923.73,0.053585
25044.13,0.058125
25165.71,0.05823
25288.46,0.057691
25412.43,0.054279
25537.61,0.05235
25664.04,0.054888
25791.72,0.056406
25920.68,0.055076
