Database of Origin,University of Winnipeg Spectrophotometer Facility
Sample Description,RELAB + Nicolet spectral data. See Master Framework Silicates in HOSERLAB sample database
Date Added,2016-12-07 00:39:48.993455

Data ID,RLA_FRA_02          
Sample ID,SOD102
Mineral Name,Sodalite
Grain Size,<45um
Viewing Geometry,"30/0,30"
Resolution,5 nm
Material Class,Tectosilicate

Wavelength
300.0,0.471772
305.0,0.480668
310.0,0.489554
315.0,0.506229
320.0,0.514688
325.0,0.527246
330.0,0.535263
335.0,0.542945
340.0,0.550947
345.0,0.555918
350.0,0.56438
355.0,0.571203
360.0,0.575628
365.0,0.58209
370.0,0.586825
375.0,0.592366
380.0,0.597343
385.0,0.601576
390.0,0.607149
395.0,0.609174
400.0,0.612463
405.0,0.612682
410.0,0.614797
415.0,0.617854
420.0,0.620782
425.0,0.623038
430.0,0.625417
435.0,0.626552
440.0,0.627451
445.0,0.627649
450.0,0.629053
455.0,0.629775
460.0,0.62955
465.0,0.629954
470.0,0.628218
475.0,0.628623
480.0,0.627167
485.0,0.626904
490.0,0.62651
495.0,0.624956
500.0,0.623761
505.0,0.621956
510.0,0.620527
515.0,0.619133
520.0,0.620318
525.0,0.618943
530.0,0.61738
535.0,0.615273
540.0,0.615101
545.0,0.613715
550.0,0.612929
555.0,0.609999
560.0,0.608192
565.0,0.607772
570.0,0.606182
575.0,0.605442
580.0,0.604142
585.0,0.602465
590.0,0.602142
595.0,0.601528
600.0,0.601468
605.0,0.601999
610.0,0.602181
615.0,0.603995
620.0,0.6048
625.0,0.605053
630.0,0.606772
635.0,0.60684
640.0,0.607704
645.0,0.608698
650.0,0.608334
655.0,0.609502
660.0,0.611442
665.0,0.613447
670.0,0.616349
675.0,0.618913
680.0,0.622571
685.0,0.62818
690.0,0.632828
695.0,0.637974
700.0,0.64459
705.0,0.649257
710.0,0.654588
715.0,0.65873
720.0,0.663794
725.0,0.668517
730.0,0.67248
735.0,0.67488
740.0,0.67656
745.0,0.677957
750.0,0.680221
755.0,0.681075
760.0,0.680445
765.0,0.681512
770.0,0.683106
775.0,0.683336
780.0,0.684567
785.0,0.685015
790.0,0.686094
795.0,0.684613
800.0,0.685498
805.0,0.687381
810.0,0.6868
815.0,0.687748
820.0,0.688988
825.0,0.688669
830.0,0.688452
835.0,0.68801
840.0,0.689339
845.0,0.689072
850.0,0.689471
855.0,0.690322
860.0,0.689786
865.0,0.690136
870.0,0.690225
875.0,0.69033
880.0,0.690113
885.0,0.690104
890.0,0.691282
895.0,0.691816
900.0,0.691942
905.0,0.690576
910.0,0.690863
915.0,0.689886
920.0,0.690222
925.0,0.691464
930.0,0.69203
935.0,0.692368
940.0,0.691609
945.0,0.691592
950.0,0.692304
955.0,0.693786
960.0,0.692447
965.0,0.693076
970.0,0.692826
975.0,0.692163
980.0,0.692794
985.0,0.692995
990.0,0.692449
995.0,0.6919
1000.0,0.692203
1005.0,0.692272
1010.0,0.692083
1015.0,0.692838
1020.0,0.69306
1025.0,0.693379
1030.0,0.692834
1035.0,0.69363
1040.0,0.693202
1045.0,0.693283
1050.0,0.693455
1055.0,0.693197
1060.0,0.693502
1065.0,0.693706
1070.0,0.694191
1075.0,0.695192
1080.0,0.69447
1085.0,0.694345
1090.0,0.694679
1095.0,0.694151
1100.0,0.694256
1105.0,0.694641
1110.0,0.694987
1115.0,0.694552
1120.0,0.694892
1125.0,0.694558
1130.0,0.695322
1135.0,0.695065
1140.0,0.695361
1145.0,0.695974
1150.0,0.695788
1155.0,0.695167
1160.0,0.696043
1165.0,0.695525
1170.0,0.695386
1175.0,0.695815
1180.0,0.695593
1185.0,0.696477
1190.0,0.696135
1195.0,0.696479
1200.0,0.696398
1205.0,0.696444
1210.0,0.697654
1215.0,0.697483
1220.0,0.696678
1225.0,0.696856
1230.0,0.696407
1235.0,0.696782
1240.0,0.698406
1245.0,0.69749
1250.0,0.697581
1255.0,0.697035
1260.0,0.696201
1265.0,0.696819
1270.0,0.697356
1275.0,0.697042
1280.0,0.696211
1285.0,0.696297
1290.0,0.697361
1295.0,0.696843
1300.0,0.696899
1305.0,0.696152
1310.0,0.696399
1315.0,0.696774
1320.0,0.696647
1325.0,0.696639
1330.0,0.696059
1335.0,0.696532
1340.0,0.696414
1345.0,0.696458
1350.0,0.696141
1355.0,0.694678
1360.0,0.69554
1365.0,0.694173
1370.0,0.694303
1375.0,0.694799
1380.0,0.695893
1385.0,0.695239
1390.0,0.694999
1395.0,0.693629
1400.0,0.692672
1405.0,0.691941
1410.0,0.691071
1415.0,0.69212
1420.0,0.693265
1425.0,0.69283
1430.0,0.69276
1435.0,0.693406
1440.0,0.692864
1445.0,0.692907
1450.0,0.692696
1455.0,0.693598
1460.0,0.694606
1465.0,0.69388
1470.0,0.693741
1475.0,0.694258
1480.0,0.693591
1485.0,0.693847
1490.0,0.69471
1495.0,0.695096
1500.0,0.694458
1505.0,0.695082
1510.0,0.69488
1515.0,0.695535
1520.0,0.694493
1525.0,0.695931
1530.0,0.695583
1535.0,0.696178
1540.0,0.696013
1545.0,0.696128
1550.0,0.69597
1555.0,0.696122
1560.0,0.695439
1565.0,0.695573
1570.0,0.69638
1575.0,0.696632
1580.0,0.696922
1585.0,0.6967
1590.0,0.69546
1595.0,0.695387
1600.0,0.695137
1605.0,0.695634
1610.0,0.696177
1615.0,0.695476
1620.0,0.695318
1625.0,0.6945
1630.0,0.694077
1635.0,0.695153
1640.0,0.695031
1645.0,0.694431
1650.0,0.695587
1655.0,0.694047
1660.0,0.69522
1665.0,0.694647
1670.0,0.694966
1675.0,0.69594
1680.0,0.694884
1685.0,0.694286
1690.0,0.694894
1695.0,0.694361
1700.0,0.696341
1705.0,0.695548
1710.0,0.694945
1715.0,0.695022
1720.0,0.695122
1725.0,0.695416
1730.0,0.694682
1735.0,0.694131
1740.0,0.694234
1745.0,0.692996
1750.0,0.693525
1755.0,0.692136
1760.0,0.692703
1765.0,0.693176
1770.0,0.692874
1775.0,0.692312
1780.0,0.692608
1785.0,0.692549
1790.0,0.69278
1795.0,0.692558
1800.0,0.69386
1805.0,0.693505
1810.0,0.695256
1815.0,0.695028
1820.0,0.694801
1825.0,0.694946
1830.0,0.695718
1835.0,0.695866
1840.0,0.693529
1845.0,0.693743
1850.0,0.692413
1855.0,0.692742
1860.0,0.691591
1865.0,0.693921
1870.0,0.693411
1875.0,0.68977
1880.0,0.689409
1885.0,0.689384
1890.0,0.687486
1895.0,0.686967
1900.0,0.684729
1905.0,0.682097
1910.0,0.679707
1915.0,0.677041
1920.0,0.675752
1925.0,0.676948
1930.0,0.677485
1935.0,0.677871
1940.0,0.678558
1945.0,0.678798
1950.0,0.67982
1955.0,0.680258
1960.0,0.680571
1965.0,0.681206
1970.0,0.682065
1975.0,0.682236
1980.0,0.682257
1985.0,0.682848
1990.0,0.683798
1995.0,0.684689
2000.0,0.684914
2005.0,0.685225
2010.0,0.686421
2015.0,0.686322
2020.0,0.686375
2025.0,0.687189
2030.0,0.686288
2035.0,0.687448
2040.0,0.687126
2045.0,0.687004
2050.0,0.686882
2055.0,0.686597
2060.0,0.686903
2065.0,0.687104
2070.0,0.687353
2075.0,0.687512
2080.0,0.68749
2085.0,0.687898
2090.0,0.688093
2095.0,0.688291
2100.0,0.68799
2105.0,0.688234
2110.0,0.687965
2115.0,0.688496
2120.0,0.68861
2125.0,0.688666
2130.0,0.688392
2135.0,0.688175
2140.0,0.687548
2145.0,0.687499
2150.0,0.686721
2155.0,0.686453
2160.0,0.686174
2165.0,0.684696
2170.0,0.683982
2175.0,0.683693
2180.0,0.683205
2185.0,0.682259
2190.0,0.680811
2195.0,0.679927
2200.0,0.680222
2205.0,0.681117
2210.0,0.682944
2215.0,0.682639
2220.0,0.683469
2225.0,0.683449
2230.0,0.683937
2235.0,0.684197
2240.0,0.684116
2245.0,0.684863
2250.0,0.684465
2255.0,0.685237
2260.0,0.685571
2265.0,0.686723
2270.0,0.686216
2275.0,0.686442
2280.0,0.686173
2285.0,0.686493
2290.0,0.686642
2295.0,0.686831
2300.0,0.687919
2305.0,0.687569
2310.0,0.686932
2315.0,0.686762
2320.0,0.686999
2325.0,0.686261
2330.0,0.685231
2335.0,0.684814
2340.0,0.685577
2345.0,0.684276
2350.0,0.683371
2355.0,0.683002
2360.0,0.682601
2365.0,0.683349
2370.0,0.682953
2375.0,0.681919
2380.0,0.682032
2385.0,0.682255
2390.0,0.68154
2395.0,0.680576
2400.0,0.680034
2405.0,0.678752
2410.0,0.678681
2415.0,0.677667
2420.0,0.677775
2425.0,0.676018
2430.0,0.675449
2435.0,0.675032
2440.0,0.674075
2445.0,0.674849
2450.0,0.673729
2455.0,0.674083
2460.0,0.674629
2465.0,0.674813
2470.0,0.673723
2475.0,0.675532
2480.0,0.676051
2485.0,0.676526
2490.0,0.675867
2495.0,0.675928
2500.0,0.676504
2502.0,0.676343
2503.2,0.676866
2504.41,0.677189
2505.62,0.677112
2506.83,0.676887
2508.05,0.677061
2509.26,0.677325
2510.48,0.676895
2511.69,0.677218
2512.91,0.677843
2514.13,0.677678
2515.35,0.677576
2516.57,0.677508
2517.79,0.677958
2519.02,0.677801
2520.24,0.678294
2521.47,0.677835
2522.69,0.677686
2523.92,0.677554
2525.15,0.67761
2526.38,0.678383
2527.61,0.678298
2528.85,0.678332
2530.08,0.678175
2531.32,0.677797
2532.55,0.67789
2533.79,0.678485
2535.03,0.678668
2536.27,0.678341
2537.51,0.678536
2538.75,0.678184
2540.0,0.678128
2541.24,0.678332
2542.49,0.678303
2543.74,0.678184
2544.99,0.678451
2546.24,0.677831
2547.49,0.677937
2548.74,0.677525
2549.99,0.677797
2551.25,0.677763
2552.5,0.678069
2553.76,0.678753
2555.02,0.679259
2556.28,0.679106
2557.54,0.678604
2558.8,0.678817
2560.07,0.678107
2561.33,0.676895
2562.6,0.677542
2563.86,0.678332
2565.13,0.678957
2566.4,0.679893
2567.67,0.679637
2568.95,0.678443
2570.22,0.677877
2571.5,0.679348
2572.77,0.678774
2574.05,0.677929
2575.33,0.679433
2576.61,0.678528
2577.89,0.67786
2579.17,0.679204
2580.46,0.678711
2581.74,0.678035
2583.03,0.678575
2584.31,0.677299
2585.6,0.678974
2586.89,0.679255
2588.19,0.678175
2589.48,0.678847
2590.77,0.679331
2592.07,0.679489
2593.36,0.678184
2594.66,0.675114
2595.96,0.676904
2597.26,0.681704
2598.56,0.680832
2599.87,0.679072
2601.17,0.678477
2602.48,0.678116
2603.78,0.678371
2605.09,0.677716
2606.4,0.67812
2607.71,0.680122
2609.03,0.679859
2610.34,0.678847
2611.66,0.678923
2612.97,0.678762
2614.29,0.678409
2615.61,0.678337
2616.93,0.677189
2618.25,0.678745
2619.57,0.679404
2620.9,0.677707
2622.22,0.680029
2623.55,0.680564
2624.88,0.679102
2626.21,0.677788
2627.54,0.677104
2628.87,0.679527
2630.21,0.678094
2631.54,0.677792
2632.88,0.67982
2634.21,0.678872
2635.55,0.678868
2636.89,0.678757
2638.24,0.678481
2639.58,0.678332
2640.92,0.678175
2642.27,0.677542
2643.62,0.677809
2644.97,0.677882
2646.32,0.676878
2647.67,0.676921
2649.02,0.677627
2650.38,0.677295
2651.73,0.676253
2653.09,0.675526
2654.45,0.676598
2655.81,0.67664
2657.17,0.676088
2658.53,0.675973
2659.89,0.674596
2661.26,0.674527
2662.63,0.674485
2664.0,0.67349
2665.36,0.671509
2666.74,0.671904
2668.11,0.673758
2669.48,0.673397
2670.86,0.669511
2672.23,0.672283
2673.61,0.673477
2674.99,0.669817
2676.37,0.667526
2677.76,0.66722
2679.14,0.667679
2680.52,0.667534
2681.91,0.667577
2683.3,0.665209
2684.69,0.664023
2686.08,0.663797
2687.47,0.662956
2688.87,0.661612
2690.26,0.660758
2691.66,0.659746
2693.06,0.658007
2694.46,0.656311
2695.86,0.656974
2697.26,0.656919
2698.66,0.656034
2700.07,0.653441
2701.48,0.651078
2702.89,0.649985
2704.3,0.649347
2705.71,0.647115
2707.12,0.645198
2708.53,0.642643
2709.95,0.639646
2711.37,0.636321
2712.79,0.635373
2714.21,0.63309
2715.63,0.627772
2717.05,0.622683
2718.48,0.617089
2719.9,0.610321
2721.33,0.603157
2722.76,0.598868
2724.19,0.590922
2725.62,0.58284
2727.06,0.577726
2728.49,0.570546
2729.93,0.563446
2731.37,0.55712
2732.81,0.551466
2734.25,0.545765
2735.69,0.541152
2737.14,0.538134
2738.58,0.534023
2740.03,0.529453
2741.48,0.527149
2742.93,0.525244
2744.38,0.522302
2745.83,0.518281
2747.29,0.51499
2748.75,0.511942
2750.2,0.508605
2751.66,0.505221
2753.13,0.501815
2754.59,0.497186
2756.05,0.492378
2757.52,0.49168
2758.99,0.490078
2760.46,0.486855
2761.93,0.484543
2763.4,0.483118
2764.87,0.483424
2766.35,0.483297
2767.82,0.482727
2769.3,0.482289
2770.78,0.4822
2772.26,0.482404
2773.75,0.483318
2775.23,0.483114
2776.72,0.483135
2778.21,0.483416
2779.7,0.483386
2781.19,0.483038
2782.68,0.483586
2784.18,0.484185
2785.67,0.484092
2787.17,0.483671
2788.67,0.484364
2790.17,0.485355
2791.67,0.485537
2793.18,0.48552
2794.68,0.485945
2796.19,0.486154
2797.7,0.485669
2799.21,0.485431
2800.72,0.484759
2802.24,0.482749
2803.75,0.481324
2805.27,0.481295
2806.79,0.480466
2808.31,0.478633
2809.83,0.476886
2811.35,0.475322
2812.88,0.473472
2814.41,0.4713
2815.93,0.469004
2817.46,0.467134
2819.0,0.464851
2820.53,0.462083
2822.07,0.459928
2823.6,0.458006
2825.14,0.456391
2826.68,0.454677
2828.22,0.45276
2829.77,0.451663
2831.31,0.451298
2832.86,0.451081
2834.41,0.451204
2835.96,0.45131
2837.51,0.451349
2839.07,0.451621
2840.62,0.45242
2842.18,0.453194
2843.74,0.454116
2845.3,0.454677
2846.86,0.454962
2848.43,0.455366
2849.99,0.456076
2851.56,0.457356
2853.13,0.457955
2854.7,0.458261
2856.27,0.458593
2857.85,0.458916
2859.42,0.459282
2861.0,0.459464
2862.58,0.460047
2864.16,0.460463
2865.75,0.460638
2867.33,0.460642
2868.92,0.460914
2870.51,0.461029
2872.1,0.461033
2873.69,0.460701
2875.28,0.460306
2876.88,0.460344
2878.48,0.460642
2880.07,0.460582
2881.68,0.460259
2883.28,0.459779
2884.88,0.459486
2886.49,0.459375
2888.1,0.459311
2889.71,0.459099
2891.32,0.459018
2892.93,0.458992
2894.55,0.459065
2896.16,0.458818
2897.78,0.458907
2899.4,0.458695
2901.03,0.458827
2902.65,0.458538
2904.28,0.458274
2905.91,0.458385
2907.54,0.458461
2909.17,0.458121
2910.8,0.458151
2912.44,0.458402
2914.07,0.458338
2915.71,0.457853
2917.35,0.458197
2918.99,0.458652
2920.64,0.458967
2922.29,0.45898
2923.93,0.458737
2925.58,0.458848
2927.24,0.459337
2928.89,0.459494
2930.55,0.459316
2932.2,0.459026
2933.86,0.459167
2935.52,0.45949
2937.19,0.45977
2938.85,0.459562
2940.52,0.45909
2942.19,0.45898
2943.86,0.459401
2945.53,0.45952
2947.21,0.459741
2948.88,0.459775
2950.56,0.460145
2952.24,0.460391
2953.92,0.460485
2955.61,0.460621
2957.29,0.460689
2958.98,0.460421
2960.67,0.460472
2962.36,0.460489
2964.06,0.460259
2965.75,0.460349
2967.45,0.460068
2969.15,0.459775
2970.85,0.459894
2972.55,0.460251
2974.26,0.460463
2975.97,0.460366
2977.68,0.460391
2979.39,0.460102
2981.1,0.460085
2982.82,0.459974
2984.53,0.45966
2986.25,0.459541
2987.97,0.459647
2989.7,0.459813
2991.42,0.460089
2993.15,0.460064
2994.88,0.459885
2996.61,0.459804
2998.34,0.459983
3000.08,0.45994
3001.82,0.459906
3003.55,0.460162
3005.3,0.460531
3007.04,0.460663
3008.78,0.460774
3010.53,0.461084
3012.28,0.46102
3014.03,0.46088
3015.79,0.461101
3017.54,0.461382
3019.3,0.461773
3021.06,0.461981
3022.82,0.462015
3024.58,0.461951
3026.35,0.462249
3028.12,0.46284
3029.89,0.463609
3031.66,0.464145
3033.43,0.464268
3035.21,0.464353
3036.99,0.464472
3038.77,0.4648
3040.55,0.465833
3042.33,0.466832
3044.12,0.467486
3045.91,0.468256
3047.7,0.468809
3049.49,0.469064
3051.29,0.469893
3053.08,0.470662
3054.88,0.471185
3056.68,0.471976
3058.49,0.472639
3060.29,0.473464
3062.1,0.474535
3063.91,0.475045
3065.72,0.4757
3067.54,0.476474
3069.35,0.477294
3071.17,0.477906
3072.99,0.478391
3074.81,0.478952
3076.64,0.479675
3078.47,0.480321
3080.29,0.480708
3082.13,0.481312
3083.96,0.481898
3085.79,0.482136
3087.63,0.482485
3089.47,0.482902
3091.31,0.483339
3093.16,0.48345
3095.01,0.483833
3096.85,0.484419
3098.71,0.484963
3100.56,0.485325
3102.41,0.485639
3104.27,0.485933
3106.13,0.486184
3107.99,0.48649
3109.86,0.486855
3111.73,0.487353
3113.59,0.487973
3115.47,0.48842
3117.34,0.488662
3119.21,0.488947
3121.09,0.489295
3122.97,0.489631
3124.86,0.490265
3126.74,0.490834
3128.63,0.491213
3130.52,0.491459
3132.41,0.491872
3134.3,0.492276
3136.2,0.492845
3138.1,0.493555
3140.0,0.493997
3141.9,0.494486
3143.81,0.495047
3145.71,0.495485
3147.62,0.495711
3149.54,0.496446
3151.45,0.49736
3153.37,0.497645
3155.29,0.498113
3157.21,0.498631
3159.13,0.498984
3161.06,0.499401
3162.99,0.499873
3164.92,0.500281
3166.85,0.500838
3168.79,0.501356
3170.72,0.501684
3172.67,0.5019
3174.61,0.502351
3176.55,0.50307
3178.5,0.503405
3180.45,0.503784
3182.4,0.504353
3184.36,0.504749
3186.32,0.50508
3188.27,0.505714
3190.24,0.506105
3192.2,0.506096
3194.17,0.506717
3196.14,0.507312
3198.11,0.507567
3200.08,0.50778
3202.06,0.508124
3204.04,0.508294
3206.02,0.508303
3208.0,0.508532
3209.99,0.508626
3211.98,0.509191
3213.97,0.509914
3215.96,0.510229
3217.96,0.510331
3219.96,0.510603
3221.96,0.511096
3223.96,0.511398
3225.97,0.511649
3227.98,0.511993
3229.99,0.512269
3232.0,0.512422
3234.02,0.512877
3236.04,0.513404
3238.06,0.513936
3240.08,0.514191
3242.11,0.514374
3244.14,0.514518
3246.17,0.514812
3248.2,0.51468
3250.24,0.515122
3252.28,0.515853
3254.32,0.516555
3256.37,0.516899
3258.41,0.517371
3260.46,0.517549
3262.51,0.517851
3264.57,0.518251
3266.63,0.518778
3268.69,0.519084
3270.75,0.519394
3272.81,0.519811
3274.88,0.520028
3276.95,0.520223
3279.02,0.520287
3281.1,0.520649
3283.18,0.520878
3285.26,0.520615
3287.34,0.520576
3289.43,0.520466
3291.51,0.520304
3293.61,0.519837
3295.7,0.519216
3297.8,0.518974
3299.9,0.519224
3302.0,0.520087
3304.1,0.521779
3306.21,0.523284
3308.32,0.52447
3310.43,0.525457
3312.55,0.526337
3314.66,0.526894
3316.79,0.527701
3318.91,0.528322
3321.03,0.528883
3323.16,0.52967
3325.29,0.530405
3327.43,0.530711
3329.57,0.531077
3331.71,0.531672
3333.85,0.531999
3335.99,0.532229
3338.14,0.532505
3340.29,0.532748
3342.45,0.532769
3344.6,0.532811
3346.76,0.533037
3348.92,0.533024
3351.09,0.532888
3353.26,0.532956
3355.43,0.532828
3357.6,0.53276
3359.78,0.532578
3361.96,0.532085
3364.14,0.531778
3366.32,0.531358
3368.51,0.531132
3370.7,0.530839
3372.89,0.530843
3375.09,0.531
3377.29,0.531022
3379.49,0.531009
3381.69,0.531387
3383.9,0.532046
3386.11,0.532786
3388.32,0.533385
3390.54,0.533772
3392.76,0.533951
3394.98,0.534112
3397.21,0.534019
3399.43,0.533883
3401.66,0.533883
3403.9,0.533776
3406.13,0.533441
3408.37,0.533135
3410.61,0.532986
3412.86,0.532743
3415.11,0.532658
3417.36,0.533122
3419.61,0.534066
3421.87,0.53506
3424.13,0.535894
3426.39,0.537165
3428.66,0.537981
3430.93,0.538712
3433.2,0.539541
3435.48,0.540561
3437.76,0.541663
3440.04,0.54247
3442.32,0.543087
3444.61,0.543639
3446.9,0.543916
3449.19,0.544609
3451.49,0.545064
3453.79,0.545612
3456.09,0.546092
3458.4,0.546471
3460.7,0.546917
3463.02,0.547419
3465.33,0.547542
3467.65,0.547614
3469.97,0.54784
3472.29,0.547971
3474.62,0.548188
3476.95,0.548358
3479.29,0.548375
3481.62,0.548524
3483.96,0.549047
3486.3,0.549625
3488.65,0.550033
3491.0,0.550373
3493.35,0.550688
3495.71,0.55096
3498.07,0.551215
3500.43,0.551568
3502.79,0.552002
3505.16,0.55275
3507.53,0.553579
3509.91,0.554442
3512.29,0.555428
3514.67,0.55638
3517.05,0.557431
3519.44,0.558268
3521.83,0.558761
3524.23,0.559314
3526.62,0.559786
3529.02,0.560419
3531.43,0.561172
3533.83,0.561618
3536.24,0.561933
3538.66,0.56223
3541.08,0.562702
3543.5,0.563195
3545.92,0.56348
3548.35,0.563833
3550.78,0.564288
3553.21,0.56467
3555.65,0.564947
3558.09,0.565287
3560.53,0.565755
3562.98,0.566316
3565.43,0.566643
3567.88,0.567
3570.34,0.567302
3572.8,0.567642
3575.27,0.567918
3577.73,0.568416
3580.2,0.568828
3582.68,0.569355
3585.16,0.569746
3587.64,0.569921
3590.12,0.570316
3592.61,0.570818
3595.1,0.571315
3597.6,0.571762
3600.09,0.572025
3602.6,0.57248
3605.1,0.572578
3607.61,0.57279
3610.12,0.573258
3612.64,0.57356
3615.16,0.573755
3617.68,0.573989
3620.21,0.574253
3622.74,0.57461
3625.27,0.574695
3627.81,0.574776
3630.35,0.574929
3632.89,0.575141
3635.44,0.575307
3637.99,0.575324
3640.54,0.575469
3643.1,0.575987
3645.66,0.576255
3648.23,0.576442
3650.8,0.576646
3653.37,0.576889
3655.95,0.577178
3658.53,0.577497
3661.11,0.577492
3663.7,0.577692
3666.29,0.577828
3668.89,0.577964
3671.48,0.578151
3674.09,0.57827
3676.69,0.578462
3679.3,0.578585
3681.91,0.578615
3684.53,0.578729
3687.15,0.578831
3689.78,0.579078
3692.4,0.57918
3695.04,0.579393
3697.67,0.579329
3700.31,0.579337
3702.95,0.579507
3705.6,0.579711
3708.25,0.579677
3710.91,0.579784
3713.56,0.579826
3716.23,0.579937
3718.89,0.579933
3721.56,0.579852
3724.23,0.579818
3726.91,0.579809
3729.59,0.579826
3732.28,0.57983
3734.97,0.579741
3737.66,0.579643
3740.36,0.579626
3743.06,0.579716
3745.76,0.579622
3748.47,0.579473
3751.18,0.579176
3753.9,0.578908
3756.62,0.578347
3759.34,0.578032
3762.07,0.577641
3764.8,0.577297
3767.54,0.577033
3770.28,0.576944
3773.02,0.576978
3775.77,0.577416
3778.52,0.577845
3781.28,0.5783
3784.04,0.578623
3786.8,0.579018
3789.57,0.579469
3792.34,0.57989
3795.12,0.580179
3797.9,0.580613
3800.69,0.58091
3803.47,0.581267
3806.27,0.581501
3809.06,0.581629
3811.86,0.581739
3814.67,0.582118
3817.48,0.582296
3820.29,0.582254
3823.11,0.582224
3825.93,0.58247
3828.76,0.5827
3831.59,0.582713
3834.42,0.582696
3837.26,0.582819
3840.1,0.58267
3842.95,0.582607
3845.8,0.582628
3848.65,0.582726
3851.51,0.582726
3854.38,0.582568
3857.24,0.582428
3860.12,0.582573
3862.99,0.582513
3865.87,0.582305
3868.76,0.582186
3871.65,0.582067
3874.54,0.581833
3877.44,0.581752
3880.34,0.581497
3883.25,0.581259
3886.16,0.581051
3889.07,0.580978
3891.99,0.580757
3894.92,0.580396
3897.85,0.580039
3900.78,0.579682
3903.72,0.579427
3906.66,0.579303
3909.6,0.578874
3912.55,0.578406
3915.51,0.577913
3918.47,0.577586
3921.43,0.577037
3924.4,0.576536
3927.38,0.576009
3930.35,0.575775
3933.33,0.575435
3936.32,0.575035
3939.31,0.574589
3942.31,0.57447
3945.31,0.57438
3948.31,0.574163
3951.32,0.573908
3954.34,0.573908
3957.35,0.573913
3960.38,0.574066
3963.41,0.573976
3966.44,0.57393
3969.48,0.573819
3972.52,0.573781
3975.56,0.573743
3978.61,0.573845
3981.67,0.57373
3984.73,0.573539
3987.8,0.57336
3990.87,0.573113
3993.94,0.572799
3997.02,0.572518
4000.1,0.572276
4003.19,0.572123
4006.29,0.572055
4009.39,0.572004
4012.49,0.571791
4015.6,0.571711
4018.71,0.571562
4021.83,0.571217
4024.95,0.570945
4028.08,0.570954
4031.21,0.570979
4034.35,0.570924
4037.49,0.570797
4040.64,0.570665
4043.79,0.570337
4046.94,0.570189
4050.11,0.570036
4053.27,0.569768
4056.44,0.569385
4059.62,0.568968
4062.8,0.568441
4065.99,0.567957
4069.18,0.567442
4072.38,0.567038
4075.58,0.566431
4078.78,0.565797
4082.0,0.565087
4085.21,0.564662
4088.43,0.563824
4091.66,0.563153
4094.89,0.562587
4098.13,0.562179
4101.37,0.561907
4104.62,0.561669
4107.87,0.561146
4111.13,0.5607
4114.39,0.560066
4117.66,0.559543
4120.93,0.558957
4124.21,0.558442
4127.5,0.557932
4130.79,0.557507
4134.08,0.557226
4137.38,0.557069
4140.68,0.557061
4143.99,0.557205
4147.31,0.55729
4150.63,0.557397
4153.95,0.557418
4157.29,0.557754
4160.62,0.558281
4163.96,0.558549
4167.31,0.558859
4170.66,0.559025
4174.02,0.559101
4177.39,0.559182
4180.75,0.559114
4184.13,0.559118
4187.51,0.559012
4190.89,0.558901
4194.28,0.558748
4197.68,0.558561
4201.08,0.558404
4204.49,0.558217
4207.9,0.557868
4211.32,0.557448
4214.74,0.55692
4218.17,0.556568
4221.61,0.556215
4225.05,0.555802
4228.5,0.555258
4231.95,0.554948
4235.4,0.554697
4238.87,0.554646
4242.34,0.554493
4245.81,0.554412
4249.29,0.554455
4252.78,0.554565
4256.27,0.55451
4259.77,0.554064
4263.27,0.553294
4266.78,0.552801
4270.29,0.552622
4273.81,0.55255
4277.34,0.55221
4280.87,0.551989
4284.41,0.551806
4287.95,0.551662
4291.5,0.551475
4295.06,0.551321
4298.62,0.55127
4302.19,0.551215
4305.76,0.550947
4309.34,0.550705
4312.92,0.55059
4316.52,0.550501
4320.11,0.550212
4323.72,0.550016
4327.32,0.549893
4330.94,0.549706
4334.56,0.549345
4338.19,0.549064
4341.82,0.5488
4345.46,0.548647
4349.11,0.548473
4352.76,0.548256
4356.42,0.547988
4360.08,0.54764
4363.75,0.547283
4367.43,0.547113
4371.11,0.546824
4374.8,0.546581
4378.49,0.546326
4382.19,0.546109
4385.9,0.54571
4389.61,0.545263
4393.33,0.544728
4397.06,0.544277
4400.79,0.543707
4404.53,0.54324
4408.28,0.542925
4412.03,0.542683
4415.79,0.542436
4419.55,0.542398
4423.32,0.542262
4427.1,0.54219
4430.88,0.541918
4434.68,0.541658
4438.47,0.541425
4442.28,0.541254
4446.08,0.540957
4449.9,0.54071
4453.72,0.54023
4457.55,0.539779
4461.39,0.539354
4465.23,0.539112
4469.08,0.538682
4472.94,0.538355
4476.8,0.537951
4480.67,0.537437
4484.55,0.53688
4488.43,0.536527
4492.32,0.536157
4496.21,0.53583
4500.12,0.535328
4504.03,0.534822
4507.94,0.534223
4511.87,0.533794
4515.8,0.533419
4519.73,0.533198
4523.68,0.532799
4527.63,0.532259
4531.59,0.531685
4535.55,0.531234
4539.52,0.530707
4543.5,0.530329
4547.49,0.529853
4551.48,0.529436
4555.48,0.528811
4559.49,0.528241
4563.5,0.527604
4567.52,0.527081
4571.55,0.526477
4575.58,0.525895
4579.63,0.525202
4583.67,0.524572
4587.73,0.523854
4591.79,0.523276
4595.86,0.522613
4599.94,0.521682
4604.03,0.52064
4608.12,0.519705
4612.22,0.518633
4616.33,0.517558
4620.44,0.516236
4624.56,0.514994
4628.69,0.513485
4632.83,0.512002
4636.97,0.510292
4641.12,0.508528
4645.28,0.506551
4649.45,0.504549
4653.62,0.502321
4657.8,0.500136
4661.99,0.497904
4666.19,0.495825
4670.39,0.493802
4674.6,0.49185
4678.82,0.490014
4683.05,0.488381
4687.28,0.487034
4691.52,0.486073
4695.77,0.485397
4700.03,0.485095
4704.3,0.485065
4708.57,0.485393
4712.85,0.486001
4717.14,0.486549
4721.43,0.48691
4725.74,0.487408
4730.05,0.487808
4734.37,0.487978
4738.7,0.487773
4743.03,0.487178
4747.38,0.486158
4751.73,0.484793
4756.09,0.482859
4760.45,0.480487
4764.83,0.477451
4769.21,0.473936
4773.6,0.469893
4778.0,0.46562
4782.41,0.46111
4786.83,0.45668
4791.25,0.452275
4795.68,0.448096
4800.13,0.44419
4804.57,0.440393
4809.03,0.436733
4813.5,0.433174
4817.97,0.429518
4822.45,0.425714
4826.94,0.421658
4831.44,0.41713
4835.95,0.411625
4840.46,0.405363
4844.99,0.398318
4849.52,0.390755
4854.06,0.383031
4858.61,0.375859
4863.17,0.369384
4867.73,0.363764
4872.31,0.359083
4876.89,0.355619
4881.48,0.35328
4886.08,0.352073
4890.69,0.35169
4895.31,0.35186
4899.94,0.352192
4904.57,0.35229
4909.22,0.351988
4913.87,0.35135
4918.53,0.350364
4923.21,0.349646
4927.88,0.349629
4932.57,0.351125
4937.27,0.354875
4941.98,0.361286
4946.69,0.370009
4951.42,0.380484
4956.15,0.39141
4960.9,0.401894
4965.65,0.410783
4970.41,0.417555
4975.18,0.421466
4979.96,0.422338
4984.75,0.420306
4989.54,0.416301
4994.35,0.411816
4999.17,0.408339
5003.99,0.406613
5008.83,0.406634
5013.67,0.407718
5018.52,0.409223
5023.39,0.410256
5028.26,0.410481
5033.14,0.409746
5038.03,0.408411
5042.93,0.406642
5047.84,0.404631
5052.76,0.402506
5057.69,0.400465
5062.63,0.398212
5067.58,0.395797
5072.54,0.3934
5077.51,0.390981
5082.49,0.388209
5087.47,0.385186
5092.47,0.381139
5097.48,0.375591
5102.5,0.367624
5107.52,0.356558
5112.56,0.342308
5117.61,0.326264
5122.66,0.310215
5127.73,0.296109
5132.81,0.285434
5137.89,0.280078
5142.99,0.280792
5148.1,0.287492
5153.22,0.299064
5158.34,0.313323
5163.48,0.328117
5168.63,0.342512
5173.79,0.355806
5178.96,0.368126
5184.13,0.379379
5189.32,0.389684
5194.52,0.398969
5199.73,0.40748
5204.96,0.415464
5210.19,0.422738
5215.43,0.429008
5220.68,0.434858
5225.94,0.43959
5231.22,0.443696
5236.5,0.447012
5241.79,0.449878
5247.1,0.452271
5252.42,0.454205
5257.74,0.455506
5263.08,0.456624
5268.43,0.457347
5273.79,0.457921
5279.16,0.458061
5284.54,0.45807
5289.93,0.457819
5295.34,0.457483
5300.75,0.457113
5306.18,0.456705
5311.61,0.456442
5317.06,0.456204
5322.52,0.45594
5327.99,0.455655
5333.47,0.45509
5338.96,0.454643
5344.47,0.45401
5349.98,0.453143
5355.51,0.452399
5361.05,0.451497
5366.6,0.450005
5372.16,0.448432
5377.73,0.446655
5383.32,0.444853
5388.91,0.44271
5394.52,0.440308
5400.14,0.437345
5405.77,0.434067
5411.41,0.430292
5417.07,0.426092
5422.74,0.421182
5428.41,0.416165
5434.1,0.410468
5439.81,0.404406
5445.52,0.398306
5451.25,0.392494
5456.98,0.386708
5462.73,0.381411
5468.5,0.376786
5474.27,0.372806
5480.06,0.368993
5485.86,0.366081
5491.67,0.363403
5497.49,0.361005
5503.33,0.358735
5509.18,0.356486
5515.04,0.354245
5520.91,0.351963
5526.8,0.349595
5532.69,0.347337
5538.61,0.34519
5544.53,0.343507
5550.47,0.342333
5556.41,0.341883
5562.38,0.342087
5568.35,0.342793
5574.34,0.343515
5580.34,0.344527
5586.35,0.346296
5592.38,0.347737
5598.42,0.348527
5604.47,0.348842
5610.54,0.348319
5616.61,0.34664
5622.71,0.343826
5628.81,0.339957
5634.93,0.335217
5641.06,0.330094
5647.21,0.325056
5653.36,0.320261
5659.54,0.315682
5665.72,0.311903
5671.92,0.308412
5678.13,0.305683
5684.36,0.303375
5690.6,0.301058
5696.85,0.298622
5703.12,0.296675
5709.4,0.294902
5715.69,0.294056
5722.0,0.293529
5728.33,0.293401
5734.66,0.293299
5741.01,0.293418
5747.38,0.293227
5753.76,0.29304
5760.15,0.292402
5766.56,0.291008
5772.98,0.289741
5779.41,0.287279
5785.86,0.283164
5792.33,0.278126
5798.81,0.271477
5805.3,0.263655
5811.81,0.254625
5818.33,0.244954
5824.87,0.234198
5831.42,0.222056
5837.99,0.208287
5844.57,0.19277
5851.17,0.175463
5857.78,0.158798
5864.41,0.148033
5871.05,0.146473
5877.7,0.151668
5884.38,0.158462
5891.06,0.164945
5897.76,0.167542
5904.48,0.169132
5911.21,0.169681
5917.96,0.170034
5924.73,0.171016
5931.5,0.172733
5938.3,0.175212
5945.11,0.179535
5951.93,0.183685
5958.78,0.187987
5965.63,0.192374
5972.51,0.196681
5979.39,0.200796
5986.3,0.203589
5993.22,0.205341
6000.16,0.20614
6007.11,0.205421
6014.08,0.203606
6021.06,0.201123
6028.06,0.198368
6035.08,0.195839
6042.12,0.194245
6049.17,0.193586
6056.23,0.194929
6063.32,0.196349
6070.42,0.196732
6077.53,0.197505
6084.67,0.198181
6091.82,0.197935
6098.98,0.197361
6106.17,0.196149
6113.37,0.194096
6120.58,0.192748
6127.82,0.192825
6135.07,0.194083
6142.34,0.196239
6149.63,0.198768
6156.93,0.201289
6164.25,0.203151
6171.59,0.204197
6178.95,0.203976
6186.32,0.203066
6193.71,0.20219
6201.12,0.201268
6208.54,0.20069
6215.99,0.201149
6223.45,0.202237
6230.93,0.203806
6238.43,0.205621
6245.95,0.207555
6253.48,0.20943
6261.03,0.211288
6268.6,0.212959
6276.19,0.214655
6283.8,0.216181
6291.43,0.21775
6299.07,0.219395
6306.73,0.22087
6314.42,0.221937
6322.12,0.22263
6329.84,0.222809
6337.57,0.222554
6345.33,0.221793
6353.11,0.221176
6360.9,0.219918
6368.72,0.217963
6376.55,0.215947
6384.4,0.213843
6392.27,0.211815
6400.17,0.210629
6408.08,0.210229
6416.01,0.210774
6423.96,0.212453
6431.93,0.213588
6439.92,0.214489
6447.93,0.215718
6455.96,0.216917
6464.01,0.218426
6472.08,0.21985
6480.17,0.221648
6488.28,0.223345
6496.41,0.2253
6504.56,0.227536
6512.73,0.229241
6520.92,0.230189
6529.14,0.231299
6537.37,0.23129
6545.63,0.230189
6553.9,0.227736
6562.2,0.224246
6570.51,0.220016
6578.85,0.216228
6587.21,0.213418
6595.59,0.211739
6603.99,0.211126
6612.42,0.210608
6620.86,0.210085
6629.33,0.210038
6637.82,0.211318
6646.33,0.214056
6654.86,0.216198
6663.41,0.217367
6671.99,0.218413
6680.59,0.219246
6689.21,0.220024
6697.85,0.220692
6706.51,0.22045
6715.2,0.219927
6723.91,0.219501
6732.64,0.219072
6741.4,0.218711
6750.18,0.218281
6758.98,0.218137
6767.8,0.217997
6776.65,0.217512
6785.52,0.216211
6794.41,0.213809
6803.33,0.210217
6812.27,0.205621
6821.23,0.200409
6830.22,0.195086
6839.23,0.189917
6848.26,0.184998
6857.32,0.180203
6866.4,0.175407
6875.51,0.17011
6884.64,0.164979
6893.8,0.160626
6902.98,0.157356
6912.18,0.155214
6921.41,0.154155
6930.66,0.154006
6939.94,0.154925
6949.24,0.156783
6958.57,0.159431
6967.92,0.1629
6977.3,0.166773
6986.7,0.170654
6996.13,0.175144
7005.59,0.179778
7015.07,0.183961
7024.57,0.187328
7034.1,0.189879
7043.66,0.191375
7053.25,0.192361
7062.85,0.192714
7072.49,0.192404
7082.15,0.191753
7091.84,0.190746
7101.55,0.189118
7111.3,0.18695
7121.06,0.18482
7130.86,0.182834
7140.68,0.1809
7150.53,0.179221
7160.41,0.178222
7170.31,0.178358
7180.24,0.179765
7190.2,0.181895
7200.19,0.183965
7210.2,0.185559
7220.24,0.186278
7230.31,0.186231
7240.41,0.185785
7250.54,0.185304
7260.69,0.184981
7270.88,0.184994
7281.09,0.185466
7291.33,0.186478
7301.6,0.18754
7311.9,0.188289
7322.22,0.188378
7332.58,0.187753
7342.97,0.186499
7353.38,0.184786
7363.83,0.182719
7374.3,0.180292
7384.81,0.177541
7395.34,0.1746
7405.91,0.171564
7416.5,0.168937
7427.13,0.166535
7437.78,0.163568
7448.47,0.159184
7459.19,0.152153
7469.94,0.140147
7480.71,0.122475
7491.52,0.107374
7502.37,0.108003
7513.24,0.120557
7524.14,0.131768
7535.08,0.137762
7546.05,0.140653
7557.05,0.142031
7568.08,0.142562
7579.15,0.142388
7590.24,0.141708
7601.37,0.140764
7612.53,0.139731
7623.73,0.138587
7634.96,0.137435
7646.22,0.136538
7657.51,0.135922
7668.84,0.135016
7680.2,0.133817
7691.59,0.132461
7703.02,0.130943
7714.49,0.129205
7725.98,0.12744
7737.52,0.125808
7749.08,0.124324
7760.68,0.122832
7772.32,0.12131
7783.99,0.119771
7795.69,0.118066
7807.43,0.116217
7819.21,0.114499
7831.02,0.112875
7842.87,0.111609
7854.75,0.110614
7866.67,0.109776
7878.62,0.108764
7890.62,0.107523
7902.64,0.105767
7914.71,0.103578
7926.81,0.101023
7938.95,0.09826
7951.13,0.0955
7963.34,0.092903
7975.59,0.090072
7987.88,0.087019
8000.21,0.083767
8012.57,0.08037
8024.98,0.077063
8037.42,0.073913
8049.9,0.070903
8062.42,0.068127
8074.98,0.065495
8087.57,0.063263
8100.21,0.06121
8112.89,0.059522
8125.6,0.058009
8138.36,0.056635
8151.16,0.055394
8163.99,0.05431
8176.87,0.05323
8189.79,0.052138
8202.75,0.050896
8215.75,0.049383
8228.79,0.047631
8241.87,0.045735
8254.99,0.043507
8268.16,0.041229
8281.37,0.03878
8294.62,0.036229
8307.91,0.033517
8321.24,0.030877
8334.62,0.028305
8348.04,0.025882
8361.51,0.023556
8375.02,0.021443
8388.57,0.019411
8402.16,0.017656
8415.8,0.016023
8429.49,0.014663
8443.22,0.013455
8456.99,0.012422
8470.81,0.01144
8484.67,0.0107
8498.58,0.010003
8512.54,0.009353
8526.54,0.008813
8540.58,0.00846
8554.68,0.008014
8568.82,0.007784
8583.0,0.007652
8597.24,0.007559
8611.52,0.00755
8625.85,0.007682
8640.23,0.007861
8654.65,0.008264
8669.12,0.008639
8683.64,0.008987
8698.21,0.00948
8712.83,0.01022
8727.5,0.011028
8742.22,0.011848
8756.99,0.012767
8771.8,0.013902
8786.67,0.015058
8801.59,0.016355
8816.56,0.017766
8831.58,0.01956
8846.65,0.021635
8861.77,0.023939
8876.94,0.0266
8892.17,0.029729
8907.45,0.03296
8922.78,0.036438
8938.16,0.040149
8953.6,0.044056
8969.09,0.047801
8984.64,0.051738
9000.23,0.055883
9015.89,0.060164
9031.59,0.064364
9047.36,0.068756
9063.17,0.073326
9079.05,0.077879
9094.97,0.08247
9110.96,0.087487
9127.0,0.092652
9143.1,0.097894
9159.25,0.103195
9175.46,0.108437
9191.73,0.113628
9208.06,0.119104
9224.44,0.124673
9240.88,0.130102
9257.38,0.135046
9273.94,0.139714
9290.56,0.144058
9307.24,0.148046
9323.98,0.152234
9340.78,0.156923
9357.64,0.161922
9374.57,0.16696
9391.55,0.171194
9408.59,0.173673
9425.7,0.174081
9442.87,0.172606
9460.1,0.169341
9477.4,0.164465
9494.75,0.158394
9512.17,0.152221
9529.66,0.146409
9547.21,0.140883
9564.83,0.135951
9582.5,0.131883
9600.25,0.128303
9618.06,0.125115
9635.94,0.122577
9653.88,0.1208
9671.89,0.119452
9689.97,0.118746
9708.12,0.118564
9726.33,0.118666
9744.62,0.118827
9762.97,0.118976
9781.39,0.119133
9799.88,0.119248
9818.44,0.119167
9837.07,0.119112
9855.77,0.118895
9874.54,0.118564
9893.39,0.11819
9912.3,0.117815
9931.29,0.117458
9950.36,0.117101
9969.49,0.116574
9988.7,0.116077
10007.98,0.115571
10027.34,0.114925
10046.77,0.114308
10066.28,0.113666
10085.87,0.112858
10105.53,0.11177
10125.26,0.110342
10145.08,0.10879
10164.97,0.107651
10184.94,0.107744
10204.99,0.1089
10225.12,0.110218
10245.33,0.11109
10265.61,0.11075
10285.98,0.10791
10306.43,0.101427
10326.96,0.092903
10347.57,0.086764
10368.27,0.083984
10389.05,0.081773
10409.91,0.078457
10430.86,0.074822
10451.88,0.071693
10473.0,0.069666
10494.2,0.068518
10515.49,0.067833
10536.86,0.067489
10558.32,0.067591
10579.87,0.067893
10601.5,0.06856
10623.23,0.06987
10645.04,0.071506
10666.94,0.073288
10688.94,0.075116
10711.02,0.076986
10733.2,0.079057
10755.47,0.081067
10777.83,0.083027
10800.28,0.085025
10822.83,0.086972
10845.47,0.089026
10868.21,0.091309
10891.04,0.093604
10913.97,0.095581
10936.99,0.097188
10960.12,0.098642
10983.34,0.099713
11006.66,0.100419
11030.07,0.100989
11053.59,0.101665
11077.21,0.102528
11100.93,0.103688
11124.75,0.10487
11148.68,0.106316
11172.71,0.108012
11196.84,0.109853
11221.07,0.111706
11245.41,0.113726
11269.86,0.115979
11294.41,0.118262
11319.07,0.120264
11343.84,0.122092
11368.72,0.124197
11393.7,0.126718
11418.8,0.129494
11444.01,0.13241
11469.33,0.135462
11494.76,0.138732
11520.3,0.141946
11545.96,0.144896
11571.73,0.147179
11597.62,0.148531
11623.62,0.148939
11649.74,0.148654
11675.98,0.148403
11702.34,0.149079
11728.81,0.150622
11755.41,0.152357
11782.13,0.153539
11808.96,0.154228
11835.92,0.154487
11863.01,0.154211
11890.22,0.153734
11917.55,0.152948
11945.01,0.151698
11972.6,0.150282
12000.31,0.148671
12028.16,0.146886
12056.13,0.14524
12084.23,0.143884
12112.46,0.142515
12140.83,0.141049
12169.33,0.139539
12197.96,0.137724
12226.73,0.135722
12255.64,0.133715
12284.68,0.131568
12313.86,0.129528
12343.18,0.127721
12372.64,0.125948
12402.24,0.12418
12431.98,0.12239
12461.86,0.120149
12491.89,0.117407
12522.07,0.114414
12552.38,0.111409
12582.85,0.108429
12613.47,0.105504
12644.23,0.10294
12675.15,0.100602
12706.21,0.098043
12737.43,0.095369
12768.81,0.092831
12800.33,0.090361
12832.02,0.087716
12863.86,0.085051
12895.86,0.082113
12928.02,0.078785
12960.34,0.074797
12992.82,0.070307
13025.46,0.065248
13058.27,0.059794
13091.25,0.054085
13124.39,0.048214
13157.7,0.042381
13191.18,0.036595
13224.83,0.030626
13258.66,0.024832
13292.65,0.019624
13326.83,0.015475
13361.17,0.012443
13395.7,0.011406
13430.4,0.013294
13465.29,0.018871
13500.35,0.027098
13535.6,0.035392
13571.03,0.041331
13606.65,0.043962
13642.46,0.043886
13678.46,0.0423
13714.64,0.040493
13751.02,0.039337
13787.59,0.038589
13824.36,0.037734
13861.32,0.036068
13898.49,0.033411
13935.85,0.030239
13973.41,0.027876
14011.17,0.027404
14049.15,0.029125
14087.32,0.031821
14125.71,0.03489
14164.3,0.037951
14203.11,0.040974
14242.13,0.043962
14281.36,0.046866
14320.81,0.04937
14360.49,0.051483
14400.38,0.053128
14440.49,0.054025
14480.82,0.05366
14521.39,0.052584
14562.18,0.050463
14603.2,0.047057
14644.45,0.042381
14685.93,0.037505
14727.66,0.03194
14769.62,0.02612
14811.81,0.021193
14854.25,0.018557
14896.94,0.019611
14939.87,0.024713
14983.05,0.031073
15026.48,0.036442
15070.16,0.039609
15114.1,0.041807
15158.29,0.044825
15202.74,0.049115
15247.46,0.054863
15292.43,0.061779
15337.68,0.068888
15383.19,0.076425
15428.97,0.084043
15475.03,0.09153
15521.36,0.098557
15567.97,0.104985
15614.87,0.110907
15662.04,0.11648
15709.5,0.121412
15757.25,0.125663
15805.29,0.129124
15853.62,0.13193
15902.26,0.133936
15951.19,0.135445
16000.42,0.136495
16049.95,0.137295
16099.8,0.138234
16149.95,0.13948
16200.42,0.141151
16251.21,0.143064
16302.31,0.144904
16353.74,0.146533
16405.49,0.148004
16457.57,0.149717
16509.98,0.151052
16562.73,0.152
16615.82,0.152927
16669.24,0.153828
16723.02,0.154317
16777.14,0.1543
16831.61,0.153539
16886.43,0.152731
16941.62,0.152025
16997.16,0.15061
17053.08,0.148348
17109.36,0.146146
17166.01,0.144067
17223.04,0.142009
17280.45,0.140045
17338.24,0.137898
17396.43,0.136772
17455.0,0.135709
17513.97,0.133864
17573.34,0.132168
17633.11,0.130403
17693.29,0.128346
17753.89,0.125514
17814.9,0.122653
17876.33,0.119665
17938.18,0.116485
18000.47,0.113488
18063.19,0.110775
18126.35,0.107961
18189.95,0.104653
18254.0,0.101546
18318.5,0.098085
18383.46,0.093736
18448.88,0.089332
18514.77,0.084911
18581.13,0.080889
18647.97,0.076302
18715.29,0.071727
18783.1,0.067587
18851.4,0.062302
18920.2,0.056733
18989.51,0.051955
19059.32,0.048133
19129.65,0.044128
19200.5,0.038886
19271.88,0.033946
19343.79,0.029657
19416.24,0.026383
19489.23,0.023254
19562.77,0.019569
19636.88,0.016078
19711.54,0.014225
19786.78,0.013043
19862.59,0.013766
19938.98,0.016367
20015.96,0.021465
20093.55,0.030524
20171.73,0.044715
20250.53,0.061983
20329.94,0.080642
20409.98,0.099424
20490.65,0.116038
20571.96,0.125927
20653.92,0.12699
20736.54,0.121114
20819.82,0.112727
20903.77,0.106146
20988.4,0.102315
21073.72,0.099824
21159.73,0.097405
21246.46,0.093651
21333.89,0.0898
21422.04,0.085748
21510.93,0.080009
21600.56,0.073215
21690.94,0.066035
21782.08,0.057409
21873.99,0.048745
21966.67,0.040884
22060.15,0.035273
22154.42,0.030584
22249.51,0.02958
22345.41,0.036841
22442.14,0.0517
22539.72,0.067353
22638.14,0.078984
22737.43,0.085761
22837.6,0.090667
22938.65,0.09414
23040.6,0.096746
23143.46,0.096015
23247.24,0.091645
23351.96,0.0844
23457.63,0.078534
23564.25,0.075503
23671.85,0.074929
23780.44,0.074869
23890.02,0.076693
24000.63,0.077807
24112.26,0.075452
24224.93,0.07129
24338.66,0.069181
24453.47,0.068458
24569.36,0.070316
24686.36,0.076157
24804.47,0.085297
24923.73,0.096257
25044.13,0.108475
25165.71,0.117594
25288.46,0.122619
25412.43,0.129273
25537.61,0.134506
25664.04,0.13877
25791.72,0.143863
25920.68,0.144581
