Database of Origin,University of Winnipeg Spectrophotometer Facility
Sample Description,See Master Clays in HOSERLab database
Date Added,2016-12-11 20:58:41.955597

Data ID,RLA_CLAY_37         
Sample ID,HAL001
Mineral Name,Halloysite
Grain Size,<45um
Viewing Geometry,"30/0,30"
Resolution,"5,0.6-129"
Material Class,Phyllosilicate

Wavelength
305.0,0.572483
310.0,0.603862
315.0,0.621169
320.0,0.636328
325.0,0.642938
330.0,0.654577
335.0,0.667341
340.0,0.683139
345.0,0.691441
350.0,0.696907
355.0,0.697909
360.0,0.704258
365.0,0.714515
370.0,0.726128
375.0,0.731761
380.0,0.733733
385.0,0.737476
390.0,0.745492
395.0,0.755469
400.0,0.768281
405.0,0.766787
410.0,0.769785
415.0,0.782179
420.0,0.782823
425.0,0.785281
430.0,0.792908
435.0,0.796593
440.0,0.801902
445.0,0.810987
450.0,0.80939
455.0,0.818093
460.0,0.818289
465.0,0.820388
470.0,0.824815
475.0,0.826966
480.0,0.830599
485.0,0.831321
490.0,0.836085
495.0,0.839652
500.0,0.841566
505.0,0.846821
510.0,0.846182
515.0,0.85208
520.0,0.849503
525.0,0.856751
530.0,0.854486
535.0,0.857321
540.0,0.857851
545.0,0.859022
550.0,0.861172
555.0,0.86023
560.0,0.8629
565.0,0.862123
570.0,0.864011
575.0,0.863532
580.0,0.864756
585.0,0.865534
590.0,0.865724
595.0,0.866684
600.0,0.866594
605.0,0.867162
610.0,0.866907
615.0,0.867354
620.0,0.866625
625.0,0.866475
630.0,0.867215
635.0,0.866717
640.0,0.868128
645.0,0.867711
650.0,0.869792
655.0,0.869323
660.0,0.870873
665.0,0.871774
670.0,0.872542
675.0,0.874746
680.0,0.872076
685.0,0.876382
690.0,0.873326
695.0,0.874903
700.0,0.87562
705.0,0.874658
710.0,0.875865
715.0,0.875216
720.0,0.877446
725.0,0.879676
730.0,0.879703
735.0,0.879786
740.0,0.877617
745.0,0.879148
750.0,0.880362
755.0,0.877915
760.0,0.88151
765.0,0.877613
770.0,0.882067
775.0,0.882547
780.0,0.878898
785.0,0.882159
790.0,0.880722
795.0,0.881204
800.0,0.880398
805.0,0.881362
810.0,0.882289
815.0,0.881126
820.0,0.881908
825.0,0.882989
830.0,0.881059
835.0,0.879842
840.0,0.881053
845.0,0.881423
850.0,0.880926
855.0,0.880709
860.0,0.880444
865.0,0.879345
870.0,0.882931
875.0,0.878085
880.0,0.879128
885.0,0.879579
890.0,0.877173
895.0,0.881226
900.0,0.880682
905.0,0.879271
910.0,0.879008
915.0,0.879174
920.0,0.877311
925.0,0.875545
930.0,0.875596
935.0,0.874887
940.0,0.872623
945.0,0.870275
950.0,0.870331
955.0,0.869192
960.0,0.867102
965.0,0.869027
970.0,0.870642
975.0,0.871596
980.0,0.873399
985.0,0.876769
990.0,0.877037
995.0,0.876884
1000.0,0.876873
1005.0,0.876539
1010.0,0.876734
1015.0,0.876369
1020.0,0.875572
1025.0,0.876008
1030.0,0.876068
1035.0,0.87424
1040.0,0.875238
1045.0,0.87517
1050.0,0.874256
1055.0,0.874476
1060.0,0.876019
1065.0,0.875341
1070.0,0.875827
1075.0,0.876765
1080.0,0.875825
1085.0,0.874223
1090.0,0.874608
1095.0,0.874515
1100.0,0.874365
1105.0,0.874534
1110.0,0.876061
1115.0,0.875258
1120.0,0.875317
1125.0,0.874649
1130.0,0.874658
1135.0,0.873511
1140.0,0.873114
1145.0,0.872763
1150.0,0.872557
1155.0,0.87183
1160.0,0.871261
1165.0,0.870877
1170.0,0.87068
1175.0,0.869952
1180.0,0.870991
1185.0,0.870778
1190.0,0.871143
1195.0,0.870588
1200.0,0.869498
1205.0,0.870224
1210.0,0.870642
1215.0,0.870305
1220.0,0.870052
1225.0,0.871117
1230.0,0.867591
1235.0,0.865533
1240.0,0.864766
1245.0,0.863553
1250.0,0.862305
1255.0,0.863251
1260.0,0.864172
1265.0,0.864041
1270.0,0.864336
1275.0,0.863281
1280.0,0.861357
1285.0,0.8591
1290.0,0.856153
1295.0,0.852865
1300.0,0.850154
1305.0,0.84712
1310.0,0.844412
1315.0,0.842318
1320.0,0.839316
1325.0,0.836438
1330.0,0.83464
1335.0,0.832451
1340.0,0.829082
1345.0,0.822584
1350.0,0.820331
1355.0,0.799871
1360.0,0.796225
1365.0,0.797939
1370.0,0.7801
1375.0,0.753855
1380.0,0.702525
1385.0,0.651945
1390.0,0.648352
1395.0,0.65287
1400.0,0.669136
1405.0,0.68078
1410.0,0.641127
1415.0,0.598679
1420.0,0.693377
1425.0,0.730759
1430.0,0.757714
1435.0,0.769764
1440.0,0.779212
1445.0,0.781321
1450.0,0.786999
1455.0,0.79116
1460.0,0.796164
1465.0,0.800499
1470.0,0.805891
1475.0,0.809699
1480.0,0.814156
1485.0,0.817309
1490.0,0.821195
1495.0,0.822608
1500.0,0.824791
1505.0,0.825741
1510.0,0.827802
1515.0,0.830627
1520.0,0.833763
1525.0,0.837429
1530.0,0.839446
1535.0,0.840832
1540.0,0.840787
1545.0,0.841022
1550.0,0.840382
1555.0,0.841652
1560.0,0.842023
1565.0,0.842198
1570.0,0.842802
1575.0,0.842259
1580.0,0.841873
1585.0,0.842839
1590.0,0.844368
1595.0,0.845019
1600.0,0.846794
1605.0,0.848186
1610.0,0.849347
1615.0,0.84925
1620.0,0.850257
1625.0,0.850384
1630.0,0.850889
1635.0,0.852345
1640.0,0.851258
1645.0,0.852086
1650.0,0.853827
1655.0,0.855774
1660.0,0.854562
1665.0,0.857256
1670.0,0.857508
1675.0,0.856794
1680.0,0.853991
1685.0,0.855053
1690.0,0.854161
1695.0,0.854232
1700.0,0.855217
1705.0,0.855758
1710.0,0.854407
1715.0,0.853963
1720.0,0.854159
1725.0,0.851846
1730.0,0.850958
1735.0,0.850326
1740.0,0.847488
1745.0,0.845978
1750.0,0.845208
1755.0,0.844479
1760.0,0.842765
1765.0,0.840479
1770.0,0.84016
1775.0,0.834198
1780.0,0.834734
1785.0,0.83176
1790.0,0.831867
1795.0,0.829527
1800.0,0.825689
1805.0,0.826967
1810.0,0.822171
1815.0,0.819113
1820.0,0.821273
1825.0,0.824537
1830.0,0.819792
1835.0,0.813658
1840.0,0.818774
1845.0,0.818589
1850.0,0.816819
1855.0,0.820534
1860.0,0.815845
1865.0,0.810297
1870.0,0.787265
1875.0,0.795324
1880.0,0.779306
1885.0,0.752728
1890.0,0.737966
1895.0,0.710601
1900.0,0.681734
1905.0,0.651079
1910.0,0.634144
1915.0,0.62459
1920.0,0.631863
1925.0,0.646453
1930.0,0.652125
1935.0,0.665007
1940.0,0.665945
1945.0,0.670977
1950.0,0.676309
1955.0,0.679747
1960.0,0.685097
1965.0,0.689847
1970.0,0.692523
1975.0,0.699984
1980.0,0.700113
1985.0,0.704179
1990.0,0.708844
1995.0,0.711245
2000.0,0.714794
2005.0,0.718747
2010.0,0.723351
2015.0,0.725551
2020.0,0.730689
2025.0,0.731862
2030.0,0.732478
2035.0,0.736123
2040.0,0.738069
2045.0,0.738939
2050.0,0.738208
2055.0,0.736492
2060.0,0.736737
2065.0,0.733722
2070.0,0.731844
2075.0,0.732203
2080.0,0.730388
2085.0,0.728634
2090.0,0.723837
2095.0,0.723975
2100.0,0.721959
2105.0,0.715697
2110.0,0.707886
2115.0,0.702594
2120.0,0.698179
2125.0,0.696052
2130.0,0.692224
2135.0,0.680988
2140.0,0.667465
2145.0,0.652478
2150.0,0.628103
2155.0,0.604924
2160.0,0.581376
2165.0,0.569459
2170.0,0.562829
2175.0,0.559173
2180.0,0.553819
2185.0,0.544698
2190.0,0.53043
2195.0,0.506193
2200.0,0.479822
2205.0,0.437315
2210.0,0.424106
2215.0,0.469974
2220.0,0.533617
2225.0,0.578775
2230.0,0.597524
2235.0,0.610115
2240.0,0.616503
2245.0,0.618795
2250.0,0.62197
2255.0,0.619227
2260.0,0.622907
2265.0,0.620827
2270.0,0.619898
2275.0,0.614589
2280.0,0.614939
2285.0,0.612987
2290.0,0.607158
2295.0,0.599182
2300.0,0.590276
2305.0,0.579032
2310.0,0.569688
2315.0,0.56222
2320.0,0.556292
2325.0,0.554119
2330.0,0.553175
2335.0,0.549694
2340.0,0.546688
2345.0,0.536378
2350.0,0.527473
2355.0,0.521128
2360.0,0.51956
2365.0,0.520069
2370.0,0.513401
2375.0,0.50485
2380.0,0.496255
2385.0,0.489868
2390.0,0.488977
2395.0,0.489011
2400.0,0.490377
2405.0,0.491242
2410.0,0.486653
2415.0,0.481237
2420.0,0.47448
2425.0,0.470626
2430.0,0.461334
2435.0,0.452432
2440.0,0.448771
2445.0,0.443782
2450.0,0.437133
2455.0,0.433379
2460.0,0.433386
2465.0,0.428544
2470.0,0.422991
2475.0,0.41626
2480.0,0.414084
2485.0,0.403896
2490.0,0.397793
2495.0,0.397153
2500.0,0.395655
2505.0,0.39416
2509.26,0.391321
2511.69,0.389786
2514.13,0.388206
2516.57,0.38659
2519.02,0.384673
2521.47,0.382788
2523.92,0.381134
2526.38,0.379534
2528.85,0.37772
2531.32,0.376015
2533.79,0.374533
2536.27,0.372505
2538.75,0.369843
2541.24,0.367403
2543.74,0.365114
2546.24,0.36284
2548.74,0.360823
2551.25,0.35898
2553.76,0.356958
2556.28,0.354709
2558.8,0.352346
2561.33,0.349805
2563.86,0.346688
2566.4,0.343786
2568.95,0.34133
2571.5,0.338689
2574.05,0.336005
2576.61,0.333872
2579.17,0.331695
2581.74,0.329588
2584.31,0.327204
2586.89,0.324675
2589.48,0.322213
2592.07,0.319791
2594.66,0.317408
2597.26,0.31451
2599.87,0.311714
2602.48,0.309355
2605.09,0.306617
2607.71,0.303744
2610.34,0.300827
2612.97,0.297893
2615.61,0.294778
2618.25,0.291663
2620.9,0.287657
2623.55,0.283386
2626.21,0.279182
2628.87,0.2747
2631.54,0.269648
2634.22,0.264535
2636.89,0.259351
2639.58,0.253958
2642.27,0.248118
2644.97,0.242013
2647.67,0.235271
2650.38,0.228294
2653.09,0.22053
2655.81,0.212076
2658.53,0.203175
2661.26,0.193818
2664.0,0.183822
2666.74,0.17324
2669.48,0.161252
2672.23,0.148498
2674.99,0.135041
2677.76,0.12175
2680.52,0.10623
2683.3,0.090055
2686.08,0.073592
2688.87,0.056567
2691.66,0.041494
2694.46,0.029928
2697.26,0.021431
2700.07,0.016366
2702.89,0.014256
2705.71,0.014193
2708.53,0.015807
2711.37,0.017901
2714.21,0.019252
2717.05,0.019616
2719.9,0.020572
2722.76,0.02166
2725.62,0.022473
2728.49,0.022798
2731.37,0.02318
2734.25,0.023081
2737.14,0.023094
2740.03,0.023168
2742.93,0.023166
2745.83,0.022053
2748.75,0.020662
2751.66,0.019122
2754.59,0.018139
2757.52,0.017596
2760.46,0.018155
2763.4,0.020293
2766.35,0.024347
2769.3,0.028705
2772.26,0.033062
2775.23,0.036554
2778.21,0.039422
2781.19,0.042127
2784.18,0.045134
2787.17,0.047975
2790.17,0.051275
2793.18,0.05419
2796.19,0.057152
2799.21,0.059635
2802.24,0.061114
2805.27,0.061854
2808.31,0.0617
2811.35,0.060207
2814.41,0.059264
2817.46,0.05919
2820.53,0.060005
2823.6,0.061437
2826.68,0.062898
2829.77,0.063735
2832.86,0.064375
2835.96,0.065077
2839.07,0.066947
2842.18,0.069548
2845.3,0.072257
2848.43,0.074483
2851.56,0.076847
2854.7,0.078793
2857.85,0.080404
2861.0,0.081416
2864.16,0.082482
2867.33,0.083306
2870.51,0.084067
2873.69,0.084442
2876.88,0.084861
2880.07,0.084873
2883.28,0.084953
2886.49,0.085014
2889.71,0.084908
2892.93,0.08463
2896.17,0.0845
2899.4,0.084024
2902.65,0.084031
2905.91,0.084832
2909.17,0.086316
2912.44,0.087934
2915.71,0.090531
2918.99,0.093522
2922.29,0.096718
2925.58,0.099322
2928.89,0.101487
2932.2,0.103276
2935.52,0.104773
2938.85,0.105514
2942.19,0.105617
2945.53,0.105698
2948.88,0.106508
2952.24,0.107763
2955.61,0.10904
2958.98,0.109729
2962.36,0.110541
2965.75,0.112018
2969.15,0.114229
2972.55,0.116763
2975.97,0.119611
2979.39,0.121758
2982.82,0.123844
2986.25,0.126083
2989.7,0.128171
2993.15,0.130047
2996.61,0.131726
3000.08,0.133238
3003.55,0.13509
3007.04,0.13693
3010.53,0.138483
3014.03,0.140066
3017.54,0.142034
3021.06,0.143547
3024.58,0.144821
3028.12,0.146361
3031.66,0.148273
3035.21,0.149871
3038.77,0.151409
3042.33,0.15263
3045.91,0.153904
3049.49,0.155166
3053.08,0.156441
3056.68,0.15787
3060.29,0.158894
3063.91,0.15958
3067.54,0.160575
3071.17,0.161629
3074.81,0.16299
3078.47,0.164433
3082.13,0.165615
3085.79,0.166883
3089.47,0.168755
3093.16,0.170138
3096.85,0.171666
3100.56,0.173152
3104.27,0.17482
3107.99,0.175107
3111.73,0.176511
3115.47,0.178339
3119.21,0.179393
3122.97,0.181216
3126.74,0.182579
3130.52,0.183631
3134.3,0.185356
3138.1,0.187108
3141.9,0.189565
3145.71,0.191024
3149.54,0.191769
3153.37,0.193108
3155.29,0.19355
3157.21,0.194973
3159.13,0.196392
3161.06,0.196976
3162.99,0.197453
3164.92,0.198619
3166.85,0.199411
3168.79,0.1993
3170.72,0.199622
3172.67,0.200447
3174.61,0.200536
3176.55,0.20075
3178.5,0.202149
3180.45,0.204051
3182.4,0.205072
3184.36,0.205355
3186.32,0.205809
3188.27,0.206909
3190.24,0.207715
3192.2,0.208121
3194.17,0.208578
3196.14,0.209174
3198.11,0.2102
3200.08,0.211054
3202.06,0.21134
3204.04,0.212098
3206.02,0.213032
3208.0,0.214096
3209.99,0.21493
3211.98,0.215139
3213.97,0.215232
3215.96,0.216058
3217.96,0.217569
3219.96,0.218192
3221.96,0.219069
3223.96,0.220456
3225.97,0.220672
3227.98,0.22102
3229.99,0.221554
3232.0,0.22256
3234.02,0.223728
3236.04,0.223642
3238.06,0.224159
3240.08,0.22558
3242.11,0.226908
3244.14,0.227577
3246.17,0.227616
3248.2,0.22795
3250.24,0.228711
3252.28,0.229546
3254.32,0.230609
3256.37,0.231575
3258.41,0.231669
3260.46,0.231874
3262.51,0.232249
3264.57,0.233175
3266.63,0.234084
3268.69,0.234088
3270.75,0.234645
3272.81,0.235773
3274.88,0.236581
3276.95,0.237428
3279.02,0.237987
3281.1,0.23883
3283.18,0.239509
3285.26,0.239947
3287.34,0.24017
3289.43,0.240576
3291.51,0.241196
3293.61,0.242164
3295.7,0.243489
3297.8,0.244196
3299.9,0.244187
3302.0,0.244247
3304.1,0.245271
3306.21,0.245788
3308.32,0.245973
3310.43,0.247059
3312.55,0.248214
3314.66,0.248194
3316.79,0.248386
3318.91,0.249331
3321.03,0.250489
3323.16,0.251331
3325.29,0.251904
3327.43,0.252181
3329.57,0.25229
3331.71,0.252892
3333.85,0.253842
3335.99,0.253844
3338.14,0.254032
3340.29,0.25522
3342.45,0.255515
3344.6,0.255254
3346.76,0.255724
3348.92,0.256322
3351.09,0.257002
3353.26,0.25713
3355.43,0.257117
3357.6,0.257231
3359.78,0.257457
3361.96,0.257344
3364.14,0.257479
3366.32,0.257433
3368.51,0.258179
3370.7,0.258575
3372.89,0.258159
3375.09,0.258007
3377.29,0.258408
3379.49,0.258843
3381.69,0.259131
3383.9,0.259322
3386.11,0.259667
3388.32,0.260526
3390.54,0.26094
3392.76,0.261039
3394.98,0.261513
3397.21,0.261764
3399.43,0.261453
3401.66,0.261655
3403.9,0.262255
3406.13,0.262092
3408.37,0.261959
3410.61,0.261999
3412.86,0.261846
3415.11,0.262195
3417.36,0.262647
3419.61,0.263763
3421.87,0.265339
3424.13,0.267052
3426.39,0.268823
3428.66,0.270177
3430.93,0.271037
3433.2,0.272565
3435.48,0.273776
3437.76,0.275397
3440.04,0.276742
3442.32,0.277794
3444.61,0.278995
3446.9,0.279498
3449.19,0.280735
3451.49,0.282102
3453.79,0.282956
3456.09,0.283271
3458.4,0.284398
3460.7,0.285739
3463.02,0.286296
3465.33,0.286703
3467.65,0.287587
3469.97,0.288021
3472.29,0.288607
3474.62,0.289515
3476.95,0.290232
3479.29,0.290714
3481.62,0.290949
3483.96,0.291187
3486.3,0.291613
3488.65,0.292342
3491.0,0.292502
3493.35,0.292863
3495.71,0.293854
3498.07,0.294261
3500.43,0.294708
3502.79,0.295274
3505.16,0.296004
3507.53,0.297005
3509.91,0.298406
3512.29,0.299569
3514.67,0.300322
3517.05,0.301668
3519.44,0.302506
3521.83,0.303325
3524.23,0.305188
3526.62,0.306924
3529.02,0.307876
3531.43,0.308516
3533.83,0.309696
3536.24,0.311237
3538.66,0.312188
3541.08,0.312483
3543.5,0.313562
3545.92,0.315035
3548.35,0.316036
3550.78,0.315778
3553.21,0.315692
3555.65,0.315948
3558.09,0.315364
3560.53,0.314366
3562.98,0.313488
3565.43,0.312112
3567.88,0.310484
3570.34,0.309028
3572.8,0.308822
3575.27,0.309867
3577.73,0.31198
3580.2,0.315059
3582.68,0.318282
3585.16,0.320995
3587.64,0.323953
3590.12,0.326619
3592.61,0.328389
3595.1,0.329697
3597.6,0.331148
3600.09,0.332637
3602.6,0.33403
3605.1,0.335325
3607.61,0.336324
3610.12,0.337082
3612.64,0.337658
3615.16,0.338302
3617.68,0.339366
3620.21,0.340321
3622.74,0.340846
3625.27,0.34095
3627.81,0.341532
3630.35,0.342354
3632.89,0.343183
3635.44,0.34398
3637.99,0.34466
3640.54,0.345174
3643.1,0.34579
3645.66,0.346081
3648.23,0.346494
3650.8,0.346912
3653.37,0.347084
3655.95,0.347234
3658.53,0.347765
3661.11,0.348621
3663.7,0.349069
3666.29,0.34888
3668.89,0.348831
3671.48,0.349066
3674.09,0.349063
3676.69,0.348976
3679.3,0.348555
3681.91,0.348501
3684.53,0.349182
3687.15,0.350115
3689.78,0.351056
3692.4,0.351646
3695.04,0.352495
3697.67,0.353375
3700.31,0.354116
3702.95,0.354427
3705.6,0.354844
3708.25,0.355238
3710.91,0.355965
3713.56,0.35726
3716.23,0.359603
3718.89,0.360982
3721.56,0.362202
3724.23,0.363874
3726.91,0.365146
3729.59,0.366105
3732.28,0.366982
3734.97,0.367845
3737.66,0.36857
3740.36,0.368848
3743.06,0.369922
3745.76,0.371218
3748.47,0.372338
3751.18,0.373617
3753.9,0.374799
3756.62,0.375262
3759.34,0.376237
3762.07,0.3774
3764.8,0.377698
3767.54,0.378376
3770.28,0.379211
3773.02,0.379476
3775.77,0.379784
3778.52,0.380816
3781.28,0.381743
3784.04,0.382163
3786.8,0.382823
3789.57,0.383257
3792.34,0.384049
3795.12,0.384845
3797.9,0.385339
3800.69,0.385155
3803.47,0.385777
3806.27,0.386804
3809.06,0.387792
3811.86,0.388342
3814.67,0.388659
3817.48,0.389203
3820.29,0.389816
3823.11,0.389707
3825.93,0.389989
3828.76,0.390685
3831.59,0.391438
3834.42,0.392088
3837.26,0.392477
3840.1,0.392608
3842.95,0.392565
3845.8,0.393023
3848.65,0.393618
3851.51,0.394329
3854.38,0.394841
3857.24,0.395034
3860.12,0.39509
3862.99,0.395378
3865.87,0.395697
3868.76,0.396136
3871.65,0.397163
3874.54,0.397774
3877.44,0.398063
3880.34,0.398085
3883.25,0.398252
3886.16,0.398481
3889.07,0.39844
3891.99,0.399112
3894.92,0.399797
3897.85,0.399888
3900.78,0.399908
3903.72,0.400123
3906.66,0.400319
3909.6,0.40059
3912.55,0.400903
3915.51,0.401271
3918.47,0.401826
3921.43,0.402137
3924.4,0.402323
3927.38,0.402268
3930.35,0.402199
3933.33,0.40264
3936.32,0.403156
3939.31,0.403139
3942.31,0.403586
3945.31,0.403612
3948.31,0.403192
3951.32,0.403277
3954.34,0.403692
3957.35,0.403858
3960.38,0.404045
3963.41,0.403885
3966.44,0.403638
3969.48,0.403819
3972.52,0.404104
3975.56,0.404014
3978.61,0.404435
3981.67,0.40415
3984.73,0.404211
3987.8,0.404849
3990.87,0.404746
3993.94,0.404282
3997.02,0.404159
4000.1,0.404258
4003.19,0.404647
4006.29,0.404624
4009.39,0.404408
4012.49,0.404509
4015.6,0.404761
4018.71,0.405157
4021.83,0.405268
4024.95,0.405212
4028.08,0.405003
4031.21,0.405246
4034.35,0.40553
4037.49,0.405046
4040.64,0.405225
4043.79,0.40553
4046.94,0.405182
4050.11,0.404925
4053.27,0.405197
4056.44,0.405516
4059.62,0.405592
4062.8,0.405355
4065.99,0.405318
4069.18,0.405443
4072.38,0.405274
4075.58,0.404744
4078.78,0.404033
4082.0,0.403827
4085.21,0.4042
4088.43,0.404494
4091.66,0.404689
4094.89,0.404432
4098.13,0.40407
4101.37,0.403982
4104.62,0.403914
4107.87,0.403845
4111.13,0.404415
4114.39,0.404464
4117.66,0.404016
4120.93,0.403762
4124.21,0.403852
4127.5,0.403811
4130.79,0.403614
4134.08,0.403839
4137.38,0.404123
4140.68,0.403632
4143.99,0.403182
4147.31,0.40334
4150.63,0.403354
4153.95,0.403038
4157.29,0.403062
4160.62,0.402928
4163.96,0.403266
4167.31,0.403359
4170.66,0.402902
4174.02,0.402803
4177.39,0.402906
4180.75,0.402802
4184.13,0.402974
4187.51,0.402987
4190.89,0.402761
4194.28,0.402388
4197.68,0.40247
4201.08,0.402681
4204.49,0.402425
4207.9,0.402261
4211.32,0.402305
4214.74,0.402305
4218.17,0.402651
4221.61,0.402992
4225.05,0.402561
4228.5,0.401915
4231.95,0.402436
4235.4,0.403131
4238.87,0.402975
4242.34,0.402227
4245.81,0.401734
4249.29,0.40153
4252.78,0.401751
4256.27,0.401575
4259.77,0.401118
4263.27,0.400908
4266.78,0.400652
4270.29,0.400376
4273.81,0.400382
4277.34,0.400196
4280.87,0.400469
4284.41,0.4007
4287.95,0.40058
4291.5,0.400332
4295.06,0.400347
4298.62,0.399969
4302.19,0.399626
4305.76,0.399706
4309.34,0.399374
4312.92,0.398955
4316.52,0.398514
4320.11,0.398232
4323.72,0.398209
4327.32,0.397683
4330.94,0.397415
4334.56,0.397247
4338.19,0.397283
4341.82,0.396813
4345.46,0.396209
4349.11,0.396326
4352.76,0.396554
4356.42,0.396123
4360.08,0.395864
4363.75,0.395631
4367.43,0.395503
4371.11,0.395509
4374.8,0.395704
4378.49,0.395396
4382.19,0.394941
4385.9,0.394519
4389.61,0.394335
4393.33,0.394396
4397.06,0.394766
4400.79,0.394523
4404.53,0.394304
4408.28,0.393889
4412.03,0.393947
4415.79,0.394117
4419.55,0.393863
4423.32,0.393167
4427.1,0.392745
4430.88,0.392808
4434.68,0.39281
4438.47,0.392133
4442.28,0.392133
4446.08,0.392443
4449.9,0.392443
4453.72,0.391978
4457.55,0.391565
4461.39,0.391149
4465.23,0.390632
4469.08,0.389733
4472.94,0.389403
4476.8,0.389322
4480.67,0.389094
4484.55,0.388635
4488.43,0.388288
4492.32,0.387972
4496.21,0.387933
4500.12,0.387471
4504.03,0.38693
4507.94,0.386938
4511.87,0.386691
4515.8,0.386115
4519.73,0.385403
4523.68,0.384899
4527.63,0.384732
4531.59,0.384584
4535.55,0.384499
4539.52,0.384211
4543.5,0.383627
4547.49,0.382859
4551.48,0.382615
4555.48,0.382324
4559.49,0.381925
4563.5,0.381321
4567.52,0.380746
4571.55,0.379835
4575.58,0.378754
4579.63,0.377817
4583.67,0.37759
4587.73,0.377144
4591.79,0.376375
4595.86,0.375043
4599.94,0.374074
4604.03,0.373317
4608.12,0.372446
4612.22,0.371169
4616.33,0.370019
4620.44,0.369177
4624.56,0.368238
4628.69,0.36672
4632.83,0.365286
4636.97,0.364065
4641.12,0.363337
4645.28,0.362158
4649.45,0.361245
4653.62,0.360357
4657.8,0.359485
4661.99,0.35808
4666.19,0.357008
4670.39,0.356406
4674.6,0.356461
4678.82,0.356211
4683.05,0.355901
4687.28,0.355567
4691.52,0.355549
4695.77,0.355277
4700.03,0.354886
4704.3,0.354404
4708.57,0.354387
4712.85,0.354726
4717.14,0.355122
4721.43,0.354812
4725.74,0.354449
4730.05,0.35413
4734.37,0.353782
4738.7,0.353442
4743.03,0.353403
4747.38,0.3532
4751.73,0.353111
4756.09,0.353113
4760.45,0.352755
4764.83,0.352052
4769.21,0.351716
4773.6,0.351314
4778.0,0.350921
4782.41,0.350298
4786.83,0.349723
4791.25,0.348591
4795.68,0.347919
4800.13,0.34749
4804.57,0.346543
4809.03,0.34518
4813.5,0.344103
4817.97,0.343027
4822.45,0.342104
4826.94,0.340853
4831.44,0.339904
4835.95,0.338954
4840.46,0.337867
4844.99,0.336837
4849.52,0.335912
4854.06,0.334736
4858.61,0.333711
4863.17,0.332454
4867.73,0.331678
4872.31,0.330758
4876.89,0.329537
4881.48,0.328699
4886.08,0.328149
4890.69,0.327066
4895.31,0.326033
4899.94,0.325125
4904.57,0.324141
4909.22,0.323005
4913.87,0.322175
4918.53,0.321395
4923.21,0.320584
4927.88,0.319608
4932.57,0.318809
4937.27,0.31777
4941.98,0.317036
4946.69,0.316057
4951.42,0.314975
4956.15,0.31358
4960.9,0.312556
4965.65,0.311174
4970.41,0.309418
4975.18,0.307659
4979.96,0.306442
4984.75,0.305033
4989.54,0.303486
4994.35,0.301683
4999.17,0.299936
5003.99,0.298235
5008.83,0.296583
5013.67,0.294835
5018.52,0.292999
5023.39,0.290775
5028.26,0.288729
5033.14,0.287191
5038.03,0.285404
5042.93,0.282908
5047.84,0.280836
5052.76,0.278785
5057.69,0.276756
5062.63,0.274549
5067.58,0.272473
5072.54,0.270293
5077.51,0.268458
5082.49,0.266209
5087.47,0.264235
5092.47,0.262151
5097.48,0.259852
5102.5,0.257898
5107.52,0.256343
5112.56,0.25445
5117.61,0.252502
5122.66,0.250628
5127.73,0.248999
5132.81,0.24728
5137.89,0.24545
5142.99,0.243817
5148.1,0.242562
5153.22,0.241405
5158.34,0.240292
5163.48,0.239377
5168.63,0.238458
5173.79,0.237395
5178.96,0.23693
5184.13,0.236818
5189.32,0.236746
5194.52,0.236215
5199.73,0.23578
5204.96,0.235447
5210.19,0.235115
5215.43,0.235201
5220.68,0.235328
5225.94,0.23506
5231.22,0.235032
5236.5,0.235336
5241.79,0.235477
5247.1,0.235703
5252.42,0.236248
5257.74,0.236413
5263.08,0.236216
5268.43,0.236437
5273.79,0.236668
5279.16,0.236609
5284.54,0.236592
5289.93,0.236226
5295.34,0.235728
5300.75,0.235233
5306.18,0.234636
5311.61,0.233927
5317.06,0.233153
5322.52,0.232283
5327.99,0.231087
5333.47,0.230021
5338.96,0.229025
5344.47,0.227885
5349.98,0.22672
5355.51,0.225357
5361.05,0.224175
5366.6,0.222832
5372.16,0.221321
5377.73,0.219746
5383.32,0.218143
5388.91,0.216884
5394.52,0.215684
5400.14,0.214347
5405.77,0.212995
5411.41,0.211559
5417.07,0.210599
5422.74,0.209365
5428.41,0.208295
5434.1,0.206741
5439.81,0.204936
5445.52,0.203673
5451.25,0.202058
5456.98,0.200665
5462.73,0.199857
5468.5,0.199686
5474.27,0.198622
5480.06,0.197295
5485.86,0.19683
5491.67,0.196896
5497.49,0.197058
5503.33,0.197608
5509.18,0.198904
5515.04,0.200746
5520.91,0.202638
5526.8,0.204774
5532.69,0.2072
5538.61,0.209597
5544.53,0.212244
5550.47,0.214911
5556.41,0.217563
5562.38,0.220097
5568.35,0.222509
5574.34,0.224266
5580.34,0.226182
5586.35,0.228321
5592.38,0.229569
5598.42,0.230491
5604.47,0.231765
5610.54,0.232677
5616.61,0.233463
5622.71,0.234307
5628.81,0.234561
5634.93,0.234149
5641.06,0.234162
5647.21,0.234169
5653.36,0.233658
5659.54,0.23302
5665.72,0.232662
5671.92,0.231468
5678.13,0.230503
5684.36,0.229204
5690.6,0.228179
5696.85,0.227471
5703.12,0.226612
5709.4,0.225241
5715.69,0.224829
5722.0,0.223584
5728.33,0.22215
5734.66,0.220764
5741.01,0.219789
5747.38,0.218662
5753.76,0.217649
5760.15,0.216013
5766.56,0.215071
5772.98,0.2149
5779.41,0.213055
5785.86,0.211632
5792.33,0.21108
5798.81,0.21009
5805.3,0.209517
5811.81,0.20881
5818.33,0.207877
5824.87,0.207635
5831.42,0.20807
5837.99,0.207035
5844.57,0.205807
5851.17,0.204929
5857.78,0.204627
5864.41,0.20395
5871.05,0.203474
5877.7,0.202547
5884.38,0.202023
5891.06,0.201346
5897.76,0.200029
5904.48,0.199189
5911.21,0.198347
5917.96,0.197375
5924.73,0.196279
5931.5,0.194641
5938.3,0.193795
5945.11,0.19273
5951.93,0.190409
5958.78,0.187452
5965.63,0.184979
5972.51,0.182751
5979.39,0.179898
5986.3,0.176121
5993.22,0.172991
6000.16,0.168968
6007.11,0.164376
6014.08,0.158837
6021.06,0.152605
6028.06,0.145223
6035.08,0.136761
6042.12,0.128055
6049.17,0.1217
6056.23,0.117521
6063.32,0.117313
6070.42,0.118852
6077.53,0.122555
6084.67,0.125714
6091.82,0.127645
6098.98,0.129022
6106.17,0.130726
6113.37,0.13216
6120.58,0.133881
6127.82,0.134711
6135.07,0.135763
6142.34,0.137196
6149.63,0.139317
6156.93,0.141357
6164.25,0.143536
6171.59,0.146189
6178.95,0.148568
6186.32,0.150757
6193.71,0.153859
6201.12,0.156037
6208.54,0.157333
6215.99,0.158465
6223.45,0.159409
6230.93,0.159386
6238.43,0.158904
6245.95,0.158147
6253.48,0.15686
6261.03,0.15521
6268.6,0.153751
6276.19,0.152085
6283.8,0.15031
6291.43,0.14842
6299.07,0.146506
6306.73,0.145059
6314.42,0.144104
6322.12,0.143812
6329.84,0.144179
6337.57,0.144773
6345.33,0.145738
6353.11,0.147875
6360.9,0.14974
6368.72,0.151447
6376.55,0.154129
6384.4,0.156717
6392.27,0.158514
6400.17,0.160414
6408.08,0.162064
6416.01,0.164684
6423.96,0.168267
6431.93,0.169375
6439.92,0.17054
6447.93,0.172263
6455.96,0.17387
6464.01,0.17552
6472.08,0.176897
6480.17,0.178973
6488.28,0.180646
6496.41,0.182453
6504.56,0.184052
6512.73,0.184486
6520.92,0.184576
6529.14,0.185971
6537.37,0.187088
6545.63,0.187442
6553.9,0.187907
6562.2,0.188521
6570.51,0.188603
6578.85,0.188762
6587.21,0.188625
6595.59,0.188309
6603.99,0.187817
6612.42,0.187012
6620.86,0.186486
6629.33,0.185847
6637.82,0.185597
6646.33,0.185197
6654.86,0.183399
6663.41,0.182135
6671.99,0.18138
6680.59,0.180762
6689.21,0.180547
6697.85,0.179705
6706.51,0.178583
6715.2,0.178006
6723.91,0.177138
6732.64,0.175463
6741.4,0.173968
6750.18,0.172429
6758.98,0.170855
6767.8,0.168996
6776.65,0.167208
6785.52,0.165417
6794.41,0.163523
6803.33,0.161016
6812.27,0.159259
6821.23,0.158491
6830.22,0.158111
6839.23,0.158085
6848.26,0.158166
6857.32,0.158498
6866.4,0.158968
6875.51,0.159494
6884.64,0.158527
6893.8,0.157608
6902.98,0.156818
6912.18,0.15654
6921.41,0.156295
6930.66,0.155574
6939.94,0.154575
6949.24,0.15312
6958.57,0.151759
6967.92,0.151046
6977.3,0.14979
6986.7,0.147553
6996.13,0.145435
7005.59,0.143287
7015.07,0.141082
7024.57,0.139123
7034.1,0.137348
7043.66,0.135479
7053.25,0.133948
7062.85,0.132389
7072.49,0.131244
7082.15,0.130304
7091.84,0.130177
7101.55,0.130061
7111.3,0.12934
7121.06,0.128981
7130.86,0.129307
7140.68,0.129042
7150.53,0.128486
7160.41,0.127456
7170.31,0.126471
7180.24,0.125392
7190.2,0.124533
7200.19,0.123712
7210.2,0.122893
7220.24,0.121648
7230.31,0.120209
7240.41,0.118829
7250.54,0.117548
7260.69,0.1161
7270.88,0.114916
7281.09,0.113379
7291.33,0.111879
7301.6,0.110005
7311.9,0.107835
7322.22,0.10533
7332.58,0.1038
7342.97,0.1029
7353.38,0.101897
7363.83,0.100884
7374.3,0.099523
7384.81,0.097475
7395.34,0.095614
7405.91,0.093993
7416.5,0.093097
7427.13,0.092674
7437.78,0.09192
7448.47,0.091209
7459.19,0.090751
7469.94,0.08977
7480.71,0.088672
7491.52,0.087437
7502.37,0.086426
7513.24,0.085413
7524.14,0.083918
7535.08,0.081936
7546.05,0.080359
7557.05,0.079016
7568.08,0.077824
7579.15,0.07653
7590.24,0.075375
7601.37,0.073722
7612.53,0.072166
7623.73,0.070609
7634.96,0.069305
7646.22,0.06762
7657.51,0.065941
7668.84,0.064495
7680.2,0.063452
7691.59,0.061823
7703.02,0.060117
7714.49,0.058317
7725.98,0.056716
7737.52,0.054834
7749.08,0.053201
7760.68,0.051096
7772.32,0.049175
7783.99,0.047476
7795.69,0.045599
7807.43,0.043445
7819.21,0.041625
7831.02,0.039757
7842.87,0.038401
7854.75,0.036891
7866.67,0.034938
7878.62,0.032959
7890.62,0.031777
7902.64,0.030294
7914.71,0.028388
7926.81,0.026513
7938.95,0.025156
7951.13,0.023699
7963.34,0.022316
7975.59,0.020856
7987.88,0.019977
8000.21,0.018475
8012.57,0.017153
8024.98,0.015835
8037.42,0.014824
8049.9,0.013617
8062.42,0.012622
8074.98,0.011559
8087.57,0.010611
8100.21,0.00974
8112.89,0.009056
8125.6,0.007929
8138.36,0.007814
8151.16,0.00767
8163.99,0.007308
8176.87,0.006916
8189.79,0.006383
8202.75,0.005953
8215.75,0.005894
8228.79,0.005626
8241.87,0.005648
8254.99,0.005741
8268.16,0.005818
8281.37,0.005813
8294.62,0.006393
8307.91,0.007149
8321.24,0.008179
8334.62,0.009096
8348.04,0.010177
8361.51,0.011231
8375.02,0.012832
8388.57,0.014978
8402.16,0.017346
8415.8,0.019515
8429.49,0.022306
8443.22,0.025357
8456.99,0.029053
8470.81,0.032567
8484.67,0.036793
8498.58,0.041385
8512.54,0.046103
8526.54,0.050693
8540.58,0.055232
8554.68,0.059985
8568.82,0.064943
8583.0,0.069424
8597.24,0.074139
8611.52,0.079141
8625.85,0.084108
8640.23,0.088769
8654.65,0.09295
8669.12,0.096352
8683.64,0.099732
8698.21,0.102794
8712.83,0.105204
8727.5,0.107097
8742.22,0.108145
8756.99,0.10781
8771.8,0.106004
8786.67,0.103411
8801.59,0.100239
8816.56,0.096473
8831.58,0.091642
8846.65,0.085468
8861.77,0.079236
8876.94,0.073078
8892.17,0.067058
8907.45,0.061314
8922.78,0.056642
8938.16,0.052429
8953.6,0.049792
8969.09,0.048847
8984.64,0.049191
9000.23,0.050403
9015.89,0.053455
9031.59,0.058176
9047.36,0.063365
9063.17,0.067953
9079.05,0.071967
9094.97,0.074908
9110.96,0.076902
9127.0,0.078467
9143.1,0.080003
9159.25,0.080679
9175.46,0.080729
9191.73,0.08056
9208.06,0.080492
9224.44,0.079785
9240.88,0.079664
9257.38,0.079756
9273.94,0.079058
9290.56,0.078251
9307.24,0.077861
9323.98,0.077431
9340.78,0.076661
9357.64,0.075725
9374.57,0.074449
9391.55,0.073228
9408.59,0.072429
9425.7,0.071026
9442.87,0.069582
9460.1,0.068677
9477.4,0.067791
9494.75,0.066087
9512.17,0.064638
9529.66,0.062646
9547.21,0.060776
9564.83,0.058738
9582.5,0.057577
9600.25,0.056
9618.06,0.053418
9635.94,0.051311
9653.88,0.049841
9671.89,0.048451
9689.97,0.047117
9708.12,0.045602
9726.33,0.04426
9744.62,0.043214
9762.97,0.042712
9781.39,0.042052
9799.88,0.041241
9818.44,0.040899
9837.07,0.040768
9855.77,0.040378
9874.54,0.040591
9893.39,0.040292
9912.3,0.040499
9931.29,0.04031
9950.36,0.040118
9969.49,0.040494
9988.7,0.040634
10007.98,0.040246
10027.34,0.040075
10046.77,0.039897
10066.28,0.040175
10085.87,0.040227
10105.53,0.040974
10125.26,0.042093
10145.08,0.043033
10164.97,0.043578
10184.94,0.044068
10204.99,0.044655
10225.12,0.045438
10245.33,0.045401
10265.61,0.045021
10285.98,0.044217
10306.43,0.043744
10326.96,0.04291
10347.57,0.041947
10368.27,0.040933
10389.05,0.039929
10409.91,0.03821
10430.86,0.036614
10451.88,0.035199
10473.0,0.034007
10494.2,0.032372
10515.49,0.031079
10536.86,0.029756
10558.32,0.027885
10579.87,0.026588
10601.5,0.02569
10623.23,0.024679
10645.04,0.02418
10666.94,0.023464
10688.94,0.0235
10711.02,0.023543
10733.2,0.023504
10755.47,0.023394
10777.83,0.022948
10800.28,0.022627
10822.83,0.023672
10845.47,0.024749
10868.21,0.025596
10891.04,0.026888
10913.97,0.028257
10936.99,0.029328
10960.12,0.031003
10983.34,0.031808
11006.66,0.031982
11030.07,0.032707
11053.59,0.033258
11077.21,0.033322
11100.93,0.033956
11124.75,0.034948
11148.68,0.035433
11172.71,0.036147
11196.84,0.037134
11221.07,0.037854
11245.41,0.038658
11269.86,0.039282
11294.41,0.040427
11319.07,0.041278
11343.84,0.041679
11368.72,0.041552
11393.7,0.041976
11418.8,0.042856
11444.01,0.044289
11469.33,0.045216
11494.76,0.04543
11520.3,0.045898
11545.96,0.046488
11571.73,0.047286
11597.62,0.048206
11623.62,0.048906
11649.74,0.049319
11675.98,0.049531
11702.34,0.050125
11728.81,0.050311
11755.41,0.051099
11782.13,0.051326
11808.96,0.051436
11835.92,0.052546
11863.01,0.05275
11890.22,0.052337
11917.55,0.052478
11945.01,0.053001
11972.6,0.053297
12000.31,0.052988
12028.16,0.052727
12056.13,0.052422
12084.23,0.052411
12112.46,0.051692
12140.83,0.050432
12169.33,0.04921
12197.96,0.047946
12226.73,0.046167
12255.64,0.044127
12284.68,0.042645
12313.86,0.04114
12343.18,0.038501
12372.64,0.036737
12402.24,0.035554
12431.98,0.034231
12461.86,0.033073
12491.89,0.032092
12522.07,0.03128
12552.38,0.030713
12582.85,0.030006
12613.47,0.029508
12644.23,0.02897
12675.15,0.029282
12706.21,0.029355
12737.43,0.029559
12768.81,0.029675
12800.33,0.029116
12832.02,0.029144
12863.86,0.029644
12895.86,0.029064
12928.02,0.027873
12960.34,0.026001
12992.82,0.02502
13025.46,0.024046
13058.27,0.023059
13091.25,0.022504
13124.39,0.021369
13157.7,0.020248
13191.18,0.019884
13224.83,0.01925
13258.66,0.019504
13292.65,0.019183
13326.83,0.018475
13361.17,0.018749
13395.7,0.019318
13430.4,0.019473
13465.29,0.020023
13500.35,0.020277
13535.6,0.020483
13571.03,0.021425
13606.65,0.021344
13642.46,0.020752
13678.46,0.020585
13714.64,0.020534
13751.02,0.019457
13787.59,0.017687
13824.36,0.017032
13861.32,0.016935
13898.49,0.015558
13935.85,0.013531
13973.41,0.011949
14011.17,0.011381
14049.15,0.011196
14087.32,0.010067
14125.71,0.010182
14164.3,0.011275
14203.11,0.012079
14242.13,0.012825
14281.36,0.014511
14320.81,0.015641
14360.49,0.017163
14400.38,0.018775
14440.49,0.019212
14480.82,0.018415
14521.39,0.01857
14562.18,0.018547
14603.2,0.019155
14644.45,0.019761
14685.93,0.02009
14727.66,0.019542
14769.62,0.019717
14811.81,0.020651
14854.25,0.021078
14896.94,0.021127
14939.87,0.021755
14983.05,0.021325
15026.48,0.020144
15070.16,0.019881
15114.1,0.020023
15158.29,0.020393
15202.74,0.020243
15247.46,0.019924
15292.43,0.019562
15337.68,0.019227
15383.19,0.020919
15428.97,0.021455
15475.03,0.021718
15521.36,0.022455
15567.97,0.022464
15614.87,0.02305
15662.04,0.024172
15709.5,0.025204
15757.25,0.026783
15805.29,0.028523
15853.62,0.029819
15902.26,0.029945
15951.19,0.03122
16000.42,0.034175
16049.95,0.037476
16099.8,0.040155
16149.95,0.042957
16200.42,0.045399
16251.21,0.047321
16302.31,0.049939
16353.74,0.052289
16405.49,0.053251
16457.57,0.054266
16509.98,0.055682
16562.73,0.056497
16615.82,0.05746
16669.24,0.057869
16723.02,0.058243
16777.14,0.057787
16831.61,0.05784
16886.43,0.057976
16941.62,0.058296
16997.16,0.060357
17053.08,0.060987
17109.36,0.061071
17166.01,0.061773
17223.04,0.062214
17280.45,0.062298
17338.24,0.062619
17396.43,0.06336
17455.0,0.063978
17513.97,0.06434
17573.34,0.06464
17633.11,0.065534
17693.29,0.066641
17753.89,0.065325
17814.9,0.064226
17876.33,0.063877
17938.18,0.064841
18000.47,0.065859
18063.19,0.065506
18126.35,0.065363
18189.95,0.066108
18254.0,0.066232
18318.5,0.065865
18383.46,0.066403
18448.88,0.065472
18514.77,0.065329
18581.13,0.066416
18647.97,0.066904
18715.29,0.064457
18783.1,0.06076
18851.4,0.060677
18920.2,0.060443
18989.51,0.059043
19059.32,0.059083
19129.65,0.057669
19200.5,0.05437
19271.88,0.052811
19343.79,0.053042
19416.24,0.050681
19489.23,0.04784
19562.77,0.046757
19636.88,0.045718
19711.54,0.043982
19786.78,0.042041
19862.59,0.041826
19938.98,0.04227
20015.96,0.042448
20093.55,0.041717
20171.73,0.039195
20250.53,0.036807
20329.94,0.037499
20409.98,0.038463
20490.65,0.039234
20571.96,0.039712
20653.92,0.044241
20736.54,0.051941
20819.82,0.057359
20903.77,0.06259
20988.4,0.067446
21073.72,0.070112
21159.73,0.071656
21246.46,0.070533
21333.89,0.068072
21422.04,0.066329
21510.93,0.06493
21600.56,0.063327
21690.94,0.063034
21782.08,0.062055
21873.99,0.058641
21966.67,0.054751
22060.15,0.05238
22154.42,0.051388
22249.51,0.051878
22345.41,0.05214
22442.14,0.052392
22539.72,0.050928
22638.14,0.049955
22737.43,0.049613
22837.6,0.049698
22938.65,0.051173
23040.6,0.054643
23143.46,0.055295
23247.24,0.053734
23351.96,0.051274
23457.63,0.052934
23564.25,0.056436
23671.85,0.054848
23780.44,0.04998
23890.02,0.047554
24000.63,0.048145
24112.26,0.047962
24224.93,0.04636
24338.66,0.047526
24453.47,0.047981
24569.36,0.051629
24686.36,0.053869
24804.47,0.052581
24923.73,0.051259
25044.13,0.055097
25165.71,0.057127
25288.46,0.058901
25412.43,0.050816
25537.61,0.050612
25664.04,0.058767
25791.72,0.056115
25920.68,0.047837
