Database of Origin,University of Winnipeg Spectrophotometer Facility
Sample Description,"RELAB plus Nicolet merged plagioclase data. Merged @2500nm, different viewing geometries. See Master Plagioclase in PSF sample database for more information"
Date Added,2016-11-22 03:59:30.020037

Data ID,RLA_PLG_17          
Sample ID,PLG118
Mineral Name,Albite
Grain Size,<45
Viewing Geometry,"30/0,30"
Resolution,"5,0.6-129"
Composition,An1
Material Class,Tectosilicate

Wavelength
300.0,0.557475
305.0,0.568011
310.0,0.583281
315.0,0.591988
320.0,0.602278
325.0,0.613083
330.0,0.620127
335.0,0.628828
340.0,0.63699
345.0,0.641956
350.0,0.6492
355.0,0.657304
360.0,0.66165
365.0,0.668254
370.0,0.672033
375.0,0.676279
380.0,0.679052
385.0,0.685349
390.0,0.687662
395.0,0.691488
400.0,0.6938
405.0,0.694253
410.0,0.699271
415.0,0.701888
420.0,0.709526
425.0,0.712822
430.0,0.714308
435.0,0.718749
440.0,0.719514
445.0,0.722161
450.0,0.723284
455.0,0.724676
460.0,0.72571
465.0,0.72708
470.0,0.727258
475.0,0.729373
480.0,0.730217
485.0,0.729997
490.0,0.731002
495.0,0.731797
500.0,0.732772
505.0,0.734252
510.0,0.734683
515.0,0.736884
520.0,0.73657
525.0,0.739177
530.0,0.73935
535.0,0.742273
540.0,0.741735
545.0,0.744852
550.0,0.745956
555.0,0.747361
560.0,0.74804
565.0,0.749299
570.0,0.751028
575.0,0.750916
580.0,0.752223
585.0,0.753178
590.0,0.755982
595.0,0.755031
600.0,0.756223
605.0,0.757238
610.0,0.756557
615.0,0.758045
620.0,0.756344
625.0,0.757332
630.0,0.756557
635.0,0.758457
640.0,0.75651
645.0,0.75891
650.0,0.757878
655.0,0.759059
660.0,0.759319
665.0,0.760508
670.0,0.76028
675.0,0.760286
680.0,0.762005
685.0,0.759296
690.0,0.762358
695.0,0.760834
700.0,0.762647
705.0,0.762154
710.0,0.762059
715.0,0.761821
720.0,0.762908
725.0,0.763318
730.0,0.761867
735.0,0.763782
740.0,0.762291
745.0,0.763774
750.0,0.762767
755.0,0.761538
760.0,0.76097
765.0,0.76376
770.0,0.760737
775.0,0.762371
780.0,0.762403
785.0,0.762655
790.0,0.762768
795.0,0.762979
800.0,0.76345
805.0,0.763926
810.0,0.763811
815.0,0.764436
820.0,0.764954
825.0,0.764422
830.0,0.764727
835.0,0.765519
840.0,0.764674
845.0,0.765593
850.0,0.766156
855.0,0.764934
860.0,0.765465
865.0,0.766165
870.0,0.764279
875.0,0.7667
880.0,0.7655
885.0,0.7642
890.0,0.76408
895.0,0.76431
900.0,0.763336
905.0,0.765131
910.0,0.765323
915.0,0.7658
920.0,0.764695
925.0,0.765486
930.0,0.765006
935.0,0.765179
940.0,0.765009
945.0,0.763521
950.0,0.76379
955.0,0.76351
960.0,0.764175
965.0,0.764233
970.0,0.765563
975.0,0.765211
980.0,0.766189
985.0,0.764074
990.0,0.763919
995.0,0.762033
1000.0,0.761921
1005.0,0.76127
1010.0,0.761896
1015.0,0.761962
1020.0,0.762822
1025.0,0.761434
1030.0,0.7615
1035.0,0.762353
1040.0,0.761378
1045.0,0.761266
1050.0,0.762198
1055.0,0.762308
1060.0,0.762105
1065.0,0.762205
1070.0,0.76321
1075.0,0.762759
1080.0,0.762166
1085.0,0.761149
1090.0,0.760999
1095.0,0.760825
1100.0,0.761194
1105.0,0.762367
1110.0,0.763155
1115.0,0.763431
1120.0,0.763274
1125.0,0.763688
1130.0,0.763246
1135.0,0.764941
1140.0,0.765813
1145.0,0.764849
1150.0,0.76488
1155.0,0.765298
1160.0,0.764641
1165.0,0.763773
1170.0,0.765891
1175.0,0.76637
1180.0,0.765024
1185.0,0.763422
1190.0,0.762909
1195.0,0.759443
1200.0,0.761167
1205.0,0.760129
1210.0,0.757194
1215.0,0.756586
1220.0,0.755055
1225.0,0.755552
1230.0,0.755479
1235.0,0.755266
1240.0,0.754537
1245.0,0.754259
1250.0,0.75285
1255.0,0.75278
1260.0,0.753214
1265.0,0.753876
1270.0,0.754325
1275.0,0.754262
1280.0,0.754575
1285.0,0.755156
1290.0,0.7537
1295.0,0.752363
1300.0,0.752468
1305.0,0.753489
1310.0,0.75213
1315.0,0.753093
1320.0,0.755707
1325.0,0.755765
1330.0,0.755238
1335.0,0.756516
1340.0,0.756504
1345.0,0.754516
1350.0,0.75333
1355.0,0.752311
1360.0,0.751641
1365.0,0.753195
1370.0,0.752877
1375.0,0.752877
1380.0,0.755014
1385.0,0.755395
1390.0,0.754901
1395.0,0.756803
1400.0,0.758041
1405.0,0.75756
1410.0,0.757986
1415.0,0.758619
1420.0,0.758616
1425.0,0.757925
1430.0,0.758396
1435.0,0.757552
1440.0,0.75692
1445.0,0.756706
1450.0,0.756859
1455.0,0.75638
1460.0,0.757557
1465.0,0.757395
1470.0,0.75663
1475.0,0.756327
1480.0,0.756387
1485.0,0.757317
1490.0,0.758179
1495.0,0.75901
1500.0,0.760022
1505.0,0.760189
1510.0,0.760297
1515.0,0.760469
1520.0,0.76079
1525.0,0.761065
1530.0,0.760865
1535.0,0.760933
1540.0,0.760409
1545.0,0.760403
1550.0,0.759963
1555.0,0.76113
1560.0,0.761538
1565.0,0.761419
1570.0,0.761189
1575.0,0.760892
1580.0,0.760611
1585.0,0.760539
1590.0,0.761957
1595.0,0.762594
1600.0,0.764387
1605.0,0.764139
1610.0,0.764228
1615.0,0.764189
1620.0,0.764534
1625.0,0.763464
1630.0,0.763634
1635.0,0.763522
1640.0,0.763673
1645.0,0.763567
1650.0,0.763852
1655.0,0.764298
1660.0,0.764404
1665.0,0.764207
1670.0,0.764003
1675.0,0.764614
1680.0,0.764285
1685.0,0.764343
1690.0,0.763084
1695.0,0.762427
1700.0,0.76285
1705.0,0.764144
1710.0,0.764204
1715.0,0.76514
1720.0,0.76543
1725.0,0.766579
1730.0,0.766272
1735.0,0.765997
1740.0,0.765736
1745.0,0.765678
1750.0,0.764145
1755.0,0.764237
1760.0,0.765047
1765.0,0.764357
1770.0,0.764964
1775.0,0.765315
1780.0,0.765037
1785.0,0.764258
1790.0,0.76475
1795.0,0.765398
1800.0,0.766241
1805.0,0.766002
1810.0,0.766136
1815.0,0.766666
1820.0,0.764663
1825.0,0.763108
1830.0,0.763516
1835.0,0.765159
1840.0,0.765868
1845.0,0.766364
1850.0,0.767763
1855.0,0.768624
1860.0,0.766447
1865.0,0.766656
1870.0,0.769022
1875.0,0.768652
1880.0,0.768024
1885.0,0.769869
1890.0,0.768693
1895.0,0.766231
1900.0,0.765837
1905.0,0.764973
1910.0,0.762306
1915.0,0.762579
1920.0,0.764066
1925.0,0.762922
1930.0,0.76355
1935.0,0.764557
1940.0,0.764549
1945.0,0.763762
1950.0,0.764146
1955.0,0.763941
1960.0,0.76514
1965.0,0.76561
1970.0,0.764527
1975.0,0.76597
1980.0,0.766391
1985.0,0.76541
1990.0,0.763879
1995.0,0.765196
2000.0,0.764723
2005.0,0.763776
2010.0,0.764858
2015.0,0.765543
2020.0,0.765124
2025.0,0.765737
2030.0,0.766307
2035.0,0.765271
2040.0,0.765397
2045.0,0.766223
2050.0,0.766377
2055.0,0.766617
2060.0,0.768351
2065.0,0.770144
2070.0,0.770123
2075.0,0.769356
2080.0,0.770256
2085.0,0.769614
2090.0,0.768961
2095.0,0.768134
2100.0,0.770071
2105.0,0.770287
2110.0,0.770779
2115.0,0.770483
2120.0,0.771483
2125.0,0.77105
2130.0,0.77081
2135.0,0.770038
2140.0,0.769449
2145.0,0.769046
2150.0,0.76821
2155.0,0.767807
2160.0,0.767895
2165.0,0.76898
2170.0,0.769436
2175.0,0.767597
2180.0,0.76804
2185.0,0.768069
2190.0,0.766576
2195.0,0.766138
2200.0,0.769375
2205.0,0.768085
2210.0,0.76869
2215.0,0.768859
2220.0,0.769275
2225.0,0.767927
2230.0,0.767794
2235.0,0.766655
2240.0,0.767628
2245.0,0.767926
2250.0,0.768041
2255.0,0.77048
2260.0,0.772954
2265.0,0.774161
2270.0,0.772885
2275.0,0.772808
2280.0,0.771324
2285.0,0.771442
2290.0,0.770804
2295.0,0.772367
2300.0,0.773706
2305.0,0.773059
2310.0,0.770916
2315.0,0.770398
2320.0,0.768902
2325.0,0.769173
2330.0,0.770051
2335.0,0.769947
2340.0,0.770255
2345.0,0.770244
2350.0,0.770097
2355.0,0.769219
2360.0,0.770074
2365.0,0.77014
2370.0,0.770386
2375.0,0.769882
2380.0,0.768914
2385.0,0.768755
2390.0,0.768709
2395.0,0.76945
2400.0,0.767635
2405.0,0.767721
2410.0,0.767929
2415.0,0.767389
2420.0,0.766977
2425.0,0.766925
2430.0,0.769257
2435.0,0.767268
2440.0,0.76566
2445.0,0.765885
2450.0,0.766851
2455.0,0.765769
2460.0,0.766986
2465.0,0.768202
2470.0,0.769201
2475.0,0.769577
2480.0,0.769629
2485.0,0.768307
2490.0,0.768648
2495.0,0.768795
2500.0,0.768736
2505.0,0.767193
2510.0,0.767255
2515.0,0.766984
2520.0,0.764901
2525.0,0.764939
2530.08,0.765172
2535.03,0.765764
2540.0,0.765837
2544.99,0.767683
2549.99,0.766584
2552.5,0.765572
2553.76,0.766059
2555.02,0.767639
2556.28,0.767909
2557.54,0.766604
2558.8,0.766183
2560.07,0.764891
2561.33,0.762533
2562.6,0.763881
2563.86,0.767711
2565.13,0.769513
2566.4,0.771329
2567.67,0.769843
2568.95,0.765291
2570.22,0.763504
2571.5,0.76695
2572.77,0.767912
2574.05,0.763345
2575.33,0.767106
2576.61,0.767942
2577.89,0.766688
2579.17,0.769653
2580.46,0.768386
2581.74,0.76488
2583.03,0.765647
2584.31,0.763595
2585.6,0.767476
2586.89,0.770968
2588.19,0.767228
2589.48,0.768528
2590.77,0.770038
2592.07,0.76871
2593.36,0.764098
2594.66,0.756346
2595.96,0.75988
2597.26,0.777672
2598.56,0.77815
2599.87,0.770863
2601.17,0.766014
2602.48,0.764157
2603.78,0.765023
2605.09,0.764434
2606.4,0.764237
2607.71,0.769817
2609.03,0.770787
2610.34,0.767546
2611.65,0.767496
2612.97,0.767002
2614.29,0.765846
2615.61,0.766573
2616.93,0.762365
2618.25,0.764824
2619.57,0.770818
2620.9,0.765711
2622.22,0.76844
2623.55,0.771969
2624.88,0.767546
2626.21,0.762855
2627.54,0.761407
2628.87,0.768095
2630.21,0.765634
2631.54,0.763177
2632.88,0.771952
2634.21,0.770231
2635.55,0.767234
2636.89,0.767981
2638.24,0.766053
2639.58,0.764576
2640.92,0.763929
2642.27,0.7634
2643.62,0.764624
2644.97,0.764764
2646.32,0.762986
2647.67,0.765001
2649.02,0.766388
2650.38,0.765471
2651.73,0.763535
2653.09,0.762247
2654.45,0.765479
2655.81,0.76607
2657.17,0.765326
2658.53,0.766364
2659.89,0.763091
2661.26,0.762962
2662.63,0.765052
2664.0,0.763687
2665.36,0.758207
2666.74,0.760035
2668.11,0.768388
2669.48,0.770669
2670.86,0.760837
2672.23,0.767227
2673.61,0.775297
2674.99,0.767859
2676.37,0.760317
2677.76,0.760466
2679.14,0.765975
2680.52,0.767407
2681.91,0.768078
2683.3,0.763339
2684.69,0.76028
2686.08,0.76111
2687.47,0.761273
2688.87,0.7613
2690.26,0.760003
2691.66,0.7584
2693.06,0.754424
2694.46,0.750819
2695.86,0.754607
2697.26,0.757457
2698.66,0.754331
2700.07,0.749123
2701.48,0.744511
2702.89,0.743536
2704.3,0.743492
2705.71,0.739706
2707.12,0.736587
2708.53,0.733703
2709.95,0.731553
2711.37,0.732224
2712.79,0.739105
2714.21,0.742597
2715.63,0.737986
2717.05,0.733983
2718.48,0.731876
2719.9,0.729894
2721.33,0.727696
2722.76,0.735093
2724.19,0.732356
2725.62,0.725383
2727.06,0.728711
2728.49,0.727526
2729.93,0.722093
2731.37,0.718097
2732.81,0.715755
2734.25,0.712336
2735.69,0.709573
2737.14,0.711534
2738.58,0.708534
2740.03,0.701541
2741.48,0.704147
2742.93,0.709166
2744.38,0.707724
2745.83,0.701217
2747.29,0.696551
2748.75,0.693855
2750.2,0.691034
2751.66,0.688372
2753.13,0.686198
2754.59,0.682455
2756.05,0.677426
2757.52,0.683639
2758.99,0.6853
2760.46,0.677122
2761.93,0.670682
2763.4,0.667914
2764.87,0.671476
2766.35,0.673378
2767.82,0.670585
2769.3,0.668791
2770.78,0.667959
2772.26,0.667001
2773.75,0.668881
2775.23,0.666617
2776.72,0.66307
2778.21,0.661302
2779.7,0.661103
2781.19,0.659838
2782.68,0.65948
2784.18,0.65915
2785.67,0.6576
2787.17,0.654413
2788.67,0.655602
2790.17,0.658695
2791.67,0.65717
2793.18,0.654409
2794.68,0.652981
2796.19,0.652407
2797.7,0.652004
2799.21,0.651052
2800.72,0.65014
2802.24,0.648311
2803.75,0.647846
2805.27,0.65076
2806.79,0.651997
2808.31,0.649704
2809.83,0.648052
2811.35,0.64733
2812.88,0.647136
2814.41,0.645971
2815.93,0.644744
2817.46,0.644991
2819.0,0.644367
2820.53,0.643738
2822.07,0.644445
2823.6,0.644383
2825.14,0.643431
2826.68,0.642366
2828.22,0.641899
2829.77,0.641208
2831.31,0.64084
2832.86,0.640483
2834.41,0.639979
2835.96,0.639637
2837.51,0.640114
2839.07,0.639329
2840.62,0.638885
2842.18,0.638256
2843.74,0.637701
2845.3,0.637444
2846.86,0.637022
2848.43,0.636369
2849.99,0.635501
2851.56,0.635101
2853.13,0.634777
2854.7,0.633764
2856.27,0.633916
2857.85,0.634058
2859.42,0.633301
2861.0,0.632346
2862.58,0.631679
2864.16,0.631352
2865.75,0.631181
2867.33,0.630777
2868.92,0.630553
2870.51,0.630149
2872.1,0.628922
2873.69,0.628257
2875.28,0.628585
2876.88,0.628382
2878.48,0.628312
2880.07,0.627987
2881.68,0.626933
2883.28,0.626164
2884.88,0.625848
2886.49,0.625749
2888.1,0.625467
2889.71,0.62531
2891.32,0.625255
2892.93,0.624648
2894.55,0.624131
2896.16,0.623817
2897.78,0.623425
2899.4,0.623425
2901.03,0.623307
2902.65,0.622637
2904.28,0.622361
2905.91,0.621918
2907.53,0.622267
2909.17,0.622115
2910.8,0.621179
2912.44,0.620457
2914.07,0.620412
2915.71,0.620159
2917.35,0.619551
2918.99,0.619568
2920.64,0.61978
2922.29,0.619116
2923.93,0.619009
2925.58,0.619046
2927.24,0.618755
2928.89,0.61801
2930.55,0.61814
2932.2,0.618347
2933.86,0.617995
2935.52,0.617578
2937.19,0.617543
2938.85,0.617155
2940.52,0.61711
2942.19,0.617314
2943.86,0.617608
2945.53,0.617557
2947.21,0.617206
2948.88,0.616873
2950.56,0.616713
2952.24,0.616468
2953.92,0.616311
2955.61,0.616268
2957.29,0.616474
2958.98,0.616533
2960.67,0.61665
2962.36,0.616624
2964.06,0.61661
2965.75,0.616418
2967.45,0.616374
2969.15,0.615887
2970.85,0.616142
2972.55,0.616779
2974.26,0.616585
2975.97,0.616319
2977.68,0.616668
2979.39,0.617139
2981.1,0.617531
2982.82,0.617405
2984.53,0.61738
2986.25,0.617698
2987.97,0.618016
2989.7,0.617594
2991.42,0.617357
2993.15,0.61802
2994.88,0.618748
2996.61,0.618832
2998.34,0.618798
3000.08,0.618725
3001.82,0.618856
3003.55,0.619294
3005.3,0.61973
3007.04,0.620077
3008.78,0.62012
3010.53,0.620481
3012.28,0.620778
3014.03,0.620702
3015.79,0.620988
3017.54,0.621461
3019.3,0.621597
3021.06,0.621597
3022.82,0.622168
3024.58,0.622478
3026.35,0.622765
3028.12,0.62316
3029.89,0.6234
3031.66,0.623774
3033.43,0.624128
3035.21,0.624261
3036.99,0.624673
3038.77,0.625116
3040.55,0.625741
3042.33,0.626138
3044.12,0.626373
3045.91,0.626459
3047.7,0.627054
3049.49,0.627833
3051.29,0.628075
3053.08,0.628129
3054.88,0.628217
3056.68,0.628509
3058.49,0.629142
3060.29,0.629523
3062.1,0.629982
3063.91,0.630469
3065.72,0.630829
3067.54,0.631265
3069.35,0.631528
3071.17,0.631897
3072.99,0.632672
3074.81,0.633062
3076.64,0.633373
3078.46,0.633871
3080.29,0.634307
3082.13,0.634465
3083.96,0.634697
3085.79,0.635327
3087.63,0.6358
3089.47,0.636418
3091.31,0.637106
3093.16,0.637264
3095.01,0.637545
3096.85,0.638284
3098.71,0.639025
3100.56,0.639446
3102.41,0.639792
3104.27,0.63996
3106.13,0.640515
3107.99,0.641116
3109.86,0.641817
3111.73,0.642471
3113.59,0.643069
3115.47,0.6434
3117.34,0.643769
3119.21,0.644194
3121.09,0.644859
3122.97,0.645295
3124.86,0.645929
3126.74,0.646491
3128.63,0.647129
3130.52,0.647815
3132.41,0.648609
3134.3,0.64911
3136.2,0.649089
3138.1,0.649618
3140.0,0.65057
3141.9,0.651263
3143.81,0.652055
3145.71,0.652711
3147.62,0.653247
3149.54,0.654038
3151.45,0.654522
3153.37,0.655066
3155.29,0.655851
3157.21,0.656836
3159.13,0.657495
3161.06,0.657771
3162.99,0.658055
3164.92,0.658751
3166.85,0.659567
3168.79,0.660153
3170.72,0.661043
3172.67,0.661658
3174.61,0.662089
3176.55,0.662707
3178.5,0.663735
3180.45,0.66435
3182.4,0.665017
3184.36,0.665799
3186.32,0.666518
3188.27,0.666697
3190.24,0.667399
3192.2,0.668182
3194.17,0.669029
3196.14,0.669779
3198.11,0.670212
3200.08,0.670578
3202.06,0.671346
3204.04,0.672143
3206.02,0.672606
3208.0,0.673102
3209.99,0.673754
3211.98,0.674177
3213.97,0.674667
3215.96,0.675096
3217.96,0.675769
3219.96,0.6765
3221.96,0.677028
3223.96,0.677841
3225.97,0.678538
3227.98,0.679016
3229.99,0.679717
3232.0,0.68046
3234.02,0.68086
3236.04,0.681149
3238.06,0.681732
3240.08,0.682113
3242.11,0.682796
3244.14,0.68328
3246.17,0.683446
3248.2,0.684145
3250.24,0.685068
3252.28,0.685623
3254.32,0.686123
3256.37,0.686335
3258.41,0.686641
3260.46,0.687104
3262.51,0.687829
3264.57,0.688485
3266.63,0.688981
3268.69,0.689378
3270.75,0.690218
3272.81,0.690916
3274.88,0.691451
3276.95,0.692036
3279.02,0.692371
3281.1,0.692816
3283.18,0.693257
3285.26,0.693922
3287.34,0.695025
3289.43,0.695654
3291.51,0.695679
3293.61,0.696067
3295.7,0.696772
3297.8,0.697266
3299.89,0.697676
3302.0,0.698481
3304.1,0.699153
3306.21,0.699274
3308.32,0.699822
3310.43,0.70048
3312.55,0.70069
3314.66,0.700825
3316.78,0.701233
3318.91,0.701652
3321.03,0.701912
3323.16,0.702091
3325.29,0.702463
3327.43,0.702722
3329.57,0.70283
3331.71,0.703121
3333.85,0.703113
3335.99,0.702655
3338.14,0.702294
3340.29,0.702124
3342.45,0.701893
3344.6,0.70159
3346.76,0.701019
3348.92,0.700196
3351.09,0.699195
3353.26,0.697881
3355.43,0.696613
3357.6,0.695061
3359.78,0.693355
3361.96,0.691448
3364.14,0.689419
3366.32,0.687013
3368.51,0.683834
3370.7,0.680681
3372.89,0.677671
3375.09,0.674848
3377.29,0.672618
3379.49,0.671259
3381.69,0.670306
3383.9,0.670178
3386.11,0.670682
3388.32,0.671515
3390.54,0.672401
3392.76,0.672379
3394.98,0.67137
3397.21,0.66922
3399.43,0.66592
3401.66,0.661291
3403.9,0.655291
3406.13,0.648726
3408.37,0.641893
3410.61,0.63504
3412.86,0.628489
3415.11,0.622811
3417.36,0.618299
3419.61,0.616017
3421.87,0.616823
3424.13,0.620439
3426.39,0.627003
3428.66,0.634955
3430.93,0.643119
3433.2,0.651069
3435.48,0.657721
3437.76,0.663526
3440.04,0.668615
3442.32,0.672852
3444.61,0.676464
3446.9,0.6794
3449.19,0.682559
3451.49,0.685303
3453.79,0.688144
3456.09,0.690868
3458.4,0.693484
3460.7,0.696111
3463.02,0.698542
3465.33,0.70045
3467.65,0.701882
3469.97,0.702733
3472.29,0.702951
3474.62,0.702541
3476.95,0.701924
3479.29,0.700973
3481.62,0.700165
3483.96,0.699419
3486.3,0.698839
3488.65,0.698229
3491.0,0.696775
3493.35,0.694107
3495.71,0.689847
3498.07,0.684678
3500.43,0.679403
3502.79,0.675067
3505.16,0.673595
3507.53,0.675867
3509.91,0.681763
3512.29,0.69011
3514.67,0.699385
3517.05,0.708171
3519.44,0.71576
3521.83,0.721795
3524.22,0.726221
3526.62,0.729925
3529.02,0.733119
3531.43,0.735282
3533.83,0.737111
3536.24,0.73877
3538.66,0.740298
3541.08,0.741397
3543.5,0.74244
3545.92,0.74343
3548.35,0.744334
3550.78,0.745099
3553.21,0.745893
3555.65,0.746581
3558.09,0.747274
3560.53,0.747869
3562.98,0.748605
3565.43,0.749096
3567.88,0.749863
3570.34,0.750511
3572.8,0.750858
3575.27,0.751594
3577.73,0.752274
3580.2,0.752666
3582.68,0.753112
3585.16,0.753615
3587.64,0.754055
3590.12,0.754479
3592.61,0.755074
3595.1,0.755644
3597.6,0.756116
3600.09,0.75653
3602.6,0.756961
3605.1,0.757225
3607.61,0.757536
3610.12,0.757889
3612.64,0.758226
3615.16,0.758583
3617.68,0.758756
3620.21,0.758821
3622.74,0.759312
3625.27,0.759802
3627.81,0.76
3630.35,0.760201
3632.89,0.760723
3635.44,0.760957
3637.99,0.761089
3640.54,0.761057
3643.1,0.761255
3645.66,0.761621
3648.23,0.762084
3650.8,0.762296
3653.37,0.762458
3655.95,0.762398
3658.53,0.762652
3661.11,0.762982
3663.7,0.763346
3666.29,0.763498
3668.89,0.763736
3671.48,0.763969
3674.09,0.764126
3676.69,0.764608
3679.3,0.764899
3681.91,0.765239
3684.53,0.765552
3687.15,0.765597
3689.78,0.765825
3692.4,0.766176
3695.04,0.766535
3697.67,0.766833
3700.31,0.76695
3702.95,0.767171
3705.6,0.767548
3708.25,0.767652
3710.91,0.767891
3713.56,0.768073
3716.23,0.768208
3718.89,0.76833
3721.56,0.768687
3724.23,0.76889
3726.91,0.769045
3729.59,0.7692
3732.28,0.769553
3734.97,0.769888
3737.66,0.770239
3740.36,0.77058
3743.06,0.770756
3745.76,0.770949
3748.47,0.77131
3751.18,0.771493
3753.9,0.771798
3756.62,0.771913
3759.34,0.772152
3762.07,0.772427
3764.8,0.772986
3767.54,0.773342
3770.28,0.773593
3773.02,0.773818
3775.77,0.774084
3778.52,0.774234
3781.28,0.774506
3784.04,0.774592
3786.8,0.775066
3789.57,0.775467
3792.34,0.775744
3795.12,0.776011
3797.9,0.776183
3800.69,0.776213
3803.47,0.77656
3806.27,0.776889
3809.06,0.777147
3811.86,0.777275
3814.67,0.7776
3817.48,0.777855
3820.29,0.777853
3823.11,0.777881
3825.93,0.778173
3828.76,0.778427
3831.59,0.778686
3834.42,0.778923
3837.26,0.779222
3840.1,0.779335
3842.95,0.779605
3845.8,0.779929
3848.65,0.780158
3851.51,0.780289
3854.38,0.780401
3857.24,0.780611
3860.12,0.780901
3862.99,0.780933
3865.87,0.781053
3868.76,0.781374
3871.65,0.78171
3874.54,0.781647
3877.44,0.781721
3880.34,0.78212
3883.25,0.782522
3886.16,0.782642
3889.07,0.782893
3891.99,0.78301
3894.92,0.783165
3897.85,0.783389
3900.78,0.783579
3903.72,0.783514
3906.66,0.783604
3909.6,0.783929
3912.55,0.784239
3915.51,0.784534
3918.47,0.784713
3921.43,0.784747
3924.4,0.78498
3927.37,0.785225
3930.35,0.785127
3933.33,0.785146
3936.32,0.785391
3939.31,0.785525
3942.31,0.785602
3945.31,0.78561
3948.31,0.785792
3951.32,0.78586
3954.34,0.786147
3957.35,0.786579
3960.38,0.786908
3963.41,0.786899
3966.44,0.78689
3969.48,0.787137
3972.52,0.787445
3975.56,0.787642
3978.61,0.787884
3981.67,0.788095
3984.73,0.788357
3987.8,0.788482
3990.87,0.788791
3993.94,0.789099
3997.02,0.789262
4000.1,0.7893
4003.19,0.789545
4006.29,0.789873
4009.39,0.790279
4012.49,0.79053
4015.6,0.790867
4018.71,0.791119
4021.83,0.791399
4024.95,0.791627
4028.08,0.791868
4031.21,0.791973
4034.35,0.792191
4037.49,0.79241
4040.64,0.792788
4043.79,0.793286
4046.94,0.793506
4050.11,0.793414
4053.27,0.793604
4056.44,0.793766
4059.62,0.793993
4062.8,0.794187
4065.99,0.794482
4069.18,0.794527
4072.38,0.794716
4075.58,0.794724
4078.78,0.794925
4082.0,0.794986
4085.21,0.795266
4088.43,0.795547
4091.66,0.795715
4094.89,0.795588
4098.13,0.795713
4101.37,0.795787
4104.62,0.795963
4107.87,0.796122
4111.13,0.79632
4114.39,0.796307
4117.66,0.79634
4120.93,0.796437
4124.21,0.796515
4127.5,0.796597
4130.78,0.796872
4134.08,0.796883
4137.38,0.796995
4140.68,0.797188
4143.99,0.797209
4147.31,0.797068
4150.63,0.797197
4153.95,0.797212
4157.29,0.797098
4160.62,0.797004
4163.96,0.796877
4167.31,0.79675
4170.66,0.796915
4174.02,0.796976
4177.39,0.797077
4180.75,0.797042
4184.13,0.796922
4187.51,0.796703
4190.89,0.796506
4194.28,0.79638
4197.68,0.79639
4201.08,0.796138
4204.49,0.795925
4207.9,0.795523
4211.32,0.79502
4214.74,0.794343
4218.17,0.793827
4221.61,0.793472
4225.05,0.793395
4228.5,0.793402
4231.95,0.793731
4235.4,0.793774
4238.87,0.793725
4242.34,0.793618
4245.81,0.793637
4249.29,0.79343
4252.78,0.792992
4256.27,0.792189
4259.77,0.790523
4263.27,0.788318
4266.78,0.787298
4270.29,0.787096
4273.81,0.786945
4277.34,0.786341
4280.87,0.785978
4284.41,0.785392
4287.95,0.784503
4291.5,0.783642
4295.06,0.782746
4298.62,0.78178
4302.19,0.780984
4305.76,0.779879
4309.34,0.778678
4312.92,0.777389
4316.52,0.776193
4320.11,0.77501
4323.72,0.773908
4327.32,0.772724
4330.94,0.771398
4334.56,0.770065
4338.19,0.768818
4341.82,0.767428
4345.46,0.765983
4349.11,0.764607
4352.76,0.763476
4356.42,0.762332
4360.08,0.761168
4363.75,0.759738
4367.43,0.758501
4371.11,0.757162
4374.8,0.755898
4378.49,0.754781
4382.19,0.753592
4385.9,0.752279
4389.61,0.750879
4393.33,0.74961
4397.06,0.7486
4400.79,0.747474
4404.53,0.74641
4408.28,0.745044
4412.03,0.743599
4415.79,0.742209
4419.55,0.741108
4423.32,0.739935
4427.1,0.738621
4430.88,0.737409
4434.67,0.73622
4438.47,0.734737
4442.27,0.733312
4446.08,0.732021
4449.9,0.730728
4453.72,0.729378
4457.55,0.72779
4461.39,0.726165
4465.23,0.724838
4469.08,0.723461
4472.94,0.721958
4476.8,0.720186
4480.67,0.718482
4484.55,0.716688
4488.43,0.715003
4492.32,0.713171
4496.21,0.71151
4500.12,0.709825
4504.03,0.708078
4507.94,0.706193
4511.87,0.704238
4515.8,0.702145
4519.73,0.700093
4523.68,0.698101
4527.63,0.696271
4531.59,0.694318
4535.55,0.692046
4539.52,0.689887
4543.5,0.687903
4547.49,0.68596
4551.48,0.683903
4555.48,0.681814
4559.49,0.679962
4563.5,0.677998
4567.52,0.676059
4571.55,0.674039
4575.58,0.672264
4579.62,0.670581
4583.67,0.66878
4587.73,0.666821
4591.79,0.665057
4595.86,0.663246
4599.94,0.661539
4604.03,0.659873
4608.12,0.658269
4612.22,0.656517
4616.33,0.654766
4620.44,0.653196
4624.56,0.651689
4628.69,0.650015
4632.83,0.648467
4636.97,0.646769
4641.12,0.645065
4645.28,0.643279
4649.45,0.641869
4653.62,0.640313
4657.8,0.638842
4661.99,0.637539
4666.19,0.636543
4670.39,0.6356
4674.6,0.634826
4678.82,0.634109
4683.05,0.63341
4687.28,0.632717
4691.52,0.632358
4695.77,0.632069
4700.03,0.63169
4704.3,0.631209
4708.57,0.630773
4712.85,0.630329
4717.14,0.629657
4721.43,0.629191
4725.74,0.628868
4730.05,0.628277
4734.37,0.627636
4738.7,0.627035
4743.03,0.626582
4747.38,0.625972
4751.73,0.625118
4756.09,0.624418
4760.45,0.623853
4764.83,0.622944
4769.21,0.622085
4773.6,0.621431
4778.0,0.620922
4782.41,0.620279
4786.83,0.619793
4791.25,0.619534
4795.68,0.619484
4800.13,0.619672
4804.57,0.620127
4809.03,0.620791
4813.5,0.621548
4817.97,0.622151
4822.45,0.622741
4826.94,0.623272
4831.44,0.623561
4835.95,0.623511
4840.46,0.623473
4844.99,0.623253
4849.52,0.622754
4854.06,0.621878
4858.61,0.621036
4863.17,0.620118
4867.73,0.619392
4872.31,0.618566
4876.89,0.617813
4881.48,0.617085
4886.08,0.616471
4890.69,0.615956
4895.31,0.615558
4899.94,0.615176
4904.57,0.615115
4909.22,0.615027
4913.87,0.615065
4918.53,0.615272
4923.21,0.615834
4927.88,0.616774
4932.57,0.617943
4937.27,0.619235
4941.98,0.620708
4946.69,0.622191
4951.42,0.623443
4956.15,0.624283
4960.89,0.625009
4965.65,0.625337
4970.41,0.624877
4975.18,0.624171
4979.96,0.623114
4984.75,0.621635
4989.54,0.619878
4994.35,0.617901
4999.17,0.615873
5003.99,0.613797
5008.83,0.61175
5013.67,0.609671
5018.52,0.607675
5023.39,0.606118
5028.26,0.60511
5033.14,0.603401
5038.03,0.601643
5042.93,0.59969
5047.84,0.597657
5052.76,0.595519
5057.69,0.593208
5062.63,0.590703
5067.58,0.588125
5072.54,0.585454
5077.51,0.582567
5082.49,0.579501
5087.47,0.576438
5092.47,0.573303
5097.48,0.56954
5102.5,0.565738
5107.52,0.561729
5112.56,0.557784
5117.61,0.553778
5122.66,0.549864
5127.73,0.545828
5132.81,0.541763
5137.89,0.537785
5142.99,0.534025
5148.1,0.53033
5153.22,0.527405
5158.34,0.524218
5163.48,0.52054
5168.63,0.51742
5173.79,0.514292
5178.96,0.511187
5184.13,0.508074
5189.32,0.505088
5194.52,0.501955
5199.73,0.498589
5204.95,0.495682
5210.19,0.492643
5215.43,0.489032
5220.68,0.486924
5225.94,0.483947
5231.22,0.480487
5236.5,0.477677
5241.79,0.475319
5247.1,0.473088
5252.42,0.470408
5257.74,0.467903
5263.08,0.465852
5268.43,0.464048
5273.79,0.462286
5279.16,0.460658
5284.54,0.459334
5289.93,0.457868
5295.34,0.456509
5300.75,0.455718
5306.18,0.454268
5311.61,0.453058
5317.06,0.451947
5322.52,0.450983
5327.99,0.45015
5333.47,0.449486
5338.96,0.44856
5344.47,0.447658
5349.98,0.446567
5355.51,0.446693
5361.05,0.446819
5366.6,0.445208
5372.16,0.443641
5377.73,0.442388
5383.32,0.441329
5388.91,0.439782
5394.52,0.437862
5400.14,0.435847
5405.77,0.433832
5411.41,0.431495
5417.07,0.429024
5422.74,0.426139
5428.41,0.424742
5434.1,0.422738
5439.81,0.418898
5445.52,0.41598
5451.25,0.413291
5456.98,0.410615
5462.73,0.407335
5468.5,0.404901
5474.27,0.403028
5480.06,0.399495
5485.86,0.396642
5491.67,0.393586
5497.49,0.390025
5503.33,0.38707
5509.18,0.383929
5515.04,0.380922
5520.91,0.377571
5526.8,0.374799
5532.69,0.371892
5538.61,0.368816
5544.53,0.365572
5550.47,0.362456
5556.41,0.359457
5562.38,0.356943
5568.35,0.35384
5574.34,0.350687
5580.34,0.347548
5586.35,0.346437
5592.38,0.344511
5598.42,0.34166
5604.47,0.339669
5610.54,0.338997
5616.61,0.337851
5622.71,0.337424
5628.81,0.33709
5634.93,0.336714
5641.06,0.336294
5647.21,0.337253
5653.36,0.338529
5659.54,0.337813
5665.72,0.338078
5671.92,0.337554
5678.13,0.337193
5684.36,0.338566
5690.6,0.33869
5696.85,0.338881
5703.12,0.339786
5709.4,0.339413
5715.69,0.340774
5722.0,0.343001
5728.33,0.343758
5734.66,0.344265
5741.01,0.344981
5747.38,0.345997
5753.76,0.347318
5760.15,0.348648
5766.56,0.347618
5772.98,0.350685
5779.41,0.352942
5785.86,0.352073
5792.33,0.352499
5798.81,0.352702
5805.3,0.353135
5811.81,0.354096
5818.33,0.354158
5824.87,0.355306
5831.42,0.358552
5837.99,0.359357
5844.57,0.358993
5851.17,0.358644
5857.78,0.358837
5864.41,0.359011
5871.05,0.360204
5877.7,0.359755
5884.38,0.358934
5891.06,0.362875
5897.76,0.361175
5904.48,0.36181
5911.21,0.361906
5917.96,0.359775
5924.73,0.359808
5931.5,0.359502
5938.3,0.358582
5945.11,0.36199
5951.93,0.362432
5958.78,0.360178
5965.63,0.359042
5972.51,0.358303
5979.39,0.359798
5986.3,0.358182
5993.22,0.357321
6000.16,0.357449
6007.11,0.355533
6014.08,0.352989
6021.06,0.352662
6028.06,0.351727
6035.08,0.34962
6042.12,0.347578
6049.17,0.345486
6056.23,0.347911
6063.32,0.348431
6070.42,0.343975
6077.53,0.343255
6084.67,0.34372
6091.82,0.341742
6098.98,0.339737
6106.17,0.338759
6113.37,0.337325
6120.58,0.338283
6127.82,0.338297
6135.07,0.335662
6142.34,0.333866
6149.63,0.333285
6156.93,0.332082
6164.25,0.330882
6171.59,0.330364
6178.94,0.328349
6186.32,0.32626
6193.71,0.326707
6201.12,0.326042
6208.54,0.323855
6215.99,0.322856
6223.45,0.322216
6230.93,0.321768
6238.43,0.3211
6245.95,0.320817
6253.48,0.320655
6261.03,0.320612
6268.6,0.320616
6276.19,0.32073
6283.8,0.320931
6291.43,0.321428
6299.07,0.321999
6306.73,0.322634
6314.42,0.323196
6322.12,0.324046
6329.83,0.324954
6337.57,0.325863
6345.33,0.326455
6353.11,0.32968
6360.9,0.331474
6368.72,0.331142
6376.55,0.33296
6384.4,0.335479
6392.27,0.335841
6400.17,0.3371
6408.08,0.337512
6416.01,0.338226
6423.96,0.344194
6431.93,0.344966
6439.92,0.343547
6447.93,0.344121
6455.96,0.343896
6464.01,0.344351
6472.08,0.343454
6480.17,0.343311
6488.28,0.343466
6496.41,0.343523
6504.56,0.344994
6512.73,0.343888
6520.92,0.34095
6529.14,0.341131
6537.37,0.340764
6545.63,0.339142
6553.9,0.338475
6562.2,0.338234
6570.51,0.337034
6578.85,0.336488
6587.21,0.336593
6595.59,0.334604
6603.99,0.333657
6612.42,0.331858
6620.86,0.330207
6629.33,0.328697
6637.82,0.327284
6646.33,0.328214
6654.86,0.327281
6663.41,0.324101
6671.99,0.32231
6680.59,0.321703
6689.21,0.321398
6697.85,0.320569
6706.51,0.318362
6715.2,0.317039
6723.91,0.316542
6732.64,0.315115
6741.4,0.313255
6750.18,0.311145
6758.98,0.309656
6767.8,0.308114
6776.65,0.306508
6785.52,0.305281
6794.41,0.303981
6803.33,0.303195
6812.27,0.301161
6821.23,0.299187
6830.22,0.298306
6839.23,0.298078
6848.26,0.296754
6857.32,0.295446
6866.4,0.295266
6875.51,0.295792
6884.64,0.293918
6893.8,0.291637
6902.98,0.290134
6912.18,0.28881
6921.41,0.287577
6930.66,0.285794
6939.94,0.284183
6949.24,0.282323
6958.57,0.280358
6967.92,0.279187
6977.3,0.277851
6986.7,0.27512
6996.13,0.273084
7005.59,0.271335
7015.07,0.269506
7024.57,0.267421
7034.1,0.265832
7043.66,0.263592
7053.24,0.261971
7062.85,0.260063
7072.49,0.257128
7082.15,0.254255
7091.84,0.251461
7101.55,0.24846
7111.3,0.245425
7121.06,0.242348
7130.86,0.239183
7140.68,0.23558
7150.53,0.232214
7160.41,0.228841
7170.31,0.225209
7180.24,0.221457
7190.2,0.217446
7200.19,0.213484
7210.2,0.209688
7220.24,0.20552
7230.31,0.201411
7240.41,0.197353
7250.54,0.19347
7260.69,0.189361
7270.88,0.18551
7281.09,0.181764
7291.33,0.178125
7301.6,0.174322
7311.9,0.170717
7322.22,0.166819
7332.58,0.163178
7342.97,0.159673
7353.38,0.15622
7363.83,0.152339
7374.3,0.148651
7384.81,0.144905
7395.34,0.141288
7405.91,0.137446
7416.5,0.133802
7427.13,0.130073
7437.78,0.126431
7448.47,0.122727
7459.19,0.119285
7469.94,0.115715
7480.71,0.111982
7491.52,0.10797
7502.37,0.104164
7513.24,0.100359
7524.14,0.096573
7535.08,0.092454
7546.05,0.08851
7557.05,0.084292
7568.08,0.080076
7579.14,0.075997
7590.24,0.07209
7601.37,0.068078
7612.53,0.064269
7623.73,0.060266
7634.96,0.056339
7646.22,0.052607
7657.51,0.04935
7668.84,0.045944
7680.2,0.042625
7691.59,0.03949
7703.02,0.036826
7714.49,0.034114
7725.98,0.031831
7737.51,0.029626
7749.08,0.027786
7760.68,0.026131
7772.32,0.024865
7783.99,0.023749
7795.69,0.023082
7807.43,0.022523
7819.21,0.022367
7831.02,0.022611
7842.87,0.023525
7854.75,0.024541
7866.67,0.026268
7878.62,0.028501
7890.62,0.031211
7902.64,0.034364
7914.71,0.038245
7926.81,0.042421
7938.95,0.04725
7951.13,0.052717
7963.34,0.058825
7975.59,0.065191
7987.88,0.072163
8000.21,0.079473
8012.57,0.087448
8024.98,0.09562
8037.42,0.104022
8049.9,0.112546
8062.42,0.121279
8074.98,0.129868
8087.57,0.138555
8100.21,0.147128
8112.89,0.155724
8125.6,0.164196
8138.36,0.172432
8151.16,0.180299
8163.99,0.188023
8176.87,0.195209
8189.79,0.201764
8202.75,0.207967
8215.74,0.213561
8228.79,0.218278
8241.87,0.222247
8254.99,0.225368
8268.16,0.227821
8281.37,0.229348
8294.62,0.230067
8307.91,0.230103
8321.24,0.229577
8334.62,0.22836
8348.04,0.226626
8361.51,0.224447
8375.02,0.221949
8388.57,0.218837
8402.16,0.215454
8415.8,0.211763
8429.49,0.207825
8443.22,0.203489
8456.99,0.199201
8470.81,0.194996
8484.67,0.190848
8498.58,0.186559
8512.54,0.182439
8526.54,0.178326
8540.58,0.174461
8554.68,0.170562
8568.82,0.166908
8583.0,0.163188
8597.24,0.159504
8611.52,0.155883
8625.85,0.15245
8640.22,0.149076
8654.65,0.145877
8669.12,0.143041
8683.64,0.14064
8698.21,0.138248
8712.83,0.135987
8727.5,0.133574
8742.22,0.13121
8756.98,0.128869
8771.8,0.126555
8786.67,0.124238
8801.59,0.122127
8816.56,0.120076
8831.58,0.118078
8846.65,0.115833
8861.77,0.11353
8876.94,0.110982
8892.17,0.108381
8907.45,0.105597
8922.78,0.102926
8938.16,0.100451
8953.6,0.098613
8969.09,0.097364
8984.64,0.096778
9000.23,0.096542
9015.89,0.096574
9031.59,0.09655
9047.36,0.096538
9063.17,0.096397
9079.04,0.096421
9094.97,0.096718
9110.96,0.097286
9127.0,0.098142
9143.09,0.09919
9159.25,0.100212
9175.46,0.101121
9191.73,0.101019
9208.05,0.100613
9224.44,0.099685
9240.88,0.098426
9257.38,0.097046
9273.94,0.096308
9290.56,0.096307
9307.24,0.097072
9323.98,0.098751
9340.78,0.101938
9357.64,0.106165
9374.57,0.11098
9391.55,0.115882
9408.59,0.120168
9425.7,0.123251
9442.87,0.125005
9460.1,0.125517
9477.39,0.125257
9494.75,0.124566
9512.17,0.123976
9529.66,0.123581
9547.21,0.123886
9564.82,0.124225
9582.5,0.124136
9600.25,0.123387
9618.06,0.122425
9635.94,0.120883
9653.88,0.119254
9671.89,0.117836
9689.97,0.116628
9708.12,0.115306
9726.33,0.114314
9744.61,0.113181
9762.97,0.111974
9781.39,0.110865
9799.88,0.109966
9818.44,0.109089
9837.07,0.108542
9855.77,0.107714
9874.54,0.107109
9893.39,0.106345
9912.3,0.105757
9931.29,0.105287
9950.35,0.105093
9969.49,0.104902
9988.7,0.104553
10007.98,0.10385
10027.34,0.103061
10046.77,0.101917
10066.28,0.100818
10085.87,0.099688
10105.53,0.098789
10125.26,0.098
10145.08,0.097175
10164.97,0.096465
10184.94,0.096349
10204.99,0.096224
10225.12,0.096249
10245.33,0.096825
10265.61,0.09763
10285.98,0.098281
10306.43,0.098899
10326.96,0.099636
10347.57,0.100465
10368.27,0.101109
10389.05,0.102114
10409.91,0.102944
10430.85,0.103706
10451.88,0.104819
10473.0,0.106286
10494.2,0.107593
10515.49,0.108927
10536.86,0.110552
10558.32,0.112407
10579.87,0.114155
10601.5,0.116074
10623.23,0.118158
10645.04,0.120206
10666.94,0.122115
10688.94,0.124371
10711.02,0.126924
10733.2,0.129503
10755.47,0.132201
10777.83,0.135358
10800.28,0.138783
10822.83,0.142499
10845.47,0.146046
10868.21,0.150095
10891.04,0.15435
10913.97,0.158292
10936.99,0.162153
10960.12,0.166034
10983.34,0.169685
11006.66,0.173383
11030.07,0.176848
11053.59,0.180097
11077.21,0.182985
11100.93,0.185859
11124.75,0.188557
11148.68,0.191598
11172.7,0.19436
11196.84,0.197006
11221.07,0.199741
11245.41,0.20225
11269.86,0.204289
11294.41,0.20644
11319.07,0.208485
11343.84,0.210229
11368.72,0.211901
11393.7,0.213338
11418.8,0.214566
11444.01,0.215941
11469.33,0.217119
11494.76,0.218429
11520.3,0.219542
11545.96,0.220356
11571.73,0.221061
11597.62,0.221927
11623.62,0.22267
11649.74,0.223276
11675.98,0.223909
11702.34,0.224596
11728.81,0.225236
11755.41,0.225588
11782.13,0.226049
11808.96,0.226393
11835.92,0.226335
11863.01,0.226017
11890.22,0.225506
11917.55,0.225028
11945.01,0.224753
11972.6,0.223891
12000.31,0.222506
12028.16,0.220677
12056.13,0.21832
12084.23,0.215512
12112.46,0.212149
12140.83,0.207757
12169.33,0.202469
12197.96,0.195901
12226.73,0.18728
12255.64,0.177757
12284.68,0.167665
12313.86,0.157537
12343.18,0.147335
12372.64,0.137079
12402.24,0.126325
12431.98,0.115397
12461.86,0.104717
12491.89,0.095048
12522.06,0.086666
12552.38,0.079304
12582.85,0.073196
12613.47,0.068786
12644.23,0.064877
12675.15,0.061978
12706.21,0.060024
12737.43,0.059042
12768.8,0.059274
12800.33,0.059887
12832.02,0.060207
12863.86,0.060851
12895.86,0.060989
12928.02,0.061044
12960.34,0.060921
12992.82,0.060633
13025.46,0.059744
13058.27,0.058785
13091.25,0.05804
13124.39,0.057867
13157.7,0.058256
13191.18,0.059337
13224.83,0.060466
13258.66,0.06102
13292.65,0.06165
13326.83,0.062216
13361.17,0.061991
13395.7,0.061294
13430.4,0.060352
13465.29,0.059346
13500.35,0.058145
13535.6,0.057411
13571.03,0.057543
13606.65,0.058406
13642.46,0.0595
13678.46,0.060767
13714.64,0.061531
13751.02,0.062034
13787.59,0.062561
13824.36,0.063314
13861.32,0.064042
13898.48,0.06524
13935.85,0.067229
13973.41,0.069866
14011.17,0.072607
14049.15,0.075697
14087.32,0.078863
14125.71,0.081551
14164.3,0.083735
14203.11,0.086621
14242.13,0.09004
14281.36,0.0934
14320.81,0.096152
14360.48,0.098917
14400.38,0.101501
14440.49,0.102963
14480.82,0.103703
14521.39,0.104069
14562.18,0.103774
14603.2,0.103143
14644.45,0.102027
14685.93,0.100832
14727.66,0.099197
14769.62,0.097134
14811.81,0.094762
14854.25,0.092374
14896.94,0.089827
14939.87,0.087039
14983.05,0.084155
15026.48,0.08177
15070.16,0.079625
15114.1,0.078195
15158.29,0.077217
15202.74,0.076765
15247.46,0.075879
15292.43,0.074234
15337.68,0.072388
15383.19,0.070951
15428.97,0.069572
15475.03,0.068435
15521.36,0.067455
15567.97,0.066678
15614.86,0.066312
15662.04,0.066208
15709.5,0.066785
15757.25,0.068261
15805.29,0.07016
15853.62,0.07254
15902.25,0.07543
15951.18,0.078638
16000.42,0.081711
16049.95,0.084644
16099.8,0.086999
16149.95,0.088495
16200.42,0.089294
16251.21,0.090145
16302.31,0.090869
16353.74,0.091837
16405.49,0.093152
16457.57,0.094611
16509.98,0.0964
16562.73,0.098655
16615.82,0.100267
16669.24,0.101781
16723.02,0.102813
16777.13,0.102874
16831.61,0.10248
16886.43,0.101622
16941.62,0.100396
16997.16,0.099203
17053.07,0.098146
17109.36,0.097562
17166.01,0.096563
17223.04,0.095948
17280.45,0.095021
17338.24,0.094337
17396.43,0.094136
17455.0,0.09358
17513.97,0.092339
17573.34,0.092003
17633.11,0.0921
17693.29,0.092093
17753.89,0.091574
17814.9,0.091303
17876.33,0.090535
17938.18,0.090012
18000.47,0.089633
18063.19,0.088738
18126.35,0.087974
18189.95,0.087603
18254.0,0.087465
18318.5,0.087314
18383.46,0.086137
18448.88,0.085743
18514.77,0.085754
18581.13,0.086238
18647.97,0.086121
18715.29,0.085734
18783.1,0.085647
18851.4,0.085938
18920.2,0.08711
18989.51,0.088855
19059.32,0.091094
19129.65,0.093265
19200.5,0.094592
19271.88,0.098411
19343.79,0.10247
19416.23,0.1037
19489.23,0.10381
19562.77,0.103727
19636.88,0.103955
19711.54,0.104229
19786.77,0.104531
19862.59,0.104253
19938.98,0.103603
20015.96,0.103065
20093.54,0.101933
20171.73,0.099821
20250.53,0.096455
20329.94,0.093802
20409.98,0.091899
20490.65,0.089394
20571.96,0.086712
20653.92,0.085184
20736.54,0.083802
20819.82,0.082852
20903.77,0.080488
20988.4,0.077314
21073.72,0.075071
21159.73,0.073367
21246.46,0.070402
21333.89,0.069222
21422.04,0.069576
21510.93,0.068905
21600.56,0.067365
21690.94,0.065594
21782.08,0.065758
21873.99,0.068539
21966.67,0.073654
22060.15,0.081547
22154.42,0.090387
22249.51,0.098609
22345.41,0.106033
22442.14,0.112498
22539.72,0.118093
22638.14,0.121906
22737.43,0.123379
22837.6,0.123546
22938.65,0.124336
23040.6,0.12464
23143.46,0.122807
23247.24,0.121946
23351.96,0.12055
23457.62,0.118698
23564.25,0.117088
23671.85,0.115007
23780.44,0.113039
23890.02,0.112636
24000.63,0.109764
24112.26,0.105349
24224.93,0.102014
24338.66,0.101173
24453.47,0.100859
24569.36,0.101222
24686.36,0.09949
24804.47,0.100165
24923.72,0.098717
25044.13,0.098145
25165.7,0.099625
25288.46,0.100241
25412.43,0.099465
25537.61,0.101558
25664.03,0.104346
25791.71,0.105266
25920.67,0.104192
