Database of Origin,University of Winnipeg Spectrophotometer Facility
Sample Description,Carbonates and Oxolates - RELAB+Nicolet spectra Newly merged spectra (merged by RELAB)
Other Information,dry seived
Date Added,2018-08-06 20:49:02.045408

Data ID,RLA_CARB_1_9        
Sample ID,CRB105
Mineral Name,Huntite
Locality,Currant Creek/ Nevada/ USA
Grain Size,<45 um
Viewing Geometry,30/0/30
Resolution,5/ 0.6-129 nm
Formula,Mg3Ca(CO3)4
Composition,White chalky masses in and on magnesite

Wavelength
305.0,0.728732
310.0,0.740678
315.0,0.74656
320.0,0.755115
325.0,0.760475
330.0,0.768717
335.0,0.772143
340.0,0.77868
345.0,0.78312
350.0,0.789652
355.0,0.794413
360.0,0.800158
365.0,0.805008
370.0,0.810474
375.0,0.815798
380.0,0.819878
385.0,0.825608
390.0,0.831634
395.0,0.833167
400.0,0.835311
405.0,0.838668
410.0,0.842517
415.0,0.844587
420.0,0.845414
425.0,0.850114
430.0,0.851311
435.0,0.85451
440.0,0.85751
445.0,0.859678
450.0,0.861714
455.0,0.86616
460.0,0.868134
465.0,0.870316
470.0,0.8744
475.0,0.877616
480.0,0.879157
485.0,0.881619
490.0,0.884719
495.0,0.887406
500.0,0.889455
505.0,0.89162
510.0,0.892667
515.0,0.894454
520.0,0.895478
525.0,0.896293
530.0,0.897665
535.0,0.897627
540.0,0.898281
545.0,0.901049
550.0,0.900141
555.0,0.900309
560.0,0.901943
565.0,0.902312
570.0,0.90309
575.0,0.903789
580.0,0.903322
585.0,0.903895
590.0,0.903638
595.0,0.904637
600.0,0.904905
605.0,0.904172
610.0,0.904344
615.0,0.904189
620.0,0.904878
625.0,0.903856
630.0,0.904409
635.0,0.902769
640.0,0.902694
645.0,0.903201
650.0,0.902081
655.0,0.902322
660.0,0.903869
665.0,0.904439
670.0,0.903065
675.0,0.90446
680.0,0.904432
685.0,0.903945
690.0,0.903354
695.0,0.905038
700.0,0.903376
705.0,0.905421
710.0,0.90187
715.0,0.90275
720.0,0.902501
725.0,0.901994
730.0,0.902481
735.0,0.903513
740.0,0.904696
745.0,0.900712
750.0,0.902951
755.0,0.903446
760.0,0.904207
765.0,0.902561
770.0,0.90292
775.0,0.901144
780.0,0.90135
785.0,0.902411
790.0,0.902384
795.0,0.90099
800.0,0.901155
805.0,0.901102
810.0,0.900275
815.0,0.900496
820.0,0.900402
825.0,0.900542
830.0,0.901571
835.0,0.900563
840.0,0.900819
845.0,0.901614
850.0,0.899529
855.0,0.901156
860.0,0.90128
865.0,0.90198
870.0,0.900489
875.0,0.902099
880.0,0.899537
885.0,0.901884
890.0,0.900354
895.0,0.900364
900.0,0.899447
905.0,0.899248
910.0,0.901026
915.0,0.899179
920.0,0.900412
925.0,0.899235
930.0,0.899219
935.0,0.899395
940.0,0.898575
945.0,0.896931
950.0,0.89848
955.0,0.898003
960.0,0.90022
965.0,0.897686
970.0,0.898499
975.0,0.898255
980.0,0.899131
985.0,0.898083
990.0,0.898507
995.0,0.896734
1000.0,0.898002
1005.0,0.896169
1010.0,0.897977
1015.0,0.895864
1020.0,0.897166
1025.0,0.895893
1030.0,0.896418
1035.0,0.896051
1040.0,0.89582
1045.0,0.895874
1050.0,0.896098
1055.0,0.89677
1060.0,0.895653
1065.0,0.896516
1070.0,0.895229
1075.0,0.895243
1080.0,0.895381
1085.0,0.893952
1090.0,0.892909
1095.0,0.893618
1100.0,0.894182
1105.0,0.893291
1110.0,0.892845
1115.0,0.893136
1120.0,0.893519
1125.0,0.894448
1130.0,0.892696
1135.0,0.892978
1140.0,0.893017
1145.0,0.892007
1150.0,0.892489
1155.0,0.891468
1160.0,0.891581
1165.0,0.891565
1170.0,0.891978
1175.0,0.891841
1180.0,0.891716
1185.0,0.890657
1190.0,0.890583
1195.0,0.890285
1200.0,0.890782
1205.0,0.890557
1210.0,0.890791
1215.0,0.892132
1220.0,0.890613
1225.0,0.889347
1230.0,0.889597
1235.0,0.889701
1240.0,0.88873
1245.0,0.88789
1250.0,0.888574
1255.0,0.888516
1260.0,0.887612
1265.0,0.888765
1270.0,0.885765
1275.0,0.886047
1280.0,0.885267
1285.0,0.885227
1290.0,0.884589
1295.0,0.886193
1300.0,0.886696
1305.0,0.885461
1310.0,0.8855
1315.0,0.885334
1320.0,0.885045
1325.0,0.885807
1330.0,0.886055
1335.0,0.884582
1340.0,0.884142
1345.0,0.883732
1350.0,0.882274
1355.0,0.880508
1360.0,0.880967
1365.0,0.880702
1370.0,0.877688
1375.0,0.873587
1380.0,0.865322
1385.0,0.832312
1420.0,0.877056
1425.0,0.877575
1430.0,0.877779
1435.0,0.878304
1440.0,0.878546
1445.0,0.878686
1450.0,0.878795
1455.0,0.87905
1460.0,0.879064
1465.0,0.879146
1470.0,0.878967
1475.0,0.879132
1480.0,0.879068
1485.0,0.879393
1490.0,0.879241
1495.0,0.879375
1500.0,0.879286
1505.0,0.87929
1510.0,0.879169
1515.0,0.879344
1520.0,0.879066
1525.0,0.879167
1530.0,0.878918
1535.0,0.879122
1540.0,0.878851
1545.0,0.879015
1550.0,0.878765
1555.0,0.878718
1560.0,0.878468
1565.0,0.87827
1570.0,0.878274
1575.0,0.878207
1580.0,0.878096
1585.0,0.877829
1590.0,0.877698
1595.0,0.877389
1600.0,0.877078
1605.0,0.876862
1610.0,0.876825
1615.0,0.876518
1620.0,0.87633
1625.0,0.876082
1630.0,0.875787
1635.0,0.875488
1640.0,0.875476
1645.0,0.875282
1650.0,0.874763
1655.0,0.874385
1660.0,0.87394
1665.0,0.873748
1670.0,0.873391
1675.0,0.872811
1680.0,0.872415
1685.0,0.871803
1690.0,0.871114
1695.0,0.870627
1700.0,0.870161
1705.31,0.869466
1709.81,0.869352
1715.46,0.868769
1720.02,0.868692
1724.6,0.868215
1730.35,0.867906
1734.98,0.867771
1739.64,0.86727
1745.5,0.867021
1750.21,0.86676
1754.95,0.866629
1759.72,0.866142
1764.51,0.866053
1770.54,0.865956
1775.39,0.865619
1780.27,0.865312
1785.17,0.865459
1790.1,0.864892
1795.06,0.864619
1800.05,0.86427
1805.06,0.863566
1810.1,0.863106
1815.17,0.862641
1820.27,0.862502
1825.4,0.862136
1830.56,0.861593
1834.44,0.861411
1839.65,0.860787
1844.89,0.860318
1850.16,0.85971
1855.45,0.859073
1859.45,0.858585
1864.8,0.857807
1870.18,0.856379
1875.59,0.853783
1879.67,0.851376
1885.14,0.848584
1890.64,0.84559
1894.79,0.842879
1900.34,0.839029
1904.53,0.83673
1910.15,0.834289
1914.38,0.833352
1920.05,0.832402
1924.33,0.832372
1930.06,0.832344
1934.38,0.832423
1940.17,0.832568
1944.54,0.832443
1950.39,0.832406
1954.8,0.832231
1960.72,0.831669
1965.18,0.831439
1969.66,0.831211
1975.66,0.83057
1980.19,0.830651
1984.74,0.830368
1989.31,0.830768
1995.43,0.830679
2000.05,0.831019
2004.69,0.831366
2009.35,0.831425
2015.6,0.832116
2020.32,0.831978
2025.05,0.832126
2029.81,0.831845
2034.59,0.831712
2039.39,0.831663
2044.22,0.831774
2050.69,0.832204
2055.57,0.832172
2060.47,0.832485
2065.39,0.832223
2070.34,0.831905
2075.31,0.831004
2080.31,0.829764
2085.33,0.827794
2090.38,0.825726
2095.45,0.824459
2100.54,0.825105
2105.66,0.825598
2110.8,0.825853
2114.25,0.82578
2119.43,0.824588
2124.65,0.823427
2129.88,0.823281
2135.15,0.823675
2140.44,0.823754
2145.75,0.823621
2149.31,0.823889
2154.67,0.823566
2160.06,0.823162
2165.47,0.82255
2170.91,0.821408
2174.55,0.820328
2180.04,0.81835
2185.55,0.81599
2189.25,0.814635
2194.81,0.814826
2200.4,0.814447
2204.14,0.813736
2209.78,0.81278
2215.44,0.811519
2219.24,0.810481
2224.95,0.808168
2230.7,0.804998
2234.54,0.802687
2240.33,0.79957
2244.21,0.797152
2250.06,0.792782
2255.93,0.788899
2259.87,0.786507
2265.79,0.781188
2269.76,0.777947
2275.74,0.774244
2279.74,0.771765
2285.77,0.76739
2289.81,0.763012
2295.9,0.757686
2299.97,0.754953
2304.06,0.751133
2310.22,0.741454
2314.35,0.73366
2320.56,0.724304
2324.72,0.722993
2331.0,0.729932
2335.2,0.730904
2339.41,0.729452
2345.76,0.739708
2350.02,0.751185
2354.28,0.75869
2360.72,0.76345
2365.03,0.763907
2369.35,0.762503
2375.86,0.756203
2380.23,0.751112
2384.61,0.747848
2389.0,0.747302
2395.63,0.74651
2400.06,0.744405
2404.52,0.743577
2408.98,0.744302
2415.72,0.742999
2420.23,0.739771
2424.76,0.7351
2429.3,0.731359
2433.87,0.729575
2440.74,0.728149
2445.35,0.72709
2449.97,0.724245
2454.61,0.722088
2459.27,0.720526
2463.94,0.718502
2470.99,0.714864
2475.71,0.712389
2480.45,0.709506
2485.2,0.706724
2489.98,0.703803
2494.77,0.700104
2499.58,0.697316
2504.41,0.69633
2509.26,0.696492
2514.13,0.69768
2519.02,0.699488
2523.92,0.70131
2528.85,0.703815
2533.79,0.706801
2541.24,0.71109
2543.74,0.711528
2548.74,0.711773
2553.76,0.71127
2556.28,0.711575
2558.8,0.711623
2561.33,0.711029
2563.86,0.710229
2566.4,0.710455
2568.95,0.710763
2571.5,0.710704
2574.05,0.710781
2576.61,0.7113
2579.17,0.7119
2581.74,0.712615
2584.31,0.712706
2586.89,0.713274
2589.48,0.71387
2592.07,0.714478
2594.66,0.713789
2597.26,0.712811
2599.87,0.713595
2602.48,0.713651
2605.09,0.712706
2607.71,0.711965
2610.34,0.711878
2612.97,0.711815
2615.61,0.711173
2618.25,0.7103
2620.9,0.709524
2623.55,0.709001
2626.21,0.708245
2628.87,0.706857
2631.54,0.705104
2634.22,0.703718
2636.89,0.702308
2639.58,0.700447
2642.27,0.69788
2644.97,0.69471
2647.67,0.690954
2650.38,0.686894
2653.09,0.682495
2655.81,0.678346
2658.53,0.67454
2661.26,0.670146
2664.0,0.66475
2666.74,0.657532
2669.48,0.647614
2672.23,0.633202
2674.99,0.61142
2677.76,0.578832
2680.52,0.534354
2683.3,0.492736
2686.08,0.454078
2688.87,0.410385
2691.66,0.359279
2694.46,0.305671
2697.26,0.253248
2700.07,0.211671
2702.89,0.182517
2705.71,0.166394
2708.53,0.161156
2711.37,0.162378
2714.21,0.16859
2717.05,0.179245
2719.9,0.192928
2722.76,0.207154
2725.62,0.217793
2728.49,0.224595
2731.37,0.228668
2734.25,0.230514
2737.14,0.231326
2740.03,0.232708
2742.93,0.236597
2745.83,0.243415
2748.75,0.253335
2751.66,0.264961
2754.59,0.276787
2757.52,0.287947
2760.46,0.297048
2763.4,0.303159
2766.35,0.306707
2769.3,0.306947
2772.26,0.304099
2775.23,0.301236
2778.21,0.302458
2781.19,0.306468
2784.18,0.309786
2787.17,0.311368
2790.17,0.311953
2793.18,0.311749
2796.19,0.310994
2799.21,0.309493
2802.24,0.308335
2805.27,0.307347
2808.31,0.306067
2811.35,0.305052
2814.41,0.304123
2817.46,0.302331
2820.53,0.300313
2823.6,0.298113
2826.68,0.295739
2829.77,0.293325
2832.86,0.290783
2835.96,0.288028
2839.07,0.285436
2842.18,0.282741
2845.3,0.279937
2848.43,0.277539
2851.56,0.275779
2854.7,0.274343
2857.85,0.273363
2861.0,0.272412
2864.16,0.271399
2867.33,0.270403
2870.51,0.269347
2873.69,0.268381
2876.88,0.267751
2880.07,0.267028
2883.28,0.266167
2886.49,0.26525
2889.71,0.264464
2892.93,0.26392
2896.17,0.263321
2899.4,0.262541
2902.65,0.262009
2905.91,0.261448
2909.17,0.260995
2912.44,0.260518
2915.71,0.260221
2918.99,0.259686
2922.29,0.259118
2925.58,0.258514
2928.89,0.257965
2932.2,0.257329
2935.52,0.256838
2938.85,0.256074
2942.19,0.255387
2945.53,0.254652
2948.88,0.254088
2952.24,0.25353
2955.61,0.253066
2958.98,0.252591
2962.36,0.25267
2965.75,0.252656
2969.15,0.252587
2972.55,0.252595
2975.97,0.252553
2979.39,0.252114
2986.25,0.252118
2989.7,0.251995
2993.15,0.251619
2996.61,0.251486
3000.08,0.251217
3003.55,0.251189
3007.04,0.251044
3010.53,0.250876
3014.03,0.250801
3017.54,0.250811
3021.06,0.250747
3024.58,0.251136
3028.12,0.251415
3031.66,0.251735
3035.21,0.252167
3038.77,0.252575
3042.33,0.253088
3045.91,0.253813
3049.49,0.254395
3053.08,0.255052
3056.68,0.255486
3060.29,0.255593
3063.91,0.255945
3067.54,0.256569
3071.17,0.256775
3074.81,0.256967
3078.47,0.25712
3082.13,0.257266
3085.79,0.257294
3089.47,0.257302
3093.16,0.257401
3096.85,0.257882
3100.56,0.257971
3104.27,0.258026
3107.99,0.257695
3111.73,0.257366
3115.47,0.257159
3119.21,0.256961
3122.97,0.257125
3126.74,0.256677
3130.52,0.256647
3134.3,0.257277
3138.1,0.257475
3141.9,0.257509
3145.71,0.257884
3149.54,0.258164
3153.37,0.258336
3157.21,0.258718
3161.06,0.258578
3164.92,0.258535
3168.79,0.258304
3172.67,0.258054
3176.55,0.25753
3180.45,0.257002
3184.36,0.256147
3188.27,0.255362
3192.2,0.254651
3196.14,0.253754
3200.08,0.252831
3204.04,0.252033
3208.0,0.250856
3211.98,0.250512
3215.96,0.249926
3219.96,0.249846
3223.96,0.249757
3227.98,0.249564
3232.0,0.249534
3236.04,0.249233
3240.08,0.248753
3244.14,0.248123
3248.2,0.24772
3252.28,0.247207
3256.37,0.246744
3260.46,0.245747
3264.57,0.244483
3268.69,0.243046
3272.81,0.242049
3276.95,0.241046
3281.1,0.240025
3285.26,0.239196
3289.43,0.238498
3293.61,0.237577
3297.8,0.236149
3302.0,0.234847
3306.21,0.233355
3310.43,0.231694
3314.66,0.229863
3318.91,0.228306
3323.16,0.227103
3327.43,0.22632
3331.71,0.22559
3335.99,0.224492
3340.29,0.223174
3344.6,0.22171
3348.92,0.219735
3353.26,0.21665
3357.6,0.212204
3361.96,0.206561
3366.32,0.201751
3370.7,0.198484
3375.09,0.196744
3379.49,0.197016
3383.9,0.196793
3388.32,0.196413
3392.76,0.196409
3397.21,0.195679
3401.66,0.194292
3406.13,0.192249
3410.61,0.190581
3415.11,0.190045
3419.61,0.191971
3424.13,0.196575
3428.66,0.201346
3433.2,0.205065
3437.76,0.207354
3442.32,0.208881
3446.9,0.210812
3451.49,0.213846
3456.09,0.217327
3460.7,0.221566
3465.33,0.225947
3469.97,0.22974
3474.62,0.233264
3479.29,0.236994
3483.96,0.240583
3488.65,0.244169
3493.35,0.247794
3498.07,0.251174
3502.79,0.255434
3507.53,0.261571
3512.29,0.268973
3517.05,0.277105
3521.83,0.285165
3526.62,0.293854
3531.43,0.302385
3536.24,0.31051
3541.08,0.317885
3543.5,0.321124
3545.92,0.324145
3548.35,0.327022
3550.78,0.329784
3553.21,0.332374
3555.65,0.33468
3558.09,0.336749
3560.53,0.338633
3562.98,0.34053
3565.43,0.342324
3567.88,0.344011
3570.34,0.345504
3572.8,0.347057
3575.27,0.348606
3577.73,0.349957
3580.2,0.351205
3582.68,0.352622
3585.16,0.353901
3587.64,0.355221
3590.12,0.356558
3592.61,0.357924
3595.1,0.359158
3597.6,0.3603
3600.09,0.36135
3602.6,0.362303
3605.1,0.363308
3607.61,0.364329
3610.12,0.365031
3612.64,0.365727
3615.16,0.366378
3617.68,0.367057
3620.21,0.367638
3622.74,0.36819
3625.27,0.368746
3627.81,0.369501
3630.35,0.370091
3632.89,0.370602
3635.44,0.370958
3637.99,0.371243
3640.54,0.371364
3643.1,0.3713
3645.66,0.37106
3648.23,0.370581
3650.8,0.369747
3653.37,0.368697
3655.95,0.367316
3658.53,0.365321
3661.11,0.36285
3663.7,0.359825
3666.29,0.355974
3668.89,0.351491
3671.48,0.346529
3674.09,0.34137
3676.69,0.336227
3679.3,0.331129
3681.91,0.326052
3684.53,0.321635
3687.15,0.318109
3689.78,0.315508
3692.4,0.313875
3695.04,0.313275
3697.67,0.31341
3700.31,0.314125
3702.95,0.315057
3705.6,0.316047
3708.25,0.317023
3710.91,0.317751
3713.56,0.318303
3716.23,0.318595
3718.89,0.318776
3721.56,0.318897
3724.23,0.318788
3726.91,0.318597
3729.59,0.318339
3732.28,0.317933
3734.97,0.317227
3737.66,0.316132
3740.36,0.314605
3743.06,0.31291
3745.76,0.311187
3748.47,0.309543
3751.18,0.30802
3753.9,0.306558
3756.62,0.305111
3759.34,0.303566
3762.07,0.301712
3764.8,0.299733
3767.54,0.297652
3770.28,0.295467
3773.02,0.29297
3775.77,0.289942
3778.52,0.286624
3781.28,0.283107
3784.04,0.279424
3786.8,0.275826
3789.57,0.272433
3792.34,0.269618
3795.12,0.267291
3797.9,0.265309
3800.69,0.26347
3803.47,0.262036
3806.27,0.260899
3809.06,0.26011
3811.86,0.259586
3814.67,0.259416
3817.48,0.259284
3820.29,0.259062
3823.11,0.258601
3825.93,0.257867
3828.76,0.256581
3831.59,0.254748
3834.42,0.252256
3837.26,0.24873
3840.1,0.244143
3842.95,0.238918
3845.8,0.233109
3848.65,0.227107
3851.51,0.221265
3854.38,0.215931
3857.24,0.211209
3860.12,0.206739
3862.99,0.202424
3865.87,0.19831
3868.76,0.194559
3871.65,0.191759
3874.54,0.190418
3877.44,0.190849
3880.34,0.192707
3883.25,0.19544
3886.16,0.198524
3889.07,0.201458
3891.99,0.203618
3894.92,0.204912
3897.85,0.205262
3900.78,0.204488
3903.72,0.202789
3906.66,0.200336
3909.6,0.197137
3912.55,0.193511
3915.51,0.189635
3918.47,0.185768
3921.43,0.181934
3924.4,0.17809
3927.38,0.174297
3930.35,0.170856
3933.33,0.167956
3936.32,0.16577
3939.31,0.164896
3942.31,0.165811
3945.31,0.168388
3948.31,0.172689
3951.32,0.178291
3954.34,0.184824
3957.35,0.192181
3960.38,0.200315
3963.41,0.209077
3966.44,0.218252
3969.48,0.227491
3972.52,0.236743
3975.56,0.245745
3978.61,0.254201
3981.67,0.262358
3984.73,0.27025
3987.8,0.277667
3990.87,0.284776
3993.94,0.291572
3997.02,0.298218
4000.1,0.304716
4003.19,0.310771
4006.29,0.316484
4009.39,0.321939
4012.49,0.327179
4015.6,0.332309
4018.71,0.337131
4021.83,0.341701
4024.95,0.346109
4028.08,0.350456
4031.21,0.354447
4034.35,0.358282
4037.49,0.361936
4040.64,0.365404
4043.79,0.368584
4046.94,0.371576
4050.11,0.37434
4053.27,0.376958
4056.44,0.379357
4059.62,0.381526
4062.8,0.383482
4065.99,0.385365
4069.18,0.387061
4072.38,0.388652
4075.58,0.390067
4078.78,0.39148
4082.0,0.392731
4085.21,0.39386
4088.43,0.394785
4091.66,0.395769
4094.89,0.396686
4098.13,0.397624
4101.37,0.398396
4104.62,0.399109
4107.87,0.399698
4111.13,0.40028
4114.39,0.400895
4117.66,0.401442
4120.93,0.401901
4124.21,0.402382
4127.5,0.402711
4130.79,0.403118
4134.08,0.403496
4137.38,0.403916
4140.68,0.404162
4143.99,0.40448
4147.31,0.404737
4150.63,0.405008
4153.95,0.405259
4157.29,0.405541
4160.62,0.405785
4163.96,0.406071
4167.31,0.406347
4170.66,0.406536
4174.02,0.406553
4177.39,0.406627
4180.75,0.406706
4184.13,0.406941
4187.51,0.407024
4190.89,0.407149
4194.28,0.407219
4197.68,0.407285
4201.08,0.407497
4204.49,0.407851
4207.9,0.408006
4211.32,0.408114
4214.74,0.408104
4218.17,0.408203
4221.61,0.408257
4225.05,0.408316
4228.5,0.408206
4231.95,0.408112
4235.4,0.408
4238.87,0.407915
4242.34,0.407769
4245.81,0.407593
4249.29,0.407327
4252.78,0.407037
4256.27,0.40661
4259.77,0.406432
4263.27,0.406254
4266.78,0.40611
4270.29,0.40608
4273.81,0.406078
4277.34,0.405955
4280.87,0.405914
4284.41,0.40566
4287.95,0.405454
4291.5,0.405255
4295.06,0.40504
4298.62,0.404684
4302.19,0.40437
4305.76,0.404109
4309.34,0.403975
4312.92,0.403693
4316.52,0.403383
4320.11,0.403035
4323.72,0.402609
4327.32,0.402024
4330.94,0.401676
4334.56,0.401419
4338.19,0.401243
4341.82,0.401099
4345.46,0.400986
4349.11,0.400749
4352.76,0.400623
4356.42,0.400589
4360.08,0.400596
4363.75,0.400369
4367.43,0.400101
4371.11,0.399768
4374.8,0.399592
4378.49,0.39935
4382.19,0.399272
4385.9,0.399329
4389.61,0.399384
4393.33,0.399312
4397.06,0.399336
4400.79,0.399461
4404.53,0.399597
4408.28,0.399603
4412.03,0.399586
4415.79,0.399327
4419.55,0.399168
4423.32,0.398945
4427.1,0.398623
4430.88,0.398154
4434.68,0.39777
4438.47,0.397172
4442.28,0.396582
4446.08,0.395886
4449.9,0.395065
4453.72,0.39414
4457.55,0.393241
4461.39,0.392216
4465.23,0.391081
4469.08,0.389736
4472.94,0.388304
4476.8,0.386827
4480.67,0.385444
4484.55,0.384194
4488.43,0.38332
4492.32,0.382711
4496.21,0.382417
4500.12,0.382378
4504.03,0.382697
4507.94,0.383185
4511.87,0.383842
4515.8,0.384383
4519.73,0.384765
4523.68,0.384973
4527.63,0.385149
4531.59,0.385206
4535.55,0.385198
4539.52,0.384979
4543.5,0.384718
4547.49,0.384349
4551.48,0.383738
4555.48,0.382858
4559.49,0.381977
4563.5,0.380834
4567.52,0.379631
4571.55,0.378384
4575.58,0.377329
4579.63,0.376317
4583.67,0.375479
4587.73,0.37476
4591.79,0.374338
4595.86,0.373952
4599.94,0.373638
4604.03,0.373621
4608.12,0.374141
4612.22,0.374943
4616.33,0.375978
4620.44,0.377138
4624.56,0.378424
4628.69,0.379493
4632.83,0.380475
4636.97,0.381265
4641.12,0.382009
4645.28,0.382618
4649.45,0.383246
4653.62,0.383815
4657.8,0.384557
4661.99,0.385363
4666.19,0.386435
4670.39,0.387614
4674.6,0.38886
4678.82,0.389933
4683.05,0.391166
4687.28,0.392241
4691.52,0.393177
4695.77,0.394
4700.03,0.394961
4704.3,0.395797
4708.57,0.396671
4712.85,0.397479
4717.14,0.398101
4721.43,0.398614
4725.74,0.399138
4730.05,0.39945
4734.37,0.39965
4738.7,0.399785
4743.03,0.399921
4747.38,0.399845
4751.73,0.39987
4756.09,0.39979
4760.45,0.399775
4764.83,0.399749
4769.21,0.399709
4773.6,0.399575
4778.0,0.399537
4782.41,0.399461
4786.83,0.399403
4791.25,0.399274
4795.68,0.399232
4800.13,0.399266
4804.57,0.399376
4809.03,0.399297
4813.5,0.399227
4817.97,0.399157
4822.45,0.399056
4826.94,0.398756
4831.44,0.398436
4835.95,0.398194
4840.46,0.398016
4844.99,0.397628
4849.52,0.39729
4854.06,0.396894
4858.61,0.396559
4863.17,0.395981
4867.73,0.395555
4872.31,0.395086
4876.89,0.394556
4881.48,0.393864
4886.08,0.393215
4890.69,0.392564
4895.31,0.391972
4899.94,0.391312
4904.57,0.390729
4909.22,0.390088
4913.87,0.389428
4918.53,0.388688
4923.21,0.388051
4927.88,0.387411
4932.57,0.386808
4937.27,0.386091
4941.98,0.38545
4946.69,0.38471
4951.42,0.383902
4956.15,0.382936
4960.9,0.381914
4965.65,0.380565
4970.41,0.379054
4975.18,0.377249
4979.96,0.375556
4984.75,0.374047
4989.54,0.372846
4994.35,0.371412
4999.17,0.369671
5003.99,0.367615
5008.83,0.365387
5013.67,0.363007
5018.52,0.360868
5023.39,0.358656
5028.26,0.356553
5033.14,0.354716
5038.03,0.35318
5042.93,0.351812
5047.84,0.350785
5052.76,0.350083
5057.69,0.34979
5062.63,0.349862
5067.58,0.350102
5072.54,0.350095
5077.51,0.349983
5082.49,0.349603
5087.47,0.348863
5092.47,0.347806
5097.48,0.346777
5102.5,0.345608
5107.52,0.344389
5112.56,0.343041
5117.61,0.341779
5122.66,0.340426
5127.73,0.339089
5132.81,0.337591
5137.89,0.336062
5142.99,0.334483
5148.1,0.332875
5153.22,0.331169
5158.34,0.329578
5163.48,0.327964
5168.63,0.326362
5173.79,0.32475
5178.96,0.323224
5184.13,0.321635
5189.32,0.319993
5194.52,0.318171
5199.73,0.316289
5204.96,0.314204
5210.19,0.312106
5215.43,0.309999
5220.68,0.307655
5225.94,0.305164
5231.22,0.302705
5236.5,0.300066
5241.79,0.297372
5247.1,0.294453
5252.42,0.291516
5257.74,0.288521
5263.08,0.285466
5268.43,0.282281
5273.79,0.279091
5279.16,0.275751
5284.54,0.27227
5289.93,0.268655
5295.34,0.264957
5300.75,0.260931
5306.18,0.256859
5311.61,0.252489
5317.06,0.247703
5322.52,0.242556
5327.99,0.236964
5333.47,0.230795
5338.96,0.224101
5344.47,0.216784
5349.98,0.209013
5355.51,0.200712
5361.05,0.192366
5366.6,0.184573
5372.16,0.17728
5377.73,0.170682
5383.32,0.164945
5388.91,0.159915
5394.52,0.155534
5400.14,0.151722
5405.77,0.148287
5411.41,0.14496
5417.07,0.141577
5422.74,0.138044
5428.41,0.13378
5434.1,0.129244
5439.81,0.124836
5445.52,0.119935
5451.25,0.114816
5456.98,0.110013
5462.73,0.105882
5468.5,0.102622
5474.27,0.100356
5480.06,0.099594
5485.86,0.100144
5491.67,0.101987
5497.49,0.105057
5503.33,0.10891
5509.18,0.1131
5515.04,0.117264
5520.91,0.12124
5526.8,0.124609
5532.69,0.127367
5538.61,0.129518
5544.53,0.131391
5550.47,0.132951
5556.41,0.134247
5562.38,0.135314
5568.35,0.136553
5574.34,0.137832
5580.34,0.139319
5586.35,0.140603
5592.38,0.142046
5598.42,0.143639
5604.47,0.145075
5610.54,0.146119
5616.61,0.14705
5622.71,0.147538
5628.81,0.147668
5634.93,0.147317
5641.06,0.146815
5647.21,0.145633
5653.36,0.144014
5659.54,0.142693
5665.72,0.141093
5671.92,0.139517
5678.13,0.138034
5684.36,0.136006
5690.6,0.134154
5696.85,0.132408
5703.12,0.130674
5709.4,0.129459
5715.69,0.128044
5722.0,0.126136
5728.33,0.124407
5734.66,0.122559
5741.01,0.120748
5747.38,0.119012
5753.76,0.117502
5760.15,0.116061
5766.56,0.115232
5772.98,0.113414
5779.41,0.111364
5785.86,0.110104
5792.33,0.108971
5798.81,0.107983
5805.3,0.107011
5811.81,0.105814
5818.33,0.104779
5824.87,0.103568
5831.42,0.101743
5837.99,0.099912
5844.57,0.098279
5851.17,0.096694
5857.78,0.095152
5864.41,0.093622
5871.05,0.092133
5877.7,0.091174
5884.38,0.090673
5891.06,0.089256
5897.76,0.088743
5904.48,0.087881
5911.21,0.087014
5917.96,0.086772
5924.73,0.086263
5931.5,0.085936
5938.3,0.086042
5945.11,0.085323
5951.93,0.084725
5958.78,0.084648
5965.63,0.084364
5972.51,0.083984
5979.39,0.083017
5986.3,0.082448
5993.22,0.08206
6000.16,0.081368
6007.11,0.081063
6014.08,0.081059
6021.06,0.080609
6028.06,0.079966
6035.08,0.079548
6042.12,0.079107
6049.17,0.079058
6056.23,0.078405
6063.32,0.07769
6070.42,0.078214
6077.53,0.078472
6084.67,0.078129
6091.82,0.078173
6098.98,0.078411
6106.17,0.078426
6113.37,0.078644
6120.58,0.078598
6127.82,0.078492
6135.07,0.078977
6142.34,0.079514
6149.63,0.079962
6156.93,0.080624
6164.25,0.081453
6171.59,0.081941
6178.95,0.082327
6186.32,0.082616
6193.71,0.082595
6201.12,0.083261
6208.54,0.085626
6215.99,0.088999
6223.45,0.09229
6230.93,0.094095
6238.43,0.094104
6245.95,0.092653
6253.48,0.090372
6261.03,0.087589
6268.6,0.084623
6276.19,0.081653
6283.8,0.078829
6291.43,0.076168
6299.07,0.073801
6306.73,0.071541
6314.42,0.069392
6322.12,0.067171
6329.84,0.064939
6337.57,0.06272
6345.33,0.06066
6353.11,0.058167
6360.9,0.055581
6368.72,0.053131
6376.55,0.050534
6384.4,0.047721
6392.27,0.045146
6400.17,0.042602
6408.08,0.040292
6416.01,0.038289
6423.96,0.03631
6431.93,0.034515
6439.92,0.033125
6447.93,0.031787
6455.96,0.030675
6464.01,0.02968
6472.08,0.028901
6480.17,0.028278
6488.28,0.027987
6496.41,0.027853
6504.56,0.02772
6512.73,0.027561
6520.92,0.02748
6529.14,0.027336
6537.37,0.027295
6545.63,0.027401
6553.9,0.027594
6562.2,0.027762
6570.51,0.027936
6578.85,0.027998
6587.21,0.028017
6595.59,0.028017
6603.99,0.028101
6612.42,0.027955
6620.86,0.02772
6629.33,0.027588
6637.82,0.027384
6646.33,0.027179
6654.86,0.027174
6663.41,0.027113
6671.99,0.026907
6680.59,0.026069
6689.21,0.024544
6697.85,0.022395
6706.51,0.020273
6715.2,0.018455
6723.91,0.017456
6732.64,0.017532
6741.4,0.018485
6750.18,0.019976
6758.98,0.021557
6767.8,0.022757
6776.65,0.023608
6785.52,0.024338
6794.41,0.024945
6803.33,0.025515
6812.27,0.025904
6821.23,0.026058
6830.22,0.025834
6839.23,0.025208
6848.26,0.02431
6857.32,0.023593
6866.4,0.02388
6875.51,0.025104
6884.64,0.026419
6893.8,0.027503
6902.98,0.02842
6912.18,0.029228
6921.41,0.029954
6930.66,0.03084
6939.94,0.031984
6949.24,0.033316
6958.57,0.035005
6967.92,0.037351
6977.3,0.040281
6986.7,0.043707
6996.13,0.047452
7005.59,0.051088
7015.07,0.054266
7024.57,0.056909
7034.1,0.059027
7043.66,0.060847
7053.25,0.062423
7062.85,0.06384
7072.49,0.065016
7082.15,0.065936
7091.84,0.066401
7101.55,0.066592
7111.3,0.066494
7121.06,0.066117
7130.86,0.065451
7140.68,0.065052
7150.53,0.065538
7160.41,0.067262
7170.31,0.070165
7180.24,0.073884
7190.2,0.07745
7200.19,0.080462
7210.2,0.082998
7220.24,0.085229
7230.31,0.087294
7240.41,0.089591
7250.54,0.092073
7260.69,0.094923
7270.88,0.097884
7281.09,0.100793
7291.33,0.103595
7301.6,0.10629
7311.9,0.108715
7322.22,0.111061
7332.58,0.11321
7342.97,0.115302
7353.38,0.117247
7363.83,0.119148
7374.3,0.120922
7384.81,0.122634
7395.34,0.124339
7405.91,0.126124
7416.5,0.127702
7427.13,0.129159
7437.78,0.130507
7448.47,0.131788
7459.19,0.132804
7469.94,0.133727
7480.71,0.134283
7491.52,0.13476
7502.37,0.135219
7513.24,0.135734
7524.14,0.136284
7535.08,0.137043
7546.05,0.137815
7557.05,0.138668
7568.08,0.139449
7579.15,0.140444
7590.24,0.141645
7601.37,0.142981
7612.53,0.144347
7623.73,0.145692
7634.96,0.146827
7646.22,0.147854
7657.51,0.148722
7668.84,0.149719
7680.2,0.150627
7691.59,0.151524
7703.02,0.152322
7714.49,0.15329
7725.98,0.154085
7737.52,0.154696
7749.08,0.155123
7760.68,0.155492
7772.32,0.155784
7783.99,0.155967
7795.69,0.15591
7807.43,0.155765
7819.21,0.155668
7831.02,0.155778
7842.87,0.155888
7854.75,0.156128
7866.67,0.156334
7878.62,0.15654
7890.62,0.156468
7902.64,0.156298
7914.71,0.156028
7926.81,0.155823
7938.95,0.155632
7951.13,0.155593
7963.34,0.155606
7975.59,0.155704
7987.88,0.155759
8000.21,0.155725
8012.57,0.155483
8024.98,0.155299
8037.42,0.154938
8049.9,0.154505
8062.42,0.153977
8074.98,0.153731
8087.57,0.15355
8100.21,0.15334
8112.89,0.153014
8125.6,0.152761
8138.36,0.152382
8151.16,0.151745
8163.99,0.150973
8176.87,0.150313
8189.79,0.149732
8202.75,0.149346
8215.75,0.14915
8228.79,0.149199
8241.87,0.149439
8254.99,0.149798
8268.16,0.149991
8281.37,0.15016
8294.62,0.150334
8307.91,0.150551
8321.24,0.150532
8334.62,0.150525
8348.04,0.150442
8361.51,0.150296
8375.02,0.149976
8388.57,0.149505
8402.16,0.148906
8415.8,0.148262
8429.49,0.147695
8443.22,0.147281
8456.99,0.146743
8470.81,0.146252
8484.67,0.145822
8498.58,0.14541
8512.54,0.144793
8526.54,0.143997
8540.58,0.143185
8554.68,0.142618
8568.82,0.142133
8583.0,0.141666
8597.24,0.14125
8611.52,0.140894
8625.85,0.140471
8640.23,0.140166
8654.65,0.139926
8669.12,0.140026
8683.64,0.140384
8698.21,0.140679
8712.83,0.140652
8727.5,0.140446
8742.22,0.14002
8756.99,0.139521
8771.8,0.139003
8786.67,0.138189
8801.59,0.137035
8816.56,0.135851
8831.58,0.134268
8846.65,0.132289
8861.77,0.129841
8876.94,0.127027
8892.17,0.123296
8907.45,0.118249
8922.78,0.112109
8938.16,0.104777
8953.6,0.095406
8969.09,0.083375
8984.64,0.070129
9000.23,0.062203
9015.89,0.06421
9031.59,0.071872
9047.36,0.07906
9063.17,0.083568
9079.05,0.08542
9094.97,0.085266
9110.96,0.083583
9127.0,0.080795
9143.1,0.077441
9159.25,0.074187
9175.46,0.071348
9191.73,0.069025
9208.06,0.067328
9224.44,0.066106
9240.88,0.065398
9257.38,0.065154
9273.94,0.065173
9290.56,0.065463
9307.24,0.065871
9323.98,0.066373
9340.78,0.066914
9357.64,0.067506
9374.57,0.068247
9391.55,0.069089
9408.59,0.069817
9425.7,0.070455
9442.87,0.071124
9460.1,0.071805
9477.4,0.072144
9494.75,0.072152
9512.17,0.072051
9529.66,0.071955
9547.21,0.071427
9564.83,0.070534
9582.5,0.069486
9600.25,0.068376
9618.06,0.067252
9635.94,0.066081
9653.88,0.064778
9671.89,0.063461
9689.97,0.062328
9708.12,0.061278
9726.33,0.060357
9744.62,0.059529
9762.97,0.058732
9781.39,0.058034
9799.88,0.057232
9818.44,0.05653
9837.07,0.055972
9855.77,0.055465
9874.54,0.054994
9893.39,0.054523
9912.3,0.053969
9931.29,0.053479
9950.36,0.053144
9969.49,0.052974
9988.7,0.05273
10007.98,0.052355
10027.34,0.052051
10046.77,0.051886
10066.28,0.051724
10085.87,0.051621
10105.53,0.051381
10125.26,0.051128
10145.08,0.051063
10164.97,0.050942
10184.94,0.050844
10204.99,0.050814
10225.12,0.050666
10245.33,0.050721
10265.61,0.050986
10285.98,0.051296
10306.43,0.051661
10326.96,0.052215
10347.57,0.052787
10368.27,0.053553
10389.05,0.054499
10409.91,0.055422
10430.86,0.056559
10451.88,0.057972
10473.0,0.0595
10494.2,0.061146
10515.49,0.062994
10536.86,0.065336
10558.32,0.067833
10579.87,0.070451
10601.5,0.073425
10623.23,0.076597
10645.04,0.079803
10666.94,0.083163
10688.94,0.086598
10711.02,0.090147
10733.2,0.093531
10755.47,0.096751
10777.83,0.099774
10800.28,0.102433
10822.83,0.104376
10845.47,0.10595
10868.21,0.107151
10891.04,0.107974
10913.97,0.108159
10936.99,0.108144
10960.12,0.107792
10983.34,0.107302
11006.66,0.106542
11030.07,0.105229
11053.59,0.103281
11077.21,0.100621
11100.93,0.096109
11124.75,0.087985
11148.68,0.074452
11172.71,0.059029
11196.84,0.047418
11221.07,0.039676
11245.41,0.033182
11269.86,0.032003
11294.41,0.039305
11319.07,0.05412
11343.84,0.06408
11368.72,0.060951
11393.7,0.050193
11418.8,0.042072
11444.01,0.039734
11469.33,0.036522
11494.76,0.033704
11520.3,0.03077
11545.96,0.029402
11571.73,0.031392
11597.62,0.038073
11623.62,0.053515
11649.74,0.076474
11675.98,0.093862
11702.34,0.10179
11728.81,0.106311
11755.41,0.110172
11782.13,0.109368
11808.96,0.097428
11835.92,0.08604
11863.01,0.09934
11890.22,0.11667
11917.55,0.123928
11945.01,0.12686
11972.6,0.128262
12000.31,0.129223
12028.16,0.1299
12056.13,0.130386
12084.23,0.130581
12112.46,0.130632
12140.83,0.130651
12169.33,0.130381
12197.96,0.129938
12226.73,0.129567
12255.64,0.129087
12284.68,0.128366
12313.86,0.127392
12343.18,0.126232
12372.64,0.124986
12402.24,0.123641
12431.98,0.122279
12461.86,0.12104
12491.89,0.120003
12522.07,0.118976
12552.38,0.117824
12582.85,0.116795
12613.47,0.115817
12644.23,0.114693
12675.15,0.113443
12706.21,0.112166
12737.43,0.110677
12768.81,0.109109
12800.33,0.107524
12832.02,0.105664
12863.86,0.103757
12895.86,0.101805
12928.02,0.099902
12960.34,0.097587
12992.82,0.095084
13025.46,0.09264
13058.27,0.0901
13091.25,0.087154
13124.39,0.083954
13157.7,0.080645
13191.18,0.077017
13224.83,0.072916
13258.66,0.068291
13292.65,0.063469
13326.83,0.058645
13361.17,0.054003
13395.7,0.050172
13430.4,0.047397
13465.29,0.045576
13500.35,0.045112
13535.6,0.046484
13571.03,0.049427
13606.65,0.053277
13642.46,0.057533
13678.46,0.061282
13714.64,0.063995
13751.02,0.065816
13787.59,0.067146
13824.36,0.068476
13861.32,0.069428
13898.49,0.069893
13935.85,0.070016
13973.41,0.069904
14011.17,0.069543
14049.15,0.069206
14087.32,0.069235
14125.71,0.06932
14164.3,0.068652
14203.11,0.067245
14242.13,0.06582
14281.36,0.065022
14320.81,0.065135
14360.49,0.065355
14400.38,0.065578
14440.49,0.065639
14480.82,0.065185
14521.39,0.065041
14562.18,0.065207
14603.2,0.065003
14644.45,0.064704
14685.93,0.064426
14727.66,0.064053
14769.62,0.063537
14811.81,0.062881
14854.25,0.062024
14896.94,0.061475
14939.87,0.060889
14983.05,0.060255
15026.48,0.059472
15070.16,0.058573
15114.1,0.057894
15158.29,0.057374
15202.74,0.056708
15247.46,0.055925
15292.43,0.055367
15337.68,0.054527
15383.19,0.053765
15428.97,0.053114
15475.03,0.052384
15521.36,0.051691
15567.97,0.05122
15614.87,0.050611
15662.04,0.049737
15709.5,0.049085
15757.25,0.048392
15805.29,0.047706
15853.62,0.04707
15902.26,0.046376
15951.19,0.045797
16000.42,0.045275
16049.95,0.045095
16099.8,0.045042
16149.95,0.044511
16200.42,0.044202
16251.21,0.044212
16302.31,0.044134
16353.74,0.044117
16405.49,0.04379
16457.57,0.043291
16509.98,0.043052
16562.73,0.042988
16615.82,0.042882
16669.24,0.042674
16723.02,0.042547
16777.14,0.042269
16831.61,0.042252
16886.43,0.042135
16941.62,0.041893
16997.16,0.041777
17053.08,0.041554
17109.36,0.041117
17166.01,0.040818
17223.04,0.040765
17280.45,0.040782
17338.24,0.040915
17396.43,0.040828
17455.0,0.040684
17513.97,0.040792
17573.34,0.040582
17633.11,0.040442
17693.29,0.04041
17753.89,0.04013
17814.9,0.040031
17876.33,0.040105
17938.18,0.039961
18000.47,0.039613
18063.19,0.039562
18126.35,0.039399
18189.95,0.039399
18254.0,0.039273
18318.5,0.038976
18383.46,0.038654
18448.88,0.038098
18514.77,0.037744
18581.13,0.037852
18647.97,0.037462
18715.29,0.037131
18783.1,0.037084
18851.4,0.036825
18920.2,0.036297
18989.51,0.035631
19059.32,0.035039
19129.65,0.035102
19200.5,0.035202
19271.88,0.035463
19343.79,0.036055
19416.24,0.037025
19489.23,0.038183
19562.77,0.039205
19636.88,0.040243
19711.54,0.041692
19786.78,0.042905
19862.59,0.044272
19938.98,0.045816
20015.96,0.047708
20093.55,0.050169
20171.73,0.052342
20250.53,0.054313
20329.94,0.056784
20409.98,0.059194
20490.65,0.06188
20571.96,0.064768
20653.92,0.067725
20736.54,0.070487
20819.82,0.07319
20903.77,0.075649
20988.4,0.078388
21073.72,0.081245
21159.73,0.084016
21246.46,0.08604
21333.89,0.087582
21422.04,0.088794
21510.93,0.088889
21600.56,0.088471
21690.94,0.088257
21782.08,0.088323
21873.99,0.086971
21966.67,0.085336
22060.15,0.084833
22154.42,0.084478
22249.51,0.084328
22345.41,0.083698
22442.14,0.082569
22539.72,0.08157
22638.14,0.081799
22737.43,0.082904
22837.6,0.08315
22938.65,0.082696
23040.6,0.083405
23143.46,0.082654
23247.24,0.082124
23351.96,0.082365
23457.63,0.081266
23564.25,0.079868
23671.85,0.079493
23780.44,0.080585
23890.02,0.081451
24000.63,0.081088
24112.26,0.080611
24224.93,0.08081
24338.66,0.082811
24453.47,0.085085
24569.36,0.083825
24686.36,0.082149
24804.47,0.0807
24923.73,0.080144
25044.13,0.081175
25165.71,0.081373
25288.46,0.080032
25412.43,0.080108
25537.61,0.076951
25664.04,0.073451
25791.72,0.07347
25920.68,0.070451
