Database of Origin,University of Winnipeg Spectrophotometer Facility
Sample Description,See Master Clays in HOSERLab database
Date Added,2016-12-11 20:57:06.614025

Data ID,RLA_CLAY_33         
Sample ID,VER103
Mineral Name,Vermiculite
Grain Size,<45um
Viewing Geometry,"30/0,30"
Resolution,"5,0.6-129"
Material Class,Phyllosilicate

Wavelength
305.0,0.084281
310.0,0.08598
315.0,0.088864
320.0,0.092548
325.0,0.095737
330.0,0.100217
335.0,0.103946
340.0,0.107771
345.0,0.111585
350.0,0.11541
355.0,0.119449
360.0,0.124263
365.0,0.130008
370.0,0.135828
375.0,0.14287
380.0,0.148369
385.0,0.152629
390.0,0.155536
395.0,0.158918
400.0,0.161128
405.0,0.162164
410.0,0.164508
415.0,0.167221
420.0,0.170682
425.0,0.175455
430.0,0.180835
435.0,0.186474
440.0,0.191263
445.0,0.195363
450.0,0.198108
455.0,0.20108
460.0,0.20395
465.0,0.207023
470.0,0.209955
475.0,0.213801
480.0,0.21872
485.0,0.223935
490.0,0.228539
495.0,0.232591
500.0,0.238482
505.0,0.244441
510.0,0.24984
515.0,0.254799
520.0,0.259342
525.0,0.263408
530.0,0.266814
535.0,0.270709
540.0,0.273971
545.0,0.277085
550.0,0.280355
555.0,0.283532
560.0,0.2868
565.0,0.289102
570.0,0.291118
575.0,0.292927
580.0,0.294866
585.0,0.295919
590.0,0.296697
595.0,0.297082
600.0,0.296941
605.0,0.29759
610.0,0.296412
615.0,0.294898
620.0,0.29404
625.0,0.292438
630.0,0.290652
635.0,0.288964
640.0,0.286729
645.0,0.284516
650.0,0.282812
655.0,0.280042
660.0,0.277774
665.0,0.275467
670.0,0.273267
675.0,0.271041
680.0,0.26864
685.0,0.266816
690.0,0.265011
695.0,0.263571
700.0,0.26194
705.0,0.260906
710.0,0.260356
715.0,0.259965
720.0,0.259785
725.0,0.259914
730.0,0.260353
735.0,0.262878
740.0,0.263074
745.0,0.264237
750.0,0.266307
755.0,0.267945
760.0,0.271492
765.0,0.272906
770.0,0.274975
775.0,0.277896
780.0,0.281862
785.0,0.28217
790.0,0.283392
795.0,0.28528
800.0,0.288312
805.0,0.290506
810.0,0.291462
815.0,0.292565
820.0,0.291418
825.0,0.294437
830.0,0.295104
835.0,0.292695
840.0,0.292494
845.0,0.291795
850.0,0.291208
855.0,0.291814
860.0,0.287513
865.0,0.288577
870.0,0.285621
875.0,0.285011
880.0,0.285245
885.0,0.282586
890.0,0.283035
895.0,0.28155
900.0,0.281224
905.0,0.282066
910.0,0.282366
915.0,0.281968
920.0,0.283621
925.0,0.28308
930.0,0.284245
935.0,0.284612
940.0,0.286882
945.0,0.287575
950.0,0.289358
955.0,0.292342
960.0,0.292065
965.0,0.294265
970.0,0.294752
975.0,0.296339
980.0,0.298907
985.0,0.298826
990.0,0.300131
995.0,0.301172
1000.0,0.303092
1005.0,0.302901
1010.0,0.30429
1015.0,0.304362
1020.0,0.305183
1025.0,0.306893
1030.0,0.306711
1035.0,0.307636
1040.0,0.308006
1045.0,0.307293
1050.0,0.307609
1055.0,0.307821
1060.0,0.308064
1065.0,0.308156
1070.0,0.30804
1075.0,0.30727
1080.0,0.307881
1085.0,0.307369
1090.0,0.307674
1095.0,0.307217
1100.0,0.307671
1105.0,0.308144
1110.0,0.308361
1115.0,0.308875
1120.0,0.309759
1125.0,0.310753
1130.0,0.312708
1135.0,0.31188
1140.0,0.313056
1145.0,0.314407
1150.0,0.315144
1155.0,0.316685
1160.0,0.317843
1165.0,0.319421
1170.0,0.320275
1175.0,0.320764
1180.0,0.322432
1185.0,0.324274
1190.0,0.324708
1195.0,0.327721
1200.0,0.330004
1205.0,0.334291
1210.0,0.335527
1215.0,0.33819
1220.0,0.34041
1225.0,0.342144
1230.0,0.345457
1235.0,0.346695
1240.0,0.348961
1245.0,0.351025
1250.0,0.353435
1255.0,0.356223
1260.0,0.359055
1265.0,0.360668
1270.0,0.363621
1275.0,0.365604
1280.0,0.368507
1285.0,0.370544
1290.0,0.373599
1295.0,0.376673
1300.0,0.378854
1305.0,0.381767
1310.0,0.384118
1315.0,0.387658
1320.0,0.390397
1325.0,0.392791
1330.0,0.395258
1335.0,0.39776
1340.0,0.400046
1345.0,0.40242
1350.0,0.404717
1355.0,0.404032
1360.0,0.407344
1365.0,0.41377
1370.0,0.412942
1375.0,0.405177
1380.0,0.40227
1385.0,0.418762
1390.0,0.422582
1395.0,0.419367
1400.0,0.424174
1405.0,0.429105
1410.0,0.434622
1415.0,0.436998
1420.0,0.438572
1425.0,0.443936
1430.0,0.445386
1435.0,0.448927
1440.0,0.452471
1445.0,0.454124
1450.0,0.457109
1455.0,0.460036
1460.0,0.463163
1465.0,0.465215
1470.0,0.466303
1475.0,0.471576
1480.0,0.475112
1485.0,0.476171
1490.0,0.479162
1495.0,0.481383
1500.0,0.484236
1505.0,0.488187
1510.0,0.490204
1515.0,0.491765
1520.0,0.494621
1525.0,0.496975
1530.0,0.500341
1535.0,0.502797
1540.0,0.504608
1545.0,0.505706
1550.0,0.509799
1555.0,0.511848
1560.0,0.514397
1565.0,0.519263
1570.0,0.519422
1575.0,0.522327
1580.0,0.525295
1585.0,0.526336
1590.0,0.529788
1595.0,0.532717
1600.0,0.534568
1605.0,0.53678
1610.0,0.539004
1615.0,0.541176
1620.0,0.54382
1625.0,0.547283
1630.0,0.549652
1635.0,0.551706
1640.0,0.55375
1645.0,0.555464
1650.0,0.556918
1655.0,0.559067
1660.0,0.56182
1665.0,0.564051
1670.0,0.565774
1675.0,0.566215
1680.0,0.568534
1685.0,0.570998
1690.0,0.572439
1695.0,0.574768
1700.0,0.577281
1705.0,0.579234
1710.0,0.582261
1715.0,0.582901
1720.0,0.586084
1725.0,0.588373
1730.0,0.58968
1735.0,0.591788
1740.0,0.594348
1745.0,0.596352
1750.0,0.599095
1755.0,0.60033
1760.0,0.603338
1765.0,0.604099
1770.0,0.606538
1775.0,0.607292
1780.0,0.608342
1785.0,0.610021
1790.0,0.61192
1795.0,0.613057
1800.0,0.613335
1805.0,0.614444
1810.0,0.616127
1815.0,0.616414
1820.0,0.615603
1825.0,0.622548
1830.0,0.620067
1835.0,0.620577
1840.0,0.624558
1845.0,0.629954
1850.0,0.628418
1855.0,0.631236
1860.0,0.63393
1865.0,0.633601
1870.0,0.625805
1875.0,0.639742
1880.0,0.645041
1885.0,0.634438
1890.0,0.629116
1895.0,0.629143
1900.0,0.618386
1905.0,0.615284
1910.0,0.614125
1915.0,0.607784
1920.0,0.608861
1925.0,0.610924
1930.0,0.612454
1935.0,0.613586
1940.0,0.615904
1945.0,0.619279
1950.0,0.618619
1955.0,0.621117
1960.0,0.623643
1965.0,0.626185
1970.0,0.626918
1975.0,0.62962
1980.0,0.632728
1985.0,0.634652
1990.0,0.63859
1995.0,0.640712
2000.0,0.643406
2005.0,0.645638
2010.0,0.648612
2015.0,0.65042
2020.0,0.651494
2025.0,0.653205
2030.0,0.65515
2035.0,0.655204
2040.0,0.656102
2045.0,0.659208
2050.0,0.659049
2055.0,0.661371
2060.0,0.661636
2065.0,0.662024
2070.0,0.662696
2075.0,0.662734
2080.0,0.661697
2085.0,0.662704
2090.0,0.660671
2095.0,0.661095
2100.0,0.661235
2105.0,0.662671
2110.0,0.664491
2115.0,0.664734
2120.0,0.667441
2125.0,0.667953
2130.0,0.670724
2135.0,0.671428
2140.0,0.674032
2145.0,0.674792
2150.0,0.675525
2155.0,0.678578
2160.0,0.679554
2165.0,0.678703
2170.0,0.680279
2175.0,0.679607
2180.0,0.682183
2185.0,0.681542
2190.0,0.68254
2195.0,0.682745
2200.0,0.681735
2205.0,0.683017
2210.0,0.682401
2215.0,0.683844
2220.0,0.68512
2225.0,0.684084
2230.0,0.683536
2235.0,0.68307
2240.0,0.681897
2245.0,0.680192
2250.0,0.678646
2255.0,0.676628
2260.0,0.675126
2265.0,0.6711
2270.0,0.666312
2275.0,0.660897
2280.0,0.652004
2285.0,0.640182
2290.0,0.625788
2295.0,0.612547
2300.0,0.604607
2305.0,0.594814
2310.0,0.584719
2315.0,0.570863
2320.0,0.556339
2325.0,0.544609
2330.0,0.539786
2335.0,0.545163
2340.0,0.556549
2345.0,0.571289
2350.0,0.582444
2355.0,0.591033
2360.0,0.592165
2365.0,0.585717
2370.0,0.574975
2375.0,0.559089
2380.0,0.547483
2385.0,0.546452
2390.0,0.556013
2395.0,0.567311
2400.0,0.574917
2405.0,0.580497
2410.0,0.581372
2415.0,0.585917
2420.0,0.588084
2425.0,0.58987
2430.0,0.589147
2435.0,0.585417
2440.0,0.58432
2445.0,0.58376
2450.0,0.585135
2455.0,0.590336
2460.0,0.59137
2465.0,0.591981
2470.0,0.590988
2475.0,0.592543
2480.0,0.590197
2485.0,0.589089
2490.0,0.588788
2495.0,0.586631
2500.0,0.581977
2505.0,0.581
2510.0,0.580987
2515.0,0.580924
2520.0,0.583446
2525.15,0.582453
2530.08,0.57831
2535.03,0.577484
2540.0,0.57765
2544.99,0.577376
2549.99,0.574579
2552.5,0.574073
2553.76,0.575399
2556.28,0.573445
2558.8,0.571857
2561.33,0.571714
2563.86,0.575618
2565.13,0.575682
2566.4,0.575441
2567.67,0.573762
2568.95,0.572351
2570.22,0.573153
2571.5,0.574673
2572.77,0.573047
2574.05,0.573178
2575.33,0.575268
2576.61,0.573443
2577.89,0.574498
2579.17,0.575342
2580.46,0.573006
2581.74,0.573321
2583.03,0.574351
2584.31,0.573967
2585.6,0.577622
2586.89,0.575319
2588.19,0.574838
2589.48,0.575873
2590.77,0.57571
2592.07,0.574247
2593.36,0.57259
2594.66,0.5711
2595.96,0.577953
2597.26,0.580887
2598.56,0.575622
2599.87,0.5723
2601.17,0.572169
2602.48,0.573864
2603.78,0.574236
2605.09,0.572103
2606.4,0.573769
2607.71,0.575792
2609.03,0.573997
2610.34,0.572447
2611.66,0.571831
2612.97,0.570259
2614.29,0.570677
2615.61,0.570027
2616.93,0.568523
2618.25,0.57296
2619.57,0.572583
2620.9,0.56959
2622.22,0.571873
2623.55,0.569349
2624.88,0.567737
2626.21,0.566903
2627.54,0.568783
2628.87,0.569307
2630.21,0.565151
2631.54,0.566723
2632.88,0.56802
2634.21,0.564992
2635.55,0.56405
2636.89,0.561985
2638.24,0.560096
2639.58,0.560178
2640.92,0.560873
2642.27,0.560148
2643.62,0.560125
2644.97,0.559364
2646.32,0.559392
2647.67,0.560599
2649.02,0.56013
2650.38,0.559992
2651.73,0.560291
2653.09,0.560905
2654.45,0.56256
2655.81,0.561962
2657.17,0.562971
2658.53,0.562043
2659.89,0.561463
2661.26,0.561953
2662.63,0.561293
2664.0,0.559073
2665.36,0.557479
2666.74,0.558654
2668.11,0.558742
2669.48,0.554677
2670.86,0.548495
2672.23,0.54779
2673.61,0.53944
2674.99,0.530153
2676.37,0.52075
2677.76,0.508428
2679.14,0.488499
2680.52,0.457133
2681.91,0.417321
2683.3,0.376015
2684.69,0.337032
2686.08,0.304407
2687.47,0.280505
2688.87,0.261673
2690.26,0.248365
2691.66,0.239328
2693.06,0.23518
2694.46,0.234564
2695.86,0.236233
2697.26,0.237466
2698.66,0.239997
2700.07,0.243477
2701.48,0.249257
2702.89,0.256142
2704.3,0.26216
2705.71,0.26819
2707.12,0.27576
2708.53,0.282349
2709.95,0.289724
2711.37,0.297046
2712.79,0.30331
2714.21,0.305464
2715.63,0.306598
2717.05,0.307503
2718.48,0.306954
2719.9,0.304683
2721.33,0.302055
2722.76,0.29802
2724.19,0.291549
2725.62,0.287383
2727.06,0.284112
2728.49,0.279045
2729.93,0.275632
2731.37,0.274395
2732.81,0.274181
2734.25,0.27462
2735.69,0.276222
2737.14,0.279103
2738.58,0.280374
2740.03,0.28368
2741.48,0.288931
2742.93,0.292071
2744.38,0.293266
2745.83,0.295138
2747.29,0.297896
2748.75,0.300443
2750.2,0.302646
2751.66,0.304814
2753.13,0.306873
2754.59,0.307161
2756.05,0.308326
2757.52,0.310678
2758.99,0.309644
2760.46,0.308614
2761.93,0.308083
2763.4,0.308253
2764.87,0.308559
2766.35,0.308152
2767.82,0.307655
2769.3,0.308016
2770.78,0.307807
2772.26,0.308177
2773.75,0.308032
2775.23,0.307513
2776.72,0.306883
2778.21,0.307221
2779.7,0.308021
2781.19,0.308611
2782.68,0.309218
2784.18,0.309425
2785.67,0.308896
2787.17,0.309126
2788.67,0.309968
2790.17,0.30969
2791.67,0.30845
2793.18,0.306772
2794.68,0.305641
2796.19,0.305577
2797.7,0.305329
2799.21,0.305023
2800.72,0.304687
2802.24,0.303977
2803.75,0.303719
2805.27,0.304133
2806.79,0.303289
2808.31,0.302294
2809.83,0.301639
2811.35,0.301129
2812.88,0.300722
2814.41,0.300191
2815.93,0.300209
2817.46,0.299991
2819.0,0.299623
2820.53,0.299894
2822.07,0.300106
2823.6,0.300407
2825.14,0.300184
2826.68,0.300529
2828.22,0.301133
2829.77,0.301476
2831.31,0.301731
2832.86,0.302195
2834.41,0.302804
2835.96,0.303839
2837.51,0.305556
2839.07,0.306632
2840.62,0.306444
2842.18,0.306857
2843.74,0.308014
2845.3,0.308782
2846.86,0.309434
2848.43,0.31017
2849.99,0.311294
2851.56,0.311975
2853.13,0.312423
2854.7,0.313011
2856.27,0.313538
2857.85,0.314246
2859.42,0.315117
2861.0,0.316055
2862.58,0.316559
2864.16,0.316814
2865.75,0.316825
2867.33,0.31771
2868.92,0.318444
2870.51,0.319276
2872.1,0.319315
2873.69,0.318828
2875.28,0.318961
2876.88,0.319761
2878.48,0.320209
2880.07,0.320336
2881.68,0.320386
2883.28,0.320343
2884.88,0.320825
2886.49,0.321504
2888.1,0.321894
2889.71,0.3222
2891.32,0.322577
2892.93,0.322865
2894.55,0.322628
2896.16,0.322715
2897.78,0.323209
2899.4,0.323373
2901.03,0.323506
2902.65,0.324145
2904.28,0.324145
2905.91,0.324152
2907.54,0.324053
2909.17,0.324368
2910.8,0.324248
2912.44,0.32457
2914.07,0.325481
2915.71,0.325825
2917.35,0.325591
2918.99,0.32594
2920.64,0.325998
2922.29,0.326019
2923.93,0.326133
2925.58,0.326267
2927.24,0.326524
2928.89,0.326733
2930.55,0.327005
2932.2,0.327561
2933.86,0.32792
2935.52,0.327881
2937.19,0.327727
2938.85,0.328
2940.52,0.328959
2942.19,0.329455
2943.86,0.329465
2945.53,0.329311
2947.21,0.329494
2948.88,0.330244
2950.56,0.330246
2952.24,0.330626
2953.92,0.331184
2955.61,0.331426
2957.29,0.331437
2958.98,0.331791
2960.67,0.331911
2962.36,0.332334
2964.06,0.332667
2965.75,0.333242
2967.45,0.333911
2969.15,0.334186
2970.85,0.334398
2972.55,0.334945
2974.26,0.335168
2975.97,0.335545
2977.68,0.336007
2979.39,0.336782
2981.1,0.337403
2982.82,0.337433
2984.53,0.337701
2986.25,0.338364
2987.97,0.338768
2989.7,0.339718
2991.42,0.340685
2993.15,0.34118
2994.88,0.34143
2996.61,0.341708
2998.34,0.342175
3000.08,0.342672
3001.82,0.343023
3003.55,0.343816
3005.3,0.344423
3007.04,0.345083
3008.78,0.345557
3010.53,0.346304
3012.28,0.347483
3014.03,0.348249
3015.79,0.34855
3017.54,0.348966
3019.3,0.349076
3021.06,0.349619
3022.82,0.350242
3024.58,0.350394
3026.35,0.350755
3028.12,0.35189
3029.89,0.352697
3031.66,0.353063
3033.43,0.353267
3035.21,0.353755
3036.99,0.353778
3038.77,0.353893
3040.55,0.354725
3042.33,0.355263
3044.12,0.355274
3045.91,0.35581
3047.7,0.356148
3049.49,0.356736
3051.29,0.357355
3053.08,0.357663
3054.88,0.358008
3056.68,0.358182
3058.49,0.358417
3060.29,0.358759
3062.1,0.358693
3063.91,0.358755
3065.72,0.358945
3067.54,0.359157
3069.35,0.359527
3071.17,0.360081
3072.99,0.360304
3074.81,0.360449
3076.64,0.360139
3078.47,0.360143
3080.29,0.360619
3082.13,0.36126
3083.96,0.361697
3085.79,0.361803
3087.63,0.362191
3089.47,0.36258
3091.31,0.362716
3093.16,0.362815
3095.01,0.363346
3096.85,0.364049
3098.71,0.364049
3100.56,0.364504
3102.41,0.365286
3104.27,0.365569
3106.13,0.366256
3107.99,0.367102
3109.86,0.367569
3111.73,0.368559
3113.59,0.369486
3115.47,0.370242
3117.34,0.37109
3119.21,0.372015
3121.09,0.372727
3122.97,0.373426
3124.86,0.37387
3126.74,0.374741
3128.63,0.376019
3130.52,0.377157
3132.41,0.377996
3134.3,0.378875
3136.2,0.379635
3138.1,0.380856
3140.0,0.381624
3141.9,0.38227
3143.81,0.383252
3145.71,0.384304
3147.62,0.385167
3149.54,0.386042
3151.45,0.386753
3153.37,0.387585
3155.29,0.388764
3157.21,0.389923
3159.13,0.390392
3161.06,0.390923
3162.99,0.391762
3164.92,0.39282
3166.85,0.393693
3168.79,0.394728
3170.72,0.395829
3172.67,0.396718
3174.61,0.396978
3176.55,0.397146
3178.5,0.397923
3180.45,0.398951
3182.4,0.399482
3184.36,0.400323
3186.32,0.40156
3188.27,0.402588
3190.24,0.40299
3192.2,0.403542
3194.17,0.404411
3196.14,0.405119
3198.11,0.406158
3200.08,0.407011
3202.06,0.407769
3204.04,0.409034
3206.02,0.410247
3208.0,0.411266
3209.99,0.412151
3211.98,0.413312
3213.97,0.414397
3215.96,0.415369
3217.96,0.416468
3219.96,0.417776
3221.96,0.418898
3223.96,0.419903
3225.97,0.420749
3227.98,0.421733
3229.99,0.422999
3232.0,0.424565
3234.02,0.425866
3236.04,0.426829
3238.06,0.428013
3240.08,0.429094
3242.11,0.430287
3244.14,0.431526
3246.17,0.432701
3248.2,0.43391
3250.24,0.434928
3252.28,0.43608
3254.32,0.437142
3256.37,0.438351
3258.41,0.439606
3260.46,0.441114
3262.51,0.442147
3264.57,0.442919
3266.63,0.443694
3268.69,0.444671
3270.75,0.446131
3272.81,0.447317
3274.88,0.44822
3276.95,0.449379
3279.02,0.450522
3281.1,0.451795
3283.18,0.45308
3285.26,0.454602
3287.34,0.455885
3289.43,0.456561
3291.51,0.457604
3293.61,0.458618
3295.7,0.459621
3297.8,0.461073
3299.9,0.46243
3302.0,0.463448
3304.1,0.464395
3306.21,0.465455
3308.32,0.466142
3310.43,0.467405
3312.55,0.468924
3314.66,0.4698
3316.79,0.470876
3318.91,0.471901
3321.03,0.472986
3323.16,0.474375
3325.29,0.47514
3327.43,0.475814
3329.57,0.476807
3331.71,0.477667
3333.85,0.478418
3335.99,0.479037
3338.14,0.480055
3340.29,0.480835
3342.45,0.481127
3344.6,0.481805
3346.76,0.482763
3348.92,0.483311
3351.09,0.48372
3353.26,0.484221
3355.43,0.484862
3357.6,0.485694
3359.78,0.48615
3361.96,0.486511
3364.14,0.486715
3366.32,0.486796
3368.51,0.486892
3370.7,0.486883
3372.89,0.487028
3375.09,0.48775
3377.29,0.488267
3379.49,0.48903
3381.69,0.490067
3383.9,0.490957
3386.11,0.491529
3388.32,0.492304
3390.54,0.492952
3392.76,0.493619
3394.98,0.494292
3397.21,0.494644
3399.43,0.494513
3401.66,0.494313
3403.9,0.494147
3406.13,0.494207
3408.37,0.493874
3410.61,0.493527
3412.86,0.49386
3415.11,0.49458
3417.36,0.495444
3419.61,0.496325
3421.87,0.498203
3424.13,0.500564
3426.39,0.502842
3428.66,0.505069
3430.93,0.507044
3433.2,0.508994
3435.48,0.510773
3437.76,0.512499
3440.04,0.514207
3442.32,0.515603
3444.61,0.516851
3446.9,0.518451
3449.19,0.519998
3451.49,0.521164
3453.79,0.522428
3456.09,0.523458
3458.4,0.524325
3460.7,0.525424
3463.02,0.52653
3465.33,0.527153
3467.65,0.527812
3469.97,0.52844
3472.29,0.528799
3474.62,0.529617
3476.95,0.530456
3479.29,0.530688
3481.62,0.531132
3483.96,0.531858
3486.3,0.532176
3488.65,0.532461
3491.0,0.533042
3493.35,0.533284
3495.71,0.533228
3498.07,0.533196
3500.43,0.533514
3502.79,0.534281
3505.16,0.535212
3507.53,0.536829
3509.91,0.538829
3512.29,0.540321
3514.67,0.54213
3517.05,0.544035
3519.44,0.545905
3521.83,0.547606
3524.23,0.54907
3526.62,0.550792
3529.02,0.552746
3531.43,0.553762
3533.83,0.554698
3536.24,0.556238
3538.66,0.557604
3541.08,0.558815
3543.5,0.559907
3545.92,0.560893
3548.35,0.561923
3550.78,0.562914
3553.21,0.5641
3555.65,0.564962
3558.09,0.565247
3560.53,0.565827
3562.98,0.566574
3565.43,0.56722
3567.88,0.567972
3570.34,0.568401
3572.8,0.568932
3575.27,0.569739
3577.73,0.570549
3580.2,0.571319
3582.68,0.572073
3585.16,0.573038
3587.64,0.573537
3590.12,0.573882
3592.61,0.574813
3595.1,0.575696
3597.6,0.576408
3600.09,0.576854
3602.6,0.577687
3605.1,0.578514
3607.61,0.578751
3610.12,0.579392
3612.64,0.580376
3615.16,0.580985
3617.68,0.581264
3620.21,0.58165
3622.74,0.582319
3625.27,0.582802
3627.81,0.583213
3630.35,0.584117
3632.89,0.584503
3635.44,0.584969
3637.99,0.585707
3640.54,0.586142
3643.1,0.586381
3645.66,0.586747
3648.23,0.587236
3650.8,0.587744
3653.37,0.588402
3655.95,0.588836
3658.53,0.588976
3661.11,0.589337
3663.7,0.589797
3666.29,0.590774
3668.89,0.591448
3671.48,0.591659
3674.09,0.59211
3676.69,0.592678
3679.3,0.593308
3681.91,0.593839
3684.53,0.59419
3687.15,0.594583
3689.78,0.595041
3692.4,0.595429
3695.04,0.595714
3697.67,0.596087
3700.31,0.596381
3702.95,0.596544
3705.6,0.596864
3708.25,0.597623
3710.91,0.598064
3713.56,0.598554
3716.23,0.598935
3718.89,0.599301
3721.56,0.599818
3724.23,0.600429
3726.91,0.601
3729.59,0.601298
3732.28,0.601618
3734.97,0.601961
3737.66,0.602372
3740.36,0.602772
3743.06,0.603204
3745.76,0.603813
3748.47,0.604276
3751.18,0.604685
3753.9,0.604993
3756.62,0.605407
3759.34,0.605813
3762.07,0.606211
3764.8,0.606915
3767.54,0.607489
3770.28,0.607616
3773.02,0.607958
3775.77,0.608328
3778.52,0.60863
3781.28,0.608887
3784.04,0.609227
3786.8,0.609742
3789.57,0.610092
3792.34,0.610524
3795.12,0.611002
3797.9,0.611363
3800.69,0.611809
3803.47,0.61222
3806.27,0.612347
3809.06,0.612657
3811.86,0.613032
3814.67,0.613448
3817.48,0.61397
3820.29,0.6144
3823.11,0.614692
3825.93,0.615073
3828.76,0.615379
3831.59,0.615703
3834.42,0.615892
3837.26,0.616158
3840.1,0.616476
3842.95,0.616986
3845.8,0.617407
3848.65,0.61788
3851.51,0.617846
3854.38,0.617821
3857.24,0.618053
3860.12,0.61851
3862.99,0.619032
3865.87,0.619519
3868.76,0.619627
3871.65,0.619701
3874.54,0.620048
3877.44,0.620133
3880.34,0.620469
3883.25,0.621034
3886.16,0.620988
3889.07,0.620936
3891.99,0.621338
3894.92,0.621673
3897.85,0.621821
3900.78,0.621816
3903.72,0.621664
3906.66,0.62208
3909.6,0.622476
3912.55,0.622708
3915.51,0.622908
3918.47,0.623004
3921.43,0.623002
3924.4,0.623198
3927.38,0.623462
3930.35,0.623623
3933.33,0.623742
3936.32,0.623878
3939.31,0.624097
3942.31,0.624138
3945.31,0.624267
3948.31,0.624517
3951.32,0.624623
3954.34,0.62483
3957.35,0.624929
3960.38,0.625115
3963.41,0.625262
3966.44,0.625506
3969.48,0.625662
3972.52,0.625531
3975.56,0.625802
3978.61,0.62614
3981.67,0.626251
3984.73,0.626338
3987.8,0.626421
3990.87,0.626579
3993.94,0.626768
3997.02,0.626998
4000.1,0.627191
4003.19,0.627446
4006.29,0.627646
4009.39,0.62771
4012.49,0.628028
4015.6,0.628285
4018.71,0.628069
4021.83,0.628099
4024.95,0.628331
4028.08,0.628478
4031.21,0.628453
4034.35,0.628887
4037.49,0.628947
4040.64,0.628926
4043.79,0.629195
4046.94,0.629483
4050.11,0.629526
4053.27,0.629457
4056.44,0.62951
4059.62,0.629871
4062.8,0.630136
4065.99,0.6302
4069.18,0.630329
4072.38,0.630494
4075.58,0.630421
4078.78,0.630333
4082.0,0.630412
4085.21,0.63063
4088.43,0.630634
4091.66,0.630722
4094.89,0.630931
4098.13,0.631207
4101.37,0.631361
4104.62,0.631405
4107.87,0.631205
4111.13,0.631276
4114.39,0.631545
4117.66,0.631738
4120.93,0.6318
4124.21,0.631972
4127.5,0.632182
4130.79,0.632313
4134.08,0.632253
4137.38,0.632414
4140.68,0.632678
4143.99,0.632828
4147.31,0.632931
4150.63,0.633106
4153.95,0.633005
4157.29,0.633067
4160.62,0.633126
4163.96,0.633175
4167.31,0.633382
4170.66,0.633536
4174.02,0.63372
4177.39,0.633908
4180.75,0.633963
4184.13,0.634241
4187.51,0.634453
4190.89,0.634832
4194.28,0.634881
4197.68,0.635009
4201.08,0.635122
4204.49,0.635352
4207.9,0.635651
4211.32,0.636025
4214.74,0.63651
4218.17,0.637044
4221.61,0.637216
4225.05,0.637586
4228.5,0.638308
4231.95,0.63903
4235.4,0.63935
4238.87,0.639625
4242.34,0.639885
4245.81,0.640267
4249.29,0.640292
4252.78,0.640016
4256.27,0.639327
4259.77,0.638579
4263.27,0.638393
4266.78,0.638979
4270.29,0.639552
4273.81,0.640202
4277.34,0.64066
4280.87,0.64075
4284.41,0.64097
4287.95,0.641377
4291.5,0.641563
4295.06,0.641786
4298.62,0.641906
4302.19,0.641701
4305.76,0.641655
4309.34,0.641727
4312.92,0.641635
4316.52,0.64198
4320.11,0.642186
4323.72,0.642375
4327.32,0.642306
4330.94,0.642253
4334.56,0.642278
4338.19,0.642331
4341.82,0.642437
4345.46,0.642956
4349.11,0.64329
4352.76,0.64323
4356.42,0.643242
4360.08,0.64357
4363.75,0.644
4367.43,0.64406
4371.11,0.644166
4374.8,0.644506
4378.49,0.644508
4382.19,0.644747
4385.9,0.645076
4389.61,0.645363
4393.33,0.64537
4397.06,0.64558
4400.79,0.645752
4404.53,0.645982
4408.28,0.646226
4412.03,0.646476
4415.79,0.646453
4419.55,0.646628
4423.32,0.646846
4427.1,0.646826
4430.88,0.646952
4434.68,0.647437
4438.47,0.647676
4442.28,0.647757
4446.08,0.647837
4449.9,0.647961
4453.72,0.64826
4457.55,0.648559
4461.39,0.648724
4465.23,0.648885
4469.08,0.648941
4472.94,0.649246
4476.8,0.649403
4480.67,0.649338
4484.55,0.649274
4488.43,0.649543
4492.32,0.649773
4496.21,0.649885
4500.12,0.649929
4504.03,0.650065
4507.94,0.650042
4511.87,0.650161
4515.8,0.650085
4519.73,0.65029
4523.68,0.650341
4527.63,0.65026
4531.59,0.650338
4535.55,0.650423
4539.52,0.650322
4543.5,0.650228
4547.49,0.650097
4551.48,0.650251
4555.48,0.650111
4559.49,0.650023
4563.5,0.64986
4567.52,0.64989
4571.55,0.649711
4575.58,0.649577
4579.63,0.649488
4583.67,0.649154
4587.73,0.648653
4591.79,0.648377
4595.86,0.64803
4599.94,0.64786
4604.03,0.647524
4608.12,0.647182
4612.22,0.646651
4616.33,0.645837
4620.44,0.644963
4624.56,0.644435
4628.69,0.64372
4632.83,0.643113
4636.97,0.6426
4641.12,0.641929
4645.28,0.641019
4649.45,0.640297
4653.62,0.639094
4657.8,0.638124
4661.99,0.637327
4666.19,0.6366
4670.39,0.635619
4674.6,0.63466
4678.82,0.633676
4683.05,0.632901
4687.28,0.631881
4691.52,0.630795
4695.77,0.629568
4700.03,0.628602
4704.3,0.627559
4708.57,0.626494
4712.85,0.625333
4717.14,0.624239
4721.43,0.623055
4725.74,0.621947
4730.05,0.620883
4734.37,0.619676
4738.7,0.618416
4743.03,0.617634
4747.38,0.616692
4751.73,0.615581
4756.09,0.614478
4760.45,0.613503
4764.83,0.612485
4769.21,0.61142
4773.6,0.610333
4778.0,0.609482
4782.41,0.608388
4786.83,0.607338
4791.25,0.606018
4795.68,0.604747
4800.13,0.603333
4804.57,0.602096
4809.03,0.600903
4813.5,0.599602
4817.97,0.598448
4822.45,0.597411
4826.94,0.596082
4831.44,0.594859
4835.95,0.593735
4840.46,0.592661
4844.99,0.591611
4849.52,0.590604
4854.06,0.589629
4858.61,0.588919
4863.17,0.587889
4867.73,0.586917
4872.31,0.585951
4876.89,0.585048
4881.48,0.58428
4886.08,0.583659
4890.69,0.582714
4895.31,0.581949
4899.94,0.58136
4904.57,0.580788
4909.22,0.580105
4913.87,0.579569
4918.53,0.578877
4923.21,0.578121
4927.88,0.577482
4932.57,0.577176
4937.27,0.576675
4941.98,0.576036
4946.69,0.575385
4951.42,0.57496
4956.15,0.574783
4960.9,0.574795
4965.65,0.574523
4970.41,0.574211
4975.18,0.574052
4979.96,0.57387
4984.75,0.57379
4989.54,0.573721
4994.35,0.573422
4999.17,0.573328
5003.99,0.573215
5008.83,0.573231
5013.67,0.573038
5018.52,0.572808
5023.39,0.572877
5028.26,0.572744
5033.14,0.572362
5038.03,0.572337
5042.93,0.572105
5047.84,0.571944
5052.76,0.571684
5057.69,0.571723
5062.63,0.571687
5067.58,0.57179
5072.54,0.571643
5077.51,0.571436
5082.49,0.571243
5087.47,0.571537
5092.47,0.571321
5097.48,0.570923
5102.5,0.570659
5107.52,0.570505
5112.56,0.570447
5117.61,0.570344
5122.66,0.570273
5127.73,0.57007
5132.81,0.569783
5137.89,0.569907
5142.99,0.569949
5148.1,0.569884
5153.22,0.5703
5158.34,0.569997
5163.48,0.569413
5168.63,0.569493
5173.79,0.569606
5178.96,0.569641
5184.13,0.569712
5189.32,0.569797
5194.52,0.569654
5199.73,0.569749
5204.96,0.570234
5210.19,0.57019
5215.43,0.570213
5220.68,0.571047
5225.94,0.570252
5231.22,0.569716
5236.5,0.569836
5241.79,0.570372
5247.1,0.570339
5252.42,0.570063
5257.74,0.569795
5263.08,0.569737
5268.43,0.569535
5273.79,0.569397
5279.16,0.569523
5284.54,0.569937
5289.93,0.569406
5295.34,0.569521
5300.75,0.569583
5306.18,0.568804
5311.61,0.568355
5317.06,0.567992
5322.52,0.56728
5327.99,0.566748
5333.47,0.566066
5338.96,0.565155
5344.47,0.564162
5349.98,0.563233
5355.51,0.563208
5361.05,0.561866
5366.6,0.559233
5372.16,0.557181
5377.73,0.555362
5383.32,0.553656
5388.91,0.551636
5394.52,0.549376
5400.14,0.547176
5405.77,0.544969
5411.41,0.542741
5417.07,0.540571
5422.74,0.538714
5428.41,0.537872
5434.1,0.53433
5439.81,0.530582
5445.52,0.527955
5451.25,0.525435
5456.98,0.52258
5462.73,0.520019
5468.5,0.518851
5474.27,0.516785
5480.06,0.513656
5485.86,0.51155
5491.67,0.508621
5497.49,0.506272
5503.33,0.504561
5509.18,0.503023
5515.04,0.501177
5520.91,0.49972
5526.8,0.498738
5532.69,0.497428
5538.61,0.495888
5544.53,0.494607
5550.47,0.49349
5556.41,0.493221
5562.38,0.492637
5568.35,0.49118
5574.34,0.489872
5580.34,0.489672
5586.35,0.490462
5592.38,0.488777
5598.42,0.486421
5604.47,0.485306
5610.54,0.484759
5616.61,0.483589
5622.71,0.482754
5628.81,0.4812
5634.93,0.479982
5641.06,0.479527
5647.21,0.480681
5653.36,0.479784
5659.54,0.477331
5665.72,0.47569
5671.92,0.473402
5678.13,0.473094
5684.36,0.472818
5690.6,0.470991
5696.85,0.470322
5703.12,0.469377
5709.4,0.467816
5715.69,0.46889
5722.0,0.46908
5728.33,0.467995
5734.66,0.466545
5741.01,0.466007
5747.38,0.465427
5753.76,0.465437
5760.15,0.463784
5766.56,0.462221
5772.98,0.464064
5779.41,0.461841
5785.86,0.458522
5792.33,0.456319
5798.81,0.454163
5805.3,0.452871
5811.81,0.451301
5818.33,0.449774
5824.87,0.449947
5831.42,0.449655
5837.99,0.446586
5844.57,0.443071
5851.17,0.439986
5857.78,0.438222
5864.41,0.436664
5871.05,0.435218
5877.7,0.432114
5884.38,0.43228
5891.06,0.432041
5897.76,0.427604
5904.48,0.425843
5911.21,0.421395
5917.96,0.417404
5924.73,0.415018
5931.5,0.411958
5938.3,0.41042
5945.11,0.410553
5951.93,0.405585
5958.78,0.400912
5965.63,0.397204
5972.51,0.39527
5979.39,0.392918
5986.3,0.388737
5993.22,0.386893
6000.16,0.384098
6007.11,0.379803
6014.08,0.376622
6021.06,0.37495
6028.06,0.371782
6035.08,0.368424
6042.12,0.365854
6049.17,0.365247
6056.23,0.366672
6063.32,0.361998
6070.42,0.35806
6077.53,0.357635
6084.67,0.355295
6091.82,0.351973
6098.98,0.350072
6106.17,0.349541
6113.37,0.349741
6120.58,0.351481
6127.82,0.350226
6135.07,0.34869
6142.34,0.34944
6149.63,0.350984
6156.93,0.351844
6164.25,0.353479
6171.59,0.355159
6178.95,0.35563
6186.32,0.357739
6193.71,0.361764
6201.12,0.362946
6208.54,0.363856
6215.99,0.366332
6223.45,0.36892
6230.93,0.37158
6238.43,0.374185
6245.95,0.377451
6253.48,0.380408
6261.03,0.383396
6268.6,0.386564
6276.19,0.390065
6283.8,0.393075
6291.43,0.395944
6299.07,0.39904
6306.73,0.402029
6314.42,0.404551
6322.12,0.407346
6329.84,0.410247
6337.57,0.413218
6345.33,0.416831
6353.11,0.422707
6360.9,0.424466
6368.72,0.425933
6376.55,0.430583
6384.4,0.433816
6392.27,0.435503
6400.17,0.438859
6408.08,0.441114
6416.01,0.446885
6423.96,0.455439
6431.93,0.454671
6439.92,0.454843
6447.93,0.457057
6455.96,0.459041
6464.01,0.46197
6472.08,0.463685
6480.17,0.467395
6488.28,0.470977
6496.41,0.475724
6504.56,0.479458
6512.73,0.478214
6520.92,0.477913
6529.14,0.481871
6537.37,0.482655
6545.63,0.483292
6553.9,0.485294
6562.2,0.488113
6570.51,0.489791
6578.85,0.493214
6587.21,0.494278
6595.59,0.493752
6603.99,0.49443
6612.42,0.493842
6620.86,0.494281
6629.33,0.495279
6637.82,0.497483
6646.33,0.501205
6654.86,0.498394
6663.41,0.495433
6671.99,0.495483
6680.59,0.49666
6689.21,0.497258
6697.85,0.496212
6706.51,0.494791
6715.2,0.49589
6723.91,0.496412
6732.64,0.494943
6741.4,0.493062
6750.18,0.491764
6758.98,0.491209
6767.8,0.490117
6776.65,0.489389
6785.52,0.488846
6794.41,0.488131
6803.33,0.486577
6812.27,0.482671
6821.23,0.480336
6830.22,0.479754
6839.23,0.478862
6848.26,0.47629
6857.32,0.475138
6866.4,0.476333
6875.51,0.476338
6884.64,0.471791
6893.8,0.468825
6902.98,0.467106
6912.18,0.465933
6921.41,0.464004
6930.66,0.461609
6939.94,0.459722
6949.24,0.457646
6958.57,0.456037
6967.92,0.455733
6977.3,0.453207
6986.7,0.449685
6996.13,0.447979
7005.59,0.446326
7015.07,0.444034
7024.57,0.442294
7034.1,0.441062
7043.66,0.439349
7053.25,0.439393
7062.85,0.43757
7072.49,0.43453
7082.15,0.43257
7091.84,0.430974
7101.55,0.42945
7111.3,0.428073
7121.06,0.426946
7130.86,0.42568
7140.68,0.423641
7150.53,0.422408
7160.41,0.421452
7170.31,0.419965
7180.24,0.4185
7190.2,0.41613
7200.19,0.413912
7210.2,0.412599
7220.24,0.411084
7230.31,0.408542
7240.41,0.406176
7250.54,0.404397
7260.69,0.402514
7270.88,0.400633
7281.09,0.398856
7291.33,0.396574
7301.6,0.393875
7311.9,0.391776
7322.22,0.389495
7332.58,0.387254
7342.97,0.38555
7353.38,0.383746
7363.83,0.381295
7374.3,0.379049
7384.81,0.376812
7395.34,0.374661
7405.91,0.372385
7416.5,0.37055
7427.13,0.368428
7437.78,0.366327
7448.47,0.364325
7459.19,0.362529
7469.94,0.36084
7480.71,0.35901
7491.52,0.356697
7502.37,0.354543
7513.24,0.352164
7524.14,0.349851
7535.08,0.34758
7546.05,0.345483
7557.05,0.343141
7568.08,0.340938
7579.15,0.338766
7590.24,0.336901
7601.37,0.334646
7612.53,0.332593
7623.73,0.330416
7634.96,0.32817
7646.22,0.325989
7657.51,0.32392
7668.84,0.321729
7680.2,0.319605
7691.59,0.317274
7703.02,0.315412
7714.49,0.313671
7725.98,0.311655
7737.52,0.309347
7749.08,0.307519
7760.68,0.305653
7772.32,0.303754
7783.99,0.30177
7795.69,0.299742
7807.43,0.297542
7819.21,0.295434
7831.02,0.293149
7842.87,0.290866
7854.75,0.288266
7866.67,0.285878
7878.62,0.283119
7890.62,0.280344
7902.64,0.277645
7914.71,0.275144
7926.81,0.27202
7938.95,0.269169
7951.13,0.265974
7963.34,0.262728
7975.59,0.259406
7987.88,0.256284
8000.21,0.252992
8012.57,0.24968
8024.98,0.245861
8037.42,0.242316
8049.9,0.238578
8062.42,0.234928
8074.98,0.23084
8087.57,0.226534
8100.21,0.22195
8112.89,0.217658
8125.6,0.213387
8138.36,0.209178
8151.16,0.204555
8163.99,0.19998
8176.87,0.195141
8189.79,0.190343
8202.75,0.185389
8215.75,0.180444
8228.79,0.17489
8241.87,0.16963
8254.99,0.164074
8268.16,0.158577
8281.37,0.152708
8294.62,0.147094
8307.91,0.1412
8321.24,0.135425
8334.62,0.129342
8348.04,0.123664
8361.51,0.117772
8375.02,0.112275
8388.57,0.106917
8402.16,0.101618
8415.8,0.095978
8429.49,0.091022
8443.22,0.085833
8456.99,0.081079
8470.81,0.076337
8484.67,0.071875
8498.58,0.067231
8512.54,0.063297
8526.54,0.059562
8540.58,0.056233
8554.68,0.052794
8568.82,0.050286
8583.0,0.047782
8597.24,0.045814
8611.52,0.043964
8625.85,0.042637
8640.23,0.041297
8654.65,0.04104
8669.12,0.040853
8683.64,0.041242
8698.21,0.041775
8712.83,0.043302
8727.5,0.044775
8742.22,0.04669
8756.99,0.048465
8771.8,0.050683
8786.67,0.052856
8801.59,0.055684
8816.56,0.058461
8831.58,0.061346
8846.65,0.063874
8861.77,0.066796
8876.94,0.069704
8892.17,0.072879
8907.45,0.075532
8922.78,0.078424
8938.16,0.08118
8953.6,0.084164
8969.09,0.086325
8984.64,0.088578
9000.23,0.090898
9015.89,0.093231
9031.59,0.095084
9047.36,0.097326
9063.17,0.099323
9079.05,0.101395
9094.97,0.103208
9110.96,0.105215
9127.0,0.107123
9143.1,0.10882
9159.25,0.109507
9175.46,0.110606
9191.73,0.111537
9208.06,0.112317
9224.44,0.112792
9240.88,0.113675
9257.38,0.114169
9273.94,0.115142
9290.56,0.115666
9307.24,0.116066
9323.98,0.116059
9340.78,0.116011
9357.64,0.115668
9374.57,0.115588
9391.55,0.114981
9408.59,0.114363
9425.7,0.113636
9442.87,0.113036
9460.1,0.112289
9477.4,0.1117
9494.75,0.11102
9512.17,0.111082
9529.66,0.110714
9547.21,0.110848
9564.83,0.111402
9582.5,0.112367
9600.25,0.113036
9618.06,0.113813
9635.94,0.114507
9653.88,0.11582
9671.89,0.116919
9689.97,0.117903
9708.12,0.118547
9726.33,0.119422
9744.62,0.120133
9762.97,0.121204
9781.39,0.121935
9799.88,0.122758
9818.44,0.123836
9837.07,0.125018
9855.77,0.125381
9874.54,0.12591
9893.39,0.126112
9912.3,0.125448
9931.29,0.124131
9950.36,0.122613
9969.49,0.120282
9988.7,0.117604
10007.98,0.114468
10027.34,0.111489
10046.77,0.10799
10066.28,0.104549
10085.87,0.101045
10105.53,0.097969
10125.26,0.094875
10145.08,0.091854
10164.97,0.088971
10184.94,0.086758
10204.99,0.084656
10225.12,0.082741
10245.33,0.080971
10265.61,0.079921
10285.98,0.078902
10306.43,0.078341
10326.96,0.078001
10347.57,0.077985
10368.27,0.078033
10389.05,0.078295
10409.91,0.078249
10430.86,0.078187
10451.88,0.078114
10473.0,0.078261
10494.2,0.078059
10515.49,0.078176
10536.86,0.078102
10558.32,0.078325
10579.87,0.078367
10601.5,0.078461
10623.23,0.0783
10645.04,0.078866
10666.94,0.079187
10688.94,0.079574
10711.02,0.079964
10733.2,0.080783
10755.47,0.081381
10777.83,0.081953
10800.28,0.082532
10822.83,0.083353
10845.47,0.083682
10868.21,0.084112
10891.04,0.084482
10913.97,0.085082
10936.99,0.085698
10960.12,0.086804
10983.34,0.087838
11006.66,0.088978
11030.07,0.090484
11053.59,0.092709
11077.21,0.095054
11100.93,0.097836
11124.75,0.100815
11148.68,0.104287
11172.71,0.10765
11196.84,0.111376
11221.07,0.114528
11245.41,0.11802
11269.86,0.121383
11294.41,0.124445
11319.07,0.126779
11343.84,0.128678
11368.72,0.130269
11393.7,0.131655
11418.8,0.132482
11444.01,0.133349
11469.33,0.133685
11494.76,0.133864
11520.3,0.13379
11545.96,0.134347
11571.73,0.135379
11597.62,0.136673
11623.62,0.137919
11649.74,0.139678
11675.98,0.141696
11702.34,0.144227
11728.81,0.146848
11755.41,0.149749
11782.13,0.152308
11808.96,0.154586
11835.92,0.156602
11863.01,0.158416
11890.22,0.159954
11917.55,0.161347
11945.01,0.16154
11972.6,0.160913
12000.31,0.159545
12028.16,0.157834
12056.13,0.154779
12084.23,0.150968
12112.46,0.146427
12140.83,0.141609
12169.33,0.136659
12197.96,0.1324
12226.73,0.129321
12255.64,0.127744
12284.68,0.126848
12313.86,0.126997
12343.18,0.127425
12372.64,0.12828
12402.24,0.128887
12431.98,0.129331
12461.86,0.129131
12491.89,0.128689
12522.07,0.127781
12552.38,0.126501
12582.85,0.125193
12613.47,0.124011
12644.23,0.122606
12675.15,0.121395
12706.21,0.119845
12737.43,0.118204
12768.81,0.116314
12800.33,0.113919
12832.02,0.110923
12863.86,0.108252
12895.86,0.10467
12928.02,0.100753
12960.34,0.096638
12992.82,0.092622
13025.46,0.088523
13058.27,0.085236
13091.25,0.08227
13124.39,0.07938
13157.7,0.077042
13191.18,0.075654
13224.83,0.074026
13258.66,0.072426
13292.65,0.070875
13326.83,0.06947
13361.17,0.067801
13395.7,0.066433
13430.4,0.064799
13465.29,0.06312
13500.35,0.061527
13535.6,0.059932
13571.03,0.057943
13606.65,0.056424
13642.46,0.054732
13678.46,0.053284
13714.64,0.052267
13751.02,0.051762
13787.59,0.051341
13824.36,0.051442
13861.32,0.051803
13898.49,0.052309
13935.85,0.052534
13973.41,0.053136
14011.17,0.052973
14049.15,0.052332
14087.32,0.051421
14125.71,0.050617
14164.3,0.049279
14203.11,0.048454
14242.13,0.047102
14281.36,0.045435
14320.81,0.043817
14360.49,0.042628
14400.38,0.041049
14440.49,0.040035
14480.82,0.039359
14521.39,0.039601
14562.18,0.039801
14603.2,0.03978
14644.45,0.039589
14685.93,0.040125
14727.66,0.040665
14769.62,0.041348
14811.81,0.041713
14854.25,0.042143
14896.94,0.042141
14939.87,0.042532
14983.05,0.042322
15026.48,0.042362
15070.16,0.042387
15114.1,0.04246
15158.29,0.042221
15202.74,0.041532
15247.46,0.041237
15292.43,0.041844
15337.68,0.042113
15383.19,0.042012
15428.97,0.04147
15475.03,0.041407
15521.36,0.04127
15567.97,0.041065
15614.87,0.040773
15662.04,0.040695
15709.5,0.040109
15757.25,0.040116
15805.29,0.040233
15853.62,0.040591
15902.26,0.040474
15951.19,0.040619
16000.42,0.040782
16049.95,0.041175
16099.8,0.040729
16149.95,0.041111
16200.42,0.041835
16251.21,0.041959
16302.31,0.041339
16353.74,0.041318
16405.49,0.042242
16457.57,0.043095
16509.98,0.042656
16562.73,0.042488
16615.82,0.042276
16669.24,0.042302
16723.02,0.042132
16777.14,0.041672
16831.61,0.041424
16886.43,0.041642
16941.62,0.040807
16997.16,0.040713
17053.08,0.040504
17109.36,0.040067
17166.01,0.03972
17223.04,0.039842
17280.45,0.040488
17338.24,0.040787
17396.43,0.040504
17455.0,0.041686
17513.97,0.043481
17573.34,0.045674
17633.11,0.048293
17693.29,0.053261
17753.89,0.0585
17814.9,0.064553
17876.33,0.070898
17938.18,0.07776
18000.47,0.084601
18063.19,0.091983
18126.35,0.098749
18189.95,0.104838
18254.0,0.110415
18318.5,0.11599
18383.46,0.120298
18448.88,0.124321
18514.77,0.128269
18581.13,0.132395
18647.97,0.132758
18715.29,0.132347
18783.1,0.134407
18851.4,0.135956
18920.2,0.135351
18989.51,0.135627
19059.32,0.135823
19129.65,0.135717
19200.5,0.135745
19271.88,0.136846
19343.79,0.137949
19416.24,0.139037
19489.23,0.140025
19562.77,0.141593
19636.88,0.142329
19711.54,0.143197
19786.78,0.143368
19862.59,0.143025
19938.98,0.142699
20015.96,0.143499
20093.55,0.142958
20171.73,0.141956
20250.53,0.139149
20329.94,0.135682
20409.98,0.133121
20490.65,0.131655
20571.96,0.129533
20653.92,0.129535
20736.54,0.130744
20819.82,0.13145
20903.77,0.132832
20988.4,0.134512
21073.72,0.135271
21159.73,0.136542
21246.46,0.135409
21333.89,0.134931
21422.04,0.135643
21510.93,0.134464
21600.56,0.131841
21690.94,0.130069
21782.08,0.127494
21873.99,0.127248
21966.67,0.126278
22060.15,0.122898
22154.42,0.11948
22249.51,0.117491
22345.41,0.115487
22442.14,0.114342
22539.72,0.112694
22638.14,0.110979
22737.43,0.109064
22837.6,0.106806
22938.65,0.104648
23040.6,0.10456
23143.46,0.104179
23247.24,0.101585
23351.96,0.097728
23457.63,0.097401
23564.25,0.0963
23671.85,0.096098
23780.44,0.09584
23890.02,0.095374
24000.63,0.092107
24112.26,0.090794
24224.93,0.088523
24338.66,0.087684
24453.47,0.08653
24569.36,0.087146
24686.36,0.087815
24804.47,0.090139
24923.73,0.089799
25044.13,0.088597
25165.71,0.08939
25288.46,0.095949
25412.43,0.095592
25537.61,0.095909
25664.04,0.092707
25791.72,0.088847
25920.68,0.084112
