Database of Origin,University of Winnipeg Spectrophotometer Facility
Sample Description,Carbonaceous chondrites - RELAB archive 2. CM chondrites
Date Added,2018-07-23 23:44:49.929272

Data ID,RLA_MET_33_26       
Sample ID,MAC88101/12
Mineral Name,CM Chondrite
Grain Size,<125 um
Viewing Geometry,30/0
Material Class,CM2

Wavelength
305.0,0.015314
310.0,0.016056
315.0,0.016529
320.0,0.016912
325.0,0.01669
330.0,0.017582
335.0,0.017986
340.0,0.017758
345.0,0.01874
350.0,0.019178
355.0,0.019345
360.0,0.020197
365.0,0.020653
370.0,0.021844
375.0,0.022366
380.0,0.023124
385.0,0.024333
390.0,0.025536
395.0,0.027041
400.0,0.02756
405.0,0.028541
410.0,0.029976
415.0,0.030734
420.0,0.032278
425.0,0.033367
430.0,0.034369
435.0,0.036168
440.0,0.037369
445.0,0.038597
450.0,0.039097
455.0,0.040115
460.0,0.040314
465.0,0.041467
470.0,0.042006
475.0,0.042772
480.0,0.043673
485.0,0.04435
490.0,0.045321
495.0,0.046346
500.0,0.047586
505.0,0.048815
510.0,0.050606
515.0,0.051439
520.0,0.052238
525.0,0.054368
530.0,0.055281
535.0,0.056174
540.0,0.057314
545.0,0.058362
550.0,0.059239
555.0,0.059671
560.0,0.059974
565.0,0.060633
570.0,0.061138
575.0,0.061826
580.0,0.061852
585.0,0.062526
590.0,0.062526
595.0,0.06236
600.0,0.062807
605.0,0.062708
610.0,0.063349
615.0,0.0634
620.0,0.063179
625.0,0.063018
630.0,0.063434
635.0,0.063757
640.0,0.063619
645.0,0.063449
650.0,0.063186
655.0,0.063318
660.0,0.063152
665.0,0.063208
670.0,0.063194
675.0,0.06297
680.0,0.062878
685.0,0.062816
690.0,0.062972
695.0,0.062756
700.0,0.062805
705.0,0.062546
710.0,0.062762
715.0,0.06265
720.0,0.062621
725.0,0.062772
730.0,0.062984
735.0,0.063076
740.0,0.063204
745.0,0.063381
750.0,0.063343
755.0,0.063435
760.0,0.063815
765.0,0.064215
770.0,0.064216
775.0,0.064332
780.0,0.064524
785.0,0.065007
790.0,0.064954
795.0,0.064972
800.0,0.06479
805.0,0.065048
810.0,0.065466
815.0,0.065544
820.0,0.065819
825.0,0.065907
830.0,0.066162
835.0,0.066015
840.0,0.066048
845.0,0.066009
850.0,0.066272
855.0,0.066935
860.0,0.066136
865.0,0.06648
870.0,0.066722
875.0,0.066543
880.0,0.066878
885.0,0.066545
890.0,0.066838
895.0,0.066573
900.0,0.066359
905.0,0.066442
910.0,0.066886
915.0,0.066865
920.0,0.067155
925.0,0.066899
930.0,0.067533
935.0,0.067339
940.0,0.067323
945.0,0.067466
950.0,0.067569
955.0,0.068093
960.0,0.067521
965.0,0.067979
970.0,0.068097
975.0,0.068394
980.0,0.068592
985.0,0.068772
990.0,0.069038
995.0,0.069193
1000.0,0.069303
1005.0,0.069419
1010.0,0.069821
1015.0,0.069884
1020.0,0.069974
1025.0,0.070292
1030.0,0.070317
1035.0,0.070881
1040.0,0.071004
1045.0,0.070909
1050.0,0.071317
1055.0,0.071345
1060.0,0.071334
1065.0,0.071379
1070.0,0.071357
1075.0,0.071942
1080.0,0.072001
1085.0,0.072166
1090.0,0.072231
1095.0,0.072517
1100.0,0.072523
1105.0,0.072646
1110.0,0.072814
1115.0,0.072834
1120.0,0.073095
1125.0,0.073255
1130.0,0.073254
1135.0,0.073634
1140.0,0.073709
1145.0,0.073948
1150.0,0.074028
1155.0,0.074273
1160.0,0.07441
1165.0,0.074608
1170.0,0.074992
1175.0,0.075184
1180.0,0.075467
1185.0,0.075545
1190.0,0.075732
1195.0,0.076055
1200.0,0.076218
1205.0,0.076741
1210.0,0.076861
1215.0,0.077124
1220.0,0.077422
1225.0,0.07769
1230.0,0.07789
1235.0,0.078088
1240.0,0.078603
1245.0,0.078567
1250.0,0.078733
1255.0,0.079425
1260.0,0.079416
1265.0,0.079598
1270.0,0.079815
1275.0,0.080256
1280.0,0.080888
1285.0,0.081026
1290.0,0.081245
1295.0,0.081786
1300.0,0.081986
1305.0,0.082181
1310.0,0.082526
1315.0,0.082871
1320.0,0.083307
1325.0,0.08347
1330.0,0.083637
1335.0,0.084019
1340.0,0.084409
1345.0,0.084623
1350.0,0.084884
1355.0,0.085295
1360.0,0.0855
1365.0,0.085669
1370.0,0.085981
1375.0,0.08622
1380.0,0.087122
1385.0,0.086477
1390.0,0.086745
1395.0,0.087161
1400.0,0.087346
1405.0,0.087656
1410.0,0.087477
1415.0,0.087918
1420.0,0.08798
1425.0,0.088345
1430.0,0.088551
1435.0,0.088947
1440.0,0.089261
1445.0,0.089476
1450.0,0.089898
1455.0,0.09012
1460.0,0.090435
1465.0,0.090663
1470.0,0.091034
1475.0,0.091424
1480.0,0.091534
1485.0,0.091825
1490.0,0.091931
1495.0,0.092119
1500.0,0.092495
1505.0,0.092652
1510.0,0.092967
1515.0,0.093297
1520.0,0.093455
1525.0,0.093789
1530.0,0.093985
1535.0,0.093813
1540.0,0.094271
1545.0,0.094342
1550.0,0.0947
1555.0,0.095024
1560.0,0.094918
1565.0,0.095377
1570.0,0.095459
1575.0,0.095513
1580.0,0.095594
1585.0,0.095976
1590.0,0.096033
1595.0,0.096234
1600.0,0.0965
1605.0,0.096473
1610.0,0.096706
1615.0,0.097005
1620.0,0.097155
1625.0,0.097269
1630.0,0.097316
1635.0,0.097456
1640.0,0.097863
1645.0,0.098158
1650.0,0.098207
1655.0,0.098128
1660.0,0.098379
1665.0,0.098449
1670.0,0.098586
1675.0,0.098294
1680.0,0.098873
1685.0,0.099174
1690.0,0.099243
1695.0,0.099
1700.0,0.099077
1705.0,0.09937
1710.0,0.099453
1715.0,0.099745
1720.0,0.099764
1725.0,0.099966
1730.0,0.100135
1735.0,0.100112
1740.0,0.100119
1745.0,0.100272
1750.0,0.100339
1755.0,0.10043
1760.0,0.100707
1765.0,0.100781
1770.0,0.100791
1775.0,0.101217
1780.0,0.101374
1785.0,0.101179
1790.0,0.101475
1795.0,0.101793
1800.0,0.101917
1805.0,0.101859
1810.0,0.10193
1815.0,0.10233
1820.0,0.102207
1825.0,0.102317
1830.0,0.10241
1835.0,0.102733
1840.0,0.102527
1845.0,0.102557
1850.0,0.102596
1855.0,0.102971
1860.0,0.102798
1865.0,0.102939
1870.0,0.103206
1875.0,0.102516
1880.0,0.102599
1885.0,0.102871
1890.0,0.102857
1895.0,0.102571
1900.0,0.10229
1905.0,0.10166
1910.0,0.100942
1915.0,0.100589
1920.0,0.100652
1925.0,0.1004
1930.0,0.100222
1935.0,0.100466
1940.0,0.100472
1945.0,0.100347
1950.0,0.100503
1955.0,0.10074
1960.0,0.101004
1965.0,0.10091
1970.0,0.10109
1975.0,0.101275
1980.0,0.101353
1985.0,0.101645
1990.0,0.102003
1995.0,0.102248
2000.0,0.102268
2005.0,0.102828
2010.0,0.102927
2015.0,0.103278
2020.0,0.103203
2025.0,0.103552
2030.0,0.103759
2035.0,0.103866
2040.0,0.104154
2045.0,0.104214
2050.0,0.104311
2055.0,0.104491
2060.0,0.104665
2065.0,0.104558
2070.0,0.104746
2075.0,0.104919
2080.0,0.105049
2085.0,0.105409
2090.0,0.105389
2095.0,0.105489
2100.0,0.105824
2105.0,0.105653
2110.0,0.105833
2115.0,0.105913
2120.0,0.106134
2125.0,0.106218
2130.0,0.106137
2135.0,0.106086
2140.0,0.106429
2145.0,0.106473
2150.0,0.106354
2155.0,0.106666
2160.0,0.106467
2165.0,0.106592
2170.0,0.106526
2175.0,0.106486
2180.0,0.106831
2185.0,0.106685
2190.0,0.107031
2195.0,0.107041
2200.0,0.107236
2205.0,0.10706
2210.0,0.10702
2215.0,0.107335
2220.0,0.107285
2225.0,0.107124
2230.0,0.107202
2235.0,0.107234
2240.0,0.107312
2245.0,0.107231
2250.0,0.107234
2255.0,0.107129
2260.0,0.107196
2265.0,0.107103
2270.0,0.106747
2275.0,0.106649
2280.0,0.106801
2285.0,0.106547
2290.0,0.10646
2295.0,0.106579
2300.0,0.106368
2305.0,0.106356
2310.0,0.105767
2315.0,0.105699
2320.0,0.10538
2325.0,0.105295
2330.0,0.105362
2335.0,0.105141
2340.0,0.105279
2345.0,0.105154
2350.0,0.105158
2355.0,0.105054
2360.0,0.105278
2365.0,0.105249
2370.0,0.1052
2375.0,0.104992
2380.0,0.104769
2385.0,0.104547
2390.0,0.10461
2395.0,0.104696
2400.0,0.104635
2405.0,0.104921
2410.0,0.104603
2415.0,0.104823
2420.0,0.104713
2425.0,0.104361
2430.0,0.104437
2435.0,0.104281
2440.0,0.104222
2445.0,0.10404
2450.0,0.103896
2455.0,0.104121
2460.0,0.103706
2465.0,0.103639
2470.0,0.103462
2475.0,0.103292
2480.0,0.103
2485.0,0.102985
2490.0,0.102815
2495.0,0.10301
2500.0,0.102844
2505.0,0.102519
2510.0,0.102464
2515.0,0.10261
2520.0,0.102403
2525.0,0.102552
2530.0,0.102663
2535.0,0.102107
2540.0,0.102413
2545.0,0.102508
2550.0,0.102527
2555.0,0.101925
2560.0,0.103712
2565.0,0.099947
2570.0,0.101343
2575.0,0.10137
2580.0,0.101086
2585.0,0.101466
2590.0,0.100432
2595.0,0.101516
2600.0,0.09904
