Database of Origin,University of Winnipeg Spectrophotometer Facility
Sample Description,"RELAB plus Nicolet merged plagioclase data. Merged @2500nm, different viewing geometries. See Master Plagioclase in PSF sample database for more information"
Date Added,2016-11-22 03:59:29.911839

Data ID,RLA_PLG_12          
Sample ID,PLG113
Mineral Name,Labradorite
Grain Size,<45
Viewing Geometry,"30/0,30"
Resolution,"5,0.6-129"
Composition,An54
Material Class,Tectosilicate

Wavelength
300.0,0.432576
305.0,0.467224
310.0,0.494937
315.0,0.519192
320.0,0.539273
325.0,0.554415
330.0,0.567061
335.0,0.576737
340.0,0.584729
345.0,0.592126
350.0,0.599275
355.0,0.605176
360.0,0.611888
365.0,0.617602
370.0,0.62302
375.0,0.626674
380.0,0.629186
385.0,0.634152
390.0,0.639853
395.0,0.644328
400.0,0.647264
405.0,0.651222
410.0,0.652735
415.0,0.655271
420.0,0.651489
425.0,0.653798
430.0,0.656912
435.0,0.65774
440.0,0.659984
445.0,0.661144
450.0,0.662716
455.0,0.663486
460.0,0.664303
465.0,0.665636
470.0,0.666452
475.0,0.668189
480.0,0.669835
485.0,0.669591
490.0,0.670594
495.0,0.670955
500.0,0.672514
505.0,0.673046
510.0,0.673909
515.0,0.674511
520.0,0.675135
525.0,0.674622
530.0,0.67684
535.0,0.675644
540.0,0.677525
545.0,0.677126
550.0,0.679176
555.0,0.678244
560.0,0.679366
565.0,0.679138
570.0,0.679382
575.0,0.679865
580.0,0.680104
585.0,0.681875
590.0,0.680473
595.0,0.680823
600.0,0.680732
605.0,0.680168
610.0,0.681553
615.0,0.681905
620.0,0.682242
625.0,0.682215
630.0,0.683448
635.0,0.683111
640.0,0.683776
645.0,0.683712
650.0,0.684353
655.0,0.68336
660.0,0.684479
665.0,0.684211
670.0,0.684399
675.0,0.685485
680.0,0.684002
685.0,0.68527
690.0,0.68516
695.0,0.685791
700.0,0.684703
705.0,0.685612
710.0,0.685791
715.0,0.685387
720.0,0.686701
725.0,0.686179
730.0,0.687027
735.0,0.686967
740.0,0.687687
745.0,0.687583
750.0,0.688294
755.0,0.690102
760.0,0.691539
765.0,0.690473
770.0,0.692901
775.0,0.689128
780.0,0.691773
785.0,0.691428
790.0,0.691196
795.0,0.69235
800.0,0.691445
805.0,0.693342
810.0,0.692289
815.0,0.693098
820.0,0.694521
825.0,0.690643
830.0,0.692074
835.0,0.693972
840.0,0.692074
845.0,0.694352
850.0,0.69613
855.0,0.690996
860.0,0.692496
865.0,0.695278
870.0,0.694259
875.0,0.695664
880.0,0.695497
885.0,0.695906
890.0,0.696246
895.0,0.697401
900.0,0.699703
905.0,0.701399
910.0,0.700789
915.0,0.700836
920.0,0.69831
925.0,0.696719
930.0,0.695704
935.0,0.695682
940.0,0.694827
945.0,0.695535
950.0,0.696358
955.0,0.696103
960.0,0.696235
965.0,0.695465
970.0,0.695512
975.0,0.694799
980.0,0.695086
985.0,0.693355
990.0,0.69293
995.0,0.692249
1000.0,0.691412
1005.0,0.690948
1010.0,0.68881
1015.0,0.688822
1020.0,0.68965
1025.0,0.689164
1030.0,0.688794
1035.0,0.690652
1040.0,0.688832
1045.0,0.686016
1050.0,0.686254
1055.0,0.685308
1060.0,0.684204
1065.0,0.683978
1070.0,0.683456
1075.0,0.681728
1080.0,0.680732
1085.0,0.680784
1090.0,0.680208
1095.0,0.680602
1100.0,0.679633
1105.0,0.678646
1110.0,0.677676
1115.0,0.67662
1120.0,0.675424
1125.0,0.676416
1130.0,0.675906
1135.0,0.676953
1140.0,0.677018
1145.0,0.677724
1150.0,0.676597
1155.0,0.677046
1160.0,0.675578
1165.0,0.675026
1170.0,0.674118
1175.0,0.673352
1180.0,0.671107
1185.0,0.669555
1190.0,0.667953
1195.0,0.665801
1200.0,0.665722
1205.0,0.662042
1210.0,0.661764
1215.0,0.660638
1220.0,0.659579
1225.0,0.66038
1230.0,0.66106
1235.0,0.660345
1240.0,0.660145
1245.0,0.659781
1250.0,0.659019
1255.0,0.65801
1260.0,0.656969
1265.0,0.656666
1270.0,0.656693
1275.0,0.655562
1280.0,0.655463
1285.0,0.655902
1290.0,0.656437
1295.0,0.656178
1300.0,0.657521
1305.0,0.65681
1310.0,0.656649
1315.0,0.656355
1320.0,0.657572
1325.0,0.657087
1330.0,0.657545
1335.0,0.657956
1340.0,0.657919
1345.0,0.656936
1350.0,0.657173
1355.0,0.655892
1360.0,0.655284
1365.0,0.655816
1370.0,0.656915
1375.0,0.655917
1380.0,0.657588
1385.0,0.658597
1390.0,0.658603
1395.0,0.65819
1400.0,0.657983
1405.0,0.657877
1410.0,0.657772
1415.0,0.658352
1420.0,0.658609
1425.0,0.659601
1430.0,0.65999
1435.0,0.660428
1440.0,0.660814
1445.0,0.661475
1450.0,0.66152
1455.0,0.662496
1460.0,0.663053
1465.0,0.663799
1470.0,0.663141
1475.0,0.663646
1480.0,0.663183
1485.0,0.664252
1490.0,0.66352
1495.0,0.66429
1500.0,0.665589
1505.0,0.66708
1510.0,0.668301
1515.0,0.66911
1520.0,0.669907
1525.0,0.669857
1530.0,0.670091
1535.0,0.669667
1540.0,0.670694
1545.0,0.670364
1550.0,0.670731
1555.0,0.671869
1560.0,0.672199
1565.0,0.672752
1570.0,0.673728
1575.0,0.674566
1580.0,0.673791
1585.0,0.674516
1590.0,0.674607
1595.0,0.674519
1600.0,0.675355
1605.0,0.675748
1610.0,0.676452
1615.0,0.67737
1620.0,0.678593
1625.0,0.677503
1630.0,0.677838
1635.0,0.67755
1640.0,0.67744
1645.0,0.677146
1650.0,0.677279
1655.0,0.677343
1660.0,0.677252
1665.0,0.678127
1670.0,0.67889
1675.0,0.679824
1680.0,0.679751
1685.0,0.680364
1690.0,0.680565
1695.0,0.680255
1700.0,0.681468
1705.0,0.681865
1710.0,0.681383
1715.0,0.681667
1720.0,0.682192
1725.0,0.681376
1730.0,0.681101
1735.0,0.680642
1740.0,0.680269
1745.0,0.680699
1750.0,0.681191
1755.0,0.681652
1760.0,0.68242
1765.0,0.682925
1770.0,0.683062
1775.0,0.682034
1780.0,0.682155
1785.0,0.682392
1790.0,0.681832
1795.0,0.682313
1800.0,0.683956
1805.0,0.684521
1810.0,0.685202
1815.0,0.685723
1820.0,0.685614
1825.0,0.684712
1830.0,0.684339
1835.0,0.684737
1840.0,0.685511
1845.0,0.684541
1850.0,0.684728
1855.0,0.686436
1860.0,0.686659
1865.0,0.686147
1870.0,0.686358
1875.0,0.686622
1880.0,0.68411
1885.0,0.684075
1890.0,0.685615
1895.0,0.685605
1900.0,0.68535
1905.0,0.685404
1910.0,0.68485
1915.0,0.683789
1920.0,0.684337
1925.0,0.684059
1930.0,0.684976
1935.0,0.684652
1940.0,0.685468
1945.0,0.685592
1950.0,0.686403
1955.0,0.686387
1960.0,0.68652
1965.0,0.685425
1970.0,0.685138
1975.0,0.684783
1980.0,0.685847
1985.0,0.686852
1990.0,0.687275
1995.0,0.689179
2000.0,0.690208
2005.0,0.689928
2010.0,0.690578
2015.0,0.691471
2020.0,0.690221
2025.0,0.689436
2030.0,0.689352
2035.0,0.689202
2040.0,0.689532
2045.0,0.690222
2050.0,0.691187
2055.0,0.692535
2060.0,0.692335
2065.0,0.692483
2070.0,0.693773
2075.0,0.694851
2080.0,0.695241
2085.0,0.696478
2090.0,0.696289
2095.0,0.695923
2100.0,0.69615
2105.0,0.695968
2110.0,0.694651
2115.0,0.695076
2120.0,0.694516
2125.0,0.694642
2130.0,0.694522
2135.0,0.694696
2140.0,0.694885
2145.0,0.696185
2150.0,0.695653
2155.0,0.694656
2160.0,0.694707
2165.0,0.69434
2170.0,0.694259
2175.0,0.692887
2180.0,0.693246
2185.0,0.692844
2190.0,0.692317
2195.0,0.691461
2200.0,0.693391
2205.0,0.69281
2210.0,0.693635
2215.0,0.694821
2220.0,0.693675
2225.0,0.69217
2230.0,0.69144
2235.0,0.691013
2240.0,0.690037
2245.0,0.69187
2250.0,0.691607
2255.0,0.69514
2260.0,0.697339
2265.0,0.697583
2270.0,0.696597
2275.0,0.697889
2280.0,0.69608
2285.0,0.695707
2290.0,0.697008
2295.0,0.697122
2300.0,0.696634
2305.0,0.696898
2310.0,0.694708
2315.0,0.6934
2320.0,0.693871
2325.0,0.693942
2330.0,0.69338
2335.0,0.693588
2340.0,0.694632
2345.0,0.693584
2350.0,0.695073
2355.0,0.695376
2360.0,0.695019
2365.0,0.696813
2370.0,0.696739
2375.0,0.694622
2380.0,0.693546
2385.0,0.695881
2390.0,0.692595
2395.0,0.693087
2400.0,0.692756
2405.0,0.693419
2410.0,0.693248
2415.0,0.694999
2420.0,0.696909
2425.0,0.696997
2430.0,0.698931
2435.0,0.69772
2440.0,0.696873
2445.0,0.695698
2450.0,0.695981
2455.0,0.694143
2460.0,0.695563
2465.0,0.694927
2470.0,0.693705
2475.0,0.692963
2480.0,0.694846
2485.0,0.693173
2490.0,0.693902
2495.0,0.696737
2500.0,0.69737
2505.0,0.698449
2510.0,0.697104
2515.0,0.699854
2520.0,0.698252
2525.0,0.702463
2530.08,0.702477
2535.03,0.707048
2540.0,0.704122
2544.99,0.706694
2549.99,0.705178
2552.5,0.704664
2553.76,0.704978
2555.02,0.706773
2556.28,0.706553
2557.54,0.705283
2558.8,0.704903
2560.07,0.704067
2561.33,0.700435
2562.6,0.700254
2563.86,0.704149
2565.13,0.705389
2566.4,0.706972
2567.67,0.707555
2568.95,0.704298
2570.22,0.702014
2571.5,0.70467
2572.77,0.706101
2574.05,0.701117
2575.33,0.703884
2576.61,0.705494
2577.89,0.702705
2579.17,0.705538
2580.46,0.705888
2581.74,0.702083
2583.03,0.703031
2584.31,0.701575
2585.6,0.703971
2586.89,0.707771
2588.19,0.703261
2589.48,0.703665
2590.77,0.706139
2592.07,0.706113
2593.36,0.702843
2594.66,0.694261
2595.96,0.691831
2597.26,0.708033
2598.56,0.712554
2599.87,0.70873
2601.17,0.704601
2602.48,0.702466
2603.78,0.701993
2605.09,0.699536
2606.4,0.698582
2607.71,0.70444
2609.03,0.706492
2610.34,0.704388
2611.65,0.705382
2612.97,0.70541
2614.29,0.703719
2615.61,0.70385
2616.93,0.698264
2618.25,0.698213
2619.57,0.70572
2620.9,0.702477
2622.22,0.704349
2623.55,0.70913
2624.88,0.706499
2626.21,0.70237
2627.54,0.699502
2628.87,0.704355
2630.21,0.702705
2631.54,0.698561
2632.88,0.706861
2634.21,0.707327
2635.55,0.704621
2636.89,0.706385
2638.24,0.705724
2639.58,0.704406
2640.92,0.703869
2642.27,0.703067
2643.62,0.703145
2644.97,0.703382
2646.32,0.701318
2647.67,0.703841
2649.02,0.706412
2650.38,0.705059
2651.73,0.702443
2653.09,0.700395
2654.45,0.703159
2655.81,0.704436
2657.17,0.703031
2658.53,0.704186
2659.89,0.70053
2661.26,0.700238
2662.63,0.702946
2664.0,0.702145
2665.36,0.69563
2666.74,0.693725
2668.11,0.699942
2669.48,0.705045
2670.86,0.695315
2672.23,0.698309
2673.61,0.708834
2674.99,0.703796
2676.37,0.696275
2677.76,0.694232
2679.14,0.69919
2680.52,0.700457
2681.91,0.703026
2683.3,0.70077
2684.69,0.697261
2686.08,0.697733
2687.47,0.697733
2688.87,0.698403
2690.26,0.69825
2691.66,0.697818
2693.06,0.694643
2694.46,0.689798
2695.86,0.692076
2697.26,0.697135
2698.66,0.69756
2700.07,0.694384
2701.48,0.690656
2702.89,0.689976
2704.3,0.692664
2705.71,0.691185
2707.12,0.688178
2708.53,0.684294
2709.95,0.679745
2711.37,0.676152
2712.79,0.679303
2714.21,0.682595
2715.63,0.678076
2717.05,0.672122
2718.48,0.666605
2719.9,0.660966
2721.33,0.653714
2722.76,0.657526
2724.19,0.655963
2725.62,0.647254
2727.06,0.648288
2728.49,0.64765
2729.93,0.642004
2731.37,0.636561
2732.81,0.632892
2734.25,0.628029
2735.69,0.622777
2737.14,0.623581
2738.58,0.621323
2740.03,0.612091
2741.48,0.610068
2742.93,0.614439
2744.38,0.615022
2745.83,0.61086
2747.29,0.607379
2748.75,0.605601
2750.2,0.603078
2751.66,0.599569
2753.13,0.596277
2754.59,0.592621
2756.05,0.586565
2757.52,0.59122
2758.99,0.596089
2760.46,0.592503
2761.93,0.588992
2763.4,0.586644
2764.87,0.589703
2766.35,0.592683
2767.82,0.591678
2769.3,0.591584
2770.78,0.593045
2772.26,0.593974
2773.75,0.597572
2775.23,0.598656
2776.72,0.597568
2778.21,0.59702
2779.7,0.597992
2781.19,0.598195
2782.68,0.598107
2784.18,0.599083
2785.67,0.599012
2787.17,0.595253
2788.67,0.594703
2790.17,0.59805
2791.67,0.598403
2793.18,0.596275
2794.68,0.594603
2796.19,0.59385
2797.7,0.593451
2799.21,0.592559
2800.72,0.591358
2802.24,0.588695
2803.75,0.586371
2805.27,0.587792
2806.79,0.589918
2808.31,0.588474
2809.83,0.58663
2811.35,0.586066
2812.88,0.585601
2814.41,0.584302
2815.93,0.582853
2817.46,0.582912
2819.0,0.581878
2820.53,0.580214
2822.07,0.580272
2823.6,0.580979
2825.14,0.580587
2826.68,0.57952
2828.22,0.579009
2829.77,0.579112
2831.31,0.578933
2832.86,0.577901
2834.41,0.576715
2835.96,0.576603
2837.51,0.576626
2839.07,0.575713
2840.62,0.575786
2842.18,0.575452
2843.74,0.574714
2845.3,0.57428
2846.86,0.573382
2848.43,0.571692
2849.99,0.570198
2851.56,0.569493
2853.13,0.568549
2854.7,0.567073
2856.27,0.566282
2857.85,0.566063
2859.42,0.564754
2861.0,0.562558
2862.58,0.560645
2864.16,0.558796
2865.75,0.557255
2867.33,0.556192
2868.92,0.555955
2870.51,0.555862
2872.1,0.555113
2873.69,0.554908
2875.28,0.555493
2876.88,0.556145
2878.48,0.557507
2880.07,0.55926
2881.68,0.560544
2883.28,0.561327
2884.88,0.562095
2886.49,0.562754
2888.1,0.563418
2889.71,0.563994
2891.32,0.564466
2892.93,0.564667
2894.55,0.564784
2896.16,0.565393
2897.78,0.565744
2899.4,0.565583
2901.03,0.565848
2902.65,0.566483
2904.28,0.566816
2905.91,0.566662
2907.53,0.566955
2909.17,0.566484
2910.8,0.565918
2912.44,0.565431
2914.07,0.565471
2915.71,0.56525
2917.35,0.565037
2918.99,0.564719
2920.64,0.564381
2922.29,0.563944
2923.93,0.563356
2925.58,0.563422
2927.24,0.563653
2928.89,0.563391
2930.55,0.563073
2932.2,0.562846
2933.86,0.562616
2935.52,0.562653
2937.19,0.562822
2938.85,0.562946
2940.52,0.562817
2942.19,0.562495
2943.86,0.562516
2945.53,0.562687
2947.21,0.563006
2948.88,0.562837
2950.56,0.56331
2952.24,0.564008
2953.92,0.563863
2955.61,0.563643
2957.29,0.56424
2958.98,0.564688
2960.67,0.564847
2962.36,0.565253
2964.06,0.565573
2965.75,0.565807
2967.45,0.566315
2969.15,0.566451
2970.85,0.566721
2972.55,0.567212
2974.26,0.567582
2975.97,0.567903
2977.68,0.568454
2979.39,0.569302
2981.1,0.569795
2982.82,0.569904
2984.53,0.570169
2986.25,0.570448
2987.97,0.570901
2989.7,0.571411
2991.42,0.572078
2993.15,0.573104
2994.88,0.573588
2996.61,0.573762
2998.34,0.574161
3000.08,0.574726
3001.82,0.575259
3003.55,0.575651
3005.3,0.575887
3007.04,0.576512
3008.78,0.577296
3010.53,0.577964
3012.28,0.578283
3014.03,0.578436
3015.79,0.578762
3017.54,0.579177
3019.3,0.57978
3021.06,0.580411
3022.82,0.580569
3024.58,0.580932
3026.35,0.581445
3028.12,0.581947
3029.89,0.582343
3031.66,0.582501
3033.43,0.58296
3035.21,0.583504
3036.99,0.58392
3038.77,0.584164
3040.55,0.584836
3042.33,0.585542
3044.12,0.585914
3045.91,0.585983
3047.7,0.58606
3049.49,0.586627
3051.29,0.587262
3053.08,0.587293
3054.88,0.587578
3056.68,0.588097
3058.49,0.588386
3060.29,0.588633
3062.1,0.589084
3063.91,0.589806
3065.72,0.590002
3067.54,0.590302
3069.35,0.590306
3071.17,0.590566
3072.99,0.591032
3074.81,0.591701
3076.64,0.592561
3078.46,0.59259
3080.29,0.592371
3082.13,0.592638
3083.96,0.593302
3085.79,0.593443
3087.63,0.593383
3089.47,0.593904
3091.31,0.59438
3093.16,0.594697
3095.01,0.595207
3096.85,0.595555
3098.71,0.596043
3100.56,0.596637
3102.41,0.596724
3104.27,0.59667
3106.13,0.597036
3107.99,0.597528
3109.86,0.597941
3111.73,0.598271
3113.59,0.59874
3115.47,0.598561
3117.34,0.598806
3119.21,0.599364
3121.09,0.599859
3122.97,0.600208
3124.86,0.600649
3126.74,0.601113
3128.63,0.601748
3130.52,0.602324
3132.41,0.60279
3134.3,0.60303
3136.2,0.603086
3138.1,0.603493
3140.0,0.603895
3141.9,0.60464
3143.81,0.60537
3145.71,0.605665
3147.62,0.606232
3149.54,0.606918
3151.45,0.607832
3153.37,0.608321
3155.29,0.609045
3157.21,0.609596
3159.13,0.60958
3161.06,0.610296
3162.99,0.61127
3164.92,0.612127
3166.85,0.612703
3168.79,0.613037
3170.72,0.613878
3172.67,0.614578
3174.61,0.615288
3176.55,0.616079
3178.5,0.61692
3180.45,0.617526
3182.4,0.618127
3184.36,0.618744
3186.32,0.61964
3188.27,0.620507
3190.24,0.621327
3192.2,0.621972
3194.17,0.622935
3196.14,0.623759
3198.11,0.624373
3200.08,0.624875
3202.06,0.625733
3204.04,0.626599
3206.02,0.627185
3208.0,0.627722
3209.99,0.628629
3211.98,0.629753
3213.97,0.630245
3215.96,0.630784
3217.96,0.631562
3219.96,0.632382
3221.96,0.632992
3223.96,0.63378
3225.97,0.634491
3227.98,0.635109
3229.99,0.635924
3232.0,0.636573
3234.02,0.637403
3236.04,0.637885
3238.06,0.638107
3240.08,0.638493
3242.11,0.639272
3244.14,0.640116
3246.17,0.64052
3248.2,0.64098
3250.24,0.641806
3252.28,0.64269
3254.32,0.643043
3256.37,0.64301
3258.41,0.643839
3260.46,0.644369
3262.51,0.645161
3264.57,0.646178
3266.63,0.646747
3268.69,0.647101
3270.75,0.6476
3272.81,0.648184
3274.88,0.648736
3276.95,0.649514
3279.02,0.649977
3281.1,0.650293
3283.18,0.65071
3285.26,0.651386
3287.34,0.652133
3289.43,0.652571
3291.51,0.652823
3293.61,0.653457
3295.7,0.653949
3297.8,0.654543
3299.89,0.655079
3302.0,0.655719
3304.1,0.656684
3306.21,0.657061
3308.32,0.657301
3310.43,0.65799
3312.55,0.658542
3314.66,0.658774
3316.78,0.659124
3318.91,0.659629
3321.03,0.659983
3323.16,0.660471
3325.29,0.661146
3327.43,0.661494
3329.57,0.661743
3331.71,0.662391
3333.85,0.662785
3335.99,0.662729
3338.14,0.66275
3340.29,0.663178
3342.45,0.663678
3344.6,0.663682
3346.76,0.663697
3348.92,0.663813
3351.09,0.66421
3353.26,0.66412
3355.43,0.664078
3357.6,0.66382
3359.78,0.663544
3361.96,0.663402
3364.14,0.66338
3366.32,0.663144
3368.51,0.662625
3370.7,0.66238
3372.89,0.662268
3375.09,0.661915
3377.29,0.662097
3379.49,0.662397
3381.69,0.662913
3383.9,0.663844
3386.11,0.66469
3388.32,0.665337
3390.54,0.666025
3392.76,0.666342
3394.98,0.666126
3397.21,0.665903
3399.43,0.66561
3401.66,0.665089
3403.9,0.664209
3406.13,0.663021
3408.37,0.662512
3410.61,0.662154
3412.86,0.661996
3415.11,0.661977
3417.36,0.662235
3419.61,0.663256
3421.87,0.664515
3424.13,0.666075
3426.39,0.668293
3428.66,0.67048
3430.93,0.672073
3433.2,0.673576
3435.48,0.674737
3437.76,0.675768
3440.04,0.676951
3442.32,0.67794
3444.61,0.678737
3446.9,0.679478
3449.19,0.680533
3451.49,0.681225
3453.79,0.681992
3456.09,0.682728
3458.4,0.683452
3460.7,0.684071
3463.02,0.684809
3465.33,0.685116
3467.65,0.68552
3469.97,0.685653
3472.29,0.685155
3474.62,0.685001
3476.95,0.685531
3479.29,0.68593
3481.62,0.686148
3483.96,0.686619
3486.3,0.686878
3488.65,0.687071
3491.0,0.687329
3493.35,0.687333
3495.71,0.687053
3498.07,0.687122
3500.43,0.68746
3502.79,0.688066
3505.16,0.688991
3507.53,0.690393
3509.91,0.692433
3512.29,0.694121
3514.67,0.695273
3517.05,0.696474
3519.44,0.69787
3521.83,0.698749
3524.22,0.699367
3526.62,0.700246
3529.02,0.700994
3531.43,0.701353
3533.83,0.702009
3536.24,0.70249
3538.66,0.702773
3541.08,0.703335
3543.5,0.703837
3545.92,0.704206
3548.35,0.704675
3550.78,0.705199
3553.21,0.705697
3555.65,0.706143
3558.09,0.706542
3560.53,0.706973
3562.98,0.707198
3565.43,0.707438
3567.88,0.707853
3570.34,0.708324
3572.8,0.708808
3575.27,0.709299
3577.73,0.709503
3580.2,0.709765
3582.68,0.710259
3585.16,0.710478
3587.64,0.710743
3590.12,0.710948
3592.61,0.71112
3595.1,0.711547
3597.6,0.711708
3600.09,0.712091
3602.6,0.712627
3605.1,0.712753
3607.61,0.712971
3610.12,0.713375
3612.64,0.713737
3615.16,0.713921
3617.68,0.714206
3620.21,0.714615
3622.74,0.71512
3625.27,0.715251
3627.81,0.715334
3630.35,0.715539
3632.89,0.715833
3635.44,0.716019
3637.99,0.716196
3640.54,0.716391
3643.1,0.71676
3645.66,0.717035
3648.23,0.71737
3650.8,0.717684
3653.37,0.717803
3655.95,0.71802
3658.53,0.718374
3661.11,0.718621
3663.7,0.719006
3666.29,0.719014
3668.89,0.719198
3671.48,0.719544
3674.09,0.719812
3676.69,0.720137
3679.3,0.720346
3681.91,0.720708
3684.53,0.721179
3687.15,0.721429
3689.78,0.721562
3692.4,0.721664
3695.04,0.7218
3697.67,0.722283
3700.31,0.722739
3702.95,0.723032
3705.6,0.723282
3708.25,0.723453
3710.91,0.723703
3713.56,0.724043
3716.23,0.724512
3718.89,0.724592
3721.56,0.724884
3724.23,0.725113
3726.91,0.725255
3729.59,0.725478
3732.28,0.725659
3734.97,0.725896
3737.66,0.726143
3740.36,0.726378
3743.06,0.726703
3745.76,0.726914
3748.47,0.727185
3751.18,0.727475
3753.9,0.727823
3756.62,0.727991
3759.34,0.728302
3762.07,0.728389
3764.8,0.728712
3767.54,0.729231
3770.28,0.729608
3773.02,0.729803
3775.77,0.730022
3778.52,0.730508
3781.28,0.730867
3784.04,0.730738
3786.8,0.731155
3789.57,0.731395
3792.34,0.731562
3795.12,0.731824
3797.9,0.731898
3800.69,0.732207
3803.47,0.732723
3806.27,0.732918
3809.06,0.732997
3811.86,0.733042
3814.67,0.733385
3817.48,0.733642
3820.29,0.733863
3823.11,0.734087
3825.93,0.734399
3828.76,0.734512
3831.59,0.734748
3834.42,0.735011
3837.26,0.735251
3840.1,0.735346
3842.95,0.735704
3845.8,0.73586
3848.65,0.736148
3851.51,0.736611
3854.38,0.736706
3857.24,0.736726
3860.12,0.737122
3862.99,0.737498
3865.87,0.737831
3868.76,0.737789
3871.65,0.737816
3874.54,0.738161
3877.44,0.738457
3880.34,0.738465
3883.25,0.738654
3886.16,0.738816
3889.07,0.738816
3891.99,0.739034
3894.92,0.73928
3897.85,0.73955
3900.78,0.739715
3903.72,0.739769
3906.66,0.739791
3909.6,0.73992
3912.55,0.740231
3915.51,0.7405
3918.47,0.74074
3921.43,0.740936
3924.4,0.74113
3927.37,0.741268
3930.35,0.741255
3933.33,0.741378
3936.32,0.741622
3939.31,0.741665
3942.31,0.741701
3945.31,0.741815
3948.31,0.742043
3951.32,0.742173
3954.34,0.742365
3957.35,0.742433
3960.38,0.742611
3963.41,0.742878
3966.44,0.74306
3969.48,0.743136
3972.52,0.743236
3975.56,0.743439
3978.61,0.743474
3981.67,0.743751
3984.73,0.744341
3987.8,0.7448
3990.87,0.744865
3993.94,0.744846
3997.02,0.745142
4000.1,0.745436
4003.19,0.745779
4006.29,0.746064
4009.39,0.746654
4012.49,0.746948
4015.6,0.746988
4018.71,0.747228
4021.83,0.747631
4024.95,0.747784
4028.08,0.747829
4031.21,0.748215
4034.35,0.748605
4037.49,0.748565
4040.64,0.748759
4043.79,0.749041
4046.94,0.749339
4050.11,0.749633
4053.27,0.749976
4056.44,0.750145
4059.62,0.750259
4062.8,0.750384
4065.99,0.750473
4069.18,0.750622
4072.38,0.750677
4075.58,0.75073
4078.78,0.751041
4082.0,0.751103
4085.21,0.751264
4088.43,0.751332
4091.66,0.751595
4094.89,0.751745
4098.13,0.751783
4101.37,0.751737
4104.62,0.751968
4107.87,0.752121
4111.13,0.752314
4114.39,0.752477
4117.66,0.752662
4120.93,0.752705
4124.21,0.752923
4127.5,0.753117
4130.78,0.753155
4134.08,0.753291
4137.38,0.753526
4140.68,0.753631
4143.99,0.753748
4147.31,0.753719
4150.63,0.753768
4153.95,0.753892
4157.29,0.753937
4160.62,0.753953
4163.96,0.753937
4167.31,0.753998
4170.66,0.754203
4174.02,0.75435
4177.39,0.754364
4180.75,0.754294
4184.13,0.754524
4187.51,0.754678
4190.89,0.75461
4194.28,0.754609
4197.68,0.754507
4201.08,0.75416
4204.49,0.753991
4207.9,0.753856
4211.32,0.753464
4214.74,0.753049
4218.17,0.752842
4221.61,0.752616
4225.05,0.75257
4228.5,0.752574
4231.95,0.752698
4235.4,0.752579
4238.87,0.752569
4242.34,0.752652
4245.81,0.753022
4249.29,0.753334
4252.78,0.753542
4256.27,0.753619
4259.77,0.752752
4263.27,0.751041
4266.78,0.750117
4270.29,0.750062
4273.81,0.750049
4277.34,0.749855
4280.87,0.749689
4284.41,0.749416
4287.95,0.749164
4291.5,0.748903
4295.06,0.748734
4298.62,0.748568
4302.19,0.748357
4305.76,0.747983
4309.34,0.747428
4312.92,0.746877
4316.52,0.746475
4320.11,0.745945
4323.72,0.745437
4327.32,0.745131
4330.94,0.744704
4334.56,0.744055
4338.19,0.743668
4341.82,0.743221
4345.46,0.742514
4349.11,0.74198
4352.76,0.741304
4356.42,0.740648
4360.08,0.739993
4363.75,0.73913
4367.43,0.738653
4371.11,0.738071
4374.8,0.737547
4378.49,0.73689
4382.19,0.736064
4385.9,0.735327
4389.61,0.734543
4393.33,0.73373
4397.06,0.733148
4400.79,0.732505
4404.53,0.73194
4408.28,0.731282
4412.03,0.730611
4415.79,0.72983
4419.55,0.729154
4423.32,0.728508
4427.1,0.727873
4430.88,0.727133
4434.67,0.726348
4438.47,0.725579
4442.27,0.724707
4446.08,0.723926
4449.9,0.72324
4453.72,0.722505
4457.55,0.721633
4461.39,0.720743
4465.23,0.719931
4469.08,0.71913
4472.94,0.718291
4476.8,0.717416
4480.67,0.716749
4484.55,0.716054
4488.43,0.715234
4492.32,0.714162
4496.21,0.7131
4500.12,0.712227
4504.03,0.711385
4507.94,0.710578
4511.87,0.709779
4515.8,0.708935
4519.73,0.70796
4523.68,0.706864
4527.63,0.706013
4531.59,0.704967
4535.55,0.703908
4539.52,0.702988
4543.5,0.702013
4547.49,0.70096
4551.48,0.699878
4555.48,0.698721
4559.49,0.697715
4563.5,0.696694
4567.52,0.695502
4571.55,0.694189
4575.58,0.692976
4579.62,0.691751
4583.67,0.690605
4587.73,0.68955
4591.79,0.688296
4595.86,0.686978
4599.94,0.685635
4604.03,0.684345
4608.12,0.683139
4612.22,0.681844
4616.33,0.68058
4620.44,0.679473
4624.56,0.678356
4628.69,0.677037
4632.83,0.67599
4636.97,0.67484
4641.12,0.673617
4645.28,0.672274
4649.45,0.671065
4653.62,0.669963
4657.8,0.668911
4661.99,0.667658
4666.19,0.666544
4670.39,0.665569
4674.6,0.664578
4678.82,0.663386
4683.05,0.662228
4687.28,0.661131
4691.52,0.66015
4695.77,0.659196
4700.03,0.658246
4704.3,0.657095
4708.57,0.656103
4712.85,0.655309
4717.14,0.65434
4721.43,0.653289
4725.74,0.652412
4730.05,0.651503
4734.37,0.650749
4738.7,0.649905
4743.03,0.648951
4747.38,0.647911
4751.73,0.646962
4756.09,0.646178
4760.45,0.645502
4764.83,0.644753
4769.21,0.643974
4773.6,0.643251
4778.0,0.642618
4782.41,0.641801
4786.83,0.641057
4791.25,0.640413
4795.68,0.639663
4800.13,0.638992
4804.57,0.638269
4809.03,0.637432
4813.5,0.636771
4817.97,0.635933
4822.45,0.63524
4826.94,0.634533
4831.44,0.633833
4835.95,0.633053
4840.46,0.632411
4844.99,0.631651
4849.52,0.630937
4854.06,0.630233
4858.61,0.629358
4863.17,0.62856
4867.73,0.627929
4872.31,0.627315
4876.89,0.626577
4881.48,0.625675
4886.08,0.625006
4890.69,0.624334
4895.31,0.623493
4899.94,0.622505
4904.57,0.62191
4909.22,0.621039
4913.87,0.6201
4918.53,0.619241
4923.21,0.618312
4927.88,0.617346
4932.57,0.616498
4937.27,0.615725
4941.98,0.614799
4946.69,0.613813
4951.42,0.612965
4956.15,0.612012
4960.89,0.611044
4965.65,0.610305
4970.41,0.609204
4975.18,0.607948
4979.96,0.606695
4984.75,0.60544
4989.54,0.604175
4994.35,0.602767
4999.17,0.60151
5003.99,0.600216
5008.83,0.59879
5013.67,0.597292
5018.52,0.595603
5023.39,0.593907
5028.26,0.592791
5033.14,0.591132
5038.03,0.589349
5042.93,0.587574
5047.84,0.58572
5052.76,0.583748
5057.69,0.58177
5062.63,0.579741
5067.58,0.577706
5072.54,0.575601
5077.51,0.573397
5082.49,0.571035
5087.47,0.568859
5092.47,0.567135
5097.48,0.564978
5102.5,0.562704
5107.52,0.560514
5112.56,0.558496
5117.61,0.556246
5122.66,0.554107
5127.73,0.552045
5132.81,0.549938
5137.89,0.547658
5142.99,0.545352
5148.1,0.54299
5153.22,0.541227
5158.34,0.53984
5163.48,0.537569
5168.63,0.535515
5173.79,0.533399
5178.96,0.531462
5184.13,0.52954
5189.32,0.527696
5194.52,0.52585
5199.73,0.523857
5204.95,0.522145
5210.19,0.520815
5215.43,0.518264
5220.68,0.517324
5225.94,0.516328
5231.22,0.514404
5236.5,0.512462
5241.79,0.510904
5247.1,0.509868
5252.42,0.508465
5257.74,0.50698
5263.08,0.50564
5268.43,0.504329
5273.79,0.502974
5279.16,0.501666
5284.54,0.500796
5289.93,0.499489
5295.34,0.497958
5300.75,0.497587
5306.18,0.496408
5311.61,0.495056
5317.06,0.494043
5322.52,0.493001
5327.99,0.491852
5333.47,0.490674
5338.96,0.489438
5344.47,0.488194
5349.98,0.486244
5355.51,0.485076
5361.05,0.485188
5366.6,0.48408
5372.16,0.482576
5377.73,0.481241
5383.32,0.480233
5388.91,0.479023
5394.52,0.477841
5400.14,0.476524
5405.77,0.475328
5411.41,0.473864
5417.07,0.472291
5422.74,0.469414
5428.41,0.46883
5434.1,0.469548
5439.81,0.467439
5445.52,0.465575
5451.25,0.464271
5456.98,0.463063
5462.73,0.460736
5468.5,0.458817
5474.27,0.459031
5480.06,0.457347
5485.86,0.456093
5491.67,0.455701
5497.49,0.454273
5503.33,0.452973
5509.18,0.451663
5515.04,0.450648
5520.91,0.449001
5526.8,0.447922
5532.69,0.447185
5538.61,0.446328
5544.53,0.444969
5550.47,0.443436
5556.41,0.441888
5562.38,0.441366
5568.35,0.440486
5574.34,0.438968
5580.34,0.436402
5586.35,0.436431
5592.38,0.437139
5598.42,0.435676
5604.47,0.433887
5610.54,0.433452
5616.61,0.432296
5622.71,0.43131
5628.81,0.430886
5634.93,0.429689
5641.06,0.427423
5647.21,0.426427
5653.36,0.427932
5659.54,0.426805
5665.72,0.426812
5671.92,0.425625
5678.13,0.423607
5684.36,0.424246
5690.6,0.423981
5696.85,0.422636
5703.12,0.42307
5709.4,0.421184
5715.69,0.420129
5722.0,0.421215
5728.33,0.421362
5734.66,0.420853
5741.01,0.419889
5747.38,0.419094
5753.76,0.418379
5760.15,0.418439
5766.56,0.414192
5772.98,0.413898
5779.41,0.416439
5785.86,0.414293
5792.33,0.413022
5798.81,0.411704
5805.3,0.410092
5811.81,0.408885
5818.33,0.406058
5824.87,0.40285
5831.42,0.403952
5837.99,0.404011
5844.57,0.402659
5851.17,0.400734
5857.78,0.39874
5864.41,0.396329
5871.05,0.39525
5877.7,0.393132
5884.38,0.388243
5891.06,0.390585
5897.76,0.388251
5904.48,0.3873
5911.21,0.388074
5917.96,0.384992
5924.73,0.383194
5931.5,0.381155
5938.3,0.377033
5945.11,0.377863
5951.93,0.379636
5958.78,0.377291
5965.63,0.375307
5972.51,0.372356
5979.39,0.373101
5986.3,0.371568
5993.22,0.369334
6000.16,0.370035
6007.11,0.369944
6014.08,0.367681
6021.06,0.367323
6028.06,0.367949
6035.08,0.366951
6042.12,0.36507
6049.17,0.360871
6056.23,0.362335
6063.32,0.367281
6070.42,0.363433
6077.53,0.361546
6084.67,0.364083
6091.82,0.364596
6098.98,0.363334
6106.17,0.36273
6113.37,0.360497
6120.58,0.361197
6127.82,0.364289
6135.07,0.363614
6142.34,0.362304
6149.63,0.362297
6156.93,0.362183
6164.25,0.361266
6171.59,0.362273
6178.94,0.361907
6186.32,0.359423
6193.71,0.36024
6201.12,0.361842
6208.54,0.360444
6215.99,0.359687
6223.45,0.359226
6230.93,0.359054
6238.43,0.35853
6245.95,0.35809
6253.48,0.357821
6261.03,0.357584
6268.6,0.356969
6276.19,0.356744
6283.8,0.356726
6291.43,0.356735
6299.07,0.35663
6306.73,0.356602
6314.42,0.356634
6322.12,0.356894
6329.83,0.356769
6337.57,0.356534
6345.33,0.355025
6353.11,0.3568
6360.9,0.359105
6368.72,0.357537
6376.55,0.357088
6384.4,0.359241
6392.27,0.359153
6400.17,0.359249
6408.08,0.357951
6416.01,0.354383
6423.96,0.357989
6431.93,0.361192
6439.92,0.359891
6447.93,0.360399
6455.96,0.359635
6464.01,0.359931
6472.08,0.359041
6480.17,0.357751
6488.28,0.356644
6496.41,0.355421
6504.56,0.357975
6512.73,0.359861
6520.92,0.357202
6529.14,0.356548
6537.37,0.35757
6545.63,0.356357
6553.9,0.354966
6562.2,0.35446
6570.51,0.353062
6578.85,0.351651
6587.21,0.353258
6595.59,0.351905
6603.99,0.351652
6612.42,0.351282
6620.86,0.349844
6629.33,0.348383
6637.82,0.345556
6646.33,0.346277
6654.86,0.348971
6663.41,0.347511
6671.99,0.345583
6680.59,0.344241
6689.21,0.343962
6697.85,0.344789
6706.51,0.343414
6715.2,0.341545
6723.91,0.341592
6732.64,0.341687
6741.4,0.341416
6750.18,0.340391
6758.98,0.33944
6767.8,0.338541
6776.65,0.336994
6785.52,0.335712
6794.41,0.334194
6803.33,0.334502
6812.27,0.33424
6821.23,0.332311
6830.22,0.330491
6839.23,0.330335
6848.26,0.329505
6857.32,0.326847
6866.4,0.324402
6875.51,0.325268
6884.64,0.325387
6893.8,0.323512
6902.98,0.322014
6912.18,0.320288
6921.41,0.319466
6930.66,0.318007
6939.94,0.316435
6949.24,0.314765
6958.57,0.312479
6967.92,0.310574
6977.3,0.310432
6986.7,0.308492
6996.13,0.306481
7005.59,0.305058
7015.07,0.303654
7024.57,0.30159
7034.1,0.300264
7043.66,0.298203
7053.24,0.296193
7062.85,0.295588
7072.49,0.294338
7082.15,0.29236
7091.84,0.290378
7101.55,0.288439
7111.3,0.286346
7121.06,0.283913
7130.86,0.282113
7140.68,0.280269
7150.53,0.277755
7160.41,0.275543
7170.31,0.273312
7180.24,0.271018
7190.2,0.269138
7200.19,0.266621
7210.2,0.26382
7220.24,0.261269
7230.31,0.259051
7240.41,0.256376
7250.54,0.253718
7260.69,0.250721
7270.88,0.247776
7281.09,0.244514
7291.33,0.241673
7301.6,0.238758
7311.9,0.235841
7322.22,0.23293
7332.58,0.229831
7342.97,0.226501
7353.38,0.2235
7363.83,0.220281
7374.3,0.217
7384.81,0.213617
7395.34,0.210355
7405.91,0.206764
7416.5,0.203372
7427.13,0.199872
7437.78,0.196348
7448.47,0.192644
7459.19,0.189096
7469.94,0.185238
7480.71,0.181464
7491.52,0.177495
7502.37,0.173611
7513.24,0.169591
7524.14,0.165587
7535.08,0.161386
7546.05,0.157175
7557.05,0.152742
7568.08,0.148459
7579.14,0.143903
7590.24,0.13948
7601.37,0.134927
7612.53,0.130402
7623.73,0.125596
7634.96,0.121043
7646.22,0.116444
7657.51,0.111915
7668.84,0.10718
7680.2,0.102609
7691.59,0.097999
7703.02,0.093479
7714.49,0.088848
7725.98,0.084433
7737.51,0.079935
7749.08,0.075602
7760.68,0.071196
7772.32,0.067202
7783.99,0.063159
7795.69,0.059433
7807.43,0.055561
7819.21,0.051989
7831.02,0.048601
7842.87,0.045557
7854.75,0.042452
7866.67,0.039833
7878.62,0.037321
7890.62,0.035151
7902.64,0.033181
7914.71,0.031732
7926.81,0.030413
7938.95,0.029574
7951.13,0.029073
7963.34,0.029208
7975.59,0.029527
7987.88,0.030453
8000.21,0.031978
8012.57,0.034347
8024.98,0.036914
8037.42,0.040371
8049.9,0.044481
8062.42,0.049383
8074.98,0.054898
8087.57,0.061258
8100.21,0.068415
8112.89,0.076301
8125.6,0.084532
8138.36,0.093416
8151.16,0.102584
8163.99,0.11215
8176.87,0.121876
8189.79,0.131625
8202.75,0.141003
8215.74,0.150041
8228.79,0.158289
8241.87,0.165688
8254.99,0.171948
8268.16,0.176965
8281.37,0.180363
8294.62,0.182351
8307.91,0.1829
8321.24,0.182253
8334.62,0.180263
8348.04,0.17764
8361.51,0.174311
8375.02,0.170459
8388.57,0.16638
8402.16,0.162308
8415.8,0.158489
8429.49,0.154836
8443.22,0.151478
8456.99,0.148567
8470.81,0.145736
8484.67,0.143373
8498.58,0.14112
8512.54,0.13905
8526.54,0.136995
8540.58,0.135182
8554.68,0.133253
8568.82,0.131356
8583.0,0.129668
8597.24,0.128258
8611.52,0.126849
8625.85,0.12541
8640.22,0.123854
8654.65,0.122436
8669.12,0.120968
8683.64,0.119732
8698.21,0.118511
8712.83,0.117449
8727.5,0.116151
8742.22,0.114768
8756.98,0.113371
8771.8,0.112039
8786.67,0.11056
8801.59,0.109289
8816.56,0.10807
8831.58,0.106932
8846.65,0.105415
8861.77,0.103961
8876.94,0.102475
8892.17,0.101467
8907.45,0.10023
8922.78,0.098914
8938.16,0.097796
8953.6,0.097034
8969.09,0.096095
8984.64,0.09488
9000.23,0.093678
9015.89,0.093105
9031.59,0.09208
9047.36,0.090869
9063.17,0.089818
9079.04,0.089011
9094.97,0.088055
9110.96,0.087245
9127.0,0.086319
9143.09,0.0856
9159.25,0.084671
9175.46,0.083839
9191.73,0.083268
9208.05,0.082831
9224.44,0.082324
9240.88,0.082015
9257.38,0.081736
9273.94,0.081809
9290.56,0.081915
9307.24,0.082096
9323.98,0.08247
9340.78,0.083046
9357.64,0.083603
9374.57,0.084479
9391.55,0.08523
9408.59,0.086038
9425.7,0.086814
9442.87,0.087801
9460.1,0.088731
9477.39,0.089779
9494.75,0.090688
9512.17,0.091745
9529.66,0.092783
9547.21,0.093989
9564.82,0.095083
9582.5,0.095789
9600.25,0.096328
9618.06,0.097041
9635.94,0.097822
9653.88,0.098391
9671.89,0.098898
9689.97,0.099286
9708.12,0.099378
9726.33,0.099653
9744.61,0.099751
9762.97,0.099919
9781.39,0.100124
9799.88,0.100412
9818.44,0.100608
9837.07,0.100911
9855.77,0.101359
9874.54,0.101714
9893.39,0.101833
9912.3,0.102083
9931.29,0.102132
9950.35,0.102244
9969.49,0.101958
9988.7,0.101636
10007.98,0.101305
10027.34,0.100798
10046.77,0.100207
10066.28,0.099647
10085.87,0.099081
10105.53,0.098401
10125.26,0.097675
10145.08,0.097254
10164.97,0.096774
10184.94,0.09637
10204.99,0.095735
10225.12,0.095364
10245.33,0.095248
10265.61,0.09516
10285.98,0.095083
10306.43,0.095322
10326.96,0.095591
10347.57,0.095824
10368.27,0.095826
10389.05,0.096082
10409.91,0.096494
10430.85,0.097115
10451.88,0.097456
10473.0,0.097604
10494.2,0.097814
10515.49,0.09821
10536.86,0.098318
10558.32,0.098433
10579.87,0.098428
10601.5,0.098495
10623.23,0.09853
10645.04,0.098384
10666.94,0.098364
10688.94,0.098613
10711.02,0.098621
10733.2,0.098628
10755.47,0.098855
10777.83,0.099316
10800.28,0.099396
10822.83,0.099639
10845.47,0.100058
10868.21,0.100634
10891.04,0.100794
10913.97,0.101102
10936.99,0.101645
10960.12,0.102259
10983.34,0.102703
11006.66,0.103461
11030.07,0.104436
11053.59,0.105509
11077.21,0.106629
11100.93,0.108179
11124.75,0.109914
11148.68,0.11208
11172.7,0.114643
11196.84,0.117501
11221.07,0.120367
11245.41,0.123883
11269.86,0.12771
11294.41,0.131574
11319.07,0.135673
11343.84,0.139632
11368.72,0.143213
11393.7,0.146531
11418.8,0.149328
11444.01,0.151951
11469.33,0.153896
11494.76,0.155857
11520.3,0.157664
11545.96,0.158872
11571.73,0.160002
11597.62,0.161329
11623.62,0.162573
11649.74,0.163795
11675.98,0.164954
11702.34,0.166251
11728.81,0.167881
11755.41,0.169758
11782.13,0.171567
11808.96,0.173523
11835.92,0.175386
11863.01,0.177207
11890.22,0.179266
11917.55,0.181072
11945.01,0.182478
11972.6,0.184099
12000.31,0.185743
12028.16,0.187049
12056.13,0.188009
12084.23,0.188556
12112.46,0.188711
12140.83,0.188545
12169.33,0.187469
12197.96,0.185393
12226.73,0.181866
12255.64,0.177176
12284.68,0.171725
12313.86,0.165587
12343.18,0.158384
12372.64,0.150987
12402.24,0.143625
12431.98,0.136198
12461.86,0.129262
12491.89,0.123035
12522.06,0.116902
12552.38,0.111259
12582.85,0.105909
12613.47,0.101165
12644.23,0.096876
12675.15,0.092916
12706.21,0.08901
12737.43,0.085933
12768.8,0.083568
12800.33,0.081713
12832.02,0.080106
12863.86,0.078559
12895.86,0.077295
12928.02,0.076749
12960.34,0.075885
12992.82,0.074895
13025.46,0.07391
13058.27,0.073266
13091.25,0.072629
13124.39,0.072143
13157.7,0.071596
13191.18,0.071153
13224.83,0.070837
13258.66,0.070408
13292.65,0.070378
13326.83,0.070839
13361.17,0.071536
13395.7,0.072094
13430.4,0.072506
13465.29,0.073412
13500.35,0.073889
13535.6,0.074279
13571.03,0.074403
13606.65,0.074538
13642.46,0.074265
13678.46,0.074292
13714.64,0.074276
13751.02,0.07435
13787.59,0.074323
13824.36,0.074468
13861.32,0.074563
13898.48,0.074582
13935.85,0.07431
13973.41,0.074387
14011.17,0.074262
14049.15,0.07383
14087.32,0.073688
14125.71,0.07377
14164.3,0.073013
14203.11,0.072228
14242.13,0.071703
14281.36,0.071429
14320.81,0.070808
14360.48,0.070023
14400.38,0.06897
14440.49,0.067746
14480.82,0.066667
14521.39,0.065975
14562.18,0.065307
14603.2,0.064338
14644.45,0.063368
14685.93,0.062913
14727.66,0.062714
14769.62,0.062941
14811.81,0.06286
14854.25,0.062726
14896.94,0.062372
14939.87,0.061984
14983.05,0.061978
15026.48,0.062206
15070.16,0.062402
15114.1,0.062944
15158.29,0.064108
15202.74,0.066494
15247.46,0.069398
15292.43,0.072879
15337.68,0.076147
15383.19,0.079453
15428.97,0.082307
15475.03,0.084589
15521.36,0.085962
15567.97,0.086836
15614.86,0.087423
15662.04,0.087792
15709.5,0.087863
15757.25,0.087681
15805.29,0.087779
15853.62,0.088004
15902.25,0.088122
15951.18,0.088136
16000.42,0.087989
16049.95,0.087567
16099.8,0.087287
16149.95,0.08744
16200.42,0.088145
16251.21,0.089857
16302.31,0.091871
16353.74,0.094446
16405.49,0.096884
16457.57,0.099296
16509.98,0.101073
16562.73,0.101932
16615.82,0.102013
16669.24,0.101821
16723.02,0.101671
16777.13,0.101836
16831.61,0.101061
16886.43,0.100585
16941.62,0.10046
16997.16,0.100775
17053.07,0.101195
17109.36,0.101451
17166.01,0.101937
17223.04,0.10229
17280.45,0.101789
17338.24,0.101636
17396.43,0.101411
17455.0,0.101202
17513.97,0.100485
17573.34,0.099502
17633.11,0.098575
17693.29,0.0979
17753.89,0.097097
17814.9,0.096807
17876.33,0.096521
17938.18,0.096488
18000.47,0.09636
18063.19,0.096548
18126.35,0.096954
18189.95,0.098594
18254.0,0.100752
18318.5,0.102693
18383.46,0.104968
18448.88,0.107924
18514.77,0.109218
18581.13,0.109426
18647.97,0.109124
18715.29,0.109096
18783.1,0.108918
18851.4,0.107401
18920.2,0.106477
18989.51,0.105757
19059.32,0.104298
19129.65,0.103575
19200.5,0.101474
19271.88,0.101736
19343.79,0.10341
19416.23,0.104252
19489.23,0.10466
19562.77,0.104864
19636.88,0.104828
19711.54,0.10423
19786.77,0.103639
19862.59,0.103201
19938.98,0.103576
20015.96,0.10333
20093.54,0.101607
20171.73,0.099601
20250.53,0.097222
20329.94,0.094834
20409.98,0.092206
20490.65,0.090446
20571.96,0.088616
20653.92,0.087324
20736.54,0.086469
20819.82,0.086498
20903.77,0.087164
20988.4,0.087574
21073.72,0.087394
21159.73,0.087309
21246.46,0.087448
21333.89,0.088331
21422.04,0.087813
21510.93,0.086679
21600.56,0.086413
21690.94,0.086547
21782.08,0.085278
21873.99,0.084473
21966.67,0.08449
22060.15,0.085203
22154.42,0.085858
22249.51,0.08663
22345.41,0.086935
22442.14,0.087506
22539.72,0.08977
22638.14,0.093294
22737.43,0.096577
22837.6,0.099028
22938.65,0.100576
23040.6,0.102486
23143.46,0.104513
23247.24,0.10585
23351.96,0.106032
23457.62,0.107814
23564.25,0.107668
23671.85,0.107513
23780.44,0.109
23890.02,0.110279
24000.63,0.110576
24112.26,0.112549
24224.93,0.113333
24338.66,0.113263
24453.47,0.11391
24569.36,0.115011
24686.36,0.117219
24804.47,0.119609
24923.72,0.11913
25044.13,0.118961
25165.7,0.118015
25288.46,0.12022
25412.43,0.125856
25537.61,0.129289
25664.03,0.129209
25791.71,0.129319
25920.67,0.125379
