Database of Origin,University of Winnipeg Spectrophotometer Facility
Sample Description,"HOSERLab master pyroxenes, RELAB data"
Date Added,2016-12-14 03:34:50.184029

Data ID,RLA_PYX_02          
Sample ID,PYX110
Mineral Name,Orthopyroxene
Grain Size,45-90um
Viewing Geometry,30/30
Resolution,0.6-129
Composition,"86.3 En, 13.2 Fs, 0.5 Wo"
Material Class,Inosilicate

Wavelength
1800.05,0.072841
1800.67,0.073588
1801.3,0.07352
1801.92,0.072821
1802.55,0.073362
1803.18,0.073783
1803.8,0.073568
1804.43,0.073333
1805.06,0.073851
1805.69,0.073887
1806.32,0.07359
1806.95,0.073482
1807.58,0.073602
1808.21,0.07391
1808.84,0.073874
1809.47,0.073777
1810.1,0.073394
1810.74,0.073192
1811.37,0.073294
1812.0,0.073158
1812.63,0.073471
1813.27,0.073356
1813.9,0.07321
1814.54,0.073267
1815.17,0.073138
1815.81,0.072749
1816.45,0.071983
1817.08,0.072427
1817.72,0.072902
1818.36,0.072932
1818.99,0.072816
1819.63,0.07309
1820.27,0.073292
1820.91,0.073074
1821.55,0.073182
1822.19,0.072993
1822.83,0.073214
1823.47,0.073187
1824.11,0.072609
1824.76,0.071934
1825.4,0.071313
1826.04,0.07217
1826.69,0.073435
1827.33,0.073583
1827.97,0.073447
1828.62,0.072877
1829.26,0.072488
1829.91,0.072564
1830.56,0.072176
1831.2,0.072802
1831.85,0.073316
1832.5,0.07266
1833.15,0.072892
1833.79,0.072764
1834.44,0.072771
1835.09,0.072951
1835.74,0.072853
1836.39,0.073045
1837.04,0.072743
1837.69,0.073299
1838.35,0.073397
1839.0,0.072727
1839.65,0.072033
1840.3,0.072239
1840.96,0.073106
1841.61,0.073361
1842.27,0.073073
1842.92,0.072484
1843.58,0.072535
1844.23,0.072672
1844.89,0.072533
1845.54,0.072814
1846.2,0.07323
1846.86,0.072823
1847.52,0.072317
1848.18,0.072228
1848.84,0.072304
1849.5,0.072242
1850.16,0.072356
1850.82,0.072287
1851.48,0.072154
1852.14,0.072376
1852.8,0.072238
1853.46,0.072143
1854.13,0.072606
1854.79,0.07305
1855.45,0.073127
1856.12,0.073071
1856.78,0.073349
1857.45,0.073067
1858.11,0.072941
1858.78,0.072761
1859.45,0.0726
1860.11,0.072446
1860.78,0.072683
1861.45,0.073038
1862.12,0.073101
1862.79,0.072762
1863.46,0.072744
1864.13,0.073075
1864.8,0.073647
1865.47,0.07387
1866.14,0.073334
1866.81,0.073014
1867.48,0.072926
1868.16,0.072989
1868.83,0.073283
1869.5,0.073461
1870.18,0.073389
1870.85,0.072967
1871.53,0.073317
1872.2,0.073754
1872.88,0.07383
1873.56,0.073523
1874.24,0.07336
1874.91,0.073864
1875.59,0.074034
1876.27,0.073883
1876.95,0.073978
1877.63,0.074328
1878.31,0.074639
1878.99,0.074413
1879.67,0.073841
1880.35,0.073303
1881.04,0.073135
1881.72,0.073459
1882.4,0.073654
1883.09,0.073676
1883.77,0.073761
1884.45,0.073755
1885.14,0.07347
1885.83,0.073354
1886.51,0.073802
1887.2,0.073922
1887.89,0.073955
1888.57,0.074037
1889.26,0.07394
1889.95,0.073962
1890.64,0.074166
1891.33,0.074856
1892.02,0.07489
1892.71,0.074885
1893.4,0.07451
1894.09,0.07395
1894.79,0.074139
1895.48,0.074194
1896.17,0.074484
1896.87,0.074989
1897.56,0.075067
1898.26,0.074809
1898.95,0.074391
1899.65,0.074206
1900.34,0.074527
1901.04,0.074825
1901.74,0.074556
1902.43,0.074493
1903.13,0.074661
1903.83,0.07464
1904.53,0.074456
1905.23,0.074781
1905.93,0.074671
1906.63,0.074783
1907.33,0.075111
1908.04,0.075099
1908.74,0.075389
1909.44,0.075197
1910.15,0.075276
1910.85,0.075603
1911.55,0.075635
1912.26,0.075485
1912.96,0.075448
1913.67,0.07533
1914.38,0.07529
1915.09,0.07557
1915.79,0.075668
1916.5,0.075704
1917.21,0.075391
1917.92,0.075125
1918.63,0.075751
1919.34,0.075699
1920.05,0.075725
1920.76,0.075625
1921.47,0.075712
1922.19,0.07565
1922.9,0.075493
1923.61,0.075919
1924.33,0.075817
1925.04,0.075485
1925.76,0.075638
1926.47,0.076209
1927.19,0.076413
1927.9,0.076334
1928.62,0.076248
1929.34,0.076402
1930.06,0.076451
1930.78,0.076264
1931.5,0.076158
1932.22,0.076317
1932.94,0.076626
1933.66,0.076689
1934.38,0.076684
1935.1,0.076826
1935.82,0.076606
1936.55,0.076889
1937.27,0.07722
1937.99,0.076877
1938.72,0.076614
1939.44,0.076982
1940.17,0.076968
1940.9,0.076748
1941.62,0.077302
1942.35,0.078012
1943.08,0.078072
1943.81,0.077881
1944.54,0.077692
1945.27,0.077627
1946.0,0.077572
1946.73,0.077461
1947.46,0.077696
1948.19,0.07762
1948.92,0.077646
1949.66,0.078013
1950.39,0.078029
1951.12,0.078126
1951.86,0.078382
1952.59,0.078457
1953.33,0.078344
1954.07,0.078147
1954.8,0.078448
1955.54,0.078545
1956.28,0.078534
1957.02,0.078732
1957.75,0.078631
1958.49,0.078416
1959.23,0.078573
1959.98,0.07887
1960.72,0.078908
1961.46,0.078969
1962.2,0.079073
1962.94,0.078915
1963.69,0.078832
1964.43,0.079064
1965.18,0.079146
1965.92,0.079054
1966.67,0.079056
1967.41,0.07927
1968.16,0.079285
1968.91,0.079782
1969.66,0.0798
1970.4,0.079553
1971.15,0.079353
1971.9,0.079442
1972.65,0.079556
1973.41,0.080048
1974.16,0.080056
1974.91,0.080087
1975.66,0.080108
1976.41,0.080092
1977.17,0.08015
1977.92,0.08029
1978.68,0.080458
1979.43,0.080492
1980.19,0.080758
1980.95,0.081123
1981.7,0.081253
1982.46,0.080882
1983.22,0.080634
1983.98,0.080802
1984.74,0.08082
1985.5,0.08111
1986.26,0.081353
1987.02,0.081295
1987.78,0.081191
1988.54,0.081335
1989.31,0.081294
1990.07,0.081501
1990.84,0.081566
1991.6,0.081687
1992.37,0.081984
1993.13,0.081892
1993.9,0.081693
1994.67,0.081479
1995.43,0.081557
1996.2,0.081466
1996.97,0.081532
1997.74,0.081849
1998.51,0.082259
1999.28,0.082332
2000.05,0.08218
2000.82,0.082405
2001.6,0.082527
2002.37,0.082633
2003.14,0.0825
2003.92,0.082586
2004.69,0.083039
2005.47,0.083208
2006.24,0.083104
2007.02,0.082967
2007.8,0.083252
2008.58,0.08328
2009.35,0.083177
2010.13,0.083519
2010.91,0.083551
2011.69,0.083487
2012.47,0.083377
2013.26,0.083692
2014.04,0.08418
2014.82,0.084369
2015.6,0.084276
2016.39,0.084201
2017.17,0.084002
2017.96,0.084138
2018.74,0.084448
2019.53,0.084499
2020.32,0.084677
2021.11,0.085063
2021.89,0.084952
2022.68,0.08491
2023.47,0.084608
2024.26,0.0846
2025.05,0.084891
2025.84,0.084748
2026.64,0.084905
2027.43,0.085413
2028.22,0.085714
2029.02,0.085768
2029.81,0.085873
2030.61,0.086174
2031.4,0.08631
2032.2,0.086361
2032.99,0.086627
2033.79,0.086649
2034.59,0.0864
2035.39,0.086515
2036.19,0.086737
2036.99,0.086884
2037.79,0.08706
2038.59,0.086917
2039.39,0.086482
2040.19,0.085995
2041.0,0.085789
2041.8,0.086581
2042.61,0.087635
2043.41,0.087654
2044.22,0.087815
2045.02,0.087998
2045.83,0.088101
2046.64,0.088353
2047.45,0.088232
2048.26,0.088075
2049.07,0.088109
2049.88,0.088305
2050.69,0.088718
2051.5,0.089135
2052.31,0.089005
2053.12,0.088645
2053.94,0.089011
2054.75,0.089315
2055.57,0.089124
2056.38,0.089255
2057.2,0.089714
2058.01,0.090118
2058.83,0.089965
2059.65,0.089832
2060.47,0.090068
2061.29,0.090279
2062.11,0.090402
2062.93,0.090494
2063.75,0.090391
2064.57,0.090359
2065.39,0.090756
2066.22,0.091208
2067.04,0.091099
2067.86,0.091
2068.69,0.091324
2069.52,0.091447
2070.34,0.091738
2071.17,0.092041
2072.0,0.09199
2072.82,0.092222
2073.65,0.092422
2074.48,0.092358
2075.31,0.092074
2076.15,0.092095
2076.98,0.092472
2077.81,0.092926
2078.64,0.093208
2079.48,0.093445
2080.31,0.093404
2081.15,0.093332
2081.98,0.093358
2082.82,0.093738
2083.66,0.093869
2084.49,0.093956
2085.33,0.094099
2086.17,0.094311
2087.01,0.094395
2087.85,0.09469
2088.69,0.094861
2089.53,0.094844
2090.38,0.095103
2091.22,0.095233
2092.06,0.095541
2092.91,0.095566
2093.75,0.095546
2094.6,0.09574
2095.45,0.095824
2096.29,0.095857
2097.14,0.095986
2097.99,0.096168
2098.84,0.096393
2099.69,0.096619
2100.54,0.096712
2101.39,0.096911
2102.24,0.097039
2103.1,0.097428
2103.95,0.097704
2104.81,0.097972
2105.66,0.098105
2106.52,0.098208
2107.37,0.098608
2108.23,0.098731
2109.09,0.098767
2109.95,0.09889
2110.8,0.098977
2111.66,0.099001
2112.52,0.099112
2113.39,0.099357
2114.25,0.099631
2115.11,0.099988
2115.97,0.100199
2116.84,0.100188
2117.7,0.100378
2118.57,0.100636
2119.43,0.100626
2120.3,0.100884
2121.17,0.101217
2122.04,0.101223
2122.91,0.101558
2123.78,0.101998
2124.65,0.101976
2125.52,0.101954
2126.39,0.101864
2127.26,0.101972
2128.13,0.102371
2129.01,0.102872
2129.88,0.103533
2130.76,0.103701
2131.63,0.103539
2132.51,0.103663
2133.39,0.104047
2134.27,0.104373
2135.15,0.10453
2136.03,0.104608
2136.91,0.104843
2137.79,0.105069
2138.67,0.105161
2139.55,0.105449
2140.44,0.105794
2141.32,0.105983
2142.2,0.1062
2143.09,0.106382
2143.98,0.106254
2144.86,0.106612
2145.75,0.1073
2146.64,0.107519
2147.53,0.107294
2148.42,0.107597
2149.31,0.107881
2150.2,0.108342
2151.09,0.108759
2151.99,0.108879
2152.88,0.109097
2153.77,0.109176
2154.67,0.109382
2155.57,0.109852
2156.46,0.109935
2157.36,0.110184
2158.26,0.110782
2159.16,0.110993
2160.06,0.111002
2160.96,0.111237
2161.86,0.111365
2162.76,0.111575
2163.66,0.111853
2164.57,0.11206
2165.47,0.11239
2166.37,0.112816
2167.28,0.112856
2168.19,0.113
2169.09,0.113302
2170.0,0.113566
2170.91,0.113816
2171.82,0.113887
2172.73,0.114017
2173.64,0.114342
2174.55,0.114827
2175.47,0.115066
2176.38,0.115225
2177.29,0.115571
2178.21,0.11597
2179.12,0.116068
2180.04,0.116131
2180.96,0.116468
2181.88,0.11684
2182.79,0.117138
2183.71,0.117304
2184.63,0.117417
2185.55,0.117423
2186.48,0.117713
2187.4,0.11825
2188.32,0.118501
2189.25,0.118555
2190.17,0.118821
2191.1,0.119359
2192.02,0.119515
2192.95,0.119667
2193.88,0.119857
2194.81,0.12009
2195.74,0.120397
2196.67,0.120684
2197.6,0.120987
2198.53,0.1212
2199.46,0.121407
2200.4,0.121854
2201.33,0.122053
2202.27,0.122212
2203.2,0.122512
2204.14,0.12286
2205.08,0.123074
2206.01,0.123006
2206.95,0.123404
2207.89,0.123859
2208.83,0.123921
2209.78,0.124131
2210.72,0.124468
2211.66,0.124729
2212.61,0.125106
2213.55,0.125356
2214.5,0.125754
2215.44,0.126053
2216.39,0.126153
2217.34,0.126468
2218.29,0.126687
2219.24,0.126817
2220.19,0.12697
2221.14,0.127377
2222.09,0.127703
2223.04,0.127901
2224.0,0.128086
2224.95,0.12836
2225.91,0.128582
2226.86,0.128774
2227.82,0.128892
2228.78,0.129095
2229.74,0.129566
2230.7,0.130049
2231.66,0.130235
2232.62,0.130505
2233.58,0.130832
2234.54,0.131172
2235.5,0.131315
2236.47,0.131637
2237.43,0.132077
2238.4,0.132296
2239.37,0.13245
2240.33,0.132566
2241.3,0.132556
2242.27,0.132877
2243.24,0.133458
2244.21,0.133783
2245.19,0.13425
2246.16,0.13452
2247.13,0.134543
2248.11,0.134685
2249.08,0.134925
2250.06,0.135437
2251.04,0.135775
2252.01,0.135994
2252.99,0.136274
2253.97,0.136391
2254.95,0.136532
2255.93,0.1368
2256.92,0.136974
2257.9,0.137219
2258.88,0.137558
2259.87,0.137855
2260.85,0.138072
2261.84,0.138207
2262.83,0.138262
2263.81,0.138547
2264.8,0.138855
2265.79,0.138996
2266.78,0.139023
2267.78,0.139147
2268.77,0.139573
2269.76,0.1399
2270.76,0.140126
2271.75,0.14032
2272.75,0.140474
2273.74,0.140603
2274.74,0.140871
2275.74,0.140991
2276.74,0.14114
2277.74,0.141263
2278.74,0.141473
2279.74,0.141643
2280.75,0.141922
2281.75,0.14232
2282.75,0.14242
2283.76,0.142307
2284.77,0.142452
2285.77,0.142607
2286.78,0.142567
2287.79,0.142409
2288.8,0.142573
2289.81,0.142716
2290.82,0.142701
2291.84,0.142559
2292.85,0.142627
2293.87,0.143088
2294.88,0.143588
2295.9,0.143828
2296.91,0.14411
2297.93,0.144433
2298.95,0.144804
2299.97,0.144946
2300.99,0.144946
2302.01,0.144732
2303.04,0.144796
2304.06,0.144878
2305.08,0.145073
2306.11,0.145113
2307.14,0.145028
2308.16,0.145053
2309.19,0.144922
2310.22,0.144773
2311.25,0.144653
2312.28,0.144403
2313.31,0.144374
2314.35,0.144526
2315.38,0.144714
2316.41,0.145105
2317.45,0.145626
2318.49,0.146105
2319.52,0.146589
2320.56,0.146919
2321.6,0.14739
2322.64,0.147896
2323.68,0.14816
2324.72,0.148245
2325.77,0.148488
2326.81,0.148951
2327.86,0.14941
2328.9,0.149802
2329.95,0.15017
2331.0,0.1505
2332.04,0.150867
2333.09,0.151074
2334.14,0.151334
2335.2,0.151567
2336.25,0.151783
2337.3,0.152029
2338.36,0.152294
2339.41,0.152416
2340.47,0.152669
2341.52,0.152776
2342.58,0.152851
2343.64,0.153147
2344.7,0.153583
2345.76,0.153678
2346.82,0.153662
2347.89,0.153682
2348.95,0.153934
2350.02,0.154276
2351.08,0.154599
2352.15,0.154731
2353.22,0.154871
2354.28,0.154912
2355.35,0.155013
2356.43,0.15518
2357.5,0.155395
2358.57,0.15549
2359.64,0.155519
2360.72,0.155751
2361.79,0.15602
2362.87,0.15618
2363.95,0.156193
2365.03,0.15628
2366.1,0.156486
2367.19,0.156579
2368.27,0.15665
2369.35,0.156686
2370.43,0.156939
2371.52,0.157114
2372.6,0.157048
2373.69,0.157017
2374.78,0.157119
2375.86,0.157026
2376.95,0.157068
2378.04,0.157093
2379.14,0.156979
2380.23,0.156971
2381.32,0.156981
2382.42,0.156894
2383.51,0.156971
2384.61,0.157074
2385.7,0.157161
2386.8,0.157226
2387.9,0.157212
2389.0,0.157123
2390.1,0.157065
2391.21,0.157164
2392.31,0.15719
2393.41,0.157197
2394.52,0.157359
2395.63,0.157506
2396.73,0.157673
2397.84,0.157948
2398.95,0.158157
2400.06,0.15835
2401.17,0.158589
2402.29,0.158804
2403.4,0.158872
2404.52,0.158852
2405.63,0.158958
2406.75,0.158928
2407.87,0.159061
2408.98,0.159268
2410.1,0.159406
2411.23,0.15939
2412.35,0.159415
2413.47,0.159376
2414.59,0.159582
2415.72,0.159813
2416.85,0.159806
2417.97,0.15977
2419.1,0.159804
2420.23,0.159632
2421.36,0.159604
2422.49,0.159598
2423.63,0.15964
2424.76,0.159642
2425.89,0.159621
2427.03,0.159688
2428.17,0.159809
2429.3,0.159709
2430.44,0.159645
2431.58,0.159759
2432.72,0.159866
2433.87,0.159914
2435.01,0.159921
2436.15,0.159916
2437.3,0.160129
2438.45,0.160233
2439.59,0.160203
2440.74,0.160188
2441.89,0.160116
2443.04,0.160048
2444.19,0.160192
2445.35,0.160397
2446.5,0.160463
2447.66,0.160477
2448.81,0.160493
2449.97,0.160547
2451.13,0.160409
2452.29,0.160413
2453.45,0.160502
2454.61,0.160381
2455.77,0.160582
2456.94,0.160726
2458.1,0.160705
2459.27,0.160647
2460.43,0.160728
2461.6,0.160816
2462.77,0.160942
2463.94,0.160804
2465.11,0.160795
2466.29,0.160697
2467.46,0.160647
2468.64,0.160733
2469.81,0.160864
2470.99,0.160988
2472.17,0.161117
2473.35,0.161236
2474.53,0.161404
2475.71,0.161501
2476.89,0.161514
2478.08,0.161566
2479.26,0.161786
2480.45,0.162014
2481.63,0.162087
2482.82,0.161998
2484.01,0.161875
2485.2,0.161957
2486.4,0.162306
2487.59,0.16222
2488.78,0.162119
2489.98,0.162191
2491.17,0.162357
2492.37,0.162549
2493.57,0.162435
2494.77,0.162365
2495.97,0.162356
2497.17,0.162182
2498.38,0.162197
2499.58,0.162269
2500.79,0.162299
2502.0,0.162265
2503.2,0.162308
2504.41,0.162333
2505.62,0.162451
2506.83,0.162622
2508.05,0.162847
2509.26,0.162807
2510.48,0.162839
2511.69,0.162871
2512.91,0.162834
2514.13,0.162678
2515.35,0.162687
2516.57,0.162809
2517.79,0.162807
2519.02,0.162654
2520.24,0.16274
2521.47,0.162944
2522.69,0.162964
2523.92,0.162949
2525.15,0.163121
2526.38,0.163116
2527.61,0.16312
2528.85,0.16322
2530.08,0.163165
2531.32,0.163089
2532.55,0.163214
2533.79,0.16331
2535.03,0.163408
2536.27,0.163315
2537.51,0.163384
2538.75,0.163568
2540.0,0.163556
2541.24,0.163537
2542.49,0.16349
2543.74,0.163455
2544.99,0.163666
2546.24,0.163856
2547.49,0.163826
2548.74,0.163764
2549.99,0.163937
2551.25,0.163759
2552.5,0.163668
2553.76,0.163866
2555.02,0.164062
2556.28,0.163983
2557.54,0.164052
2558.8,0.164105
2560.07,0.163983
2561.33,0.163702
2562.6,0.163832
2563.86,0.164213
2565.13,0.164395
2566.4,0.164531
2567.67,0.164595
2568.95,0.164368
2570.22,0.164307
2571.5,0.164904
2572.77,0.164778
2574.05,0.164509
2575.33,0.165146
2576.61,0.164966
2577.89,0.164844
2579.17,0.165195
2580.46,0.165167
2581.74,0.165047
2583.03,0.165246
2584.31,0.164957
2585.6,0.165825
2586.89,0.166016
2588.19,0.165854
2589.48,0.166045
2590.77,0.166145
2592.07,0.166304
2593.36,0.166063
2594.66,0.165128
2595.96,0.165954
2597.26,0.167793
2598.56,0.167699
2599.87,0.167148
2601.17,0.167007
2602.48,0.16712
2603.78,0.167227
2605.09,0.166927
2606.4,0.167144
2607.71,0.16793
2609.03,0.167909
2610.34,0.167828
2611.66,0.168037
2612.97,0.168042
2614.29,0.168172
2615.61,0.1684
2616.93,0.167954
2618.25,0.168518
2619.57,0.168839
2620.9,0.168244
2622.22,0.169091
2623.55,0.169359
2624.88,0.169142
2626.21,0.168642
2627.54,0.168706
2628.87,0.169423
2630.21,0.168841
2631.54,0.169007
2632.88,0.169893
2634.21,0.169611
2635.55,0.169695
2636.89,0.169748
2638.24,0.169687
2639.58,0.169778
2640.92,0.169754
2642.27,0.169644
2643.62,0.169815
2644.97,0.169894
2646.32,0.169845
2647.67,0.17012
2649.02,0.170089
2650.38,0.169873
2651.73,0.169796
2653.09,0.169846
2654.45,0.170183
2655.81,0.16999
2657.17,0.170116
2658.53,0.170136
2659.89,0.169821
2661.26,0.169851
2662.63,0.170028
2664.0,0.169721
2665.36,0.169002
2666.74,0.16917
2668.11,0.169806
2669.48,0.169617
2670.86,0.168375
2672.23,0.16934
2673.61,0.169429
2674.99,0.168357
2676.37,0.167356
2677.76,0.167053
2679.14,0.166821
2680.52,0.166046
2681.91,0.165372
2683.3,0.163921
2684.69,0.162512
2686.08,0.160881
2687.47,0.15936
2688.87,0.157657
2690.26,0.155606
2691.66,0.15333
2693.06,0.150559
2694.46,0.147559
2695.86,0.145101
2697.26,0.142218
2698.66,0.138671
2700.07,0.134642
2701.48,0.130872
2702.89,0.127452
2704.3,0.12397
2705.71,0.120406
2707.12,0.117308
2708.53,0.114515
2709.95,0.112229
2711.37,0.110383
2712.79,0.109445
2714.21,0.108217
2715.63,0.106723
2717.05,0.104955
2718.48,0.10105
2719.9,0.093659
2721.33,0.088915
2722.76,0.093171
2724.19,0.098651
2725.62,0.102626
2727.06,0.105498
2728.49,0.106691
2729.93,0.10666
2731.37,0.104975
2732.81,0.10299
2734.25,0.104213
2735.69,0.107586
2737.14,0.110204
2738.58,0.110822
2740.03,0.111019
2741.48,0.112012
2742.93,0.112833
2744.38,0.112641
2745.83,0.112097
2747.29,0.11244
2748.75,0.113101
2750.2,0.113466
2751.66,0.113635
2753.13,0.113884
2754.59,0.113893
2756.05,0.113886
2757.52,0.115005
2758.99,0.11541
2760.46,0.115271
2761.93,0.115267
2763.4,0.11552
2764.87,0.115966
2766.35,0.116232
2767.82,0.116262
2769.3,0.116536
2770.78,0.11667
2772.26,0.117019
2773.75,0.117457
2775.23,0.11752
2776.72,0.117565
2778.21,0.117727
2779.7,0.118073
2781.19,0.118315
2782.68,0.118585
2784.18,0.118884
2785.67,0.119039
2787.17,0.119101
2788.67,0.119604
2790.17,0.120197
2791.67,0.120435
2793.18,0.120611
2794.68,0.12098
2796.19,0.121337
2797.7,0.121602
2799.21,0.121888
2800.72,0.122155
2802.24,0.122348
2803.75,0.122683
2805.27,0.123252
2806.79,0.123514
2808.31,0.123639
2809.83,0.123903
2811.35,0.124188
2812.88,0.124392
2814.41,0.124493
2815.93,0.124715
2817.46,0.125015
2819.0,0.125083
2820.53,0.125234
2822.07,0.125535
2823.6,0.12572
2825.14,0.125786
2826.68,0.12588
2828.22,0.126036
2829.77,0.126287
2831.31,0.126405
2832.86,0.126403
2834.41,0.126454
2835.96,0.126459
2837.51,0.126456
2839.07,0.126432
2840.62,0.126326
2842.18,0.126113
2843.74,0.125919
2845.3,0.125774
2846.86,0.125734
2848.43,0.125732
2849.99,0.125805
2851.56,0.125998
2853.13,0.126236
2854.7,0.126539
2856.27,0.126904
2857.85,0.127111
2859.42,0.127367
2861.0,0.127697
2862.58,0.127986
2864.16,0.128161
2865.75,0.12836
2867.33,0.128579
2868.92,0.128845
2870.51,0.129007
2872.1,0.129071
2873.69,0.129202
2875.28,0.129329
2876.88,0.129446
2878.48,0.129476
2880.07,0.129509
2881.68,0.129464
2883.28,0.129481
2884.88,0.12964
2886.49,0.129771
2888.1,0.129901
2889.71,0.130023
2891.32,0.130026
2892.93,0.130051
2894.55,0.130166
2896.16,0.130273
2897.78,0.13028
2899.4,0.13038
2901.03,0.130476
2902.65,0.130566
2904.28,0.130586
2905.91,0.130501
2907.54,0.130577
2909.17,0.130659
2910.8,0.130669
2912.44,0.130748
2914.07,0.130702
2915.71,0.130678
2917.35,0.130791
2918.99,0.13078
2920.64,0.130682
2922.29,0.130674
2923.93,0.130776
2925.58,0.1308
2927.24,0.130825
2928.89,0.130889
2930.55,0.130939
2932.2,0.130947
2933.86,0.130911
2935.52,0.130897
2937.19,0.130933
2938.85,0.130912
2940.52,0.130939
2942.19,0.131009
2943.86,0.131045
2945.53,0.131033
2947.21,0.131034
2948.88,0.131093
2950.56,0.131131
2952.24,0.131128
2953.92,0.131109
2955.61,0.131065
2957.29,0.13106
2958.98,0.131035
2960.67,0.13098
2962.36,0.131007
2964.06,0.130997
2965.75,0.131021
2967.45,0.131111
2969.15,0.131069
2970.85,0.131026
2972.55,0.131035
2974.26,0.131034
2975.97,0.130953
2977.68,0.130943
2979.39,0.130968
2981.1,0.131059
2982.82,0.131078
2984.53,0.130926
2986.25,0.130924
2987.97,0.131076
2989.7,0.131126
2991.42,0.1311
2993.15,0.131042
2994.88,0.131033
2996.61,0.131047
2998.34,0.131162
3000.08,0.131186
3001.82,0.131194
3003.55,0.131264
3005.3,0.131303
3007.04,0.131249
3008.78,0.131228
3010.53,0.131249
3012.28,0.131298
3014.03,0.1314
3015.79,0.131435
3017.54,0.13143
3019.3,0.131444
3021.06,0.131535
3022.82,0.13158
3024.58,0.131573
3026.35,0.131634
3028.12,0.131645
3029.89,0.131684
3031.66,0.131676
3033.43,0.131672
3035.21,0.131724
3036.99,0.131718
3038.77,0.131736
3040.55,0.131856
3042.33,0.131862
3044.12,0.131775
3045.91,0.131768
3047.7,0.131883
3049.49,0.132007
3051.29,0.131987
3053.08,0.13185
3054.88,0.131824
3056.68,0.131883
3058.49,0.13187
3060.29,0.131858
3062.1,0.131917
3063.91,0.131966
3065.72,0.131901
3067.54,0.13183
3069.35,0.131858
3071.17,0.131793
3072.99,0.131823
3074.81,0.13189
3076.64,0.131814
3078.47,0.13176
3080.29,0.131745
3082.13,0.131743
3083.96,0.131746
3085.79,0.131709
3087.63,0.13169
3089.47,0.131739
3091.31,0.131763
3093.16,0.131767
3095.01,0.131775
3096.85,0.131793
3098.71,0.131739
3100.56,0.131675
3102.41,0.131676
3104.27,0.13173
3106.13,0.131729
3107.99,0.13175
3109.86,0.131752
3111.73,0.131711
3113.59,0.13174
3115.47,0.131695
3117.34,0.131696
3119.21,0.131768
3121.09,0.131816
3122.97,0.131815
3124.86,0.131822
3126.74,0.131783
3128.63,0.131763
3130.52,0.1318
3132.41,0.131807
3134.3,0.131816
3136.2,0.131833
3138.1,0.131813
3140.0,0.131774
3141.9,0.131719
3143.81,0.131791
3145.71,0.131893
3147.62,0.131926
3149.54,0.131894
3151.45,0.131886
3153.37,0.131859
3155.29,0.131864
3157.21,0.131895
3159.13,0.131885
3161.06,0.131928
3162.99,0.131956
3164.92,0.131958
3166.85,0.131991
3168.79,0.132027
3170.72,0.132072
3172.67,0.132049
3174.61,0.131992
3176.55,0.132013
3178.5,0.132046
3180.45,0.132112
3182.4,0.132139
3184.36,0.132149
3186.32,0.132186
3188.27,0.132178
3190.24,0.132206
3192.2,0.132253
3194.17,0.132258
3196.14,0.132287
3198.11,0.13223
3200.08,0.132198
3202.06,0.132266
3204.04,0.132314
3206.02,0.132348
3208.0,0.132294
3209.99,0.132273
3211.98,0.132318
3213.97,0.132384
3215.96,0.132376
3217.96,0.132358
3219.96,0.13237
3221.96,0.132349
3223.96,0.132342
3225.97,0.132341
3227.98,0.132357
3229.99,0.132411
3232.0,0.132473
3234.02,0.1325
3236.04,0.132442
3238.06,0.132438
3240.08,0.132505
3242.11,0.132599
3244.14,0.132683
3246.17,0.13271
3248.2,0.132722
3250.24,0.13274
3252.28,0.132748
3254.32,0.132784
3256.37,0.132788
3258.41,0.132777
3260.46,0.132728
3262.51,0.132688
3264.57,0.132685
3266.63,0.132689
3268.69,0.132684
3270.75,0.132694
3272.81,0.132764
3274.88,0.132799
3276.95,0.132763
3279.02,0.132766
3281.1,0.132899
3283.18,0.133015
3285.26,0.133025
3287.34,0.133031
3289.43,0.13301
3291.51,0.133078
3293.61,0.13318
3295.7,0.133224
3297.8,0.133218
3299.9,0.133196
3302.0,0.133202
3304.1,0.133189
3306.21,0.13314
3308.32,0.133122
3310.43,0.133143
3312.55,0.133159
3314.66,0.133245
3316.79,0.133376
3318.91,0.133442
3321.03,0.133546
3323.16,0.133726
3325.29,0.133849
3327.43,0.133945
3329.57,0.13404
3331.71,0.13413
3333.85,0.134236
3335.99,0.134242
3338.14,0.134256
3340.29,0.134262
3342.45,0.134251
3344.6,0.134243
3346.76,0.134296
3348.92,0.134317
3351.09,0.134296
3353.26,0.134224
3355.43,0.134163
3357.6,0.134154
3359.78,0.134147
3361.96,0.134132
3364.14,0.134173
3366.32,0.134187
3368.51,0.134175
3370.7,0.134199
3372.89,0.134218
3375.09,0.134186
3377.29,0.134172
3379.49,0.134245
3381.69,0.13442
3383.9,0.134612
3386.11,0.134785
3388.32,0.13494
3390.54,0.135023
3392.76,0.135006
3394.98,0.134957
3397.21,0.13497
3399.43,0.13494
3401.66,0.13483
3403.9,0.134727
3406.13,0.134638
3408.37,0.134631
3410.61,0.134532
3412.86,0.134422
3415.11,0.134381
3417.36,0.134387
3419.61,0.134477
3421.87,0.134661
3424.13,0.134902
3426.39,0.13516
3428.66,0.135336
3430.93,0.135555
3433.2,0.135832
3435.48,0.136066
3437.76,0.136212
3440.04,0.136302
3442.32,0.136394
3444.61,0.136448
3446.9,0.136492
3449.19,0.136555
3451.49,0.136634
3453.79,0.136764
3456.09,0.136909
3458.4,0.13695
3460.7,0.136939
3463.02,0.136959
3465.33,0.136995
3467.65,0.137001
3469.97,0.136964
3472.29,0.136946
3474.62,0.136945
3476.95,0.137007
3479.29,0.137054
3481.62,0.137114
3483.96,0.137121
3486.3,0.137134
3488.65,0.137184
3491.0,0.137249
3493.35,0.137225
3495.71,0.137196
3498.07,0.13723
3500.43,0.137312
3502.79,0.137418
3505.16,0.137514
3507.53,0.137638
3509.91,0.137812
3512.29,0.137993
3514.67,0.138192
3517.05,0.138316
3519.44,0.138428
3521.83,0.138553
3524.23,0.13862
3526.62,0.138648
3529.02,0.138688
3531.43,0.138771
3533.83,0.138847
3536.24,0.138885
3538.66,0.138878
3541.08,0.138927
3543.5,0.138963
3545.92,0.138978
3548.35,0.139048
3550.78,0.139103
3553.21,0.139126
3555.65,0.139103
3558.09,0.139105
3560.53,0.139143
3562.98,0.139197
3565.43,0.13918
3567.88,0.13919
3570.34,0.139211
3572.8,0.139181
3575.27,0.139154
3577.73,0.139171
3580.2,0.139153
3582.68,0.139124
3585.16,0.139171
3587.64,0.139202
3590.12,0.13914
3592.61,0.139119
3595.1,0.139132
3597.6,0.13912
3600.09,0.139103
3602.6,0.13911
3605.1,0.139095
3607.61,0.139099
3610.12,0.139079
3612.64,0.138996
3615.16,0.138983
3617.68,0.139017
3620.21,0.139019
3622.74,0.139025
3625.27,0.139018
3627.81,0.139035
3630.35,0.139019
3632.89,0.138964
3635.44,0.138893
3637.99,0.138859
3640.54,0.138887
3643.1,0.138859
3645.66,0.138788
3648.23,0.138685
3650.8,0.138646
3653.37,0.138633
3655.95,0.138631
3658.53,0.138633
3661.11,0.138612
3663.7,0.13854
3666.29,0.138487
3668.89,0.138483
3671.48,0.138453
3674.09,0.138442
3676.69,0.138385
3679.3,0.138309
3681.91,0.138257
3684.53,0.138227
3687.15,0.138144
3689.78,0.138085
3692.4,0.138037
3695.04,0.137962
3697.67,0.137917
3700.31,0.137868
3702.95,0.137779
3705.6,0.137716
3708.25,0.137653
3710.91,0.137627
3713.56,0.137543
3716.23,0.137445
3718.89,0.137359
3721.56,0.137288
3724.23,0.137196
3726.91,0.137086
3729.59,0.136997
3732.28,0.136924
3734.97,0.136805
3737.66,0.136732
3740.36,0.136677
3743.06,0.136545
3745.76,0.136427
3748.47,0.13635
3751.18,0.136251
3753.9,0.136112
3756.62,0.136011
3759.34,0.135942
3762.07,0.135855
3764.8,0.135794
3767.54,0.135676
3770.28,0.135545
3773.02,0.135474
3775.77,0.135399
3778.52,0.135322
3781.28,0.135213
3784.04,0.135075
3786.8,0.134984
3789.57,0.13488
3792.34,0.134772
3795.12,0.134667
3797.9,0.134544
3800.69,0.134416
3803.47,0.134339
3806.27,0.134257
3809.06,0.13417
3811.86,0.134044
3814.67,0.133944
3817.48,0.133904
3820.29,0.133898
3823.11,0.133839
3825.93,0.133711
3828.76,0.133554
3831.59,0.133453
3834.42,0.133363
3837.26,0.133285
3840.1,0.133215
3842.95,0.133111
3845.8,0.132977
3848.65,0.132885
3851.51,0.132787
3854.38,0.132675
3857.24,0.132554
3860.12,0.132444
3862.99,0.132391
3865.87,0.132307
3868.76,0.132179
3871.65,0.132052
3874.54,0.131939
3877.44,0.131838
3880.34,0.131722
3883.25,0.131626
3886.16,0.131462
3889.07,0.131308
3891.99,0.131171
3894.92,0.131026
3897.85,0.130893
3900.78,0.130795
3903.72,0.130653
3906.66,0.130513
3909.6,0.130399
3912.55,0.130234
3915.51,0.130041
3918.47,0.129926
3921.43,0.12982
3924.4,0.129702
3927.38,0.129529
3930.35,0.129379
3933.33,0.129231
3936.32,0.129071
3939.31,0.12894
3942.31,0.128745
3945.31,0.128553
3948.31,0.128429
3951.32,0.128294
3954.34,0.128153
3957.35,0.128042
3960.38,0.127907
3963.41,0.127753
3966.44,0.127605
3969.48,0.127474
3972.52,0.127355
3975.56,0.127271
3978.61,0.127161
3981.67,0.127035
3984.73,0.126948
3987.8,0.126849
3990.87,0.12678
3993.94,0.126646
3997.02,0.126532
4000.1,0.126469
4003.19,0.12639
4006.29,0.126277
4009.39,0.126154
4012.49,0.126001
4015.6,0.125873
4018.71,0.125744
4021.83,0.125641
4024.95,0.125543
4028.08,0.125444
4031.21,0.125299
4034.35,0.125154
4037.49,0.125009
4040.64,0.124873
4043.79,0.124749
4046.94,0.124651
4050.11,0.124521
4053.27,0.124352
4056.44,0.124189
4059.62,0.124066
4062.8,0.123905
4065.99,0.123757
4069.18,0.123613
4072.38,0.123503
4075.58,0.123354
4078.78,0.123195
4082.0,0.123053
4085.21,0.122893
4088.43,0.122731
4091.66,0.122585
4094.89,0.122444
4098.13,0.122279
4101.37,0.122154
4104.62,0.122031
4107.87,0.121873
4111.13,0.121721
4114.39,0.121535
4117.66,0.121367
4120.93,0.121211
4124.21,0.121076
4127.5,0.120955
4130.79,0.120859
4134.08,0.120742
4137.38,0.120607
4140.68,0.120451
4143.99,0.120319
4147.31,0.120195
4150.63,0.120039
4153.95,0.119888
4157.29,0.119791
4160.62,0.119662
4163.96,0.119512
4167.31,0.119378
4170.66,0.119268
4174.02,0.119128
4177.39,0.119007
4180.75,0.118891
4184.13,0.118777
4187.51,0.118623
4190.89,0.118503
4194.28,0.118396
4197.68,0.11828
4201.08,0.118168
4204.49,0.118028
4207.9,0.117871
4211.32,0.117736
4214.74,0.117614
4218.17,0.117522
4221.61,0.117435
4225.05,0.117316
4228.5,0.117224
4231.95,0.117154
4235.4,0.117047
4238.87,0.11701
4242.34,0.116958
4245.81,0.11686
4249.29,0.11674
4252.78,0.116669
4256.27,0.116549
4259.77,0.116276
4263.27,0.115989
4266.78,0.11586
4270.29,0.115793
4273.81,0.115782
4277.34,0.115725
4280.87,0.115556
4284.41,0.11543
4287.95,0.115386
4291.5,0.115311
4295.06,0.115196
4298.62,0.115063
4302.19,0.114977
4305.76,0.114913
4309.34,0.114823
4312.92,0.114713
4316.52,0.114645
4320.11,0.114524
4323.72,0.11442
4327.32,0.114355
4330.94,0.114279
4334.56,0.114199
4338.19,0.114112
4341.82,0.114027
4345.46,0.113953
4349.11,0.113902
4352.76,0.11385
4356.42,0.11376
4360.08,0.113665
4363.75,0.113623
4367.43,0.113605
4371.11,0.113555
4374.8,0.113478
4378.49,0.11341
4382.19,0.113378
4385.9,0.113309
4389.61,0.113211
4393.33,0.113149
4397.06,0.113097
4400.79,0.113028
4404.53,0.113003
4408.28,0.112927
4412.03,0.112853
4415.79,0.112773
4419.55,0.112722
4423.32,0.112657
4427.1,0.112602
4430.88,0.112526
4434.68,0.112472
4438.47,0.112393
4442.28,0.112325
4446.08,0.112276
4449.9,0.112206
4453.72,0.112151
4457.55,0.112106
4461.39,0.112005
4465.23,0.111895
4469.08,0.111796
4472.94,0.111755
4476.8,0.111697
4480.67,0.111638
4484.55,0.111568
4488.43,0.11147
4492.32,0.111339
4496.21,0.111257
4500.12,0.11116
4504.03,0.111017
4507.94,0.110857
4511.87,0.110671
4515.8,0.110444
4519.73,0.110231
4523.68,0.109988
4527.63,0.10971
4531.59,0.109356
4535.55,0.108924
4539.52,0.108455
4543.5,0.108034
4547.49,0.107578
4551.48,0.107111
4555.48,0.106642
4559.49,0.106171
4563.5,0.105687
4567.52,0.105183
4571.55,0.104613
4575.58,0.104055
4579.63,0.103466
4583.67,0.102808
4587.73,0.10217
4591.79,0.101535
4595.86,0.100875
4599.94,0.100179
4604.03,0.099422
4608.12,0.098646
4612.22,0.097817
4616.33,0.096983
4620.44,0.096169
4624.56,0.095346
4628.69,0.094523
4632.83,0.093737
4636.97,0.092964
4641.12,0.092213
4645.28,0.091487
4649.45,0.090772
4653.62,0.090057
4657.8,0.089394
4661.99,0.088768
4666.19,0.08814
4670.39,0.087549
4674.6,0.087104
4678.82,0.086723
4683.05,0.086329
4687.28,0.085998
4691.52,0.085701
4695.77,0.085385
4700.03,0.085109
4704.3,0.084839
4708.57,0.08454
4712.85,0.084251
4717.14,0.083964
4721.43,0.083641
4725.74,0.083357
4730.05,0.083029
4734.37,0.082661
4738.7,0.082244
4743.03,0.081779
4747.38,0.081259
4751.73,0.080697
4756.09,0.080111
4760.45,0.079456
4764.83,0.078786
4769.21,0.07815
4773.6,0.077468
4778.0,0.076787
4782.41,0.076112
4786.83,0.075428
4791.25,0.074712
4795.68,0.07398
4800.13,0.073297
4804.57,0.072649
4809.03,0.071988
4813.5,0.071366
4817.97,0.07081
4822.45,0.070264
4826.94,0.069776
4831.44,0.0694
4835.95,0.06908
4840.46,0.068782
4844.99,0.068602
4849.52,0.068498
4854.06,0.068432
4858.61,0.068408
4863.17,0.068375
4867.73,0.068406
4872.31,0.068464
4876.89,0.068537
4881.48,0.06863
4886.08,0.068736
4890.69,0.068831
4895.31,0.068928
4899.94,0.069007
4904.57,0.069092
4909.22,0.069154
4913.87,0.069193
4918.53,0.069259
4923.21,0.069315
4927.88,0.069312
4932.57,0.069308
4937.27,0.069309
4941.98,0.069248
4946.69,0.069229
4951.42,0.069208
4956.15,0.069137
4960.9,0.069024
4965.65,0.068891
4970.41,0.06879
4975.18,0.068685
4979.96,0.068552
4984.75,0.068388
4989.54,0.068235
4994.35,0.068039
4999.17,0.067814
5003.99,0.067577
5008.83,0.067275
5013.67,0.066938
5018.52,0.066628
5023.39,0.066286
5028.26,0.065874
5033.14,0.065406
5038.03,0.064895
5042.93,0.064336
5047.84,0.063775
5052.76,0.063231
5057.69,0.062642
5062.63,0.062027
5067.58,0.061431
5072.54,0.060827
5077.51,0.060227
5082.49,0.059652
5087.47,0.059083
5092.47,0.058539
5097.48,0.057979
5102.5,0.057435
5107.52,0.056928
5112.56,0.056403
5117.61,0.055875
5122.66,0.055366
5127.73,0.054885
5132.81,0.05443
5137.89,0.054017
5142.99,0.053676
5148.1,0.053429
5153.22,0.053352
5158.34,0.053429
5163.48,0.053635
5168.63,0.053968
5173.79,0.054384
5178.96,0.054908
5184.13,0.055576
5189.32,0.056288
5194.52,0.056977
5199.73,0.057708
5204.96,0.058437
5210.19,0.059117
5215.43,0.059747
5220.68,0.060467
5225.94,0.061092
5231.22,0.061595
5236.5,0.062055
5241.79,0.06251
5247.1,0.062959
5252.42,0.063352
5257.74,0.063762
5263.08,0.06418
5268.43,0.064577
5273.79,0.065061
5279.16,0.065588
5284.54,0.066182
5289.93,0.06682
5295.34,0.067523
5300.75,0.06822
5306.18,0.068803
5311.61,0.069399
5317.06,0.069925
5322.52,0.070367
5327.99,0.070728
5333.47,0.070965
5338.96,0.071158
5344.47,0.071286
5349.98,0.071328
5355.51,0.071359
5361.05,0.071288
5366.6,0.071135
5372.16,0.070961
5377.73,0.07064
5383.32,0.070212
5388.91,0.069784
5394.52,0.069274
5400.14,0.068693
5405.77,0.068136
5411.41,0.067574
5417.07,0.067012
5422.74,0.066463
5428.41,0.066072
5434.1,0.065732
5439.81,0.065381
5445.52,0.065173
5451.25,0.065032
5456.98,0.064905
5462.73,0.064836
5468.5,0.064904
5474.27,0.065046
5480.06,0.065145
5485.86,0.065372
5491.67,0.065643
5497.49,0.065932
5503.33,0.066306
5509.18,0.0667
5515.04,0.067069
5520.91,0.067421
5526.8,0.06772
5532.69,0.067894
5538.61,0.067921
5544.53,0.067782
5550.47,0.067459
5556.41,0.066981
5562.38,0.066361
5568.35,0.065607
5574.34,0.064814
5580.34,0.064108
5586.35,0.063563
5592.38,0.063122
5598.42,0.062694
5604.47,0.062352
5610.54,0.062158
5616.61,0.061902
5622.71,0.06171
5628.81,0.061576
5634.93,0.061414
5641.06,0.061194
5647.21,0.061052
5653.36,0.060956
5659.54,0.060736
5665.72,0.060632
5671.92,0.060481
5678.13,0.060318
5684.36,0.060233
5690.6,0.060112
5696.85,0.06
5703.12,0.059931
5709.4,0.059726
5715.69,0.059581
5722.0,0.059489
5728.33,0.059303
5734.66,0.059081
5741.01,0.058841
5747.38,0.058595
5753.76,0.058441
5760.15,0.058349
5766.56,0.058119
5772.98,0.05819
5779.41,0.05828
5785.86,0.058182
5792.33,0.058182
5798.81,0.058187
5805.3,0.058201
5811.81,0.058227
5818.33,0.058125
5824.87,0.058067
5831.42,0.058239
5837.99,0.058237
5844.57,0.058183
5851.17,0.058187
5857.78,0.058212
5864.41,0.058287
5871.05,0.058398
5877.7,0.058353
5884.38,0.058283
5891.06,0.05841
5897.76,0.058074
5904.48,0.057838
5911.21,0.057484
5917.96,0.056814
5924.73,0.056122
5931.5,0.055291
5938.3,0.054389
5945.11,0.053521
5951.93,0.052485
5958.78,0.051266
5965.63,0.050076
5972.51,0.048873
5979.39,0.047828
5986.3,0.046806
5993.22,0.045937
6000.16,0.045246
6007.11,0.044711
6014.08,0.044281
6021.06,0.04408
6028.06,0.043923
6035.08,0.043817
6042.12,0.043744
6049.17,0.043682
6056.23,0.043944
6063.32,0.044187
6070.42,0.044101
6077.53,0.044219
6084.67,0.044429
6091.82,0.044525
6098.98,0.04455
6106.17,0.044565
6113.37,0.044518
6120.58,0.044566
6127.82,0.044482
6135.07,0.04426
6142.34,0.043978
6149.63,0.043625
6156.93,0.043245
6164.25,0.042844
6171.59,0.042405
6178.95,0.041919
6186.32,0.041444
6193.71,0.041136
6201.12,0.040872
6208.54,0.040619
6215.99,0.040466
6223.45,0.040419
6230.93,0.040473
6238.43,0.040558
6245.95,0.040627
6253.48,0.040712
6261.03,0.040748
6268.6,0.040734
6276.19,0.040709
6283.8,0.040674
6291.43,0.040627
6299.07,0.040596
6306.73,0.040583
6314.42,0.040622
6322.12,0.040748
6329.84,0.040963
6337.57,0.041266
6345.33,0.041577
6353.11,0.042153
6360.9,0.042696
6368.72,0.043135
6376.55,0.04376
6384.4,0.044438
6392.27,0.044969
6400.17,0.045533
6408.08,0.045966
6416.01,0.046316
6423.96,0.046988
6431.93,0.047385
6439.92,0.047557
6447.93,0.047764
6455.96,0.047867
6464.01,0.048034
6472.08,0.048135
6480.17,0.048234
6488.28,0.048273
6496.41,0.048371
6504.56,0.04853
6512.73,0.048542
6520.92,0.04837
6529.14,0.048332
6537.37,0.048176
6545.63,0.047866
6553.9,0.047527
6562.2,0.047195
6570.51,0.046728
6578.85,0.046237
6587.21,0.04585
6595.59,0.045448
6603.99,0.045143
6612.42,0.044846
6620.86,0.044652
6629.33,0.044546
6637.82,0.04445
6646.33,0.044614
6654.86,0.04486
6663.41,0.044962
6671.99,0.045145
6680.59,0.045394
6689.21,0.04572
6697.85,0.045997
6706.51,0.046063
6715.2,0.046153
6723.91,0.046274
6732.64,0.046369
6741.4,0.046396
6750.18,0.046395
6758.98,0.046417
6767.8,0.046398
6776.65,0.046334
6785.52,0.046304
6794.41,0.046285
6803.33,0.046305
6812.27,0.046241
6821.23,0.046124
6830.22,0.045994
6839.23,0.045955
6848.26,0.045874
6857.32,0.045681
6866.4,0.045451
6875.51,0.045403
6884.64,0.045311
6893.8,0.045173
6902.98,0.045028
6912.18,0.044844
6921.41,0.044702
6930.66,0.044487
6939.94,0.04429
6949.24,0.044131
6958.57,0.043973
6967.92,0.043876
6977.3,0.043832
6986.7,0.043677
6996.13,0.043586
7005.59,0.043517
7015.07,0.043445
7024.57,0.043343
7034.1,0.043306
7043.66,0.043213
7053.25,0.043228
7062.85,0.043301
7072.49,0.043242
7082.15,0.043175
7091.84,0.043105
7101.55,0.043059
7111.3,0.043008
7121.06,0.042864
7130.86,0.042686
7140.68,0.042474
7150.53,0.042236
7160.41,0.041989
7170.31,0.041688
7180.24,0.041446
7190.2,0.041199
7200.19,0.040927
7210.2,0.040707
7220.24,0.040485
7230.31,0.040236
7240.41,0.039959
7250.54,0.039677
7260.69,0.039383
7270.88,0.039063
7281.09,0.03873
7291.33,0.038445
7301.6,0.038097
7311.9,0.037733
7322.22,0.037374
7332.58,0.036995
7342.97,0.036583
7353.38,0.036152
7363.83,0.035701
7374.3,0.035241
7384.81,0.034738
7395.34,0.034326
7405.91,0.034041
7416.5,0.033902
7427.13,0.033874
7437.78,0.033921
7448.47,0.033941
7459.19,0.033842
7469.94,0.033632
7480.71,0.033399
7491.52,0.033071
7502.37,0.032675
7513.24,0.032315
7524.14,0.032079
7535.08,0.031903
7546.05,0.031776
7557.05,0.031677
7568.08,0.03152
7579.15,0.031284
7590.24,0.031032
7601.37,0.03077
7612.53,0.030556
7623.73,0.030298
7634.96,0.030025
7646.22,0.029744
7657.51,0.029443
7668.84,0.029144
7680.2,0.028842
7691.59,0.028461
7703.02,0.028057
7714.49,0.027622
7725.98,0.027212
7737.52,0.026812
7749.08,0.026396
7760.68,0.026006
7772.32,0.025604
7783.99,0.025201
7795.69,0.024876
7807.43,0.024559
7819.21,0.024209
7831.02,0.023799
7842.87,0.023379
7854.75,0.022956
7866.67,0.022476
7878.62,0.021978
7890.62,0.021523
7902.64,0.021054
7914.71,0.020595
7926.81,0.020113
7938.95,0.019615
7951.13,0.019132
7963.34,0.01865
7975.59,0.01812
7987.88,0.017636
8000.21,0.017132
8012.57,0.016609
8024.98,0.01611
8037.42,0.015685
8049.9,0.015216
8062.42,0.014692
8074.98,0.014176
8087.57,0.013711
8100.21,0.013212
8112.89,0.012661
8125.6,0.012102
8138.36,0.011583
8151.16,0.011006
8163.99,0.010461
8176.87,0.009928
8189.79,0.00943
8202.75,0.008909
8215.75,0.008386
8228.79,0.007888
8241.87,0.007429
8254.99,0.006979
8268.16,0.006554
8281.37,0.006166
8294.62,0.005821
8307.91,0.005493
8321.24,0.005196
8334.62,0.004908
8348.04,0.004714
8361.51,0.004537
8375.02,0.004396
8388.57,0.004365
8402.16,0.004446
8415.8,0.004645
8429.49,0.005077
8443.22,0.005758
8456.99,0.006867
8470.81,0.00851
8484.67,0.010677
8498.58,0.013533
8512.54,0.01719
8526.54,0.021626
8540.58,0.026857
8554.68,0.032822
8568.82,0.039435
8583.0,0.046562
8597.24,0.054115
8611.52,0.061964
8625.85,0.069876
8640.23,0.077661
8654.65,0.08518
8669.12,0.092255
8683.64,0.098551
8698.21,0.103756
8712.83,0.107183
8727.5,0.107816
8742.22,0.104794
8756.99,0.099328
8771.8,0.095608
8786.67,0.097261
8801.59,0.102798
8816.56,0.108049
8831.58,0.110271
8846.65,0.109145
8861.77,0.105661
8876.94,0.1012
8892.17,0.096637
8907.45,0.092776
8922.78,0.09032
8938.16,0.089357
8953.6,0.089162
8969.09,0.089175
8984.64,0.08907
9000.23,0.088741
9015.89,0.088379
9031.59,0.088074
9047.36,0.087706
9063.17,0.087368
9079.05,0.086983
9094.97,0.086606
9110.96,0.086296
9127.0,0.086041
9143.1,0.085836
9159.25,0.085755
9175.46,0.085738
9191.73,0.085897
9208.06,0.086149
9224.44,0.086521
9240.88,0.08701
9257.38,0.087621
9273.94,0.088292
9290.56,0.089105
9307.24,0.090028
9323.98,0.090951
9340.78,0.0918
9357.64,0.092581
9374.57,0.093181
9391.55,0.093652
9408.59,0.093873
9425.7,0.093716
9442.87,0.09316
9460.1,0.092257
9477.4,0.090959
9494.75,0.089371
9512.17,0.087471
9529.66,0.085258
9547.21,0.08272
9564.83,0.079823
9582.5,0.076492
9600.25,0.072717
9618.06,0.068566
9635.94,0.064211
9653.88,0.059858
9671.89,0.055669
9689.97,0.051995
9708.12,0.048938
9726.33,0.04652
9744.62,0.044829
9762.97,0.043921
9781.39,0.043932
9799.88,0.04492
9818.44,0.046809
9837.07,0.049362
9855.77,0.052179
9874.54,0.054807
9893.39,0.05693
9912.3,0.058422
9931.29,0.058969
9950.36,0.058496
9969.49,0.057185
9988.7,0.055507
10007.98,0.054034
10027.34,0.053375
10046.77,0.054071
10066.28,0.055972
10085.87,0.058464
10105.53,0.060803
10125.26,0.063277
10145.08,0.066806
10164.97,0.071247
10184.94,0.075531
10204.99,0.078609
10225.12,0.079795
10245.33,0.078959
10265.61,0.07637
10285.98,0.072423
10306.43,0.067898
10326.96,0.064259
10347.57,0.06251
10368.27,0.062788
10389.05,0.06422
10409.91,0.065701
10430.86,0.06665
10451.88,0.066936
10473.0,0.066511
10494.2,0.065557
10515.49,0.06429
10536.86,0.062838
10558.32,0.061393
10579.87,0.060108
10601.5,0.059093
10623.23,0.058522
10645.04,0.058372
10666.94,0.058744
10688.94,0.059612
10711.02,0.060754
10733.2,0.061842
10755.47,0.062593
10777.83,0.062724
10800.28,0.061947
10822.83,0.060186
10845.47,0.057611
10868.21,0.05443
10891.04,0.050717
10913.97,0.046654
10936.99,0.042832
10960.12,0.039748
10983.34,0.03781
11006.66,0.037233
11030.07,0.037809
11053.59,0.039074
11077.21,0.040431
11100.93,0.041296
11124.75,0.041561
11148.68,0.041668
11172.71,0.04216
11196.84,0.043653
11221.07,0.046563
11245.41,0.05051
11269.86,0.054536
11294.41,0.05787
11319.07,0.060126
11343.84,0.061316
11368.72,0.061802
11393.7,0.06175
11418.8,0.061237
11444.01,0.060502
11469.33,0.059551
11494.76,0.058427
11520.3,0.057263
11545.96,0.05605
11571.73,0.054795
11597.62,0.053558
11623.62,0.052378
11649.74,0.0512
11675.98,0.049893
11702.34,0.048434
11728.81,0.046778
11755.41,0.044953
11782.13,0.043127
11808.96,0.041484
11835.92,0.040155
11863.01,0.039048
11890.22,0.038057
11917.55,0.037254
11945.01,0.036565
11972.6,0.03584
12000.31,0.035152
12028.16,0.034623
12056.13,0.034164
12084.23,0.033755
12112.46,0.033454
12140.83,0.033179
12169.33,0.032794
12197.96,0.032418
12226.73,0.032103
12255.64,0.03191
12284.68,0.031688
12313.86,0.031463
12343.18,0.031248
12372.64,0.031031
12402.24,0.030789
12431.98,0.030528
12461.86,0.030349
12491.89,0.030258
12522.07,0.03012
12552.38,0.029999
12582.85,0.029839
12613.47,0.029646
12644.23,0.029423
12675.15,0.029145
12706.21,0.028956
12737.43,0.028772
12768.81,0.028527
12800.33,0.028348
12832.02,0.028146
12863.86,0.027901
12895.86,0.027765
12928.02,0.027665
12960.34,0.027463
12992.82,0.027172
13025.46,0.026821
13058.27,0.026473
13091.25,0.026071
13124.39,0.025657
13157.7,0.025208
13191.18,0.024796
13224.83,0.024322
13258.66,0.023771
13292.65,0.023043
13326.83,0.022235
13361.17,0.021393
13395.7,0.020679
13430.4,0.020371
13465.29,0.0205
13500.35,0.020597
13535.6,0.020411
13571.03,0.019936
13606.65,0.019373
13642.46,0.019029
13678.46,0.019054
13714.64,0.019753
13751.02,0.021122
13787.59,0.022289
13824.36,0.02263
13861.32,0.022348
13898.49,0.021827
13935.85,0.021313
13973.41,0.020879
14011.17,0.020366
14049.15,0.019783
14087.32,0.019395
14125.71,0.018949
14164.3,0.018608
14203.11,0.018476
14242.13,0.018648
14281.36,0.019206
14320.81,0.020333
14360.49,0.0221
14400.38,0.024043
14440.49,0.025662
14480.82,0.02656
14521.39,0.026414
14562.18,0.025449
14603.2,0.024072
14644.45,0.022633
14685.93,0.021363
14727.66,0.02036
14769.62,0.019669
14811.81,0.019263
14854.25,0.018783
14896.94,0.018232
14939.87,0.017628
14983.05,0.016827
15026.48,0.015927
15070.16,0.01499
15114.1,0.014371
15158.29,0.014149
15202.74,0.01464
15247.46,0.015999
15292.43,0.01792
15337.68,0.019884
15383.19,0.021272
15428.97,0.021863
15475.03,0.021889
15521.36,0.021462
15567.97,0.020779
15614.87,0.019977
15662.04,0.019113
15709.5,0.018336
15757.25,0.017877
15805.29,0.017642
15853.62,0.017739
15902.26,0.018332
15951.19,0.019453
16000.42,0.021141
16049.95,0.023528
16099.8,0.026552
16149.95,0.030156
16200.42,0.033962
16251.21,0.037672
16302.31,0.041231
16353.74,0.044622
16405.49,0.04763
16457.57,0.050102
16509.98,0.052207
16562.73,0.05398
16615.82,0.055387
16669.24,0.056822
16723.02,0.058236
16777.14,0.059556
16831.61,0.060955
16886.43,0.062679
16941.62,0.064613
16997.16,0.066809
17053.08,0.069285
17109.36,0.071872
17166.01,0.074543
17223.04,0.07707
17280.45,0.079115
17338.24,0.08052
17396.43,0.080997
17455.0,0.08024
17513.97,0.078451
17573.34,0.076284
17633.11,0.074256
17693.29,0.072788
17753.89,0.071601
17814.9,0.071047
17876.33,0.071448
17938.18,0.072062
18000.47,0.07243
18063.19,0.072605
18126.35,0.073468
18189.95,0.075536
18254.0,0.077775
18318.5,0.078813
18383.46,0.07797
18448.88,0.075675
18514.77,0.072625
18581.13,0.069968
18647.97,0.068688
18715.29,0.068893
18783.1,0.069039
18851.4,0.068262
18920.2,0.067826
18989.51,0.069618
19059.32,0.073774
19129.65,0.079131
19200.5,0.084404
19271.88,0.088569
19343.79,0.091196
19416.24,0.092458
19489.23,0.092349
19562.77,0.091467
19636.88,0.090055
19711.54,0.08856
19786.78,0.086974
19862.59,0.085166
19938.98,0.083333
20015.96,0.081079
20093.55,0.078339
20171.73,0.075366
20250.53,0.072168
20329.94,0.068876
20409.98,0.065516
20490.65,0.062585
20571.96,0.059779
20653.92,0.056956
20736.54,0.05452
20819.82,0.052382
20903.77,0.049997
20988.4,0.047379
21073.72,0.0451
21159.73,0.043527
21246.46,0.043441
21333.89,0.045506
21422.04,0.048134
21510.93,0.050768
21600.56,0.053986
21690.94,0.058271
21782.08,0.062888
21873.99,0.067029
21966.67,0.069918
22060.15,0.071312
22154.42,0.071664
22249.51,0.071356
22345.41,0.07018
22442.14,0.068355
22539.72,0.065439
22638.14,0.061527
22737.43,0.056802
22837.6,0.052604
22938.65,0.04912
23040.6,0.046601
23143.46,0.045547
23247.24,0.04552
23351.96,0.045022
23457.63,0.042982
23564.25,0.040445
23671.85,0.039114
23780.44,0.038394
23890.02,0.037267
24000.63,0.036273
24112.26,0.035863
24224.93,0.035944
24338.66,0.036591
24453.47,0.037129
24569.36,0.039321
24686.36,0.043139
24804.47,0.045719
24923.73,0.048412
25044.13,0.051575
25165.71,0.053379
25288.46,0.052768
25412.43,0.051752
25537.61,0.051224
25664.04,0.049774
25791.72,0.046727
25920.68,0.044306
