Database of Origin,University of Winnipeg Spectrophotometer Facility
Sample Description,RELAB plus Nicolet merged data for Olivines. See Master Olivines in PSF sample database for additional information.
Date Added,2017-07-03 06:07:37.615425

Data ID,RLA_OLV_02          
Sample ID,OLV107
Mineral Name,Olivine
Grain Size,<45
Viewing Geometry,"30/0,30"
Resolution,5/1.2-129
Material Class,Nesosilicate

Wavelength
8.0,0.45
30.0,0.3
300.0,0.136756
305.0,0.147289
310.0,0.155214
315.0,0.16673
320.0,0.17748
325.0,0.189484
330.0,0.200863
335.0,0.213757
340.0,0.226674
345.0,0.236102
350.0,0.24653
355.0,0.257692
360.0,0.266488
365.0,0.275421
370.0,0.284856
375.0,0.292411
380.0,0.301165
385.0,0.308534
390.0,0.317108
395.0,0.325202
400.0,0.331429
405.0,0.33701
410.0,0.348771
415.0,0.352751
420.0,0.35905
425.0,0.364156
430.0,0.369849
435.0,0.376238
440.0,0.382767
445.0,0.38834
450.0,0.39201
455.0,0.395566
460.0,0.401197
465.0,0.406576
470.0,0.410001
475.0,0.414322
480.0,0.420187
485.0,0.425366
490.0,0.428196
495.0,0.43294
500.0,0.438651
505.0,0.444509
510.0,0.449084
515.0,0.453986
520.0,0.458443
525.0,0.464101
530.0,0.468486
535.0,0.472402
540.0,0.473873
545.0,0.476419
550.0,0.479067
555.0,0.480069
560.0,0.482875
565.0,0.485277
570.0,0.487277
575.0,0.489199
580.0,0.490913
585.0,0.491175
590.0,0.492982
595.0,0.494703
600.0,0.495129
605.0,0.495989
610.0,0.496187
615.0,0.497082
620.0,0.495861
625.0,0.496326
630.0,0.496191
635.0,0.498544
640.0,0.499856
645.0,0.501824
650.0,0.503114
655.0,0.504405
660.0,0.505561
665.0,0.505631
670.0,0.505851
675.0,0.505728
680.0,0.508485
685.0,0.511664
690.0,0.511073
695.0,0.510193
700.0,0.511785
705.0,0.513695
710.0,0.514109
715.0,0.513602
720.0,0.514275
725.0,0.513672
730.0,0.514203
735.0,0.514638
740.0,0.51467
745.0,0.514098
750.0,0.513017
755.0,0.514329
760.0,0.50914
765.0,0.512314
770.0,0.513896
775.0,0.512557
780.0,0.510365
785.0,0.51076
790.0,0.509965
795.0,0.509017
800.0,0.515
805.0,0.511577
810.0,0.510644
815.0,0.509298
820.0,0.509202
825.0,0.508595
830.0,0.507512
835.0,0.505792
840.0,0.505204
845.0,0.50477
850.0,0.502857
855.0,0.498609
860.0,0.496639
865.0,0.4951
870.0,0.493518
875.0,0.492598
880.0,0.491531
885.0,0.490658
890.0,0.488606
895.0,0.487744
900.0,0.485536
905.0,0.484836
910.0,0.48351
915.0,0.480639
920.0,0.48036
925.0,0.477959
930.0,0.475913
935.0,0.473557
940.0,0.471052
945.0,0.470287
950.0,0.467871
955.0,0.463411
960.0,0.462788
965.0,0.459101
970.0,0.455522
975.0,0.452948
980.0,0.449493
985.0,0.449258
990.0,0.444442
995.0,0.442145
1000.0,0.438039
1005.0,0.435929
1010.0,0.434671
1015.0,0.431707
1020.0,0.43082
1025.0,0.42833
1030.0,0.427675
1035.0,0.427651
1040.0,0.425448
1045.0,0.425799
1050.0,0.424903
1055.0,0.424572
1060.0,0.425638
1065.0,0.426708
1070.0,0.426837
1075.0,0.426271
1080.0,0.429537
1085.0,0.430866
1090.0,0.433153
1095.0,0.434108
1100.0,0.438413
1105.0,0.43991
1110.0,0.440952
1115.0,0.443931
1120.0,0.444934
1125.0,0.448586
1130.0,0.450356
1135.0,0.452046
1140.0,0.455268
1145.0,0.456759
1150.0,0.457817
1155.0,0.459898
1160.0,0.460168
1165.0,0.463358
1170.0,0.464985
1175.0,0.465762
1180.0,0.465644
1185.0,0.468597
1190.0,0.468209
1195.0,0.470255
1200.0,0.471203
1205.0,0.471635
1210.0,0.47186
1215.0,0.475811
1220.0,0.474708
1225.0,0.47641
1230.0,0.477855
1235.0,0.479099
1240.0,0.479373
1245.0,0.478826
1250.0,0.481335
1255.0,0.480944
1260.0,0.48218
1265.0,0.484855
1270.0,0.48525
1275.0,0.488514
1280.0,0.487346
1285.0,0.490674
1290.0,0.490781
1295.0,0.492486
1300.0,0.494645
1305.0,0.496271
1310.0,0.49726
1315.0,0.498895
1320.0,0.501667
1325.0,0.502923
1330.0,0.505313
1335.0,0.506413
1340.0,0.509664
1345.0,0.510407
1350.0,0.511222
1355.0,0.51212
1360.0,0.513132
1365.0,0.51648
1370.0,0.518849
1375.0,0.520265
1380.0,0.522314
1385.0,0.524745
1390.0,0.527265
1395.0,0.527832
1400.0,0.528194
1405.0,0.530288
1410.0,0.534808
1415.0,0.535573
1420.0,0.537694
1425.0,0.540402
1430.0,0.541856
1435.0,0.54297
1440.0,0.544823
1445.0,0.547174
1450.0,0.547631
1455.0,0.549553
1460.0,0.552108
1465.0,0.552526
1470.0,0.554406
1475.0,0.55586
1480.0,0.55736
1485.0,0.559785
1490.0,0.561298
1495.0,0.562596
1500.0,0.564825
1505.0,0.565049
1510.0,0.566362
1515.0,0.567456
1520.0,0.568962
1525.0,0.570052
1530.0,0.570179
1535.0,0.571876
1540.0,0.572975
1545.0,0.574069
1550.0,0.574606
1555.0,0.575751
1560.0,0.576522
1565.0,0.577845
1570.0,0.578837
1575.0,0.579811
1580.0,0.580947
1585.0,0.582096
1590.0,0.581564
1595.0,0.583475
1600.0,0.583271
1605.0,0.584477
1610.0,0.584554
1615.0,0.586692
1620.0,0.584685
1625.0,0.586419
1630.0,0.585739
1635.0,0.587364
1640.0,0.586934
1645.0,0.587737
1650.0,0.588492
1655.0,0.587761
1660.0,0.590582
1665.0,0.589924
1670.0,0.590606
1675.0,0.590417
1680.0,0.590791
1685.0,0.592339
1690.0,0.59206
1695.0,0.59343
1700.0,0.592766
1705.0,0.59343
1710.0,0.594545
1715.0,0.593741
1720.0,0.594404
1725.0,0.594588
1730.0,0.59434
1735.0,0.593942
1740.0,0.594092
1745.0,0.59488
1750.0,0.595638
1755.0,0.59494
1760.0,0.595302
1765.0,0.595276
1770.0,0.595592
1775.0,0.595593
1780.0,0.595686
1785.0,0.595909
1790.0,0.595887
1795.0,0.596363
1800.0,0.596175
1805.0,0.596533
1810.0,0.597132
1815.0,0.595689
1820.0,0.595882
1825.0,0.596514
1830.0,0.595397
1835.0,0.596084
1840.0,0.597663
1845.0,0.598624
1850.0,0.597266
1855.0,0.598214
1860.0,0.597315
1865.0,0.598306
1870.0,0.597741
1875.0,0.597771
1880.0,0.598668
1885.0,0.595839
1890.0,0.595098
1895.0,0.596036
1900.0,0.594011
1905.0,0.593284
1910.0,0.595788
1915.0,0.594136
1920.0,0.594485
1925.0,0.595793
1930.0,0.59525
1935.0,0.595898
1940.0,0.595301
1945.0,0.595961
1950.0,0.595726
1955.0,0.595894
1960.0,0.595584
1965.0,0.596435
1970.0,0.59694
1975.0,0.596945
1980.0,0.597366
1985.0,0.59748
1990.0,0.597792
1995.0,0.598681
2000.0,0.599795
2005.0,0.598538
2010.0,0.600954
2015.0,0.599749
2020.0,0.600154
2025.0,0.60003
2030.0,0.602797
2035.0,0.601767
2040.0,0.601462
2045.0,0.604201
2050.0,0.60376
2055.0,0.603635
2060.0,0.604296
2065.0,0.604094
2070.0,0.606344
2075.0,0.605817
2080.0,0.605092
2085.0,0.606482
2090.0,0.607219
2095.0,0.606402
2100.0,0.608044
2105.0,0.609141
2110.0,0.608353
2115.0,0.609419
2120.0,0.609191
2125.0,0.610514
2130.0,0.610389
2135.0,0.611026
2140.0,0.610233
2145.0,0.611127
2150.0,0.612768
2155.0,0.615036
2160.0,0.612511
2165.0,0.612779
2170.0,0.614212
2175.0,0.614731
2180.0,0.614355
2185.0,0.618057
2190.0,0.617069
2195.0,0.615223
2200.0,0.618446
2205.0,0.619169
2210.0,0.61842
2215.0,0.620495
2220.0,0.619809
2225.0,0.622198
2230.0,0.620705
2235.0,0.621389
2240.0,0.621694
2245.0,0.622686
2250.0,0.624325
2255.0,0.624976
2260.0,0.624392
2265.0,0.624599
2270.0,0.626107
2275.0,0.625433
2280.0,0.626886
2285.0,0.625979
2290.0,0.627027
2295.0,0.624827
2300.0,0.625787
2305.0,0.627875
2310.0,0.628511
2315.0,0.626643
2320.0,0.626092
2325.0,0.626827
2330.0,0.628488
2335.0,0.628831
2340.0,0.628907
2345.0,0.628599
2350.0,0.629081
2355.0,0.62897
2360.0,0.629412
2365.0,0.630878
2370.0,0.631616
2375.0,0.630773
2380.0,0.630078
2385.0,0.630836
2390.0,0.63166
2395.0,0.632658
2400.0,0.632129
2405.0,0.633035
2410.0,0.633764
2415.0,0.632416
2420.0,0.63494
2425.0,0.635295
2430.0,0.635945
2435.0,0.635903
2440.0,0.635688
2445.0,0.634854
2450.0,0.635958
2455.0,0.634881
2460.0,0.63375
2465.0,0.633299
2470.0,0.632369
2475.0,0.635234
2480.0,0.632898
2485.0,0.632412
2490.0,0.633047
2495.0,0.632834
2500.0,0.634871
2502.0,0.634778
2503.2,0.634352
2504.41,0.63419
2505.62,0.634229
2506.83,0.633927
2508.05,0.633776
2509.26,0.633485
2510.48,0.633716
2511.69,0.633687
2512.91,0.633631
2514.13,0.633434
2515.35,0.633039
2516.57,0.63271
2517.79,0.633026
2519.02,0.632889
2520.24,0.632951
2521.47,0.632783
2522.69,0.63254
2523.92,0.632272
2525.15,0.632222
2526.38,0.632059
2527.61,0.631885
2528.85,0.631749
2530.08,0.631678
2531.32,0.631701
2532.55,0.631441
2533.79,0.631263
2535.03,0.631177
2536.27,0.631072
2537.51,0.630752
2538.75,0.630606
2540.0,0.630807
2541.24,0.630669
2542.49,0.630513
2543.74,0.630186
2544.99,0.630334
2546.24,0.630178
2547.49,0.630034
2548.74,0.629998
2549.99,0.630008
2551.25,0.629525
2552.5,0.629284
2553.76,0.629203
2555.02,0.629594
2556.28,0.629795
2557.54,0.629714
2558.8,0.629185
2560.07,0.628891
2561.33,0.62881
2562.6,0.628611
2563.86,0.628416
2565.13,0.62872
2566.4,0.628889
2567.67,0.629027
2568.95,0.628879
2570.22,0.628449
2571.5,0.628558
2572.77,0.628775
2574.05,0.628447
2575.33,0.628487
2576.61,0.628359
2577.89,0.62823
2579.17,0.628289
2580.46,0.628289
2581.74,0.627972
2583.03,0.628195
2584.31,0.627918
2585.6,0.627903
2586.89,0.628124
2588.19,0.62813
2589.48,0.628072
2590.77,0.628141
2592.07,0.628005
2593.36,0.627778
2594.66,0.626829
2595.96,0.626194
2597.26,0.627952
2598.56,0.628735
2599.87,0.62798
2601.17,0.627228
2602.48,0.626967
2603.78,0.626754
2605.09,0.626614
2606.4,0.626871
2607.71,0.627431
2609.03,0.627539
2610.34,0.626869
2611.66,0.626849
2612.97,0.626659
2614.29,0.626389
2615.61,0.626421
2616.93,0.626119
2618.25,0.626113
2619.57,0.626531
2620.9,0.626014
2622.22,0.626089
2623.55,0.626671
2624.88,0.626454
2626.21,0.625495
2627.54,0.625006
2628.87,0.625329
2630.21,0.625201
2631.54,0.624937
2632.88,0.625657
2634.21,0.625643
2635.55,0.625059
2636.89,0.624996
2638.24,0.62465
2639.58,0.62435
2640.92,0.623867
2642.27,0.623764
2643.62,0.623545
2644.97,0.623376
2646.32,0.62323
2647.67,0.623093
2649.02,0.623172
2650.38,0.62305
2651.73,0.622255
2653.09,0.621791
2654.45,0.621706
2655.81,0.621714
2657.17,0.621412
2658.53,0.621333
2659.89,0.620946
2661.26,0.620601
2662.63,0.620419
2664.0,0.619668
2665.36,0.618558
2666.74,0.617996
2668.11,0.618736
2669.48,0.61886
2670.86,0.617479
2672.23,0.616897
2673.61,0.617331
2674.99,0.616102
2676.37,0.614525
2677.76,0.613368
2679.14,0.612522
2680.52,0.610973
2681.91,0.609045
2683.3,0.606594
2684.69,0.603586
2686.08,0.600186
2687.47,0.596407
2688.87,0.592245
2690.26,0.587619
2691.66,0.582561
2693.06,0.577202
2694.46,0.571084
2695.86,0.56532
2697.26,0.55906
2698.66,0.551975
2700.07,0.544305
2701.48,0.538311
2702.89,0.5331
2704.3,0.527872
2705.71,0.521833
2707.12,0.515473
2708.53,0.508929
2709.95,0.503443
2711.37,0.499064
2712.79,0.496609
2714.21,0.495295
2715.63,0.49384
2717.05,0.492129
2718.48,0.490272
2719.9,0.488423
2721.33,0.486979
2722.76,0.487425
2724.19,0.488467
2725.62,0.489296
2727.06,0.491295
2728.49,0.492554
2729.93,0.492615
2731.37,0.492291
2732.81,0.492224
2734.25,0.491677
2735.69,0.491932
2737.14,0.492447
2738.58,0.492715
2740.03,0.492179
2741.48,0.492043
2742.93,0.492165
2744.38,0.491833
2745.83,0.49122
2747.29,0.490555
2748.75,0.489757
2750.2,0.489203
2751.66,0.488617
2753.13,0.487977
2754.59,0.487464
2756.05,0.48675
2757.52,0.487202
2758.99,0.487861
2760.46,0.487441
2761.93,0.486963
2763.4,0.486712
2764.87,0.486929
2766.35,0.487429
2767.82,0.48735
2769.3,0.48732
2770.78,0.487393
2772.26,0.487259
2773.75,0.487516
2775.23,0.487385
2776.72,0.4872
2778.21,0.486975
2779.7,0.486683
2781.19,0.486787
2782.68,0.486931
2784.18,0.486843
2785.67,0.486618
2787.17,0.486373
2788.67,0.486053
2790.17,0.48598
2791.67,0.486308
2793.18,0.486024
2794.68,0.485874
2796.19,0.485621
2797.7,0.48529
2799.21,0.485143
2800.72,0.485106
2802.24,0.484478
2803.75,0.483934
2805.27,0.483926
2806.79,0.484125
2808.31,0.484003
2809.83,0.483762
2811.35,0.483464
2812.88,0.48333
2814.41,0.483265
2815.93,0.482868
2817.46,0.482801
2819.0,0.482683
2820.53,0.482325
2822.07,0.482154
2823.6,0.482243
2825.14,0.482436
2826.68,0.482168
2828.22,0.481773
2829.77,0.481694
2831.31,0.481822
2832.86,0.481816
2834.41,0.48196
2835.96,0.481816
2837.51,0.481534
2839.07,0.481384
2840.62,0.481623
2842.18,0.481542
2843.74,0.481368
2845.3,0.481386
2846.86,0.481291
2848.43,0.481031
2849.99,0.481001
2851.56,0.48097
2853.13,0.480982
2854.7,0.480861
2856.27,0.480753
2857.85,0.480658
2859.42,0.480445
2861.0,0.480232
2862.58,0.480259
2864.16,0.48034
2865.75,0.480393
2867.33,0.480344
2868.92,0.480198
2870.51,0.480131
2872.1,0.480003
2873.69,0.479819
2875.28,0.479855
2876.88,0.479829
2878.48,0.479711
2880.07,0.479594
2881.68,0.479509
2883.28,0.479306
2884.88,0.479203
2886.49,0.479186
2888.1,0.479261
2889.71,0.479251
2891.32,0.479152
2892.93,0.479152
2894.55,0.479144
2896.16,0.479259
2897.78,0.479263
2899.4,0.479399
2901.03,0.479286
2902.65,0.479067
2904.28,0.47901
2905.91,0.478943
2907.54,0.478927
2909.17,0.479093
2910.8,0.478998
2912.44,0.478659
2914.07,0.478499
2915.71,0.478645
2917.35,0.478574
2918.99,0.478256
2920.64,0.478029
2922.29,0.478306
2923.93,0.478304
2925.58,0.478049
2927.24,0.477897
2928.89,0.477895
2930.55,0.477952
2932.2,0.478045
2933.86,0.478073
2935.52,0.478223
2937.19,0.47812
2938.85,0.47794
2940.52,0.477834
2942.19,0.477739
2943.86,0.477944
2945.53,0.478146
2947.21,0.478199
2948.88,0.477818
2950.56,0.477956
2952.24,0.478238
2953.92,0.478456
2955.61,0.478442
2957.29,0.478665
2958.98,0.478728
2960.67,0.478684
2962.36,0.47872
2964.06,0.478815
2965.75,0.478864
2967.45,0.478503
2969.15,0.478408
2970.85,0.478706
2972.55,0.478641
2974.26,0.478659
2975.97,0.47874
2977.68,0.478706
2979.39,0.478856
2981.1,0.479044
2982.82,0.479127
2984.53,0.479063
2986.25,0.479107
2987.97,0.479312
2989.7,0.479444
2991.42,0.479389
2993.15,0.479594
2994.88,0.479817
2996.61,0.479717
2998.34,0.479839
3000.08,0.480348
3001.82,0.480624
3003.55,0.480536
3005.3,0.480622
3007.04,0.480857
3008.78,0.48093
3010.53,0.481187
3012.28,0.481625
3014.03,0.48183
3015.79,0.481883
3017.54,0.481984
3019.3,0.482499
3021.06,0.482694
3022.82,0.482513
3024.58,0.482434
3026.35,0.482499
3028.12,0.48301
3029.89,0.483719
3031.66,0.483936
3033.43,0.483894
3035.21,0.484175
3036.99,0.484478
3038.77,0.484769
3040.55,0.485128
3042.33,0.485382
3044.12,0.485568
3045.91,0.485779
3047.7,0.486296
3049.49,0.48656
3051.29,0.486801
3053.08,0.487231
3054.88,0.48746
3056.68,0.487839
3058.49,0.488048
3060.29,0.488437
3062.1,0.488873
3063.91,0.489228
3065.72,0.489682
3067.54,0.489998
3069.35,0.490359
3071.17,0.490756
3072.99,0.491162
3074.81,0.49146
3076.64,0.491928
3078.47,0.492277
3080.29,0.492654
3082.13,0.492909
3083.96,0.493278
3085.79,0.493467
3087.63,0.493724
3089.47,0.494061
3091.31,0.494237
3093.16,0.494359
3095.01,0.494574
3096.85,0.49506
3098.71,0.495492
3100.56,0.495784
3102.41,0.496228
3104.27,0.496585
3106.13,0.496743
3107.99,0.496856
3109.86,0.497207
3111.73,0.497582
3113.59,0.497983
3115.47,0.498342
3117.34,0.498705
3119.21,0.499013
3121.09,0.499244
3122.97,0.499488
3124.86,0.500035
3126.74,0.500347
3128.63,0.500801
3130.52,0.501243
3132.41,0.501529
3134.3,0.501799
3136.2,0.502504
3138.1,0.502892
3140.0,0.503323
3141.9,0.503591
3143.81,0.503911
3145.71,0.504217
3147.62,0.504674
3149.54,0.50528
3151.45,0.505742
3153.37,0.50617
3155.29,0.506541
3157.21,0.506881
3159.13,0.507289
3161.06,0.507664
3162.99,0.50814
3164.92,0.508637
3166.85,0.509008
3168.79,0.509513
3170.72,0.509849
3172.67,0.510064
3174.61,0.510453
3176.55,0.510916
3178.5,0.511483
3180.45,0.511966
3182.4,0.512244
3184.36,0.512671
3186.32,0.513024
3188.27,0.513543
3190.24,0.514017
3192.2,0.514439
3194.17,0.514723
3196.14,0.515001
3198.11,0.515562
3200.08,0.516041
3202.06,0.516337
3204.04,0.516501
3206.02,0.516685
3208.0,0.516884
3209.99,0.517324
3211.98,0.517837
3213.97,0.518177
3215.96,0.5185
3217.96,0.518664
3219.96,0.518919
3221.96,0.519313
3223.96,0.519635
3225.97,0.519941
3227.98,0.520197
3229.99,0.520513
3232.0,0.52089
3234.02,0.521222
3236.04,0.521407
3238.06,0.521618
3240.08,0.521766
3242.11,0.521908
3244.14,0.522088
3246.17,0.522309
3248.2,0.522427
3250.24,0.522676
3252.28,0.523006
3254.32,0.523394
3256.37,0.52353
3258.41,0.523965
3260.46,0.52418
3262.51,0.524207
3264.57,0.524407
3266.63,0.524738
3268.69,0.525032
3270.75,0.525419
3272.81,0.525672
3274.88,0.525995
3276.95,0.526285
3279.02,0.526725
3281.1,0.526994
3283.18,0.527126
3285.26,0.527329
3287.34,0.527643
3289.43,0.527878
3291.51,0.527975
3293.61,0.528352
3295.7,0.52864
3297.8,0.528768
3299.9,0.528969
3302.0,0.52923
3304.1,0.529528
3306.21,0.52978
3308.32,0.529861
3310.43,0.529895
3312.55,0.529991
3314.66,0.53025
3316.79,0.530463
3318.91,0.530447
3321.03,0.530548
3323.16,0.530587
3325.29,0.530694
3327.43,0.530905
3329.57,0.530812
3331.71,0.530731
3333.85,0.530593
3335.99,0.530264
3338.14,0.529914
3340.29,0.529599
3342.45,0.529236
3344.6,0.528719
3346.76,0.528117
3348.92,0.527288
3351.09,0.526556
3353.26,0.52576
3355.43,0.524718
3357.6,0.523791
3359.78,0.522585
3361.96,0.521048
3364.14,0.519329
3366.32,0.517385
3368.51,0.515416
3370.7,0.513407
3372.89,0.511877
3375.09,0.510565
3377.29,0.509468
3379.49,0.508998
3381.69,0.50887
3383.9,0.50898
3386.11,0.509403
3388.32,0.509839
3390.54,0.510243
3392.76,0.51037
3394.98,0.510064
3397.21,0.509363
3399.43,0.508254
3401.66,0.506581
3403.9,0.504601
3406.13,0.502492
3408.37,0.500339
3410.61,0.498438
3412.86,0.496631
3415.11,0.495534
3417.36,0.495206
3419.61,0.495603
3421.87,0.496873
3424.13,0.498997
3426.39,0.501643
3428.66,0.504481
3430.93,0.507159
3433.2,0.509499
3435.48,0.511564
3437.76,0.513565
3440.04,0.515321
3442.32,0.516799
3444.61,0.518155
3446.9,0.519311
3449.19,0.52046
3451.49,0.521571
3453.79,0.522571
3456.09,0.523556
3458.4,0.524509
3460.7,0.525492
3463.02,0.526161
3465.33,0.526483
3467.65,0.526743
3469.97,0.526725
3472.29,0.526544
3474.62,0.526242
3476.95,0.526009
3479.29,0.525713
3481.62,0.525372
3483.96,0.525342
3486.3,0.525445
3488.65,0.525551
3491.0,0.525632
3493.35,0.525563
3495.71,0.525084
3498.07,0.524391
3500.43,0.524053
3502.79,0.524069
3505.16,0.524799
3507.53,0.526469
3509.91,0.528758
3512.29,0.531436
3514.67,0.534025
3517.05,0.536561
3519.44,0.538974
3521.83,0.541068
3524.23,0.542866
3526.62,0.544626
3529.02,0.546128
3531.43,0.547324
3533.83,0.548569
3536.24,0.549578
3538.66,0.550361
3541.08,0.550995
3543.5,0.551772
3545.92,0.552459
3548.35,0.553031
3550.78,0.553509
3553.21,0.554156
3555.65,0.554671
3558.09,0.555109
3560.53,0.555551
3562.98,0.556041
3565.43,0.556471
3567.88,0.556919
3570.34,0.557264
3572.8,0.557619
3575.27,0.557919
3577.73,0.558267
3580.2,0.55862
3582.68,0.558902
3585.16,0.559141
3587.64,0.559348
3590.12,0.55979
3592.61,0.56021
3595.1,0.560461
3597.6,0.560678
3600.09,0.560948
3602.6,0.561181
3605.1,0.561373
3607.61,0.561641
3610.12,0.56187
3612.64,0.562093
3615.16,0.562397
3617.68,0.562687
3620.21,0.562946
3622.74,0.563182
3625.27,0.563326
3627.81,0.563502
3630.35,0.563686
3632.89,0.563867
3635.44,0.563984
3637.99,0.564139
3640.54,0.564321
3643.1,0.564629
3645.66,0.564761
3648.23,0.564909
3650.8,0.565136
3653.37,0.56547
3655.95,0.565586
3658.53,0.565793
3661.11,0.565939
3663.7,0.566111
3666.29,0.566431
3668.89,0.566644
3671.48,0.5668
3674.09,0.567021
3676.69,0.567319
3679.3,0.56753
3681.91,0.56767
3684.53,0.567857
3687.15,0.568082
3689.78,0.568272
3692.4,0.568426
3695.04,0.568661
3697.67,0.568714
3700.31,0.568862
3702.95,0.569053
3705.6,0.569191
3708.25,0.569276
3710.91,0.569391
3713.56,0.569478
3716.23,0.569704
3718.89,0.569943
3721.56,0.570038
3724.23,0.570149
3726.91,0.570279
3729.59,0.570405
3732.28,0.570409
3734.97,0.570622
3737.66,0.570934
3740.36,0.571041
3743.06,0.57108
3745.76,0.571153
3748.47,0.57125
3751.18,0.571423
3753.9,0.571459
3756.62,0.571631
3759.34,0.571875
3762.07,0.571982
3764.8,0.571996
3767.54,0.572084
3770.28,0.572219
3773.02,0.572453
3775.77,0.57253
3778.52,0.572532
3781.28,0.5727
3784.04,0.572866
3786.8,0.572876
3789.57,0.572963
3792.34,0.573061
3795.12,0.573124
3797.9,0.573197
3800.69,0.573229
3803.47,0.573314
3806.27,0.573292
3809.06,0.573409
3811.86,0.573545
3814.67,0.573661
3817.48,0.573817
3820.29,0.573967
3823.11,0.574066
3825.93,0.574121
3828.76,0.574271
3831.59,0.574271
3834.42,0.574293
3837.26,0.574622
3840.1,0.574796
3842.95,0.574899
3845.8,0.574944
3848.65,0.575137
3851.51,0.57535
3854.38,0.575431
3857.24,0.575483
3860.12,0.575733
3862.99,0.575915
3865.87,0.576094
3868.76,0.57625
3871.65,0.576377
3874.54,0.5764
3877.44,0.576544
3880.34,0.576761
3883.25,0.576913
3886.16,0.576921
3889.07,0.576941
3891.99,0.577113
3894.92,0.577261
3897.85,0.577338
3900.78,0.577547
3903.72,0.577604
3906.66,0.577632
3909.6,0.577746
3912.55,0.577839
3915.51,0.578001
3918.47,0.578001
3921.43,0.577969
3924.4,0.578028
3927.38,0.578121
3930.35,0.57818
3933.33,0.578093
3936.32,0.578005
3939.31,0.577987
3942.31,0.577924
3945.31,0.577734
3948.31,0.577681
3951.32,0.577537
3954.34,0.577379
3957.35,0.577136
3960.38,0.57702
3963.41,0.576939
3966.44,0.576793
3969.48,0.576706
3972.52,0.576639
3975.56,0.576639
3978.61,0.576556
3981.67,0.57655
3984.73,0.576637
3987.8,0.576681
3990.87,0.576641
3993.94,0.576657
3997.02,0.5766
4000.1,0.576651
4003.19,0.576833
4006.29,0.576852
4009.39,0.576925
4012.49,0.577014
4015.6,0.57714
4018.71,0.57734
4021.83,0.577478
4024.95,0.577624
4028.08,0.577867
4031.21,0.578107
4034.35,0.578372
4037.49,0.578636
4040.64,0.578914
4043.79,0.579232
4046.94,0.579562
4050.11,0.579718
4053.27,0.579935
4056.44,0.580144
4059.62,0.580361
4062.8,0.580468
4065.99,0.580566
4069.18,0.580679
4072.38,0.580732
4075.58,0.580797
4078.78,0.580912
4082.0,0.580955
4085.21,0.581006
4088.43,0.581046
4091.66,0.581052
4094.89,0.581014
4098.13,0.581117
4101.37,0.581158
4104.62,0.58106
4107.87,0.581152
4111.13,0.581219
4114.39,0.581162
4117.66,0.581148
4120.93,0.581129
4124.21,0.581117
4127.5,0.581052
4130.79,0.580985
4134.08,0.580933
4137.38,0.5809
4140.68,0.580882
4143.99,0.580912
4147.31,0.58085
4150.63,0.580856
4153.95,0.580801
4157.29,0.580756
4160.62,0.58073
4163.96,0.580677
4167.31,0.580606
4170.66,0.580647
4174.02,0.580623
4177.39,0.580541
4180.75,0.580479
4184.13,0.580487
4187.51,0.58045
4190.89,0.580351
4194.28,0.580175
4197.68,0.580189
4201.08,0.580102
4204.49,0.580051
4207.9,0.579952
4211.32,0.579889
4214.74,0.579899
4218.17,0.579941
4221.61,0.57984
4225.05,0.579824
4228.5,0.579722
4231.95,0.579651
4235.4,0.57966
4238.87,0.579656
4242.34,0.579605
4245.81,0.579534
4249.29,0.579351
4252.78,0.579268
4256.27,0.579218
4259.77,0.579068
4263.27,0.578802
4266.78,0.578757
4270.29,0.578772
4273.81,0.578786
4277.34,0.578678
4280.87,0.578723
4284.41,0.578603
4287.95,0.57847
4291.5,0.578445
4295.06,0.578376
4298.62,0.578196
4302.19,0.578165
4305.76,0.578068
4309.34,0.578007
4312.92,0.577839
4316.52,0.577792
4320.11,0.577691
4323.72,0.57759
4327.32,0.577517
4330.94,0.577397
4334.56,0.577219
4338.19,0.577129
4341.82,0.576996
4345.46,0.576931
4349.11,0.576832
4352.76,0.576825
4356.42,0.57672
4360.08,0.576542
4363.75,0.57643
4367.43,0.576367
4371.11,0.576213
4374.8,0.576057
4378.49,0.575958
4382.19,0.575862
4385.9,0.57571
4389.61,0.575617
4393.33,0.575461
4397.06,0.575368
4400.79,0.575242
4404.53,0.575098
4408.28,0.574977
4412.03,0.574942
4415.79,0.574776
4419.55,0.574614
4423.32,0.57451
4427.1,0.574466
4430.88,0.574387
4434.68,0.57422
4438.47,0.574074
4442.28,0.573977
4446.08,0.573825
4449.9,0.573634
4453.72,0.573464
4457.55,0.573393
4461.39,0.573261
4465.23,0.573099
4469.08,0.572933
4472.94,0.572791
4476.8,0.572619
4480.67,0.572491
4484.55,0.572343
4488.43,0.572167
4492.32,0.571974
4496.21,0.571783
4500.12,0.571575
4504.03,0.571425
4507.94,0.571262
4511.87,0.571076
4515.8,0.570861
4519.73,0.570748
4523.68,0.570527
4527.63,0.570342
4531.59,0.570097
4535.55,0.569872
4539.52,0.569635
4543.5,0.569408
4547.49,0.569195
4551.48,0.568901
4555.48,0.568562
4559.49,0.568335
4563.5,0.568102
4567.52,0.567897
4571.55,0.56754
4575.58,0.567155
4579.63,0.56692
4583.67,0.566752
4587.73,0.566515
4591.79,0.566231
4595.86,0.565945
4599.94,0.565691
4604.03,0.565324
4608.12,0.565049
4612.22,0.564696
4616.33,0.56441
4620.44,0.564175
4624.56,0.563928
4628.69,0.563569
4632.83,0.563299
4636.97,0.563011
4641.12,0.562734
4645.28,0.562496
4649.45,0.562221
4653.62,0.561988
4657.8,0.561799
4661.99,0.561568
4666.19,0.561264
4670.39,0.560954
4674.6,0.5608
4678.82,0.560493
4683.05,0.560244
4687.28,0.559997
4691.52,0.559792
4695.77,0.559595
4700.03,0.559384
4704.3,0.559113
4708.57,0.558886
4712.85,0.558616
4717.14,0.558373
4721.43,0.558018
4725.74,0.55768
4730.05,0.557426
4734.37,0.55709
4738.7,0.556642
4743.03,0.55623
4747.38,0.555916
4751.73,0.555563
4756.09,0.555147
4760.45,0.55477
4764.83,0.554318
4769.21,0.553777
4773.6,0.553294
4778.0,0.552887
4782.41,0.552305
4786.83,0.551681
4791.25,0.550975
4795.68,0.550292
4800.13,0.549607
4804.57,0.54884
4809.03,0.54804
4813.5,0.547215
4817.97,0.546323
4822.45,0.545433
4826.94,0.544362
4831.44,0.54317
4835.95,0.541893
4840.46,0.540585
4844.99,0.539097
4849.52,0.537336
4854.06,0.53526
4858.61,0.532833
4863.17,0.530047
4867.73,0.526842
4872.31,0.523175
4876.89,0.519094
4881.48,0.514465
4886.08,0.50947
4890.69,0.504262
4895.31,0.498991
4899.94,0.493763
4904.57,0.488741
4909.22,0.483936
4913.87,0.479476
4918.53,0.47531
4923.21,0.471302
4927.88,0.467308
4932.57,0.463497
4937.27,0.459955
4941.98,0.456847
4946.69,0.454248
4951.42,0.452515
4956.15,0.451808
4960.9,0.451982
4965.65,0.45287
4970.41,0.454252
4975.18,0.455848
4979.96,0.457565
4984.75,0.459315
4989.54,0.461109
4994.35,0.462787
4999.17,0.464308
5003.99,0.46579
5008.83,0.467037
5013.67,0.468144
5018.52,0.469236
5023.39,0.470224
5028.26,0.471071
5033.14,0.471695
5038.03,0.472277
5042.93,0.472786
5047.84,0.473086
5052.76,0.473232
5057.69,0.473352
5062.63,0.47326
5067.58,0.473001
5072.54,0.472472
5077.51,0.471898
5082.49,0.471152
5087.47,0.470353
5092.47,0.469459
5097.48,0.468373
5102.5,0.467122
5107.52,0.465847
5112.56,0.464496
5117.61,0.463124
5122.66,0.461685
5127.73,0.460221
5132.81,0.458633
5137.89,0.456924
5142.99,0.455114
5148.1,0.453204
5153.22,0.45128
5158.34,0.44944
5163.48,0.447615
5168.63,0.445742
5173.79,0.443881
5178.96,0.442006
5184.13,0.440092
5189.32,0.43806
5194.52,0.435849
5199.73,0.433594
5204.96,0.431275
5210.19,0.429085
5215.43,0.427129
5220.68,0.425485
5225.94,0.424311
5231.22,0.423531
5236.5,0.423079
5241.79,0.423034
5247.1,0.423166
5252.42,0.423456
5257.74,0.423743
5263.08,0.424165
5268.43,0.424577
5273.79,0.424901
5279.16,0.425144
5284.54,0.425339
5289.93,0.425375
5295.34,0.425294
5300.75,0.425035
5306.18,0.42464
5311.61,0.424163
5317.06,0.423748
5322.52,0.423235
5327.99,0.422649
5333.47,0.421972
5338.96,0.421138
5344.47,0.419991
5349.98,0.418424
5355.51,0.416605
5361.05,0.414458
5366.6,0.412224
5372.16,0.410009
5377.73,0.407833
5383.32,0.405743
5388.91,0.403756
5394.52,0.401686
5400.14,0.399503
5405.77,0.397028
5411.41,0.394421
5417.07,0.391777
5422.74,0.389178
5428.41,0.386755
5434.1,0.384513
5439.81,0.38263
5445.52,0.380943
5451.25,0.379581
5456.98,0.378628
5462.73,0.377963
5468.5,0.377657
5474.27,0.377645
5480.06,0.377851
5485.86,0.378228
5491.67,0.378587
5497.49,0.37895
5503.33,0.379206
5509.18,0.379394
5515.04,0.379364
5520.91,0.379094
5526.8,0.378587
5532.69,0.377853
5538.61,0.376761
5544.53,0.375329
5550.47,0.373345
5556.41,0.370733
5562.38,0.367291
5568.35,0.363034
5574.34,0.357998
5580.34,0.352224
5586.35,0.345542
5592.38,0.338704
5598.42,0.332278
5604.47,0.326271
5610.54,0.321158
5616.61,0.317253
5622.71,0.314492
5628.81,0.312799
5634.93,0.312169
5641.06,0.312388
5647.21,0.313699
5653.36,0.315806
5659.54,0.318788
5665.72,0.322666
5671.92,0.32723
5678.13,0.332259
5684.36,0.337703
5690.6,0.343026
5696.85,0.348293
5703.12,0.35341
5709.4,0.358345
5715.69,0.363249
5722.0,0.367926
5728.33,0.372234
5734.66,0.376292
5741.01,0.379946
5747.38,0.38291
5753.76,0.38534
5760.15,0.387061
5766.56,0.388128
5772.98,0.388438
5779.41,0.388077
5785.86,0.387347
5792.33,0.386315
5798.81,0.384963
5805.3,0.38337
5811.81,0.381669
5818.33,0.380148
5824.87,0.378699
5831.42,0.377079
5837.99,0.375461
5844.57,0.373872
5851.17,0.372082
5857.78,0.370133
5864.41,0.368017
5871.05,0.365984
5877.7,0.364078
5884.38,0.362703
5891.06,0.361181
5897.76,0.3601
5904.48,0.359212
5911.21,0.358278
5917.96,0.357566
5924.73,0.356443
5931.5,0.355154
5938.3,0.35368
5945.11,0.351551
5951.93,0.349195
5958.78,0.346951
5965.63,0.344397
5972.51,0.341932
5979.39,0.339069
5986.3,0.33662
5993.22,0.33451
6000.16,0.33291
6007.11,0.332332
6014.08,0.332975
6021.06,0.335171
6028.06,0.339043
6035.08,0.344445
6042.12,0.351245
6049.17,0.358647
6056.23,0.367445
6063.32,0.375579
6070.42,0.382528
6077.53,0.389283
6084.67,0.395564
6091.82,0.400697
6098.98,0.405242
6106.17,0.409173
6113.37,0.412624
6120.58,0.415614
6127.82,0.418108
6135.07,0.420194
6142.34,0.422063
6149.63,0.423675
6156.93,0.425185
6164.25,0.426533
6171.59,0.427804
6178.95,0.428903
6186.32,0.430071
6193.71,0.431007
6201.12,0.431737
6208.54,0.432433
6215.99,0.432978
6223.45,0.433308
6230.93,0.433466
6238.43,0.433548
6245.95,0.433515
6253.48,0.433331
6261.03,0.433183
6268.6,0.433081
6276.19,0.433158
6283.8,0.433464
6291.43,0.434032
6299.07,0.434782
6306.73,0.435512
6314.42,0.436351
6322.12,0.437215
6329.84,0.438085
6337.57,0.439044
6345.33,0.440037
6353.11,0.440781
6360.9,0.441263
6368.72,0.44175
6376.55,0.441908
6384.4,0.441754
6392.27,0.441535
6400.17,0.441261
6408.08,0.440941
6416.01,0.440826
6423.96,0.440155
6431.93,0.43953
6439.92,0.439202
6447.93,0.438557
6455.96,0.437815
6464.01,0.436909
6472.08,0.436021
6480.17,0.435076
6488.28,0.434174
6496.41,0.433245
6504.56,0.432072
6512.73,0.431074
6520.92,0.430503
6529.14,0.429791
6537.37,0.429108
6545.63,0.428581
6553.9,0.42806
6562.2,0.427555
6570.51,0.42708
6578.85,0.426695
6587.21,0.42599
6595.59,0.425509
6603.99,0.42485
6612.42,0.424123
6620.86,0.423462
6629.33,0.422783
6637.82,0.422073
6646.33,0.421029
6654.86,0.419892
6663.41,0.418959
6671.99,0.417872
6680.59,0.416684
6689.21,0.415383
6697.85,0.413954
6706.51,0.412739
6715.2,0.411424
6723.91,0.410019
6732.64,0.408575
6741.4,0.406974
6750.18,0.405234
6758.98,0.403391
6767.8,0.401315
6776.65,0.399215
6785.52,0.396918
6794.41,0.394654
6803.33,0.39216
6812.27,0.390216
6821.23,0.389026
6830.22,0.388331
6839.23,0.387714
6848.26,0.387311
6857.32,0.387063
6866.4,0.386796
6875.51,0.386198
6884.64,0.385661
6893.8,0.385253
6902.98,0.384529
6912.18,0.383641
6921.41,0.382575
6930.66,0.381397
6939.94,0.380057
6949.24,0.378561
6958.57,0.377152
6967.92,0.375556
6977.3,0.373584
6986.7,0.371753
6996.13,0.369738
7005.59,0.367541
7015.07,0.36528
7024.57,0.363168
7034.1,0.361244
7043.66,0.359739
7053.25,0.358576
7062.85,0.357548
7072.49,0.357092
7082.15,0.356887
7091.84,0.356877
7101.55,0.357009
7111.3,0.357132
7121.06,0.357078
7130.86,0.356707
7140.68,0.35609
7150.53,0.35535
7160.41,0.354304
7170.31,0.353224
7180.24,0.352113
7190.2,0.351004
7200.19,0.350085
7210.2,0.349287
7220.24,0.348431
7230.31,0.347758
7240.41,0.347344
7250.54,0.34704
7260.69,0.346858
7270.88,0.346738
7281.09,0.346637
7291.33,0.346375
7301.6,0.345858
7311.9,0.345129
7322.22,0.344042
7332.58,0.342667
7342.97,0.341044
7353.38,0.339122
7363.83,0.337086
7374.3,0.335055
7384.81,0.333022
7395.34,0.331085
7405.91,0.329123
7416.5,0.327189
7427.13,0.32518
7437.78,0.323001
7448.47,0.320718
7459.19,0.318435
7469.94,0.31612
7480.71,0.313817
7491.52,0.311601
7502.37,0.309551
7513.24,0.307512
7524.14,0.305527
7535.08,0.303573
7546.05,0.301805
7557.05,0.300216
7568.08,0.298971
7579.15,0.298061
7590.24,0.29743
7601.37,0.297041
7612.53,0.296964
7623.73,0.296921
7634.96,0.296915
7646.22,0.296881
7657.51,0.296826
7668.84,0.29665
7680.2,0.296467
7691.59,0.296118
7703.02,0.295602
7714.49,0.294878
7725.98,0.294067
7737.52,0.293078
7749.08,0.29206
7760.68,0.290987
7772.32,0.289793
7783.99,0.28854
7795.69,0.28732
7807.43,0.28615
7819.21,0.285098
7831.02,0.284196
7842.87,0.283549
7854.75,0.282996
7866.67,0.2826
7878.62,0.282114
7890.62,0.281544
7902.64,0.280865
7914.71,0.280005
7926.81,0.27887
7938.95,0.277589
7951.13,0.276133
7963.34,0.274526
7975.59,0.272725
7987.88,0.270743
8000.21,0.268515
8012.57,0.266131
8024.98,0.263487
8037.42,0.260716
8049.9,0.257873
8062.42,0.255078
8074.98,0.252195
8087.57,0.24945
8100.21,0.246575
8112.89,0.243696
8125.6,0.240659
8138.36,0.237517
8151.16,0.234207
8163.99,0.23086
8176.87,0.22736
8189.79,0.223959
8202.75,0.2208
8215.75,0.217909
8228.79,0.215233
8241.87,0.21275
8254.99,0.210404
8268.16,0.208243
8281.37,0.206072
8294.62,0.203898
8307.91,0.201614
8321.24,0.199331
8334.62,0.196924
8348.04,0.19449
8361.51,0.191838
8375.02,0.188979
8388.57,0.185997
8402.16,0.182983
8415.8,0.179788
8429.49,0.176759
8443.22,0.173764
8456.99,0.170786
8470.81,0.167784
8484.67,0.165067
8498.58,0.162434
8512.54,0.159855
8526.54,0.15725
8540.58,0.154706
8554.68,0.151953
8568.82,0.149175
8583.0,0.146315
8597.24,0.143547
8611.52,0.140809
8625.85,0.138139
8640.23,0.135398
8654.65,0.13276
8669.12,0.13008
8683.64,0.127524
8698.21,0.124854
8712.83,0.122188
8727.5,0.119331
8742.22,0.116416
8756.99,0.113412
8771.8,0.110693
8786.67,0.108214
8801.59,0.106061
8816.56,0.103869
8831.58,0.101785
8846.65,0.099616
8861.77,0.097584
8876.94,0.095567
8892.17,0.093943
8907.45,0.092569
8922.78,0.091614
8938.16,0.090874
8953.6,0.090527
8969.09,0.090355
8984.64,0.090525
9000.23,0.09073
9015.89,0.091316
9031.59,0.09223
9047.36,0.093572
9063.17,0.095194
9079.05,0.097254
9094.97,0.099565
9110.96,0.102328
9127.0,0.105377
9143.1,0.108708
9159.25,0.112167
9175.46,0.116124
9191.73,0.120688
9208.06,0.125898
9224.44,0.131292
9240.88,0.13672
9257.38,0.142076
9273.94,0.14747
9290.56,0.152391
9307.24,0.156924
9323.98,0.160917
9340.78,0.164396
9357.64,0.166957
9374.57,0.168467
9391.55,0.168735
9408.59,0.168086
9425.7,0.166778
9442.87,0.165242
9460.1,0.163482
9477.4,0.161653
9494.75,0.159677
9512.17,0.157842
9529.66,0.15588
9547.21,0.153771
9564.83,0.151647
9582.5,0.149415
9600.25,0.146899
9618.06,0.144356
9635.94,0.14182
9653.88,0.139471
9671.89,0.137099
9689.97,0.134832
9708.12,0.1326
9726.33,0.130619
9744.62,0.128785
9762.97,0.127165
9781.39,0.125575
9799.88,0.124215
9818.44,0.122972
9837.07,0.121938
9855.77,0.120943
9874.54,0.120175
9893.39,0.119536
9912.3,0.118966
9931.29,0.118295
9950.36,0.117835
9969.49,0.117452
9988.7,0.117117
10007.98,0.116844
10027.34,0.116858
10046.77,0.117077
10066.28,0.117665
10085.87,0.118518
10105.53,0.119895
10125.26,0.121732
10145.08,0.123459
10164.97,0.124089
10184.94,0.123098
10204.99,0.120347
10225.12,0.116791
10245.33,0.113576
10265.61,0.11181
10285.98,0.111684
10306.43,0.11314
10326.96,0.115891
10347.57,0.119676
10368.27,0.124004
10389.05,0.128249
10409.91,0.131005
10430.86,0.132099
10451.88,0.134104
10473.0,0.140573
10494.2,0.149404
10515.49,0.157031
10536.86,0.162393
10558.32,0.1657
10579.87,0.167253
10601.5,0.167587
10623.23,0.167153
10645.04,0.166324
10666.94,0.165165
10688.94,0.163829
10711.02,0.162272
10733.2,0.160739
10755.47,0.159121
10777.83,0.157518
10800.28,0.155819
10822.83,0.154096
10845.47,0.152334
10868.21,0.150712
10891.04,0.149129
10913.97,0.147657
10936.99,0.14624
10960.12,0.144906
10983.34,0.143702
11006.66,0.142542
11030.07,0.141269
11053.59,0.140286
11077.21,0.139353
11100.93,0.138376
11124.75,0.137316
11148.68,0.136501
11172.71,0.135649
11196.84,0.135004
11221.07,0.134473
11245.41,0.133926
11269.86,0.133231
11294.41,0.132649
11319.07,0.13188
11343.84,0.131007
11368.72,0.129991
11393.7,0.128872
11418.8,0.127268
11444.01,0.125071
11469.33,0.121788
11494.76,0.117426
11520.3,0.112142
11545.96,0.10679
11571.73,0.101951
11597.62,0.098053
11623.62,0.094801
11649.74,0.092232
11675.98,0.09012
11702.34,0.088314
11728.81,0.08658
11755.41,0.084887
11782.13,0.082633
11808.96,0.079933
11835.92,0.076981
11863.01,0.07483
11890.22,0.074128
11917.55,0.075033
11945.01,0.077003
11972.6,0.079726
12000.31,0.082438
12028.16,0.085094
12056.13,0.08758
12084.23,0.090456
12112.46,0.09386
12140.83,0.097661
12169.33,0.10172
12197.96,0.10585
12226.73,0.109854
12255.64,0.113752
12284.68,0.117209
12313.86,0.120521
12343.18,0.123629
12372.64,0.126745
12402.24,0.129918
12431.98,0.133151
12461.86,0.13629
12491.89,0.139274
12522.07,0.14209
12552.38,0.144813
12582.85,0.147339
12613.47,0.149741
12644.23,0.151778
12675.15,0.153737
12706.21,0.155464
12737.43,0.156914
12768.81,0.158124
12800.33,0.1592
12832.02,0.160027
12863.86,0.160721
12895.86,0.161124
12928.02,0.161317
12960.34,0.161288
12992.82,0.161009
13025.46,0.160496
13058.27,0.159811
13091.25,0.158941
13124.39,0.157777
13157.7,0.156405
13191.18,0.155192
13224.83,0.15413
13258.66,0.153092
13292.65,0.152016
13326.83,0.150959
13361.17,0.149828
13395.7,0.148721
13430.4,0.147521
13465.29,0.146355
13500.35,0.145206
13535.6,0.143923
13571.03,0.142453
13606.65,0.140995
13642.46,0.139426
13678.46,0.13763
13714.64,0.135588
13751.02,0.133618
13787.59,0.131493
13824.36,0.129332
13861.32,0.127102
13898.49,0.125006
13935.85,0.122881
13973.41,0.120724
14011.17,0.118528
14049.15,0.11641
14087.32,0.11419
14125.71,0.112055
14164.3,0.10988
14203.11,0.107603
14242.13,0.105183
14281.36,0.102738
14320.81,0.100303
14360.49,0.097888
14400.38,0.09544
14440.49,0.092993
14480.82,0.090394
14521.39,0.088018
14562.18,0.085749
14603.2,0.083586
14644.45,0.081737
14685.93,0.080006
14727.66,0.078155
14769.62,0.076513
14811.81,0.074943
14854.25,0.073522
14896.94,0.072138
14939.87,0.071116
14983.05,0.070232
15026.48,0.06951
15070.16,0.068914
15114.1,0.068324
15158.29,0.067986
15202.74,0.068245
15247.46,0.068628
15292.43,0.069372
15337.68,0.070406
15383.19,0.071935
15428.97,0.073591
15475.03,0.075462
15521.36,0.077352
15567.97,0.079495
15614.87,0.08153
15662.04,0.083079
15709.5,0.084028
15757.25,0.084553
15805.29,0.084454
15853.62,0.084117
15902.26,0.083458
15951.19,0.082493
16000.42,0.081269
16049.95,0.080062
16099.8,0.078345
16149.95,0.076569
16200.42,0.074737
16251.21,0.072896
16302.31,0.07098
16353.74,0.069123
16405.49,0.067144
16457.57,0.06551
16509.98,0.063939
16562.73,0.06266
16615.82,0.061644
16669.24,0.060961
16723.02,0.060276
16777.14,0.059929
16831.61,0.059777
16886.43,0.06017
16941.62,0.0609
16997.16,0.062188
17053.08,0.063293
17109.36,0.064732
17166.01,0.066127
17223.04,0.067657
17280.45,0.069194
17338.24,0.070952
17396.43,0.072555
17455.0,0.074293
17513.97,0.076261
17573.34,0.078655
17633.11,0.08094
17693.29,0.083243
17753.89,0.085696
17814.9,0.087805
17876.33,0.089181
17938.18,0.090402
18000.47,0.091547
18063.19,0.092729
18126.35,0.09386
18189.95,0.095073
18254.0,0.096437
18318.5,0.097678
18383.46,0.098022
18448.88,0.097929
18514.77,0.097992
18581.13,0.098783
18647.97,0.100244
18715.29,0.1026
18783.1,0.105673
18851.4,0.109389
18920.2,0.112503
18989.51,0.114549
19059.32,0.115356
19129.65,0.114883
19200.5,0.113209
19271.88,0.110914
19343.79,0.108047
19416.24,0.105341
19489.23,0.102985
19562.77,0.100532
19636.88,0.098223
19711.54,0.096548
19786.78,0.095058
19862.59,0.094193
19938.98,0.093392
20015.96,0.091646
20093.55,0.088344
20171.73,0.084522
20250.53,0.080143
20329.94,0.075633
20409.98,0.071402
20490.65,0.067519
20571.96,0.063333
20653.92,0.05986
20736.54,0.057146
20819.82,0.055052
20903.77,0.054389
20988.4,0.055605
21073.72,0.057405
21159.73,0.059666
21246.46,0.061344
21333.89,0.063226
21422.04,0.064803
21510.93,0.065068
21600.56,0.064347
21690.94,0.06357
21782.08,0.062565
21873.99,0.062544
21966.67,0.064328
22060.15,0.067961
22154.42,0.072267
22249.51,0.077982
22345.41,0.084952
22442.14,0.091478
22539.72,0.096593
22638.14,0.100765
22737.43,0.102977
22837.6,0.105073
22938.65,0.107401
23040.6,0.110223
23143.46,0.114117
23247.24,0.119483
23351.96,0.124426
23457.63,0.128845
23564.25,0.132758
23671.85,0.136259
23780.44,0.138676
23890.02,0.140622
24000.63,0.142199
24112.26,0.142678
24224.93,0.141291
24338.66,0.140857
24453.47,0.138236
24569.36,0.132892
24686.36,0.126285
24804.47,0.122182
24923.73,0.118109
25044.13,0.115023
25165.71,0.113138
25288.46,0.113296
25412.43,0.111058
25537.61,0.109598
25664.04,0.105748
25791.72,0.100745
25920.68,0.096204
