Database of Origin,University of Winnipeg Spectrophotometer Facility
Sample Description,Basalts and Igneous Samples - RELAB plus Nicolet (from RELAB)
Date Added,2018-07-23 22:41:38.112236

Data ID,RLA_BAS_6_1         
Sample ID,BSB101
Mineral Name,Black Basaltic Sand
Grain Size,<45 um
Viewing Geometry,30/0/30
Resolution,5/ 0.6-129 nm
Composition,Black sands/ beach sand

Wavelength
305.0,0.051329
310.0,0.052031
315.0,0.055005
320.0,0.057957
325.0,0.061507
330.0,0.06546
335.0,0.069628
340.0,0.073992
345.0,0.078357
350.0,0.082746
355.0,0.087415
360.0,0.092023
365.0,0.09651
370.0,0.101068
375.0,0.105407
380.0,0.109709
385.0,0.114026
390.0,0.118175
395.0,0.12241
400.0,0.125865
405.0,0.129921
410.0,0.133601
415.0,0.137447
420.0,0.141257
425.0,0.145232
430.0,0.14919
435.0,0.152989
440.0,0.156577
445.0,0.160074
450.0,0.163683
455.0,0.167396
460.0,0.171267
465.0,0.175146
470.0,0.179012
475.0,0.183097
480.0,0.187136
485.0,0.191395
490.0,0.195507
495.0,0.199733
500.0,0.204051
505.0,0.207725
510.0,0.211976
515.0,0.216068
520.0,0.22007
525.0,0.223849
530.0,0.227591
535.0,0.231119
540.0,0.234686
545.0,0.238009
550.0,0.241238
555.0,0.24452
560.0,0.247774
565.0,0.251099
570.0,0.253944
575.0,0.256588
580.0,0.25935
585.0,0.261885
590.0,0.263983
595.0,0.266024
600.0,0.268027
605.0,0.269253
610.0,0.271204
615.0,0.272899
620.0,0.274393
625.0,0.276176
630.0,0.277159
635.0,0.278291
640.0,0.279159
645.0,0.279933
650.0,0.280524
655.0,0.281157
660.0,0.281529
665.0,0.281831
670.0,0.282013
675.0,0.282225
680.0,0.282336
685.0,0.282183
690.0,0.281984
695.0,0.281523
700.0,0.281238
705.0,0.279958
710.0,0.27923
715.0,0.278796
720.0,0.278259
725.0,0.278809
730.0,0.278411
735.0,0.277672
740.0,0.277286
745.0,0.276412
750.0,0.275466
755.0,0.274877
760.0,0.273808
765.0,0.272725
770.0,0.271473
775.0,0.270127
780.0,0.268676
785.0,0.267561
790.0,0.265912
795.0,0.264426
800.0,0.26292
805.0,0.261195
810.0,0.259756
815.0,0.258007
820.0,0.256477
825.0,0.254398
830.0,0.252695
835.0,0.251257
840.0,0.249998
845.0,0.248627
850.0,0.247166
855.0,0.245745
860.0,0.24471
865.0,0.243737
870.0,0.242124
875.0,0.24178
880.0,0.24111
885.0,0.240306
890.0,0.239825
895.0,0.238763
900.0,0.23775
905.0,0.235962
910.0,0.235077
915.0,0.233434
920.0,0.232521
925.0,0.230967
930.0,0.229936
935.0,0.229038
940.0,0.22766
945.0,0.225965
950.0,0.225392
955.0,0.22445
960.0,0.223325
965.0,0.222481
970.0,0.221894
975.0,0.221883
980.0,0.221533
985.0,0.22096
990.0,0.220568
995.0,0.220412
1000.0,0.219895
1005.0,0.21909
1010.0,0.218471
1015.0,0.217743
1020.0,0.217352
1025.0,0.217219
1030.0,0.21699
1035.0,0.217086
1040.0,0.217476
1045.0,0.217805
1050.0,0.217883
1055.0,0.218521
1060.0,0.219077
1065.0,0.220203
1070.0,0.220688
1075.0,0.221857
1080.0,0.222566
1085.0,0.223653
1090.0,0.224216
1095.0,0.224424
1100.0,0.224377
1105.0,0.225385
1110.0,0.225807
1115.0,0.226164
1120.0,0.226944
1125.0,0.227691
1130.0,0.228513
1135.0,0.229184
1140.0,0.229595
1145.0,0.230372
1150.0,0.231187
1155.0,0.231947
1160.0,0.232393
1165.0,0.233039
1170.0,0.23368
1175.0,0.234032
1180.0,0.234097
1185.0,0.23462
1190.0,0.235306
1195.0,0.236598
1200.0,0.237183
1205.0,0.237446
1210.0,0.23852
1215.0,0.23952
1220.0,0.240293
1225.0,0.241127
1230.0,0.241452
1235.0,0.242421
1240.0,0.243677
1245.0,0.244608
1250.0,0.245761
1255.0,0.246683
1260.0,0.247624
1265.0,0.248849
1270.0,0.249757
1275.0,0.250734
1280.0,0.251416
1285.0,0.252302
1290.0,0.252929
1295.0,0.253935
1300.0,0.255045
1305.0,0.256264
1310.0,0.257379
1315.0,0.258375
1320.0,0.25934
1325.0,0.260886
1330.0,0.262277
1335.0,0.263381
1340.0,0.265205
1345.0,0.266929
1350.0,0.268092
1355.0,0.269369
1360.0,0.270303
1365.0,0.271928
1370.0,0.272441
1375.0,0.272439
1380.0,0.273431
1385.0,0.275641
1390.0,0.276955
1395.0,0.278144
1400.0,0.278566
1405.0,0.280614
1410.0,0.281944
1415.0,0.281932
1420.0,0.282083
1425.0,0.283089
1430.0,0.284696
1435.0,0.285471
1440.0,0.286077
1445.0,0.287952
1450.0,0.289612
1455.0,0.290869
1460.0,0.291593
1465.0,0.291979
1470.0,0.292981
1475.0,0.293834
1480.0,0.294378
1485.0,0.294864
1490.0,0.295463
1495.0,0.296211
1500.0,0.296468
1505.0,0.297289
1510.0,0.297944
1515.0,0.298712
1520.0,0.299291
1525.0,0.299899
1530.0,0.300985
1535.0,0.30216
1540.0,0.302374
1545.0,0.303005
1550.0,0.303308
1555.0,0.304279
1560.0,0.304658
1565.0,0.304471
1570.0,0.304357
1575.0,0.304421
1580.0,0.304786
1585.0,0.304944
1590.0,0.305063
1595.0,0.305641
1600.0,0.306015
1605.0,0.306851
1610.0,0.307967
1615.0,0.308159
1620.0,0.308521
1625.0,0.308249
1630.0,0.308183
1635.0,0.308145
1640.0,0.3086
1645.0,0.307764
1650.0,0.307758
1655.0,0.307797
1660.0,0.308535
1665.0,0.308185
1670.0,0.30793
1675.0,0.30759
1680.0,0.308725
1685.0,0.308452
1690.0,0.30921
1695.0,0.309107
1700.0,0.310737
1705.0,0.310906
1710.0,0.311219
1715.0,0.311137
1720.0,0.311643
1725.0,0.311411
1730.0,0.311572
1735.0,0.311522
1740.0,0.311734
1745.0,0.311479
1750.0,0.311347
1755.0,0.310735
1760.0,0.310798
1765.0,0.310623
1770.0,0.310564
1775.0,0.310637
1780.0,0.310525
1785.0,0.31095
1790.0,0.311276
1795.0,0.311477
1800.0,0.311772
1805.0,0.312125
1810.0,0.312406
1815.0,0.312984
1820.0,0.313266
1825.0,0.312909
1830.0,0.312858
1835.0,0.312729
1840.0,0.312754
1845.0,0.312434
1850.0,0.312471
1855.0,0.312365
1860.0,0.31274
1865.0,0.312921
1870.0,0.313112
1875.0,0.313429
1880.0,0.313676
1885.0,0.314
1890.0,0.313737
1895.0,0.313498
1900.0,0.313443
1905.0,0.313693
1910.0,0.313708
1915.0,0.31397
1920.0,0.313646
1925.0,0.31426
1930.0,0.315283
1935.0,0.315963
1940.0,0.316157
1945.0,0.31662
1950.0,0.317203
1955.0,0.318179
1960.0,0.318806
1965.0,0.319269
1970.0,0.319737
1975.0,0.320482
1980.0,0.321506
1985.0,0.322152
1990.0,0.3224
1995.0,0.322943
2000.0,0.323265
2005.0,0.323903
2010.0,0.324888
2015.0,0.325168
2020.0,0.325512
2025.0,0.326159
2030.0,0.326493
2035.0,0.327022
2040.0,0.327561
2045.0,0.328079
2050.0,0.328725
2055.0,0.329457
2060.0,0.330336
2065.0,0.331207
2070.0,0.332067
2075.0,0.332763
2080.0,0.33329
2085.0,0.334622
2090.0,0.335699
2095.0,0.335775
2100.0,0.336583
2105.0,0.337551
2110.0,0.338127
2115.0,0.338787
2120.0,0.338376
2125.0,0.33893
2130.0,0.340092
2135.0,0.340676
2140.0,0.340829
2145.0,0.341529
2150.0,0.342256
2155.0,0.343159
2160.0,0.343035
2165.0,0.34289
2170.0,0.343192
2175.0,0.34391
2180.0,0.344351
2185.0,0.344748
2190.0,0.345249
2195.0,0.346463
2200.0,0.347115
2205.0,0.347573
2210.0,0.348047
2215.0,0.348743
2220.0,0.349385
2225.0,0.349656
2230.0,0.350027
2235.0,0.350465
2240.0,0.351526
2245.0,0.352296
2250.0,0.352962
2255.0,0.353574
2260.0,0.354174
2265.0,0.355091
2270.0,0.35641
2275.0,0.357328
2280.0,0.358225
2285.0,0.359064
2290.0,0.359929
2295.0,0.360811
2300.0,0.360856
2305.0,0.36179
2310.0,0.361279
2315.0,0.361659
2320.0,0.362082
2325.0,0.362313
2330.0,0.362859
2335.0,0.363767
2340.0,0.363784
2345.0,0.365214
2350.0,0.366161
2355.0,0.366863
2360.0,0.367554
2365.0,0.368322
2370.0,0.368597
2375.0,0.369558
2380.0,0.369988
2385.0,0.370937
2390.0,0.371913
2395.0,0.373059
2400.0,0.374107
2405.0,0.375132
2410.0,0.375853
2415.0,0.376039
2420.0,0.376639
2425.0,0.377044
2430.0,0.377229
2435.0,0.377447
2440.0,0.37778
2445.0,0.377912
2450.0,0.378905
2455.0,0.379178
2460.0,0.379718
2465.0,0.380808
2470.0,0.381577
2475.0,0.381798
2480.0,0.381761
2485.0,0.381847
2490.0,0.381952
2495.0,0.382608
2500.0,0.382977
2502.0,0.382872
2503.2,0.383242
2504.41,0.383594
2505.62,0.383143
2506.83,0.382744
2508.05,0.382609
2509.26,0.382794
2510.48,0.383504
2511.69,0.383751
2512.91,0.383738
2514.13,0.383558
2515.35,0.383435
2516.57,0.383615
2517.79,0.384071
2519.02,0.383947
2520.24,0.38376
2521.47,0.383629
2522.69,0.384203
2523.92,0.383923
2525.15,0.38396
2526.38,0.384285
2527.61,0.3846
2528.85,0.384489
2530.08,0.384377
2531.32,0.384818
2532.55,0.385552
2533.79,0.385527
2535.03,0.385281
2536.27,0.384923
2537.51,0.384373
2538.75,0.384253
2540.0,0.384454
2541.24,0.38528
2542.49,0.385745
2543.74,0.385405
2544.99,0.385854
2546.24,0.386057
2547.49,0.385614
2548.74,0.385474
2549.99,0.385899
2551.25,0.386057
2552.5,0.385656
2553.76,0.385733
2555.02,0.386059
2556.28,0.386043
2557.54,0.386171
2558.8,0.386179
2560.07,0.385859
2561.33,0.385396
2562.6,0.385851
2563.86,0.386255
2565.13,0.386345
2566.4,0.387157
2567.67,0.387835
2568.95,0.386658
2570.22,0.385378
2571.5,0.386159
2572.77,0.38706
2574.05,0.386735
2575.33,0.387418
2576.61,0.387786
2577.89,0.387325
2579.17,0.387686
2580.46,0.387894
2581.74,0.386853
2583.03,0.386651
2584.31,0.386663
2585.6,0.387353
2586.89,0.387691
2588.19,0.387174
2589.48,0.387762
2590.77,0.388486
2592.07,0.388765
2593.36,0.388129
2594.66,0.385859
2595.96,0.385067
2597.26,0.389006
2598.56,0.390721
2599.87,0.389681
2601.17,0.388216
2602.48,0.387297
2603.78,0.387815
2605.09,0.38754
2606.4,0.387458
2607.71,0.38827
2609.03,0.388788
2610.34,0.389033
2611.65,0.389671
2612.97,0.389538
2614.29,0.388717
2615.61,0.388592
2616.93,0.388006
2618.25,0.388409
2619.57,0.389705
2620.9,0.388918
2622.22,0.389897
2623.55,0.390368
2624.88,0.389788
2626.21,0.3893
2627.54,0.388936
2628.87,0.389654
2630.21,0.389342
2631.54,0.388465
2632.88,0.389967
2634.21,0.390556
2635.55,0.390403
2636.89,0.390357
2638.24,0.390176
2639.58,0.39027
2640.92,0.389508
2642.27,0.389361
2643.62,0.390092
2644.97,0.389961
2646.32,0.389458
2647.67,0.390257
2649.02,0.390765
2650.38,0.390515
2651.73,0.390288
2653.09,0.389399
2654.45,0.389795
2655.81,0.39017
2657.17,0.38995
2658.53,0.390114
2659.89,0.389505
2661.26,0.389531
2662.63,0.38994
2664.0,0.389824
2665.36,0.388379
2666.74,0.387964
2668.11,0.38899
2669.48,0.389411
2670.86,0.388154
2672.23,0.389254
2673.61,0.391082
2674.99,0.389704
2676.37,0.388242
2677.76,0.387078
2679.14,0.387995
2680.52,0.388496
2681.91,0.388793
2683.3,0.387908
2684.69,0.387595
2686.08,0.388029
2687.47,0.387672
2688.87,0.387067
2690.26,0.386149
2691.66,0.385798
2693.06,0.384786
2694.46,0.383084
2695.86,0.383323
2697.26,0.384224
2698.66,0.383891
2700.07,0.382866
2701.48,0.38203
2702.89,0.380988
2704.3,0.380749
2705.71,0.380151
2707.12,0.379168
2708.53,0.377848
2709.95,0.376516
2711.37,0.375246
2712.79,0.375341
2714.21,0.375452
2715.63,0.374315
2717.05,0.373253
2718.48,0.372184
2719.9,0.370245
2721.33,0.368835
2722.76,0.369747
2724.19,0.36914
2725.62,0.367101
2727.06,0.367241
2728.49,0.366869
2729.93,0.365468
2731.37,0.363846
2732.81,0.36317
2734.25,0.362253
2735.69,0.360492
2737.14,0.360013
2738.58,0.359357
2740.03,0.356722
2741.48,0.355414
2742.93,0.355735
2744.38,0.355521
2745.83,0.354362
2747.29,0.353299
2748.75,0.352115
2750.2,0.35087
2751.66,0.349616
2753.13,0.348478
2754.59,0.347151
2756.05,0.345493
2757.52,0.345649
2758.99,0.345567
2760.46,0.343906
2761.93,0.342661
2763.4,0.341394
2764.87,0.341037
2766.35,0.341135
2767.82,0.340362
2769.3,0.339501
2770.78,0.338349
2772.26,0.337072
2773.75,0.336753
2775.23,0.335835
2776.72,0.334628
2778.21,0.333863
2779.7,0.333605
2781.19,0.332938
2782.68,0.332017
2784.18,0.331121
2785.67,0.330881
2787.17,0.330128
2788.67,0.32938
2790.17,0.329634
2791.67,0.328864
2793.18,0.327722
2794.68,0.327619
2796.19,0.327254
2797.7,0.326575
2799.21,0.326493
2800.72,0.326613
2802.24,0.325962
2803.75,0.325326
2805.27,0.32545
2806.79,0.325806
2808.31,0.325208
2809.83,0.324706
2811.35,0.324425
2812.88,0.324276
2814.41,0.324313
2815.93,0.324033
2817.46,0.323726
2819.0,0.323881
2820.53,0.323622
2822.07,0.323203
2823.6,0.323253
2825.14,0.323403
2826.68,0.323371
2828.22,0.323366
2829.77,0.323452
2831.31,0.323582
2832.86,0.3235
2834.41,0.323317
2835.96,0.323217
2837.51,0.32356
2839.07,0.323747
2840.62,0.323736
2842.18,0.3235
2843.74,0.323515
2845.3,0.323798
2846.86,0.324203
2848.43,0.324172
2849.99,0.323981
2851.56,0.324173
2853.13,0.324337
2854.7,0.32401
2856.27,0.324241
2857.85,0.324521
2859.42,0.324573
2861.0,0.324462
2862.58,0.324715
2864.16,0.324676
2865.75,0.324699
2867.33,0.324872
2868.92,0.325432
2870.51,0.325588
2872.1,0.325345
2873.69,0.325415
2875.28,0.325404
2876.88,0.325724
2878.48,0.326066
2880.07,0.326021
2881.68,0.326226
2883.28,0.326275
2884.88,0.326314
2886.49,0.326623
2888.1,0.326838
2889.71,0.327037
2891.32,0.327131
2892.93,0.327278
2894.55,0.327143
2896.16,0.327022
2897.78,0.327503
2899.4,0.327903
2901.03,0.327814
2902.65,0.327849
2904.28,0.328198
2905.91,0.328412
2907.53,0.328464
2909.17,0.32867
2910.8,0.328698
2912.44,0.329299
2914.07,0.330077
2915.71,0.329864
2917.35,0.329965
2918.99,0.33037
2920.64,0.330687
2922.29,0.331
2923.93,0.331174
2925.58,0.331217
2927.24,0.331502
2928.89,0.331636
2930.55,0.331705
2932.2,0.332138
2933.86,0.332754
2935.52,0.332871
2937.19,0.333083
2938.85,0.333401
2940.52,0.333354
2942.19,0.333319
2943.86,0.333686
2945.53,0.333973
2947.21,0.334584
2948.88,0.334968
2950.56,0.335233
2952.24,0.335393
2953.92,0.335554
2955.61,0.335655
2957.29,0.335983
2958.98,0.336334
2960.67,0.336647
2962.36,0.337162
2964.06,0.337544
2965.75,0.338014
2967.45,0.338246
2969.15,0.338138
2970.85,0.338271
2972.55,0.338805
2974.26,0.339214
2975.97,0.339462
2977.68,0.339731
2979.39,0.339824
2981.1,0.340213
2982.82,0.340612
2984.53,0.341085
2986.25,0.341493
2987.97,0.341852
2989.7,0.342603
2991.42,0.343112
2993.15,0.343164
2994.88,0.343478
2996.61,0.343743
2998.34,0.343966
3000.08,0.344
3001.82,0.344438
3003.55,0.344828
3005.3,0.345369
3007.04,0.345865
3008.78,0.346241
3010.53,0.346678
3012.28,0.347385
3014.03,0.347703
3015.79,0.348008
3017.54,0.34818
3019.3,0.348467
3021.06,0.348793
3022.82,0.349095
3024.58,0.349496
3026.35,0.349817
3028.12,0.35032
3029.89,0.350733
3031.66,0.35109
3033.43,0.351497
3035.21,0.351684
3036.99,0.351959
3038.77,0.352527
3040.55,0.352845
3042.33,0.353085
3044.12,0.353189
3045.91,0.353578
3047.7,0.353794
3049.49,0.354125
3051.29,0.35462
3053.08,0.354971
3054.88,0.355169
3056.68,0.355335
3058.49,0.355809
3060.29,0.356425
3062.1,0.356803
3063.91,0.356743
3065.72,0.356893
3067.54,0.357133
3069.35,0.357444
3071.17,0.357769
3072.99,0.357952
3074.81,0.358274
3076.64,0.358554
3078.46,0.35874
3080.29,0.359182
3082.13,0.359429
3083.96,0.359687
3085.79,0.360095
3087.63,0.360205
3089.47,0.360436
3091.31,0.360674
3093.16,0.360855
3095.01,0.361232
3096.85,0.361671
3098.71,0.362283
3100.56,0.362601
3102.41,0.36256
3104.27,0.362567
3106.13,0.36325
3107.99,0.363768
3109.86,0.363944
3111.73,0.364092
3113.59,0.364436
3115.47,0.364731
3117.34,0.365069
3119.21,0.365126
3121.09,0.36546
3122.97,0.365935
3124.86,0.366404
3126.74,0.366688
3128.63,0.36679
3130.52,0.367047
3132.41,0.36725
3134.3,0.367576
3136.2,0.368022
3138.1,0.368445
3140.0,0.368928
3141.9,0.369278
3143.81,0.369742
3145.71,0.369991
3147.62,0.370346
3149.54,0.370558
3151.45,0.370516
3153.37,0.370951
3155.29,0.371406
3157.21,0.371857
3159.13,0.37215
3161.06,0.3723
3162.99,0.372593
3164.92,0.372993
3166.85,0.373563
3168.79,0.374051
3170.72,0.374216
3172.67,0.374158
3174.61,0.374527
3176.55,0.375111
3178.5,0.375495
3180.45,0.375595
3182.4,0.375629
3184.36,0.375933
3186.32,0.376436
3188.27,0.376846
3190.24,0.37709
3192.2,0.377386
3194.17,0.377607
3196.14,0.377892
3198.11,0.378155
3200.08,0.378343
3202.06,0.378532
3204.04,0.378942
3206.02,0.379531
3208.0,0.379736
3209.99,0.379887
3211.98,0.379966
3213.97,0.380205
3215.96,0.380552
3217.96,0.380966
3219.96,0.381343
3221.96,0.381613
3223.96,0.381765
3225.97,0.382122
3227.98,0.382382
3229.99,0.382629
3232.0,0.382967
3234.02,0.383265
3236.04,0.383436
3238.06,0.383878
3240.08,0.384052
3242.11,0.384298
3244.14,0.38473
3246.17,0.385092
3248.2,0.385308
3250.24,0.385222
3252.28,0.385504
3254.32,0.38611
3256.37,0.386454
3258.41,0.386769
3260.46,0.386868
3262.51,0.386938
3264.57,0.387328
3266.63,0.387703
3268.69,0.387765
3270.75,0.38807
3272.81,0.388451
3274.88,0.388676
3276.95,0.388839
3279.02,0.38895
3281.1,0.388905
3283.18,0.389254
3285.26,0.389687
3287.34,0.390085
3289.43,0.390388
3291.51,0.390435
3293.61,0.390664
3295.7,0.391009
3297.8,0.391016
3299.89,0.391207
3302.0,0.39137
3304.1,0.391755
3306.21,0.392291
3308.32,0.392469
3310.43,0.392593
3312.55,0.39265
3314.66,0.392682
3316.78,0.392914
3318.91,0.393063
3321.03,0.393264
3323.16,0.393617
3325.29,0.393805
3327.43,0.393788
3329.57,0.393974
3331.71,0.394282
3333.85,0.394726
3335.99,0.394853
3338.14,0.395136
3340.29,0.395507
3342.45,0.395356
3344.6,0.395474
3346.76,0.395815
3348.92,0.395844
3351.09,0.395845
3353.26,0.396013
3355.43,0.396278
3357.6,0.396183
3359.78,0.39624
3361.96,0.396418
3364.14,0.396432
3366.32,0.396634
3368.51,0.396878
3370.7,0.396987
3372.89,0.397355
3375.09,0.39754
3377.29,0.397473
3379.49,0.397657
3381.69,0.398016
3383.9,0.398374
3386.11,0.39866
3388.32,0.398737
3390.54,0.398904
3392.76,0.399084
3394.98,0.3993
3397.21,0.39931
3399.43,0.399378
3401.66,0.399406
3403.9,0.399414
3406.13,0.39936
3408.37,0.399351
3410.61,0.399535
3412.86,0.399781
3415.11,0.399993
3417.36,0.400406
3419.61,0.400601
3421.87,0.400879
3424.13,0.401229
3426.39,0.401634
3428.66,0.402152
3430.93,0.402637
3433.2,0.402999
3435.48,0.403313
3437.76,0.403554
3440.04,0.403771
3442.32,0.403978
3444.61,0.404076
3446.9,0.40415
3449.19,0.404337
3451.49,0.404535
3453.79,0.40476
3456.09,0.404947
3458.4,0.405085
3460.7,0.405094
3463.02,0.405228
3465.33,0.405455
3467.65,0.405768
3469.97,0.405789
3472.29,0.406013
3474.62,0.406268
3476.95,0.406373
3479.29,0.406437
3481.62,0.406586
3483.96,0.406633
3486.3,0.406823
3488.65,0.407246
3491.0,0.407662
3493.35,0.407934
3495.71,0.408019
3498.07,0.407921
3500.43,0.408132
3502.79,0.408541
3505.16,0.408947
3507.53,0.409176
3509.91,0.409504
3512.29,0.409853
3514.67,0.410047
3517.05,0.410263
3519.44,0.41063
3521.83,0.410779
3524.22,0.41102
3526.62,0.411224
3529.02,0.411334
3531.43,0.411522
3533.83,0.411727
3536.24,0.411928
3538.66,0.412133
3541.08,0.412217
3543.5,0.41239
3545.92,0.412616
3548.35,0.412943
3550.78,0.413175
3553.21,0.413544
3555.65,0.413667
3558.09,0.414003
3560.53,0.414246
3562.98,0.414359
3565.43,0.414555
3567.88,0.414758
3570.34,0.414949
3572.8,0.415024
3575.27,0.41491
3577.73,0.414967
3580.2,0.415281
3582.68,0.415687
3585.16,0.415972
3587.64,0.41615
3590.12,0.416174
3592.61,0.416293
3595.1,0.416406
3597.6,0.416473
3600.09,0.416602
3602.6,0.416859
3605.1,0.417044
3607.61,0.41726
3610.12,0.417372
3612.64,0.417456
3615.16,0.417627
3617.68,0.417689
3620.21,0.417903
3622.74,0.418261
3625.27,0.418394
3627.81,0.418484
3630.35,0.418631
3632.89,0.418813
3635.44,0.418908
3637.99,0.419154
3640.54,0.419424
3643.1,0.419458
3645.66,0.419445
3648.23,0.419831
3650.8,0.420046
3653.37,0.420111
3655.95,0.420269
3658.53,0.420421
3661.11,0.420547
3663.7,0.420618
3666.29,0.420756
3668.89,0.421096
3671.48,0.421396
3674.09,0.421413
3676.69,0.421544
3679.3,0.421627
3681.91,0.421786
3684.53,0.421937
3687.15,0.422223
3689.78,0.422552
3692.4,0.422675
3695.04,0.422898
3697.67,0.423093
3700.31,0.423139
3702.95,0.423227
3705.6,0.423314
3708.25,0.423397
3710.91,0.4237
3713.56,0.42409
3716.23,0.424379
3718.89,0.424368
3721.56,0.424453
3724.23,0.424618
3726.91,0.424993
3729.59,0.425161
3732.28,0.4254
3734.97,0.425527
3737.66,0.425523
3740.36,0.425655
3743.06,0.425903
3745.76,0.426059
3748.47,0.426387
3751.18,0.426534
3753.9,0.426672
3756.62,0.42701
3759.34,0.427264
3762.07,0.427386
3764.8,0.427416
3767.54,0.427361
3770.28,0.427424
3773.02,0.427592
3775.77,0.42799
3778.52,0.428333
3781.28,0.428472
3784.04,0.42851
3786.8,0.428725
3789.57,0.428846
3792.34,0.428976
3795.12,0.429148
3797.9,0.42922
3800.69,0.429413
3803.47,0.429651
3806.27,0.429718
3809.06,0.429797
3811.86,0.429867
3814.67,0.430044
3817.48,0.430154
3820.29,0.430345
3823.11,0.430421
3825.93,0.43083
3828.76,0.431156
3831.59,0.43113
3834.42,0.431242
3837.26,0.431393
3840.1,0.431543
3842.95,0.431814
3845.8,0.431854
3848.65,0.43188
3851.51,0.432097
3854.38,0.432497
3857.24,0.432707
3860.12,0.432726
3862.99,0.432542
3865.87,0.432756
3868.76,0.433164
3871.65,0.433328
3874.54,0.433393
3877.44,0.43356
3880.34,0.433586
3883.25,0.43386
3886.16,0.434002
3889.07,0.434274
3891.99,0.434431
3894.92,0.434385
3897.85,0.434282
3900.78,0.434428
3903.72,0.434696
3906.66,0.434911
3909.6,0.435111
3912.55,0.435161
3915.51,0.435318
3918.47,0.435547
3921.43,0.435591
3924.4,0.435565
3927.37,0.435576
3930.35,0.435897
3933.33,0.436155
3936.32,0.436158
3939.31,0.436055
3942.31,0.436216
3945.31,0.436392
3948.31,0.436518
3951.32,0.436584
3954.34,0.436706
3957.35,0.43682
3960.38,0.436933
3963.41,0.43712
3966.44,0.437331
3969.48,0.437457
3972.52,0.43763
3975.56,0.437785
3978.61,0.437931
3981.67,0.438129
3984.73,0.438351
3987.8,0.438424
3990.87,0.438571
3993.94,0.438774
3997.02,0.438916
4000.1,0.439041
4003.19,0.439251
4006.29,0.439403
4009.39,0.43957
4012.49,0.439621
4015.6,0.439791
4018.71,0.439999
4021.83,0.440108
4024.95,0.440238
4028.08,0.440313
4031.21,0.440329
4034.35,0.44046
4037.49,0.440615
4040.64,0.440933
4043.79,0.441047
4046.94,0.441021
4050.11,0.441185
4053.27,0.441312
4056.44,0.441261
4059.62,0.441328
4062.8,0.441354
4065.99,0.441461
4069.18,0.441572
4072.38,0.441678
4075.58,0.441878
4078.78,0.442104
4082.0,0.442195
4085.21,0.442262
4088.43,0.44229
4091.66,0.442395
4094.89,0.44242
4098.13,0.442426
4101.37,0.442681
4104.62,0.442863
4107.87,0.442926
4111.13,0.442903
4114.39,0.442823
4117.66,0.442879
4120.93,0.442992
4124.21,0.443193
4127.5,0.443193
4130.78,0.443331
4134.08,0.443434
4137.38,0.443561
4140.68,0.443554
4143.99,0.44353
4147.31,0.443558
4150.63,0.443837
4153.95,0.443849
4157.29,0.443882
4160.62,0.443816
4163.96,0.443734
4167.31,0.443865
4170.66,0.444135
4174.02,0.444239
4177.39,0.444225
4180.75,0.444151
4184.13,0.444229
4187.51,0.444397
4190.89,0.444567
4194.28,0.44456
4197.68,0.444465
4201.08,0.444408
4204.49,0.444411
4207.9,0.444506
4211.32,0.444727
4214.74,0.444911
4218.17,0.44512
4221.61,0.445338
4225.05,0.44555
4228.5,0.445856
4231.95,0.446155
4235.4,0.446291
4238.87,0.446415
4242.34,0.446468
4245.81,0.446575
4249.29,0.446659
4252.78,0.446607
4256.27,0.446254
4259.77,0.4457
4263.27,0.445273
4266.78,0.445395
4270.29,0.445742
4273.81,0.446139
4277.34,0.446364
4280.87,0.446476
4284.41,0.446407
4287.95,0.446418
4291.5,0.446388
4295.06,0.446277
4298.62,0.446365
4302.19,0.44643
4305.76,0.446318
4309.34,0.446233
4312.92,0.446171
4316.52,0.445986
4320.11,0.445618
4323.72,0.445489
4327.32,0.445344
4330.94,0.445203
4334.56,0.445083
4338.19,0.44491
4341.82,0.444824
4345.46,0.444756
4349.11,0.444692
4352.76,0.44466
4356.42,0.444528
4360.08,0.444507
4363.75,0.444427
4367.43,0.444389
4371.11,0.444291
4374.8,0.444291
4378.49,0.444274
4382.19,0.444248
4385.9,0.444075
4389.61,0.443963
4393.33,0.443651
4397.06,0.44358
4400.79,0.44354
4404.53,0.443457
4408.28,0.443366
4412.03,0.443279
4415.79,0.443122
4419.55,0.442946
4423.32,0.442734
4427.1,0.442553
4430.88,0.442517
4434.67,0.442504
4438.47,0.442315
4442.27,0.442051
4446.08,0.441852
4449.9,0.441874
4453.72,0.441746
4457.55,0.441609
4461.39,0.44149
4465.23,0.441263
4469.08,0.44097
4472.94,0.440693
4476.8,0.440451
4480.67,0.440378
4484.55,0.440162
4488.43,0.439858
4492.32,0.43947
4496.21,0.439247
4500.12,0.4389
4504.03,0.438716
4507.94,0.438594
4511.87,0.43836
4515.8,0.437962
4519.73,0.437686
4523.68,0.437572
4527.63,0.437357
4531.59,0.437023
4535.55,0.436788
4539.52,0.436534
4543.5,0.436172
4547.49,0.435713
4551.48,0.435404
4555.48,0.43515
4559.49,0.434826
4563.5,0.434508
4567.52,0.434134
4571.55,0.433756
4575.58,0.433338
4579.62,0.432877
4583.67,0.432492
4587.73,0.43212
4591.79,0.431708
4595.86,0.431267
4599.94,0.430935
4604.03,0.430527
4608.12,0.430023
4612.22,0.429524
4616.33,0.429108
4620.44,0.428676
4624.56,0.428343
4628.69,0.427954
4632.83,0.427491
4636.97,0.426933
4641.12,0.426465
4645.28,0.425976
4649.45,0.425483
4653.62,0.424926
4657.8,0.424418
4661.99,0.423903
4666.19,0.423402
4670.39,0.422817
4674.6,0.422277
4678.82,0.421843
4683.05,0.421445
4687.28,0.420844
4691.52,0.42027
4695.77,0.41981
4700.03,0.419453
4704.3,0.418875
4708.57,0.418267
4712.85,0.417776
4717.14,0.417223
4721.43,0.416718
4725.74,0.416273
4730.05,0.415645
4734.37,0.41503
4738.7,0.414427
4743.03,0.413785
4747.38,0.413099
4751.73,0.412472
4756.09,0.411897
4760.45,0.411374
4764.83,0.410825
4769.21,0.410212
4773.6,0.409562
4778.0,0.408918
4782.41,0.408347
4786.83,0.407677
4791.25,0.407025
4795.68,0.406414
4800.13,0.405739
4804.57,0.405177
4809.03,0.404572
4813.5,0.403826
4817.97,0.403117
4822.45,0.402532
4826.94,0.401851
4831.44,0.40122
4835.95,0.400613
4840.46,0.399931
4844.99,0.399143
4849.52,0.39853
4854.06,0.397916
4858.61,0.397175
4863.17,0.396438
4867.73,0.395724
4872.31,0.394986
4876.89,0.394252
4881.48,0.39334
4886.08,0.392508
4890.69,0.391741
4895.31,0.390957
4899.94,0.390036
4904.57,0.389198
4909.22,0.388446
4913.87,0.387608
4918.53,0.386635
4923.21,0.385557
4927.88,0.384492
4932.57,0.383507
4937.27,0.38262
4941.98,0.381767
4946.69,0.380786
4951.42,0.379831
4956.15,0.378847
4960.89,0.377955
4965.65,0.377073
4970.41,0.376199
4975.18,0.3753
4979.96,0.374428
4984.75,0.373454
4989.54,0.372609
4994.35,0.371701
4999.17,0.370893
5003.99,0.370083
5008.83,0.369287
5013.67,0.36836
5018.52,0.367248
5023.39,0.366275
5028.26,0.365556
5033.14,0.364732
5038.03,0.363916
5042.93,0.362898
5047.84,0.361811
5052.76,0.360838
5057.69,0.359889
5062.63,0.358855
5067.58,0.357891
5072.54,0.356927
5077.51,0.355931
5082.49,0.354933
5087.47,0.353886
5092.47,0.352931
5097.48,0.351962
5102.5,0.350942
5107.52,0.349968
5112.56,0.3491
5117.61,0.348218
5122.66,0.347293
5127.73,0.346349
5132.81,0.345437
5137.89,0.344491
5142.99,0.343438
5148.1,0.342291
5153.22,0.341479
5158.34,0.340797
5163.48,0.339775
5168.63,0.338829
5173.79,0.337797
5178.96,0.336775
5184.13,0.335968
5189.32,0.335135
5194.52,0.334199
5199.73,0.3332
5204.95,0.33238
5210.19,0.331756
5215.43,0.330608
5220.68,0.330039
5225.94,0.32934
5231.22,0.328365
5236.5,0.327512
5241.79,0.326741
5247.1,0.326201
5252.42,0.325374
5257.74,0.324507
5263.08,0.32383
5268.43,0.323175
5273.79,0.322489
5279.16,0.321957
5284.54,0.321474
5289.93,0.320658
5295.34,0.319909
5300.75,0.319713
5306.18,0.319223
5311.61,0.318553
5317.06,0.317938
5322.52,0.317408
5327.99,0.316936
5333.47,0.3164
5338.96,0.315931
5344.47,0.315386
5349.98,0.314446
5355.51,0.313951
5361.05,0.314025
5366.6,0.313529
5372.16,0.313015
5377.73,0.312471
5383.32,0.311977
5388.91,0.311558
5394.52,0.311181
5400.14,0.310658
5405.77,0.31013
5411.41,0.309511
5417.07,0.30902
5422.74,0.308084
5428.41,0.308015
5434.1,0.308162
5439.81,0.30733
5445.52,0.306912
5451.25,0.306564
5456.98,0.30614
5462.73,0.305293
5468.5,0.304743
5474.27,0.304974
5480.06,0.304378
5485.86,0.304197
5491.67,0.304179
5497.49,0.303546
5503.33,0.303179
5509.18,0.30285
5515.04,0.302598
5520.91,0.30214
5526.8,0.301817
5532.69,0.301571
5538.61,0.301283
5544.53,0.300833
5550.47,0.300263
5556.41,0.299707
5562.38,0.299546
5568.35,0.299189
5574.34,0.298505
5580.34,0.297447
5586.35,0.297559
5592.38,0.297708
5598.42,0.296973
5604.47,0.296201
5610.54,0.295843
5616.61,0.295168
5622.71,0.294868
5628.81,0.294652
5634.93,0.294132
5641.06,0.293241
5647.21,0.293115
5653.36,0.293815
5659.54,0.293312
5665.72,0.293497
5671.92,0.293081
5678.13,0.292493
5684.36,0.293088
5690.6,0.293225
5696.85,0.293096
5703.12,0.293683
5709.4,0.293196
5715.69,0.293424
5722.0,0.294537
5728.33,0.295024
5734.66,0.295211
5741.01,0.29527
5747.38,0.295157
5753.76,0.295163
5760.15,0.295527
5766.56,0.293724
5772.98,0.29413
5779.41,0.295386
5785.86,0.294594
5792.33,0.29427
5798.81,0.293781
5805.3,0.293161
5811.81,0.292655
5818.33,0.291515
5824.87,0.290517
5831.42,0.291393
5837.99,0.291573
5844.57,0.291086
5851.17,0.290308
5857.78,0.289564
5864.41,0.288664
5871.05,0.288449
5877.7,0.287617
5884.38,0.28578
5891.06,0.287452
5897.76,0.286354
5904.48,0.28648
5911.21,0.286926
5917.96,0.285514
5924.73,0.284963
5931.5,0.284258
5938.3,0.282588
5945.11,0.283369
5951.93,0.28406
5958.78,0.282914
5965.63,0.282102
5972.51,0.280914
5979.39,0.281412
5986.3,0.280561
5993.22,0.2796
6000.16,0.279969
6007.11,0.279743
6014.08,0.278413
6021.06,0.278269
6028.06,0.278578
6035.08,0.277928
6042.12,0.276897
6049.17,0.274923
6056.23,0.276045
6063.32,0.278332
6070.42,0.276353
6077.53,0.275681
6084.67,0.276703
6091.82,0.276646
6098.98,0.275901
6106.17,0.275422
6113.37,0.274064
6120.58,0.274392
6127.82,0.275631
6135.07,0.274921
6142.34,0.274034
6149.63,0.273933
6156.93,0.273769
6164.25,0.273362
6171.59,0.273949
6178.94,0.273732
6186.32,0.2726
6193.71,0.273323
6201.12,0.274109
6208.54,0.273427
6215.99,0.273186
6223.45,0.273062
6230.93,0.273082
6238.43,0.272897
6245.95,0.272843
6253.48,0.272748
6261.03,0.272683
6268.6,0.27259
6276.19,0.272489
6283.8,0.272301
6291.43,0.272225
6299.07,0.272229
6306.73,0.272232
6314.42,0.272138
6322.12,0.272078
6329.83,0.271925
6337.57,0.271714
6345.33,0.270872
6353.11,0.271676
6360.9,0.27253
6368.72,0.27158
6376.55,0.271341
6384.4,0.27219
6392.27,0.271846
6400.17,0.271602
6408.08,0.270735
6416.01,0.268939
6423.96,0.270787
6431.93,0.272131
6439.92,0.271393
6447.93,0.271474
6455.96,0.270944
6464.01,0.270936
6472.08,0.270263
6480.17,0.269515
6488.28,0.268776
6496.41,0.267986
6504.56,0.269185
6512.73,0.269766
6520.92,0.26828
6529.14,0.26798
6537.37,0.268211
6545.63,0.267526
6553.9,0.266818
6562.2,0.266519
6570.51,0.265719
6578.85,0.265057
6587.21,0.265777
6595.59,0.264914
6603.99,0.264834
6612.42,0.264628
6620.86,0.264129
6629.33,0.263366
6637.82,0.261917
6646.33,0.262441
6654.86,0.263639
6663.41,0.262897
6671.99,0.262087
6680.59,0.261534
6689.21,0.261631
6697.85,0.261979
6706.51,0.261238
6715.2,0.260549
6723.91,0.260645
6732.64,0.260541
6741.4,0.260376
6750.18,0.259935
6758.98,0.259572
6767.8,0.259213
6776.65,0.258533
6785.52,0.257932
6794.41,0.257255
6803.33,0.257772
6812.27,0.25766
6821.23,0.256742
6830.22,0.25604
6839.23,0.256122
6848.26,0.255641
6857.32,0.254359
6866.4,0.253149
6875.51,0.253754
6884.64,0.253725
6893.8,0.252693
6902.98,0.251877
6912.18,0.251022
6921.41,0.250735
6930.66,0.25009
6939.94,0.249382
6949.24,0.248629
6958.57,0.247527
6967.92,0.246769
6977.3,0.246823
6986.7,0.245746
6996.13,0.244762
7005.59,0.243956
7015.07,0.24329
7024.57,0.242191
7034.1,0.24154
7043.66,0.240599
7053.24,0.239723
7062.85,0.239408
7072.49,0.238608
7082.15,0.237558
7091.84,0.236593
7101.55,0.235746
7111.3,0.234843
7121.06,0.233803
7130.86,0.233008
7140.68,0.232122
7150.53,0.231013
7160.41,0.230136
7170.31,0.229163
7180.24,0.228305
7190.2,0.22758
7200.19,0.226301
7210.2,0.225022
7220.24,0.224043
7230.31,0.223104
7240.41,0.22195
7250.54,0.220797
7260.69,0.219429
7270.88,0.218017
7281.09,0.216479
7291.33,0.215297
7301.6,0.214093
7311.9,0.212781
7322.22,0.211325
7332.58,0.209774
7342.97,0.208125
7353.38,0.206767
7363.83,0.205203
7374.3,0.203529
7384.81,0.20172
7395.34,0.199972
7405.91,0.1981
7416.5,0.196355
7427.13,0.194528
7437.78,0.192711
7448.47,0.190857
7459.19,0.18908
7469.94,0.187106
7480.71,0.185107
7491.52,0.182993
7502.37,0.180866
7513.24,0.178616
7524.14,0.176387
7535.08,0.173915
7546.05,0.171523
7557.05,0.16909
7568.08,0.166537
7579.14,0.163831
7590.24,0.161225
7601.37,0.158424
7612.53,0.155616
7623.73,0.152691
7634.96,0.149857
7646.22,0.146929
7657.51,0.144075
7668.84,0.141014
7680.2,0.137977
7691.59,0.134833
7703.02,0.131794
7714.49,0.128602
7725.98,0.125376
7737.51,0.122068
7749.08,0.118809
7760.68,0.115239
7772.32,0.11183
7783.99,0.108187
7795.69,0.104492
7807.43,0.100784
7819.21,0.097217
7831.02,0.093465
7842.87,0.08975
7854.75,0.086062
7866.67,0.082434
7878.62,0.078525
7890.62,0.074786
7902.64,0.071133
7914.71,0.067576
7926.81,0.063983
7938.95,0.060563
7951.13,0.057076
7963.34,0.053752
7975.59,0.050382
7987.88,0.047352
8000.21,0.044401
8012.57,0.041713
8024.98,0.038978
8037.42,0.036646
8049.9,0.034435
8062.42,0.032489
8074.98,0.030593
8087.57,0.028971
8100.21,0.027559
8112.89,0.026681
8125.6,0.025908
8138.36,0.025485
8151.16,0.025229
8163.99,0.025331
8176.87,0.025566
8189.79,0.02615
8202.75,0.026852
8215.74,0.027813
8228.79,0.028673
8241.87,0.029783
8254.99,0.030962
8268.16,0.032241
8281.37,0.03346
8294.62,0.03474
8307.91,0.035779
8321.24,0.036831
8334.62,0.037745
8348.04,0.038616
8361.51,0.039282
8375.02,0.040128
8388.57,0.040771
8402.16,0.041455
8415.8,0.042048
8429.49,0.042657
8443.22,0.043112
8456.99,0.043632
8470.81,0.044
8484.67,0.044471
8498.58,0.044803
8512.54,0.045283
8526.54,0.045565
8540.58,0.045816
8554.68,0.046085
8568.82,0.046385
8583.0,0.046482
8597.24,0.046822
8611.52,0.047145
8625.85,0.047549
8640.22,0.047815
8654.65,0.048137
8669.12,0.048414
8683.64,0.048766
8698.21,0.048974
8712.83,0.049373
8727.5,0.049683
8742.22,0.050057
8756.98,0.050399
8771.8,0.050718
8786.67,0.050895
8801.59,0.051357
8816.56,0.051739
8831.58,0.052144
8846.65,0.052423
8861.77,0.05289
8876.94,0.053274
8892.17,0.053687
8907.45,0.05379
8922.78,0.054021
8938.16,0.054305
8953.6,0.054742
8969.09,0.054883
8984.64,0.055196
9000.23,0.055515
9015.89,0.055779
9031.59,0.056052
9047.36,0.056448
9063.17,0.056797
9079.04,0.057107
9094.97,0.057452
9110.96,0.057951
9127.0,0.058121
9143.09,0.058334
9159.25,0.058735
9175.46,0.059003
9191.73,0.059081
9208.05,0.059435
9224.44,0.059818
9240.88,0.060265
9257.38,0.060636
9273.94,0.060972
9290.56,0.061307
9307.24,0.061715
9323.98,0.062035
9340.78,0.062303
9357.64,0.062382
9374.57,0.062558
9391.55,0.062827
9408.59,0.063109
9425.7,0.063291
9442.87,0.063562
9460.1,0.063727
9477.39,0.063994
9494.75,0.064107
9512.17,0.064289
9529.66,0.064345
9547.21,0.064554
9564.82,0.064552
9582.5,0.064616
9600.25,0.064665
9618.06,0.064846
9635.94,0.064947
9653.88,0.064986
9671.89,0.064946
9689.97,0.06508
9708.12,0.065065
9726.33,0.065118
9744.61,0.065085
9762.97,0.065112
9781.39,0.065053
9799.88,0.06516
9818.44,0.06527
9837.07,0.065232
9855.77,0.065035
9874.54,0.065073
9893.39,0.065096
9912.3,0.065115
9931.29,0.065047
9950.35,0.065007
9969.49,0.065046
9988.7,0.065028
10007.98,0.064736
10027.34,0.064768
10046.77,0.064706
10066.28,0.064562
10085.87,0.064397
10105.53,0.064303
10125.26,0.064176
10145.08,0.064168
10164.97,0.064065
10184.94,0.064012
10204.99,0.064006
10225.12,0.063892
10245.33,0.063653
10265.61,0.063609
10285.98,0.063349
10306.43,0.063066
10326.96,0.062883
10347.57,0.062869
10368.27,0.062679
10389.05,0.062513
10409.91,0.062406
10430.85,0.062559
10451.88,0.06262
10473.0,0.06276
10494.2,0.06307
10515.49,0.06335
10536.86,0.063501
10558.32,0.063934
10579.87,0.064217
10601.5,0.064252
10623.23,0.064179
10645.04,0.064385
10666.94,0.064461
10688.94,0.064425
10711.02,0.064079
10733.2,0.063842
10755.47,0.063765
10777.83,0.063689
10800.28,0.063425
10822.83,0.063275
10845.47,0.063105
10868.21,0.063081
10891.04,0.063079
10913.97,0.063012
10936.99,0.062781
10960.12,0.06268
10983.34,0.062632
11006.66,0.062616
11030.07,0.062446
11053.59,0.062508
11077.21,0.062392
11100.93,0.062322
11124.75,0.062229
11148.68,0.062336
11172.7,0.062326
11196.84,0.062361
11221.07,0.06219
11245.41,0.062052
11269.86,0.061984
11294.41,0.061997
11319.07,0.061932
11343.84,0.061892
11368.72,0.061736
11393.7,0.061641
11418.8,0.061495
11444.01,0.061361
11469.33,0.061098
11494.76,0.061046
11520.3,0.060832
11545.96,0.060518
11571.73,0.060239
11597.62,0.060241
11623.62,0.059967
11649.74,0.059823
11675.98,0.05983
11702.34,0.060079
11728.81,0.060211
11755.41,0.060343
11782.13,0.060447
11808.96,0.060638
11835.92,0.060729
11863.01,0.060902
11890.22,0.060819
11917.55,0.060874
11945.01,0.061356
11972.6,0.061947
12000.31,0.062343
12028.16,0.062713
12056.13,0.062912
12084.23,0.063142
12112.46,0.063199
12140.83,0.06327
12169.33,0.063348
12197.96,0.063216
12226.73,0.062784
12255.64,0.062748
12284.68,0.062499
12313.86,0.061845
12343.18,0.061269
12372.64,0.060683
12402.24,0.059859
12431.98,0.059392
12461.86,0.058888
12491.89,0.058325
12522.06,0.057606
12552.38,0.056988
12582.85,0.056368
12613.47,0.056
12644.23,0.055708
12675.15,0.055513
12706.21,0.055104
12737.43,0.054611
12768.8,0.054257
12800.33,0.054101
12832.02,0.053885
12863.86,0.053675
12895.86,0.053435
12928.02,0.053327
12960.34,0.053008
12992.82,0.052713
13025.46,0.052452
13058.27,0.052212
13091.25,0.052136
13124.39,0.052161
13157.7,0.052118
13191.18,0.052089
13224.83,0.051816
13258.66,0.05159
13292.65,0.051368
13326.83,0.051363
13361.17,0.051192
13395.7,0.051162
13430.4,0.051238
13465.29,0.051217
13500.35,0.051061
13535.6,0.051077
13571.03,0.051048
13606.65,0.0509
13642.46,0.050699
13678.46,0.050775
13714.64,0.0508
13751.02,0.050707
13787.59,0.050533
13824.36,0.050505
13861.32,0.05051
13898.48,0.0505
13935.85,0.050282
13973.41,0.050104
14011.17,0.050018
14049.15,0.049642
14087.32,0.049114
14125.71,0.049263
14164.3,0.049401
14203.11,0.049279
14242.13,0.049113
14281.36,0.048935
14320.81,0.048655
14360.48,0.048531
14400.38,0.048202
14440.49,0.047876
14480.82,0.047565
14521.39,0.047393
14562.18,0.047323
14603.2,0.047251
14644.45,0.046879
14685.93,0.046772
14727.66,0.04691
14769.62,0.047007
14811.81,0.046958
14854.25,0.047033
14896.94,0.046956
14939.87,0.046852
14983.05,0.046913
15026.48,0.047102
15070.16,0.04712
15114.1,0.047165
15158.29,0.047029
15202.74,0.04691
15247.46,0.046836
15292.43,0.046988
15337.68,0.047029
15383.19,0.047017
15428.97,0.046915
15475.03,0.046927
15521.36,0.046902
15567.97,0.046999
15614.86,0.046829
15662.04,0.046744
15709.5,0.046705
15757.25,0.046822
15805.29,0.046598
15853.62,0.046421
15902.25,0.046372
15951.18,0.046601
16000.42,0.046628
16049.95,0.046411
16099.8,0.046025
16149.95,0.045903
16200.42,0.045805
16251.21,0.046023
16302.31,0.046122
16353.74,0.046312
16405.49,0.046248
16457.57,0.046008
16509.98,0.045717
16562.73,0.045557
16615.82,0.045324
16669.24,0.045174
16723.02,0.044996
16777.13,0.044886
16831.61,0.04449
16886.43,0.044406
16941.62,0.04432
16997.16,0.044048
17053.07,0.043966
17109.36,0.044648
17166.01,0.044996
17223.04,0.045092
17280.45,0.045329
17338.24,0.045726
17396.43,0.046007
17455.0,0.046246
17513.97,0.046495
17573.34,0.047062
17633.11,0.047657
17693.29,0.048222
17753.89,0.048696
17814.9,0.049499
17876.33,0.049759
17938.18,0.049987
18000.47,0.049978
18063.19,0.050556
18126.35,0.051595
18189.95,0.052381
18254.0,0.052679
18318.5,0.053221
18383.46,0.053727
18448.88,0.054349
18514.77,0.054752
18581.13,0.05539
18647.97,0.05557
18715.29,0.056032
18783.1,0.057259
18851.4,0.057727
18920.2,0.057668
18989.51,0.058031
19059.32,0.058383
19129.65,0.058916
19200.5,0.058989
19271.88,0.059476
19343.79,0.060289
19416.23,0.060588
19489.23,0.060436
19562.77,0.060634
19636.88,0.060657
19711.54,0.060816
19786.77,0.061585
19862.59,0.062497
19938.98,0.063119
20015.96,0.063551
20093.54,0.06356
20171.73,0.064143
20250.53,0.064801
20329.94,0.064683
20409.98,0.064768
20490.65,0.065413
20571.96,0.065829
20653.92,0.066047
20736.54,0.066175
20819.82,0.066553
20903.77,0.066911
20988.4,0.067469
21073.72,0.067583
21159.73,0.067897
21246.46,0.067892
21333.89,0.067799
21422.04,0.068117
21510.93,0.068666
21600.56,0.069017
21690.94,0.068821
21782.08,0.068205
21873.99,0.069142
21966.67,0.069764
22060.15,0.069371
22154.42,0.069417
22249.51,0.069968
22345.41,0.069908
22442.14,0.069889
22539.72,0.069771
22638.14,0.07075
22737.43,0.071263
22837.6,0.071576
22938.65,0.071102
23040.6,0.071245
23143.46,0.070825
23247.24,0.070563
23351.96,0.070441
23457.62,0.070546
23564.25,0.071133
23671.85,0.07275
23780.44,0.073198
23890.02,0.07339
24000.63,0.072893
24112.26,0.07205
24224.93,0.071837
24338.66,0.072579
24453.47,0.072879
24569.36,0.072486
24686.36,0.070882
24804.47,0.069903
24923.72,0.069177
25044.13,0.070989
25165.7,0.071657
25288.46,0.074026
25412.43,0.075271
25537.61,0.074181
25664.03,0.07277
25791.71,0.073416
25920.67,0.073105
