Database of Origin,University of Winnipeg Spectrophotometer Facility
Sample Description,Carbonates and Oxolates - RELAB+Nicolet spectra Newly merged spectra (merged by RELAB)
Other Information,dry seived
Date Added,2018-08-06 20:49:02.752856

Data ID,RLA_CARB_1_31       
Sample ID,CRB208
Mineral Name,Hydromagn
Locality,San Benito Mountains/ San Benito County/ California/ USA
Grain Size,45-90 um
Viewing Geometry,30/0/30
Resolution,5/ 0.6-129 nm
Formula,Mg5(CO3)4(OH)2*4(H2O)
Composition,Off-white massive; silky white

Wavelength
305.0,0.61011
310.0,0.6199
315.0,0.628113
320.0,0.640775
325.0,0.648535
330.0,0.655563
335.0,0.667609
340.0,0.675694
345.0,0.685975
350.0,0.692344
355.0,0.706318
360.0,0.711338
365.0,0.72521
370.0,0.730474
375.0,0.741253
380.0,0.746799
385.0,0.757267
390.0,0.764802
395.0,0.771185
400.0,0.77924
405.0,0.784771
410.0,0.781496
415.0,0.790178
420.0,0.790094
425.0,0.799905
430.0,0.799319
435.0,0.807314
440.0,0.807965
445.0,0.815672
450.0,0.815669
455.0,0.822623
460.0,0.821751
465.0,0.826601
470.0,0.82698
475.0,0.831718
480.0,0.832687
485.0,0.83727
490.0,0.83815
495.0,0.842416
500.0,0.843088
505.0,0.846988
510.0,0.847817
515.0,0.85125
520.0,0.852314
525.0,0.854312
530.0,0.855743
535.0,0.858747
540.0,0.859145
545.0,0.860815
550.0,0.861899
555.0,0.86419
560.0,0.86357
565.0,0.865661
570.0,0.865388
575.0,0.867217
580.0,0.866025
585.0,0.86802
590.0,0.867054
595.0,0.868361
600.0,0.868153
605.0,0.86773
610.0,0.867428
615.0,0.867891
620.0,0.867964
625.0,0.868382
630.0,0.868129
635.0,0.867862
640.0,0.868335
645.0,0.86816
650.0,0.8679
655.0,0.868945
660.0,0.867597
665.0,0.867585
670.0,0.867235
675.0,0.867072
680.0,0.867015
685.0,0.866515
690.0,0.866498
695.0,0.866314
700.0,0.865565
705.0,0.866731
710.0,0.86493
715.0,0.864884
720.0,0.865079
725.0,0.863893
730.0,0.864131
735.0,0.863774
740.0,0.863208
745.0,0.863537
750.0,0.863518
755.0,0.863544
760.0,0.863119
765.0,0.86382
770.0,0.864795
775.0,0.864202
780.0,0.863791
785.0,0.863304
790.0,0.863993
795.0,0.863173
800.0,0.86444
805.0,0.864825
810.0,0.864349
815.0,0.863846
820.0,0.86437
825.0,0.863869
830.0,0.863964
835.0,0.86453
840.0,0.864175
845.0,0.86374
850.0,0.863803
855.0,0.864391
860.0,0.862826
865.0,0.864016
870.0,0.863686
875.0,0.865205
880.0,0.864446
885.0,0.86433
890.0,0.864186
895.0,0.865101
900.0,0.864274
905.0,0.864121
910.0,0.864543
915.0,0.864885
920.0,0.865714
925.0,0.86384
930.0,0.866076
935.0,0.864865
940.0,0.864746
945.0,0.864801
950.0,0.864772
955.0,0.865089
960.0,0.865825
965.0,0.864663
970.0,0.864765
975.0,0.864977
980.0,0.865159
985.0,0.865133
990.0,0.864659
995.0,0.86422
1000.0,0.864608
1005.0,0.864688
1010.0,0.864732
1015.0,0.864587
1020.0,0.86553
1025.0,0.865441
1030.0,0.865563
1035.0,0.865471
1040.0,0.865493
1045.0,0.866091
1050.0,0.864633
1055.0,0.865115
1060.0,0.865599
1065.0,0.866352
1070.0,0.865872
1075.0,0.866502
1080.0,0.866965
1085.0,0.866783
1090.0,0.867013
1095.0,0.866846
1100.0,0.86723
1105.0,0.866488
1110.0,0.866917
1115.0,0.866149
1120.0,0.866545
1125.0,0.865339
1130.0,0.866024
1135.0,0.865297
1140.0,0.864948
1145.0,0.865008
1150.0,0.864779
1155.0,0.864315
1160.0,0.863685
1165.0,0.864457
1170.0,0.863339
1175.0,0.863867
1180.0,0.862932
1185.0,0.863225
1190.0,0.863346
1195.0,0.862533
1200.0,0.862571
1205.0,0.862798
1210.0,0.863213
1215.0,0.861245
1220.0,0.863096
1225.0,0.862053
1230.0,0.862762
1235.0,0.863535
1240.0,0.862519
1245.0,0.863223
1250.0,0.862774
1255.0,0.863158
1260.0,0.861973
1265.0,0.862158
1270.0,0.861467
1275.0,0.860827
1280.0,0.859273
1285.0,0.858384
1290.0,0.858921
1295.0,0.858139
1300.0,0.858184
1305.0,0.857627
1310.0,0.857108
1315.0,0.855345
1320.0,0.856092
1325.0,0.853549
1330.0,0.854269
1335.0,0.85331
1340.0,0.852246
1345.0,0.850926
1350.0,0.850316
1355.0,0.850038
1360.0,0.850239
1365.0,0.845302
1370.0,0.845239
1375.0,0.844225
1380.0,0.845061
1385.0,0.836375
1420.0,0.817149
1425.0,0.812509
1430.0,0.811548
1435.0,0.807061
1440.0,0.805887
1445.0,0.803
1450.0,0.800828
1455.0,0.797979
1460.0,0.79668
1465.0,0.794632
1470.0,0.792424
1475.0,0.790183
1480.0,0.788183
1485.0,0.785998
1490.0,0.783444
1495.0,0.780693
1500.0,0.780564
1505.0,0.777558
1510.0,0.77664
1515.0,0.774496
1520.0,0.773972
1525.0,0.771669
1530.0,0.772088
1535.0,0.770194
1540.0,0.771555
1545.0,0.769877
1550.0,0.77074
1555.0,0.771129
1560.0,0.77239
1565.0,0.772078
1570.0,0.77308
1575.0,0.773688
1580.0,0.774562
1585.0,0.774551
1590.0,0.774914
1595.0,0.774638
1600.0,0.776305
1605.0,0.776384
1610.0,0.776187
1615.0,0.776143
1620.0,0.776021
1625.0,0.775853
1630.0,0.775653
1635.0,0.775529
1640.0,0.775543
1645.0,0.775455
1650.0,0.775543
1655.0,0.775335
1660.0,0.775092
1665.0,0.774932
1670.0,0.774586
1675.0,0.774144
1680.0,0.773563
1685.0,0.772925
1690.0,0.772428
1695.0,0.77188
1700.0,0.771177
1705.31,0.770583
1709.81,0.770359
1715.46,0.770293
1720.02,0.770052
1724.6,0.769618
1730.35,0.769448
1734.98,0.76928
1739.64,0.768956
1745.5,0.768932
1750.21,0.768679
1754.95,0.768547
1759.72,0.768341
1764.51,0.768253
1770.54,0.767907
1775.39,0.767799
1780.27,0.767434
1785.17,0.767064
1790.1,0.766858
1795.06,0.766437
1800.05,0.765751
1805.06,0.765206
1810.1,0.764428
1815.17,0.763753
1820.27,0.762766
1825.4,0.762078
1830.56,0.761107
1834.44,0.760505
1839.65,0.759131
1844.89,0.757953
1850.16,0.756591
1855.45,0.755947
1859.45,0.756137
1864.8,0.756357
1870.18,0.75473
1875.59,0.75197
1879.67,0.748767
1885.14,0.742988
1890.64,0.736231
1894.79,0.730662
1900.34,0.722135
1904.53,0.715252
1910.15,0.705852
1914.38,0.69863
1920.05,0.689607
1924.33,0.683916
1930.06,0.679158
1934.38,0.676918
1940.17,0.674753
1944.54,0.672777
1950.39,0.670013
1954.8,0.667559
1960.72,0.66388
1965.18,0.661092
1969.66,0.658313
1975.66,0.654954
1980.19,0.652657
1984.74,0.650811
1989.31,0.649304
1995.43,0.647166
2000.05,0.645701
2004.69,0.644406
2009.35,0.643215
2015.6,0.642078
2020.32,0.641511
2025.05,0.641069
2029.81,0.640799
2034.59,0.640775
2039.39,0.640851
2044.22,0.641125
2050.69,0.64188
2055.57,0.642692
2060.47,0.643663
2065.39,0.644892
2070.34,0.646369
2075.31,0.647783
2080.31,0.64969
2085.33,0.65183
2090.38,0.653798
2095.45,0.656035
2100.54,0.658165
2105.66,0.660557
2110.8,0.662733
2114.25,0.664348
2119.43,0.66672
2124.65,0.66892
2129.88,0.671078
2135.15,0.673634
2140.44,0.676746
2145.75,0.679915
2149.31,0.681862
2154.67,0.684435
2160.06,0.687081
2165.47,0.689274
2170.91,0.691136
2174.55,0.692351
2180.04,0.693892
2185.55,0.694717
2189.25,0.695233
2194.81,0.695153
2200.4,0.695063
2204.14,0.694251
2209.78,0.692647
2215.44,0.690485
2219.24,0.688672
2224.95,0.685327
2230.7,0.680501
2234.54,0.67664
2240.33,0.669088
2244.21,0.663628
2250.06,0.655611
2255.93,0.648757
2259.87,0.644848
2265.79,0.639604
2269.76,0.636626
2275.74,0.632554
2279.74,0.62966
2285.77,0.624888
2289.81,0.621297
2295.9,0.615714
2299.97,0.612638
2304.06,0.610736
2310.22,0.611051
2314.35,0.613222
2320.56,0.619411
2324.72,0.62454
2331.0,0.632796
2335.2,0.637678
2339.41,0.641163
2345.76,0.641986
2350.02,0.639948
2354.28,0.637266
2360.72,0.6322
2365.03,0.627614
2369.35,0.623781
2375.86,0.618351
2380.23,0.613565
2384.61,0.608483
2389.0,0.603298
2395.63,0.595748
2400.06,0.591044
2404.52,0.586377
2408.98,0.581751
2415.72,0.574139
2420.23,0.568768
2424.76,0.562449
2429.3,0.555539
2433.87,0.547983
2440.74,0.536828
2445.35,0.52956
2449.97,0.522763
2454.61,0.516431
2459.27,0.511291
2463.94,0.507114
2470.99,0.501291
2475.71,0.497184
2480.45,0.493531
2485.2,0.490112
2489.98,0.486895
2494.77,0.483893
2499.58,0.481385
2504.41,0.481073
2509.26,0.484075
2514.13,0.490164
2519.02,0.498885
2523.92,0.510392
2528.85,0.523842
2533.79,0.537927
2541.24,0.55366
2543.74,0.556604
2548.74,0.560385
2553.76,0.562039
2556.28,0.562843
2558.8,0.563654
2561.33,0.563998
2563.86,0.56405
2566.4,0.564487
2568.95,0.564727
2571.5,0.564521
2574.05,0.564156
2576.61,0.563694
2579.17,0.56308
2581.74,0.562341
2584.31,0.561334
2586.89,0.560449
2589.48,0.559483
2592.07,0.558532
2594.66,0.557045
2597.26,0.555279
2599.87,0.554583
2602.48,0.55353
2605.09,0.55178
2607.71,0.550039
2610.34,0.548598
2612.97,0.547225
2615.61,0.545529
2618.25,0.543463
2620.9,0.541384
2623.55,0.539788
2626.21,0.537837
2628.87,0.535389
2631.54,0.532923
2634.22,0.530657
2636.89,0.528287
2639.58,0.525643
2642.27,0.522681
2644.97,0.519642
2647.67,0.516325
2650.38,0.512881
2653.09,0.50933
2655.81,0.505669
2658.53,0.5019
2661.26,0.49785
2664.0,0.493623
2666.74,0.489177
2669.48,0.484636
2672.23,0.480038
2674.99,0.475216
2677.76,0.470244
2680.52,0.464505
2683.3,0.458979
2686.08,0.452976
2688.87,0.446026
2691.66,0.438296
2694.46,0.429707
2697.26,0.419356
2700.07,0.406598
2702.89,0.391594
2705.71,0.377496
2708.53,0.364612
2711.37,0.355096
2714.21,0.348913
2717.05,0.344845
2719.9,0.341607
2722.76,0.338042
2725.62,0.331923
2728.49,0.323328
2731.37,0.313504
2734.25,0.30333
2737.14,0.291976
2740.03,0.280673
2742.93,0.268469
2745.83,0.255887
2748.75,0.244538
2751.66,0.234285
2754.59,0.225198
2757.52,0.216949
2760.46,0.209235
2763.4,0.20304
2766.35,0.197607
2769.3,0.192499
2772.26,0.187805
2775.23,0.183083
2778.21,0.178153
2781.19,0.173291
2784.18,0.168512
2787.17,0.16364
2790.17,0.158671
2793.18,0.153793
2796.19,0.14922
2799.21,0.144528
2802.24,0.139876
2805.27,0.135431
2808.31,0.130749
2811.35,0.126105
2814.41,0.121996
2817.46,0.118705
2820.53,0.116315
2823.6,0.114469
2826.68,0.112886
2829.77,0.111329
2832.86,0.109607
2835.96,0.10783
2839.07,0.106181
2842.18,0.104457
2845.3,0.102412
2848.43,0.100364
2851.56,0.098424
2854.7,0.096539
2857.85,0.094671
2861.0,0.092828
2864.16,0.091166
2867.33,0.089629
2870.51,0.088316
2873.69,0.086757
2876.88,0.085244
2880.07,0.083872
2883.28,0.082355
2886.49,0.081014
2889.71,0.079679
2892.93,0.0782
2896.17,0.076795
2899.4,0.075418
2902.65,0.074078
2905.91,0.072675
2909.17,0.071214
2912.44,0.069853
2915.71,0.068692
2918.99,0.067493
2922.29,0.066402
2925.58,0.065365
2928.89,0.064421
2932.2,0.063418
2935.52,0.062533
2938.85,0.061602
2942.19,0.060824
2945.53,0.059881
2948.88,0.059086
2952.24,0.058456
2955.61,0.057763
2958.98,0.057117
2962.36,0.05664
2965.75,0.056194
2969.15,0.0559
2972.55,0.055549
2975.97,0.055137
2979.39,0.054991
2986.25,0.054875
2989.7,0.055153
2993.15,0.055357
2996.61,0.055329
3000.08,0.055363
3003.55,0.055858
3007.04,0.056314
3010.53,0.056632
3014.03,0.057011
3017.54,0.057493
3021.06,0.057971
3024.58,0.058254
3028.12,0.058386
3031.66,0.05879
3035.21,0.059332
3038.77,0.059689
3042.33,0.059725
3045.91,0.059931
3049.49,0.060073
3053.08,0.060089
3056.68,0.060041
3060.29,0.059987
3063.91,0.060073
3067.54,0.060255
3071.17,0.060003
3074.81,0.059777
3078.47,0.059723
3082.13,0.059563
3085.79,0.059412
3089.47,0.059406
3093.16,0.05933
3096.85,0.059382
3100.56,0.059406
3104.27,0.059419
3107.99,0.059255
3111.73,0.059151
3115.47,0.058849
3119.21,0.058868
3122.97,0.058616
3126.74,0.058833
3130.52,0.058994
3134.3,0.059214
3138.1,0.059268
3141.9,0.059296
3145.71,0.059876
3149.54,0.059498
3153.37,0.059901
3157.21,0.059993
3161.06,0.060327
3164.92,0.060796
3168.79,0.061102
3172.67,0.061121
3176.55,0.060919
3180.45,0.061622
3184.36,0.061455
3188.27,0.061801
3192.2,0.06153
3196.14,0.061735
3200.08,0.061754
3204.04,0.062356
3208.0,0.062778
3211.98,0.063077
3215.96,0.063424
3219.96,0.064016
3223.96,0.064467
3227.98,0.064842
3232.0,0.066086
3236.04,0.066505
3240.08,0.067378
3244.14,0.068128
3248.2,0.069099
3252.28,0.068954
3256.37,0.068178
3260.46,0.066256
3264.57,0.063014
3268.69,0.060282
3272.81,0.05964
3276.95,0.059035
3281.1,0.060248
3285.26,0.061533
3289.43,0.063216
3293.61,0.064234
3297.8,0.065633
3302.0,0.06689
3306.21,0.067236
3310.43,0.067448
3314.66,0.067832
3318.91,0.068613
3323.16,0.069291
3327.43,0.070113
3331.71,0.070888
3335.99,0.072366
3340.29,0.073226
3344.6,0.074033
3348.92,0.074811
3353.26,0.075703
3357.6,0.076721
3361.96,0.077048
3366.32,0.07719
3370.7,0.078189
3375.09,0.078734
3379.49,0.078879
3383.9,0.079493
3388.32,0.079304
3392.76,0.079213
3397.21,0.078419
3401.66,0.077266
3406.13,0.074672
3410.61,0.07154
3415.11,0.068913
3419.61,0.067466
3424.13,0.066877
3428.66,0.067715
3433.2,0.069382
3437.76,0.071512
3442.32,0.073384
3446.9,0.075967
3451.49,0.079058
3456.09,0.082465
3460.7,0.085338
3465.33,0.089292
3469.97,0.092825
3474.62,0.096332
3479.29,0.101354
3483.96,0.108147
3488.65,0.116932
3493.35,0.127843
3498.07,0.1389
3502.79,0.147029
3507.53,0.154232
3512.29,0.159869
3517.05,0.164003
3521.83,0.166482
3526.62,0.168086
3531.43,0.170352
3536.24,0.175588
3541.08,0.181468
3543.5,0.183607
3545.92,0.185344
3548.35,0.187272
3550.78,0.188995
3553.21,0.190675
3555.65,0.19255
3558.09,0.194235
3560.53,0.19577
3562.98,0.197058
3565.43,0.198404
3567.88,0.200064
3570.34,0.201605
3572.8,0.203099
3575.27,0.204554
3577.73,0.205922
3580.2,0.207252
3582.68,0.208679
3585.16,0.210056
3587.64,0.211345
3590.12,0.212469
3592.61,0.213515
3595.1,0.21471
3597.6,0.215904
3600.09,0.21717
3602.6,0.218557
3605.1,0.219953
3607.61,0.221292
3610.12,0.222517
3612.64,0.223639
3615.16,0.224937
3617.68,0.226368
3620.21,0.227672
3622.74,0.229229
3625.27,0.230675
3627.81,0.231554
3630.35,0.232534
3632.89,0.233873
3635.44,0.23519
3637.99,0.236284
3640.54,0.23744
3643.1,0.238704
3645.66,0.239976
3648.23,0.24112
3650.8,0.242106
3653.37,0.243156
3655.95,0.244142
3658.53,0.245185
3661.11,0.246404
3663.7,0.24768
3666.29,0.248427
3668.89,0.249019
3671.48,0.249719
3674.09,0.250607
3676.69,0.251417
3679.3,0.252271
3681.91,0.253084
3684.53,0.253661
3687.15,0.25408
3689.78,0.25437
3692.4,0.254968
3695.04,0.255589
3697.67,0.255917
3700.31,0.255854
3702.95,0.255529
3705.6,0.255101
3708.25,0.254266
3710.91,0.252867
3713.56,0.250784
3716.23,0.248008
3718.89,0.244618
3721.56,0.240273
3724.23,0.234951
3726.91,0.228876
3729.59,0.222313
3732.28,0.215482
3734.97,0.208153
3737.66,0.201214
3740.36,0.194856
3743.06,0.188665
3745.76,0.182583
3748.47,0.17654
3751.18,0.170875
3753.9,0.165739
3756.62,0.160697
3759.34,0.155536
3762.07,0.150306
3764.8,0.145324
3767.54,0.140592
3770.28,0.136111
3773.02,0.1317
3775.77,0.127588
3778.52,0.123662
3781.28,0.120215
3784.04,0.117622
3786.8,0.115391
3789.57,0.11323
3792.34,0.111383
3795.12,0.110145
3797.9,0.109143
3800.69,0.108374
3803.47,0.107605
3806.27,0.106922
3809.06,0.106827
3811.86,0.106606
3814.67,0.105976
3817.48,0.105415
3820.29,0.104757
3823.11,0.103872
3825.93,0.102999
3828.76,0.101896
3831.59,0.100979
3834.42,0.100194
3837.26,0.099448
3840.1,0.098619
3842.95,0.097428
3845.8,0.096369
3848.65,0.095408
3851.51,0.094406
3854.38,0.093647
3857.24,0.093121
3860.12,0.092544
3862.99,0.092141
3865.87,0.091624
3868.76,0.09055
3871.65,0.089075
3874.54,0.087307
3877.44,0.084708
3880.34,0.081532
3883.25,0.07835
3886.16,0.075221
3889.07,0.072127
3891.99,0.06924
3894.92,0.066808
3897.85,0.06464
3900.78,0.06256
3903.72,0.060802
3906.66,0.05946
3909.6,0.05813
3912.55,0.056917
3915.51,0.056126
3918.47,0.055477
3921.43,0.054661
3924.4,0.053672
3927.38,0.053029
3930.35,0.052585
3933.33,0.052311
3936.32,0.051999
3939.31,0.051734
3942.31,0.05141
3945.31,0.051388
3948.31,0.051734
3951.32,0.052326
3954.34,0.053215
3957.35,0.054636
3960.38,0.056753
3963.41,0.059706
3966.44,0.063566
3969.48,0.068446
3972.52,0.074591
3975.56,0.081856
3978.61,0.090052
3981.67,0.098773
3984.73,0.107942
3987.8,0.11742
3990.87,0.127043
3993.94,0.136852
3997.02,0.14679
4000.1,0.156642
4003.19,0.166498
4006.29,0.176761
4009.39,0.187187
4012.49,0.197203
4015.6,0.206587
4018.71,0.215844
4021.83,0.224922
4024.95,0.233278
4028.08,0.241013
4031.21,0.248002
4034.35,0.254266
4037.49,0.260186
4040.64,0.265735
4043.79,0.270735
4046.94,0.275361
4050.11,0.279813
4053.27,0.283909
4056.44,0.287488
4059.62,0.290869
4062.8,0.294149
4065.99,0.297256
4069.18,0.299774
4072.38,0.302149
4075.58,0.304516
4078.78,0.30651
4082.0,0.308199
4085.21,0.309737
4088.43,0.311129
4091.66,0.312465
4094.89,0.313556
4098.13,0.314684
4101.37,0.315679
4104.62,0.316272
4107.87,0.316751
4111.13,0.317365
4114.39,0.317639
4117.66,0.317916
4120.93,0.318354
4124.21,0.318587
4127.5,0.318833
4130.79,0.319139
4134.08,0.3193
4137.38,0.319656
4140.68,0.319914
4143.99,0.320248
4147.31,0.320667
4150.63,0.321033
4153.95,0.321209
4157.29,0.321467
4160.62,0.321748
4163.96,0.32182
4167.31,0.321836
4170.66,0.321937
4174.02,0.321864
4177.39,0.321883
4180.75,0.321861
4184.13,0.321694
4187.51,0.321404
4190.89,0.321168
4194.28,0.320809
4197.68,0.320406
4201.08,0.319854
4204.49,0.3193
4207.9,0.318931
4211.32,0.318632
4214.74,0.318402
4218.17,0.318326
4221.61,0.317976
4225.05,0.317333
4228.5,0.316643
4231.95,0.315963
4235.4,0.315087
4238.87,0.313987
4242.34,0.312724
4245.81,0.311646
4249.29,0.310613
4252.78,0.309529
4256.27,0.308631
4259.77,0.307812
4263.27,0.307093
4266.78,0.306652
4270.29,0.306548
4273.81,0.30639
4277.34,0.30588
4280.87,0.305817
4284.41,0.305852
4287.95,0.305483
4291.5,0.305155
4295.06,0.30484
4298.62,0.304513
4302.19,0.303996
4305.76,0.303296
4309.34,0.302628
4312.92,0.301938
4316.52,0.301463
4320.11,0.301129
4323.72,0.300921
4327.32,0.301018
4330.94,0.30139
4334.56,0.301626
4338.19,0.301308
4341.82,0.300741
4345.46,0.299922
4349.11,0.29892
4352.76,0.298009
4356.42,0.297187
4360.08,0.296431
4363.75,0.295353
4367.43,0.29413
4371.11,0.293015
4374.8,0.291991
4378.49,0.290992
4382.19,0.28993
4385.9,0.288906
4389.61,0.287986
4393.33,0.287082
4397.06,0.286206
4400.79,0.285358
4404.53,0.28475
4408.28,0.284183
4412.03,0.283616
4415.79,0.283191
4419.55,0.282794
4423.32,0.282416
4427.1,0.282107
4430.88,0.281776
4434.68,0.281656
4438.47,0.281332
4442.28,0.280827
4446.08,0.280364
4449.9,0.279964
4453.72,0.279482
4457.55,0.278968
4461.39,0.278496
4465.23,0.278007
4469.08,0.277431
4472.94,0.276851
4476.8,0.276341
4480.67,0.275619
4484.55,0.274645
4488.43,0.273565
4492.32,0.272563
4496.21,0.271482
4500.12,0.270143
4504.03,0.268823
4507.94,0.267345
4511.87,0.265621
4515.8,0.263712
4519.73,0.26167
4523.68,0.259461
4527.63,0.257098
4531.59,0.254615
4535.55,0.251978
4539.52,0.249161
4543.5,0.246247
4547.49,0.243442
4551.48,0.240761
4555.48,0.238442
4559.49,0.236381
4563.5,0.234415
4567.52,0.232792
4571.55,0.23151
4575.58,0.230524
4579.63,0.230001
4583.67,0.22979
4587.73,0.230076
4591.79,0.230874
4595.86,0.232184
4599.94,0.234084
4604.03,0.236548
4608.12,0.239586
4612.22,0.243149
4616.33,0.246962
4620.44,0.25126
4624.56,0.256077
4628.69,0.26093
4632.83,0.265751
4636.97,0.270603
4641.12,0.275417
4645.28,0.280005
4649.45,0.284347
4653.62,0.288213
4657.8,0.29149
4661.99,0.294392
4666.19,0.297234
4670.39,0.299975
4674.6,0.302401
4678.82,0.304752
4683.05,0.307014
4687.28,0.30899
4691.52,0.310802
4695.77,0.312613
4700.03,0.314422
4704.3,0.316004
4708.57,0.317466
4712.85,0.318836
4717.14,0.320135
4721.43,0.321266
4725.74,0.322419
4730.05,0.32344
4734.37,0.32436
4738.7,0.325349
4743.03,0.326222
4747.38,0.327
4751.73,0.327964
4756.09,0.328651
4760.45,0.329196
4764.83,0.329742
4769.21,0.330397
4773.6,0.330822
4778.0,0.331254
4782.41,0.33166
4786.83,0.332243
4791.25,0.332773
4795.68,0.333047
4800.13,0.333349
4804.57,0.333655
4809.03,0.333797
4813.5,0.334074
4817.97,0.334351
4822.45,0.334547
4826.94,0.334704
4831.44,0.334928
4835.95,0.335051
4840.46,0.335193
4844.99,0.335325
4849.52,0.335347
4854.06,0.335287
4858.61,0.335252
4863.17,0.335199
4867.73,0.335215
4872.31,0.335202
4876.89,0.335278
4881.48,0.335211
4886.08,0.33512
4890.69,0.334833
4895.31,0.3346
4899.94,0.334575
4904.57,0.334537
4909.22,0.334358
4913.87,0.334102
4918.53,0.333797
4923.21,0.333422
4927.88,0.333053
4932.57,0.33282
4937.27,0.33247
4941.98,0.332035
4946.69,0.33149
4951.42,0.331078
4956.15,0.330504
4960.9,0.32976
4965.65,0.329061
4970.41,0.32838
4975.18,0.327545
4979.96,0.326521
4984.75,0.325333
4989.54,0.324136
4994.35,0.322888
4999.17,0.321455
5003.99,0.319637
5008.83,0.317516
5013.67,0.315014
5018.52,0.312198
5023.39,0.308889
5028.26,0.304891
5033.14,0.300123
5038.03,0.294887
5042.93,0.288944
5047.84,0.282479
5052.76,0.275959
5057.69,0.270345
5062.63,0.266923
5067.58,0.266721
5072.54,0.269349
5077.51,0.273574
5082.49,0.277818
5087.47,0.281281
5092.47,0.283846
5097.48,0.285267
5102.5,0.285853
5107.52,0.285976
5112.56,0.285447
5117.61,0.284457
5122.66,0.283099
5127.73,0.281546
5132.81,0.279718
5137.89,0.277658
5142.99,0.275335
5148.1,0.272777
5153.22,0.269821
5158.34,0.266488
5163.48,0.262804
5168.63,0.258778
5173.79,0.254552
5178.96,0.25005
5184.13,0.245336
5189.32,0.240377
5194.52,0.235269
5199.73,0.230105
5204.96,0.224846
5210.19,0.219524
5215.43,0.213935
5220.68,0.208213
5225.94,0.202604
5231.22,0.197084
5236.5,0.191948
5241.79,0.187259
5247.1,0.183541
5252.42,0.180983
5257.74,0.179442
5263.08,0.178733
5268.43,0.178383
5273.79,0.177876
5279.16,0.177205
5284.54,0.176193
5289.93,0.174861
5295.34,0.172942
5300.75,0.170314
5306.18,0.167154
5311.61,0.163555
5317.06,0.159317
5322.52,0.154619
5327.99,0.149676
5333.47,0.144546
5338.96,0.139287
5344.47,0.13354
5349.98,0.127188
5355.51,0.1203
5361.05,0.113431
5366.6,0.10677
5372.16,0.099766
5377.73,0.092623
5383.32,0.08514
5388.91,0.077776
5394.52,0.070642
5400.14,0.063969
5405.77,0.057636
5411.41,0.05197
5417.07,0.047115
5422.74,0.043076
5428.41,0.039443
5434.1,0.036648
5439.81,0.034461
5445.52,0.03276
5451.25,0.03132
5456.98,0.030207
5462.73,0.029338
5468.5,0.028944
5474.27,0.028771
5480.06,0.028648
5485.86,0.028544
5491.67,0.028767
5497.49,0.029127
5503.33,0.029823
5509.18,0.030718
5515.04,0.031786
5520.91,0.033012
5526.8,0.034521
5532.69,0.036304
5538.61,0.038286
5544.53,0.040281
5550.47,0.04253
5556.41,0.044827
5562.38,0.047232
5568.35,0.049588
5574.34,0.051992
5580.34,0.054286
5586.35,0.056473
5592.38,0.058508
5598.42,0.060465
5604.47,0.062173
5610.54,0.063629
5616.61,0.06492
5622.71,0.066156
5628.81,0.067154
5634.93,0.06826
5641.06,0.069461
5647.21,0.07069
5653.36,0.071635
5659.54,0.072681
5665.72,0.073967
5671.92,0.075362
5678.13,0.076594
5684.36,0.077565
5690.6,0.078315
5696.85,0.079257
5703.12,0.080161
5709.4,0.080867
5715.69,0.081286
5722.0,0.081554
5728.33,0.081686
5734.66,0.081781
5741.01,0.081677
5747.38,0.081371
5753.76,0.080924
5760.15,0.080265
5766.56,0.079692
5772.98,0.079222
5779.41,0.079156
5785.86,0.079912
5792.33,0.080665
5798.81,0.081103
5805.3,0.081296
5811.81,0.081431
5818.33,0.081409
5824.87,0.081387
5831.42,0.081185
5837.99,0.08093
5844.57,0.080331
5851.17,0.079689
5857.78,0.079011
5864.41,0.078649
5871.05,0.078532
5877.7,0.07897
5884.38,0.079742
5891.06,0.080694
5897.76,0.081957
5904.48,0.083322
5911.21,0.084352
5917.96,0.085874
5924.73,0.087657
5931.5,0.089768
5938.3,0.091945
5945.11,0.094214
5951.93,0.096221
5958.78,0.098594
5965.63,0.100736
5972.51,0.102977
5979.39,0.105425
5986.3,0.108308
5993.22,0.111358
6000.16,0.114578
6007.11,0.117499
6014.08,0.120215
6021.06,0.122603
6028.06,0.124973
6035.08,0.127232
6042.12,0.129961
6049.17,0.133178
6056.23,0.137378
6063.32,0.141584
6070.42,0.145684
6077.53,0.15
6084.67,0.154563
6091.82,0.158665
6098.98,0.162783
6106.17,0.166492
6113.37,0.170037
6120.58,0.173096
6127.82,0.175021
6135.07,0.176354
6142.34,0.178134
6149.63,0.18045
6156.93,0.18334
6164.25,0.187127
6171.59,0.192773
6178.95,0.199901
6186.32,0.208502
6193.71,0.218749
6201.12,0.229468
6208.54,0.240118
6215.99,0.251603
6223.45,0.263901
6230.93,0.277812
6238.43,0.293349
6245.95,0.309901
6253.48,0.326339
6261.03,0.341469
6268.6,0.354287
6276.19,0.362731
6283.8,0.363645
6291.43,0.35486
6299.07,0.339065
6306.73,0.322517
6314.42,0.309261
6322.12,0.2992
6329.84,0.291263
6337.57,0.284546
6345.33,0.278783
6353.11,0.272698
6360.9,0.266995
6368.72,0.262291
6376.55,0.257196
6384.4,0.251751
6392.27,0.246861
6400.17,0.241835
6408.08,0.237144
6416.01,0.232607
6423.96,0.227036
6431.93,0.221818
6439.92,0.21717
6447.93,0.212265
6455.96,0.207778
6464.01,0.203124
6472.08,0.198719
6480.17,0.194434
6488.28,0.190479
6496.41,0.186535
6504.56,0.182227
6512.73,0.178178
6520.92,0.174987
6529.14,0.171511
6537.37,0.168105
6545.63,0.16502
6553.9,0.162068
6562.2,0.159072
6570.51,0.156368
6578.85,0.153668
6587.21,0.150801
6595.59,0.148028
6603.99,0.145403
6612.42,0.143141
6620.86,0.141165
6629.33,0.139038
6637.82,0.137157
6646.33,0.135226
6654.86,0.133405
6663.41,0.131845
6671.99,0.13038
6680.59,0.12893
6689.21,0.127531
6697.85,0.125994
6706.51,0.124645
6715.2,0.123357
6723.91,0.122099
6732.64,0.120804
6741.4,0.119717
6750.18,0.118649
6758.98,0.117631
6767.8,0.116614
6776.65,0.115763
6785.52,0.115054
6794.41,0.114273
6803.33,0.113163
6812.27,0.112391
6821.23,0.111827
6830.22,0.111273
6839.23,0.110706
6848.26,0.110255
6857.32,0.109764
6866.4,0.109461
6875.51,0.109165
6884.64,0.10891
6893.8,0.108705
6902.98,0.108519
6912.18,0.108453
6921.41,0.108462
6930.66,0.108402
6939.94,0.10844
6949.24,0.108522
6958.57,0.108677
6967.92,0.108727
6977.3,0.108976
6986.7,0.10914
6996.13,0.109156
7005.59,0.108689
7015.07,0.107243
7024.57,0.104168
7034.1,0.099366
7043.66,0.094236
7053.25,0.090332
7062.85,0.088435
7072.49,0.087698
7082.15,0.086416
7091.84,0.084799
7101.55,0.083259
7111.3,0.081998
7121.06,0.081006
7130.86,0.08035
7140.68,0.079783
7150.53,0.079292
7160.41,0.078854
7170.31,0.078646
7180.24,0.07858
7190.2,0.078762
7200.19,0.07909
7210.2,0.079622
7220.24,0.080461
7230.31,0.08163
7240.41,0.082713
7250.54,0.083775
7260.69,0.084815
7270.88,0.085697
7281.09,0.086318
7291.33,0.086999
7301.6,0.087969
7311.9,0.088936
7322.22,0.089721
7332.58,0.090559
7342.97,0.091347
7353.38,0.09216
7363.83,0.092888
7374.3,0.093433
7384.81,0.093833
7395.34,0.094428
7405.91,0.095222
7416.5,0.096212
7427.13,0.097333
7437.78,0.098465
7448.47,0.099577
7459.19,0.100724
7469.94,0.101827
7480.71,0.102945
7491.52,0.103935
7502.37,0.104798
7513.24,0.105674
7524.14,0.106468
7535.08,0.107041
7546.05,0.107612
7557.05,0.108273
7568.08,0.109083
7579.15,0.109861
7590.24,0.110731
7601.37,0.111727
7612.53,0.112814
7623.73,0.113705
7634.96,0.114329
7646.22,0.114915
7657.51,0.115517
7668.84,0.116229
7680.2,0.116948
7691.59,0.117622
7703.02,0.118318
7714.49,0.119024
7725.98,0.119954
7737.52,0.120751
7749.08,0.121501
7760.68,0.122254
7772.32,0.122824
7783.99,0.123158
7795.69,0.123517
7807.43,0.123511
7819.21,0.123253
7831.02,0.122988
7842.87,0.122518
7854.75,0.121992
7866.67,0.121371
7878.62,0.120423
7890.62,0.119248
7902.64,0.117779
7914.71,0.115804
7926.81,0.113453
7938.95,0.110967
7951.13,0.10845
7963.34,0.106046
7975.59,0.103686
7987.88,0.10136
8000.21,0.099038
8012.57,0.096807
8024.98,0.095014
8037.42,0.093735
8049.9,0.093058
8062.42,0.093212
8074.98,0.094085
8087.57,0.095147
8100.21,0.096524
8112.89,0.097869
8125.6,0.098424
8138.36,0.097863
8151.16,0.096243
8163.99,0.094296
8176.87,0.092834
8189.79,0.092762
8202.75,0.094545
8215.75,0.097226
8228.79,0.099583
8241.87,0.101486
8254.99,0.102939
8268.16,0.103979
8281.37,0.104555
8294.62,0.105047
8307.91,0.105794
8321.24,0.107107
8334.62,0.108579
8348.04,0.109792
8361.51,0.110684
8375.02,0.111147
8388.57,0.111119
8402.16,0.110561
8415.8,0.109559
8429.49,0.108755
8443.22,0.10913
8456.99,0.110555
8470.81,0.112152
8484.67,0.113519
8498.58,0.115032
8512.54,0.116913
8526.54,0.118602
8540.58,0.119799
8554.68,0.12077
8568.82,0.12157
8583.0,0.122058
8597.24,0.12214
8611.52,0.12174
8625.85,0.121094
8640.23,0.120363
8654.65,0.119512
8669.12,0.118778
8683.64,0.118151
8698.21,0.117868
8712.83,0.117704
8727.5,0.117263
8742.22,0.116456
8756.99,0.11552
8771.8,0.114761
8786.67,0.114392
8801.59,0.11431
8816.56,0.114298
8831.58,0.114408
8846.65,0.114909
8861.77,0.115618
8876.94,0.116273
8892.17,0.117285
8907.45,0.11857
8922.78,0.119793
8938.16,0.12083
8953.6,0.12123
8969.09,0.120653
8984.64,0.118753
9000.23,0.115968
9015.89,0.113312
9031.59,0.110942
9047.36,0.109102
9063.17,0.108031
9079.05,0.107599
9094.97,0.107631
9110.96,0.107278
9127.0,0.10533
9143.1,0.101956
9159.25,0.098537
9175.46,0.095922
9191.73,0.094239
9208.06,0.093899
9224.44,0.095689
9240.88,0.098931
9257.38,0.1024
9273.94,0.105976
9290.56,0.109716
9307.24,0.113312
9323.98,0.116046
9340.78,0.118104
9357.64,0.12001
9374.57,0.121734
9391.55,0.123076
9408.59,0.124459
9425.7,0.125729
9442.87,0.126611
9460.1,0.127226
9477.4,0.127843
9494.75,0.128284
9512.17,0.128398
9529.66,0.128111
9547.21,0.127683
9564.83,0.127131
9582.5,0.1264
9600.25,0.12559
9618.06,0.124784
9635.94,0.124006
9653.88,0.123438
9671.89,0.122764
9689.97,0.121876
9708.12,0.120984
9726.33,0.120048
9744.62,0.119062
9762.97,0.117946
9781.39,0.116623
9799.88,0.115315
9818.44,0.113891
9837.07,0.112357
9855.77,0.110829
9874.54,0.109193
9893.39,0.107627
9912.3,0.106039
9931.29,0.104319
9950.36,0.102693
9969.49,0.101118
9988.7,0.09947
10007.98,0.097872
10027.34,0.09636
10046.77,0.094816
10066.28,0.093385
10085.87,0.091971
10105.53,0.090622
10125.26,0.08927
10145.08,0.087966
10164.97,0.086728
10184.94,0.085606
10204.99,0.084519
10225.12,0.083574
10245.33,0.082565
10265.61,0.081589
10285.98,0.080829
10306.43,0.080224
10326.96,0.079645
10347.57,0.079071
10368.27,0.078671
10389.05,0.078699
10409.91,0.078806
10430.86,0.078942
10451.88,0.079279
10473.0,0.080152
10494.2,0.081053
10515.49,0.082083
10536.86,0.083265
10558.32,0.084721
10579.87,0.086403
10601.5,0.088322
10623.23,0.090597
10645.04,0.093026
10666.94,0.095651
10688.94,0.098641
10711.02,0.101842
10733.2,0.105302
10755.47,0.109234
10777.83,0.113438
10800.28,0.117808
10822.83,0.122506
10845.47,0.12756
10868.21,0.13286
10891.04,0.138531
10913.97,0.144628
10936.99,0.151182
10960.12,0.158041
10983.34,0.164992
11006.66,0.172277
11030.07,0.178349
11053.59,0.177687
11077.21,0.164942
11100.93,0.145573
11124.75,0.130159
11148.68,0.121775
11172.71,0.117783
11196.84,0.115435
11221.07,0.113378
11245.41,0.110699
11269.86,0.10769
11294.41,0.104946
11319.07,0.102662
11343.84,0.100796
11368.72,0.099041
11393.7,0.097211
11418.8,0.095166
11444.01,0.092355
11469.33,0.089125
11494.76,0.087988
11520.3,0.088801
11545.96,0.089456
11571.73,0.089286
11597.62,0.08819
11623.62,0.086091
11649.74,0.082795
11675.98,0.075381
11702.34,0.06729
11728.81,0.070967
11755.41,0.077924
11782.13,0.079506
11808.96,0.078986
11835.92,0.077713
11863.01,0.076434
11890.22,0.075432
11917.55,0.074581
11945.01,0.073478
11972.6,0.072713
12000.31,0.072168
12028.16,0.071528
12056.13,0.070844
12084.23,0.070494
12112.46,0.070331
12140.83,0.07046
12169.33,0.070554
12197.96,0.070674
12226.73,0.070797
12255.64,0.070828
12284.68,0.070844
12313.86,0.070885
12343.18,0.07074
12372.64,0.070784
12402.24,0.070781
12431.98,0.070649
12461.86,0.070286
12491.89,0.070211
12522.07,0.070157
12552.38,0.069782
12582.85,0.069332
12613.47,0.068995
12644.23,0.068739
12675.15,0.068506
12706.21,0.06815
12737.43,0.067419
12768.81,0.066543
12800.33,0.065721
12832.02,0.064826
12863.86,0.063808
12895.86,0.062384
12928.02,0.060642
12960.34,0.058861
12992.82,0.056763
13025.46,0.054308
13058.27,0.051646
13091.25,0.048694
13124.39,0.045719
13157.7,0.04254
13191.18,0.039402
13224.83,0.036405
13258.66,0.034007
13292.65,0.034209
13326.83,0.040618
13361.17,0.052027
13395.7,0.060607
13430.4,0.062579
13465.29,0.061294
13500.35,0.059744
13535.6,0.058858
13571.03,0.058493
13606.65,0.058401
13642.46,0.058468
13678.46,0.058461
13714.64,0.058301
13751.02,0.058316
13787.59,0.058219
13824.36,0.05803
13861.32,0.057793
13898.49,0.058304
13935.85,0.058978
13973.41,0.059325
14011.17,0.059599
14049.15,0.059822
14087.32,0.059501
14125.71,0.058928
14164.3,0.058452
14203.11,0.058282
14242.13,0.058074
14281.36,0.057746
14320.81,0.057607
14360.49,0.057774
14400.38,0.057938
14440.49,0.058077
14480.82,0.058234
14521.39,0.058537
14562.18,0.058956
14603.2,0.059306
14644.45,0.059457
14685.93,0.059706
14727.66,0.059781
14769.62,0.059999
14811.81,0.06009
14854.25,0.060125
14896.94,0.0601
14939.87,0.059851
14983.05,0.059485
15026.48,0.058902
15070.16,0.058357
15114.1,0.057812
15158.29,0.056927
15202.74,0.056139
15247.46,0.055115
15292.43,0.054271
15337.68,0.053659
15383.19,0.05325
15428.97,0.052717
15475.03,0.052056
15521.36,0.051419
15567.97,0.050801
15614.87,0.050039
15662.04,0.049346
15709.5,0.04876
15757.25,0.048237
15805.29,0.047499
15853.62,0.046875
15902.26,0.046447
15951.19,0.046018
16000.42,0.045458
16049.95,0.045158
16099.8,0.044941
16149.95,0.044619
16200.42,0.044282
16251.21,0.043926
16302.31,0.043693
16353.74,0.04335
16405.49,0.042805
16457.57,0.042272
16509.98,0.041576
16562.73,0.041027
16615.82,0.0404
16669.24,0.03978
16723.02,0.039455
16777.14,0.038847
16831.61,0.038018
16886.43,0.037344
16941.62,0.037057
16997.16,0.036834
17053.08,0.036361
17109.36,0.036163
17166.01,0.036156
17223.04,0.035876
17280.45,0.035217
17338.24,0.034631
17396.43,0.033995
17455.0,0.033695
17513.97,0.033651
17573.34,0.033342
17633.11,0.032536
17693.29,0.031858
17753.89,0.03109
17814.9,0.030229
17876.33,0.029662
17938.18,0.028881
18000.47,0.027939
18063.19,0.027381
18126.35,0.026943
18189.95,0.026404
18254.0,0.025569
18318.5,0.025185
18383.46,0.024583
18448.88,0.023291
18514.77,0.022236
18581.13,0.021646
18647.97,0.021105
18715.29,0.020084
18783.1,0.019198
18851.4,0.018581
18920.2,0.017891
18989.51,0.017204
19059.32,0.016485
19129.65,0.015909
19200.5,0.01532
19271.88,0.015071
19343.79,0.01491
19416.24,0.014437
19489.23,0.014362
19562.77,0.014897
19636.88,0.015342
19711.54,0.016769
19786.78,0.01929
19862.59,0.02256
19938.98,0.027605
20015.96,0.035435
20093.55,0.044733
20171.73,0.056568
20250.53,0.072089
20329.94,0.090528
20409.98,0.111534
20490.65,0.135654
20571.96,0.161466
20653.92,0.187244
20736.54,0.213383
20819.82,0.239274
20903.77,0.262817
20988.4,0.283663
21073.72,0.301538
21159.73,0.316511
21246.46,0.326843
21333.89,0.334071
21422.04,0.338722
21510.93,0.341327
21600.56,0.343309
21690.94,0.344614
21782.08,0.34438
21873.99,0.343325
21966.67,0.340442
22060.15,0.336481
22154.42,0.334216
22249.51,0.332287
22345.41,0.329694
22442.14,0.327602
22539.72,0.326455
22638.14,0.325274
22737.43,0.322759
22837.6,0.319589
22938.65,0.317658
23040.6,0.316552
23143.46,0.314469
23247.24,0.313155
23351.96,0.313152
23457.63,0.313168
23564.25,0.311542
23671.85,0.310799
23780.44,0.310871
23890.02,0.310868
24000.63,0.310071
24112.26,0.309954
24224.93,0.310323
24338.66,0.30968
24453.47,0.311441
24569.36,0.31319
24686.36,0.311734
24804.47,0.312374
24923.73,0.312875
25044.13,0.313738
25165.71,0.314636
25288.46,0.315213
25412.43,0.318099
25537.61,0.320503
25664.04,0.321871
25791.72,0.324057
25920.68,0.323566
