Database of Origin,University of Winnipeg Spectrophotometer Facility
Sample Description,"RELAB + Nicolet merged data for spinels. Merged @2500nm, different viewing geometries. See Master Spinels in the PSF database for additional information."
Date Added,2016-11-08 17:54:00.193698

Data ID,RLA_SPI_02          
Sample ID,SPI101
Mineral Name,Spinel
Grain Size,<45
Viewing Geometry,"30/0,30/30"
Resolution,5/1.2-129
Composition,"Fe,Mg"
Material Class,Oxide

Wavelength
300.0,0.325142
305.0,0.35494
310.0,0.384789
315.0,0.40916
320.0,0.426517
325.0,0.444471
330.0,0.457937
335.0,0.470053
340.0,0.480279
345.0,0.491194
350.0,0.499508
355.0,0.507488
360.0,0.514936
365.0,0.51916
370.0,0.520665
375.0,0.52173
380.0,0.524508
385.0,0.525501
390.0,0.529575
395.0,0.535028
400.0,0.541266
405.0,0.547345
410.0,0.550743
415.0,0.555375
420.0,0.55924
425.0,0.566254
430.0,0.573245
435.0,0.578279
440.0,0.586394
445.0,0.591815
450.0,0.596248
455.0,0.601047
460.0,0.603945
465.0,0.605807
470.0,0.60999
475.0,0.613532
480.0,0.614234
485.0,0.617243
490.0,0.615715
495.0,0.615941
500.0,0.616761
505.0,0.614529
510.0,0.615995
515.0,0.611888
520.0,0.610476
525.0,0.610177
530.0,0.610575
535.0,0.608236
540.0,0.611541
545.0,0.614154
550.0,0.6153
555.0,0.618273
560.0,0.621343
565.0,0.626134
570.0,0.629658
575.0,0.636452
580.0,0.640616
585.0,0.645287
590.0,0.648888
595.0,0.655387
600.0,0.659167
605.0,0.661611
610.0,0.665748
615.0,0.670728
620.0,0.674483
625.0,0.676331
630.0,0.680932
635.0,0.68136
640.0,0.686754
645.0,0.687187
650.0,0.689968
655.0,0.692946
660.0,0.694902
665.0,0.696572
670.0,0.697795
675.0,0.698649
680.0,0.700109
685.0,0.699239
690.0,0.699209
695.0,0.698407
700.0,0.7019
705.0,0.702186
710.0,0.702275
715.0,0.704297
720.0,0.705644
725.0,0.706697
730.0,0.707663
735.0,0.708177
740.0,0.709434
745.0,0.709231
750.0,0.711361
755.0,0.712369
760.0,0.713378
765.0,0.715057
770.0,0.715074
775.0,0.714619
780.0,0.717046
785.0,0.715772
790.0,0.714497
795.0,0.716252
800.0,0.715393
805.0,0.717345
810.0,0.719932
815.0,0.719657
820.0,0.721099
825.0,0.721647
830.0,0.723588
835.0,0.723643
840.0,0.72378
845.0,0.725871
850.0,0.725118
855.0,0.725577
860.0,0.727423
865.0,0.728122
870.0,0.728408
875.0,0.72819
880.0,0.730087
885.0,0.730497
890.0,0.732024
895.0,0.731657
900.0,0.731278
905.0,0.732888
910.0,0.733952
915.0,0.732959
920.0,0.735145
925.0,0.736303
930.0,0.736881
935.0,0.737038
940.0,0.737456
945.0,0.737025
950.0,0.737867
955.0,0.74005
960.0,0.740396
965.0,0.74267
970.0,0.741974
975.0,0.744943
980.0,0.744185
985.0,0.744998
990.0,0.746451
995.0,0.747173
1000.0,0.746322
1005.0,0.746293
1010.0,0.747549
1015.0,0.749104
1020.0,0.748254
1025.0,0.749513
1030.0,0.748404
1035.0,0.751101
1040.0,0.748219
1045.0,0.750472
1050.0,0.750456
1055.0,0.750497
1060.0,0.749007
1065.0,0.750389
1070.0,0.751914
1075.0,0.752931
1080.0,0.752627
1085.0,0.75108
1090.0,0.751882
1095.0,0.751945
1100.0,0.752694
1105.0,0.753004
1110.0,0.753771
1115.0,0.752449
1120.0,0.753171
1125.0,0.752813
1130.0,0.753241
1135.0,0.753116
1140.0,0.754273
1145.0,0.756031
1150.0,0.752967
1155.0,0.756012
1160.0,0.754489
1165.0,0.753971
1170.0,0.754418
1175.0,0.755623
1180.0,0.754905
1185.0,0.757088
1190.0,0.75469
1195.0,0.755242
1200.0,0.757431
1205.0,0.756233
1210.0,0.758032
1215.0,0.756257
1220.0,0.755776
1225.0,0.755672
1230.0,0.757883
1235.0,0.758951
1240.0,0.75791
1245.0,0.758629
1250.0,0.757713
1255.0,0.757441
1260.0,0.755844
1265.0,0.756934
1270.0,0.756442
1275.0,0.753924
1280.0,0.753138
1285.0,0.752771
1290.0,0.752199
1295.0,0.75155
1300.0,0.749365
1305.0,0.750958
1310.0,0.75006
1315.0,0.748207
1320.0,0.749852
1325.0,0.750342
1330.0,0.750034
1335.0,0.747525
1340.0,0.750694
1345.0,0.747428
1350.0,0.746987
1355.0,0.745449
1360.0,0.743287
1365.0,0.742294
1370.0,0.742602
1375.0,0.742045
1380.0,0.742539
1385.0,0.740628
1390.0,0.73976
1395.0,0.740476
1400.0,0.74026
1405.0,0.737245
1410.0,0.735504
1415.0,0.735928
1420.0,0.735556
1425.0,0.733526
1430.0,0.732586
1435.0,0.731889
1440.0,0.729398
1445.0,0.726615
1450.0,0.727569
1455.0,0.724747
1460.0,0.722604
1465.0,0.72171
1470.0,0.717251
1475.0,0.714945
1480.0,0.716573
1485.0,0.711452
1490.0,0.709443
1495.0,0.706531
1500.0,0.707194
1505.0,0.702636
1510.0,0.701704
1515.0,0.700106
1520.0,0.698162
1525.0,0.688806
1530.0,0.692841
1535.0,0.687859
1540.0,0.683071
1545.0,0.685673
1550.0,0.67883
1555.0,0.677303
1560.0,0.67037
1565.0,0.666239
1570.0,0.668673
1575.0,0.66597
1580.0,0.660612
1585.0,0.657933
1590.0,0.65431
1595.0,0.649452
1600.0,0.64574
1605.0,0.645274
1610.0,0.63959
1615.0,0.635236
1620.0,0.633152
1625.0,0.629175
1630.0,0.626942
1635.0,0.623946
1640.0,0.619094
1645.0,0.62036
1650.0,0.611249
1655.0,0.610167
1660.0,0.607103
1665.0,0.602594
1670.0,0.598769
1675.0,0.597469
1680.0,0.59361
1685.0,0.59047
1690.0,0.585956
1695.0,0.582171
1700.0,0.580425
1705.0,0.575234
1710.0,0.573485
1715.0,0.569815
1720.0,0.565798
1725.0,0.563005
1730.0,0.562389
1735.0,0.558765
1740.0,0.555906
1745.0,0.551834
1750.0,0.550127
1755.0,0.546165
1760.0,0.544062
1765.0,0.540734
1770.0,0.539915
1775.0,0.535731
1780.0,0.533209
1785.0,0.531183
1790.0,0.528938
1795.0,0.527273
1800.0,0.524524
1805.0,0.520894
1810.0,0.518641
1815.0,0.516213
1820.0,0.513318
1825.0,0.513396
1830.0,0.509321
1835.0,0.507092
1840.0,0.505912
1845.0,0.505927
1850.0,0.502859
1855.0,0.50153
1860.0,0.500365
1865.0,0.499646
1870.0,0.497843
1875.0,0.4975
1880.0,0.498666
1885.0,0.495077
1890.0,0.493725
1895.0,0.493669
1900.0,0.490176
1905.0,0.489981
1910.0,0.490997
1915.0,0.490148
1920.0,0.487691
1925.0,0.490013
1930.0,0.486825
1935.0,0.487109
1940.0,0.485963
1945.0,0.485035
1950.0,0.48464
1955.0,0.484017
1960.0,0.484881
1965.0,0.484014
1970.0,0.48274
1975.0,0.483917
1980.0,0.484522
1985.0,0.48234
1990.0,0.482329
1995.0,0.482229
2000.0,0.480135
2005.0,0.481129
2010.0,0.481649
2015.0,0.481057
2020.0,0.481534
2025.0,0.479123
2030.0,0.478763
2035.0,0.480057
2040.0,0.47926
2045.0,0.47815
2050.0,0.480246
2055.0,0.478798
2060.0,0.479683
2065.0,0.480549
2070.0,0.480121
2075.0,0.481387
2080.0,0.48098
2085.0,0.480884
2090.0,0.480722
2095.0,0.4817
2100.0,0.483127
2105.0,0.483337
2110.0,0.483531
2115.0,0.484427
2120.0,0.484796
2125.0,0.486314
2130.0,0.487815
2135.0,0.487096
2140.0,0.48782
2145.0,0.489321
2150.0,0.4902
2155.0,0.490848
2160.0,0.492134
2165.0,0.493148
2170.0,0.494735
2175.0,0.495759
2180.0,0.497677
2185.0,0.499445
2190.0,0.500103
2195.0,0.500779
2200.0,0.503031
2205.0,0.504997
2210.0,0.506899
2215.0,0.508338
2220.0,0.510889
2225.0,0.51283
2230.0,0.514245
2235.0,0.515731
2240.0,0.517001
2245.0,0.518661
2250.0,0.520362
2255.0,0.52153
2260.0,0.522866
2265.0,0.524775
2270.0,0.526551
2275.0,0.527512
2280.0,0.528694
2285.0,0.53008
2290.0,0.531262
2295.0,0.532672
2300.0,0.534787
2305.0,0.536099
2310.0,0.536135
2315.0,0.538288
2320.0,0.538436
2325.0,0.538061
2330.0,0.538699
2335.0,0.539333
2340.0,0.541728
2345.0,0.541585
2350.0,0.54082
2355.0,0.540413
2360.0,0.543263
2365.0,0.542984
2370.0,0.546022
2375.0,0.546102
2380.0,0.545198
2385.0,0.545758
2390.0,0.547128
2395.0,0.547242
2400.0,0.547052
2405.0,0.546548
2410.0,0.5472
2415.0,0.547418
2420.0,0.548805
2425.0,0.55
2430.0,0.550565
2435.0,0.54748
2440.0,0.549
2445.0,0.547781
2450.0,0.548356
2455.0,0.547334
2460.0,0.545446
2465.0,0.546543
2470.0,0.544929
2475.0,0.547773
2480.0,0.546079
2485.0,0.545238
2490.0,0.545329
2495.0,0.544386
2500.0,0.545759
2502.0,0.545337
2503.2,0.545637
2504.41,0.545619
2505.62,0.545103
2506.83,0.545035
2508.05,0.545197
2509.26,0.545035
2510.48,0.545244
2511.69,0.545507
2512.91,0.54524
2514.13,0.545103
2515.35,0.545042
2516.57,0.545074
2517.79,0.544544
2519.02,0.544397
2520.24,0.544278
2521.47,0.54479
2522.69,0.545193
2523.92,0.544645
2525.15,0.544
2526.38,0.544177
2527.61,0.543982
2528.85,0.543881
2530.08,0.543813
2531.32,0.543759
2532.55,0.543885
2533.79,0.543867
2535.03,0.544321
2536.27,0.544025
2537.51,0.543593
2538.75,0.543524
2540.0,0.543539
2541.24,0.543535
2542.49,0.54355
2543.74,0.542973
2544.99,0.542973
2546.24,0.543232
2547.49,0.542995
2548.74,0.542789
2549.99,0.542937
2551.25,0.543009
2552.5,0.542674
2553.76,0.542537
2555.02,0.542602
2556.28,0.542609
2557.54,0.542944
2558.8,0.542778
2560.07,0.542104
2561.33,0.541369
2562.6,0.541776
2563.86,0.54244
2565.13,0.542317
2566.4,0.542699
2567.67,0.543009
2568.95,0.542263
2570.22,0.541899
2571.5,0.542631
2572.77,0.542692
2574.05,0.541899
2575.33,0.542248
2576.61,0.542418
2577.89,0.542039
2579.17,0.542212
2580.46,0.542501
2581.74,0.541874
2583.03,0.541942
2584.31,0.541171
2585.6,0.541531
2586.89,0.542429
2588.19,0.541856
2589.48,0.542277
2590.77,0.542508
2592.07,0.542299
2593.36,0.541618
2594.66,0.539423
2595.96,0.539444
2597.26,0.542915
2598.56,0.543499
2599.87,0.542649
2601.17,0.541621
2602.48,0.541135
2603.78,0.541171
2605.09,0.540886
2606.4,0.540601
2607.71,0.542039
2609.03,0.542274
2610.34,0.541456
2611.66,0.541452
2612.97,0.541124
2614.29,0.540973
2615.61,0.54112
2616.93,0.540299
2618.25,0.540756
2619.57,0.541459
2620.9,0.540544
2622.22,0.541045
2623.55,0.541928
2624.88,0.541427
2626.21,0.540299
2627.54,0.539084
2628.87,0.540071
2630.21,0.539542
2631.54,0.538763
2632.88,0.540129
2634.21,0.540198
2635.55,0.539852
2636.89,0.540133
2638.24,0.539841
2639.58,0.539369
2640.92,0.53903
2642.27,0.538896
2643.62,0.538904
2644.97,0.539012
2646.32,0.538237
2647.67,0.538064
2649.02,0.538183
2650.38,0.538204
2651.73,0.537988
2653.09,0.537253
2654.45,0.537307
2655.81,0.536954
2657.17,0.536957
2658.53,0.536964
2659.89,0.536251
2661.26,0.536099
2662.63,0.536323
2664.0,0.536236
2665.36,0.535151
2666.74,0.534456
2668.11,0.535458
2669.48,0.536179
2670.86,0.534077
2672.23,0.534557
2673.61,0.536308
2674.99,0.535112
2676.37,0.533789
2677.76,0.533684
2679.14,0.533994
2680.52,0.533706
2681.91,0.5342
2683.3,0.533288
2684.69,0.532556
2686.08,0.532437
2687.47,0.531962
2688.87,0.531825
2690.26,0.531547
2691.66,0.53123
2693.06,0.530552
2694.46,0.529503
2695.86,0.529561
2697.26,0.529521
2698.66,0.528346
2700.07,0.526504
2701.48,0.525243
2702.89,0.524735
2704.3,0.524245
2705.71,0.523008
2707.12,0.52223
2708.53,0.521574
2709.95,0.520636
2711.37,0.520846
2712.79,0.522093
2714.21,0.522392
2715.63,0.521527
2717.05,0.520939
2718.48,0.520121
2719.9,0.51896
2721.33,0.517764
2722.76,0.518578
2724.19,0.518067
2725.62,0.516383
2727.06,0.516834
2728.49,0.516437
2729.93,0.515111
2731.37,0.514138
2732.81,0.513972
2734.25,0.513118
2735.69,0.511647
2737.14,0.511222
2738.58,0.510227
2740.03,0.508046
2741.48,0.507888
2742.93,0.508601
2744.38,0.508266
2745.83,0.507052
2747.29,0.505808
2748.75,0.504856
2750.2,0.504521
2751.66,0.503245
2753.13,0.502059
2754.59,0.500704
2756.05,0.498671
2757.52,0.498653
2758.99,0.499244
2760.46,0.497471
2761.93,0.495633
2763.4,0.494508
2764.87,0.49488
2766.35,0.495193
2767.82,0.494389
2769.3,0.493859
2770.78,0.493193
2772.26,0.492594
2773.75,0.492793
2775.23,0.492104
2776.72,0.490969
2778.21,0.489887
2779.7,0.48943
2781.19,0.488572
2782.68,0.487642
2784.18,0.487076
2785.67,0.486326
2787.17,0.484899
2788.67,0.484668
2790.17,0.485324
2791.67,0.484679
2793.18,0.483616
2794.68,0.482974
2796.19,0.482318
2797.7,0.481738
2799.21,0.481186
2800.72,0.480541
2802.24,0.479831
2803.75,0.478945
2805.27,0.479056
2806.79,0.479366
2808.31,0.478894
2809.83,0.478152
2811.35,0.477564
2812.88,0.477434
2814.41,0.477225
2815.93,0.476948
2817.46,0.476385
2819.0,0.475982
2820.53,0.475975
2822.07,0.476421
2823.6,0.476357
2825.14,0.475866
2826.68,0.475203
2828.22,0.47459
2829.77,0.474302
2831.31,0.473671
2832.86,0.473084
2834.41,0.472619
2835.96,0.472485
2837.51,0.47237
2839.07,0.472226
2840.62,0.472111
2842.18,0.471844
2843.74,0.471729
2845.3,0.471617
2846.86,0.471631
2848.43,0.471707
2849.99,0.471296
2851.56,0.470737
2853.13,0.470669
2854.7,0.470564
2856.27,0.470665
2857.85,0.470471
2859.42,0.470229
2861.0,0.470218
2862.58,0.470445
2864.16,0.470489
2865.75,0.470193
2867.33,0.469667
2868.92,0.469418
2870.51,0.469451
2872.1,0.469588
2873.69,0.469526
2875.28,0.469624
2876.88,0.469606
2878.48,0.469249
2880.07,0.469205
2881.68,0.46936
2883.28,0.469642
2884.88,0.469977
2886.49,0.469595
2888.1,0.469364
2889.71,0.469252
2891.32,0.469274
2892.93,0.469476
2894.55,0.46931
2896.16,0.469119
2897.78,0.469029
2899.4,0.468899
2901.03,0.469004
2902.65,0.469303
2904.28,0.469631
2905.91,0.469735
2907.54,0.469779
2909.17,0.47015
2910.8,0.470528
2912.44,0.470831
2914.07,0.470319
2915.71,0.469952
2917.35,0.470171
2918.99,0.470481
2920.64,0.47038
2922.29,0.470427
2923.93,0.470489
2925.58,0.470896
2927.24,0.470982
2928.89,0.471141
2930.55,0.471094
2932.2,0.471346
2933.86,0.471404
2935.52,0.471372
2937.19,0.47148
2938.85,0.471725
2940.52,0.472085
2942.19,0.472576
2943.86,0.472399
2945.53,0.472193
2947.21,0.472284
2948.88,0.472619
2950.56,0.472824
2952.24,0.472666
2953.92,0.472698
2955.61,0.472904
2957.29,0.473098
2958.98,0.473264
2960.67,0.473401
2962.36,0.473693
2964.06,0.473668
2965.75,0.473621
2967.45,0.473999
2969.15,0.474219
2970.85,0.474533
2972.55,0.474439
2974.26,0.474327
2975.97,0.474623
2977.68,0.474843
2979.39,0.474825
2981.1,0.475163
2982.82,0.475513
2984.53,0.475899
2986.25,0.475866
2987.97,0.476061
2989.7,0.476461
2991.42,0.476692
2993.15,0.476847
2994.88,0.476713
2996.61,0.47702
2998.34,0.477384
3000.08,0.477701
3001.82,0.477892
3003.55,0.478029
3005.3,0.478296
3007.04,0.478808
3008.78,0.479186
3010.53,0.47946
3012.28,0.47973
3014.03,0.480062
3015.79,0.4803
3017.54,0.480754
3019.3,0.481136
3021.06,0.481388
3022.82,0.481684
3024.58,0.482098
3026.35,0.482506
3028.12,0.482909
3029.89,0.483421
3031.66,0.483695
3033.43,0.483839
3035.21,0.484171
3036.99,0.484441
3038.77,0.484704
3040.55,0.485422
3042.33,0.485872
3044.12,0.486218
3045.91,0.486716
3047.7,0.487058
3049.49,0.48753
3051.29,0.487916
3053.08,0.48832
3054.88,0.488849
3056.68,0.489635
3058.49,0.490089
3060.29,0.490576
3062.1,0.491052
3063.91,0.491719
3065.72,0.492194
3067.54,0.492638
3069.35,0.493131
3071.17,0.493737
3072.99,0.494443
3074.81,0.494905
3076.64,0.49542
3078.47,0.496018
3080.29,0.496721
3082.13,0.497341
3083.96,0.497788
3085.79,0.498163
3087.63,0.498679
3089.47,0.499244
3091.31,0.49972
3093.16,0.500221
3095.01,0.500629
3096.85,0.500996
3098.71,0.501497
3100.56,0.502225
3102.41,0.502604
3104.27,0.502824
3106.13,0.503051
3107.99,0.503689
3109.86,0.504283
3111.73,0.504701
3113.59,0.505228
3115.47,0.505826
3117.34,0.506183
3119.21,0.506615
3121.09,0.507023
3122.97,0.507524
3124.86,0.507981
3126.74,0.508511
3128.63,0.50911
3130.52,0.509661
3132.41,0.510169
3134.3,0.510559
3136.2,0.511222
3138.1,0.511835
3140.0,0.512462
3141.9,0.51302
3143.81,0.513493
3145.71,0.513961
3147.62,0.514498
3149.54,0.515042
3151.45,0.515576
3153.37,0.516055
3155.29,0.516556
3157.21,0.517288
3159.13,0.517995
3161.06,0.518474
3162.99,0.518935
3164.92,0.519544
3166.85,0.520085
3168.79,0.520435
3170.72,0.521116
3172.67,0.521574
3174.61,0.522208
3176.55,0.522796
3178.5,0.523228
3180.45,0.523589
3182.4,0.523909
3184.36,0.524439
3186.32,0.524955
3188.27,0.525521
3190.24,0.526104
3192.2,0.526544
3194.17,0.527157
3196.14,0.527561
3198.11,0.527997
3200.08,0.528354
3202.06,0.528923
3204.04,0.529536
3206.02,0.529921
3208.0,0.530383
3209.99,0.53075
3211.98,0.53105
3213.97,0.531363
3215.96,0.531652
3217.96,0.53198
3219.96,0.532369
3221.96,0.53278
3223.96,0.533007
3225.97,0.533396
3227.98,0.533832
3229.99,0.533976
3232.0,0.534308
3234.02,0.534827
3236.04,0.53509
3238.06,0.53549
3240.08,0.535728
3242.11,0.535905
3244.14,0.535984
3246.17,0.536312
3248.2,0.536608
3250.24,0.537069
3252.28,0.53753
3254.32,0.537714
3256.37,0.537941
3258.41,0.538302
3260.46,0.538453
3262.51,0.538709
3264.57,0.539217
3266.63,0.539797
3268.69,0.540082
3270.75,0.540363
3272.81,0.540749
3274.88,0.54121
3276.95,0.541488
3279.02,0.541845
3281.1,0.542558
3283.18,0.542915
3285.26,0.543139
3287.34,0.543474
3289.43,0.543925
3291.51,0.544501
3293.61,0.544999
3295.7,0.545341
3297.8,0.545474
3299.9,0.545752
3302.0,0.546098
3304.1,0.546624
3306.21,0.547114
3308.32,0.547468
3310.43,0.547951
3312.55,0.548293
3314.66,0.548448
3316.79,0.548816
3318.91,0.548823
3321.03,0.548801
3323.16,0.549133
3325.29,0.549374
3327.43,0.549432
3329.57,0.549558
3331.71,0.549522
3333.85,0.549598
3335.99,0.549612
3338.14,0.549472
3340.29,0.549212
3342.45,0.548866
3344.6,0.548625
3346.76,0.54848
3348.92,0.547879
3351.09,0.547338
3353.26,0.546581
3355.43,0.545849
3357.6,0.54493
3359.78,0.544098
3361.96,0.54294
3364.14,0.541841
3366.32,0.540637
3368.51,0.53912
3370.7,0.537642
3372.89,0.536417
3375.09,0.535249
3377.29,0.534265
3379.49,0.533818
3381.69,0.533886
3383.9,0.534214
3386.11,0.534748
3388.32,0.535123
3390.54,0.535184
3392.76,0.534964
3394.98,0.534459
3397.21,0.533605
3399.43,0.532416
3401.66,0.530718
3403.9,0.528952
3406.13,0.527251
3408.37,0.525391
3410.61,0.523632
3412.86,0.522064
3415.11,0.520741
3417.36,0.520254
3419.61,0.520694
3421.87,0.522003
3424.13,0.523949
3426.39,0.526515
3428.66,0.529038
3430.93,0.531367
3433.2,0.533547
3435.48,0.535789
3437.76,0.537747
3440.04,0.539325
3442.32,0.540648
3444.61,0.541884
3446.9,0.543186
3449.19,0.544375
3451.49,0.545334
3453.79,0.546022
3456.09,0.546703
3458.4,0.547623
3460.7,0.548261
3463.02,0.548881
3465.33,0.549252
3467.65,0.549302
3469.97,0.549079
3472.29,0.548812
3474.62,0.54847
3476.95,0.548246
3479.29,0.547947
3481.62,0.547738
3483.96,0.54776
3486.3,0.548008
3488.65,0.548145
3491.0,0.548257
3493.35,0.548149
3495.71,0.547781
3498.07,0.547021
3500.43,0.546577
3502.79,0.546653
3505.16,0.547644
3507.53,0.549392
3509.91,0.551915
3512.29,0.554651
3514.67,0.557693
3517.05,0.560436
3519.44,0.562743
3521.83,0.564671
3524.23,0.566091
3526.62,0.56727
3529.02,0.568398
3531.43,0.569397
3533.83,0.570219
3536.24,0.570957
3538.66,0.571714
3541.08,0.57232
3543.5,0.572781
3545.92,0.573181
3548.35,0.573664
3550.78,0.574151
3553.21,0.574793
3555.65,0.575322
3558.09,0.575715
3560.53,0.57605
3562.98,0.576649
3565.43,0.577103
3567.88,0.577507
3570.34,0.577896
3572.8,0.578181
3575.27,0.57839
3577.73,0.579006
3580.2,0.579475
3582.68,0.579954
3585.16,0.580239
3587.64,0.580419
3590.12,0.581057
3592.61,0.581432
3595.1,0.581619
3597.6,0.582066
3600.09,0.582311
3602.6,0.58256
3605.1,0.582704
3607.61,0.583075
3610.12,0.583537
3612.64,0.583717
3615.16,0.584002
3617.68,0.584305
3620.21,0.584503
3622.74,0.58482
3625.27,0.585051
3627.81,0.585173
3630.35,0.585465
3632.89,0.585786
3635.44,0.586053
3637.99,0.586265
3640.54,0.586366
3643.1,0.586507
3645.66,0.586738
3648.23,0.587047
3650.8,0.587347
3653.37,0.587523
3655.95,0.587711
3658.53,0.587862
3661.11,0.588064
3663.7,0.588302
3666.29,0.588504
3668.89,0.588767
3671.48,0.589052
3674.09,0.589329
3676.69,0.5897
3679.3,0.589945
3681.91,0.590205
3684.53,0.590461
3687.15,0.590648
3689.78,0.590818
3692.4,0.591178
3695.04,0.591351
3697.67,0.591665
3700.31,0.591928
3702.95,0.59204
3705.6,0.592191
3708.25,0.592468
3710.91,0.592696
3713.56,0.592912
3716.23,0.593081
3718.89,0.593341
3721.56,0.593571
3724.23,0.593676
3726.91,0.593903
3729.59,0.594285
3732.28,0.594433
3734.97,0.594591
3737.66,0.594923
3740.36,0.595161
3743.06,0.595284
3745.76,0.595431
3748.47,0.595651
3751.18,0.596008
3753.9,0.596105
3756.62,0.596307
3759.34,0.596596
3762.07,0.596815
3764.8,0.596848
3767.54,0.597032
3770.28,0.597324
3773.02,0.597453
3775.77,0.5975
3778.52,0.597706
3781.28,0.597994
3784.04,0.598336
3786.8,0.598354
3789.57,0.598636
3792.34,0.598938
3795.12,0.599036
3797.9,0.599205
3800.69,0.599302
3803.47,0.599533
3806.27,0.599666
3809.06,0.599789
3811.86,0.60002
3814.67,0.600077
3817.48,0.600315
3820.29,0.600568
3823.11,0.600722
3825.93,0.600838
3828.76,0.600993
3831.59,0.601105
3834.42,0.601242
3837.26,0.6014
3840.1,0.601595
3842.95,0.601872
3845.8,0.60202
3848.65,0.602175
3851.51,0.602301
3854.38,0.60237
3857.24,0.602572
3860.12,0.602809
3862.99,0.603019
3865.87,0.603246
3868.76,0.603397
3871.65,0.603566
3874.54,0.603664
3877.44,0.60379
3880.34,0.603855
3883.25,0.603959
3886.16,0.604168
3889.07,0.604237
3891.99,0.604374
3894.92,0.604583
3897.85,0.604615
3900.78,0.604803
3903.72,0.60495
3906.66,0.605048
3909.6,0.605037
3912.55,0.605217
3915.51,0.605401
3918.47,0.605531
3921.43,0.605498
3924.4,0.605675
3927.38,0.605707
3930.35,0.6057
3933.33,0.605877
3936.32,0.605989
3939.31,0.605981
3942.31,0.606028
3945.31,0.606017
3948.31,0.60601
3951.32,0.606017
3954.34,0.605909
3957.35,0.605902
3960.38,0.605916
3963.41,0.605935
3966.44,0.606111
3969.48,0.606255
3972.52,0.606234
3975.56,0.606165
3978.61,0.60623
3981.67,0.606389
3984.73,0.606627
3987.8,0.606778
3990.87,0.606854
3993.94,0.606944
3997.02,0.607128
4000.1,0.607236
4003.19,0.607344
4006.29,0.607477
4009.39,0.607711
4012.49,0.607841
4015.6,0.607949
4018.71,0.608007
4021.83,0.608205
4024.95,0.608321
4028.08,0.608562
4031.21,0.608775
4034.35,0.608858
4037.49,0.609027
4040.64,0.609146
4043.79,0.609254
4046.94,0.609362
4050.11,0.609485
4053.27,0.609694
4056.44,0.609849
4059.62,0.609892
4062.8,0.609892
4065.99,0.610051
4069.18,0.610112
4072.38,0.61022
4075.58,0.610289
4078.78,0.610371
4082.0,0.610566
4085.21,0.610764
4088.43,0.610883
4091.66,0.61097
4094.89,0.610937
4098.13,0.611049
4101.37,0.611114
4104.62,0.611229
4107.87,0.611348
4111.13,0.61151
4114.39,0.611608
4117.66,0.61168
4120.93,0.611698
4124.21,0.61177
4127.5,0.611889
4130.79,0.612116
4134.08,0.612325
4137.38,0.612495
4140.68,0.612466
4143.99,0.612599
4147.31,0.612826
4150.63,0.612927
4153.95,0.612963
4157.29,0.613093
4160.62,0.613244
4163.96,0.613269
4167.31,0.613324
4170.66,0.6135
4174.02,0.613547
4177.39,0.613536
4180.75,0.613583
4184.13,0.613734
4187.51,0.613879
4190.89,0.614048
4194.28,0.614232
4197.68,0.614271
4201.08,0.614192
4204.49,0.614077
4207.9,0.61398
4211.32,0.61372
4214.74,0.613381
4218.17,0.612974
4221.61,0.612599
4225.05,0.612314
4228.5,0.612249
4231.95,0.612311
4235.4,0.612307
4238.87,0.612513
4242.34,0.612808
4245.81,0.613114
4249.29,0.613583
4252.78,0.614268
4256.27,0.61505
4259.77,0.615428
4263.27,0.615061
4266.78,0.61452
4270.29,0.614315
4273.81,0.61439
4277.34,0.614372
4280.87,0.614535
4284.41,0.614765
4287.95,0.615
4291.5,0.615212
4295.06,0.615486
4298.62,0.615713
4302.19,0.616157
4305.76,0.616279
4309.34,0.61647
4312.92,0.616971
4316.52,0.617274
4320.11,0.617501
4323.72,0.617897
4327.32,0.618204
4330.94,0.618398
4334.56,0.618532
4338.19,0.618903
4341.82,0.619062
4345.46,0.619386
4349.11,0.619631
4352.76,0.619703
4356.42,0.619815
4360.08,0.620121
4363.75,0.620305
4367.43,0.620475
4371.11,0.620658
4374.8,0.620763
4378.49,0.62094
4382.19,0.621149
4385.9,0.621332
4389.61,0.621336
4393.33,0.621433
4397.06,0.621632
4400.79,0.621808
4404.53,0.621952
4408.28,0.622172
4412.03,0.622266
4415.79,0.622352
4419.55,0.622504
4423.32,0.622713
4427.1,0.62298
4430.88,0.622972
4434.68,0.623023
4438.47,0.62325
4442.28,0.623538
4446.08,0.623639
4449.9,0.623693
4453.72,0.623834
4457.55,0.624007
4461.39,0.62423
4465.23,0.624407
4469.08,0.624483
4472.94,0.624677
4476.8,0.624807
4480.67,0.624937
4484.55,0.625092
4488.43,0.625204
4492.32,0.625247
4496.21,0.625373
4500.12,0.625477
4504.03,0.625669
4507.94,0.625816
4511.87,0.626011
4515.8,0.626198
4519.73,0.626317
4523.68,0.62644
4527.63,0.62662
4531.59,0.626732
4535.55,0.626955
4539.52,0.627103
4543.5,0.627247
4547.49,0.62742
4551.48,0.627586
4555.48,0.62764
4559.49,0.627752
4563.5,0.627932
4567.52,0.62813
4571.55,0.628206
4575.58,0.628404
4579.63,0.628484
4583.67,0.628758
4587.73,0.628913
4591.79,0.628985
4595.86,0.629161
4599.94,0.629385
4604.03,0.629493
4608.12,0.629662
4612.22,0.629774
4616.33,0.630012
4620.44,0.63012
4624.56,0.630188
4628.69,0.630307
4632.83,0.630441
4636.97,0.630556
4641.12,0.630726
4645.28,0.630834
4649.45,0.630971
4653.62,0.631133
4657.8,0.631169
4661.99,0.631367
4666.19,0.631673
4670.39,0.631753
4674.6,0.631836
4678.82,0.631818
4683.05,0.631933
4687.28,0.632088
4691.52,0.632358
4695.77,0.632567
4700.03,0.63269
4704.3,0.632834
4708.57,0.633018
4712.85,0.633249
4717.14,0.633378
4721.43,0.633537
4725.74,0.633674
4730.05,0.633836
4734.37,0.633962
4738.7,0.634027
4743.03,0.63433
4747.38,0.634467
4751.73,0.634625
4756.09,0.634661
4760.45,0.634744
4764.83,0.634979
4769.21,0.63517
4773.6,0.635285
4778.0,0.635325
4782.41,0.635454
4786.83,0.63562
4791.25,0.635685
4795.68,0.63593
4800.13,0.636064
4804.57,0.636215
4809.03,0.636294
4813.5,0.636374
4817.97,0.636399
4822.45,0.6365
4826.94,0.636532
4831.44,0.636669
4835.95,0.63686
4840.46,0.637058
4844.99,0.637127
4849.52,0.637221
4854.06,0.637343
4858.61,0.637491
4863.17,0.637588
4867.73,0.637635
4872.31,0.637675
4876.89,0.637848
4881.48,0.638032
4886.08,0.638201
4890.69,0.638255
4895.31,0.638327
4899.94,0.638489
4904.57,0.63859
4909.22,0.638641
4913.87,0.638796
4918.53,0.63899
4923.21,0.639138
4927.88,0.639149
4932.57,0.639297
4937.27,0.639369
4941.98,0.639538
4946.69,0.639722
4951.42,0.639827
4956.15,0.639895
4960.9,0.639978
4965.65,0.640111
4970.41,0.640338
4975.18,0.640403
4979.96,0.640483
4984.75,0.640504
4989.54,0.640602
4994.35,0.640659
4999.17,0.640818
5003.99,0.640861
5008.83,0.64098
5013.67,0.641088
5018.52,0.641218
5023.39,0.641373
5028.26,0.641521
5033.14,0.641557
5038.03,0.641661
5042.93,0.641751
5047.84,0.641968
5052.76,0.642043
5057.69,0.642108
5062.63,0.642141
5067.58,0.642263
5072.54,0.642386
5077.51,0.642505
5082.49,0.642476
5087.47,0.642479
5092.47,0.642613
5097.48,0.642699
5102.5,0.642703
5107.52,0.642753
5112.56,0.642807
5117.61,0.642908
5122.66,0.642941
5127.73,0.642991
5132.81,0.643053
5137.89,0.643089
5142.99,0.643161
5148.1,0.643265
5153.22,0.643287
5158.34,0.643355
5163.48,0.643326
5168.63,0.643427
5173.79,0.643496
5178.96,0.643582
5184.13,0.643597
5189.32,0.643582
5194.52,0.643521
5199.73,0.643539
5204.96,0.643572
5210.19,0.643665
5215.43,0.643622
5220.68,0.643651
5225.94,0.643618
5231.22,0.643557
5236.5,0.643417
5241.79,0.643395
5247.1,0.643355
5252.42,0.643395
5257.74,0.643236
5263.08,0.643161
5268.43,0.643067
5273.79,0.64298
5279.16,0.642851
5284.54,0.642753
5289.93,0.642505
5295.34,0.642429
5300.75,0.642292
5306.18,0.642166
5311.61,0.641946
5317.06,0.641805
5322.52,0.641622
5327.99,0.641477
5333.47,0.641294
5338.96,0.641182
5344.47,0.640897
5349.98,0.64085
5355.51,0.640811
5361.05,0.640785
5366.6,0.640699
5372.16,0.640699
5377.73,0.640591
5383.32,0.640493
5388.91,0.64032
5394.52,0.640248
5400.14,0.640122
5405.77,0.639989
5411.41,0.639881
5417.07,0.639852
5422.74,0.639527
5428.41,0.639618
5434.1,0.639502
5439.81,0.639372
5445.52,0.639077
5451.25,0.638882
5456.98,0.638594
5462.73,0.638363
5468.5,0.638212
5474.27,0.638068
5480.06,0.637848
5485.86,0.637711
5491.67,0.637459
5497.49,0.637311
5503.33,0.637022
5509.18,0.636914
5515.04,0.636655
5520.91,0.636435
5526.8,0.636092
5532.69,0.635865
5538.61,0.635465
5544.53,0.635062
5550.47,0.634528
5556.41,0.633984
5562.38,0.633393
5568.35,0.633076
5574.34,0.632585
5580.34,0.632301
5586.35,0.632124
5592.38,0.632059
5598.42,0.631774
5604.47,0.631508
5610.54,0.631169
5616.61,0.630873
5622.71,0.630488
5628.81,0.630044
5634.93,0.629601
5641.06,0.629179
5647.21,0.628794
5653.36,0.628318
5659.54,0.627658
5665.72,0.627006
5671.92,0.626177
5678.13,0.625499
5684.36,0.624584
5690.6,0.62378
5696.85,0.622814
5703.12,0.621736
5709.4,0.620449
5715.69,0.619368
5722.0,0.618153
5728.33,0.616975
5734.66,0.615616
5741.01,0.614553
5747.38,0.613172
5753.76,0.612037
5760.15,0.610779
5766.56,0.609492
5772.98,0.60849
5779.41,0.60747
5785.86,0.606071
5792.33,0.604705
5798.81,0.603246
5805.3,0.601559
5811.81,0.599681
5818.33,0.597821
5824.87,0.595748
5831.42,0.593658
5837.99,0.591066
5844.57,0.588161
5851.17,0.584878
5857.78,0.581544
5864.41,0.577528
5871.05,0.573531
5877.7,0.569
5884.38,0.564736
5891.06,0.559971
5897.76,0.555657
5904.48,0.551274
5911.21,0.546909
5917.96,0.542825
5924.73,0.538788
5931.5,0.534953
5938.3,0.531367
5945.11,0.527957
5951.93,0.524684
5958.78,0.52135
5965.63,0.518095
5972.51,0.515136
5979.39,0.512451
5986.3,0.509755
5993.22,0.507383
6000.16,0.505174
6007.11,0.503231
6014.08,0.501378
6021.06,0.500045
6028.06,0.498816
6035.08,0.49777
6042.12,0.496992
6049.17,0.496415
6056.23,0.496916
6063.32,0.497529
6070.42,0.497471
6077.53,0.498084
6084.67,0.499338
6091.82,0.500322
6098.98,0.501151
6106.17,0.502157
6113.37,0.502878
6120.58,0.504107
6127.82,0.504975
6135.07,0.505289
6142.34,0.50548
6149.63,0.50579
6156.93,0.505898
6164.25,0.505916
6171.59,0.505909
6178.95,0.505624
6186.32,0.505141
6193.71,0.504918
6201.12,0.504446
6208.54,0.503811
6215.99,0.503162
6223.45,0.502629
6230.93,0.502063
6238.43,0.501458
6245.95,0.500755
6253.48,0.50016
6261.03,0.499403
6268.6,0.49865
6276.19,0.497954
6283.8,0.497385
6291.43,0.496884
6299.07,0.496541
6306.73,0.496195
6314.42,0.495982
6322.12,0.495727
6329.84,0.495525
6337.57,0.495258
6345.33,0.495024
6353.11,0.495081
6360.9,0.495103
6368.72,0.49475
6376.55,0.494609
6384.4,0.494447
6392.27,0.494011
6400.17,0.493506
6408.08,0.492825
6416.01,0.491967
6423.96,0.491517
6431.93,0.490558
6439.92,0.489386
6447.93,0.488175
6455.96,0.486878
6464.01,0.485436
6472.08,0.483976
6480.17,0.482567
6488.28,0.481284
6496.41,0.480055
6504.56,0.478999
6512.73,0.477769
6520.92,0.476584
6529.14,0.475499
6537.37,0.474389
6545.63,0.473131
6553.9,0.471902
6562.2,0.470629
6570.51,0.469202
6578.85,0.467811
6587.21,0.466358
6595.59,0.464682
6603.99,0.463157
6612.42,0.46169
6620.86,0.460414
6629.33,0.459016
6637.82,0.457761
6646.33,0.45654
6654.86,0.455123
6663.41,0.453361
6671.99,0.451717
6680.59,0.450037
6689.21,0.448527
6697.85,0.446916
6706.51,0.445164
6715.2,0.44334
6723.91,0.4417
6732.64,0.439898
6741.4,0.438035
6750.18,0.43629
6758.98,0.434603
6767.8,0.432707
6776.65,0.430866
6785.52,0.428706
6794.41,0.426515
6803.33,0.423949
6812.27,0.4214
6821.23,0.418953
6830.22,0.416707
6839.23,0.41435
6848.26,0.411946
6857.32,0.409416
6866.4,0.406795
6875.51,0.403915
6884.64,0.401018
6893.8,0.398224
6902.98,0.395449
6912.18,0.392684
6921.41,0.389902
6930.66,0.387126
6939.94,0.384542
6949.24,0.381983
6958.57,0.379593
6967.92,0.37734
6977.3,0.375253
6986.7,0.373275
6996.13,0.371555
7005.59,0.370056
7015.07,0.368978
7024.57,0.368355
7034.1,0.368387
7043.66,0.36878
7053.25,0.370027
7062.85,0.371606
7072.49,0.373393
7082.15,0.375459
7091.84,0.377859
7101.55,0.380476
7111.3,0.383237
7121.06,0.385969
7130.86,0.388842
7140.68,0.391387
7150.53,0.393906
7160.41,0.396325
7170.31,0.398538
7180.24,0.400578
7190.2,0.402409
7200.19,0.403876
7210.2,0.405271
7220.24,0.406514
7230.31,0.407574
7240.41,0.408507
7250.54,0.409286
7260.69,0.410003
7270.88,0.41062
7281.09,0.411005
7291.33,0.411304
7301.6,0.411427
7311.9,0.411452
7322.22,0.411463
7332.58,0.411578
7342.97,0.411528
7353.38,0.411398
7363.83,0.411052
7374.3,0.41053
7384.81,0.409856
7395.34,0.40907
7405.91,0.408208
7416.5,0.407311
7427.13,0.406309
7437.78,0.405206
7448.47,0.403988
7459.19,0.402564
7469.94,0.400953
7480.71,0.399219
7491.52,0.397348
7502.37,0.395369
7513.24,0.393135
7524.14,0.39077
7535.08,0.3882
7546.05,0.385475
7557.05,0.382516
7568.08,0.379315
7579.15,0.375974
7590.24,0.372582
7601.37,0.368906
7612.53,0.365316
7623.73,0.361542
7634.96,0.357794
7646.22,0.353962
7657.51,0.350145
7668.84,0.346216
7680.2,0.342414
7691.59,0.338557
7703.02,0.334852
7714.49,0.331237
7725.98,0.327802
7737.52,0.324453
7749.08,0.321223
7760.68,0.318008
7772.32,0.315071
7783.99,0.312245
7795.69,0.309581
7807.43,0.306885
7819.21,0.304377
7831.02,0.301908
7842.87,0.299604
7854.75,0.297251
7866.67,0.294857
7878.62,0.2925
7890.62,0.290262
7902.64,0.287933
7914.71,0.285544
7926.81,0.282815
7938.95,0.280097
7951.13,0.277264
7963.34,0.274489
7975.59,0.271573
7987.88,0.268798
8000.21,0.265903
8012.57,0.263063
8024.98,0.260327
8037.42,0.257797
8049.9,0.255216
8062.42,0.252881
8074.98,0.250613
8087.57,0.248498
8100.21,0.246339
8112.89,0.244374
8125.6,0.242352
8138.36,0.240391
8151.16,0.238294
8163.99,0.236189
8176.87,0.233979
8189.79,0.231827
8202.75,0.229528
8215.75,0.227365
8228.79,0.225152
8241.87,0.222971
8254.99,0.220639
8268.16,0.218379
8281.37,0.215972
8294.62,0.213452
8307.91,0.210677
8321.24,0.20788
8334.62,0.204834
8348.04,0.201666
8361.51,0.19831
8375.02,0.195023
8388.57,0.191599
8402.16,0.188283
8415.8,0.185057
8429.49,0.182076
8443.22,0.179135
8456.99,0.176496
8470.81,0.173883
8484.67,0.171439
8498.58,0.168884
8512.54,0.166566
8526.54,0.16436
8540.58,0.1624
8554.68,0.160323
8568.82,0.158352
8583.0,0.156186
8597.24,0.153951
8611.52,0.15146
8625.85,0.149056
8640.23,0.146428
8654.65,0.143711
8669.12,0.140737
8683.64,0.138012
8698.21,0.135208
8712.83,0.132584
8727.5,0.12983
8742.22,0.127325
8756.99,0.124838
8771.8,0.122546
8786.67,0.120188
8801.59,0.118055
8816.56,0.116007
8831.58,0.114393
8846.65,0.112908
8861.77,0.111581
8876.94,0.110305
8892.17,0.109264
8907.45,0.108211
8922.78,0.107112
8938.16,0.105843
8953.6,0.10456
8969.09,0.102927
8984.64,0.101319
9000.23,0.099499
9015.89,0.097708
9031.59,0.095707
9047.36,0.093851
9063.17,0.091836
9079.05,0.089926
9094.97,0.087875
9110.96,0.085979
9127.0,0.083961
9143.1,0.081986
9159.25,0.079805
9175.46,0.07783
9191.73,0.075696
9208.06,0.073706
9224.44,0.071554
9240.88,0.06955
9257.38,0.067355
9273.94,0.06547
9290.56,0.063376
9307.24,0.061368
9323.98,0.059235
9340.78,0.057331
9357.64,0.055198
9374.57,0.053356
9391.55,0.051294
9408.59,0.049467
9425.7,0.047596
9442.87,0.045844
9460.1,0.04397
9477.4,0.042344
9494.75,0.040485
9512.17,0.038798
9529.66,0.037118
9547.21,0.035604
9564.83,0.033899
9582.5,0.032385
9600.25,0.030753
9618.06,0.029361
9635.94,0.027916
9653.88,0.026719
9671.89,0.025425
9689.97,0.024315
9708.12,0.023086
9726.33,0.022016
9744.62,0.020711
9762.97,0.019669
9781.39,0.018646
9799.88,0.017636
9818.44,0.016559
9837.07,0.015769
9855.77,0.014828
9874.54,0.014039
9893.39,0.01317
9912.3,0.012684
9931.29,0.012046
9950.36,0.011462
9969.49,0.01073
9988.7,0.010373
10007.98,0.009952
10027.34,0.00953
10046.77,0.008997
10066.28,0.008759
10085.87,0.008423
10105.53,0.008211
10125.26,0.0078
10145.08,0.00762
10164.97,0.007407
10184.94,0.00736
10204.99,0.007169
10225.12,0.007129
10245.33,0.007021
10265.61,0.007137
10285.98,0.007191
10306.43,0.007302
10326.96,0.007508
10347.57,0.007944
10368.27,0.008106
10389.05,0.008517
10409.91,0.009011
10430.86,0.009764
10451.88,0.010424
10473.0,0.011422
10494.2,0.012457
10515.49,0.013765
10536.86,0.015113
10558.32,0.016699
10579.87,0.018372
10601.5,0.020415
10623.23,0.022473
10645.04,0.024863
10666.94,0.027274
10688.94,0.030097
10711.02,0.032915
10733.2,0.035878
10755.47,0.038888
10777.83,0.04229
10800.28,0.045635
10822.83,0.049081
10845.47,0.052419
10868.21,0.055994
10891.04,0.059426
10913.97,0.06307
10936.99,0.066678
10960.12,0.070585
10983.34,0.07469
11006.66,0.079362
11030.07,0.084256
11053.59,0.089562
11077.21,0.094929
11100.93,0.100682
11124.75,0.106308
11148.68,0.111866
11172.71,0.117146
11196.84,0.122232
11221.07,0.126788
11245.41,0.130897
11269.86,0.134361
11294.41,0.137468
11319.07,0.140031
11343.84,0.142449
11368.72,0.144608
11393.7,0.146922
11418.8,0.14897
11444.01,0.151006
11469.33,0.152772
11494.76,0.154304
11520.3,0.155367
11545.96,0.156146
11571.73,0.156607
11597.62,0.156914
11623.62,0.156928
11649.74,0.157022
11675.98,0.156899
11702.34,0.156683
11728.81,0.156113
11755.41,0.155393
11782.13,0.154279
11808.96,0.15296
11835.92,0.151291
11863.01,0.149615
11890.22,0.147838
11917.55,0.145974
11945.01,0.144014
11972.6,0.142446
12000.31,0.140921
12028.16,0.139454
12056.13,0.137796
12084.23,0.136297
12112.46,0.134779
12140.83,0.133308
12169.33,0.131921
12197.96,0.130648
12226.73,0.129297
12255.64,0.128439
12284.68,0.127657
12313.86,0.126997
12343.18,0.12664
12372.64,0.126615
12402.24,0.126622
12431.98,0.126835
12461.86,0.127239
12491.89,0.127905
12522.07,0.128342
12552.38,0.128879
12582.85,0.129639
12613.47,0.130508
12644.23,0.13133
12675.15,0.132292
12706.21,0.133265
12737.43,0.134415
12768.81,0.135568
12800.33,0.137115
12832.02,0.138816
12863.86,0.140665
12895.86,0.14228
12928.02,0.143891
12960.34,0.145372
12992.82,0.146904
13025.46,0.148306
13058.27,0.149752
13091.25,0.151143
13124.39,0.152621
13157.7,0.153951
13191.18,0.155191
13224.83,0.156023
13258.66,0.156997
13292.65,0.157869
13326.83,0.15873
13361.17,0.159383
13395.7,0.159963
13430.4,0.160208
13465.29,0.160381
13500.35,0.160536
13535.6,0.160785
13571.03,0.16094
13606.65,0.161055
13642.46,0.160997
13678.46,0.161077
13714.64,0.161019
13751.02,0.160767
13787.59,0.160298
13824.36,0.159833
13861.32,0.159195
13898.49,0.158586
13935.85,0.157808
13973.41,0.157043
14011.17,0.156088
14049.15,0.155147
14087.32,0.154268
14125.71,0.153587
14164.3,0.152898
14203.11,0.152192
14242.13,0.15159
14281.36,0.150984
14320.81,0.150047
14360.49,0.14897
14400.38,0.147463
14440.49,0.145848
14480.82,0.144024
14521.39,0.142103
14562.18,0.139868
14603.2,0.137468
14644.45,0.134938
14685.93,0.13227
14727.66,0.129463
14769.62,0.126785
14811.81,0.123933
14854.25,0.121313
14896.94,0.118721
14939.87,0.11622
14983.05,0.113286
15026.48,0.109977
15070.16,0.106762
15114.1,0.103219
15158.29,0.098843
15202.74,0.094302
15247.46,0.08953
15292.43,0.084703
15337.68,0.079704
15383.19,0.075094
15428.97,0.07074
15475.03,0.066764
15521.36,0.062929
15567.97,0.059501
15614.87,0.056156
15662.04,0.053085
15709.5,0.050087
15757.25,0.047416
15805.29,0.044644
15853.62,0.041591
15902.26,0.0383
15951.19,0.034927
16000.42,0.031711
16049.95,0.028792
16099.8,0.026035
16149.95,0.024153
16200.42,0.023501
16251.21,0.024625
16302.31,0.027786
16353.74,0.033683
16405.49,0.041591
16457.57,0.051215
16509.98,0.060842
16562.73,0.069886
16615.82,0.077963
16669.24,0.085449
16723.02,0.092276
16777.14,0.099308
16831.61,0.105868
16886.43,0.112183
16941.62,0.117435
16997.16,0.121191
17053.08,0.123605
17109.36,0.124788
17166.01,0.124452
17223.04,0.123299
17280.45,0.120621
17338.24,0.116411
17396.43,0.111062
17455.0,0.106676
17513.97,0.105612
17573.34,0.109862
17633.11,0.117409
17693.29,0.125761
17753.89,0.132793
17814.9,0.138668
17876.33,0.143282
17938.18,0.147157
18000.47,0.150191
18063.19,0.152675
18126.35,0.15465
18189.95,0.156445
18254.0,0.157761
18318.5,0.158979
18383.46,0.160006
18448.88,0.161448
18514.77,0.162583
18581.13,0.163492
18647.97,0.164191
18715.29,0.164584
18783.1,0.164905
18851.4,0.165633
18920.2,0.165943
18989.51,0.166292
19059.32,0.166595
19129.65,0.166772
19200.5,0.166858
19271.88,0.167626
19343.79,0.168112
19416.24,0.168621
19489.23,0.169021
19562.77,0.169731
19636.88,0.170149
19711.54,0.170387
19786.78,0.170336
19862.59,0.17061
19938.98,0.170491
20015.96,0.170758
20093.55,0.170884
20171.73,0.171263
20250.53,0.17132
20329.94,0.171392
20409.98,0.170928
20490.65,0.170801
20571.96,0.171173
20653.92,0.172236
20736.54,0.17327
20819.82,0.174413
20903.77,0.17552
20988.4,0.17663
21073.72,0.175476
21159.73,0.171893
21246.46,0.165438
21333.89,0.157429
21422.04,0.148847
21510.93,0.141952
21600.56,0.136286
21690.94,0.131614
21782.08,0.127725
21873.99,0.124398
21966.67,0.121565
22060.15,0.119565
22154.42,0.117611
22249.51,0.116047
22345.41,0.113964
22442.14,0.113257
22539.72,0.11219
22638.14,0.111131
22737.43,0.109357
22837.6,0.107988
22938.65,0.107324
23040.6,0.107296
23143.46,0.106694
23247.24,0.105883
23351.96,0.105169
23457.63,0.105281
23564.25,0.104834
23671.85,0.103893
23780.44,0.103169
23890.02,0.102455
24000.63,0.101172
24112.26,0.101521
24224.93,0.102004
24338.66,0.102945
24453.47,0.10367
24569.36,0.105875
24686.36,0.10545
24804.47,0.10354
24923.73,0.102141
25044.13,0.103356
25165.71,0.102916
25288.46,0.102336
25412.43,0.101114
25537.61,0.10452
25664.04,0.105133
25791.72,0.105245
25920.68,0.106838
