Database of Origin,University of Winnipeg Spectrophotometer Facility
Sample Description,See Master Clays in HOSERLab database
Date Added,2016-12-11 20:57:06.343925

Data ID,RLA_CLAY_22         
Sample ID,MON102
Mineral Name,Montmorillonite
Grain Size,<45um
Viewing Geometry,"30/0,30"
Resolution,"5,0.6-129"
Material Class,Phyllosilicate

Wavelength
305.0,0.192252
310.0,0.212372
315.0,0.226922
320.0,0.239379
325.0,0.249999
330.0,0.259538
335.0,0.267437
340.0,0.275263
345.0,0.282786
350.0,0.289767
355.0,0.297721
360.0,0.304797
365.0,0.315466
370.0,0.327825
375.0,0.340686
380.0,0.355373
385.0,0.367971
390.0,0.379849
395.0,0.386015
400.0,0.397224
405.0,0.401877
410.0,0.409954
415.0,0.417198
420.0,0.426019
425.0,0.434368
430.0,0.443315
435.0,0.450434
440.0,0.456249
445.0,0.463699
450.0,0.469009
455.0,0.474324
460.0,0.476597
465.0,0.482822
470.0,0.484723
475.0,0.488826
480.0,0.493383
485.0,0.494215
490.0,0.498597
495.0,0.500325
500.0,0.505449
505.0,0.509436
510.0,0.512713
515.0,0.513909
520.0,0.515804
525.0,0.522536
530.0,0.526263
535.0,0.526264
540.0,0.528755
545.0,0.534408
550.0,0.533274
555.0,0.536408
560.0,0.5377
565.0,0.539819
570.0,0.541046
575.0,0.542476
580.0,0.542753
585.0,0.544453
590.0,0.545124
595.0,0.547315
600.0,0.547621
605.0,0.547478
610.0,0.546425
615.0,0.547901
620.0,0.550798
625.0,0.550651
630.0,0.553927
635.0,0.55376
640.0,0.551926
645.0,0.552923
650.0,0.553616
655.0,0.559915
660.0,0.559005
665.0,0.558604
670.0,0.558347
675.0,0.561111
680.0,0.561592
685.0,0.560764
690.0,0.5629
695.0,0.565823
700.0,0.564894
705.0,0.565355
710.0,0.567266
715.0,0.567837
720.0,0.567043
725.0,0.570801
730.0,0.569072
735.0,0.571869
740.0,0.572875
745.0,0.57408
750.0,0.572593
755.0,0.573462
760.0,0.574571
765.0,0.576408
770.0,0.576372
775.0,0.575561
780.0,0.578039
785.0,0.57641
790.0,0.578505
795.0,0.577569
800.0,0.579767
805.0,0.578348
810.0,0.577603
815.0,0.577462
820.0,0.579168
825.0,0.577383
830.0,0.57818
835.0,0.57952
840.0,0.577085
845.0,0.57766
850.0,0.575886
855.0,0.577136
860.0,0.577449
865.0,0.575816
870.0,0.576135
875.0,0.575427
880.0,0.576922
885.0,0.578114
890.0,0.578566
895.0,0.577601
900.0,0.579929
905.0,0.579931
910.0,0.578614
915.0,0.579272
920.0,0.578891
925.0,0.579744
930.0,0.581479
935.0,0.58544
940.0,0.581521
945.0,0.582416
950.0,0.583868
955.0,0.58361
960.0,0.583013
965.0,0.583793
970.0,0.582969
975.0,0.582941
980.0,0.586716
985.0,0.587833
990.0,0.587931
995.0,0.584881
1000.0,0.588486
1005.0,0.590526
1010.0,0.58694
1015.0,0.588921
1020.0,0.586593
1025.0,0.58964
1030.0,0.588392
1035.0,0.591729
1040.0,0.590762
1045.0,0.592754
1050.0,0.589284
1055.0,0.590318
1060.0,0.589661
1065.0,0.592879
1070.0,0.594016
1075.0,0.594104
1080.0,0.597995
1085.0,0.593509
1090.0,0.596896
1095.0,0.597701
1100.0,0.596476
1105.0,0.597728
1110.0,0.597505
1115.0,0.597831
1120.0,0.596329
1125.0,0.596761
1130.0,0.599411
1135.0,0.60046
1140.0,0.598373
1145.0,0.59922
1150.0,0.595522
1155.0,0.600266
1160.0,0.600718
1165.0,0.604414
1170.0,0.600536
1175.0,0.601293
1180.0,0.603124
1185.0,0.602017
1190.0,0.605189
1195.0,0.60577
1200.0,0.60828
1205.0,0.611391
1210.0,0.615105
1215.0,0.615031
1220.0,0.6145
1225.0,0.613767
1230.0,0.612329
1235.0,0.615132
1240.0,0.617374
1245.0,0.616822
1250.0,0.616489
1255.0,0.616218
1260.0,0.618154
1265.0,0.619591
1270.0,0.614506
1275.0,0.618556
1280.0,0.618281
1285.0,0.617455
1290.0,0.616467
1295.0,0.617553
1300.0,0.614949
1305.0,0.615661
1310.0,0.61956
1315.0,0.615741
1320.0,0.617188
1325.0,0.61462
1330.0,0.61739
1335.0,0.616443
1340.0,0.617682
1345.0,0.618188
1350.0,0.616094
1355.0,0.619241
1360.0,0.617665
1365.0,0.611181
1370.0,0.609748
1375.0,0.608036
1380.0,0.609566
1385.0,0.591051
1390.0,0.584321
1395.0,0.573544
1400.0,0.557999
1405.0,0.538813
1410.0,0.522254
1415.0,0.52023
1420.0,0.530242
1425.0,0.552634
1430.0,0.564183
1435.0,0.574688
1440.0,0.583783
1445.0,0.587936
1450.0,0.591639
1455.0,0.589404
1460.0,0.590047
1465.0,0.592504
1470.0,0.593104
1475.0,0.600607
1480.0,0.603927
1485.0,0.606603
1490.0,0.609072
1495.0,0.611924
1500.0,0.612836
1505.0,0.614501
1510.0,0.619059
1515.0,0.61749
1520.0,0.619415
1525.0,0.622101
1530.0,0.622177
1535.0,0.6228
1540.0,0.625275
1545.0,0.627837
1550.0,0.624445
1555.0,0.625799
1560.0,0.627204
1565.0,0.626028
1570.0,0.629585
1575.0,0.632912
1580.0,0.628606
1585.0,0.632585
1590.0,0.630323
1595.0,0.632698
1600.0,0.635432
1605.0,0.634093
1610.0,0.636322
1615.0,0.635818
1620.0,0.635672
1625.0,0.633742
1630.0,0.634629
1635.0,0.634627
1640.0,0.637228
1645.0,0.634926
1650.0,0.636764
1655.0,0.636827
1660.0,0.637849
1665.0,0.639015
1670.0,0.640343
1675.0,0.639864
1680.0,0.641076
1685.0,0.640693
1690.0,0.639796
1695.0,0.640877
1700.0,0.640597
1705.0,0.640401
1710.0,0.640299
1715.0,0.642327
1720.0,0.638613
1725.0,0.640701
1730.0,0.639948
1735.0,0.637877
1740.0,0.637341
1745.0,0.635597
1750.0,0.635009
1755.0,0.635411
1760.0,0.635737
1765.0,0.633699
1770.0,0.63344
1775.0,0.632608
1780.0,0.63241
1785.0,0.631841
1790.0,0.632175
1795.0,0.630638
1800.0,0.630843
1805.0,0.630676
1810.0,0.629311
1815.0,0.6287
1820.0,0.63049
1825.0,0.628274
1830.0,0.629137
1835.0,0.628495
1840.0,0.624934
1845.0,0.623334
1850.0,0.621317
1855.0,0.622258
1860.0,0.617628
1865.0,0.612075
1870.0,0.60941
1875.0,0.590251
1880.0,0.569729
1885.0,0.543814
1890.0,0.501998
1895.0,0.44736
1900.0,0.402161
1905.0,0.37585
1910.0,0.385345
1915.0,0.411924
1920.0,0.441883
1925.0,0.468095
1930.0,0.484104
1935.0,0.497389
1940.0,0.50284
1945.0,0.509073
1950.0,0.511052
1955.0,0.514087
1960.0,0.516788
1965.0,0.52125
1970.0,0.524167
1975.0,0.529759
1980.0,0.534399
1985.0,0.540538
1990.0,0.546692
1995.0,0.552729
2000.0,0.558297
2005.0,0.563549
2010.0,0.569472
2015.0,0.573608
2020.0,0.579676
2025.0,0.582363
2030.0,0.586263
2035.0,0.588707
2040.0,0.590083
2045.0,0.592366
2050.0,0.594198
2055.0,0.594328
2060.0,0.595928
2065.0,0.597202
2070.0,0.598707
2075.0,0.598454
2080.0,0.597411
2085.0,0.597466
2090.0,0.597537
2095.0,0.59648
2100.0,0.59768
2105.0,0.598305
2110.0,0.597208
2115.0,0.598905
2120.0,0.600265
2125.0,0.600596
2130.0,0.599916
2135.0,0.600166
2140.0,0.600032
2145.0,0.599579
2150.0,0.598016
2155.0,0.595672
2160.0,0.593832
2165.0,0.588039
2170.0,0.58217
2175.0,0.572381
2180.0,0.563322
2185.0,0.553364
2190.0,0.540811
2195.0,0.527226
2200.0,0.5107
2205.0,0.498096
2210.0,0.498463
2215.0,0.508411
2220.0,0.524117
2225.0,0.537468
2230.0,0.542354
2235.0,0.545949
2240.0,0.552269
2245.0,0.557572
2250.0,0.565248
2255.0,0.570896
2260.0,0.575008
2265.0,0.576613
2270.0,0.57675
2275.0,0.577458
2280.0,0.57393
2285.0,0.572399
2290.0,0.569397
2295.0,0.565335
2300.0,0.562003
2305.0,0.560367
2310.0,0.556667
2315.0,0.553875
2320.0,0.548417
2325.0,0.546754
2330.0,0.542689
2335.0,0.538528
2340.0,0.534131
2345.0,0.528313
2350.0,0.523848
2355.0,0.518052
2360.0,0.5128
2365.0,0.508358
2370.0,0.5055
2375.0,0.502394
2380.0,0.497554
2385.0,0.493314
2390.0,0.488289
2395.0,0.484274
2400.0,0.479803
2405.0,0.475553
2410.0,0.470016
2415.0,0.465451
2420.0,0.460347
2425.0,0.45507
2430.0,0.450491
2435.0,0.445084
2440.0,0.439532
2445.0,0.435113
2450.0,0.430211
2455.0,0.425894
2460.0,0.424059
2465.0,0.419925
2470.0,0.417792
2475.0,0.414458
2480.0,0.412505
2485.0,0.410471
2490.0,0.408368
2495.0,0.406191
2500.0,0.40176
2505.0,0.398116
2510.0,0.394854
2515.0,0.391831
2520.0,0.389026
2525.15,0.386164
2530.08,0.384782
2535.03,0.38257
2540.0,0.379577
2544.99,0.380256
2549.99,0.378603
2552.5,0.378194
2553.76,0.378497
2556.28,0.378704
2558.8,0.378237
2561.33,0.377643
2563.86,0.378421
2565.13,0.378141
2566.4,0.377962
2567.67,0.377852
2568.95,0.377458
2570.22,0.377101
2571.5,0.377195
2572.77,0.377195
2574.05,0.376737
2575.33,0.376993
2576.61,0.376699
2577.89,0.376646
2579.17,0.376949
2580.46,0.376398
2581.74,0.375633
2583.03,0.375001
2584.31,0.374371
2585.6,0.375084
2586.89,0.375403
2588.19,0.374815
2589.48,0.374591
2590.77,0.374827
2592.07,0.37504
2593.36,0.374194
2594.66,0.372317
2595.96,0.371974
2597.26,0.373649
2598.56,0.373633
2599.87,0.372322
2601.17,0.371626
2602.48,0.371074
2603.78,0.370379
2605.09,0.369129
2606.4,0.368779
2607.71,0.369058
2609.03,0.368674
2610.34,0.367867
2611.66,0.367715
2612.97,0.367128
2614.29,0.366529
2615.61,0.365889
2616.93,0.365038
2618.25,0.364644
2619.57,0.364534
2620.9,0.363261
2622.22,0.36333
2623.55,0.363527
2624.88,0.362509
2626.21,0.361487
2627.54,0.360475
2628.87,0.360076
2630.21,0.359369
2631.54,0.358483
2632.88,0.358712
2634.21,0.357452
2635.55,0.356634
2636.89,0.356276
2638.24,0.355482
2639.58,0.354914
2640.92,0.35399
2642.27,0.353049
2643.62,0.352811
2644.97,0.351763
2646.32,0.350766
2647.67,0.350376
2649.02,0.349934
2650.38,0.348921
2651.73,0.347713
2653.09,0.346309
2654.45,0.34542
2655.81,0.344238
2657.17,0.342909
2658.53,0.342109
2659.89,0.341137
2661.26,0.339816
2662.63,0.33838
2664.0,0.336825
2665.36,0.334867
2666.74,0.332929
2668.11,0.331311
2669.48,0.328945
2670.86,0.325418
2672.23,0.323018
2673.61,0.320427
2674.99,0.316164
2676.37,0.311691
2677.76,0.30681
2679.14,0.30184
2680.52,0.296034
2681.91,0.289718
2683.3,0.281896
2684.69,0.272592
2686.08,0.261105
2687.47,0.248547
2688.87,0.235117
2690.26,0.221152
2691.66,0.206821
2693.06,0.193795
2694.46,0.181867
2695.86,0.170449
2697.26,0.160337
2698.66,0.151588
2700.07,0.143781
2701.48,0.137224
2702.89,0.131478
2704.3,0.12685
2705.71,0.12303
2707.12,0.11949
2708.53,0.116104
2709.95,0.11316
2711.37,0.110225
2712.79,0.107853
2714.21,0.105167
2715.63,0.101996
2717.05,0.098141
2718.48,0.093871
2719.9,0.089483
2721.33,0.084968
2722.76,0.079377
2724.19,0.074018
2725.62,0.069229
2727.06,0.064887
2728.49,0.060805
2729.93,0.057186
2731.37,0.053544
2732.81,0.050365
2734.25,0.047955
2735.69,0.045589
2737.14,0.043356
2738.58,0.041781
2740.03,0.040287
2741.48,0.038768
2742.93,0.037142
2744.38,0.036093
2745.83,0.035316
2747.29,0.034653
2748.75,0.034098
2750.2,0.033355
2751.66,0.032937
2753.13,0.033046
2754.59,0.033154
2756.05,0.033403
2757.52,0.033997
2758.99,0.034167
2760.46,0.034754
2761.93,0.035728
2763.4,0.036631
2764.87,0.037686
2766.35,0.039219
2767.82,0.040829
2769.3,0.042334
2770.78,0.043872
2772.26,0.045416
2773.75,0.047126
2775.23,0.049225
2776.72,0.051187
2778.21,0.053277
2779.7,0.055809
2781.19,0.057986
2782.68,0.060297
2784.18,0.063049
2785.67,0.065944
2787.17,0.068636
2788.67,0.07164
2790.17,0.075311
2791.67,0.078701
2793.18,0.082243
2794.68,0.086085
2796.19,0.090006
2797.7,0.093933
2799.21,0.098039
2800.72,0.10206
2802.24,0.105875
2803.75,0.109949
2805.27,0.114274
2806.79,0.118437
2808.31,0.122314
2809.83,0.1264
2811.35,0.130549
2812.88,0.134451
2814.41,0.138399
2815.93,0.141912
2817.46,0.145379
2819.0,0.148873
2820.53,0.152272
2822.07,0.155366
2823.6,0.158285
2825.14,0.160755
2826.68,0.163037
2828.22,0.165132
2829.77,0.167271
2831.31,0.169103
2832.86,0.170975
2834.41,0.173034
2835.96,0.174927
2837.51,0.176568
2839.07,0.178102
2840.62,0.179553
2842.18,0.181273
2843.74,0.1828
2845.3,0.18373
2846.86,0.184454
2848.43,0.185407
2849.99,0.186395
2851.56,0.187303
2853.13,0.188071
2854.7,0.188915
2856.27,0.189851
2857.85,0.190388
2859.42,0.190847
2861.0,0.191519
2862.58,0.192143
2864.16,0.192723
2865.75,0.193454
2867.33,0.194266
2868.92,0.194865
2870.51,0.195258
2872.1,0.195577
2873.69,0.196059
2875.28,0.196668
2876.88,0.19717
2878.48,0.197616
2880.07,0.19815
2881.68,0.198805
2883.28,0.199317
2884.88,0.199754
2886.49,0.200294
2888.1,0.200869
2889.71,0.201725
2891.32,0.202478
2892.93,0.20295
2894.55,0.203224
2896.16,0.203672
2897.78,0.204233
2899.4,0.204927
2901.03,0.205481
2902.65,0.206186
2904.28,0.206908
2905.91,0.207561
2907.54,0.207946
2909.17,0.208352
2910.8,0.208916
2912.44,0.209449
2914.07,0.209823
2915.71,0.210303
2917.35,0.210822
2918.99,0.211316
2920.64,0.212055
2922.29,0.212683
2923.93,0.212908
2925.58,0.213244
2927.24,0.213847
2928.89,0.21441
2930.55,0.214916
2932.2,0.215216
2933.86,0.215513
2935.52,0.21614
2937.19,0.216737
2938.85,0.217097
2940.52,0.217525
2942.19,0.217956
2943.86,0.218589
2945.53,0.2193
2947.21,0.219664
2948.88,0.2201
2950.56,0.220859
2952.24,0.221482
2953.92,0.222005
2955.61,0.22268
2957.29,0.223238
2958.98,0.223505
2960.67,0.224068
2962.36,0.224943
2964.06,0.22572
2965.75,0.226364
2967.45,0.226929
2969.15,0.227425
2970.85,0.22788
2972.55,0.228559
2974.26,0.22905
2975.97,0.229419
2977.68,0.230154
2979.39,0.230982
2981.1,0.231411
2982.82,0.231806
2984.53,0.232313
2986.25,0.232967
2987.97,0.233463
2989.7,0.233845
2991.42,0.234377
2993.15,0.235038
2994.88,0.235525
2996.61,0.235942
2998.34,0.236381
3000.08,0.236962
3001.82,0.237578
3003.55,0.238236
3005.3,0.23867
3007.04,0.239175
3008.78,0.239575
3010.53,0.240058
3012.28,0.240608
3014.03,0.241055
3015.79,0.241732
3017.54,0.242389
3019.3,0.242688
3021.06,0.242937
3022.82,0.243436
3024.58,0.2438
3026.35,0.244486
3028.12,0.245113
3029.89,0.245527
3031.66,0.246261
3033.43,0.246644
3035.21,0.246939
3036.99,0.247598
3038.77,0.248134
3040.55,0.248505
3042.33,0.248999
3044.12,0.249507
3045.91,0.250064
3047.7,0.250533
3049.49,0.251326
3051.29,0.252038
3053.08,0.252242
3054.88,0.252441
3056.68,0.253038
3058.49,0.253847
3060.29,0.254399
3062.1,0.254589
3063.91,0.255036
3065.72,0.255891
3067.54,0.256385
3069.35,0.256812
3071.17,0.257173
3072.99,0.257647
3074.81,0.258471
3076.64,0.259182
3078.47,0.259396
3080.29,0.259653
3082.13,0.260314
3083.96,0.26123
3085.79,0.26195
3087.63,0.262664
3089.47,0.263204
3091.31,0.263851
3093.16,0.264646
3095.01,0.265461
3096.85,0.266609
3098.71,0.267371
3100.56,0.268044
3102.41,0.268991
3104.27,0.269965
3106.13,0.270945
3107.99,0.271823
3109.86,0.272582
3111.73,0.273511
3113.59,0.27447
3115.47,0.275296
3117.34,0.276305
3119.21,0.27734
3121.09,0.278033
3122.97,0.279057
3124.86,0.280042
3126.74,0.281071
3128.63,0.281955
3130.52,0.282907
3132.41,0.283837
3134.3,0.284875
3136.2,0.285764
3138.1,0.286604
3140.0,0.287592
3141.9,0.288495
3143.81,0.289346
3145.71,0.290405
3147.62,0.291409
3149.54,0.292506
3151.45,0.293585
3153.37,0.294566
3155.29,0.295464
3157.21,0.296335
3159.13,0.297158
3161.06,0.298191
3162.99,0.299129
3164.92,0.300031
3166.85,0.300943
3168.79,0.301806
3170.72,0.30263
3172.67,0.303567
3174.61,0.304605
3176.55,0.305457
3178.5,0.306425
3180.45,0.307489
3182.4,0.308467
3184.36,0.309368
3186.32,0.31009
3188.27,0.31077
3190.24,0.311742
3192.2,0.312699
3194.17,0.313486
3196.14,0.314326
3198.11,0.315113
3200.08,0.31595
3202.06,0.316894
3204.04,0.317773
3206.02,0.318549
3208.0,0.319114
3209.99,0.319844
3211.98,0.320621
3213.97,0.321484
3215.96,0.322219
3217.96,0.32277
3219.96,0.323318
3221.96,0.324178
3223.96,0.325115
3225.97,0.325809
3227.98,0.326491
3229.99,0.327205
3232.0,0.327845
3234.02,0.328706
3236.04,0.329289
3238.06,0.329838
3240.08,0.330564
3242.11,0.331082
3244.14,0.331636
3246.17,0.332495
3248.2,0.333137
3250.24,0.33361
3252.28,0.334287
3254.32,0.33501
3256.37,0.335573
3258.41,0.336051
3260.46,0.336662
3262.51,0.337528
3264.57,0.338161
3266.63,0.338672
3268.69,0.339242
3270.75,0.339947
3272.81,0.340488
3274.88,0.34107
3276.95,0.341784
3279.02,0.342318
3281.1,0.342648
3283.18,0.343203
3285.26,0.343838
3287.34,0.344569
3289.43,0.345028
3291.51,0.345582
3293.61,0.346241
3295.7,0.346851
3297.8,0.347237
3299.9,0.347675
3302.0,0.348088
3304.1,0.348615
3306.21,0.349026
3308.32,0.349398
3310.43,0.34978
3312.55,0.350366
3314.66,0.350876
3316.79,0.351262
3318.91,0.351579
3321.03,0.351899
3323.16,0.352157
3325.29,0.352647
3327.43,0.353062
3329.57,0.353333
3331.71,0.353611
3333.85,0.353606
3335.99,0.353621
3338.14,0.353728
3340.29,0.353675
3342.45,0.353699
3344.6,0.353759
3346.76,0.353709
3348.92,0.353448
3351.09,0.353202
3353.26,0.352852
3355.43,0.352535
3357.6,0.352471
3359.78,0.352532
3361.96,0.352424
3364.14,0.352062
3366.32,0.351673
3368.51,0.351506
3370.7,0.351294
3372.89,0.350966
3375.09,0.350755
3377.29,0.350541
3379.49,0.350287
3381.69,0.350364
3383.9,0.350412
3386.11,0.350425
3388.32,0.350435
3390.54,0.35044
3392.76,0.350393
3394.98,0.35038
3397.21,0.350019
3399.43,0.349536
3401.66,0.348959
3403.9,0.348264
3406.13,0.347489
3408.37,0.346831
3410.61,0.346428
3412.86,0.346023
3415.11,0.345957
3417.36,0.346137
3419.61,0.346692
3421.87,0.347761
3424.13,0.349145
3426.39,0.350468
3428.66,0.352067
3430.93,0.353621
3433.2,0.354993
3435.48,0.356289
3437.76,0.357629
3440.04,0.358797
3442.32,0.359694
3444.61,0.360497
3446.9,0.361319
3449.19,0.362196
3451.49,0.362988
3453.79,0.36374
3456.09,0.364422
3458.4,0.365034
3460.7,0.365438
3463.02,0.365925
3465.33,0.366321
3467.65,0.366464
3469.97,0.366709
3472.29,0.366662
3474.62,0.366392
3476.95,0.366202
3479.29,0.365992
3481.62,0.365949
3483.96,0.365944
3486.3,0.365983
3488.65,0.365924
3491.0,0.365819
3493.35,0.36575
3495.71,0.365531
3498.07,0.365321
3500.43,0.365357
3502.79,0.365568
3505.16,0.366189
3507.53,0.367153
3509.91,0.368321
3512.29,0.369624
3514.67,0.371194
3517.05,0.372661
3519.44,0.373964
3521.83,0.375217
3524.23,0.376567
3526.62,0.377954
3529.02,0.37915
3531.43,0.380182
3533.83,0.38132
3536.24,0.38238
3538.66,0.383216
3541.08,0.384076
3543.5,0.384985
3545.92,0.385708
3548.35,0.386472
3550.78,0.387255
3553.21,0.388007
3555.65,0.388735
3558.09,0.389322
3560.53,0.389763
3562.98,0.390319
3565.43,0.390954
3567.88,0.391408
3570.34,0.391744
3572.8,0.39226
3575.27,0.39285
3577.73,0.39336
3580.2,0.393753
3582.68,0.39429
3585.16,0.39482
3587.64,0.395134
3590.12,0.39533
3592.61,0.395909
3595.1,0.396132
3597.6,0.396384
3600.09,0.396657
3602.6,0.396875
3605.1,0.397219
3607.61,0.39754
3610.12,0.397631
3612.64,0.397657
3615.16,0.39775
3617.68,0.398027
3620.21,0.398192
3622.74,0.398249
3625.27,0.398356
3627.81,0.398334
3630.35,0.398295
3632.89,0.398294
3635.44,0.398223
3637.99,0.398183
3640.54,0.398281
3643.1,0.398354
3645.66,0.39821
3648.23,0.397909
3650.8,0.397757
3653.37,0.397858
3655.95,0.397793
3658.53,0.397828
3661.11,0.397712
3663.7,0.397658
3666.29,0.397512
3668.89,0.397471
3671.48,0.397541
3674.09,0.397486
3676.69,0.397402
3679.3,0.397491
3681.91,0.397792
3684.53,0.397853
3687.15,0.397991
3689.78,0.398267
3692.4,0.398398
3695.04,0.398759
3697.67,0.399012
3700.31,0.399113
3702.95,0.399427
3705.6,0.399842
3708.25,0.400173
3710.91,0.400332
3713.56,0.400641
3716.23,0.40106
3718.89,0.401499
3721.56,0.401821
3724.23,0.40199
3726.91,0.402323
3729.59,0.402809
3732.28,0.403167
3734.97,0.403442
3737.66,0.403813
3740.36,0.404232
3743.06,0.404732
3745.76,0.405002
3748.47,0.405208
3751.18,0.405483
3753.9,0.405865
3756.62,0.406202
3759.34,0.406241
3762.07,0.406473
3764.8,0.406848
3767.54,0.407068
3770.28,0.407261
3773.02,0.407514
3775.77,0.407782
3778.52,0.407841
3781.28,0.407825
3784.04,0.407944
3786.8,0.408051
3789.57,0.408
3792.34,0.407982
3795.12,0.407872
3797.9,0.407711
3800.69,0.407514
3803.47,0.40728
3806.27,0.407084
3809.06,0.406996
3811.86,0.406938
3814.67,0.406973
3817.48,0.406913
3820.29,0.406752
3823.11,0.406612
3825.93,0.406349
3828.76,0.406086
3831.59,0.40593
3834.42,0.405767
3837.26,0.405642
3840.1,0.405598
3842.95,0.405565
3845.8,0.405432
3848.65,0.405318
3851.51,0.405278
3854.38,0.405276
3857.24,0.405183
3860.12,0.405067
3862.99,0.405076
3865.87,0.404977
3868.76,0.404838
3871.65,0.404821
3874.54,0.404756
3877.44,0.404797
3880.34,0.404859
3883.25,0.404751
3886.16,0.404601
3889.07,0.404542
3891.99,0.404429
3894.92,0.404297
3897.85,0.40414
3900.78,0.404158
3903.72,0.404017
3906.66,0.403939
3909.6,0.403871
3912.55,0.403551
3915.51,0.403292
3918.47,0.40323
3921.43,0.403095
3924.4,0.402933
3927.38,0.402711
3930.35,0.402505
3933.33,0.402075
3936.32,0.401582
3939.31,0.401144
3942.31,0.400729
3945.31,0.400235
3948.31,0.399537
3951.32,0.398654
3954.34,0.397838
3957.35,0.39713
3960.38,0.396546
3963.41,0.395923
3966.44,0.395339
3969.48,0.394714
3972.52,0.39431
3975.56,0.393984
3978.61,0.393816
3981.67,0.393695
3984.73,0.39369
3987.8,0.393937
3990.87,0.394378
3993.94,0.394743
3997.02,0.39529
4000.1,0.396211
4003.19,0.397098
4006.29,0.397918
4009.39,0.398913
4012.49,0.399778
4015.6,0.400626
4018.71,0.40147
4021.83,0.402369
4024.95,0.403252
4028.08,0.40433
4031.21,0.405224
4034.35,0.406057
4037.49,0.407063
4040.64,0.408137
4043.79,0.409142
4046.94,0.410032
4050.11,0.410922
4053.27,0.41176
4056.44,0.412429
4059.62,0.413124
4062.8,0.413898
4065.99,0.414569
4069.18,0.415118
4072.38,0.415512
4075.58,0.415984
4078.78,0.416502
4082.0,0.416892
4085.21,0.41712
4088.43,0.417477
4091.66,0.417947
4094.89,0.418235
4098.13,0.418336
4101.37,0.418484
4104.62,0.418766
4107.87,0.41908
4111.13,0.419327
4114.39,0.419382
4117.66,0.419518
4120.93,0.419696
4124.21,0.419974
4127.5,0.420065
4130.79,0.420233
4134.08,0.42032
4137.38,0.420363
4140.68,0.42041
4143.99,0.420545
4147.31,0.420625
4150.63,0.420589
4153.95,0.420668
4157.29,0.420789
4160.62,0.420772
4163.96,0.42079
4167.31,0.420802
4170.66,0.420919
4174.02,0.420924
4177.39,0.420955
4180.75,0.42092
4184.13,0.421008
4187.51,0.42118
4190.89,0.421219
4194.28,0.421074
4197.68,0.421039
4201.08,0.421078
4204.49,0.421035
4207.9,0.420992
4211.32,0.420961
4214.74,0.420853
4218.17,0.420887
4221.61,0.420989
4225.05,0.421036
4228.5,0.421033
4231.95,0.420979
4235.4,0.420909
4238.87,0.420904
4242.34,0.420815
4245.81,0.42093
4249.29,0.42098
4252.78,0.420827
4256.27,0.420461
4259.77,0.41971
4263.27,0.4189
4266.78,0.418752
4270.29,0.418835
4273.81,0.418921
4277.34,0.418937
4280.87,0.418874
4284.41,0.418649
4287.95,0.418459
4291.5,0.418331
4295.06,0.418089
4298.62,0.417866
4302.19,0.417725
4305.76,0.417504
4309.34,0.41737
4312.92,0.417105
4316.52,0.416909
4320.11,0.416653
4323.72,0.416347
4327.32,0.416035
4330.94,0.41581
4334.56,0.415532
4338.19,0.415269
4341.82,0.414831
4345.46,0.414538
4349.11,0.414201
4352.76,0.413942
4356.42,0.413692
4360.08,0.413466
4363.75,0.41311
4367.43,0.412803
4371.11,0.412611
4374.8,0.412381
4378.49,0.411967
4382.19,0.41159
4385.9,0.411249
4389.61,0.410928
4393.33,0.410588
4397.06,0.410345
4400.79,0.409956
4404.53,0.409605
4408.28,0.409222
4412.03,0.408713
4415.79,0.408371
4419.55,0.408123
4423.32,0.407771
4427.1,0.40747
4430.88,0.407118
4434.68,0.406673
4438.47,0.406136
4442.28,0.40568
4446.08,0.405303
4449.9,0.404944
4453.72,0.40453
4457.55,0.403998
4461.39,0.403381
4465.23,0.402923
4469.08,0.402447
4472.94,0.401973
4476.8,0.401555
4480.67,0.401266
4484.55,0.400782
4488.43,0.400362
4492.32,0.39996
4496.21,0.399562
4500.12,0.399134
4504.03,0.398837
4507.94,0.39839
4511.87,0.398024
4515.8,0.397811
4519.73,0.397568
4523.68,0.397112
4527.63,0.396658
4531.59,0.396249
4535.55,0.395914
4539.52,0.395601
4543.5,0.395202
4547.49,0.394656
4551.48,0.394318
4555.48,0.393943
4559.49,0.393562
4563.5,0.393246
4567.52,0.39285
4571.55,0.392414
4575.58,0.392045
4579.63,0.391668
4583.67,0.391357
4587.73,0.390952
4591.79,0.390547
4595.86,0.390135
4599.94,0.389703
4604.03,0.389192
4608.12,0.388771
4612.22,0.388328
4616.33,0.387892
4620.44,0.387462
4624.56,0.387044
4628.69,0.386604
4632.83,0.386128
4636.97,0.385585
4641.12,0.385079
4645.28,0.384672
4649.45,0.384079
4653.62,0.383333
4657.8,0.382724
4661.99,0.382054
4666.19,0.381486
4670.39,0.38096
4674.6,0.38038
4678.82,0.379653
4683.05,0.378974
4687.28,0.378282
4691.52,0.377755
4695.77,0.377273
4700.03,0.376759
4704.3,0.376219
4708.57,0.375687
4712.85,0.37518
4717.14,0.374684
4721.43,0.374023
4725.74,0.373417
4730.05,0.37291
4734.37,0.372308
4738.7,0.371561
4743.03,0.370963
4747.38,0.370329
4751.73,0.369739
4756.09,0.369152
4760.45,0.368597
4764.83,0.368061
4769.21,0.367508
4773.6,0.366852
4778.0,0.36622
4782.41,0.365523
4786.83,0.364797
4791.25,0.364072
4795.68,0.363531
4800.13,0.362847
4804.57,0.362083
4809.03,0.36139
4813.5,0.360781
4817.97,0.360098
4822.45,0.359302
4826.94,0.358485
4831.44,0.357762
4835.95,0.356995
4840.46,0.356216
4844.99,0.355444
4849.52,0.354553
4854.06,0.353641
4858.61,0.352732
4863.17,0.35176
4867.73,0.350815
4872.31,0.349746
4876.89,0.348609
4881.48,0.347476
4886.08,0.346208
4890.69,0.344698
4895.31,0.343148
4899.94,0.341456
4904.57,0.339633
4909.22,0.337654
4913.87,0.335515
4918.53,0.33326
4923.21,0.331051
4927.88,0.328691
4932.57,0.326291
4937.27,0.3239
4941.98,0.321506
4946.69,0.319143
4951.42,0.316722
4956.15,0.314305
4960.9,0.311813
4965.65,0.309241
4970.41,0.306576
4975.18,0.303821
4979.96,0.30115
4984.75,0.298498
4989.54,0.29586
4994.35,0.293348
4999.17,0.290931
5003.99,0.288521
5008.83,0.286214
5013.67,0.283863
5018.52,0.281632
5023.39,0.279584
5028.26,0.277817
5033.14,0.276035
5038.03,0.274293
5042.93,0.272631
5047.84,0.271065
5052.76,0.269576
5057.69,0.268232
5062.63,0.26699
5067.58,0.265879
5072.54,0.264826
5077.51,0.264006
5082.49,0.263184
5087.47,0.26243
5092.47,0.26188
5097.48,0.261296
5102.5,0.260699
5107.52,0.260141
5112.56,0.259704
5117.61,0.259182
5122.66,0.258688
5127.73,0.258084
5132.81,0.257381
5137.89,0.256851
5142.99,0.25628
5148.1,0.255498
5153.22,0.254899
5158.34,0.254446
5163.48,0.253808
5168.63,0.25317
5173.79,0.252449
5178.96,0.251639
5184.13,0.250791
5189.32,0.24998
5194.52,0.249069
5199.73,0.248051
5204.96,0.247069
5210.19,0.245978
5215.43,0.244457
5220.68,0.243213
5225.94,0.241791
5231.22,0.240036
5236.5,0.238225
5241.79,0.23634
5247.1,0.234349
5252.42,0.232199
5257.74,0.22993
5263.08,0.227683
5268.43,0.225396
5273.79,0.222962
5279.16,0.220542
5284.54,0.218325
5289.93,0.216103
5295.34,0.213828
5300.75,0.211823
5306.18,0.209838
5311.61,0.207864
5317.06,0.205928
5322.52,0.20421
5327.99,0.202549
5333.47,0.201015
5338.96,0.199625
5344.47,0.198302
5349.98,0.197084
5355.51,0.196213
5361.05,0.195607
5366.6,0.195044
5372.16,0.19479
5377.73,0.194753
5383.32,0.19478
5388.91,0.194814
5394.52,0.194988
5400.14,0.195331
5405.77,0.195738
5411.41,0.195997
5417.07,0.196174
5422.74,0.196241
5428.41,0.196775
5434.1,0.197265
5439.81,0.197369
5445.52,0.197686
5451.25,0.197995
5456.98,0.198389
5462.73,0.198665
5468.5,0.198963
5474.27,0.199511
5480.06,0.1998
5485.86,0.200398
5491.67,0.201053
5497.49,0.201503
5503.33,0.201961
5509.18,0.202462
5515.04,0.203021
5520.91,0.20344
5526.8,0.203993
5532.69,0.20459
5538.61,0.204936
5544.53,0.205019
5550.47,0.204946
5556.41,0.204838
5562.38,0.204968
5568.35,0.205149
5574.34,0.205264
5580.34,0.205309
5586.35,0.206104
5592.38,0.206999
5598.42,0.207555
5604.47,0.208094
5610.54,0.208706
5616.61,0.209035
5622.71,0.209384
5628.81,0.209749
5634.93,0.209897
5641.06,0.209724
5647.21,0.209884
5653.36,0.210249
5659.54,0.210141
5665.72,0.210259
5671.92,0.209919
5678.13,0.20958
5684.36,0.209513
5690.6,0.209218
5696.85,0.208887
5703.12,0.208737
5709.4,0.207993
5715.69,0.207628
5722.0,0.207384
5728.33,0.206926
5734.66,0.206472
5741.01,0.20595
5747.38,0.205196
5753.76,0.204573
5760.15,0.204131
5766.56,0.202888
5772.98,0.202524
5779.41,0.202378
5785.86,0.201635
5792.33,0.20112
5798.81,0.200557
5805.3,0.200098
5811.81,0.199655
5818.33,0.198918
5824.87,0.19837
5831.42,0.19872
5837.99,0.198738
5844.57,0.198572
5851.17,0.198395
5857.78,0.198297
5864.41,0.19812
5871.05,0.198264
5877.7,0.197948
5884.38,0.197457
5891.06,0.198334
5897.76,0.198001
5904.48,0.19831
5911.21,0.198478
5917.96,0.197981
5924.73,0.197808
5931.5,0.197366
5938.3,0.196474
5945.11,0.196633
5951.93,0.196727
5958.78,0.196265
5965.63,0.195718
5972.51,0.194877
5979.39,0.194628
5986.3,0.193553
5993.22,0.192412
6000.16,0.191352
6007.11,0.189994
6014.08,0.188139
6021.06,0.186334
6028.06,0.184277
6035.08,0.18202
6042.12,0.179355
6049.17,0.176301
6056.23,0.173707
6063.32,0.171292
6070.42,0.168302
6077.53,0.165582
6084.67,0.162952
6091.82,0.160307
6098.98,0.157573
6106.17,0.155142
6113.37,0.152903
6120.58,0.151231
6127.82,0.149916
6135.07,0.148919
6142.34,0.1483
6149.63,0.148116
6156.93,0.1483
6164.25,0.148953
6171.59,0.150736
6178.95,0.153034
6186.32,0.155697
6193.71,0.160062
6201.12,0.16457
6208.54,0.168253
6215.99,0.172275
6223.45,0.176146
6230.93,0.179845
6238.43,0.183094
6245.95,0.186068
6253.48,0.188666
6261.03,0.190978
6268.6,0.192995
6276.19,0.194843
6283.8,0.196376
6291.43,0.197755
6299.07,0.198935
6306.73,0.199912
6314.42,0.200588
6322.12,0.201129
6329.84,0.201604
6337.57,0.201683
6345.33,0.201305
6353.11,0.201621
6360.9,0.20159
6368.72,0.2008
6376.55,0.200185
6384.4,0.199541
6392.27,0.198533
6400.17,0.19727
6408.08,0.195581
6416.01,0.193503
6423.96,0.191856
6431.93,0.189932
6439.92,0.187864
6447.93,0.185564
6455.96,0.182829
6464.01,0.179912
6472.08,0.176747
6480.17,0.173352
6488.28,0.169902
6496.41,0.166507
6504.56,0.163335
6512.73,0.16022
6520.92,0.157146
6529.14,0.1539
6537.37,0.15096
6545.63,0.148248
6553.9,0.145679
6562.2,0.143122
6570.51,0.140731
6578.85,0.13849
6587.21,0.136542
6595.59,0.134479
6603.99,0.132607
6612.42,0.130716
6620.86,0.129015
6629.33,0.126979
6637.82,0.125077
6646.33,0.123216
6654.86,0.121639
6663.41,0.119979
6671.99,0.118274
6680.59,0.116415
6689.21,0.114826
6697.85,0.113219
6706.51,0.111773
6715.2,0.11027
6723.91,0.108866
6732.64,0.107483
6741.4,0.106367
6750.18,0.105246
6758.98,0.104149
6767.8,0.103021
6776.65,0.102083
6785.52,0.100957
6794.41,0.099932
6803.33,0.098979
6812.27,0.098114
6821.23,0.097308
6830.22,0.096532
6839.23,0.095647
6848.26,0.094825
6857.32,0.093963
6866.4,0.093198
6875.51,0.092506
6884.64,0.091923
6893.8,0.091351
6902.98,0.090781
6912.18,0.090101
6921.41,0.089571
6930.66,0.089022
6939.94,0.088516
6949.24,0.087943
6958.57,0.087378
6967.92,0.086856
6977.3,0.086515
6986.7,0.086204
6996.13,0.086019
7005.59,0.08573
7015.07,0.085575
7024.57,0.085463
7034.1,0.085624
7043.66,0.085785
7053.25,0.086102
7062.85,0.086646
7072.49,0.087423
7082.15,0.088336
7091.84,0.089439
7101.55,0.090757
7111.3,0.09222
7121.06,0.093717
7130.86,0.095332
7140.68,0.096797
7150.53,0.098178
7160.41,0.099556
7170.31,0.100819
7180.24,0.102055
7190.2,0.103106
7200.19,0.103674
7210.2,0.104114
7220.24,0.104497
7230.31,0.104732
7240.41,0.10463
7250.54,0.104378
7260.69,0.104016
7270.88,0.103566
7281.09,0.102994
7291.33,0.102342
7301.6,0.101608
7311.9,0.100846
7322.22,0.099979
7332.58,0.099097
7342.97,0.098068
7353.38,0.096916
7363.83,0.095685
7374.3,0.094529
7384.81,0.093227
7395.34,0.091809
7405.91,0.090335
7416.5,0.088886
7427.13,0.087315
7437.78,0.08585
7448.47,0.084238
7459.19,0.082574
7469.94,0.080913
7480.71,0.079188
7491.52,0.077363
7502.37,0.075646
7513.24,0.073867
7524.14,0.072046
7535.08,0.070167
7546.05,0.068387
7557.05,0.066455
7568.08,0.064578
7579.15,0.062758
7590.24,0.060943
7601.37,0.059104
7612.53,0.057355
7623.73,0.055535
7634.96,0.053926
7646.22,0.052313
7657.51,0.050678
7668.84,0.049034
7680.2,0.047469
7691.59,0.045866
7703.02,0.044339
7714.49,0.042815
7725.98,0.041325
7737.52,0.039859
7749.08,0.038478
7760.68,0.037123
7772.32,0.035857
7783.99,0.034493
7795.69,0.033243
7807.43,0.032087
7819.21,0.031049
7831.02,0.030026
7842.87,0.029173
7854.75,0.028421
7866.67,0.027655
7878.62,0.026912
7890.62,0.026417
7902.64,0.025956
7914.71,0.025608
7926.81,0.025327
7938.95,0.025142
7951.13,0.025045
7963.34,0.025106
7975.59,0.025149
7987.88,0.025388
8000.21,0.025664
8012.57,0.026044
8024.98,0.026564
8037.42,0.027197
8049.9,0.027847
8062.42,0.028705
8074.98,0.029664
8087.57,0.030917
8100.21,0.032199
8112.89,0.033646
8125.6,0.035189
8138.36,0.036881
8151.16,0.038591
8163.99,0.040397
8176.87,0.042152
8189.79,0.043911
8202.75,0.045651
8215.75,0.047397
8228.79,0.049115
8241.87,0.050767
8254.99,0.052286
8268.16,0.053935
8281.37,0.055667
8294.62,0.057328
8307.91,0.058994
8321.24,0.060765
8334.62,0.062401
8348.04,0.063952
8361.51,0.065443
8375.02,0.067013
8388.57,0.068424
8402.16,0.069582
8415.8,0.070341
8429.49,0.0707
8443.22,0.070605
8456.99,0.070197
8470.81,0.069527
8484.67,0.068768
8498.58,0.067901
8512.54,0.067018
8526.54,0.066091
8540.58,0.065262
8554.68,0.064533
8568.82,0.064011
8583.0,0.063447
8597.24,0.063071
8611.52,0.062856
8625.85,0.062816
8640.23,0.06282
8654.65,0.062825
8669.12,0.062725
8683.64,0.06255
8698.21,0.062207
8712.83,0.061862
8727.5,0.06142
8742.22,0.060956
8756.99,0.060332
8771.8,0.059687
8786.67,0.059093
8801.59,0.058507
8816.56,0.057798
8831.58,0.057141
8846.65,0.05642
8861.77,0.055644
8876.94,0.054746
8892.17,0.053871
8907.45,0.052905
8922.78,0.051912
8938.16,0.05095
8953.6,0.05025
8969.09,0.049502
8984.64,0.048979
9000.23,0.048814
9015.89,0.048943
9031.59,0.049508
9047.36,0.050546
9063.17,0.051858
9079.05,0.053438
9094.97,0.055261
9110.96,0.057216
9127.0,0.059078
9143.1,0.060969
9159.25,0.062814
9175.46,0.064607
9191.73,0.066165
9208.06,0.067507
9224.44,0.068743
9240.88,0.069759
9257.38,0.070414
9273.94,0.070856
9290.56,0.071049
9307.24,0.070877
9323.98,0.070227
9340.78,0.069357
9357.64,0.068005
9374.57,0.06632
9391.55,0.064482
9408.59,0.062654
9425.7,0.060941
9442.87,0.059459
9460.1,0.057923
9477.4,0.056557
9494.75,0.055439
9512.17,0.054289
9529.66,0.053115
9547.21,0.052213
9564.83,0.05125
9582.5,0.050322
9600.25,0.049394
9618.06,0.048512
9635.94,0.047581
9653.88,0.046816
9671.89,0.046144
9689.97,0.045513
9708.12,0.044809
9726.33,0.044168
9744.62,0.043533
9762.97,0.043105
9781.39,0.042665
9799.88,0.042114
9818.44,0.041568
9837.07,0.041028
9855.77,0.040508
9874.54,0.040038
9893.39,0.039569
9912.3,0.039168
9931.29,0.038717
9950.36,0.038325
9969.49,0.037967
9988.7,0.037678
10007.98,0.037379
10027.34,0.037024
10046.77,0.036744
10066.28,0.036592
10085.87,0.036475
10105.53,0.036281
10125.26,0.036197
10145.08,0.036219
10164.97,0.036182
10184.94,0.036319
10204.99,0.03652
10225.12,0.036679
10245.33,0.036852
10265.61,0.03703
10285.98,0.037129
10306.43,0.037363
10326.96,0.037569
10347.57,0.037757
10368.27,0.037866
10389.05,0.038033
10409.91,0.038196
10430.86,0.03826
10451.88,0.038168
10473.0,0.038244
10494.2,0.038305
10515.49,0.038279
10536.86,0.038178
10558.32,0.038075
10579.87,0.037934
10601.5,0.037615
10623.23,0.03711
10645.04,0.036739
10666.94,0.03626
10688.94,0.035713
10711.02,0.035199
10733.2,0.034727
10755.47,0.03422
10777.83,0.033838
10800.28,0.033461
10822.83,0.033325
10845.47,0.033342
10868.21,0.033448
10891.04,0.033607
10913.97,0.033941
10936.99,0.034377
10960.12,0.035025
10983.34,0.035637
11006.66,0.036373
11030.07,0.037166
11053.59,0.03799
11077.21,0.038784
11100.93,0.039523
11124.75,0.039852
11148.68,0.04007
11172.71,0.040088
11196.84,0.039933
11221.07,0.039662
11245.41,0.039294
11269.86,0.039025
11294.41,0.038985
11319.07,0.038846
11343.84,0.038818
11368.72,0.038883
11393.7,0.039021
11418.8,0.039264
11444.01,0.039839
11469.33,0.040767
11494.76,0.042072
11520.3,0.043539
11545.96,0.044939
11571.73,0.046064
11597.62,0.046955
11623.62,0.0477
11649.74,0.048153
11675.98,0.048285
11702.34,0.048262
11728.81,0.048234
11755.41,0.048427
11782.13,0.048746
11808.96,0.049396
11835.92,0.050244
11863.01,0.051203
11890.22,0.052215
11917.55,0.053357
11945.01,0.054607
11972.6,0.055866
12000.31,0.056963
12028.16,0.05792
12056.13,0.058751
12084.23,0.059474
12112.46,0.059892
12140.83,0.060011
12169.33,0.059873
12197.96,0.059684
12226.73,0.059334
12255.64,0.058724
12284.68,0.057807
12313.86,0.056611
12343.18,0.054982
12372.64,0.053058
12402.24,0.05076
12431.98,0.04847
12461.86,0.046437
12491.89,0.044887
12522.07,0.044058
12552.38,0.044085
12582.85,0.044946
12613.47,0.046684
12644.23,0.048755
12675.15,0.050928
12706.21,0.052946
12737.43,0.05463
12768.81,0.055793
12800.33,0.056629
12832.02,0.057092
12863.86,0.057743
12895.86,0.059164
12928.02,0.061581
12960.34,0.064528
12992.82,0.067355
13025.46,0.069575
13058.27,0.071133
13091.25,0.07219
13124.39,0.073008
13157.7,0.073305
13191.18,0.073386
13224.83,0.073446
13258.66,0.073178
13292.65,0.072656
13326.83,0.071952
13361.17,0.070993
13395.7,0.069893
13430.4,0.068623
13465.29,0.06712
13500.35,0.065447
13535.6,0.063629
13571.03,0.06159
13606.65,0.059558
13642.46,0.05764
13678.46,0.055969
13714.64,0.054558
13751.02,0.053306
13787.59,0.052111
13824.36,0.05105
13861.32,0.050133
13898.49,0.049241
13935.85,0.048307
13973.41,0.047351
14011.17,0.046239
14049.15,0.04505
14087.32,0.043963
14125.71,0.042997
14164.3,0.041891
14203.11,0.040846
14242.13,0.03963
14281.36,0.038542
14320.81,0.037411
14360.49,0.036053
14400.38,0.034854
14440.49,0.034083
14480.82,0.033555
14521.39,0.033297
14562.18,0.032937
14603.2,0.032489
14644.45,0.031905
14685.93,0.031197
14727.66,0.030587
14769.62,0.029824
14811.81,0.028795
14854.25,0.027899
14896.94,0.026978
14939.87,0.025933
14983.05,0.024966
15026.48,0.023997
15070.16,0.022917
15114.1,0.021794
15158.29,0.020744
15202.74,0.019795
15247.46,0.018798
15292.43,0.018089
15337.68,0.01738
15383.19,0.016739
15428.97,0.01637
15475.03,0.016004
15521.36,0.01561
15567.97,0.015462
15614.87,0.015647
15662.04,0.016135
15709.5,0.01679
15757.25,0.017707
15805.29,0.018631
15853.62,0.019601
15902.26,0.020681
15951.19,0.021747
16000.42,0.022638
16049.95,0.023383
16099.8,0.024029
16149.95,0.024488
16200.42,0.024848
16251.21,0.025479
16302.31,0.025793
16353.74,0.02615
16405.49,0.026463
16457.57,0.027179
16509.98,0.027776
16562.73,0.028259
16615.82,0.02893
16669.24,0.029656
16723.02,0.030323
16777.14,0.031447
16831.61,0.032408
16886.43,0.033451
16941.62,0.034558
16997.16,0.035827
17053.08,0.037351
17109.36,0.039072
17166.01,0.040395
17223.04,0.041716
17280.45,0.043222
17338.24,0.044705
17396.43,0.045996
17455.0,0.047435
17513.97,0.04865
17573.34,0.049952
17633.11,0.050913
17693.29,0.051686
17753.89,0.052688
17814.9,0.053901
17876.33,0.05439
17938.18,0.054941
18000.47,0.055655
18063.19,0.0563
18126.35,0.056755
18189.95,0.057101
18254.0,0.057569
18318.5,0.05839
18383.46,0.059091
18448.88,0.059632
18514.77,0.059908
18581.13,0.060196
18647.97,0.060309
18715.29,0.059918
18783.1,0.05968
18851.4,0.059659
18920.2,0.0589
18989.51,0.057558
19059.32,0.056113
19129.65,0.054772
19200.5,0.052797
19271.88,0.05154
19343.79,0.050107
19416.24,0.048384
19489.23,0.046344
19562.77,0.044117
19636.88,0.041758
19711.54,0.04004
19786.78,0.038441
19862.59,0.036936
19938.98,0.035969
20015.96,0.035921
20093.55,0.036194
20171.73,0.03807
20250.53,0.041621
20329.94,0.046351
20409.98,0.051714
20490.65,0.056896
20571.96,0.060852
20653.92,0.064455
20736.54,0.066886
20819.82,0.068327
20903.77,0.069065
20988.4,0.069163
21073.72,0.068874
21159.73,0.069074
21246.46,0.068861
21333.89,0.068184
21422.04,0.067461
21510.93,0.066798
21600.56,0.065338
21690.94,0.063963
21782.08,0.063152
21873.99,0.062232
21966.67,0.061407
22060.15,0.061029
22154.42,0.060247
22249.51,0.059239
22345.41,0.05804
22442.14,0.056968
22539.72,0.056739
22638.14,0.057161
22737.43,0.056922
22837.6,0.056966
22938.65,0.056867
23040.6,0.056509
23143.46,0.055413
23247.24,0.055104
23351.96,0.055439
23457.63,0.055289
23564.25,0.054575
23671.85,0.054269
23780.44,0.054185
23890.02,0.054984
24000.63,0.055793
24112.26,0.056947
24224.93,0.058181
24338.66,0.058795
24453.47,0.059317
24569.36,0.060836
24686.36,0.061059
24804.47,0.061913
24923.73,0.062455
25044.13,0.062059
25165.71,0.060377
25288.46,0.061858
25412.43,0.062639
25537.61,0.064425
25664.04,0.064057
25791.72,0.063755
25920.68,0.065592
