Database of Origin,University of Winnipeg Spectrophotometer Facility
Sample Description,RELAB + Nicolet spectral data. See Master Chromites in HOSERLAB sample database for additional info
Date Added,2016-11-30 00:50:18.151802

Data ID,RLA_CHR_08          
Sample ID,CHR108
Mineral Name,Chromite
Grain Size,<45
Viewing Geometry,"30/0,30"
Resolution,1.2-129
Formula,FeCr2O4
Material Class,Oxide

Wavelength
305.0,0.055311
310.0,0.057273
315.0,0.056273
320.0,0.056651
325.0,0.057508
330.0,0.057871
335.0,0.058285
340.0,0.058655
345.0,0.058837
350.0,0.058926
355.0,0.059797
360.0,0.060266
365.0,0.060991
370.0,0.06144
375.0,0.061968
380.0,0.062423
385.0,0.063003
390.0,0.063769
395.0,0.064674
400.0,0.066094
405.0,0.067302
410.0,0.067602
415.0,0.069122
420.0,0.070411
425.0,0.072368
430.0,0.074203
435.0,0.0762
440.0,0.077778
445.0,0.079708
450.0,0.081063
455.0,0.082561
460.0,0.08368
465.0,0.084788
470.0,0.086042
475.0,0.087156
480.0,0.088423
485.0,0.089831
490.0,0.091227
495.0,0.093061
500.0,0.095226
505.0,0.097477
510.0,0.099762
515.0,0.102271
520.0,0.105046
525.0,0.107429
530.0,0.109962
535.0,0.111521
540.0,0.112687
545.0,0.113165
550.0,0.113333
555.0,0.113497
560.0,0.113537
565.0,0.113801
570.0,0.114112
575.0,0.114675
580.0,0.116074
585.0,0.117423
590.0,0.119153
595.0,0.121523
600.0,0.124253
605.0,0.127874
610.0,0.132418
615.0,0.137113
620.0,0.142588
625.0,0.147986
630.0,0.152397
635.0,0.156131
640.0,0.159051
645.0,0.160173
650.0,0.160179
655.0,0.160394
660.0,0.16109
665.0,0.162061
670.0,0.163229
675.0,0.165321
680.0,0.166088
685.0,0.167374
690.0,0.168824
695.0,0.170422
700.0,0.172903
705.0,0.174833
710.0,0.177101
715.0,0.179644
720.0,0.181738
725.0,0.184425
730.0,0.187477
735.0,0.189733
740.0,0.191957
745.0,0.194487
750.0,0.196156
755.0,0.198273
760.0,0.197897
765.0,0.199722
770.0,0.201981
775.0,0.203324
780.0,0.20496
785.0,0.207575
790.0,0.209375
795.0,0.211177
800.0,0.213195
805.0,0.21524
810.0,0.217233
815.0,0.218618
820.0,0.220282
825.0,0.222218
830.0,0.223328
835.0,0.224808
840.0,0.22612
845.0,0.227628
850.0,0.229467
855.0,0.229936
860.0,0.23131
865.0,0.232732
870.0,0.234222
875.0,0.235161
880.0,0.236582
885.0,0.237681
890.0,0.238365
895.0,0.239856
900.0,0.24115
905.0,0.2424
910.0,0.244174
915.0,0.245164
920.0,0.246851
925.0,0.24853
930.0,0.250659
935.0,0.252273
940.0,0.254169
945.0,0.255921
950.0,0.258543
955.0,0.261004
960.0,0.263257
965.0,0.266359
970.0,0.268873
975.0,0.271824
980.0,0.274012
985.0,0.277641
990.0,0.281375
995.0,0.284771
1000.0,0.286627
1005.0,0.290594
1010.0,0.294195
1015.0,0.297306
1020.0,0.29999
1025.0,0.304703
1030.0,0.30711
1035.0,0.310523
1040.0,0.313253
1045.0,0.316505
1050.0,0.31982
1055.0,0.321606
1060.0,0.324651
1065.0,0.326207
1070.0,0.328681
1075.0,0.331293
1080.0,0.333194
1085.0,0.335881
1090.0,0.336206
1095.0,0.339044
1100.0,0.339896
1105.0,0.342302
1110.0,0.344858
1115.0,0.344757
1120.0,0.346485
1125.0,0.347162
1130.0,0.347413
1135.0,0.34997
1140.0,0.350009
1145.0,0.351854
1150.0,0.352694
1155.0,0.35356
1160.0,0.353372
1165.0,0.354316
1170.0,0.354422
1175.0,0.35472
1180.0,0.355645
1185.0,0.356338
1190.0,0.35612
1195.0,0.356753
1200.0,0.358039
1205.0,0.3576
1210.0,0.356858
1215.0,0.358696
1220.0,0.359602
1225.0,0.359849
1230.0,0.360118
1235.0,0.360206
1240.0,0.360509
1245.0,0.362074
1250.0,0.362461
1255.0,0.362758
1260.0,0.363697
1265.0,0.36356
1270.0,0.365048
1275.0,0.365953
1280.0,0.366963
1285.0,0.366922
1290.0,0.367029
1295.0,0.368713
1300.0,0.370327
1305.0,0.370925
1310.0,0.372136
1315.0,0.373744
1320.0,0.374096
1325.0,0.375242
1330.0,0.376635
1335.0,0.377807
1340.0,0.378784
1345.0,0.37898
1350.0,0.379685
1355.0,0.379961
1360.0,0.380799
1365.0,0.381654
1370.0,0.382564
1375.0,0.38193
1380.0,0.381443
1385.0,0.3811
1390.0,0.379983
1395.0,0.378237
1400.0,0.377759
1405.0,0.37771
1410.0,0.377522
1415.0,0.375469
1420.0,0.374157
1425.0,0.373623
1430.0,0.371881
1435.0,0.369047
1440.0,0.367264
1445.0,0.365051
1450.0,0.362394
1455.0,0.359794
1460.0,0.355748
1465.0,0.352828
1470.0,0.349786
1475.0,0.345454
1480.0,0.341131
1485.0,0.33734
1490.0,0.333155
1495.0,0.329375
1500.0,0.324991
1505.0,0.321317
1510.0,0.314946
1515.0,0.310971
1520.0,0.3063
1525.0,0.300828
1530.0,0.297083
1535.0,0.290901
1540.0,0.286396
1545.0,0.28153
1550.0,0.276634
1555.0,0.271597
1560.0,0.266093
1565.0,0.261522
1570.0,0.257956
1575.0,0.252771
1580.0,0.247451
1585.0,0.243316
1590.0,0.237986
1595.0,0.233458
1600.0,0.228926
1605.0,0.2242
1610.0,0.219951
1615.0,0.215312
1620.0,0.211461
1625.0,0.206644
1630.0,0.202503
1635.0,0.198637
1640.0,0.195024
1645.0,0.191312
1650.0,0.187368
1655.0,0.18379
1660.0,0.177672
1665.0,0.17415
1670.0,0.171555
1675.0,0.167459
1680.0,0.164391
1685.0,0.16146
1690.0,0.157848
1695.0,0.15472
1700.0,0.152625
1705.0,0.148651
1710.0,0.145898
1715.0,0.14307
1720.0,0.1404
1725.0,0.138083
1730.0,0.135676
1735.0,0.133255
1740.0,0.130887
1745.0,0.128448
1750.0,0.126475
1755.0,0.124645
1760.0,0.122893
1765.0,0.120766
1770.0,0.118663
1775.0,0.11711
1780.0,0.115353
1785.0,0.113712
1790.0,0.112018
1795.0,0.110057
1800.0,0.10854
1805.0,0.10687
1810.0,0.105304
1815.0,0.103887
1820.0,0.102325
1825.0,0.100917
1830.0,0.099672
1835.0,0.098888
1840.0,0.097154
1845.0,0.095526
1850.0,0.093938
1855.0,0.093001
1860.0,0.091239
1865.0,0.090423
1870.0,0.089463
1875.0,0.087565
1880.0,0.086859
1885.0,0.085666
1890.0,0.084922
1895.0,0.08415
1900.0,0.083496
1905.0,0.081999
1910.0,0.081505
1915.0,0.080709
1920.0,0.08018
1925.0,0.079441
1930.0,0.078984
1935.0,0.07835
1940.0,0.077627
1945.0,0.076869
1950.0,0.076318
1955.0,0.075704
1960.0,0.075318
1965.0,0.074781
1970.0,0.073827
1975.0,0.073429
1980.0,0.073134
1985.0,0.072717
1990.0,0.072286
1995.0,0.071983
2000.0,0.07151
2005.0,0.071161
2010.0,0.071001
2015.0,0.070821
2020.0,0.07034
2025.0,0.07016
2030.0,0.069942
2035.0,0.069695
2040.0,0.069465
2045.0,0.069182
2050.0,0.068968
2055.0,0.068824
2060.0,0.068359
2065.0,0.068413
2070.0,0.068046
2075.0,0.06782
2080.0,0.06762
2085.0,0.067421
2090.0,0.067416
2095.0,0.067274
2100.0,0.067294
2105.0,0.067119
2110.0,0.066838
2115.0,0.066749
2120.0,0.066517
2125.0,0.066426
2130.0,0.066291
2135.0,0.066147
2140.0,0.065844
2145.0,0.065905
2150.0,0.065706
2155.0,0.06546
2160.0,0.065354
2165.0,0.065226
2170.0,0.065291
2175.0,0.065127
2180.0,0.065252
2185.0,0.065036
2190.0,0.065239
2195.0,0.064974
2200.0,0.065205
2205.0,0.064975
2210.0,0.065098
2215.0,0.065366
2220.0,0.065269
2225.0,0.065264
2230.0,0.065364
2235.0,0.065288
2240.0,0.065279
2245.0,0.065324
2250.0,0.065624
2255.0,0.06538
2260.0,0.065581
2265.0,0.065549
2270.0,0.065632
2275.0,0.065901
2280.0,0.066216
2285.0,0.066387
2290.0,0.06644
2295.0,0.066296
2300.0,0.066497
2305.0,0.066883
2310.0,0.066921
2315.0,0.067053
2320.0,0.066998
2325.0,0.067163
2330.0,0.067364
2335.0,0.0676
2340.0,0.06798
2345.0,0.068188
2350.0,0.068586
2355.0,0.068797
2360.0,0.069184
2365.0,0.069583
2370.0,0.06959
2375.0,0.070711
2380.0,0.071097
2385.0,0.071402
2390.0,0.071814
2395.0,0.071687
2400.0,0.07211
2405.0,0.072573
2410.0,0.07277
2415.0,0.073219
2420.0,0.073372
2425.0,0.073702
2430.0,0.074104
2435.0,0.074223
2440.0,0.074552
2445.0,0.074811
2450.0,0.075043
2455.0,0.075404
2460.0,0.075795
2465.0,0.07599
2470.0,0.076145
2475.0,0.076404
2480.0,0.076703
2485.0,0.077148
2490.0,0.07723
2495.0,0.077379
2500.0,0.077946
2502.0,0.078076
2503.2,0.078134
2504.41,0.078002
2505.62,0.07814
2506.83,0.078085
2508.05,0.07814
2509.26,0.078246
2510.48,0.078172
2511.69,0.07832
2512.91,0.078169
2514.13,0.078239
2515.35,0.078559
2516.57,0.078413
2517.79,0.078434
2519.02,0.078464
2520.24,0.078536
2521.47,0.078556
2522.69,0.078567
2523.92,0.078711
2525.15,0.07888
2526.38,0.078764
2527.61,0.078631
2528.85,0.078432
2530.08,0.078484
2531.32,0.078556
2532.55,0.078587
2533.79,0.078484
2535.03,0.078432
2536.27,0.078521
2537.51,0.078624
2538.75,0.078887
2540.0,0.078924
2541.24,0.078619
2542.49,0.078706
2543.74,0.078854
2544.99,0.079042
2546.24,0.079133
2547.49,0.079086
2548.74,0.078959
2549.99,0.078965
2551.25,0.079172
2552.5,0.079182
2553.76,0.079115
2555.02,0.079209
2556.28,0.079216
2557.54,0.07928
2558.8,0.079122
2560.07,0.078917
2561.33,0.078834
2562.6,0.078981
2563.86,0.079186
2565.13,0.079174
2566.4,0.079076
2567.67,0.079234
2568.95,0.079339
2570.22,0.07913
2571.5,0.078911
2572.77,0.079105
2574.05,0.079244
2575.33,0.079495
2576.61,0.079319
2577.89,0.079166
2579.17,0.079446
2580.46,0.079449
2581.74,0.0791
2583.03,0.079072
2584.31,0.079026
2585.6,0.07918
2586.89,0.079459
2588.19,0.079298
2589.48,0.07939
2590.77,0.079595
2592.07,0.079565
2593.36,0.079424
2594.66,0.079011
2595.96,0.078792
2597.26,0.079497
2598.56,0.080022
2599.87,0.080056
2601.17,0.079686
2602.48,0.079661
2603.78,0.079735
2605.09,0.079634
2606.4,0.079692
2607.71,0.079853
2609.03,0.079782
2610.34,0.079646
2611.66,0.079774
2612.97,0.079976
2614.29,0.079997
2615.61,0.079972
2616.93,0.079495
2618.25,0.079285
2619.57,0.079689
2620.9,0.079593
2622.22,0.079726
2623.55,0.080026
2624.88,0.080004
2626.21,0.079683
2627.54,0.079382
2628.87,0.079561
2630.21,0.079483
2631.54,0.079139
2632.88,0.079533
2634.21,0.079655
2635.55,0.079733
2636.89,0.079893
2638.24,0.079795
2639.58,0.07969
2640.92,0.079567
2642.27,0.079539
2643.62,0.079536
2644.97,0.079559
2646.32,0.07958
2647.67,0.079582
2649.02,0.079628
2650.38,0.079524
2651.73,0.079358
2653.09,0.079311
2654.45,0.07936
2655.81,0.079278
2657.17,0.079105
2658.53,0.07921
2659.89,0.079062
2661.26,0.078949
2662.63,0.079032
2664.0,0.079017
2665.36,0.078572
2666.74,0.078212
2668.11,0.078455
2669.48,0.078923
2670.86,0.078283
2672.23,0.0781
2673.61,0.078752
2674.99,0.078732
2676.37,0.078388
2677.76,0.078056
2679.14,0.078064
2680.52,0.077835
2681.91,0.078159
2683.3,0.078017
2684.69,0.077651
2686.08,0.077733
2687.47,0.077617
2688.87,0.07735
2690.26,0.077119
2691.66,0.076781
2693.06,0.076555
2694.46,0.076193
2695.86,0.075954
2697.26,0.075773
2698.66,0.07537
2700.07,0.074487
2701.48,0.073351
2702.89,0.072288
2704.3,0.071538
2705.71,0.070562
2707.12,0.06922
2708.53,0.067308
2709.95,0.064976
2711.37,0.062719
2712.79,0.060859
2714.21,0.059012
2715.63,0.057135
2717.05,0.055718
2718.48,0.05473
2719.9,0.053667
2721.33,0.052533
2722.76,0.052394
2724.19,0.052171
2725.62,0.051549
2727.06,0.051595
2728.49,0.051759
2729.93,0.051558
2731.37,0.051199
2732.81,0.05124
2734.25,0.051182
2735.69,0.050916
2737.14,0.050787
2738.58,0.050658
2740.03,0.050271
2741.48,0.050182
2742.93,0.050212
2744.38,0.050181
2745.83,0.050158
2747.29,0.050168
2748.75,0.050048
2750.2,0.049898
2751.66,0.049905
2753.13,0.04997
2754.59,0.049786
2756.05,0.049032
2757.52,0.04896
2758.99,0.049412
2760.46,0.049433
2761.93,0.049195
2763.4,0.048944
2764.87,0.048772
2766.35,0.048649
2767.82,0.048393
2769.3,0.04823
2770.78,0.047866
2772.26,0.047724
2773.75,0.047848
2775.23,0.04771
2776.72,0.04722
2778.21,0.047051
2779.7,0.046925
2781.19,0.046456
2782.68,0.04608
2784.18,0.046015
2785.67,0.045966
2787.17,0.045647
2788.67,0.045466
2790.17,0.045601
2791.67,0.045621
2793.18,0.045448
2794.68,0.045211
2796.19,0.04495
2797.7,0.044775
2799.21,0.044771
2800.72,0.044907
2802.24,0.044952
2803.75,0.044829
2805.27,0.04481
2806.79,0.04507
2808.31,0.045219
2809.83,0.045433
2811.35,0.04559
2812.88,0.045697
2814.41,0.045725
2815.93,0.045825
2817.46,0.046139
2819.0,0.046347
2820.53,0.046639
2822.07,0.047075
2823.6,0.047116
2825.14,0.047274
2826.68,0.047413
2828.22,0.047716
2829.77,0.047957
2831.31,0.048039
2832.86,0.04813
2834.41,0.048373
2835.96,0.048611
2837.51,0.048887
2839.07,0.049203
2840.62,0.049389
2842.18,0.049443
2843.74,0.049611
2845.3,0.049957
2846.86,0.050309
2848.43,0.050294
2849.99,0.050288
2851.56,0.050419
2853.13,0.050564
2854.7,0.050949
2856.27,0.051258
2857.85,0.051168
2859.42,0.051193
2861.0,0.051331
2862.58,0.051267
2864.16,0.051276
2865.75,0.051429
2867.33,0.05162
2868.92,0.051709
2870.51,0.051687
2872.1,0.051673
2873.69,0.051836
2875.28,0.052007
2876.88,0.051858
2878.48,0.051688
2880.07,0.05166
2881.68,0.051741
2883.28,0.052117
2884.88,0.052435
2886.49,0.052286
2888.1,0.051956
2889.71,0.051908
2891.32,0.05194
2892.93,0.051787
2894.55,0.051776
2896.16,0.051737
2897.78,0.051687
2899.4,0.051734
2901.03,0.051711
2902.65,0.051784
2904.28,0.051808
2905.91,0.051758
2907.54,0.051745
2909.17,0.052002
2910.8,0.052438
2912.44,0.052629
2914.07,0.052363
2915.71,0.052242
2917.35,0.052341
2918.99,0.052252
2920.64,0.052171
2922.29,0.052209
2923.93,0.052325
2925.58,0.052453
2927.24,0.052496
2928.89,0.05252
2930.55,0.05284
2932.2,0.053218
2933.86,0.053294
2935.52,0.053194
2937.19,0.053151
2938.85,0.053426
2940.52,0.053895
2942.19,0.054308
2943.86,0.054168
2945.53,0.053944
2947.21,0.054079
2948.88,0.054586
2950.56,0.054751
2952.24,0.054669
2953.92,0.054813
2955.61,0.05504
2957.29,0.055206
2958.98,0.055327
2960.67,0.055486
2962.36,0.055759
2964.06,0.055896
2965.75,0.056023
2967.45,0.056518
2969.15,0.057199
2970.85,0.057399
2972.55,0.057273
2974.26,0.057373
2975.97,0.057589
2977.68,0.057713
2979.39,0.057857
2981.1,0.058091
2982.82,0.058438
2984.53,0.058949
2986.25,0.059254
2987.97,0.059229
2989.7,0.059334
2991.42,0.059635
2993.15,0.060035
2994.88,0.060313
2996.61,0.060774
2998.34,0.060882
3000.08,0.060899
3001.82,0.061144
3003.55,0.061457
3005.3,0.061673
3007.04,0.061936
3008.78,0.062189
3010.53,0.062315
3012.28,0.062421
3014.03,0.06268
3015.79,0.063101
3017.54,0.06337
3019.3,0.06351
3021.06,0.063879
3022.82,0.064308
3024.58,0.064754
3026.35,0.065185
3028.12,0.065167
3029.89,0.065112
3031.66,0.065317
3033.43,0.065582
3035.21,0.065836
3036.99,0.066085
3038.77,0.066378
3040.55,0.066455
3042.33,0.066454
3044.12,0.066543
3045.91,0.066829
3047.7,0.067101
3049.49,0.067302
3051.29,0.06747
3053.08,0.067757
3054.88,0.068073
3056.68,0.068405
3058.49,0.068782
3060.29,0.068793
3062.1,0.068759
3063.91,0.068908
3065.72,0.069011
3067.54,0.069163
3069.35,0.069491
3071.17,0.069774
3072.99,0.070043
3074.81,0.070198
3076.64,0.070273
3078.47,0.070467
3080.29,0.0708
3082.13,0.07098
3083.96,0.070958
3085.79,0.070971
3087.63,0.071116
3089.47,0.071465
3091.31,0.071661
3093.16,0.071894
3095.01,0.072101
3096.85,0.072123
3098.71,0.072248
3100.56,0.072419
3102.41,0.072558
3104.27,0.072657
3106.13,0.072869
3107.99,0.073059
3109.86,0.073094
3111.73,0.073322
3113.59,0.07359
3115.47,0.073686
3117.34,0.073788
3119.21,0.073827
3121.09,0.073965
3122.97,0.074127
3124.86,0.074282
3126.74,0.074444
3128.63,0.074559
3130.52,0.074762
3132.41,0.074906
3134.3,0.075072
3136.2,0.075215
3138.1,0.075403
3140.0,0.075539
3141.9,0.075623
3143.81,0.075723
3145.71,0.075829
3147.62,0.076078
3149.54,0.076284
3151.45,0.076427
3153.37,0.076535
3155.29,0.076594
3157.21,0.076717
3159.13,0.076889
3161.06,0.077043
3162.99,0.07711
3164.92,0.077283
3166.85,0.077439
3168.79,0.07754
3170.72,0.077753
3172.67,0.078234
3174.61,0.07842
3176.55,0.078234
3178.5,0.078238
3180.45,0.078409
3182.4,0.078533
3184.36,0.078719
3186.32,0.07903
3188.27,0.079135
3190.24,0.07917
3192.2,0.079316
3194.17,0.07939
3196.14,0.079616
3198.11,0.079869
3200.08,0.079969
3202.06,0.080092
3204.04,0.080371
3206.02,0.080794
3208.0,0.081161
3209.99,0.081347
3211.98,0.081274
3213.97,0.081156
3215.96,0.081299
3217.96,0.081483
3219.96,0.081443
3221.96,0.08156
3223.96,0.081705
3225.97,0.081793
3227.98,0.082134
3229.99,0.082333
3232.0,0.082386
3234.02,0.082497
3236.04,0.082726
3238.06,0.082918
3240.08,0.082927
3242.11,0.083101
3244.14,0.083368
3246.17,0.083538
3248.2,0.083781
3250.24,0.083966
3252.28,0.083951
3254.32,0.083907
3256.37,0.083975
3258.41,0.084148
3260.46,0.084434
3262.51,0.084748
3264.57,0.084893
3266.63,0.084958
3268.69,0.08496
3270.75,0.085172
3272.81,0.085511
3274.88,0.085687
3276.95,0.085749
3279.02,0.08601
3281.1,0.086202
3283.18,0.086363
3285.26,0.086613
3287.34,0.08692
3289.43,0.087168
3291.51,0.087132
3293.61,0.087212
3295.7,0.087495
3297.8,0.087712
3299.9,0.08782
3302.0,0.088036
3304.1,0.088148
3306.21,0.088334
3308.32,0.088509
3310.43,0.088642
3312.55,0.088833
3314.66,0.089019
3316.79,0.089305
3318.91,0.089704
3321.03,0.090054
3323.16,0.09006
3325.29,0.090032
3327.43,0.09018
3329.57,0.090359
3331.71,0.090496
3333.85,0.090694
3335.99,0.091016
3338.14,0.091283
3340.29,0.091444
3342.45,0.091666
3344.6,0.091799
3346.76,0.091854
3348.92,0.092065
3351.09,0.092297
3353.26,0.092505
3355.43,0.092809
3357.6,0.093135
3359.78,0.093264
3361.96,0.093379
3364.14,0.093595
3366.32,0.093788
3368.51,0.093878
3370.7,0.094024
3372.89,0.094271
3375.09,0.094566
3377.29,0.094767
3379.49,0.094924
3381.69,0.095173
3383.9,0.095436
3386.11,0.09565
3388.32,0.095966
3390.54,0.096187
3392.76,0.096466
3394.98,0.096731
3397.21,0.096897
3399.43,0.09708
3401.66,0.09716
3403.9,0.097259
3406.13,0.0974
3408.37,0.097548
3410.61,0.097721
3412.86,0.098012
3415.11,0.098333
3417.36,0.098507
3419.61,0.098733
3421.87,0.099053
3424.13,0.099336
3426.39,0.099658
3428.66,0.100157
3430.93,0.100602
3433.2,0.101051
3435.48,0.101351
3437.76,0.101583
3440.04,0.101785
3442.32,0.101984
3444.61,0.102237
3446.9,0.102586
3449.19,0.102923
3451.49,0.103207
3453.79,0.103584
3456.09,0.103942
3458.4,0.104148
3460.7,0.10441
3463.02,0.104676
3465.33,0.104953
3467.65,0.105281
3469.97,0.105665
3472.29,0.10601
3474.62,0.106274
3476.95,0.106525
3479.29,0.106872
3481.62,0.107256
3483.96,0.107479
3486.3,0.107636
3488.65,0.107951
3491.0,0.108225
3493.35,0.108434
3495.71,0.108779
3498.07,0.109177
3500.43,0.109412
3502.79,0.109681
3505.16,0.110036
3507.53,0.110369
3509.91,0.110728
3512.29,0.111156
3514.67,0.111527
3517.05,0.111891
3519.44,0.112229
3521.83,0.112633
3524.23,0.113109
3526.62,0.113544
3529.02,0.113837
3531.43,0.114214
3533.83,0.114578
3536.24,0.114919
3538.66,0.11525
3541.08,0.115648
3543.5,0.11609
3545.92,0.116436
3548.35,0.11674
3550.78,0.117146
3553.21,0.117507
3555.65,0.117879
3558.09,0.118244
3560.53,0.118564
3562.98,0.118984
3565.43,0.119412
3567.88,0.119738
3570.34,0.120107
3572.8,0.120469
3575.27,0.120848
3577.73,0.121208
3580.2,0.12159
3582.68,0.121946
3585.16,0.122364
3587.64,0.122729
3590.12,0.123162
3592.61,0.123533
3595.1,0.123876
3597.6,0.124217
3600.09,0.124643
3602.6,0.125038
3605.1,0.125445
3607.61,0.125851
3610.12,0.126222
3612.64,0.126658
3615.16,0.127054
3617.68,0.127423
3620.21,0.127869
3622.74,0.128272
3625.27,0.128704
3627.81,0.129158
3630.35,0.129602
3632.89,0.130012
3635.44,0.130419
3637.99,0.130874
3640.54,0.131229
3643.1,0.131581
3645.66,0.13208
3648.23,0.132499
3650.8,0.1329
3653.37,0.133306
3655.95,0.133806
3658.53,0.134247
3661.11,0.134641
3663.7,0.135026
3666.29,0.13549
3668.89,0.135898
3671.48,0.136333
3674.09,0.13677
3676.69,0.137204
3679.3,0.137666
3681.91,0.13814
3684.53,0.138622
3687.15,0.139094
3689.78,0.139433
3692.4,0.139868
3695.04,0.140341
3697.67,0.140825
3700.31,0.1413
3702.95,0.141796
3705.6,0.142243
3708.25,0.142673
3710.91,0.143069
3713.56,0.143582
3716.23,0.144093
3718.89,0.144634
3721.56,0.145051
3724.23,0.145477
3726.91,0.145962
3729.59,0.146437
3732.28,0.146914
3734.97,0.147415
3737.66,0.147868
3740.36,0.148367
3743.06,0.148846
3745.76,0.149368
3748.47,0.149858
3751.18,0.150288
3753.9,0.150777
3756.62,0.151314
3759.34,0.151898
3762.07,0.15244
3764.8,0.152936
3767.54,0.153438
3770.28,0.153992
3773.02,0.154516
3775.77,0.155009
3778.52,0.155497
3781.28,0.156005
3784.04,0.156537
3786.8,0.157065
3789.57,0.157639
3792.34,0.158211
3795.12,0.158774
3797.9,0.159281
3800.69,0.159767
3803.47,0.160215
3806.27,0.160758
3809.06,0.161327
3811.86,0.161875
3814.67,0.16237
3817.48,0.162961
3820.29,0.163601
3823.11,0.164177
3825.93,0.164712
3828.76,0.165316
3831.59,0.16589
3834.42,0.166382
3837.26,0.166905
3840.1,0.167471
3842.95,0.168014
3845.8,0.168608
3848.65,0.169224
3851.51,0.169804
3854.38,0.170322
3857.24,0.170859
3860.12,0.1715
3862.99,0.172091
3865.87,0.17261
3868.76,0.173251
3871.65,0.173917
3874.54,0.174489
3877.44,0.175036
3880.34,0.175685
3883.25,0.176288
3886.16,0.176862
3889.07,0.177458
3891.99,0.178049
3894.92,0.178646
3897.85,0.179235
3900.78,0.179833
3903.72,0.180423
3906.66,0.181
3909.6,0.181633
3912.55,0.18223
3915.51,0.182776
3918.47,0.183383
3921.43,0.184028
3924.4,0.184622
3927.38,0.185216
3930.35,0.185898
3933.33,0.186494
3936.32,0.187062
3939.31,0.187666
3942.31,0.188314
3945.31,0.188983
3948.31,0.189639
3951.32,0.190247
3954.34,0.190822
3957.35,0.19151
3960.38,0.1922
3963.41,0.19283
3966.44,0.19346
3969.48,0.194077
3972.52,0.194696
3975.56,0.195333
3978.61,0.195917
3981.67,0.196558
3984.73,0.197251
3987.8,0.197956
3990.87,0.1986
3993.94,0.199239
3997.02,0.199864
4000.1,0.20056
4003.19,0.201284
4006.29,0.201997
4009.39,0.202668
4012.49,0.203269
4015.6,0.203894
4018.71,0.204599
4021.83,0.20529
4024.95,0.205951
4028.08,0.206577
4031.21,0.2073
4034.35,0.208039
4037.49,0.208717
4040.64,0.209401
4043.79,0.210033
4046.94,0.210729
4050.11,0.211463
4053.27,0.212099
4056.44,0.212846
4059.62,0.213549
4062.8,0.214226
4065.99,0.214912
4069.18,0.215601
4072.38,0.216243
4075.58,0.216913
4078.78,0.217569
4082.0,0.21831
4085.21,0.218989
4088.43,0.219681
4091.66,0.220428
4094.89,0.221144
4098.13,0.221859
4101.37,0.222606
4104.62,0.223304
4107.87,0.223983
4111.13,0.224674
4114.39,0.225395
4117.66,0.226102
4120.93,0.226797
4124.21,0.227538
4127.5,0.228239
4130.79,0.228919
4134.08,0.229658
4137.38,0.230373
4140.68,0.231134
4143.99,0.231889
4147.31,0.232648
4150.63,0.233389
4153.95,0.234072
4157.29,0.2348
4160.62,0.235581
4163.96,0.23632
4167.31,0.237055
4170.66,0.237811
4174.02,0.238594
4177.39,0.239344
4180.75,0.240102
4184.13,0.240865
4187.51,0.241577
4190.89,0.242305
4194.28,0.243056
4197.68,0.243831
4201.08,0.244608
4204.49,0.245398
4207.9,0.246204
4211.32,0.247
4214.74,0.24778
4218.17,0.248598
4221.61,0.249498
4225.05,0.250333
4228.5,0.251146
4231.95,0.251962
4235.4,0.252762
4238.87,0.25351
4242.34,0.254236
4245.81,0.254916
4249.29,0.255564
4252.78,0.256168
4256.27,0.256814
4259.77,0.257432
4263.27,0.25812
4266.78,0.258968
4270.29,0.259883
4273.81,0.260728
4277.34,0.261507
4280.87,0.262337
4284.41,0.263159
4287.95,0.263948
4291.5,0.264647
4295.06,0.265364
4298.62,0.266176
4302.19,0.266926
4305.76,0.267702
4309.34,0.26845
4312.92,0.2692
4316.52,0.269955
4320.11,0.270725
4323.72,0.271491
4327.32,0.272182
4330.94,0.272905
4334.56,0.273712
4338.19,0.274473
4341.82,0.275231
4345.46,0.275963
4349.11,0.276685
4352.76,0.277463
4356.42,0.278211
4360.08,0.278927
4363.75,0.279689
4367.43,0.280522
4371.11,0.281321
4374.8,0.28206
4378.49,0.282854
4382.19,0.28363
4385.9,0.284368
4389.61,0.285094
4393.33,0.285817
4397.06,0.286556
4400.79,0.287347
4404.53,0.288073
4408.28,0.288818
4412.03,0.289531
4415.79,0.290275
4419.55,0.291033
4423.32,0.291778
4427.1,0.2925
4430.88,0.293239
4434.68,0.294009
4438.47,0.294688
4442.28,0.295411
4446.08,0.296132
4449.9,0.296843
4453.72,0.2976
4457.55,0.29828
4461.39,0.299027
4465.23,0.299756
4469.08,0.300482
4472.94,0.301191
4476.8,0.3019
4480.67,0.302551
4484.55,0.303182
4488.43,0.303854
4492.32,0.304579
4496.21,0.305286
4500.12,0.305986
4504.03,0.306602
4507.94,0.307272
4511.87,0.308016
4515.8,0.308668
4519.73,0.309293
4523.68,0.309922
4527.63,0.310589
4531.59,0.311222
4535.55,0.311875
4539.52,0.312456
4543.5,0.31311
4547.49,0.313712
4551.48,0.314281
4555.48,0.314832
4559.49,0.315429
4563.5,0.316002
4567.52,0.316544
4571.55,0.317055
4575.58,0.317605
4579.63,0.318164
4583.67,0.318707
4587.73,0.319219
4591.79,0.319728
4595.86,0.320235
4599.94,0.32074
4604.03,0.321284
4608.12,0.32177
4612.22,0.322206
4616.33,0.322676
4620.44,0.323133
4624.56,0.323634
4628.69,0.324081
4632.83,0.32453
4636.97,0.324897
4641.12,0.325305
4645.28,0.325709
4649.45,0.326156
4653.62,0.326574
4657.8,0.326968
4661.99,0.327293
4666.19,0.327617
4670.39,0.327952
4674.6,0.328316
4678.82,0.32861
4683.05,0.328973
4687.28,0.329392
4691.52,0.329734
4695.77,0.330029
4700.03,0.330368
4704.3,0.330721
4708.57,0.33106
4712.85,0.331396
4717.14,0.331765
4721.43,0.332138
4725.74,0.332541
4730.05,0.332875
4734.37,0.333164
4738.7,0.333443
4743.03,0.333775
4747.38,0.334073
4751.73,0.334436
4756.09,0.334687
4760.45,0.334952
4764.83,0.335202
4769.21,0.335473
4773.6,0.335697
4778.0,0.335936
4782.41,0.336136
4786.83,0.33639
4791.25,0.336595
4795.68,0.336796
4800.13,0.33704
4804.57,0.337329
4809.03,0.33752
4813.5,0.337737
4817.97,0.337936
4822.45,0.338159
4826.94,0.338327
4831.44,0.338489
4835.95,0.338703
4840.46,0.33893
4844.99,0.33913
4849.52,0.33929
4854.06,0.339453
4858.61,0.339583
4863.17,0.33971
4867.73,0.33991
4872.31,0.340093
4876.89,0.340259
4881.48,0.340347
4886.08,0.34047
4890.69,0.340554
4895.31,0.340644
4899.94,0.340703
4904.57,0.340806
4909.22,0.340899
4913.87,0.340995
4918.53,0.341014
4923.21,0.340987
4927.88,0.340963
4932.57,0.340954
4937.27,0.340868
4941.98,0.340826
4946.69,0.340767
4951.42,0.340718
4956.15,0.340651
4960.9,0.340563
4965.65,0.340501
4970.41,0.340442
4975.18,0.340302
4979.96,0.340199
4984.75,0.340111
4989.54,0.340024
4994.35,0.339953
4999.17,0.339882
5003.99,0.339837
5008.83,0.339804
5013.67,0.339759
5018.52,0.339724
5023.39,0.339695
5028.26,0.339671
5033.14,0.339638
5038.03,0.339647
5042.93,0.33964
5047.84,0.339634
5052.76,0.339573
5057.69,0.33959
5062.63,0.339566
5067.58,0.339534
5072.54,0.339532
5077.51,0.33948
5082.49,0.339423
5087.47,0.339415
5092.47,0.339417
5097.48,0.33938
5102.5,0.339306
5107.52,0.339255
5112.56,0.339224
5117.61,0.339191
5122.66,0.339154
5127.73,0.339205
5132.81,0.339189
5137.89,0.339173
5142.99,0.339112
5148.1,0.339074
5153.22,0.339071
5158.34,0.339131
5163.48,0.339135
5168.63,0.339155
5173.79,0.339213
5178.96,0.339283
5184.13,0.339304
5189.32,0.33937
5194.52,0.339406
5199.73,0.339503
5204.96,0.339581
5210.19,0.339661
5215.43,0.339709
5220.68,0.339852
5225.94,0.340039
5231.22,0.340193
5236.5,0.340297
5241.79,0.340475
5247.1,0.340623
5252.42,0.340822
5257.74,0.340967
5263.08,0.341083
5268.43,0.341175
5273.79,0.341303
5279.16,0.34138
5284.54,0.341475
5289.93,0.341569
5295.34,0.341673
5300.75,0.34176
5306.18,0.341884
5311.61,0.341866
5317.06,0.341891
5322.52,0.341866
5327.99,0.341885
5333.47,0.341871
5338.96,0.341794
5344.47,0.341654
5349.98,0.34155
5355.51,0.341424
5361.05,0.341368
5366.6,0.341209
5372.16,0.340991
5377.73,0.340794
5383.32,0.340612
5388.91,0.340409
5394.52,0.340168
5400.14,0.339869
5405.77,0.339577
5411.41,0.339237
5417.07,0.338883
5422.74,0.33845
5428.41,0.338124
5434.1,0.337813
5439.81,0.33757
5445.52,0.337201
5451.25,0.336858
5456.98,0.336556
5462.73,0.336228
5468.5,0.335806
5474.27,0.335539
5480.06,0.335325
5485.86,0.335062
5491.67,0.334819
5497.49,0.334666
5503.33,0.334382
5509.18,0.334219
5515.04,0.333993
5520.91,0.333782
5526.8,0.333566
5532.69,0.333479
5538.61,0.333366
5544.53,0.333177
5550.47,0.332926
5556.41,0.332784
5562.38,0.33263
5568.35,0.332575
5574.34,0.332435
5580.34,0.332305
5586.35,0.332205
5592.38,0.332255
5598.42,0.332229
5604.47,0.332123
5610.54,0.332001
5616.61,0.331955
5622.71,0.331842
5628.81,0.331749
5634.93,0.331679
5641.06,0.331525
5647.21,0.331352
5653.36,0.331233
5659.54,0.331114
5665.72,0.331001
5671.92,0.330848
5678.13,0.330595
5684.36,0.330349
5690.6,0.330183
5696.85,0.329879
5703.12,0.329621
5709.4,0.32932
5715.69,0.328913
5722.0,0.328571
5728.33,0.328339
5734.66,0.327908
5741.01,0.327557
5747.38,0.327053
5753.76,0.326604
5760.15,0.326054
5766.56,0.325537
5772.98,0.324759
5779.41,0.324256
5785.86,0.323774
5792.33,0.323115
5798.81,0.322437
5805.3,0.321706
5811.81,0.320873
5818.33,0.320078
5824.87,0.319108
5831.42,0.31817
5837.99,0.317393
5844.57,0.316585
5851.17,0.315581
5857.78,0.314544
5864.41,0.313332
5871.05,0.312223
5877.7,0.310961
5884.38,0.309879
5891.06,0.308516
5897.76,0.307611
5904.48,0.306428
5911.21,0.30537
5917.96,0.30441
5924.73,0.303265
5931.5,0.30227
5938.3,0.301279
5945.11,0.300165
5951.93,0.299301
5958.78,0.298481
5965.63,0.297487
5972.51,0.296594
5979.39,0.295592
5986.3,0.294814
5993.22,0.29395
6000.16,0.293046
6007.11,0.292381
6014.08,0.291608
6021.06,0.290924
6028.06,0.290288
6035.08,0.289714
6042.12,0.289081
6049.17,0.28843
6056.23,0.287849
6063.32,0.287507
6070.42,0.287197
6077.53,0.286628
6084.67,0.286293
6091.82,0.286062
6098.98,0.285778
6106.17,0.285507
6113.37,0.285157
6120.58,0.284881
6127.82,0.284758
6135.07,0.284701
6142.34,0.284512
6149.63,0.284366
6156.93,0.284265
6164.25,0.284179
6171.59,0.284064
6178.95,0.283952
6186.32,0.283805
6193.71,0.283665
6201.12,0.283543
6208.54,0.283442
6215.99,0.28323
6223.45,0.283053
6230.93,0.282836
6238.43,0.282699
6245.95,0.282593
6253.48,0.282551
6261.03,0.282528
6268.6,0.28258
6276.19,0.282643
6283.8,0.282766
6291.43,0.282901
6299.07,0.283067
6306.73,0.283177
6314.42,0.283345
6322.12,0.283494
6329.84,0.283681
6337.57,0.283846
6345.33,0.284013
6353.11,0.284335
6360.9,0.284831
6368.72,0.285337
6376.55,0.285891
6384.4,0.286616
6392.27,0.287329
6400.17,0.288071
6408.08,0.288707
6416.01,0.289286
6423.96,0.289953
6431.93,0.290752
6439.92,0.291448
6447.93,0.291979
6455.96,0.292532
6464.01,0.293047
6472.08,0.293562
6480.17,0.293995
6488.28,0.29442
6496.41,0.294895
6504.56,0.295388
6512.73,0.295975
6520.92,0.29652
6529.14,0.296863
6537.37,0.297231
6545.63,0.297561
6553.9,0.297711
6562.2,0.297924
6570.51,0.298032
6578.85,0.298187
6587.21,0.298209
6595.59,0.298285
6603.99,0.298151
6612.42,0.298068
6620.86,0.297966
6629.33,0.297815
6637.82,0.297705
6646.33,0.297521
6654.86,0.297479
6663.41,0.297468
6671.99,0.297259
6680.59,0.297059
6689.21,0.29685
6697.85,0.29666
6706.51,0.296597
6715.2,0.296368
6723.91,0.29608
6732.64,0.295911
6741.4,0.295671
6750.18,0.295341
6758.98,0.29495
6767.8,0.294485
6776.65,0.29397
6785.52,0.293252
6794.41,0.292501
6803.33,0.291528
6812.27,0.290709
6821.23,0.289957
6830.22,0.289209
6839.23,0.288437
6848.26,0.287797
6857.32,0.287218
6866.4,0.286527
6875.51,0.285729
6884.64,0.285312
6893.8,0.284991
6902.98,0.284443
6912.18,0.283982
6921.41,0.283461
6930.66,0.283102
6939.94,0.282734
6949.24,0.282418
6958.57,0.28214
6967.92,0.281819
6977.3,0.281526
6986.7,0.281455
6996.13,0.281192
7005.59,0.280889
7015.07,0.28064
7024.57,0.280438
7034.1,0.280196
7043.66,0.279982
7053.25,0.279731
7062.85,0.279431
7072.49,0.279322
7082.15,0.279086
7091.84,0.278867
7101.55,0.278601
7111.3,0.278301
7121.06,0.27798
7130.86,0.277562
7140.68,0.277156
7150.53,0.276737
7160.41,0.276189
7170.31,0.275723
7180.24,0.275168
7190.2,0.274657
7200.19,0.274189
7210.2,0.273611
7220.24,0.272985
7230.31,0.272424
7240.41,0.27187
7250.54,0.271281
7260.69,0.270724
7270.88,0.270106
7281.09,0.26941
7291.33,0.268649
7301.6,0.267875
7311.9,0.267121
7322.22,0.266422
7332.58,0.265734
7342.97,0.264988
7353.38,0.26421
7363.83,0.263485
7374.3,0.262838
7384.81,0.262128
7395.34,0.26134
7405.91,0.260509
7416.5,0.259663
7427.13,0.25872
7437.78,0.257766
7448.47,0.256938
7459.19,0.256216
7469.94,0.255541
7480.71,0.254868
7491.52,0.254233
7502.37,0.253581
7513.24,0.252833
7524.14,0.252108
7535.08,0.251411
7546.05,0.250697
7557.05,0.249971
7568.08,0.249265
7579.15,0.248503
7590.24,0.247735
7601.37,0.246969
7612.53,0.246209
7623.73,0.245472
7634.96,0.244762
7646.22,0.244055
7657.51,0.243384
7668.84,0.242737
7680.2,0.242122
7691.59,0.241508
7703.02,0.240946
7714.49,0.240447
7725.98,0.239962
7737.52,0.239479
7749.08,0.239016
7760.68,0.238502
7772.32,0.238005
7783.99,0.237543
7795.69,0.237136
7807.43,0.236737
7819.21,0.236351
7831.02,0.235956
7842.87,0.23561
7854.75,0.235323
7866.67,0.235117
7878.62,0.234909
7890.62,0.234764
7902.64,0.234667
7914.71,0.234539
7926.81,0.234345
7938.95,0.23416
7951.13,0.233957
7963.34,0.233743
7975.59,0.233561
7987.88,0.233435
8000.21,0.233306
8012.57,0.233212
8024.98,0.233023
8037.42,0.232797
8049.9,0.232509
8062.42,0.232158
8074.98,0.23171
8087.57,0.231187
8100.21,0.230555
8112.89,0.229827
8125.6,0.22899
8138.36,0.228105
8151.16,0.227112
8163.99,0.226032
8176.87,0.224806
8189.79,0.223552
8202.75,0.22221
8215.75,0.220802
8228.79,0.219283
8241.87,0.217715
8254.99,0.215984
8268.16,0.214215
8281.37,0.212393
8294.62,0.210514
8307.91,0.208583
8321.24,0.206672
8334.62,0.204723
8348.04,0.202797
8361.51,0.200792
8375.02,0.198854
8388.57,0.196946
8402.16,0.195082
8415.8,0.193225
8429.49,0.191478
8443.22,0.189643
8456.99,0.187864
8470.81,0.18607
8484.67,0.184393
8498.58,0.182685
8512.54,0.181044
8526.54,0.179402
8540.58,0.177803
8554.68,0.17623
8568.82,0.174761
8583.0,0.173227
8597.24,0.171769
8611.52,0.170327
8625.85,0.168985
8640.23,0.167625
8654.65,0.166337
8669.12,0.165054
8683.64,0.163794
8698.21,0.162427
8712.83,0.161124
8727.5,0.159759
8742.22,0.158409
8756.99,0.156968
8771.8,0.155473
8786.67,0.15384
8801.59,0.152236
8816.56,0.150462
8831.58,0.148616
8846.65,0.146628
8861.77,0.144692
8876.94,0.14261
8892.17,0.140459
8907.45,0.138112
8922.78,0.135741
8938.16,0.133199
8953.6,0.130592
8969.09,0.127806
8984.64,0.12487
9000.23,0.121666
9015.89,0.118272
9031.59,0.114527
9047.36,0.110542
9063.17,0.106198
9079.05,0.10165
9094.97,0.096712
9110.96,0.091588
9127.0,0.086333
9143.1,0.081222
9159.25,0.076147
9175.46,0.071432
9191.73,0.067143
9208.06,0.063548
9224.44,0.06055
9240.88,0.0583
9257.38,0.056474
9273.94,0.055158
9290.56,0.053978
9307.24,0.052933
9323.98,0.051787
9340.78,0.050754
9357.64,0.049526
9374.57,0.048348
9391.55,0.047102
9408.59,0.046015
9425.7,0.044921
9442.87,0.044097
9460.1,0.04337
9477.4,0.0429
9494.75,0.042442
9512.17,0.042227
9529.66,0.042012
9547.21,0.041912
9564.83,0.041828
9582.5,0.041964
9600.25,0.042019
9618.06,0.042132
9635.94,0.042163
9653.88,0.042269
9671.89,0.042226
9689.97,0.042132
9708.12,0.041815
9726.33,0.041385
9744.62,0.040678
9762.97,0.039843
9781.39,0.038793
9799.88,0.037748
9818.44,0.03651
9837.07,0.035407
9855.77,0.034231
9874.54,0.033137
9893.39,0.032033
9912.3,0.031107
9931.29,0.030092
9950.36,0.029259
9969.49,0.028477
9988.7,0.02788
10007.98,0.027222
10027.34,0.026716
10046.77,0.026196
10066.28,0.025826
10085.87,0.025449
10105.53,0.025187
10125.26,0.024913
10145.08,0.024834
10164.97,0.024652
10184.94,0.024528
10204.99,0.024394
10225.12,0.024384
10245.33,0.024278
10265.61,0.024225
10285.98,0.024128
10306.43,0.024133
10326.96,0.024071
10347.57,0.024108
10368.27,0.024037
10389.05,0.024055
10409.91,0.024018
10430.86,0.02411
10451.88,0.024148
10473.0,0.024243
10494.2,0.024282
10515.49,0.024484
10536.86,0.02465
10558.32,0.024925
10579.87,0.025133
10601.5,0.025537
10623.23,0.025898
10645.04,0.026377
10666.94,0.026799
10688.94,0.027357
10711.02,0.027884
10733.2,0.028507
10755.47,0.029029
10777.83,0.029636
10800.28,0.030176
10822.83,0.030719
10845.47,0.031118
10868.21,0.03163
10891.04,0.032052
10913.97,0.032488
10936.99,0.032763
10960.12,0.033104
10983.34,0.033242
11006.66,0.033412
11030.07,0.03351
11053.59,0.033649
11077.21,0.033634
11100.93,0.033622
11124.75,0.033472
11148.68,0.033344
11172.71,0.033127
11196.84,0.032933
11221.07,0.032558
11245.41,0.032194
11269.86,0.031721
11294.41,0.031273
11319.07,0.030761
11343.84,0.030267
11368.72,0.029632
11393.7,0.029127
11418.8,0.028445
11444.01,0.027826
11469.33,0.027122
11494.76,0.026503
11520.3,0.025836
11545.96,0.025252
11571.73,0.024578
11597.62,0.023982
11623.62,0.023265
11649.74,0.022724
11675.98,0.022125
11702.34,0.021502
11728.81,0.020781
11755.41,0.020199
11782.13,0.019574
11808.96,0.018998
11835.92,0.018287
11863.01,0.017736
11890.22,0.017082
11917.55,0.016454
11945.01,0.015725
11972.6,0.015117
12000.31,0.014435
12028.16,0.013892
12056.13,0.013235
12084.23,0.012672
12112.46,0.01214
12140.83,0.011723
12169.33,0.011224
12197.96,0.010901
12226.73,0.010526
12255.64,0.010283
12284.68,0.009989
12313.86,0.009892
12343.18,0.009655
12372.64,0.00957
12402.24,0.009456
12431.98,0.009393
12461.86,0.009241
12491.89,0.009205
12522.07,0.009067
12552.38,0.009113
12582.85,0.009176
12613.47,0.009369
12644.23,0.009501
12675.15,0.009875
12706.21,0.010175
12737.43,0.010666
12768.81,0.011243
12800.33,0.011999
12832.02,0.012786
12863.86,0.013745
12895.86,0.014686
12928.02,0.015851
12960.34,0.017119
12992.82,0.018624
13025.46,0.020112
13058.27,0.021785
13091.25,0.023394
13124.39,0.02504
13157.7,0.026578
13191.18,0.028217
13224.83,0.029619
13258.66,0.030966
13292.65,0.032125
13326.83,0.033228
13361.17,0.034122
13395.7,0.034942
13430.4,0.035565
13465.29,0.036317
13500.35,0.036871
13535.6,0.037344
13571.03,0.0377
13606.65,0.038133
13642.46,0.038466
13678.46,0.03889
13714.64,0.039236
13751.02,0.039658
13787.59,0.039944
13824.36,0.040264
13861.32,0.040421
13898.49,0.040718
13935.85,0.040972
13973.41,0.041392
14011.17,0.041764
14049.15,0.042248
14087.32,0.042688
14125.71,0.043297
14164.3,0.043822
14203.11,0.044371
14242.13,0.04479
14281.36,0.045358
14320.81,0.045778
14360.49,0.046213
14400.38,0.046604
14440.49,0.047127
14480.82,0.047509
14521.39,0.047909
14562.18,0.048254
14603.2,0.048696
14644.45,0.04907
14685.93,0.0495
14727.66,0.049888
14769.62,0.050274
14811.81,0.050581
14854.25,0.050984
14896.94,0.051169
14939.87,0.051453
14983.05,0.051692
15026.48,0.051892
15070.16,0.051858
15114.1,0.051948
15158.29,0.051995
15202.74,0.051968
15247.46,0.051845
15292.43,0.051822
15337.68,0.051744
15383.19,0.051822
15428.97,0.051796
15475.03,0.051877
15521.36,0.051953
15567.97,0.052161
15614.87,0.052273
15662.04,0.052337
15709.5,0.052258
15757.25,0.052168
15805.29,0.05184
15853.62,0.051323
15902.26,0.050405
15951.19,0.049252
16000.42,0.047619
16049.95,0.045826
16099.8,0.043822
16149.95,0.041987
16200.42,0.040188
16251.21,0.038583
16302.31,0.037064
16353.74,0.035738
16405.49,0.034297
16457.57,0.033009
16509.98,0.031772
16562.73,0.030759
16615.82,0.029537
16669.24,0.0285
16723.02,0.027273
16777.14,0.026093
16831.61,0.024936
16886.43,0.023956
16941.62,0.022785
16997.16,0.021687
17053.08,0.020467
17109.36,0.019479
17166.01,0.018263
17223.04,0.017209
17280.45,0.01625
17338.24,0.015425
17396.43,0.014787
17455.0,0.014877
17513.97,0.015427
17573.34,0.016653
17633.11,0.01863
17693.29,0.021427
17753.89,0.024808
17814.9,0.0286
17876.33,0.032196
17938.18,0.035851
18000.47,0.039279
18063.19,0.042667
18126.35,0.045626
18189.95,0.048298
18254.0,0.050619
18318.5,0.05282
18383.46,0.054771
18448.88,0.056535
18514.77,0.057776
18581.13,0.058905
18647.97,0.059692
18715.29,0.060436
18783.1,0.060936
18851.4,0.061414
18920.2,0.061605
18989.51,0.061805
19059.32,0.061911
19129.65,0.062188
19200.5,0.06237
19271.88,0.062889
19343.79,0.063311
19416.24,0.063964
19489.23,0.064661
19562.77,0.065515
19636.88,0.066065
19711.54,0.066558
19786.78,0.067001
19862.59,0.067436
19938.98,0.067791
20015.96,0.068254
20093.55,0.068185
20171.73,0.068174
20250.53,0.068047
20329.94,0.067746
20409.98,0.066829
20490.65,0.06627
20571.96,0.066015
20653.92,0.065234
20736.54,0.063836
20819.82,0.062887
20903.77,0.061337
20988.4,0.059924
21073.72,0.058655
21159.73,0.057721
21246.46,0.056726
21333.89,0.055477
21422.04,0.054154
21510.93,0.053482
21600.56,0.052744
21690.94,0.052392
21782.08,0.051456
21873.99,0.050796
21966.67,0.05031
22060.15,0.050175
22154.42,0.049613
22249.51,0.049172
22345.41,0.048595
22442.14,0.048832
22539.72,0.04862
22638.14,0.048781
22737.43,0.048625
22837.6,0.048169
22938.65,0.047594
23040.6,0.04761
23143.46,0.047228
23247.24,0.047226
23351.96,0.047091
23457.63,0.04724
23564.25,0.046879
23671.85,0.046667
23780.44,0.045982
23890.02,0.045896
24000.63,0.045666
24112.26,0.045826
24224.93,0.045294
24338.66,0.045186
24453.47,0.045101
24569.36,0.045784
24686.36,0.045888
24804.47,0.045729
24923.73,0.04563
25044.13,0.04602
25165.71,0.045797
25288.46,0.046474
25412.43,0.045702
25537.61,0.046335
25664.04,0.046187
25791.72,0.04464
25920.68,0.043201
