Database of Origin,University of Winnipeg Spectrophotometer Facility
Sample Description,RELAB Garnet data merged @2500nm with Nicolet data. See HOSERLab website for additional info.
Date Added,2016-11-29 18:08:31.600851

Data ID,RLA_GAR_02          
Sample ID,GAR103
Mineral Name,Almandine
Grain Size,<45
Viewing Geometry,"30/0,30"
Resolution,5/0.6-129
Material Class,Nesosilicate

Wavelength
300.0,0.129484
305.0,0.137706
310.0,0.147665
315.0,0.159837
320.0,0.170683
325.0,0.182299
330.0,0.194858
335.0,0.206179
340.0,0.217464
345.0,0.230853
350.0,0.242885
355.0,0.255089
360.0,0.267567
365.0,0.275446
370.0,0.285872
375.0,0.300234
380.0,0.314335
385.0,0.327063
390.0,0.339269
395.0,0.348868
400.0,0.354775
405.0,0.363885
410.0,0.370842
415.0,0.378654
420.0,0.384873
425.0,0.391192
430.0,0.398674
435.0,0.407338
440.0,0.415852
445.0,0.42284
450.0,0.427127
455.0,0.429382
460.0,0.431388
465.0,0.435259
470.0,0.438503
475.0,0.441191
480.0,0.444657
485.0,0.446354
490.0,0.446335
495.0,0.444715
500.0,0.444242
505.0,0.44448
510.0,0.454262
515.0,0.461463
520.0,0.465657
525.0,0.470325
530.0,0.477324
535.0,0.4862
540.0,0.494432
545.0,0.501993
550.0,0.507052
555.0,0.510676
560.0,0.51187
565.0,0.512644
570.0,0.513141
575.0,0.516534
580.0,0.523728
585.0,0.533962
590.0,0.542549
595.0,0.550159
600.0,0.554707
605.0,0.557864
610.0,0.561291
615.0,0.564492
620.0,0.568154
625.0,0.573216
630.0,0.577887
635.0,0.583268
640.0,0.587103
645.0,0.590475
650.0,0.591613
655.0,0.593281
660.0,0.593556
665.0,0.593765
670.0,0.593449
675.0,0.593248
680.0,0.5928
685.0,0.592929
690.0,0.592805
695.0,0.594094
700.0,0.595124
705.0,0.596468
710.0,0.598323
715.0,0.599999
720.0,0.60296
725.0,0.605455
730.0,0.608922
735.0,0.611053
740.0,0.614029
745.0,0.616833
750.0,0.618849
755.0,0.621388
760.0,0.6235
765.0,0.625442
770.0,0.626146
775.0,0.628515
780.0,0.628915
785.0,0.630354
790.0,0.631616
795.0,0.631453
800.0,0.633015
805.0,0.632616
810.0,0.633582
815.0,0.634632
820.0,0.63358
825.0,0.634824
830.0,0.634105
835.0,0.635196
840.0,0.634537
845.0,0.635506
850.0,0.63524
855.0,0.635764
860.0,0.635841
865.0,0.636321
870.0,0.637714
875.0,0.638026
880.0,0.638
885.0,0.638098
890.0,0.63818
895.0,0.637876
900.0,0.638799
905.0,0.640248
910.0,0.641669
915.0,0.64113
920.0,0.641854
925.0,0.642913
930.0,0.641811
935.0,0.642301
940.0,0.644093
945.0,0.642892
950.0,0.641518
955.0,0.641641
960.0,0.641119
965.0,0.638236
970.0,0.639681
975.0,0.639677
980.0,0.638371
985.0,0.637268
990.0,0.638716
995.0,0.636994
1000.0,0.634306
1005.0,0.63271
1010.0,0.633487
1015.0,0.631215
1020.0,0.627482
1025.0,0.626269
1030.0,0.622553
1035.0,0.618435
1040.0,0.614599
1045.0,0.611589
1050.0,0.607867
1055.0,0.605181
1060.0,0.601103
1065.0,0.59724
1070.0,0.594705
1075.0,0.591094
1080.0,0.587683
1085.0,0.582623
1090.0,0.578732
1095.0,0.57369
1100.0,0.568572
1105.0,0.563534
1110.0,0.559017
1115.0,0.553706
1120.0,0.549025
1125.0,0.543522
1130.0,0.537475
1135.0,0.532171
1140.0,0.527437
1145.0,0.521048
1150.0,0.515965
1155.0,0.511507
1160.0,0.505181
1165.0,0.498085
1170.0,0.492598
1175.0,0.486941
1180.0,0.481267
1185.0,0.478243
1190.0,0.473811
1195.0,0.469599
1200.0,0.462378
1205.0,0.457162
1210.0,0.452534
1215.0,0.448323
1220.0,0.443903
1225.0,0.439815
1230.0,0.436508
1235.0,0.433308
1240.0,0.430202
1245.0,0.42745
1250.0,0.425293
1255.0,0.422441
1260.0,0.420366
1265.0,0.418017
1270.0,0.415136
1275.0,0.412869
1280.0,0.411772
1285.0,0.410166
1290.0,0.409321
1295.0,0.409812
1300.0,0.40882
1305.0,0.407237
1310.0,0.406833
1315.0,0.406823
1320.0,0.406525
1325.0,0.407856
1330.0,0.408995
1335.0,0.41004
1340.0,0.41142
1345.0,0.412726
1350.0,0.413682
1355.0,0.415658
1360.0,0.417881
1365.0,0.420193
1370.0,0.422623
1375.0,0.42443
1380.0,0.427083
1385.0,0.430344
1390.0,0.433227
1395.0,0.43572
1400.0,0.439422
1405.0,0.441675
1410.0,0.445312
1415.0,0.44753
1420.0,0.451142
1425.0,0.453919
1430.0,0.457113
1435.0,0.459774
1440.0,0.463015
1445.0,0.465094
1450.0,0.46819
1455.0,0.471225
1460.0,0.473325
1465.0,0.475821
1470.0,0.478155
1475.0,0.479606
1480.0,0.4817
1485.0,0.483456
1490.0,0.48477
1495.0,0.486298
1500.0,0.487761
1505.0,0.488688
1510.0,0.489764
1515.0,0.490915
1520.0,0.491699
1525.0,0.492156
1530.0,0.49245
1535.0,0.492149
1540.0,0.491702
1545.0,0.491398
1550.0,0.491134
1555.0,0.491215
1560.0,0.491339
1565.0,0.490973
1570.0,0.490396
1575.0,0.489895
1580.0,0.488816
1585.0,0.487985
1590.0,0.487127
1595.0,0.4866
1600.0,0.485821
1605.0,0.485322
1610.0,0.484242
1615.0,0.484237
1620.0,0.482983
1625.0,0.481758
1630.0,0.480526
1635.0,0.480486
1640.0,0.479085
1645.0,0.479011
1650.0,0.478427
1655.0,0.477329
1660.0,0.475937
1665.0,0.475693
1670.0,0.474664
1675.0,0.473892
1680.0,0.473429
1685.0,0.472904
1690.0,0.472344
1695.0,0.472599
1700.0,0.473508
1705.0,0.473763
1710.0,0.472926
1715.0,0.473434
1720.0,0.473811
1725.0,0.47313
1730.0,0.473068
1735.0,0.47371
1740.0,0.473576
1745.0,0.473109
1750.0,0.473339
1755.0,0.473915
1760.0,0.47511
1765.0,0.475648
1770.0,0.476577
1775.0,0.477746
1780.0,0.479045
1785.0,0.480175
1790.0,0.481297
1795.0,0.481771
1800.0,0.481934
1805.0,0.483146
1810.0,0.484207
1815.0,0.485874
1820.0,0.487174
1825.0,0.489556
1830.0,0.490639
1835.0,0.49156
1840.0,0.492973
1845.0,0.494282
1850.0,0.49475
1855.0,0.495548
1860.0,0.496919
1865.0,0.496633
1870.0,0.49694
1875.0,0.497839
1880.0,0.498351
1885.0,0.499452
1890.0,0.500624
1895.0,0.502323
1900.0,0.503005
1905.0,0.504724
1910.0,0.50401
1915.0,0.504416
1920.0,0.505301
1925.0,0.505098
1930.0,0.503353
1935.0,0.505955
1940.0,0.507209
1945.0,0.504517
1950.0,0.508278
1955.0,0.511123
1960.0,0.510333
1965.0,0.512472
1970.0,0.517704
1975.0,0.515799
1980.0,0.518567
1985.0,0.519857
1990.0,0.518105
1995.0,0.517639
2000.0,0.518991
2005.0,0.519321
2010.0,0.520451
2015.0,0.520154
2020.0,0.519768
2025.0,0.520344
2030.0,0.520266
2035.0,0.520482
2040.0,0.519119
2045.0,0.520465
2050.0,0.521855
2055.0,0.521946
2060.0,0.521407
2065.0,0.520157
2070.0,0.51912
2075.0,0.518393
2080.0,0.518318
2085.0,0.519792
2090.0,0.520053
2095.0,0.51885
2100.0,0.518136
2105.0,0.518743
2110.0,0.520151
2115.0,0.521528
2120.0,0.519497
2125.0,0.519246
2130.0,0.519439
2135.0,0.519874
2140.0,0.518857
2145.0,0.518197
2150.0,0.51918
2155.0,0.518215
2160.0,0.518538
2165.0,0.519462
2170.0,0.519549
2175.0,0.519937
2180.0,0.519253
2185.0,0.517444
2190.0,0.518788
2195.0,0.520826
2200.0,0.520999
2205.0,0.519022
2210.0,0.518177
2215.0,0.519098
2220.0,0.517838
2225.0,0.517783
2230.0,0.518106
2235.0,0.517848
2240.0,0.517801
2245.0,0.515917
2250.0,0.516514
2255.0,0.518051
2260.0,0.51728
2265.0,0.518979
2270.0,0.518419
2275.0,0.518005
2280.0,0.516303
2285.0,0.515125
2290.0,0.515882
2295.0,0.516954
2300.0,0.517465
2305.0,0.517282
2310.0,0.516306
2315.0,0.516067
2320.0,0.516689
2325.0,0.514647
2330.0,0.51436
2335.0,0.516455
2340.0,0.517263
2345.0,0.516497
2350.0,0.5157
2355.0,0.515352
2360.0,0.515766
2365.0,0.516201
2370.0,0.515175
2375.0,0.514464
2380.0,0.513494
2385.0,0.513713
2390.0,0.51493
2395.0,0.516322
2400.0,0.515747
2405.0,0.514854
2410.0,0.513833
2415.0,0.51262
2420.0,0.512506
2425.0,0.514112
2430.0,0.514373
2435.0,0.514397
2440.0,0.515559
2445.0,0.514491
2450.0,0.513411
2455.0,0.512238
2460.0,0.511414
2465.0,0.511212
2470.0,0.512424
2475.0,0.512012
2480.0,0.512887
2485.0,0.513745
2490.0,0.511924
2495.0,0.51322
2500.0,0.51419
2505.0,0.512292
2510.0,0.512027
2515.0,0.513185
2520.0,0.511977
2525.0,0.510517
2530.0,0.510054
2535.0,0.51061
2540.0,0.51068
2542.49,0.509623
2543.74,0.509556
2544.99,0.509889
2546.24,0.510833
2547.49,0.511314
2548.74,0.511183
2549.99,0.511201
2551.25,0.510867
2552.5,0.50971
2553.76,0.509737
2555.02,0.508421
2556.28,0.507877
2557.54,0.508662
2558.8,0.508662
2560.07,0.509038
2561.33,0.509427
2562.6,0.509071
2563.86,0.508384
2565.13,0.508116
2566.4,0.508754
2567.67,0.50904
2568.95,0.507407
2570.22,0.506532
2571.5,0.506763
2572.77,0.508058
2574.05,0.508676
2575.33,0.509178
2576.61,0.509434
2577.89,0.508478
2579.17,0.507493
2580.46,0.50625
2581.74,0.505905
2583.03,0.505847
2584.31,0.506376
2585.6,0.507493
2586.89,0.506788
2588.19,0.506332
2589.48,0.506782
2590.77,0.506947
2592.07,0.506928
2593.36,0.505914
2594.66,0.504668
2595.96,0.504264
2597.26,0.505361
2598.56,0.506323
2599.87,0.506768
2601.17,0.507711
2602.48,0.507925
2603.78,0.5069
2605.09,0.505917
2606.4,0.504637
2607.71,0.505175
2609.03,0.506042
2610.34,0.505298
2611.65,0.504534
2612.97,0.50513
2614.29,0.504859
2615.61,0.503617
2616.93,0.504219
2618.25,0.504932
2619.57,0.504144
2620.9,0.503569
2622.22,0.503391
2623.55,0.503289
2624.88,0.50316
2626.21,0.504199
2627.54,0.50413
2628.87,0.503467
2630.21,0.503378
2631.54,0.502926
2632.88,0.502496
2634.21,0.503011
2635.55,0.50396
2636.89,0.50348
2638.24,0.502019
2639.58,0.50173
2640.92,0.503107
2642.27,0.502548
2643.62,0.502111
2644.97,0.502432
2646.32,0.501971
2647.67,0.501376
2649.02,0.502017
2650.38,0.503043
2651.73,0.503912
2653.09,0.503445
2654.45,0.501809
2655.81,0.501108
2657.17,0.50208
2658.53,0.503459
2659.89,0.503509
2661.26,0.50197
2662.63,0.501711
2664.0,0.501466
2665.36,0.502109
2666.74,0.503101
2668.11,0.502997
2669.48,0.501219
2670.86,0.501227
2672.23,0.501351
2673.61,0.501116
2674.99,0.501255
2676.37,0.501335
2677.76,0.500136
2679.14,0.499644
2680.52,0.500291
2681.91,0.499759
2683.3,0.501158
2684.69,0.501555
2686.08,0.50091
2687.47,0.499903
2688.87,0.500194
2690.26,0.501149
2691.66,0.500825
2693.06,0.500339
2694.46,0.499487
2695.86,0.499101
2697.26,0.498899
2698.66,0.50057
2700.07,0.501439
2701.48,0.499699
2702.89,0.498454
2704.3,0.498573
2705.71,0.499319
2707.12,0.499149
2708.53,0.499249
2709.95,0.499476
2711.37,0.498788
2712.79,0.498853
2714.21,0.499246
2715.63,0.499307
2717.05,0.498453
2718.48,0.496755
2719.9,0.496475
2721.33,0.496146
2722.76,0.496588
2724.19,0.497075
2725.62,0.497563
2727.06,0.497672
2728.49,0.497537
2729.93,0.49773
2731.37,0.497837
2732.81,0.496958
2734.25,0.496487
2735.69,0.497103
2737.14,0.497624
2738.58,0.497239
2740.03,0.496581
2741.48,0.496763
2742.93,0.497217
2744.38,0.496887
2745.83,0.496721
2747.29,0.49694
2748.75,0.496836
2750.2,0.496485
2751.66,0.495751
2753.13,0.495901
2754.59,0.495619
2756.05,0.495431
2757.52,0.495607
2758.99,0.495852
2760.46,0.496708
2761.93,0.49631
2763.4,0.496117
2764.87,0.495801
2766.35,0.49589
2767.82,0.495332
2769.3,0.494697
2770.78,0.494757
2772.26,0.4943
2773.75,0.494534
2775.23,0.49508
2776.72,0.49448
2778.21,0.494458
2779.7,0.495725
2781.19,0.495386
2782.68,0.493885
2784.18,0.49408
2785.67,0.494414
2787.17,0.494827
2788.67,0.494074
2790.17,0.493549
2791.67,0.494337
2793.18,0.495307
2794.68,0.494524
2796.19,0.493533
2797.7,0.49439
2799.21,0.494835
2800.72,0.494597
2802.24,0.494893
2803.75,0.494541
2805.27,0.494064
2806.79,0.493705
2808.31,0.492661
2809.83,0.491781
2811.35,0.491657
2812.88,0.492007
2814.41,0.492486
2815.93,0.492512
2817.46,0.492888
2819.0,0.492682
2820.53,0.493352
2822.07,0.493257
2823.6,0.492615
2825.14,0.492376
2826.68,0.492759
2828.22,0.492755
2829.77,0.492703
2831.31,0.492606
2832.86,0.492307
2834.41,0.49211
2835.96,0.491894
2837.51,0.490571
2839.07,0.49062
2840.62,0.491672
2842.18,0.492028
2843.74,0.490864
2845.3,0.491077
2846.86,0.491569
2848.43,0.491381
2849.99,0.491576
2851.56,0.49131
2853.13,0.490089
2854.7,0.490174
2856.27,0.490147
2857.85,0.490193
2859.42,0.49068
2861.0,0.4905
2862.58,0.490078
2864.16,0.490051
2865.75,0.489919
2867.33,0.48963
2868.92,0.489515
2870.51,0.489526
2872.1,0.489364
2873.69,0.489167
2875.28,0.489103
2876.88,0.488412
2878.48,0.488433
2880.07,0.489043
2881.68,0.489746
2883.28,0.489376
2884.88,0.487628
2886.49,0.487982
2888.1,0.488214
2889.71,0.488315
2891.32,0.48823
2892.93,0.487758
2894.55,0.48802
2896.16,0.487567
2897.78,0.486806
2899.4,0.487234
2901.03,0.486925
2902.65,0.486832
2904.28,0.486607
2905.91,0.486599
2907.53,0.485997
2909.17,0.486108
2910.8,0.486133
2912.44,0.486491
2914.07,0.486906
2915.71,0.486131
2917.35,0.486096
2918.99,0.487367
2920.64,0.486064
2922.29,0.485101
2923.93,0.48551
2925.58,0.486301
2927.24,0.486585
2928.89,0.487019
2930.55,0.486522
2932.2,0.485661
2933.86,0.48529
2935.52,0.485359
2937.19,0.484697
2938.85,0.484895
2940.52,0.484272
2942.19,0.484443
2943.86,0.485298
2945.53,0.485014
2947.21,0.484381
2948.88,0.484802
2950.56,0.484489
2952.24,0.483638
2953.92,0.483254
2955.61,0.483419
2957.29,0.483776
2958.98,0.483405
2960.67,0.482105
2962.36,0.482664
2964.06,0.483595
2965.75,0.483377
2967.45,0.482572
2969.15,0.482532
2970.85,0.483484
2972.55,0.482935
2974.26,0.483005
2975.97,0.483577
2977.68,0.483166
2979.39,0.482502
2981.1,0.482732
2982.82,0.482868
2984.53,0.481912
2986.25,0.482663
2987.97,0.48369
2989.7,0.48343
2991.42,0.482343
2993.15,0.481847
2994.88,0.481997
2996.61,0.482352
2998.34,0.481812
3000.08,0.481306
3001.82,0.481379
3003.55,0.481131
3005.3,0.480766
3007.04,0.48112
3008.78,0.481375
3010.53,0.481083
3012.28,0.480852
3014.03,0.480568
3015.79,0.480764
3017.54,0.481083
3019.3,0.480977
3021.06,0.481361
3022.82,0.481426
3024.58,0.480775
3026.35,0.48012
3028.12,0.48051
3029.89,0.480711
3031.66,0.481146
3033.43,0.481132
3035.21,0.481024
3036.99,0.480684
3038.77,0.480631
3040.55,0.480695
3042.33,0.480681
3044.12,0.480664
3045.91,0.481012
3047.7,0.480649
3049.49,0.480352
3051.29,0.480006
3053.08,0.47967
3054.88,0.480403
3056.68,0.4806
3058.49,0.480384
3060.29,0.481237
3062.1,0.480816
3063.91,0.479989
3065.72,0.480521
3067.54,0.480169
3069.35,0.479663
3071.17,0.48001
3072.99,0.4801
3074.81,0.479937
3076.64,0.479871
3078.46,0.479902
3080.29,0.480283
3082.13,0.480434
3083.96,0.480254
3085.79,0.479951
3087.63,0.479841
3089.47,0.479874
3091.31,0.479548
3093.16,0.480031
3095.01,0.481316
3096.85,0.481108
3098.71,0.480555
3100.56,0.48075
3102.41,0.480557
3104.27,0.480751
3106.13,0.480559
3107.99,0.480649
3109.86,0.48105
3111.73,0.481057
3113.59,0.481146
3115.47,0.481415
3117.34,0.480856
3119.21,0.480623
3121.09,0.481251
3122.97,0.481165
3124.86,0.480233
3126.74,0.47987
3128.63,0.480346
3130.52,0.481191
3132.41,0.481418
3134.3,0.481286
3136.2,0.480519
3138.1,0.480478
3140.0,0.481336
3141.9,0.481622
3143.81,0.481672
3145.71,0.481986
3147.62,0.48144
3149.54,0.481354
3151.45,0.48146
3153.37,0.481543
3155.29,0.481218
3157.21,0.48102
3159.13,0.480833
3161.06,0.481247
3162.99,0.481697
3164.92,0.481768
3166.85,0.481265
3168.79,0.481101
3170.72,0.481121
3172.67,0.481264
3174.61,0.481922
3176.55,0.482211
3178.5,0.481982
3180.45,0.481526
3182.4,0.481592
3184.36,0.482057
3186.32,0.482566
3188.27,0.482842
3190.24,0.482363
3192.2,0.482369
3194.17,0.483313
3196.14,0.483761
3198.11,0.483861
3200.08,0.483543
3202.06,0.48318
3204.04,0.483054
3206.02,0.483025
3208.0,0.48327
3209.99,0.483463
3211.98,0.483909
3213.97,0.484003
3215.96,0.483784
3217.96,0.483993
3219.96,0.483753
3221.96,0.483959
3223.96,0.484598
3225.97,0.485375
3227.98,0.485557
3229.99,0.485086
3232.0,0.484458
3234.02,0.484259
3236.04,0.484492
3238.06,0.485274
3240.08,0.485419
3242.11,0.485649
3244.14,0.487082
3246.17,0.487426
3248.2,0.486858
3250.24,0.48585
3252.28,0.485475
3254.32,0.486789
3256.37,0.487219
3258.41,0.486785
3260.46,0.486686
3262.51,0.487695
3264.57,0.487252
3266.63,0.486335
3268.69,0.486996
3270.75,0.489398
3272.81,0.490142
3274.88,0.489595
3276.95,0.489203
3279.02,0.487768
3281.1,0.485456
3283.18,0.485752
3285.26,0.488378
3287.34,0.489731
3289.43,0.492008
3291.51,0.492416
3293.61,0.489838
3295.7,0.487385
3297.8,0.489853
3299.89,0.491752
3302.0,0.488049
3304.1,0.491304
3306.21,0.493131
3308.32,0.490833
3310.43,0.493563
3312.55,0.493483
3314.66,0.490502
3316.78,0.490759
3318.91,0.488502
3321.03,0.491365
3323.16,0.495237
3325.29,0.492498
3327.43,0.49394
3329.57,0.495244
3331.71,0.494845
3333.85,0.492066
3335.99,0.485411
3338.14,0.484223
3340.29,0.498331
3342.45,0.501342
3344.6,0.497641
3346.76,0.494971
3348.92,0.493791
3351.09,0.494317
3353.26,0.493153
3355.43,0.492063
3357.6,0.496949
3359.78,0.499072
3361.96,0.497224
3364.14,0.49783
3366.32,0.498008
3368.51,0.49712
3370.7,0.497791
3372.89,0.493408
3375.09,0.49411
3377.29,0.500327
3379.49,0.497183
3381.69,0.49929
3383.9,0.503564
3386.11,0.50066
3388.32,0.49715
3390.54,0.495123
3392.76,0.500986
3394.98,0.499968
3397.21,0.49669
3399.43,0.50356
3401.66,0.50346
3403.9,0.501994
3406.13,0.503483
3408.37,0.502486
3410.61,0.50182
3412.86,0.501564
3415.11,0.501224
3417.36,0.501869
3419.61,0.502982
3421.87,0.501405
3424.13,0.50303
3426.39,0.505116
3428.66,0.504791
3430.93,0.503196
3433.2,0.500922
3435.48,0.503371
3437.76,0.504962
3440.04,0.505214
3442.32,0.506467
3444.61,0.504381
3446.9,0.504813
3449.19,0.506446
3451.49,0.50567
3453.79,0.499809
3456.09,0.499243
3458.4,0.505351
3460.7,0.509511
3463.02,0.50163
3465.33,0.505299
3467.65,0.513482
3469.97,0.509273
3472.29,0.503474
3474.62,0.501812
3476.95,0.506042
3479.29,0.507742
3481.62,0.510187
3483.96,0.507751
3486.3,0.50562
3488.65,0.506546
3491.0,0.506875
3493.35,0.507723
3495.71,0.507821
3498.07,0.507274
3500.43,0.504193
3502.79,0.500645
3505.16,0.503223
3507.53,0.5069
3509.91,0.506357
3512.29,0.502977
3514.67,0.498886
3517.05,0.498678
3519.44,0.500606
3521.83,0.499061
3524.22,0.497787
3526.62,0.496367
3529.02,0.493552
3531.43,0.492464
3533.83,0.497483
3536.24,0.502306
3538.66,0.49962
3541.08,0.49722
3543.5,0.495775
3545.92,0.493938
3548.35,0.490213
3550.78,0.496671
3553.21,0.497075
3555.65,0.492126
3558.09,0.49665
3560.53,0.498441
3562.98,0.495977
3565.43,0.494249
3567.88,0.493548
3570.34,0.491968
3572.8,0.489355
3575.27,0.491629
3577.73,0.490336
3580.2,0.484263
3582.68,0.484683
3585.16,0.49038
3587.64,0.492552
3590.12,0.490111
3592.61,0.487856
3595.1,0.486604
3597.6,0.485303
3600.09,0.484392
3602.6,0.48333
3605.1,0.481157
3607.61,0.476103
3610.12,0.480848
3612.64,0.485248
3615.16,0.481772
3617.68,0.478245
3620.21,0.475908
3622.74,0.47786
3625.27,0.47992
3627.81,0.478011
3630.35,0.477792
3632.89,0.47795
3635.44,0.476716
3637.99,0.478638
3640.54,0.4785
3643.1,0.476423
3645.66,0.474693
3648.23,0.474065
3650.8,0.473298
3653.37,0.472637
3655.95,0.472819
3658.53,0.471992
3661.11,0.468756
3663.7,0.468567
3666.29,0.471269
3668.89,0.471121
3671.48,0.46964
3674.09,0.468555
3676.69,0.467559
3679.3,0.467385
3681.91,0.467665
3684.53,0.466845
3687.15,0.464554
3689.78,0.462127
3692.4,0.464128
3695.04,0.466257
3697.67,0.465193
3700.31,0.464141
3702.95,0.464076
3705.6,0.463747
3708.25,0.463119
3710.91,0.462405
3713.56,0.462776
3716.23,0.462473
3718.89,0.461693
3721.56,0.462574
3724.23,0.463328
3726.91,0.46353
3729.59,0.463107
3732.28,0.462681
3734.97,0.462814
3737.66,0.462455
3740.36,0.461836
3743.06,0.461628
3745.76,0.462218
3748.47,0.462205
3751.18,0.461839
3753.9,0.462512
3756.62,0.463247
3759.34,0.463447
3762.07,0.463707
3764.8,0.463585
3767.54,0.463692
3770.28,0.463668
3773.02,0.464022
3775.77,0.464099
3778.52,0.463714
3781.28,0.463751
3784.04,0.464192
3786.8,0.46404
3789.57,0.463981
3792.34,0.464516
3795.12,0.464514
3797.9,0.463978
3800.69,0.464032
3803.47,0.464099
3806.27,0.463955
3809.06,0.463707
3811.86,0.463963
3814.67,0.464273
3817.48,0.464433
3820.29,0.46417
3823.11,0.463913
3825.93,0.463898
3828.76,0.46409
3831.59,0.464026
3834.42,0.464078
3837.26,0.464
3840.1,0.463774
3842.95,0.463863
3845.8,0.464007
3848.65,0.463988
3851.51,0.46395
3854.38,0.463999
3857.24,0.463795
3860.12,0.463172
3862.99,0.463066
3865.87,0.463632
3868.76,0.463488
3871.65,0.463767
3874.54,0.463776
3877.44,0.463513
3880.34,0.463844
3883.25,0.463939
3886.16,0.463561
3889.07,0.463389
3891.99,0.463393
3894.92,0.463664
3897.85,0.463541
3900.78,0.46338
3903.72,0.463463
3906.66,0.46382
3909.6,0.463946
3912.55,0.463879
3915.51,0.464088
3918.47,0.46408
3921.43,0.464253
3924.4,0.464102
3927.37,0.464026
3930.35,0.464379
3933.33,0.464342
3936.32,0.464371
3939.31,0.464798
3942.31,0.465046
3945.31,0.464919
3948.31,0.465393
3951.32,0.465674
3954.34,0.465349
3957.35,0.465356
3960.38,0.465946
3963.41,0.466185
3966.44,0.466537
3969.48,0.466771
3972.52,0.466514
3975.56,0.466715
3978.61,0.467129
3981.67,0.467583
3984.73,0.467897
3987.8,0.468644
3990.87,0.468912
3993.94,0.469033
3997.02,0.469412
4000.1,0.469308
4003.19,0.469439
4006.29,0.469917
4009.39,0.470277
4012.49,0.470643
4015.6,0.471079
4018.71,0.471242
4021.83,0.471516
4024.95,0.471952
4028.08,0.472216
4031.21,0.472558
4034.35,0.472569
4037.49,0.472836
4040.64,0.473202
4043.79,0.473495
4046.94,0.473703
4050.11,0.473822
4053.27,0.47433
4056.44,0.475078
4059.62,0.47548
4062.8,0.475814
4065.99,0.475853
4069.18,0.476415
4072.38,0.477061
4075.58,0.477162
4078.78,0.477175
4082.0,0.477554
4085.21,0.477861
4088.43,0.478269
4091.66,0.478616
4094.89,0.479122
4098.13,0.479585
4101.37,0.480088
4104.62,0.480154
4107.87,0.480392
4111.13,0.480858
4114.39,0.48121
4117.66,0.481602
4120.93,0.482096
4124.21,0.482399
4127.5,0.48252
4130.78,0.482728
4134.08,0.483311
4137.38,0.483673
4140.68,0.484024
4143.99,0.484358
4147.31,0.484619
4150.63,0.484894
4153.95,0.485446
4157.29,0.485884
4160.62,0.486333
4163.96,0.486245
4167.31,0.48621
4170.66,0.486537
4174.02,0.486979
4177.39,0.487635
4180.75,0.488031
4184.13,0.488324
4187.51,0.488366
4190.89,0.488459
4194.28,0.488871
4197.68,0.489521
4201.08,0.490227
4204.49,0.490431
4207.9,0.49042
4211.32,0.49084
4214.74,0.49134
4218.17,0.491693
4221.61,0.491887
4225.05,0.49211
4228.5,0.492403
4231.95,0.492842
4235.4,0.493569
4238.87,0.493849
4242.34,0.493617
4245.81,0.493944
4249.29,0.494653
4252.78,0.49508
4256.27,0.495411
4259.77,0.495608
4263.27,0.496162
4266.78,0.496736
4270.29,0.49716
4273.81,0.49763
4277.34,0.498166
4280.87,0.498465
4284.41,0.498868
4287.95,0.4994
4291.5,0.499516
4295.06,0.499742
4298.62,0.500336
4302.19,0.500696
4305.76,0.501235
4309.34,0.501776
4312.92,0.502077
4316.52,0.502588
4320.11,0.503285
4323.72,0.503724
4327.32,0.503986
4330.94,0.504552
4334.56,0.505187
4338.19,0.50535
4341.82,0.505634
4345.46,0.50601
4349.11,0.506545
4352.76,0.507124
4356.42,0.507825
4360.08,0.508318
4363.75,0.508761
4367.43,0.50937
4371.11,0.510107
4374.8,0.510632
4378.49,0.510862
4382.19,0.511411
4385.9,0.511767
4389.61,0.512071
4393.33,0.512436
4397.06,0.512894
4400.79,0.513409
4404.53,0.513869
4408.28,0.514403
4412.03,0.515051
4415.79,0.51567
4419.55,0.515861
4423.32,0.516177
4427.1,0.516765
4430.88,0.517462
4434.67,0.518206
4438.47,0.518626
4442.27,0.519167
4446.08,0.5198
4449.9,0.520154
4453.72,0.520426
4457.55,0.52092
4461.39,0.521365
4465.23,0.521896
4469.08,0.522362
4472.94,0.522899
4476.8,0.523287
4480.67,0.523708
4484.55,0.524334
4488.43,0.524922
4492.32,0.524988
4496.21,0.525439
4500.12,0.525964
4504.03,0.526577
4507.94,0.52701
4511.87,0.527152
4515.8,0.527554
4519.73,0.528357
4523.68,0.528872
4527.63,0.529261
4531.59,0.529763
4535.55,0.530435
4539.52,0.530946
4543.5,0.531273
4547.49,0.531684
4551.48,0.531933
4555.48,0.532433
4559.49,0.532973
4563.5,0.533487
4567.52,0.533942
4571.55,0.534197
4575.58,0.534532
4579.62,0.534903
4583.67,0.535405
4587.73,0.536058
4591.79,0.536484
4595.86,0.536963
4599.94,0.537501
4604.03,0.538056
4608.12,0.53839
4612.22,0.538596
4616.33,0.539006
4620.44,0.539584
4624.56,0.53987
4628.69,0.540017
4632.83,0.54052
4636.97,0.541073
4641.12,0.541505
4645.28,0.542202
4649.45,0.542522
4653.62,0.542508
4657.8,0.542662
4661.99,0.543165
4666.19,0.543621
4670.39,0.543703
4674.6,0.543793
4678.82,0.543975
4683.05,0.544328
4687.28,0.544745
4691.52,0.544826
4695.77,0.544876
4700.03,0.544974
4704.3,0.545082
4708.57,0.545107
4712.85,0.545079
4717.14,0.545137
4721.43,0.545192
4725.74,0.545348
4730.05,0.545488
4734.37,0.545396
4738.7,0.545459
4743.03,0.545547
4747.38,0.545577
4751.73,0.545498
4756.09,0.545652
4760.45,0.545999
4764.83,0.546583
4769.21,0.546975
4773.6,0.547377
4778.0,0.547687
4782.41,0.548074
4786.83,0.548064
4791.25,0.547799
4795.68,0.547876
4800.13,0.547682
4804.57,0.547138
4809.03,0.546883
4813.5,0.546794
4817.97,0.546887
4822.45,0.546742
4826.94,0.546656
4831.44,0.546815
4835.95,0.547408
4840.46,0.54829
4844.99,0.549046
4849.52,0.549969
4854.06,0.551039
4858.61,0.551813
4863.17,0.552338
4867.73,0.553045
4872.31,0.553547
4876.89,0.554078
4881.48,0.554441
4886.08,0.554705
4890.69,0.554978
4895.31,0.555551
4899.94,0.556001
4904.57,0.556313
4909.22,0.556701
4913.87,0.557012
4918.53,0.557319
4923.21,0.557537
4927.88,0.557732
4932.57,0.557954
4937.27,0.557996
4941.98,0.557877
4946.69,0.558193
4951.42,0.558457
4956.15,0.558399
4960.89,0.558426
4965.65,0.558811
4970.41,0.559163
4975.18,0.559304
4979.96,0.559496
4984.75,0.559692
4989.54,0.559844
4994.35,0.559769
4999.17,0.559838
5003.99,0.56021
5008.83,0.560881
5013.67,0.561526
5018.52,0.562255
5023.39,0.562866
5028.26,0.563619
5033.14,0.564174
5038.03,0.564613
5042.93,0.565094
5047.84,0.565374
5052.76,0.565727
5057.69,0.566131
5062.63,0.566437
5067.58,0.566743
5072.54,0.566998
5077.51,0.567362
5082.49,0.567783
5087.47,0.567981
5092.47,0.568114
5097.48,0.568438
5102.5,0.568771
5107.52,0.568895
5112.56,0.569014
5117.61,0.569435
5122.66,0.569784
5127.73,0.569887
5132.81,0.570009
5137.89,0.57007
5142.99,0.570109
5148.1,0.57031
5153.22,0.570583
5158.34,0.570863
5163.48,0.571155
5168.63,0.571133
5173.79,0.571187
5178.96,0.571527
5184.13,0.571602
5189.32,0.571589
5194.52,0.571661
5199.73,0.571719
5204.95,0.571823
5210.19,0.57202
5215.43,0.572158
5220.68,0.572137
5225.94,0.572368
5231.22,0.572734
5236.5,0.572996
5241.79,0.572954
5247.1,0.572947
5252.42,0.57309
5257.74,0.573354
5263.08,0.573376
5268.43,0.573442
5273.79,0.573566
5279.16,0.573446
5284.54,0.573551
5289.93,0.57375
5295.34,0.573828
5300.75,0.5738
5306.18,0.573854
5311.61,0.573964
5317.06,0.57424
5322.52,0.574345
5327.99,0.574353
5333.47,0.574371
5338.96,0.574443
5344.47,0.574499
5349.98,0.574581
5355.51,0.57461
5361.05,0.574757
5366.6,0.574808
5372.16,0.574954
5377.73,0.575039
5383.32,0.575132
5388.91,0.575267
5394.52,0.575448
5400.14,0.575545
5405.77,0.575773
5411.41,0.575905
5417.07,0.575865
5422.74,0.575815
5428.41,0.575682
5434.1,0.575609
5439.81,0.57576
5445.52,0.575751
5451.25,0.575851
5456.98,0.576112
5462.73,0.576303
5468.5,0.576346
5474.27,0.5763
5480.06,0.576288
5485.86,0.576364
5491.67,0.576533
5497.49,0.576464
5503.33,0.576384
5509.18,0.576534
5515.04,0.576554
5520.91,0.576467
5526.8,0.576605
5532.69,0.576797
5538.61,0.577013
5544.53,0.577127
5550.47,0.57702
5556.41,0.577083
5562.38,0.577139
5568.35,0.577251
5574.34,0.577433
5580.34,0.577655
5586.35,0.577869
5592.38,0.5778
5598.42,0.577883
5604.47,0.578072
5610.54,0.578182
5616.61,0.578318
5622.71,0.578439
5628.81,0.578521
5634.93,0.578627
5641.06,0.578613
5647.21,0.578697
5653.36,0.578895
5659.54,0.578947
5665.72,0.578879
5671.92,0.579066
5678.13,0.579357
5684.36,0.579572
5690.6,0.579756
5696.85,0.57977
5703.12,0.579802
5709.4,0.579923
5715.69,0.580064
5722.0,0.5802
5728.33,0.580488
5734.66,0.58067
5741.01,0.580576
5747.38,0.580758
5753.76,0.580997
5760.15,0.581354
5766.56,0.581571
5772.98,0.581738
5779.41,0.581896
5785.86,0.582118
5792.33,0.582193
5798.81,0.582301
5805.3,0.58252
5811.81,0.582786
5818.33,0.583018
5824.87,0.583283
5831.42,0.583347
5837.99,0.583471
5844.57,0.583766
5851.17,0.583854
5857.78,0.583947
5864.41,0.584137
5871.05,0.584335
5877.7,0.584398
5884.38,0.584468
5891.06,0.584639
5897.76,0.584679
5904.48,0.584747
5911.21,0.584688
5917.96,0.584698
5924.73,0.584816
5931.5,0.584943
5938.3,0.584989
5945.11,0.584951
5951.93,0.584896
5958.78,0.584779
5965.63,0.584538
5972.51,0.584498
5979.39,0.584574
5986.3,0.584624
5993.22,0.584606
6000.16,0.584633
6007.11,0.584581
6014.08,0.584436
6021.06,0.584338
6028.06,0.584373
6035.08,0.58442
6042.12,0.584491
6049.17,0.58447
6056.23,0.584477
6063.32,0.584526
6070.42,0.584515
6077.53,0.584532
6084.67,0.584593
6091.82,0.584666
6098.98,0.584666
6106.17,0.584791
6113.37,0.584896
6120.58,0.585065
6127.82,0.585058
6135.07,0.585083
6142.34,0.585261
6149.63,0.585167
6156.93,0.584979
6164.25,0.584916
6171.59,0.58494
6178.94,0.585064
6186.32,0.585081
6193.71,0.584955
6201.12,0.584776
6208.54,0.584776
6215.99,0.584879
6223.45,0.584726
6230.93,0.584505
6238.43,0.584376
6245.95,0.584285
6253.48,0.584149
6261.03,0.584005
6268.6,0.58384
6276.19,0.58367
6283.8,0.583602
6291.43,0.583559
6299.07,0.583602
6306.73,0.583462
6314.42,0.583278
6322.12,0.583105
6329.83,0.583058
6337.57,0.583044
6345.33,0.582708
6353.11,0.582356
6360.9,0.582275
6368.72,0.582275
6376.55,0.582178
6384.4,0.582076
6392.27,0.581872
6400.17,0.581695
6408.08,0.581678
6416.01,0.581483
6423.96,0.581221
6431.93,0.581062
6439.92,0.580927
6447.93,0.580771
6455.96,0.580642
6464.01,0.580567
6472.08,0.58036
6480.17,0.580053
6488.28,0.579913
6496.41,0.579799
6504.56,0.579697
6512.73,0.579549
6520.92,0.579456
6529.14,0.579356
6537.37,0.579355
6545.63,0.579212
6553.9,0.578898
6562.2,0.578574
6570.51,0.578181
6578.85,0.577766
6587.21,0.5774
6595.59,0.577296
6603.99,0.577202
6612.42,0.576983
6620.86,0.576792
6629.33,0.576619
6637.82,0.576474
6646.33,0.576422
6654.86,0.576376
6663.41,0.576558
6671.99,0.576596
6680.59,0.576694
6689.21,0.576705
6697.85,0.576665
6706.51,0.575926
6715.2,0.574701
6723.91,0.574259
6732.64,0.574492
6741.4,0.574613
6750.18,0.574499
6758.98,0.574296
6767.8,0.574225
6776.65,0.57394
6785.52,0.573739
6794.41,0.573751
6803.33,0.573779
6812.27,0.573626
6821.23,0.573396
6830.22,0.573267
6839.23,0.573049
6848.26,0.572679
6857.32,0.572488
6866.4,0.572295
6875.51,0.572136
6884.64,0.571822
6893.8,0.571353
6902.98,0.571215
6912.18,0.571134
6921.41,0.570827
6930.66,0.570616
6939.94,0.570383
6949.24,0.570156
6958.57,0.569903
6967.92,0.569646
6977.3,0.569417
6986.7,0.569111
6996.13,0.568832
7005.59,0.568603
7015.07,0.568263
7024.57,0.567955
7034.1,0.567678
7043.66,0.567423
7053.24,0.567223
7062.85,0.56686
7072.49,0.566447
7082.15,0.565978
7091.84,0.565605
7101.55,0.56551
7111.3,0.565345
7121.06,0.565081
7130.86,0.564788
7140.68,0.564499
7150.53,0.564191
7160.41,0.563956
7170.31,0.563712
7180.24,0.563348
7190.2,0.56296
7200.19,0.562762
7210.2,0.562533
7220.24,0.562118
7230.31,0.561705
7240.41,0.561418
7250.54,0.561067
7260.69,0.560702
7270.88,0.560391
7281.09,0.560082
7291.33,0.559721
7301.6,0.559397
7311.9,0.558977
7322.22,0.558635
7332.58,0.558339
7342.97,0.558047
7353.38,0.55769
7363.83,0.557375
7374.3,0.556909
7384.81,0.55657
7395.34,0.556233
7405.91,0.555786
7416.5,0.555396
7427.13,0.554962
7437.78,0.554652
7448.47,0.554496
7459.19,0.554209
7469.94,0.553735
7480.71,0.553276
7491.52,0.55295
7502.37,0.552608
7513.24,0.552214
7524.14,0.551796
7535.08,0.55152
7546.05,0.551162
7557.05,0.550756
7568.08,0.550333
7579.14,0.549917
7590.24,0.549629
7601.37,0.549346
7612.53,0.54892
7623.73,0.548367
7634.96,0.547813
7646.22,0.547284
7657.51,0.546853
7668.84,0.546579
7680.2,0.54628
7691.59,0.545872
7703.02,0.545432
7714.49,0.544986
7725.98,0.544528
7737.51,0.544169
7749.08,0.543773
7760.68,0.543269
7772.32,0.542857
7783.99,0.542465
7795.69,0.542078
7807.43,0.541682
7819.21,0.541258
7831.02,0.540755
7842.87,0.540193
7854.75,0.539802
7866.67,0.539506
7878.62,0.539099
7890.62,0.53846
7902.64,0.53792
7914.71,0.53765
7926.81,0.537215
7938.95,0.536698
7951.13,0.536309
7963.34,0.535956
7975.59,0.535362
7987.88,0.534639
8000.21,0.534106
8012.57,0.533709
8024.98,0.533148
8037.42,0.53253
8049.9,0.532031
8062.42,0.531516
8074.98,0.530938
8087.57,0.530276
8100.21,0.529596
8112.89,0.528998
8125.6,0.528401
8138.36,0.527671
8151.16,0.527056
8163.99,0.52652
8176.87,0.525876
8189.79,0.525038
8202.75,0.524304
8215.74,0.523498
8228.79,0.522832
8241.87,0.522128
8254.99,0.52155
8268.16,0.520755
8281.37,0.519961
8294.62,0.519461
8307.91,0.518811
8321.24,0.51806
8334.62,0.517436
8348.04,0.516836
8361.51,0.516381
8375.02,0.515825
8388.57,0.515415
8402.16,0.514914
8415.8,0.514407
8429.49,0.513742
8443.22,0.513117
8456.99,0.512677
8470.81,0.512216
8484.67,0.511666
8498.58,0.511164
8512.54,0.510489
8526.54,0.509747
8540.58,0.50903
8554.68,0.508312
8568.82,0.507488
8583.0,0.506871
8597.24,0.506054
8611.52,0.505044
8625.85,0.504002
8640.22,0.503435
8654.65,0.50265
8669.12,0.501727
8683.64,0.500665
8698.21,0.499701
8712.83,0.498719
8727.5,0.49789
8742.22,0.496908
8756.98,0.495907
8771.8,0.49498
8786.67,0.493975
8801.59,0.492487
8816.56,0.491203
8831.58,0.490373
8846.65,0.489105
8861.77,0.487689
8876.94,0.48609
8892.17,0.48429
8907.45,0.482548
8922.78,0.480628
8938.16,0.478578
8953.6,0.476295
8969.09,0.473865
8984.64,0.471261
9000.23,0.46851
9015.89,0.465686
9031.59,0.463297
9047.36,0.460355
9063.17,0.45734
9079.04,0.454255
9094.97,0.451359
9110.96,0.448359
9127.0,0.445576
9143.09,0.442561
9159.25,0.439575
9175.46,0.436666
9191.73,0.434018
9208.05,0.43112
9224.44,0.428596
9240.88,0.426431
9257.38,0.423792
9273.94,0.421226
9290.56,0.418836
9307.24,0.416582
9323.98,0.414457
9340.78,0.41216
9357.64,0.409972
9374.57,0.407697
9391.55,0.405766
9408.59,0.403865
9425.7,0.401127
9442.87,0.399673
9460.1,0.398174
9477.39,0.395671
9494.75,0.393436
9512.17,0.391514
9529.66,0.38995
9547.21,0.38799
9564.82,0.386172
9582.5,0.384421
9600.25,0.382878
9618.06,0.381265
9635.94,0.379883
9653.88,0.379022
9671.89,0.378073
9689.97,0.376895
9708.12,0.37712
9726.33,0.376885
9744.61,0.376576
9762.97,0.376397
9781.39,0.376465
9799.88,0.376592
9818.44,0.376905
9837.07,0.377149
9855.77,0.37734
9874.54,0.376563
9893.39,0.376723
9912.3,0.377741
9931.29,0.377308
9950.35,0.376295
9969.49,0.375144
9988.7,0.373637
10007.98,0.371955
10027.34,0.369932
10046.77,0.367831
10066.28,0.365713
10085.87,0.363264
10105.53,0.360783
10125.26,0.357839
10145.08,0.356681
10164.97,0.356696
10184.94,0.354433
10204.99,0.352659
10225.12,0.351182
10245.33,0.349684
10265.61,0.34707
10285.98,0.344947
10306.43,0.344041
10326.96,0.341505
10347.57,0.339109
10368.27,0.337387
10389.05,0.334631
10409.91,0.332376
10430.85,0.330169
10451.88,0.32855
10473.0,0.326396
10494.2,0.32513
10515.49,0.324549
10536.86,0.324201
10558.32,0.323249
10579.87,0.322495
10601.5,0.321737
10623.23,0.322008
10645.04,0.32174
10666.94,0.321052
10688.94,0.319415
10711.02,0.320026
10733.2,0.320659
10755.47,0.319705
10777.83,0.318235
10800.28,0.317907
10822.83,0.31692
10845.47,0.316305
10868.21,0.315883
10891.04,0.315021
10913.97,0.31331
10936.99,0.313036
10960.12,0.314585
10983.34,0.314309
11006.66,0.3151
11030.07,0.315172
11053.59,0.31441
11077.21,0.316345
11100.93,0.317438
11124.75,0.318333
11148.68,0.320798
11172.7,0.321577
11196.84,0.323291
11221.07,0.327377
11245.41,0.330389
11269.86,0.333309
11294.41,0.335744
11319.07,0.338464
11343.84,0.341391
11368.72,0.345481
11393.7,0.34504
11418.8,0.349681
11444.01,0.356669
11469.33,0.359114
11494.76,0.362856
11520.3,0.366636
11545.96,0.370205
11571.73,0.374886
11597.62,0.377405
11623.62,0.380089
11649.74,0.387915
11675.98,0.394078
11702.34,0.39833
11728.81,0.401962
11755.41,0.405282
11782.13,0.407997
11808.96,0.412298
11835.92,0.414494
11863.01,0.41292
11890.22,0.421531
11917.55,0.422293
11945.01,0.424962
11972.6,0.429507
12000.31,0.428152
12028.16,0.428699
12056.13,0.428802
12084.23,0.425725
12112.46,0.429454
12140.83,0.434071
12169.33,0.432653
12197.96,0.431775
12226.73,0.42987
12255.64,0.432892
12284.68,0.432012
12313.86,0.430443
12343.18,0.433223
12372.64,0.434321
12402.24,0.431951
12431.98,0.432361
12461.86,0.434144
12491.89,0.433689
12522.06,0.431766
12552.38,0.426492
12582.85,0.429415
12613.47,0.437472
12644.23,0.432504
12675.15,0.43051
12706.21,0.434322
12737.43,0.435079
12768.8,0.433489
12800.33,0.432754
12832.02,0.429776
12863.86,0.431067
12895.86,0.435636
12928.02,0.434631
12960.34,0.432793
12992.82,0.432816
13025.46,0.432861
13058.27,0.431955
13091.25,0.433851
13124.39,0.43367
13157.7,0.43042
13191.18,0.432259
13224.83,0.434932
13258.66,0.433235
13292.65,0.43256
13326.83,0.432264
13361.17,0.432099
13395.7,0.431545
13430.4,0.431133
13465.29,0.430844
13500.35,0.430418
13535.6,0.4296
13571.03,0.429086
13606.65,0.428633
13642.46,0.427953
13678.46,0.427079
13714.64,0.426274
13751.02,0.425339
13787.59,0.424399
13824.36,0.423114
13861.32,0.421409
13898.48,0.417733
13935.85,0.418353
13973.41,0.419874
14011.17,0.415925
14049.15,0.413523
14087.32,0.414373
14125.71,0.412281
14164.3,0.410306
14203.11,0.406985
14242.13,0.400519
14281.36,0.403436
14320.81,0.405922
14360.48,0.402718
14400.38,0.401781
14440.49,0.399584
14480.82,0.398627
14521.39,0.396267
14562.18,0.393459
14603.2,0.391175
14644.45,0.388783
14685.93,0.391534
14727.66,0.392922
14769.62,0.388777
14811.81,0.387489
14854.25,0.388294
14896.94,0.385937
14939.87,0.383545
14983.05,0.382145
15026.48,0.379917
15070.16,0.377274
15114.1,0.378322
15158.29,0.37551
15202.74,0.37409
15247.46,0.372251
15292.43,0.369436
15337.68,0.366294
15383.19,0.361493
15428.97,0.361238
15475.03,0.363333
15521.36,0.360277
15567.97,0.357002
15614.86,0.35465
15662.04,0.353768
15709.5,0.353999
15757.25,0.351724
15805.29,0.349079
15853.62,0.348978
15902.25,0.348812
15951.18,0.348273
16000.42,0.346838
16049.95,0.345737
16099.8,0.344713
16149.95,0.342909
16200.42,0.341511
16251.21,0.340164
16302.31,0.341419
16353.74,0.34184
16405.49,0.340214
16457.57,0.339053
16509.98,0.340057
16562.73,0.340234
16615.82,0.338272
16669.24,0.336665
16723.02,0.339818
16777.13,0.341684
16831.61,0.340729
16886.43,0.340756
16941.62,0.340793
16997.16,0.342085
17053.07,0.342443
17109.36,0.342632
17166.01,0.342762
17223.04,0.341765
17280.45,0.341584
17338.24,0.344014
17396.43,0.343339
17455.0,0.342459
17513.97,0.342262
17573.34,0.342098
17633.11,0.340681
17693.29,0.339913
17753.89,0.33788
17814.9,0.335958
17876.33,0.336051
17938.18,0.334881
18000.47,0.332984
18063.19,0.33118
18126.35,0.329548
18189.95,0.327819
18254.0,0.325745
18318.5,0.324577
18383.46,0.323268
18448.88,0.321144
18514.77,0.319759
18581.13,0.318207
18647.97,0.317088
18715.29,0.316575
18783.1,0.31467
18851.4,0.312609
18920.2,0.311361
18989.51,0.310562
19059.32,0.309227
19129.65,0.308157
19200.5,0.307125
19271.88,0.306522
19343.79,0.30559
19416.23,0.305777
19489.23,0.305918
19562.77,0.305833
19636.88,0.306183
19711.54,0.306535
19786.77,0.306551
19862.59,0.307591
19938.98,0.308488
20015.96,0.30912
20093.54,0.309622
20171.73,0.310328
20250.53,0.310806
20329.94,0.311168
20409.98,0.311513
20490.65,0.312004
20571.96,0.312273
20653.92,0.312351
20736.54,0.312008
20819.82,0.312169
20903.77,0.312314
20988.4,0.312334
21073.72,0.312091
21159.73,0.311895
21246.46,0.311698
21333.89,0.311665
21422.04,0.31157
21510.93,0.311498
21600.56,0.31118
21690.94,0.311096
21782.08,0.311166
21873.99,0.311328
21966.67,0.311285
22060.15,0.311336
22154.42,0.311294
22249.51,0.311437
22345.41,0.311476
22442.14,0.311636
22539.72,0.311511
22638.14,0.311484
22737.43,0.311293
22837.6,0.311173
22938.65,0.310812
23040.6,0.310364
23143.46,0.309623
23247.24,0.308539
23351.96,0.307209
23457.62,0.305747
23564.25,0.304032
23671.85,0.302235
23780.44,0.300008
23890.02,0.29781
24000.63,0.295448
24112.26,0.293069
24224.93,0.290643
24338.66,0.288244
24453.47,0.285508
24569.36,0.282856
24686.36,0.280238
24804.47,0.277681
24923.72,0.274661
25044.13,0.271798
25165.7,0.268805
25288.46,0.265939
25412.43,0.262973
25537.61,0.260149
25664.03,0.257157
25791.71,0.25426
25920.67,0.251119
