Database of Origin,University of Winnipeg Spectrophotometer Facility
Sample Description,"RELAB plus Nicolet merged plagioclase data. Merged @2500nm, different viewing geometries. See Master Plagioclase in PSF sample database for more information"
Date Added,2016-11-22 03:59:30.102526

Data ID,RLA_PLG_21          
Sample ID,PLG122
Mineral Name,Anorthite
Grain Size,<45
Viewing Geometry,"30/0,30"
Resolution,"5,0.6-129"
Composition,An93
Material Class,Tectosilicate

Wavelength
300.0,0.351163
305.0,0.387053
310.0,0.42129
315.0,0.45183
320.0,0.480372
325.0,0.507245
330.0,0.529761
335.0,0.551383
340.0,0.57043
345.0,0.587376
350.0,0.603413
355.0,0.620995
360.0,0.634631
365.0,0.648878
370.0,0.661735
375.0,0.674256
380.0,0.681673
385.0,0.689947
390.0,0.700862
395.0,0.709592
400.0,0.722569
405.0,0.728589
410.0,0.732976
415.0,0.738497
420.0,0.742499
425.0,0.74865
430.0,0.754615
435.0,0.76039
440.0,0.764052
445.0,0.767979
450.0,0.77086
455.0,0.774553
460.0,0.776895
465.0,0.77984
470.0,0.782617
475.0,0.784084
480.0,0.786032
485.0,0.789266
490.0,0.790627
495.0,0.793516
500.0,0.795445
505.0,0.797999
510.0,0.799156
515.0,0.801022
520.0,0.802996
525.0,0.804224
530.0,0.804783
535.0,0.806712
540.0,0.806567
545.0,0.807445
550.0,0.807854
555.0,0.808481
560.0,0.808568
565.0,0.809783
570.0,0.809829
575.0,0.810662
580.0,0.810597
585.0,0.811582
590.0,0.811149
595.0,0.812079
600.0,0.811954
605.0,0.81264
610.0,0.811646
615.0,0.812244
620.0,0.811733
625.0,0.813248
630.0,0.812138
635.0,0.811591
640.0,0.811953
645.0,0.81155
650.0,0.812405
655.0,0.812129
660.0,0.812199
665.0,0.812865
670.0,0.81209
675.0,0.812497
680.0,0.812823
685.0,0.813287
690.0,0.812424
695.0,0.812485
700.0,0.813306
705.0,0.812764
710.0,0.813478
715.0,0.813098
720.0,0.812209
725.0,0.811433
730.0,0.811693
735.0,0.811924
740.0,0.812463
745.0,0.811399
750.0,0.811467
755.0,0.811401
760.0,0.81111
765.0,0.811715
770.0,0.811142
775.0,0.811556
780.0,0.811042
785.0,0.810782
790.0,0.811715
795.0,0.809433
800.0,0.810256
805.0,0.80993
810.0,0.809777
815.0,0.80932
820.0,0.809298
825.0,0.808916
830.0,0.808693
835.0,0.808523
840.0,0.80818
845.0,0.808042
850.0,0.807965
855.0,0.80736
860.0,0.807462
865.0,0.807317
870.0,0.80565
875.0,0.805186
880.0,0.805721
885.0,0.806356
890.0,0.806364
895.0,0.806987
900.0,0.808775
905.0,0.806524
910.0,0.802952
915.0,0.803177
920.0,0.803491
925.0,0.802028
930.0,0.802575
935.0,0.804724
940.0,0.805776
945.0,0.805186
950.0,0.805471
955.0,0.805204
960.0,0.806354
965.0,0.80762
970.0,0.80689
975.0,0.80617
980.0,0.807556
985.0,0.80615
990.0,0.803505
995.0,0.80407
1000.0,0.80289
1005.0,0.800918
1010.0,0.800776
1015.0,0.800669
1020.0,0.799465
1025.0,0.798732
1030.0,0.800286
1035.0,0.80027
1040.0,0.799537
1045.0,0.800455
1050.0,0.80139
1055.0,0.800998
1060.0,0.800962
1065.0,0.799963
1070.0,0.799919
1075.0,0.79935
1080.0,0.799669
1085.0,0.800062
1090.0,0.8017
1095.0,0.799404
1100.0,0.798419
1105.0,0.796362
1110.0,0.796436
1115.0,0.794719
1120.0,0.795373
1125.0,0.795453
1130.0,0.796372
1135.0,0.796841
1140.0,0.79818
1145.0,0.799422
1150.0,0.799993
1155.0,0.800746
1160.0,0.798905
1165.0,0.798956
1170.0,0.798276
1175.0,0.8002
1180.0,0.799421
1185.0,0.799042
1190.0,0.799841
1195.0,0.798206
1200.0,0.79903
1205.0,0.795676
1210.0,0.795528
1215.0,0.794944
1220.0,0.795533
1225.0,0.796444
1230.0,0.797334
1235.0,0.798104
1240.0,0.798948
1245.0,0.800541
1250.0,0.801042
1255.0,0.801599
1260.0,0.801339
1265.0,0.801438
1270.0,0.799706
1275.0,0.799816
1280.0,0.799817
1285.0,0.799825
1290.0,0.800249
1295.0,0.800623
1300.0,0.800446
1305.0,0.800908
1310.0,0.801092
1315.0,0.802154
1320.0,0.802357
1325.0,0.802222
1330.0,0.801922
1335.0,0.802795
1340.0,0.802856
1345.0,0.803249
1350.0,0.8032
1355.0,0.802702
1360.0,0.80305
1365.0,0.802004
1370.0,0.802424
1375.0,0.803266
1380.0,0.80283
1385.0,0.802205
1390.0,0.801191
1395.0,0.795681
1400.0,0.793879
1405.0,0.778654
1410.0,0.787213
1415.0,0.790332
1420.0,0.794651
1425.0,0.798281
1430.0,0.800962
1435.0,0.801725
1440.0,0.803504
1445.0,0.803586
1450.0,0.803463
1455.0,0.803475
1460.0,0.803794
1465.0,0.804286
1470.0,0.80493
1475.0,0.804797
1480.0,0.806269
1485.0,0.807939
1490.0,0.80789
1495.0,0.808148
1500.0,0.809568
1505.0,0.811233
1510.0,0.81226
1515.0,0.813369
1520.0,0.815364
1525.0,0.816512
1530.0,0.816174
1535.0,0.815714
1540.0,0.816301
1545.0,0.816945
1550.0,0.816643
1555.0,0.816555
1560.0,0.81696
1565.0,0.816378
1570.0,0.816348
1575.0,0.8171
1580.0,0.818479
1585.0,0.819397
1590.0,0.820276
1595.0,0.820805
1600.0,0.822104
1605.0,0.822674
1610.0,0.822681
1615.0,0.823477
1620.0,0.82302
1625.0,0.821267
1630.0,0.820596
1635.0,0.820754
1640.0,0.821209
1645.0,0.8209
1650.0,0.821004
1655.0,0.821686
1660.0,0.82389
1665.0,0.825343
1670.0,0.827109
1675.0,0.824881
1680.0,0.822715
1685.0,0.823442
1690.0,0.822815
1695.0,0.823371
1700.0,0.82458
1705.0,0.826979
1710.0,0.827188
1715.0,0.827485
1720.0,0.827303
1725.0,0.827806
1730.0,0.827
1735.0,0.825637
1740.0,0.825217
1745.0,0.82606
1750.0,0.826162
1755.0,0.825972
1760.0,0.825586
1765.0,0.825715
1770.0,0.824439
1775.0,0.823403
1780.0,0.824229
1785.0,0.825256
1790.0,0.826465
1795.0,0.826165
1800.0,0.824993
1805.0,0.823268
1810.0,0.822881
1815.0,0.821522
1820.0,0.822694
1825.0,0.824637
1830.0,0.827554
1835.0,0.828191
1840.0,0.830166
1845.0,0.829422
1850.0,0.829883
1855.0,0.827249
1860.0,0.82674
1865.0,0.824183
1870.0,0.823636
1875.0,0.822476
1880.0,0.820634
1885.0,0.817898
1890.0,0.813723
1895.0,0.809286
1900.0,0.802609
1905.0,0.799347
1910.0,0.795255
1915.0,0.793871
1920.0,0.792392
1925.0,0.793024
1930.0,0.793978
1935.0,0.795629
1940.0,0.796834
1945.0,0.799528
1950.0,0.800584
1955.0,0.799514
1960.0,0.801789
1965.0,0.802328
1970.0,0.801601
1975.0,0.802472
1980.0,0.804177
1985.0,0.803924
1990.0,0.805952
1995.0,0.808839
2000.0,0.810573
2005.0,0.811556
2010.0,0.813609
2015.0,0.813318
2020.0,0.81432
2025.0,0.814167
2030.0,0.814612
2035.0,0.81449
2040.0,0.814602
2045.0,0.813379
2050.0,0.815616
2055.0,0.816533
2060.0,0.81548
2065.0,0.81843
2070.0,0.821062
2075.0,0.819572
2080.0,0.819432
2085.0,0.820831
2090.0,0.819762
2095.0,0.818099
2100.0,0.820108
2105.0,0.82141
2110.0,0.82154
2115.0,0.819437
2120.0,0.818666
2125.0,0.817149
2130.0,0.813824
2135.0,0.813505
2140.0,0.813669
2145.0,0.812529
2150.0,0.811005
2155.0,0.809508
2160.0,0.805472
2165.0,0.801617
2170.0,0.79935
2175.0,0.790692
2180.0,0.789532
2185.0,0.785592
2190.0,0.783296
2195.0,0.774437
2200.0,0.768547
2205.0,0.771188
2210.0,0.782889
2215.0,0.787921
2220.0,0.79651
2225.0,0.785128
2230.0,0.78092
2235.0,0.778137
2240.0,0.77524
2245.0,0.771607
2250.0,0.771267
2255.0,0.769718
2260.0,0.769825
2265.0,0.769981
2270.0,0.771921
2275.0,0.769199
2280.0,0.767949
2285.0,0.765347
2290.0,0.763147
2295.0,0.761066
2300.0,0.761737
2305.0,0.761873
2310.0,0.760313
2315.0,0.756104
2320.0,0.747972
2325.0,0.736638
2330.0,0.721702
2335.0,0.716209
2340.0,0.709869
2345.0,0.70587
2350.0,0.70602
2355.0,0.705459
2360.0,0.710014
2365.0,0.715529
2370.0,0.721736
2375.0,0.726756
2380.0,0.730208
2385.0,0.73321
2390.0,0.733026
2395.0,0.732712
2400.0,0.734554
2405.0,0.736455
2410.0,0.73487
2415.0,0.737271
2420.0,0.739334
2425.0,0.739703
2430.0,0.742559
2435.0,0.742163
2440.0,0.740835
2445.0,0.74107
2450.0,0.739084
2455.0,0.735671
2460.0,0.735111
2465.0,0.731944
2470.0,0.730033
2475.0,0.728794
2480.0,0.727431
2485.0,0.727838
2490.0,0.730751
2495.0,0.73323
2500.0,0.735883
2505.0,0.735644
2510.0,0.733155
2515.0,0.728985
2520.0,0.724541
2525.0,0.719579
2530.08,0.718165
2535.03,0.720367
2540.0,0.72133
2544.99,0.723719
2549.99,0.723713
2552.5,0.722546
2553.76,0.722641
2555.02,0.725003
2556.28,0.724543
2557.54,0.722217
2558.8,0.721372
2560.07,0.720352
2561.33,0.717773
2562.6,0.718167
2563.86,0.720508
2565.13,0.721993
2566.4,0.72335
2567.67,0.722505
2568.95,0.719068
2570.22,0.71703
2571.5,0.719672
2572.77,0.719777
2574.05,0.71439
2575.33,0.717644
2576.61,0.720189
2577.89,0.717841
2579.17,0.720513
2580.46,0.720194
2581.74,0.716546
2583.03,0.716672
2584.31,0.714198
2585.6,0.717909
2586.89,0.721472
2588.19,0.717471
2589.48,0.718925
2590.77,0.720106
2592.07,0.71893
2593.36,0.715608
2594.66,0.708115
2595.96,0.707779
2597.26,0.725154
2598.56,0.727431
2599.87,0.719366
2601.17,0.714032
2602.48,0.712608
2603.78,0.712893
2605.09,0.710786
2606.4,0.709739
2607.71,0.715401
2609.03,0.715793
2610.34,0.712381
2611.65,0.712242
2612.97,0.711694
2614.29,0.710138
2615.61,0.71054
2616.93,0.706437
2618.25,0.707277
2619.57,0.71373
2620.9,0.708884
2622.22,0.710635
2623.55,0.714887
2624.88,0.711017
2626.21,0.706748
2627.54,0.704795
2628.87,0.710603
2630.21,0.708733
2631.54,0.70528
2632.88,0.713224
2634.21,0.712656
2635.55,0.710041
2636.89,0.71103
2638.24,0.70943
2639.58,0.707937
2640.92,0.706926
2642.27,0.705787
2643.62,0.706356
2644.97,0.706938
2646.32,0.704737
2647.67,0.70564
2649.02,0.707155
2650.38,0.705256
2651.73,0.702696
2653.09,0.700765
2654.45,0.702409
2655.81,0.702406
2657.17,0.70134
2658.53,0.700926
2659.89,0.697044
2661.26,0.696445
2662.63,0.698033
2664.0,0.696632
2665.36,0.689689
2666.74,0.68844
2668.11,0.69502
2669.48,0.697606
2670.86,0.687249
2672.23,0.689008
2673.61,0.696345
2674.99,0.688667
2676.37,0.680199
2677.76,0.677481
2679.14,0.680952
2680.52,0.680769
2681.91,0.680698
2683.3,0.675219
2684.69,0.669771
2686.08,0.667886
2687.47,0.665249
2688.87,0.662271
2690.26,0.658973
2691.66,0.653935
2693.06,0.647562
2694.46,0.640163
2695.86,0.638296
2697.26,0.635865
2698.66,0.629056
2700.07,0.619995
2701.48,0.611228
2702.89,0.604421
2704.3,0.599251
2705.71,0.590581
2707.12,0.581169
2708.53,0.570836
2709.95,0.558728
2711.37,0.547151
2712.79,0.538279
2714.21,0.527766
2715.63,0.512239
2717.05,0.496987
2718.48,0.48257
2719.9,0.468221
2721.33,0.453381
2722.76,0.445128
2724.19,0.434712
2725.62,0.420405
2727.06,0.411755
2728.49,0.403991
2729.93,0.39406
2731.37,0.384283
2732.81,0.376353
2734.25,0.368607
2735.69,0.360634
2737.14,0.354436
2738.58,0.347213
2740.03,0.338441
2741.48,0.332523
2742.93,0.329153
2744.38,0.325408
2745.83,0.319992
2747.29,0.314488
2748.75,0.309513
2750.2,0.304394
2751.66,0.299772
2753.13,0.298101
2754.59,0.298408
2756.05,0.299002
2757.52,0.305093
2758.99,0.310876
2760.46,0.312876
2761.93,0.315343
2763.4,0.319142
2764.87,0.325763
2766.35,0.331601
2767.82,0.335395
2769.3,0.340367
2770.78,0.345874
2772.26,0.35054
2773.75,0.35665
2775.23,0.361152
2776.72,0.364389
2778.21,0.368305
2779.7,0.371985
2781.19,0.374476
2782.68,0.375591
2784.18,0.376955
2785.67,0.37741
2787.17,0.376782
2788.67,0.377028
2790.17,0.378046
2791.67,0.376733
2793.18,0.37442
2794.68,0.373127
2796.19,0.372279
2797.7,0.370996
2799.21,0.369812
2800.72,0.368195
2802.24,0.365682
2803.75,0.363437
2805.27,0.363079
2806.79,0.36255
2808.31,0.360529
2809.83,0.358929
2811.35,0.357402
2812.88,0.356511
2814.41,0.355381
2815.93,0.354567
2817.46,0.354361
2819.0,0.353379
2820.53,0.352897
2822.07,0.352904
2823.6,0.353104
2825.14,0.352571
2826.68,0.351635
2828.22,0.351209
2829.77,0.351394
2831.31,0.351499
2832.86,0.350893
2834.41,0.350301
2835.96,0.349422
2837.51,0.348443
2839.07,0.34703
2840.62,0.346005
2842.18,0.344274
2843.74,0.341522
2845.3,0.338207
2846.86,0.334674
2848.43,0.331004
2849.99,0.327178
2851.56,0.323357
2853.13,0.319582
2854.7,0.316025
2856.27,0.312501
2857.85,0.307925
2859.42,0.301764
2861.0,0.294489
2862.58,0.286602
2864.16,0.279138
2865.75,0.273868
2867.33,0.272134
2868.92,0.272937
2870.51,0.273164
2872.1,0.272277
2873.69,0.271642
2875.28,0.272857
2876.88,0.2769
2878.48,0.283017
2880.07,0.289938
2881.68,0.296382
2883.28,0.302107
2884.88,0.307299
2886.49,0.312542
2888.1,0.3175
2889.71,0.321835
2891.32,0.326107
2892.93,0.329869
2894.55,0.332884
2896.16,0.335719
2897.78,0.33838
2899.4,0.341069
2901.03,0.343338
2902.65,0.345262
2904.28,0.346553
2905.91,0.347539
2907.53,0.348494
2909.17,0.348745
2910.8,0.34853
2912.44,0.347922
2914.07,0.347478
2915.71,0.347164
2917.35,0.346207
2918.99,0.345299
2920.64,0.344412
2922.29,0.343619
2923.93,0.343127
2925.58,0.342654
2927.24,0.342501
2928.89,0.342114
2930.55,0.341595
2932.2,0.341532
2933.86,0.341665
2935.52,0.342087
2937.19,0.34263
2938.85,0.343102
2940.52,0.34395
2942.19,0.344863
2943.86,0.345757
2945.53,0.347106
2947.21,0.348489
2948.88,0.349687
2950.56,0.350712
2952.24,0.351684
2953.92,0.3525
2955.61,0.35362
2957.29,0.354636
2958.98,0.355802
2960.67,0.357044
2962.36,0.35824
2964.06,0.359555
2965.75,0.360018
2967.45,0.360478
2969.15,0.361515
2970.85,0.362156
2972.55,0.363208
2974.26,0.364214
2975.97,0.364779
2977.68,0.36557
2979.39,0.366495
2981.1,0.366654
2982.82,0.366965
2984.53,0.367309
2986.25,0.367684
2987.97,0.367842
2989.7,0.368397
2991.42,0.369082
2993.15,0.369352
2994.88,0.369659
2996.61,0.370044
2998.34,0.370489
3000.08,0.37121
3001.82,0.37223
3003.55,0.373173
3005.3,0.373889
3007.04,0.374342
3008.78,0.375165
3010.53,0.376733
3012.28,0.378119
3014.03,0.379471
3015.79,0.380993
3017.54,0.382118
3019.3,0.383075
3021.06,0.384572
3022.82,0.386038
3024.58,0.387427
3026.35,0.388715
3028.12,0.390057
3029.89,0.391588
3031.66,0.39293
3033.43,0.393982
3035.21,0.394908
3036.99,0.395904
3038.77,0.397236
3040.55,0.398261
3042.33,0.399252
3044.12,0.400358
3045.91,0.401415
3047.7,0.402623
3049.49,0.403546
3051.29,0.40423
3053.08,0.404848
3054.88,0.405535
3056.68,0.406268
3058.49,0.407286
3060.29,0.407819
3062.1,0.408134
3063.91,0.408823
3065.72,0.409324
3067.54,0.409568
3069.35,0.41004
3071.17,0.410425
3072.99,0.410552
3074.81,0.41091
3076.64,0.411234
3078.46,0.411319
3080.29,0.411631
3082.13,0.411765
3083.96,0.411745
3085.79,0.41202
3087.63,0.412247
3089.47,0.412349
3091.31,0.4124
3093.16,0.412632
3095.01,0.413021
3096.85,0.412629
3098.71,0.412361
3100.56,0.412478
3102.41,0.412563
3104.27,0.412639
3106.13,0.412446
3107.99,0.412425
3109.86,0.4126
3111.73,0.412517
3113.59,0.412471
3115.47,0.412359
3117.34,0.412303
3119.21,0.412658
3121.09,0.412773
3122.97,0.412383
3124.86,0.412176
3126.74,0.412137
3128.63,0.412098
3130.52,0.412361
3132.41,0.412556
3134.3,0.412529
3136.2,0.412466
3138.1,0.412897
3140.0,0.413085
3141.9,0.413318
3143.81,0.41344
3145.71,0.413625
3147.62,0.414034
3149.54,0.414521
3151.45,0.414994
3153.37,0.415422
3155.29,0.415724
3157.21,0.416416
3159.13,0.417227
3161.06,0.417743
3162.99,0.417999
3164.92,0.418525
3166.85,0.419448
3168.79,0.420108
3170.72,0.420646
3172.67,0.421406
3174.61,0.42239
3176.55,0.423505
3178.5,0.424075
3180.45,0.424942
3182.4,0.425855
3184.36,0.426352
3186.32,0.42728
3188.27,0.428402
3190.24,0.429033
3192.2,0.429958
3194.17,0.431023
3196.14,0.432106
3198.11,0.43311
3200.08,0.434052
3202.06,0.43517
3204.04,0.436607
3206.02,0.437742
3208.0,0.438857
3209.99,0.439999
3211.98,0.44137
3213.97,0.442917
3215.96,0.444266
3217.96,0.445391
3219.96,0.44654
3221.96,0.448135
3223.96,0.449596
3225.97,0.450724
3227.98,0.45219
3229.99,0.453568
3232.0,0.454893
3234.02,0.456384
3236.04,0.457635
3238.06,0.459053
3240.08,0.460699
3242.11,0.462214
3244.14,0.463641
3246.17,0.465095
3248.2,0.466626
3250.24,0.468112
3252.28,0.469627
3254.32,0.471039
3256.37,0.472425
3258.41,0.473591
3260.46,0.474534
3262.51,0.475992
3264.57,0.477444
3266.63,0.478764
3268.69,0.479955
3270.75,0.480821
3272.81,0.481691
3274.88,0.482624
3276.95,0.48359
3279.02,0.484469
3281.1,0.485329
3283.18,0.48634
3285.26,0.487458
3287.34,0.488286
3289.43,0.488919
3291.51,0.489579
3293.61,0.490394
3295.7,0.491071
3297.8,0.491904
3299.89,0.492793
3302.0,0.493536
3304.1,0.494379
3306.21,0.495263
3308.32,0.496108
3310.43,0.496867
3312.55,0.497715
3314.66,0.498665
3316.78,0.499507
3318.91,0.50026
3321.03,0.5011
3323.16,0.502018
3325.29,0.502985
3327.43,0.503849
3329.57,0.504519
3331.71,0.505457
3333.85,0.506657
3335.99,0.507261
3338.14,0.50785
3340.29,0.508693
3342.45,0.509592
3344.6,0.510191
3346.76,0.511063
3348.92,0.511966
3351.09,0.512748
3353.26,0.513564
3355.43,0.514667
3357.6,0.515675
3359.78,0.516561
3361.96,0.517389
3364.14,0.518144
3366.32,0.518938
3368.51,0.519783
3370.7,0.520757
3372.89,0.521427
3375.09,0.522275
3377.29,0.523373
3379.49,0.524469
3381.69,0.525711
3383.9,0.526948
3386.11,0.528221
3388.32,0.529507
3390.54,0.530625
3392.76,0.531446
3394.98,0.532388
3397.21,0.533333
3399.43,0.533806
3401.66,0.534626
3403.9,0.535352
3406.13,0.535936
3408.37,0.536638
3410.61,0.53777
3412.86,0.538669
3415.11,0.539494
3417.36,0.540671
3419.61,0.542205
3421.87,0.543924
3424.13,0.545434
3426.39,0.547114
3428.66,0.548882
3430.93,0.55056
3433.2,0.551795
3435.48,0.553025
3437.76,0.554566
3440.04,0.555979
3442.32,0.556967
3444.61,0.558161
3446.9,0.559466
3449.19,0.56074
3451.49,0.561816
3453.79,0.56309
3456.09,0.5642
3458.4,0.565281
3460.7,0.566158
3463.02,0.567057
3465.33,0.567921
3467.65,0.568605
3469.97,0.5693
3472.29,0.570106
3474.62,0.570515
3476.95,0.570853
3479.29,0.571594
3481.62,0.572594
3483.96,0.573556
3486.3,0.574684
3488.65,0.575527
3491.0,0.576172
3493.35,0.577034
3495.71,0.57794
3498.07,0.578753
3500.43,0.579666
3502.79,0.580831
3505.16,0.582014
3507.53,0.583385
3509.91,0.585058
3512.29,0.586629
3514.67,0.587959
3517.05,0.589257
3519.44,0.590598
3521.83,0.591816
3524.22,0.593265
3526.62,0.594575
3529.02,0.595505
3531.43,0.596455
3533.83,0.597612
3536.24,0.59872
3538.66,0.59986
3541.08,0.600766
3543.5,0.60163
3545.92,0.602745
3548.35,0.603795
3550.78,0.604606
3553.21,0.605512
3555.65,0.606391
3558.09,0.60726
3560.53,0.608032
3562.98,0.60905
3565.43,0.609905
3567.88,0.610692
3570.34,0.611305
3572.8,0.612019
3575.27,0.612789
3577.73,0.613792
3580.2,0.614854
3582.68,0.615536
3585.16,0.61611
3587.64,0.616941
3590.12,0.617713
3592.61,0.61855
3595.1,0.619276
3597.6,0.620184
3600.09,0.621122
3602.6,0.62187
3605.1,0.622595
3607.61,0.623255
3610.12,0.624042
3612.64,0.624792
3615.16,0.625491
3617.68,0.626253
3620.21,0.627049
3622.74,0.627712
3625.27,0.62855
3627.81,0.62929
3630.35,0.630028
3632.89,0.630885
3635.44,0.631718
3637.99,0.632495
3640.54,0.63316
3643.1,0.633919
3645.66,0.634577
3648.23,0.635293
3650.8,0.636055
3653.37,0.636722
3655.95,0.637356
3658.53,0.638286
3661.11,0.639099
3663.7,0.639844
3666.29,0.640473
3668.89,0.641089
3671.48,0.641961
3674.09,0.642589
3676.69,0.643259
3679.3,0.644074
3681.91,0.644737
3684.53,0.645482
3687.15,0.646446
3689.78,0.647269
3692.4,0.648124
3695.04,0.649142
3697.67,0.649892
3700.31,0.650676
3702.95,0.6513
3705.6,0.651955
3708.25,0.65278
3710.91,0.653345
3713.56,0.654108
3716.23,0.654975
3718.89,0.655625
3721.56,0.656195
3724.23,0.656991
3726.91,0.657748
3729.59,0.658311
3732.28,0.658915
3734.97,0.659541
3737.66,0.6604
3740.36,0.661136
3743.06,0.66181
3745.76,0.662719
3748.47,0.663798
3751.18,0.664511
3753.9,0.665317
3756.62,0.666114
3759.34,0.666959
3762.07,0.667726
3764.8,0.668447
3767.54,0.669313
3770.28,0.670078
3773.02,0.670831
3775.77,0.671576
3778.52,0.672221
3781.28,0.672574
3784.04,0.673225
3786.8,0.674111
3789.57,0.674844
3792.34,0.675277
3795.12,0.675655
3797.9,0.676442
3800.69,0.677313
3803.47,0.677649
3806.27,0.678042
3809.06,0.678628
3811.86,0.678972
3814.67,0.679259
3817.48,0.67971
3820.29,0.680072
3823.11,0.680562
3825.93,0.681188
3828.76,0.681458
3831.59,0.681955
3834.42,0.682371
3837.26,0.682561
3840.1,0.682832
3842.95,0.683255
3845.8,0.683745
3848.65,0.684212
3851.51,0.684619
3854.38,0.68517
3857.24,0.685571
3860.12,0.685932
3862.99,0.686395
3865.87,0.686882
3868.76,0.687266
3871.65,0.687729
3874.54,0.688126
3877.44,0.688706
3880.34,0.689095
3883.25,0.689616
3886.16,0.69012
3889.07,0.690776
3891.99,0.691399
3894.92,0.691925
3897.85,0.692361
3900.78,0.693038
3903.72,0.693798
3906.66,0.694175
3909.6,0.694499
3912.55,0.694993
3915.51,0.695607
3918.47,0.695855
3921.43,0.695989
3924.4,0.696335
3927.37,0.696606
3930.35,0.696993
3933.33,0.69728
3936.32,0.697448
3939.31,0.697621
3942.31,0.697563
3945.31,0.697336
3948.31,0.69709
3951.32,0.696635
3954.34,0.696184
3957.35,0.695527
3960.38,0.695074
3963.41,0.694728
3966.44,0.694441
3969.48,0.694146
3972.52,0.693993
3975.56,0.694012
3978.61,0.694056
3981.67,0.694158
3984.73,0.694424
3987.8,0.694911
3990.87,0.695753
3993.94,0.696839
3997.02,0.698244
4000.1,0.699628
4003.19,0.701162
4006.29,0.70257
4009.39,0.70406
4012.49,0.705414
4015.6,0.706614
4018.71,0.707927
4021.83,0.708921
4024.95,0.709544
4028.08,0.710309
4031.21,0.711103
4034.35,0.711867
4037.49,0.71263
4040.64,0.713275
4043.79,0.713998
4046.94,0.714719
4050.11,0.715143
4053.27,0.715625
4056.44,0.716144
4059.62,0.716567
4062.8,0.717033
4065.99,0.717442
4069.18,0.7177
4072.38,0.718099
4075.58,0.718316
4078.78,0.71856
4082.0,0.718832
4085.21,0.719251
4088.43,0.719507
4091.66,0.719721
4094.89,0.71986
4098.13,0.72015
4101.37,0.720469
4104.62,0.720556
4107.87,0.720683
4111.13,0.720917
4114.39,0.721141
4117.66,0.721384
4120.93,0.721448
4124.21,0.721567
4127.5,0.721801
4130.78,0.721959
4134.08,0.722166
4137.38,0.722371
4140.68,0.722509
4143.99,0.7226
4147.31,0.722763
4150.63,0.722821
4153.95,0.722904
4157.29,0.723001
4160.62,0.723104
4163.96,0.723186
4167.31,0.723389
4170.66,0.723505
4174.02,0.723415
4177.39,0.723596
4180.75,0.723637
4184.13,0.723493
4187.51,0.723374
4190.89,0.723652
4194.28,0.723778
4197.68,0.723686
4201.08,0.723479
4204.49,0.723386
4207.9,0.72334
4211.32,0.723386
4214.74,0.723442
4218.17,0.723571
4221.61,0.723508
4225.05,0.723734
4228.5,0.724114
4231.95,0.724217
4235.4,0.724341
4238.87,0.724721
4242.34,0.725035
4245.81,0.725137
4249.29,0.725166
4252.78,0.725101
4256.27,0.724475
4259.77,0.723065
4263.27,0.721657
4266.78,0.721375
4270.29,0.721443
4273.81,0.721394
4277.34,0.721377
4280.87,0.721267
4284.41,0.720919
4287.95,0.7205
4291.5,0.719845
4295.06,0.719178
4298.62,0.718462
4302.19,0.717914
4305.76,0.717098
4309.34,0.716382
4312.92,0.715567
4316.52,0.714792
4320.11,0.713896
4323.72,0.713253
4327.32,0.712686
4330.94,0.711996
4334.56,0.711151
4338.19,0.710384
4341.82,0.709746
4345.46,0.709147
4349.11,0.708385
4352.76,0.707764
4356.42,0.707026
4360.08,0.706349
4363.75,0.705687
4367.43,0.704822
4371.11,0.70395
4374.8,0.7032
4378.49,0.702362
4382.19,0.701452
4385.9,0.700448
4389.61,0.699455
4393.33,0.698483
4397.06,0.697341
4400.79,0.695972
4404.53,0.69465
4408.28,0.693269
4412.03,0.691993
4415.79,0.690683
4419.55,0.689178
4423.32,0.687447
4427.1,0.685825
4430.88,0.684035
4434.67,0.682152
4438.47,0.679878
4442.27,0.677657
4446.08,0.675436
4449.9,0.6731
4453.72,0.670865
4457.55,0.668637
4461.39,0.666669
4465.23,0.665059
4469.08,0.663742
4472.94,0.662884
4476.8,0.662339
4480.67,0.662212
4484.55,0.662344
4488.43,0.662867
4492.32,0.66342
4496.21,0.663936
4500.12,0.664631
4504.03,0.665424
4507.94,0.666109
4511.87,0.666834
4515.8,0.667521
4519.73,0.668052
4523.68,0.668532
4527.63,0.669031
4531.59,0.669294
4535.55,0.669491
4539.52,0.669511
4543.5,0.669294
4547.49,0.669002
4551.48,0.668812
4555.48,0.668476
4559.49,0.667967
4563.5,0.667472
4567.52,0.666703
4571.55,0.665746
4575.58,0.664704
4579.62,0.66351
4583.67,0.662263
4587.73,0.660997
4591.79,0.659436
4595.86,0.657763
4599.94,0.656209
4604.03,0.654573
4608.12,0.652815
4612.22,0.651012
4616.33,0.649257
4620.44,0.647399
4624.56,0.64576
4628.69,0.644235
4632.83,0.642589
4636.97,0.641082
4641.12,0.639876
4645.28,0.638878
4649.45,0.637847
4653.62,0.636893
4657.8,0.636126
4661.99,0.635437
4666.19,0.634791
4670.39,0.634258
4674.6,0.633824
4678.82,0.633464
4683.05,0.632994
4687.28,0.632573
4691.52,0.632227
4695.77,0.631672
4700.03,0.631209
4704.3,0.630856
4708.57,0.630357
4712.85,0.629762
4717.14,0.628961
4721.43,0.62817
4725.74,0.627539
4730.05,0.626694
4734.37,0.625732
4738.7,0.624819
4743.03,0.623969
4747.38,0.622756
4751.73,0.621699
4756.09,0.62074
4760.45,0.619617
4764.83,0.618339
4769.21,0.617243
4773.6,0.6163
4778.0,0.61557
4782.41,0.614844
4786.83,0.614057
4791.25,0.613212
4795.68,0.612526
4800.13,0.611634
4804.57,0.610738
4809.03,0.609766
4813.5,0.608797
4817.97,0.607862
4822.45,0.606698
4826.94,0.605463
4831.44,0.604353
4835.95,0.603306
4840.46,0.602568
4844.99,0.60182
4849.52,0.601133
4854.06,0.600581
4858.61,0.600145
4863.17,0.599541
4867.73,0.598705
4872.31,0.597748
4876.89,0.596923
4881.48,0.595954
4886.08,0.594899
4890.69,0.593823
4895.31,0.592681
4899.94,0.59158
4904.57,0.590664
4909.22,0.589624
4913.87,0.58855
4918.53,0.587586
4923.21,0.586651
4927.88,0.585689
4932.57,0.584858
4937.27,0.584152
4941.98,0.583397
4946.69,0.582679
4951.42,0.581909
4956.15,0.58114
4960.89,0.580514
4965.65,0.580102
4970.41,0.579245
4975.18,0.578161
4979.96,0.5771
4984.75,0.576092
4989.54,0.575188
4994.35,0.574243
4999.17,0.573026
5003.99,0.571693
5008.83,0.570342
5013.67,0.568971
5018.52,0.567451
5023.39,0.566061
5028.26,0.565006
5033.14,0.563518
5038.03,0.562062
5042.93,0.560613
5047.84,0.55924
5052.76,0.558002
5057.69,0.556792
5062.63,0.555467
5067.58,0.554357
5072.54,0.553122
5077.51,0.551895
5082.49,0.550589
5087.47,0.549423
5092.47,0.548466
5097.48,0.547063
5102.5,0.545602
5107.52,0.544421
5112.56,0.543568
5117.61,0.542302
5122.66,0.540907
5127.73,0.539531
5132.81,0.538036
5137.89,0.536616
5142.99,0.535138
5148.1,0.533477
5153.22,0.532534
5158.34,0.531548
5163.48,0.529683
5168.63,0.528005
5173.79,0.526524
5178.96,0.525202
5184.13,0.523736
5189.32,0.522367
5194.52,0.520964
5199.73,0.519391
5204.95,0.518239
5210.19,0.517348
5215.43,0.515334
5220.68,0.514852
5225.94,0.513661
5231.22,0.511559
5236.5,0.509852
5241.79,0.508581
5247.1,0.507271
5252.42,0.505488
5257.74,0.503774
5263.08,0.501977
5268.43,0.500148
5273.79,0.498343
5279.16,0.496526
5284.54,0.494965
5289.93,0.493027
5295.34,0.49122
5300.75,0.490224
5306.18,0.488405
5311.61,0.486652
5317.06,0.485103
5322.52,0.483637
5327.99,0.482266
5333.47,0.480912
5338.96,0.479567
5344.47,0.478057
5349.98,0.476138
5355.51,0.475437
5361.05,0.475001
5366.6,0.472946
5372.16,0.47082
5377.73,0.468823
5383.32,0.467147
5388.91,0.465282
5394.52,0.463227
5400.14,0.461218
5405.77,0.459328
5411.41,0.457299
5417.07,0.455451
5422.74,0.452947
5428.41,0.452609
5434.1,0.452455
5439.81,0.449942
5445.52,0.448425
5451.25,0.447553
5456.98,0.446915
5462.73,0.445788
5468.5,0.445788
5474.27,0.447205
5480.06,0.446862
5485.86,0.447634
5491.67,0.448898
5497.49,0.449185
5503.33,0.450013
5509.18,0.451053
5515.04,0.452341
5520.91,0.453025
5526.8,0.454133
5532.69,0.455456
5538.61,0.456337
5544.53,0.456535
5550.47,0.456461
5556.41,0.456437
5562.38,0.457012
5568.35,0.457007
5574.34,0.456542
5580.34,0.455848
5586.35,0.458181
5592.38,0.460453
5598.42,0.46045
5604.47,0.460453
5610.54,0.461439
5616.61,0.461442
5622.71,0.46151
5628.81,0.461551
5634.93,0.460555
5641.06,0.459053
5647.21,0.459377
5653.36,0.460969
5659.54,0.459296
5665.72,0.459196
5671.92,0.457647
5678.13,0.456043
5684.36,0.456883
5690.6,0.456113
5696.85,0.454935
5703.12,0.45547
5709.4,0.453444
5715.69,0.453125
5722.0,0.454172
5728.33,0.453644
5734.66,0.452399
5741.01,0.451265
5747.38,0.449952
5753.76,0.449114
5760.15,0.448418
5766.56,0.443713
5772.98,0.444034
5779.41,0.445133
5785.86,0.441368
5792.33,0.438781
5798.81,0.436202
5805.3,0.433918
5811.81,0.431931
5818.33,0.428563
5824.87,0.425767
5831.42,0.426517
5837.99,0.424844
5844.57,0.421937
5851.17,0.418863
5857.78,0.416236
5864.41,0.413404
5871.05,0.411913
5877.7,0.408835
5884.38,0.404656
5891.06,0.406823
5897.76,0.402793
5904.48,0.401035
5911.21,0.399754
5917.96,0.395232
5924.73,0.392728
5931.5,0.389735
5938.3,0.385615
5945.11,0.386243
5951.93,0.385218
5958.78,0.380647
5965.63,0.377159
5972.51,0.373468
5979.39,0.372603
5986.3,0.369038
5993.22,0.365911
6000.16,0.364796
6007.11,0.362329
6014.08,0.358669
6021.06,0.357268
6028.06,0.355985
6035.08,0.353647
6042.12,0.351075
6049.17,0.347639
6056.23,0.349697
6063.32,0.35222
6070.42,0.347637
6077.53,0.346188
6084.67,0.347551
6091.82,0.34666
6098.98,0.344912
6106.17,0.344293
6113.37,0.342817
6120.58,0.344166
6127.82,0.346081
6135.07,0.344644
6142.34,0.343623
6149.63,0.344188
6156.93,0.344427
6164.25,0.344563
6171.59,0.346129
6178.94,0.346022
6186.32,0.345197
6193.71,0.347883
6201.12,0.349841
6208.54,0.349178
6215.99,0.349709
6223.45,0.350413
6230.93,0.351095
6238.43,0.351409
6245.95,0.351967
6253.48,0.352303
6261.03,0.352529
6268.6,0.352485
6276.19,0.352551
6283.8,0.352422
6291.43,0.352091
6299.07,0.351762
6306.73,0.351616
6314.42,0.351251
6322.12,0.351109
6329.83,0.351039
6337.57,0.350919
6345.33,0.349914
6353.11,0.352159
6360.9,0.353791
6368.72,0.352213
6376.55,0.352782
6384.4,0.354865
6392.27,0.354473
6400.17,0.354753
6408.08,0.353878
6416.01,0.352381
6423.96,0.357066
6431.93,0.358213
6439.92,0.356187
6447.93,0.356167
6455.96,0.355001
6464.01,0.354848
6472.08,0.353367
6480.17,0.352359
6488.28,0.351628
6496.41,0.350871
6504.56,0.352515
6512.73,0.352252
6520.92,0.349113
6529.14,0.348959
6537.37,0.348998
6545.63,0.346931
6553.9,0.345511
6562.2,0.344951
6570.51,0.343375
6578.85,0.342121
6587.21,0.342542
6595.59,0.340348
6603.99,0.339298
6612.42,0.337611
6620.86,0.335794
6629.33,0.334179
6637.82,0.33199
6646.33,0.333059
6654.86,0.33368
6663.41,0.330906
6671.99,0.32907
6680.59,0.328213
6689.21,0.32797
6697.85,0.328077
6706.51,0.326523
6715.2,0.325232
6723.91,0.325481
6732.64,0.325059
6741.4,0.323988
6750.18,0.322529
6758.98,0.321533
6767.8,0.320311
6776.65,0.318723
6785.52,0.317539
6794.41,0.316154
6803.33,0.315861
6812.27,0.314398
6821.23,0.312208
6830.22,0.310859
6839.23,0.310584
6848.26,0.309415
6857.32,0.307491
6866.4,0.306335
6875.51,0.307618
6884.64,0.307041
6893.8,0.305161
6902.98,0.304143
6912.18,0.303359
6921.41,0.303125
6930.66,0.302114
6939.94,0.301206
6949.24,0.300281
6958.57,0.298878
6967.92,0.29833
6977.3,0.298785
6986.7,0.297212
6996.13,0.296116
7005.59,0.29552
7015.07,0.294852
7024.57,0.293854
7034.1,0.293559
7043.66,0.292349
7053.24,0.291884
7062.85,0.292407
7072.49,0.291555
7082.15,0.290559
7091.84,0.289833
7101.55,0.289161
7111.3,0.28844
7121.06,0.287671
7130.86,0.287167
7140.68,0.286154
7150.53,0.28498
7160.41,0.284312
7170.31,0.283278
7180.24,0.282637
7190.2,0.281916
7200.19,0.280462
7210.2,0.279284
7220.24,0.278509
7230.31,0.27753
7240.41,0.27605
7250.54,0.274815
7260.69,0.27369
7270.88,0.272436
7281.09,0.270945
7291.33,0.269823
7301.6,0.268393
7311.9,0.266956
7322.22,0.26559
7332.58,0.264195
7342.97,0.262587
7353.38,0.261236
7363.83,0.259487
7374.3,0.257564
7384.81,0.255491
7395.34,0.253633
7405.91,0.251507
7416.5,0.249398
7427.13,0.247209
7437.78,0.245144
7448.47,0.242716
7459.19,0.240322
7469.94,0.237916
7480.71,0.235602
7491.52,0.233162
7502.37,0.23052
7513.24,0.227632
7524.14,0.225004
7535.08,0.222255
7546.05,0.219491
7557.05,0.216692
7568.08,0.213775
7579.14,0.210746
7590.24,0.207867
7601.37,0.20485
7612.53,0.201847
7623.73,0.198737
7634.96,0.19572
7646.22,0.192588
7657.51,0.189476
7668.84,0.186218
7680.2,0.182828
7691.59,0.179248
7703.02,0.175756
7714.49,0.172027
7725.98,0.168345
7737.51,0.164563
7749.08,0.160837
7760.68,0.156936
7772.32,0.153
7783.99,0.148858
7795.69,0.144957
7807.43,0.140905
7819.21,0.13693
7831.02,0.132798
7842.87,0.128779
7854.75,0.124734
7866.67,0.120609
7878.62,0.116372
7890.62,0.112288
7902.64,0.107955
7914.71,0.103862
7926.81,0.099797
7938.95,0.095845
7951.13,0.091814
7963.34,0.088076
7975.59,0.084348
7987.88,0.080875
8000.21,0.077339
8012.57,0.074154
8024.98,0.071003
8037.42,0.068183
8049.9,0.065511
8062.42,0.063173
8074.98,0.060882
8087.57,0.058877
8100.21,0.057097
8112.89,0.055821
8125.6,0.054852
8138.36,0.054404
8151.16,0.054192
8163.99,0.054523
8176.87,0.05511
8189.79,0.056269
8202.75,0.05803
8215.74,0.060485
8228.79,0.063371
8241.87,0.066743
8254.99,0.07033
8268.16,0.074368
8281.37,0.078644
8294.62,0.083118
8307.91,0.087202
8321.24,0.090913
8334.62,0.09406
8348.04,0.096897
8361.51,0.098804
8375.02,0.09987
8388.57,0.10035
8402.16,0.100608
8415.8,0.100535
8429.49,0.100805
8443.22,0.101261
8456.99,0.101904
8470.81,0.102298
8484.67,0.102383
8498.58,0.101913
8512.54,0.101426
8526.54,0.100662
8540.58,0.099841
8554.68,0.099059
8568.82,0.098353
8583.0,0.097328
8597.24,0.096307
8611.52,0.09517
8625.85,0.093957
8640.22,0.092774
8654.65,0.091766
8669.12,0.091089
8683.64,0.09058
8698.21,0.089764
8712.83,0.08915
8727.5,0.088651
8742.22,0.088313
8756.98,0.087769
8771.8,0.087343
8786.67,0.086934
8801.59,0.086488
8816.56,0.08587
8831.58,0.085359
8846.65,0.08455
8861.77,0.083978
8876.94,0.083381
8892.17,0.082672
8907.45,0.081769
8922.78,0.080931
8938.16,0.079641
8953.6,0.078615
8969.09,0.077651
8984.64,0.07665
9000.23,0.075739
9015.89,0.074875
9031.59,0.073818
9047.36,0.073046
9063.17,0.072079
9079.04,0.070874
9094.97,0.069437
9110.96,0.068156
9127.0,0.066717
9143.09,0.065399
9159.25,0.064096
9175.46,0.063103
9191.73,0.062102
9208.05,0.061335
9224.44,0.060687
9240.88,0.060373
9257.38,0.060387
9273.94,0.060577
9290.56,0.060723
9307.24,0.061103
9323.98,0.061213
9340.78,0.061369
9357.64,0.061276
9374.57,0.061206
9391.55,0.061386
9408.59,0.061744
9425.7,0.062126
9442.87,0.062793
9460.1,0.063604
9477.39,0.064637
9494.75,0.065601
9512.17,0.066975
9529.66,0.06846
9547.21,0.07016
9564.82,0.071626
9582.5,0.073021
9600.25,0.073986
9618.06,0.074872
9635.94,0.07579
9653.88,0.076643
9671.89,0.077042
9689.97,0.077191
9708.12,0.077166
9726.33,0.077113
9744.61,0.076818
9762.97,0.076428
9781.39,0.075725
9799.88,0.075262
9818.44,0.074558
9837.07,0.073754
9855.77,0.073058
9874.54,0.072897
9893.39,0.072707
9912.3,0.072522
9931.29,0.072276
9950.35,0.072172
9969.49,0.072184
9988.7,0.072622
10007.98,0.072807
10027.34,0.072946
10046.77,0.073194
10066.28,0.07346
10085.87,0.073723
10105.53,0.074003
10125.26,0.074042
10145.08,0.074234
10164.97,0.074205
10184.94,0.074017
10204.99,0.073677
10225.12,0.073428
10245.33,0.073543
10265.61,0.0744
10285.98,0.075362
10306.43,0.076511
10326.96,0.077687
10347.57,0.078927
10368.27,0.079994
10389.05,0.080736
10409.91,0.081423
10430.85,0.082534
10451.88,0.083593
10473.0,0.084272
10494.2,0.08466
10515.49,0.085103
10536.86,0.085371
10558.32,0.085563
10579.87,0.085592
10601.5,0.085687
10623.23,0.085773
10645.04,0.085921
10666.94,0.085892
10688.94,0.085926
10711.02,0.085999
10733.2,0.086318
10755.47,0.086481
10777.83,0.086591
10800.28,0.086591
10822.83,0.086601
10845.47,0.086557
10868.21,0.086527
10891.04,0.086162
10913.97,0.08579
10936.99,0.08566
10960.12,0.085712
10983.34,0.085531
11006.66,0.08539
11030.07,0.085597
11053.59,0.085948
11077.21,0.085994
11100.93,0.086384
11124.75,0.08671
11148.68,0.086834
11172.7,0.087236
11196.84,0.08774
11221.07,0.088393
11245.41,0.089525
11269.86,0.090667
11294.41,0.092012
11319.07,0.093244
11343.84,0.094537
11368.72,0.095869
11393.7,0.097016
11418.8,0.098258
11444.01,0.099858
11469.33,0.10129
11494.76,0.102483
11520.3,0.103828
11545.96,0.105608
11571.73,0.107427
11597.62,0.109312
11623.62,0.11137
11649.74,0.113634
11675.98,0.115865
11702.34,0.118162
11728.81,0.120253
11755.41,0.121958
11782.13,0.123154
11808.96,0.124454
11835.92,0.125669
11863.01,0.126892
11890.22,0.127776
11917.55,0.128638
11945.01,0.12913
11972.6,0.129159
12000.31,0.129076
12028.16,0.128989
12056.13,0.128716
12084.23,0.128227
12112.46,0.127472
12140.83,0.12686
12169.33,0.126098
12197.96,0.125424
12226.73,0.124703
12255.64,0.12441
12284.68,0.124262
12313.86,0.124301
12343.18,0.124281
12372.64,0.124043
12402.24,0.123497
12431.98,0.122923
12461.86,0.121827
12491.89,0.120205
12522.06,0.118503
12552.38,0.116528
12582.85,0.113983
12613.47,0.111209
12644.23,0.107797
12675.15,0.103896
12706.21,0.099527
12737.43,0.094729
12768.8,0.089216
12800.33,0.083476
12832.02,0.078255
12863.86,0.074207
12895.86,0.070927
12928.02,0.068592
12960.34,0.06704
12992.82,0.066003
13025.46,0.065065
13058.27,0.064252
13091.25,0.063519
13124.39,0.062706
13157.7,0.061858
13191.18,0.061554
13224.83,0.061471
13258.66,0.0614
13292.65,0.061566
13326.83,0.06209
13361.17,0.06273
13395.7,0.0635
13430.4,0.06387
13465.29,0.063882
13500.35,0.063431
13535.6,0.06281
13571.03,0.061858
13606.65,0.060882
13642.46,0.060046
13678.46,0.059949
13714.64,0.060253
13751.02,0.060828
13787.59,0.061318
13824.36,0.062365
13861.32,0.063388
13898.48,0.064544
13935.85,0.065901
13973.41,0.06704
14011.17,0.067367
14049.15,0.067114
14087.32,0.066354
14125.71,0.065058
14164.3,0.062881
14203.11,0.06075
14242.13,0.058702
14281.36,0.056859
14320.81,0.055222
14360.48,0.053732
14400.38,0.052422
14440.49,0.051545
14480.82,0.050602
14521.39,0.049938
14562.18,0.049251
14603.2,0.048861
14644.45,0.048515
14685.93,0.047746
14727.66,0.047083
14769.62,0.046979
14811.81,0.04712
14854.25,0.047091
14896.94,0.047205
14939.87,0.047977
14983.05,0.049112
15026.48,0.050366
15070.16,0.051155
15114.1,0.052271
15158.29,0.053564
15202.74,0.055332
15247.46,0.057214
15292.43,0.059462
15337.68,0.061678
15383.19,0.063977
15428.97,0.066205
15475.03,0.068129
15521.36,0.069936
15567.97,0.071402
15614.86,0.071999
15662.04,0.072408
15709.5,0.072895
15757.25,0.073109
15805.29,0.073362
15853.62,0.073898
15902.25,0.074215
15951.18,0.074439
16000.42,0.074522
16049.95,0.074368
16099.8,0.073484
16149.95,0.072262
16200.42,0.071068
16251.21,0.070153
16302.31,0.069464
16353.74,0.069239
16405.49,0.069218
16457.57,0.06952
16509.98,0.070204
16562.73,0.071088
16615.82,0.071906
16669.24,0.073077
16723.02,0.073932
16777.13,0.074996
16831.61,0.07636
16886.43,0.078121
16941.62,0.080249
16997.16,0.081832
17053.07,0.082327
17109.36,0.082258
17166.01,0.082139
17223.04,0.081903
17280.45,0.08059
17338.24,0.079163
17396.43,0.077831
17455.0,0.077001
17513.97,0.077008
17573.34,0.077648
17633.11,0.078238
17693.29,0.078956
17753.89,0.079076
17814.9,0.078825
17876.33,0.078978
17938.18,0.07901
18000.47,0.078866
18063.19,0.079346
18126.35,0.080201
18189.95,0.08115
18254.0,0.082346
18318.5,0.083912
18383.46,0.085461
18448.88,0.086389
18514.77,0.087278
18581.13,0.087872
18647.97,0.088062
18715.29,0.087239
18783.1,0.085692
18851.4,0.08437
18920.2,0.083566
18989.51,0.083091
19059.32,0.082246
19129.65,0.083754
19200.5,0.089625
19271.88,0.088802
19343.79,0.083342
19416.23,0.082772
19489.23,0.082151
19562.77,0.082071
19636.88,0.082037
19711.54,0.082843
19786.77,0.083561
19862.59,0.083612
19938.98,0.082845
20015.96,0.081574
20093.54,0.080386
20171.73,0.079015
20250.53,0.076426
20329.94,0.074948
20409.98,0.073949
20490.65,0.073509
20571.96,0.073019
20653.92,0.073703
20736.54,0.074855
20819.82,0.075637
20903.77,0.076665
20988.4,0.076976
21073.72,0.076146
21159.73,0.074797
21246.46,0.073988
21333.89,0.075888
21422.04,0.077137
21510.93,0.077551
21600.56,0.077812
21690.94,0.077687
21782.08,0.076638
21873.99,0.076153
21966.67,0.076268
22060.15,0.075768
22154.42,0.074178
22249.51,0.073835
22345.41,0.073058
22442.14,0.070732
22539.72,0.069001
22638.14,0.068207
22737.43,0.066921
22837.6,0.068019
22938.65,0.069062
23040.6,0.071387
23143.46,0.074295
23247.24,0.076565
23351.96,0.078503
23457.62,0.08068
23564.25,0.081494
23671.85,0.082663
23780.44,0.083471
23890.02,0.083841
24000.63,0.083873
24112.26,0.083515
24224.93,0.082923
24338.66,0.082556
24453.47,0.082314
24569.36,0.084231
24686.36,0.085186
24804.47,0.0838
24923.72,0.083922
25044.13,0.087109
25165.7,0.088848
25288.46,0.091354
25412.43,0.091529
25537.61,0.08831
25664.03,0.088147
25791.71,0.094544
25920.67,0.097167
