Database of Origin,University of Winnipeg Spectrophotometer Facility
Sample Description,Carbonates and Oxolates - RELAB+Nicolet spectra - Newly merged spectra (merged by RELAB)
Other Information,merged at 2.580 um
Date Added,2018-08-06 20:58:22.698355

Data ID,RLA_CARB_23_1       
Sample ID,CRB314
Mineral Name,Artinite
Locality,Staten Island/ New York City/ NY/ USA
Grain Size,<45 um
Viewing Geometry,30/0 and 30
Resolution,1.2-129 nm
Formula,Mg2(CO3)(OH)2*3(H2O)
Composition,Mostly hydromagnesite and lizardite/ a bit of artinite; also a high background indicating amorphous phases

Wavelength
305.0,0.32187
310.0,0.33671
315.0,0.35237
320.0,0.364
325.0,0.37631
330.0,0.38776
335.0,0.39925
340.0,0.41144
345.0,0.42603
350.0,0.44105
355.0,0.45681
360.0,0.46949
365.0,0.48303
370.0,0.49882
375.0,0.51147
380.0,0.52061
385.0,0.52444
390.0,0.53765
395.0,0.54937
400.0,0.55595
405.0,0.55885
410.0,0.55989
415.0,0.56265
420.0,0.56743
425.0,0.57225
430.0,0.57506
435.0,0.57895
440.0,0.58274
445.0,0.58866
450.0,0.59262
455.0,0.59642
460.0,0.59986
465.0,0.60858
470.0,0.62072
475.0,0.63207
480.0,0.64104
485.0,0.64784
490.0,0.65365
495.0,0.65907
500.0,0.66429
505.0,0.67023
510.0,0.67553
515.0,0.68051
520.0,0.68371
525.0,0.68693
530.0,0.68898
535.0,0.69103
540.0,0.69278
545.0,0.69501
550.0,0.69666
555.0,0.69814
560.0,0.69888
565.0,0.70038
570.0,0.70044
575.0,0.70135
580.0,0.7015
585.0,0.70179
590.0,0.70128
595.0,0.70127
600.0,0.7005
605.0,0.70005
610.0,0.6993
615.0,0.69824
620.0,0.69653
625.0,0.69581
630.0,0.69461
635.0,0.69291
640.0,0.69135
645.0,0.68984
650.0,0.68822
655.0,0.68651
660.0,0.68506
665.0,0.68348
670.0,0.68194
675.0,0.68045
680.0,0.67986
685.0,0.67797
690.0,0.67734
695.0,0.67572
700.0,0.67517
705.0,0.67401
710.0,0.6731
715.0,0.67249
720.0,0.67189
725.0,0.67078
730.0,0.67035
735.0,0.67015
740.0,0.66978
745.0,0.66983
750.0,0.67026
755.0,0.67057
760.0,0.67123
765.0,0.67246
770.0,0.67347
775.0,0.67411
780.0,0.67537
785.0,0.67657
790.0,0.67767
795.0,0.6786
800.0,0.67914
805.0,0.68027
810.0,0.68062
815.0,0.68141
820.0,0.68195
825.0,0.67994
830.0,0.68168
835.0,0.68241
840.0,0.68035
845.0,0.68059
850.0,0.67978
855.0,0.67855
860.0,0.67795
865.0,0.67774
870.0,0.67729
875.0,0.67743
880.0,0.6755
885.0,0.67518
890.0,0.67466
895.0,0.67471
900.0,0.6746
905.0,0.67409
910.0,0.67426
915.0,0.67331
920.0,0.67437
925.0,0.67351
930.0,0.67393
935.0,0.67367
940.0,0.67375
945.0,0.67415
950.0,0.67375
955.0,0.67352
960.0,0.67551
965.0,0.67638
970.0,0.67613
975.0,0.67602
980.0,0.67735
985.0,0.67635
990.0,0.6767
995.0,0.67589
1000.0,0.67636
1005.0,0.67715
1010.0,0.67743
1015.0,0.67659
1020.0,0.67719
1025.0,0.67638
1030.0,0.67604
1035.0,0.67688
1040.0,0.67559
1045.0,0.67552
1050.0,0.67518
1055.0,0.67503
1060.0,0.67479
1065.0,0.67471
1070.0,0.67429
1075.0,0.67395
1080.0,0.67449
1085.0,0.67331
1090.0,0.67398
1095.0,0.67295
1100.0,0.67308
1105.0,0.67314
1110.0,0.67306
1115.0,0.67228
1120.0,0.67304
1125.0,0.67259
1130.0,0.67378
1135.0,0.67365
1140.0,0.67362
1145.0,0.67401
1150.0,0.67394
1155.0,0.67418
1160.0,0.675
1165.0,0.67471
1170.0,0.67571
1175.0,0.67531
1180.0,0.67608
1185.0,0.67664
1190.0,0.67707
1195.0,0.67767
1200.0,0.67819
1205.0,0.67903
1210.0,0.6793
1215.0,0.67993
1220.0,0.68102
1225.0,0.68091
1230.0,0.68211
1235.0,0.68281
1240.0,0.68327
1245.0,0.68339
1250.0,0.68423
1255.0,0.68483
1260.0,0.68533
1265.0,0.68577
1270.0,0.68628
1275.0,0.68569
1280.0,0.68578
1285.0,0.68609
1290.0,0.68716
1295.0,0.68796
1300.0,0.68935
1305.0,0.69017
1310.0,0.69063
1315.0,0.69196
1320.0,0.69137
1325.0,0.69213
1330.0,0.69312
1335.0,0.69307
1340.0,0.69349
1345.0,0.69349
1350.0,0.69278
1355.0,0.68904
1360.0,0.68841
1365.0,0.69
1370.0,0.69101
1375.0,0.68972
1380.0,0.67125
1385.0,0.65976
1390.0,0.65548
1395.0,0.63519
1400.0,0.64778
1405.0,0.62837
1410.0,0.67684
1415.0,0.68412
1420.0,0.68502
1425.0,0.68507
1430.0,0.68096
1435.0,0.67588
1440.0,0.6747
1445.0,0.67764
1450.0,0.67771
1455.0,0.67578
1460.0,0.67085
1465.0,0.67097
1470.0,0.67558
1475.0,0.67963
1480.0,0.68182
1485.0,0.68197
1490.0,0.68274
1495.0,0.68399
1500.0,0.68402
1505.0,0.6845
1510.0,0.68484
1515.0,0.68519
1520.0,0.68624
1525.0,0.68693
1530.0,0.68711
1535.0,0.68724
1540.0,0.68768
1545.0,0.68817
1550.0,0.68831
1555.0,0.68914
1560.0,0.6897
1565.0,0.68929
1570.0,0.69011
1575.0,0.69008
1580.0,0.69055
1585.0,0.69131
1590.0,0.69105
1595.0,0.69178
1600.0,0.6919
1605.0,0.69139
1610.0,0.69238
1615.0,0.69119
1620.0,0.69109
1625.0,0.69113
1630.0,0.68935
1635.0,0.68914
1640.0,0.68951
1645.0,0.68971
1650.0,0.68817
1655.0,0.68754
1660.0,0.68707
1665.0,0.68627
1670.0,0.68526
1675.0,0.68477
1680.0,0.68337
1685.0,0.68234
1690.0,0.6814
1695.0,0.68107
1700.0,0.68037
1705.0,0.67876
1710.0,0.67812
1715.0,0.67736
1720.0,0.67612
1725.0,0.67536
1730.0,0.67415
1735.0,0.67304
1740.0,0.67217
1745.0,0.67126
1750.0,0.67062
1755.0,0.6699
1760.0,0.66858
1765.0,0.66626
1770.0,0.66642
1775.0,0.66614
1780.0,0.66454
1785.0,0.66497
1790.0,0.66405
1795.0,0.66307
1800.0,0.66192
1805.0,0.6615
1810.0,0.66007
1815.0,0.65939
1820.0,0.65795
1825.0,0.65757
1830.0,0.6571
1835.0,0.65537
1840.0,0.65414
1845.0,0.65474
1850.0,0.6531
1855.0,0.6514
1860.0,0.6498
1865.0,0.64799
1870.0,0.64593
1875.0,0.64453
1880.0,0.64089
1885.0,0.63756
1890.0,0.63348
1895.0,0.62878
1900.0,0.62471
1905.0,0.61974
1910.0,0.61434
1915.0,0.60847
1920.0,0.60306
1925.0,0.59697
1930.0,0.59033
1935.0,0.58494
1940.0,0.58146
1945.0,0.57856
1950.0,0.57278
1955.0,0.57055
1960.0,0.56887
1965.0,0.56838
1970.0,0.56874
1975.0,0.56925
1980.0,0.56948
1985.0,0.56985
1990.0,0.57142
1995.0,0.57255
2000.0,0.57477
2005.0,0.57677
2010.0,0.57868
2015.0,0.58112
2020.0,0.58265
2025.0,0.58451
2030.0,0.58598
2035.0,0.58749
2040.0,0.59048
2045.0,0.59281
2050.0,0.59467
2055.0,0.59714
2060.0,0.59854
2065.0,0.60005
2070.0,0.60019
2075.0,0.60201
2080.0,0.59961
2085.0,0.59929
2090.0,0.59857
2095.0,0.59744
2100.0,0.59663
2105.0,0.59768
2110.0,0.59705
2115.0,0.59642
2120.0,0.59749
2125.0,0.59805
2130.0,0.59768
2135.0,0.59709
2140.0,0.59763
2145.0,0.59938
2150.0,0.60008
2155.0,0.60166
2160.0,0.6019
2165.0,0.60184
2170.0,0.60225
2175.0,0.6016
2180.0,0.60151
2185.0,0.60077
2190.0,0.60188
2195.0,0.60115
2200.0,0.59935
2205.0,0.59556
2210.0,0.59374
2215.0,0.59518
2220.0,0.59462
2225.0,0.59157
2230.0,0.58891
2235.0,0.58371
2240.0,0.57896
2245.0,0.57429
2250.0,0.56808
2255.0,0.56338
2260.0,0.55878
2265.0,0.554
2270.0,0.54375
2275.0,0.53728
2280.0,0.53577
2285.0,0.53537
2290.0,0.53366
2295.0,0.53202
2300.0,0.52939
2305.0,0.52185
2310.0,0.51158
2315.0,0.50022
2320.0,0.49187
2325.0,0.48568
2330.0,0.48451
2335.0,0.48277
2340.0,0.48354
2345.0,0.491
2350.0,0.50035
2355.0,0.5055
2360.0,0.50598
2365.0,0.50501
2370.0,0.50321
2375.0,0.50026
2380.0,0.49888
2385.0,0.49778
2390.0,0.49453
2395.0,0.49234
2400.0,0.48986
2405.0,0.48711
2410.0,0.48291
2415.0,0.47859
2420.0,0.4751
2425.0,0.47064
2430.0,0.46676
2435.0,0.46244
2440.0,0.46343
2445.0,0.46383
2450.0,0.46843
2455.0,0.46959
2460.0,0.46812
2465.0,0.46631
2470.0,0.46103
2475.0,0.45246
2480.0,0.44608
2485.0,0.43976
2490.0,0.43789
2495.0,0.43558
2500.0,0.42735
2505.0,0.4224
2510.0,0.42021
2515.0,0.42
2520.0,0.41969
2525.0,0.42096
2530.0,0.4222
2535.0,0.42261
2540.0,0.42456
2545.0,0.42579
2550.0,0.428
2555.0,0.42736
2560.0,0.42529
2565.0,0.42948
2570.0,0.43158
2575.0,0.43301
2580.0,0.43579
2582.4,0.43567
2583.7,0.43568
2585.0,0.43584
2586.3,0.436
2587.5,0.43653
2588.8,0.43686
2590.1,0.43736
2591.4,0.43775
2592.7,0.43818
2594.0,0.43858
2595.3,0.43881
2596.6,0.43831
2597.9,0.43815
2599.2,0.43799
2600.5,0.43789
2601.8,0.43777
2603.1,0.43774
2604.4,0.43761
2605.8,0.43748
2607.1,0.43696
2608.4,0.43667
2609.7,0.43627
2611.0,0.43589
2612.3,0.43546
2613.6,0.43505
2614.9,0.43445
2616.3,0.43424
2617.6,0.43372
2618.9,0.43318
2620.2,0.43285
2621.6,0.43238
2622.9,0.43166
2624.2,0.43113
2625.5,0.43046
2626.9,0.4299
2628.2,0.42904
2629.5,0.42853
2630.9,0.42783
2632.2,0.42708
2633.5,0.42647
2634.9,0.42591
2636.2,0.4251
2637.6,0.42438
2638.9,0.42338
2640.2,0.42245
2641.6,0.42129
2642.9,0.42001
2644.3,0.4184
2645.6,0.41668
2647.0,0.4146
2648.3,0.41262
2649.7,0.41051
2651.0,0.4087
2652.4,0.40713
2653.8,0.40586
2655.1,0.40472
2656.5,0.40373
2657.8,0.40251
2659.2,0.40149
2660.6,0.40021
2661.9,0.39886
2663.3,0.3973
2664.7,0.3958
2666.0,0.39365
2667.4,0.39119
2668.8,0.38846
2670.1,0.3857
2671.5,0.38091
2672.9,0.37545
2674.3,0.36849
2675.7,0.36035
2677.0,0.35105
2678.4,0.34231
2679.8,0.33364
2681.2,0.32528
2682.6,0.31699
2684.0,0.30836
2685.4,0.29942
2686.8,0.29078
2688.1,0.28156
2689.5,0.2721
2690.9,0.26097
2692.3,0.24846
2693.7,0.23232
2695.1,0.21147
2696.5,0.18416
2697.9,0.14782
2699.3,0.11166
2700.8,0.09451
2702.1,0.09017
2703.6,0.08393
2705.0,0.0741
2706.4,0.06366
2707.8,0.0547
2709.2,0.04812
2710.6,0.04417
2712.1,0.04323
2713.5,0.04454
2714.9,0.04778
2716.3,0.05321
2717.7,0.06007
2719.2,0.06561
2720.6,0.07144
2722.0,0.07839
2723.4,0.08247
2724.9,0.08426
2726.3,0.08489
2727.7,0.08604
2729.2,0.08828
2730.6,0.08961
2732.1,0.08873
2733.5,0.08609
2734.9,0.08239
2736.4,0.07734
2737.8,0.06945
2739.3,0.05698
2740.7,0.04746
2742.2,0.05244
2743.6,0.0661
2745.1,0.07893
2746.5,0.08888
2748.0,0.09671
2749.4,0.10294
2750.9,0.10713
2752.4,0.10978
2753.8,0.11229
2755.3,0.11598
2756.7,0.12
2758.2,0.12279
2759.7,0.1247
2761.1,0.12598
2762.6,0.12661
2764.1,0.12661
2765.6,0.12593
2767.0,0.12469
2768.5,0.12293
2770.0,0.12104
2771.5,0.11937
2773.0,0.11821
2774.4,0.11758
2775.9,0.11763
2777.4,0.11807
2778.9,0.11861
2780.4,0.11885
2781.9,0.11881
2783.4,0.11854
2784.9,0.11812
2786.4,0.1175
2787.9,0.11673
2789.4,0.1159
2790.9,0.11503
2792.4,0.11394
2793.9,0.11269
2795.4,0.11132
2796.9,0.11004
2798.4,0.10891
2799.9,0.10796
2801.4,0.10712
2802.9,0.10624
2804.4,0.10519
2806.0,0.10418
2807.5,0.10312
2809.0,0.10198
2810.5,0.10074
2812.1,0.09951
2813.6,0.0981
2815.1,0.09644
2816.6,0.09458
2818.2,0.09266
2819.7,0.09052
2821.2,0.08826
2822.8,0.08583
2824.3,0.08323
2825.9,0.08036
2827.4,0.07728
2828.9,0.07398
2830.5,0.07054
2832.0,0.06692
2833.6,0.06335
2835.1,0.05984
2836.7,0.05652
2838.2,0.05347
2839.8,0.05101
2841.3,0.0491
2842.9,0.0478
2844.4,0.04714
2846.0,0.04715
2847.6,0.04772
2849.1,0.04873
2850.7,0.05003
2852.3,0.05155
2853.8,0.05319
2855.4,0.05479
2857.0,0.0562
2858.6,0.05745
2860.1,0.05842
2861.7,0.05919
2863.3,0.05971
2864.9,0.06004
2866.5,0.06012
2868.1,0.05999
2869.6,0.0597
2871.2,0.05931
2872.8,0.05876
2874.4,0.0581
2876.0,0.05737
2877.6,0.05661
2879.2,0.05581
2880.8,0.05499
2882.4,0.05413
2884.0,0.05339
2885.6,0.0527
2887.2,0.05204
2888.8,0.05144
2890.4,0.05096
2892.0,0.05058
2893.7,0.05033
2895.3,0.05022
2896.9,0.05026
2898.5,0.05041
2900.1,0.05072
2901.8,0.05112
2903.4,0.05164
2905.0,0.05232
2906.6,0.05308
2908.3,0.0538
2909.9,0.05463
2911.5,0.05551
2913.2,0.05644
2914.8,0.05734
2916.4,0.05822
2918.1,0.05912
2919.7,0.06004
2921.4,0.06092
2923.0,0.06175
2924.7,0.06255
2926.3,0.06338
2928.0,0.06416
2929.6,0.0649
2931.3,0.06561
2932.9,0.06632
2934.6,0.06704
2936.3,0.06776
2937.9,0.06848
2939.6,0.06921
2941.3,0.06987
2942.9,0.07056
2944.6,0.07124
2946.3,0.07196
2947.9,0.07262
2949.6,0.07328
2951.3,0.07402
2953.0,0.07464
2954.7,0.0752
2956.3,0.07586
2958.0,0.0765
2959.7,0.07709
2961.4,0.07768
2963.1,0.07829
2964.8,0.07887
2966.5,0.07937
2968.2,0.07986
2969.9,0.0804
2971.6,0.08096
2973.3,0.08153
2975.0,0.08204
2976.7,0.08254
2978.4,0.08302
2980.1,0.08351
2981.9,0.08394
2983.6,0.08434
2985.3,0.08478
2987.0,0.08522
2988.7,0.08559
2990.4,0.08593
2992.2,0.08632
2993.9,0.08665
2995.6,0.08693
2997.4,0.08723
2999.1,0.08753
3000.8,0.08781
3002.6,0.08807
3004.3,0.08832
3006.1,0.08849
3007.8,0.08867
3009.5,0.0889
3011.3,0.08912
3013.0,0.08929
3014.8,0.0894
3016.5,0.0895
3018.3,0.0896
3020.1,0.08969
3021.8,0.08975
3023.6,0.08979
3025.3,0.08984
3027.1,0.08992
3028.9,0.09
3030.6,0.09008
3032.4,0.09016
3034.2,0.09019
3036.0,0.09017
3037.7,0.09016
3039.5,0.09019
3041.3,0.09021
3043.1,0.09017
3044.9,0.09018
3046.7,0.09022
3048.5,0.09021
3050.3,0.09013
3052.1,0.09009
3053.8,0.09008
3055.6,0.09005
3057.4,0.08996
3059.3,0.08993
3061.1,0.08992
3062.9,0.08984
3064.7,0.08977
3066.5,0.08972
3068.3,0.08963
3070.1,0.08949
3071.9,0.0894
3073.8,0.08936
3075.6,0.08927
3077.4,0.08913
3079.2,0.08897
3081.1,0.08887
3082.9,0.08874
3084.7,0.08863
3086.6,0.08855
3088.4,0.08846
3090.2,0.08833
3092.1,0.08814
3093.9,0.08799
3095.8,0.08792
3097.6,0.08785
3099.5,0.08779
3101.3,0.08768
3103.2,0.08754
3105.1,0.08739
3106.9,0.08729
3108.8,0.0872
3110.6,0.08707
3112.5,0.08697
3114.4,0.08692
3116.2,0.08682
3118.1,0.08668
3120.0,0.08653
3121.9,0.08646
3123.8,0.08641
3125.6,0.0863
3127.5,0.08617
3129.4,0.08613
3131.3,0.08608
3133.2,0.086
3135.1,0.0859
3137.0,0.08579
3138.9,0.08575
3140.8,0.08573
3142.7,0.0857
3144.6,0.08564
3146.5,0.08557
3148.4,0.08555
3150.3,0.08552
3152.2,0.08548
3154.1,0.08542
3156.1,0.08535
3158.0,0.08531
3159.9,0.08527
3161.8,0.08527
3163.8,0.08525
3165.7,0.08518
3167.6,0.08513
3169.6,0.08505
3171.5,0.08495
3173.5,0.08491
3175.4,0.08491
3177.3,0.0849
3179.3,0.08489
3181.2,0.08485
3183.2,0.0848
3185.1,0.08474
3187.1,0.08469
3189.1,0.08467
3191.0,0.08464
3193.0,0.08455
3195.0,0.08447
3196.9,0.08444
3198.9,0.08441
3200.9,0.08435
3202.9,0.08427
3204.8,0.08415
3206.8,0.08406
3208.8,0.08401
3210.8,0.08395
3212.8,0.0839
3214.8,0.08384
3216.8,0.08372
3218.8,0.08364
3220.8,0.08356
3222.8,0.08346
3224.8,0.08337
3226.8,0.08332
3228.8,0.08326
3230.8,0.08321
3232.8,0.08314
3234.8,0.08299
3236.8,0.08286
3238.9,0.0828
3240.9,0.0827
3242.9,0.08259
3244.9,0.0825
3247.0,0.08239
3249.0,0.08227
3251.1,0.08217
3253.1,0.08212
3255.1,0.08207
3257.2,0.08197
3259.2,0.08184
3261.3,0.08172
3263.3,0.08166
3265.4,0.08159
3267.4,0.08151
3269.5,0.08144
3271.6,0.08137
3273.6,0.08133
3275.7,0.08123
3277.8,0.08115
3279.8,0.08112
3281.9,0.08104
3284.0,0.08097
3286.1,0.08091
3288.2,0.08086
3290.2,0.08083
3292.3,0.08078
3294.4,0.08072
3296.5,0.08066
3298.6,0.08062
3300.7,0.08055
3302.8,0.08052
3304.9,0.08051
3307.0,0.08044
3309.1,0.08038
3311.3,0.08036
3313.4,0.08032
3315.5,0.08026
3317.6,0.08023
3319.7,0.08022
3321.9,0.08023
3324.0,0.08021
3326.1,0.08017
3328.3,0.08014
3330.4,0.08007
3332.5,0.08004
3334.7,0.07999
3336.8,0.07995
3339.0,0.07994
3341.1,0.07991
3343.3,0.07997
3345.4,0.08
3347.6,0.08
3349.8,0.08005
3351.9,0.08012
3354.1,0.08016
3356.3,0.08027
3358.4,0.08042
3360.6,0.08051
3362.8,0.08062
3365.0,0.08076
3367.2,0.08089
3369.4,0.081
3371.5,0.0811
3373.7,0.08121
3375.9,0.08134
3378.1,0.08147
3380.3,0.08161
3382.5,0.08174
3384.7,0.08186
3386.9,0.08194
3389.2,0.08206
3391.4,0.08217
3393.6,0.08223
3395.8,0.08229
3398.1,0.08239
3400.3,0.08256
3402.5,0.0827
3404.7,0.08285
3407.0,0.08302
3409.2,0.08321
3411.5,0.08342
3413.7,0.08361
3416.0,0.08389
3418.2,0.08418
3420.5,0.08443
3422.7,0.08475
3425.0,0.08506
3427.3,0.08532
3429.5,0.08564
3431.8,0.08598
3434.1,0.08636
3436.3,0.08678
3438.6,0.0872
3440.9,0.08759
3443.2,0.08796
3445.5,0.08836
3447.8,0.08879
3450.1,0.08921
3452.4,0.0896
3454.6,0.09002
3456.9,0.09049
3459.3,0.09097
3461.6,0.0914
3463.9,0.09184
3466.2,0.0923
3468.5,0.09279
3470.8,0.09328
3473.2,0.09374
3475.5,0.09416
3477.8,0.0946
3480.1,0.09506
3482.5,0.09556
3484.8,0.09605
3487.2,0.09652
3489.5,0.09699
3491.9,0.09743
3494.2,0.09783
3496.6,0.09831
3498.9,0.09878
3501.3,0.09925
3503.7,0.09978
3506.0,0.10033
3508.4,0.10089
3510.8,0.10143
3513.2,0.10193
3515.5,0.10249
3517.9,0.10304
3520.3,0.10356
3522.7,0.10408
3525.1,0.10468
3527.5,0.10529
3529.9,0.10585
3532.3,0.10644
3534.7,0.10703
3537.1,0.10762
3539.5,0.10815
3541.9,0.1087
3544.4,0.10929
3546.8,0.10985
3549.2,0.11037
3551.7,0.1109
3554.1,0.11145
3556.5,0.112
3559.0,0.11253
3561.4,0.11305
3563.9,0.11357
3566.3,0.11412
3568.8,0.11466
3571.2,0.11516
3573.7,0.11561
3576.1,0.1161
3578.6,0.11666
3581.1,0.11718
3583.6,0.11766
3586.0,0.11817
3588.5,0.11868
3591.0,0.11914
3593.5,0.11961
3596.0,0.12014
3598.5,0.12062
3601.0,0.12108
3603.5,0.12153
3606.0,0.12203
3608.5,0.12249
3611.0,0.12294
3613.5,0.12341
3616.1,0.12393
3618.6,0.1245
3621.1,0.12504
3623.6,0.12555
3626.2,0.1261
3628.7,0.12663
3631.3,0.12717
3633.8,0.12769
3636.3,0.12818
3638.9,0.12872
3641.4,0.12928
3644.0,0.1298
3646.6,0.13028
3649.1,0.13079
3651.7,0.13126
3654.3,0.13176
3656.9,0.13231
3659.4,0.13281
3662.0,0.13328
3664.6,0.13372
3667.2,0.13418
3669.8,0.13468
3672.4,0.13517
3675.0,0.13564
3677.6,0.13608
3680.2,0.13652
3682.8,0.13695
3685.4,0.13738
3688.1,0.13781
3690.7,0.1382
3693.3,0.13861
3695.9,0.13908
3698.6,0.13959
3701.2,0.14006
3703.9,0.1405
3706.5,0.14086
3709.2,0.14123
3711.8,0.14161
3714.5,0.14198
3717.1,0.14231
3719.8,0.14265
3722.5,0.14297
3725.2,0.14328
3727.8,0.14353
3730.5,0.14381
3733.2,0.14412
3735.9,0.14441
3738.6,0.14465
3741.3,0.14481
3744.0,0.14495
3746.7,0.14516
3749.4,0.14528
3752.1,0.1453
3754.8,0.1453
3757.6,0.14529
3760.3,0.1453
3763.0,0.14528
3765.7,0.14525
3768.5,0.14526
3771.2,0.14525
3774.0,0.14523
3776.7,0.14522
3779.5,0.14525
3782.2,0.14528
3785.0,0.14532
3787.7,0.14534
3790.5,0.14538
3793.3,0.1454
3796.1,0.14544
3798.8,0.1455
3801.6,0.14559
3804.4,0.14576
3807.2,0.14605
3810.0,0.14644
3812.8,0.14697
3815.6,0.14764
3818.4,0.14843
3821.2,0.14933
3824.1,0.1502
3826.9,0.151
3829.7,0.15177
3832.5,0.15247
3835.4,0.15301
3838.2,0.15335
3841.1,0.15356
3843.9,0.15365
3846.8,0.15362
3849.6,0.15346
3852.5,0.15318
3855.3,0.15286
3858.2,0.15256
3861.1,0.15229
3863.9,0.15211
3866.8,0.15199
3869.7,0.15197
3872.6,0.15206
3875.5,0.15224
3878.4,0.15242
3881.3,0.15261
3884.2,0.15282
3887.1,0.15307
3890.0,0.15336
3893.0,0.15374
3895.9,0.1542
3898.8,0.15481
3901.7,0.1555
3904.7,0.1562
3907.6,0.15685
3910.6,0.15744
3913.5,0.15784
3916.5,0.15805
3919.4,0.1581
3922.4,0.15805
3925.4,0.15791
3928.4,0.15777
3931.3,0.15763
3934.3,0.15748
3937.3,0.15734
3940.3,0.15724
3943.3,0.15721
3946.3,0.15752
3949.3,0.15837
3952.3,0.15977
3955.3,0.16158
3958.3,0.1636
3961.4,0.16564
3964.4,0.16762
3967.4,0.1695
3970.5,0.17126
3973.5,0.17293
3976.6,0.17456
3979.6,0.17605
3982.6,0.17738
3985.7,0.1785
3988.8,0.17951
3991.9,0.18041
3994.9,0.18124
3998.0,0.18202
4001.1,0.18279
4004.2,0.18352
4007.3,0.18427
4010.4,0.18503
4013.5,0.18575
4016.6,0.18642
4019.7,0.18709
4022.8,0.18773
4025.9,0.18833
4029.1,0.18888
4032.2,0.18946
4035.3,0.19002
4038.5,0.19058
4041.6,0.19109
4044.8,0.19157
4047.9,0.192
4051.1,0.19236
4054.3,0.19265
4057.4,0.19298
4060.6,0.19326
4063.8,0.19354
4067.0,0.19378
4070.2,0.19395
4073.4,0.19412
4076.6,0.1943
4079.8,0.1944
4083.0,0.19452
4086.2,0.1946
4089.4,0.19466
4092.7,0.1947
4095.9,0.19477
4099.1,0.1948
4102.4,0.19485
4105.6,0.19487
4108.9,0.19489
4112.1,0.1949
4115.4,0.19493
4118.7,0.19492
4122.0,0.19492
4125.2,0.19494
4128.5,0.19499
4131.8,0.19497
4135.1,0.19502
4138.4,0.19508
4141.7,0.19518
4145.0,0.19525
4148.3,0.19536
4151.6,0.19545
4155.0,0.19561
4158.3,0.19574
4161.6,0.19588
4165.0,0.19601
4168.3,0.19617
4171.7,0.19633
4175.0,0.19648
4178.4,0.19663
4181.8,0.19681
4185.2,0.19697
4188.5,0.19713
4191.9,0.19727
4195.3,0.19741
4198.7,0.19749
4202.1,0.19758
4205.5,0.19769
4208.9,0.19782
4212.4,0.19787
4215.8,0.19792
4219.2,0.19797
4222.6,0.19806
4226.1,0.19811
4229.5,0.19819
4233.0,0.1982
4236.5,0.19824
4239.9,0.19828
4243.4,0.19835
4246.9,0.19841
4250.3,0.19846
4253.8,0.19847
4257.3,0.19852
4260.8,0.19854
4264.3,0.19856
4267.8,0.19855
4271.3,0.1986
4274.9,0.19861
4278.4,0.19863
4281.9,0.19861
4285.5,0.19859
4289.0,0.19856
4292.6,0.19858
4296.1,0.1986
4299.7,0.19863
4303.3,0.19864
4306.8,0.19867
4310.4,0.19869
4314.0,0.19876
4317.6,0.1988
4321.2,0.19887
4324.8,0.1989
4328.4,0.19897
4332.0,0.19901
4335.6,0.19909
4339.3,0.19915
4342.9,0.19924
4346.5,0.19928
4350.2,0.19937
4353.8,0.19947
4357.5,0.19958
4361.1,0.19965
4364.8,0.19977
4368.5,0.19984
4372.2,0.19993
4375.9,0.2
4379.6,0.20012
4383.3,0.20022
4387.0,0.20035
4390.7,0.20047
4394.4,0.20058
4398.1,0.20064
4401.9,0.20075
4405.6,0.20082
4409.4,0.20087
4413.1,0.20092
4416.9,0.20105
4420.6,0.2011
4424.4,0.2012
4428.2,0.20127
4432.0,0.20134
4435.8,0.20141
4439.6,0.20152
4443.4,0.20158
4447.2,0.20167
4451.0,0.20169
4454.8,0.20175
4458.6,0.20174
4462.5,0.2017
4466.3,0.20165
4470.2,0.20163
4474.0,0.20155
4477.9,0.20149
4481.8,0.20145
4485.6,0.20152
4489.5,0.20157
4493.4,0.20163
4497.3,0.20175
4501.2,0.20203
4505.1,0.20235
4509.0,0.20275
4513.0,0.20311
4516.9,0.20344
4520.8,0.20372
4524.8,0.20399
4528.7,0.20417
4532.7,0.20435
4536.7,0.20448
4540.6,0.20461
4544.6,0.2047
4548.6,0.20481
4552.6,0.20483
4556.6,0.20486
4560.6,0.20486
4564.6,0.20491
4568.6,0.20489
4572.7,0.20489
4576.7,0.20485
4580.8,0.20485
4584.8,0.2048
4588.9,0.20477
4592.9,0.20473
4597.0,0.20471
4601.1,0.20458
4605.2,0.20449
4609.3,0.20435
4613.4,0.20423
4617.5,0.20408
4621.6,0.20395
4625.7,0.20374
4629.8,0.20355
4634.0,0.20334
4638.1,0.20323
4642.3,0.20307
4646.4,0.2029
4650.6,0.20274
4654.8,0.20266
4659.0,0.2025
4663.1,0.20238
4667.3,0.20227
4671.5,0.20218
4675.8,0.20202
4680.0,0.20188
4684.2,0.20174
4688.4,0.20166
4692.7,0.20149
4696.9,0.20135
4701.2,0.20117
4705.5,0.20104
4709.7,0.20086
4714.0,0.2007
4718.3,0.20048
4722.6,0.20032
4726.9,0.20013
4731.2,0.19995
4735.5,0.1997
4739.9,0.19947
4744.2,0.1992
4748.5,0.19899
4752.9,0.19874
4757.3,0.19847
4761.6,0.19812
4766.0,0.19779
4770.4,0.19743
4774.8,0.19712
4779.2,0.19673
4783.6,0.19635
4788.0,0.19595
4792.4,0.1956
4796.9,0.19518
4801.3,0.1948
4805.8,0.19436
4810.2,0.19399
4814.7,0.19362
4819.1,0.19341
4823.6,0.1932
4828.1,0.19305
4832.6,0.19294
4837.1,0.19296
4841.6,0.19295
4846.2,0.19296
4850.7,0.19291
4855.3,0.19286
4859.8,0.19273
4864.4,0.19266
4868.9,0.19252
4873.5,0.19237
4878.1,0.19214
4882.7,0.19197
4887.3,0.19172
4891.9,0.19146
4896.5,0.1911
4901.1,0.19076
4905.8,0.19035
4910.4,0.18997
4915.1,0.18953
4919.7,0.18915
4924.4,0.18873
4929.1,0.18835
4933.8,0.18797
4938.5,0.18768
4943.2,0.18732
4947.9,0.18708
4952.6,0.18678
4957.4,0.18647
4962.1,0.18607
4966.9,0.18571
4971.6,0.18521
4976.4,0.18468
4981.2,0.18407
4986.0,0.18348
4990.8,0.18281
4995.6,0.1822
5000.4,0.18162
5005.2,0.18117
5010.0,0.18066
5014.9,0.18025
5019.8,0.1799
5024.6,0.17979
5029.5,0.17982
5034.4,0.17996
5039.3,0.17999
5044.2,0.18001
5049.1,0.17992
5054.0,0.17984
5058.9,0.1797
5063.9,0.17959
5068.8,0.1794
5073.8,0.17926
5078.8,0.17908
5083.7,0.17893
5088.7,0.17869
5093.7,0.1785
5098.7,0.1782
5103.7,0.17793
5108.8,0.1776
5113.8,0.17738
5118.9,0.17709
5123.9,0.17686
5129.0,0.17661
5134.1,0.17641
5139.1,0.17615
5144.3,0.176
5149.4,0.17581
5154.5,0.17566
5159.6,0.17545
5164.7,0.1753
5169.9,0.17508
5175.0,0.1749
5180.2,0.17462
5185.4,0.17439
5190.6,0.17408
5195.8,0.17379
5201.0,0.1734
5206.2,0.17304
5211.5,0.17267
5216.7,0.17235
5222.0,0.17195
5227.2,0.17164
5232.5,0.17126
5237.8,0.17094
5243.1,0.17051
5248.4,0.17011
5253.7,0.16958
5259.0,0.1691
5264.4,0.16851
5269.7,0.1679
5275.1,0.16718
5280.5,0.16646
5285.8,0.16556
5291.2,0.16461
5296.6,0.16346
5302.0,0.16221
5307.5,0.16069
5312.9,0.15901
5318.4,0.15702
5323.8,0.15476
5329.3,0.15213
5334.8,0.14927
5340.3,0.14613
5345.8,0.14305
5351.3,0.14002
5356.8,0.13751
5362.4,0.13569
5367.9,0.13464
5373.5,0.13415
5379.0,0.1341
5384.6,0.13409
5390.2,0.13413
5395.8,0.13398
5401.5,0.13376
5407.1,0.13339
5412.7,0.13296
5418.4,0.13237
5424.1,0.13165
5429.7,0.13065
5435.4,0.1297
5441.1,0.1287
5446.9,0.12786
5452.6,0.12716
5458.3,0.12677
5464.1,0.12654
5469.8,0.12653
5475.6,0.12662
5481.4,0.12692
5487.2,0.12719
5493.0,0.12759
5498.8,0.12791
5504.7,0.12832
5510.5,0.12859
5516.4,0.12883
5522.3,0.12887
5528.1,0.12881
5534.0,0.12846
5540.0,0.12803
5545.9,0.12729
5551.8,0.12635
5557.8,0.12507
5563.7,0.12396
5569.7,0.12289
5575.7,0.1219
5581.7,0.12056
5587.7,0.11922
5593.7,0.11814
5599.8,0.11752
5605.8,0.11689
5611.9,0.11631
5618.0,0.11564
5624.1,0.11522
5630.2,0.11491
5636.3,0.11462
5642.4,0.11391
5648.6,0.11293
5654.7,0.11176
5660.9,0.11061
5667.1,0.10935
5673.3,0.10814
5679.5,0.10671
5685.7,0.10539
5692.0,0.10396
5698.2,0.10259
5704.5,0.10117
5710.8,0.09979
5717.1,0.09824
5723.4,0.09678
5729.7,0.09521
5736.0,0.09371
5742.4,0.09211
5748.8,0.09056
5755.1,0.08888
5761.5,0.08749
5768.0,0.08571
5774.4,0.08397
5780.8,0.08229
5787.3,0.0806
5793.7,0.07884
5800.2,0.07716
5806.7,0.07536
5813.2,0.07375
5819.7,0.07199
5826.3,0.07008
5832.8,0.0682
5839.4,0.06648
5846.0,0.06467
5852.6,0.06301
5859.2,0.06136
5865.8,0.05974
5872.5,0.05819
5879.1,0.05678
5885.8,0.05511
5892.5,0.05379
5899.2,0.05225
5905.9,0.05085
5912.6,0.04954
5919.4,0.04825
5926.2,0.04702
5932.9,0.04588
5939.7,0.04456
5946.5,0.04346
5953.4,0.04245
5960.2,0.04154
5967.1,0.0406
5974.0,0.03973
5980.8,0.03901
5987.8,0.03842
5994.7,0.0378
6001.6,0.03729
6008.6,0.03682
6015.5,0.03644
6022.5,0.03607
6029.5,0.03579
6036.5,0.0355
6043.6,0.03529
6050.6,0.03503
6057.7,0.03481
6064.8,0.03465
6071.9,0.03453
6079.0,0.03439
6086.1,0.03429
6093.3,0.03418
6100.5,0.03414
6107.6,0.03409
6114.9,0.03404
6122.1,0.03397
6129.3,0.0339
6136.5,0.03383
6143.8,0.03376
6151.1,0.03371
6158.4,0.03367
6165.7,0.0336
6173.1,0.03356
6180.4,0.03351
6187.8,0.03346
6195.2,0.03336
6202.6,0.03329
6210.0,0.03321
6217.5,0.03315
6225.0,0.03311
6232.4,0.03307
6239.9,0.03303
6247.5,0.03301
6255.0,0.03298
6262.5,0.03297
6270.1,0.03297
6277.7,0.03302
6285.3,0.03316
6293.0,0.03329
6300.6,0.03341
6308.3,0.03354
6315.9,0.03366
6323.6,0.0338
6331.4,0.03392
6339.1,0.03402
6346.9,0.03416
6354.6,0.03424
6362.4,0.03426
6370.3,0.03428
6378.1,0.0343
6385.9,0.03428
6393.8,0.03424
6401.7,0.03421
6409.6,0.03423
6417.6,0.03422
6425.5,0.03416
6433.5,0.03403
6441.5,0.03386
6449.5,0.03374
6457.5,0.03361
6465.6,0.03348
6473.6,0.03334
6481.7,0.03315
6489.8,0.03295
6498.0,0.0327
6506.1,0.03248
6514.3,0.03227
6522.5,0.03203
6530.7,0.03175
6539.0,0.03144
6547.2,0.03114
6555.5,0.03083
6563.8,0.03052
6572.1,0.03022
6580.4,0.02997
6588.8,0.02985
6597.2,0.02983
6605.6,0.02986
6614.0,0.02997
6622.5,0.03009
6630.9,0.03016
6639.4,0.0302
6647.9,0.03026
6656.5,0.03035
6665.0,0.03043
6673.6,0.03057
6682.2,0.03077
6690.8,0.03106
6699.5,0.03143
6708.1,0.03199
6716.8,0.03278
6725.5,0.03378
6734.3,0.0349
6743.0,0.03616
6751.8,0.03745
6760.6,0.03849
6769.4,0.03904
6778.3,0.03918
6787.1,0.03912
6796.0,0.03921
6805.0,0.03954
6813.9,0.04007
6822.9,0.04079
6831.9,0.04173
6840.9,0.04272
6849.9,0.0438
6859.0,0.0449
6868.0,0.0461
6877.2,0.0471
6886.3,0.04811
6895.5,0.049
6904.6,0.04976
6913.8,0.05028
6923.1,0.0505
6932.3,0.05041
6941.6,0.05015
6950.9,0.04978
6960.2,0.04937
6969.6,0.0489
6979.0,0.04863
6988.4,0.04852
6997.8,0.04864
7007.3,0.04892
7016.8,0.04929
7026.3,0.04966
7035.8,0.04999
7045.4,0.05013
7054.9,0.05017
7064.5,0.05018
7074.2,0.05046
7083.9,0.0511
7093.5,0.05201
7103.3,0.053
7113.0,0.05404
7122.8,0.05508
7132.6,0.05633
7142.4,0.05806
7152.2,0.06037
7162.1,0.06279
7172.0,0.06526
7182.0,0.06754
7191.9,0.06974
7201.9,0.07188
7211.9,0.07404
7222.0,0.07593
7232.0,0.07776
7242.1,0.07949
7252.3,0.08121
7262.4,0.08276
7272.6,0.0843
7282.8,0.08578
7293.1,0.08724
7303.3,0.08858
7313.6,0.08995
7324.0,0.09122
7334.3,0.09259
7344.7,0.09385
7355.1,0.09513
7365.6,0.09632
7376.1,0.0976
7386.6,0.09883
7397.1,0.10009
7407.7,0.10123
7418.3,0.10239
7428.9,0.10335
7439.6,0.10423
7450.2,0.105
7461.0,0.10582
7471.7,0.10645
7482.5,0.10704
7493.3,0.10751
7504.2,0.10802
7515.0,0.10845
7525.9,0.10894
7536.9,0.10943
7547.9,0.11007
7558.9,0.11069
7569.9,0.11143
7581.0,0.11218
7592.0,0.11308
7603.2,0.11395
7614.4,0.11487
7625.5,0.1158
7636.8,0.11676
7648.0,0.11761
7659.3,0.11849
7670.7,0.11923
7682.0,0.11995
7693.4,0.12052
7704.9,0.12108
7716.3,0.12151
7727.8,0.12193
7739.4,0.1222
7750.9,0.12248
7762.5,0.12268
7774.2,0.1229
7785.8,0.12296
7797.5,0.12303
7809.3,0.12306
7821.1,0.12311
7832.9,0.12304
7844.7,0.12301
7856.6,0.12289
7868.5,0.12285
7880.5,0.12277
7892.5,0.12276
7904.5,0.12277
7916.6,0.12279
7928.7,0.12273
7940.8,0.12271
7953.0,0.12249
7965.2,0.12224
7977.5,0.12188
7989.8,0.12163
8002.1,0.12131
8014.5,0.12104
8026.9,0.12081
8039.3,0.12066
8051.8,0.1204
8064.3,0.12018
8076.9,0.11992
8089.5,0.11971
8102.1,0.11944
8114.8,0.11925
8127.5,0.11902
8140.3,0.11878
8153.1,0.11848
8165.9,0.11819
8178.8,0.11781
8191.7,0.11745
8204.7,0.11701
8217.7,0.11663
8230.7,0.11615
8243.8,0.11574
8256.9,0.11532
8270.1,0.11503
8283.3,0.11478
8296.6,0.11456
8309.9,0.11437
8323.2,0.11424
8336.6,0.11406
8350.0,0.11391
8363.5,0.11371
8377.0,0.11356
8390.5,0.11336
8404.2,0.11314
8417.8,0.11286
8431.5,0.1126
8445.2,0.11233
8459.0,0.11209
8472.8,0.11178
8486.7,0.11156
8500.6,0.11132
8514.5,0.11108
8528.5,0.11071
8542.6,0.11035
8556.7,0.10994
8570.8,0.10952
8585.0,0.109
8599.3,0.10846
8613.5,0.10788
8627.9,0.10737
8642.3,0.10675
8656.7,0.10609
8671.2,0.10537
8685.7,0.10468
8700.3,0.10396
8714.9,0.10319
8729.5,0.10226
8744.3,0.10124
8759.0,0.10002
8773.9,0.09861
8788.7,0.09706
8803.7,0.09524
8818.6,0.09293
8833.7,0.09013
8848.7,0.08659
8863.8,0.08227
8879.0,0.07696
8894.3,0.07103
8909.5,0.0655
8924.9,0.06204
8940.3,0.0615
8955.7,0.06294
8971.2,0.06394
8986.8,0.06274
9002.3,0.06019
9018.0,0.05888
9033.7,0.05888
9049.5,0.05833
9065.3,0.05634
9081.2,0.05351
9097.1,0.05068
9113.1,0.04819
9129.1,0.04606
9145.2,0.04433
9161.4,0.04299
9177.6,0.04196
9193.9,0.04113
9210.2,0.04032
9226.6,0.03959
9243.0,0.03924
9259.6,0.03922
9276.1,0.0392
9292.7,0.03912
9309.4,0.03912
9326.2,0.0392
9343.0,0.03927
9359.8,0.03933
9376.8,0.03936
9393.8,0.03936
9410.8,0.03937
9427.9,0.03929
9445.1,0.03906
9462.3,0.03881
9479.6,0.03851
9497.0,0.03822
9514.4,0.03805
9531.9,0.03809
9549.4,0.03827
9567.0,0.03847
9584.7,0.0387
9602.5,0.03899
9620.3,0.03919
9638.2,0.0393
9656.1,0.03933
9674.2,0.03928
9692.2,0.0391
9710.4,0.03882
9728.6,0.03847
9746.9,0.03804
9765.2,0.03757
9783.7,0.03703
9802.2,0.03652
9820.7,0.03605
9839.4,0.03548
9858.1,0.03481
9876.8,0.03409
9895.7,0.03345
9914.6,0.0328
9933.6,0.03217
9952.7,0.03162
9971.8,0.03106
9991.0,0.03052
10010.3,0.02992
10029.7,0.02936
10049.1,0.0289
10068.6,0.02845
10088.2,0.02804
10107.9,0.02768
10127.6,0.02728
10147.5,0.02687
10167.3,0.02652
10187.3,0.02623
10207.4,0.02602
10227.5,0.02577
10247.7,0.02555
10268.0,0.02536
10288.4,0.0253
10308.8,0.02527
10329.4,0.02521
10350.0,0.02515
10370.7,0.0252
10391.5,0.02527
10412.3,0.02537
10433.3,0.02551
10454.3,0.02569
10475.5,0.02591
10496.7,0.02615
10517.9,0.02639
10539.3,0.0267
10560.8,0.0271
10582.3,0.02759
10604.0,0.02806
10625.7,0.02864
10647.5,0.02935
10669.4,0.03027
10691.4,0.03131
10713.5,0.03242
10735.7,0.0337
10758.0,0.03506
10780.3,0.03644
10802.8,0.03786
10825.4,0.03932
10848.0,0.04075
10870.8,0.04209
10893.6,0.04322
10916.5,0.04414
10939.5,0.04494
10962.7,0.04573
10985.9,0.04644
11009.2,0.04712
11032.7,0.04786
11056.2,0.04853
11079.8,0.04908
11103.5,0.04948
11127.4,0.04968
11151.3,0.04971
11175.3,0.04959
11199.5,0.04928
11223.7,0.04826
11248.0,0.04527
11272.5,0.03959
11297.0,0.03515
11321.7,0.0359
11346.5,0.03923
11371.4,0.04162
11396.4,0.04256
11421.5,0.04283
11446.7,0.04285
11472.0,0.04248
11497.5,0.04171
11523.0,0.04046
11548.7,0.03874
11574.4,0.03664
11600.3,0.03436
11626.3,0.03223
11652.5,0.03048
11678.7,0.02925
11705.1,0.02904
11731.6,0.03038
11758.2,0.03307
11784.9,0.03589
11811.7,0.03743
11838.7,0.03776
11865.8,0.03771
11893.0,0.03759
11920.3,0.03719
11947.8,0.03662
11975.4,0.036
12003.1,0.03531
12031.0,0.03454
12059.0,0.03381
12087.1,0.03316
12115.3,0.0324
12143.7,0.03149
12172.2,0.03057
12200.8,0.02968
12229.6,0.02883
12258.5,0.02798
12287.6,0.02711
12316.8,0.02632
12346.1,0.02569
12375.5,0.02498
12405.1,0.02432
12434.9,0.02382
12464.8,0.02342
12494.8,0.023
12525.0,0.02263
12555.3,0.02252
12585.8,0.02263
12616.4,0.02273
12647.2,0.02276
12678.1,0.02285
12709.2,0.02313
12740.4,0.02346
12771.8,0.02382
12803.3,0.02412
12835.0,0.0244
12866.9,0.02469
12898.9,0.02483
12931.1,0.02481
12963.4,0.0248
12995.9,0.02479
13028.5,0.02456
13061.3,0.02414
13094.3,0.02354
13127.5,0.02292
13160.8,0.02234
13194.3,0.02176
13227.9,0.02108
13261.8,0.0203
13295.8,0.01965
13330.0,0.01907
13364.3,0.01853
13398.8,0.0181
13433.6,0.01785
13468.5,0.01779
13503.5,0.01777
13538.8,0.01764
13574.2,0.01732
13609.9,0.01684
13645.7,0.01654
13681.7,0.01629
13717.9,0.0162
13754.3,0.01614
13790.8,0.01594
13827.6,0.01567
13864.6,0.01532
13901.8,0.01486
13939.1,0.01454
13976.7,0.01446
14014.5,0.01462
14052.5,0.01483
14090.7,0.01497
14129.0,0.01511
14167.6,0.01528
14206.5,0.01536
14245.5,0.01539
14284.7,0.01556
14324.2,0.01599
14363.9,0.01635
14403.8,0.01657
14443.9,0.01678
14484.3,0.01717
14524.8,0.01763
14565.6,0.01799
14606.7,0.01838
14647.9,0.01896
14689.4,0.01946
14731.2,0.02002
14773.1,0.02063
14815.3,0.02116
14857.8,0.02144
14900.5,0.02133
14943.4,0.02097
14986.6,0.02075
15030.0,0.02082
15073.7,0.0208
15117.7,0.02088
15161.9,0.02081
15206.3,0.0206
15251.1,0.02053
15296.1,0.0206
15341.3,0.02072
15386.8,0.02079
15432.6,0.02073
15478.7,0.02066
15525.0,0.02068
15571.7,0.02059
15618.6,0.02062
15665.8,0.0208
15713.2,0.02098
15761.0,0.02109
15809.0,0.02108
15857.4,0.02114
15906.0,0.02127
15955.0,0.02133
16004.2,0.02137
16053.8,0.02149
16103.6,0.02153
16153.8,0.02169
16204.3,0.02199
16255.1,0.02218
16306.2,0.02222
16357.6,0.02223
16409.4,0.02241
16461.5,0.02253
16513.9,0.02261
16566.7,0.02261
16619.8,0.02257
16673.2,0.02259
16727.0,0.02256
16781.1,0.02242
16835.6,0.02227
16890.5,0.02218
16945.7,0.02207
17001.2,0.02184
17057.2,0.02185
17113.4,0.02194
17170.1,0.02181
17227.2,0.02169
17284.6,0.02177
17342.4,0.02172
17400.6,0.02174
17459.2,0.02177
17518.2,0.02165
17577.5,0.02138
17637.3,0.02139
17697.5,0.02117
17758.1,0.02118
17819.2,0.0213
17880.6,0.02106
17942.5,0.02093
18004.8,0.02096
18067.5,0.02082
18130.7,0.02098
18194.3,0.02115
18258.4,0.02088
18322.9,0.0204
18387.9,0.02023
18453.3,0.02011
18519.2,0.01998
18585.6,0.01997
18652.4,0.01986
18719.8,0.0197
18787.6,0.01967
18855.9,0.01959
18924.7,0.01913
18994.1,0.019
19063.9,0.01971
19134.2,0.02009
19205.1,0.01996
19276.5,0.02001
19348.4,0.02087
19420.9,0.02167
19493.9,0.02191
19567.5,0.02216
19641.6,0.02253
19716.3,0.023
19791.5,0.02355
19867.3,0.02388
19943.8,0.02451
20020.8,0.02538
20098.4,0.02599
20176.6,0.02647
20255.4,0.02704
20334.8,0.02773
20414.9,0.02858
20495.6,0.029
20576.9,0.02938
20658.9,0.02989
20741.5,0.03051
20824.8,0.03083
20908.8,0.03101
20993.4,0.03146
21078.8,0.03214
21164.8,0.03261
21251.6,0.03279
21339.0,0.03297
21427.2,0.03316
21516.1,0.03295
21605.8,0.03248
21696.2,0.03203
21787.3,0.03225
21879.3,0.03243
21972.0,0.03351
22065.5,0.03461
22159.7,0.03499
22254.8,0.03585
22350.8,0.0365
22447.5,0.03627
22545.1,0.0368
22643.6,0.03763
22742.9,0.03801
22843.1,0.03848
22944.2,0.03856
23046.2,0.03835
23149.0,0.03773
23252.8,0.03691
23357.6,0.03717
23463.3,0.03801
23569.9,0.03795
23677.5,0.03747
23786.1,0.03652
23895.8,0.03591
24006.4,0.03638
24118.0,0.03666
24230.7,0.03648
24344.5,0.03528
24459.4,0.03284
24575.3,0.0323
24692.3,0.03221
24810.4,0.03122
24929.7,0.03126
25050.2,0.0312
