Database of Origin,University of Winnipeg Spectrophotometer Facility
Sample Description,Carbonaceous chondrites - RELAB archive 3. CK chondrites
Date Added,2018-07-23 23:44:51.079522

Data ID,RLA_MET_34_13       
Sample ID,EET92002/10
Mineral Name,CK Chondrite
Grain Size,<500 um
Viewing Geometry,30/0
Material Class,CK4

Wavelength
305.0,0.056101
310.0,0.056744
315.0,0.058738
320.0,0.060158
325.0,0.062279
330.0,0.063912
335.0,0.065685
340.0,0.069487
345.0,0.072535
350.0,0.075033
355.0,0.078118
360.0,0.079913
365.0,0.082511
370.0,0.084818
375.0,0.086829
380.0,0.088283
385.0,0.090076
390.0,0.091477
395.0,0.093256
400.0,0.094764
405.0,0.096099
410.0,0.097429
415.0,0.098956
420.0,0.100079
425.0,0.101011
430.0,0.101672
435.0,0.102422
440.0,0.102849
445.0,0.103261
450.0,0.103385
455.0,0.103506
460.0,0.103484
465.0,0.103721
470.0,0.104065
475.0,0.104675
480.0,0.105171
485.0,0.105812
490.0,0.105558
495.0,0.105745
500.0,0.105981
505.0,0.106319
510.0,0.10674
515.0,0.106994
520.0,0.107035
525.0,0.107049
530.0,0.107486
535.0,0.107365
540.0,0.107569
545.0,0.10745
550.0,0.10753
555.0,0.107338
560.0,0.107554
565.0,0.107404
570.0,0.107216
575.0,0.107061
580.0,0.106936
585.0,0.10697
590.0,0.106618
595.0,0.106425
600.0,0.106424
605.0,0.106173
610.0,0.106263
615.0,0.10613
620.0,0.106118
625.0,0.106015
630.0,0.105916
635.0,0.105716
640.0,0.105629
645.0,0.105483
650.0,0.105352
655.0,0.105167
660.0,0.104914
665.0,0.104565
670.0,0.104418
675.0,0.1042
680.0,0.103961
685.0,0.103918
690.0,0.103729
695.0,0.103351
700.0,0.102916
705.0,0.102955
710.0,0.102762
715.0,0.102637
720.0,0.102165
725.0,0.101951
730.0,0.10166
735.0,0.101711
740.0,0.101442
745.0,0.100947
750.0,0.100931
755.0,0.100896
760.0,0.099902
765.0,0.099505
770.0,0.099548
775.0,0.099053
780.0,0.098579
785.0,0.097565
790.0,0.098105
795.0,0.097236
800.0,0.097437
805.0,0.09643
810.0,0.096459
815.0,0.095519
820.0,0.095572
825.0,0.095183
830.0,0.094911
835.0,0.094161
840.0,0.094045
845.0,0.093956
850.0,0.093382
855.0,0.093212
860.0,0.093799
865.0,0.093286
870.0,0.091959
875.0,0.092136
880.0,0.092299
885.0,0.092377
890.0,0.091573
895.0,0.091093
900.0,0.09069
905.0,0.090774
910.0,0.091073
915.0,0.090459
920.0,0.089684
925.0,0.089635
930.0,0.088909
935.0,0.088758
940.0,0.088189
945.0,0.08768
950.0,0.087508
955.0,0.086721
960.0,0.086427
965.0,0.086138
970.0,0.085531
975.0,0.08516
980.0,0.084632
985.0,0.083969
990.0,0.083503
995.0,0.082772
1000.0,0.082487
1005.0,0.081921
1010.0,0.081574
1015.0,0.081317
1020.0,0.080891
1025.0,0.080478
1030.0,0.080171
1035.0,0.07999
1040.0,0.079609
1045.0,0.079617
1050.0,0.079349
1055.0,0.079107
1060.0,0.079114
1065.0,0.078498
1070.0,0.078441
1075.0,0.078478
1080.0,0.078455
1085.0,0.078395
1090.0,0.078534
1095.0,0.078638
1100.0,0.078862
1105.0,0.078835
1110.0,0.07884
1115.0,0.078983
1120.0,0.079178
1125.0,0.079198
1130.0,0.07924
1135.0,0.079502
1140.0,0.079479
1145.0,0.079385
1150.0,0.079581
1155.0,0.079843
1160.0,0.07971
1165.0,0.079782
1170.0,0.079931
1175.0,0.079649
1180.0,0.079649
1185.0,0.079976
1190.0,0.079811
1195.0,0.079733
1200.0,0.079887
1205.0,0.079834
1210.0,0.08004
1215.0,0.080171
1220.0,0.079769
1225.0,0.079822
1230.0,0.079934
1235.0,0.079546
1240.0,0.079399
1245.0,0.079378
1250.0,0.079629
1255.0,0.079696
1260.0,0.079603
1265.0,0.079193
1270.0,0.079246
1275.0,0.079016
1280.0,0.079133
1285.0,0.079102
1290.0,0.079008
1295.0,0.07918
1300.0,0.079095
1305.0,0.078956
1310.0,0.079114
1315.0,0.079085
1320.0,0.079287
1325.0,0.079052
1330.0,0.079273
1335.0,0.079167
1340.0,0.079358
1345.0,0.079566
1350.0,0.079529
1355.0,0.080154
1360.0,0.080269
1365.0,0.080131
1370.0,0.080031
1375.0,0.079941
1380.0,0.080679
1385.0,0.079945
1390.0,0.079399
1395.0,0.079866
1400.0,0.080346
1405.0,0.080249
1410.0,0.079888
1415.0,0.079943
1420.0,0.080561
1425.0,0.080768
1430.0,0.080613
1435.0,0.080331
1440.0,0.08059
1445.0,0.080349
1450.0,0.080627
1455.0,0.080368
1460.0,0.080173
1465.0,0.080306
1470.0,0.080819
1475.0,0.080675
1480.0,0.080601
1485.0,0.080531
1490.0,0.080413
1495.0,0.080506
1500.0,0.080498
1505.0,0.079998
1510.0,0.080128
1515.0,0.080416
1520.0,0.080416
1525.0,0.080165
1530.0,0.080369
1535.0,0.080305
1540.0,0.080365
1545.0,0.080254
1550.0,0.080473
1555.0,0.080626
1560.0,0.080585
1565.0,0.080791
1570.0,0.080712
1575.0,0.0805
1580.0,0.080498
1585.0,0.080561
1590.0,0.080385
1595.0,0.080558
1600.0,0.080356
1605.0,0.080431
1610.0,0.080604
1615.0,0.080445
1620.0,0.080545
1625.0,0.080409
1630.0,0.080338
1635.0,0.080363
1640.0,0.080311
1645.0,0.08029
1650.0,0.080266
1655.0,0.080141
1660.0,0.081136
1665.0,0.081333
1670.0,0.081092
1675.0,0.080601
1680.0,0.080463
1685.0,0.080645
1690.0,0.08024
1695.0,0.080372
1700.0,0.080524
1705.0,0.080678
1710.0,0.080147
1715.0,0.080259
1720.0,0.079859
1725.0,0.080254
1730.0,0.079823
1735.0,0.079593
1740.0,0.079468
1745.0,0.079478
1750.0,0.079622
1755.0,0.079317
1760.0,0.079929
1765.0,0.079621
1770.0,0.079164
1775.0,0.07889
1780.0,0.079031
1785.0,0.079039
1790.0,0.078993
1795.0,0.078848
1800.0,0.078922
1805.0,0.078546
1810.0,0.078765
1815.0,0.078728
1820.0,0.078293
1825.0,0.078559
1830.0,0.07813
1835.0,0.078567
1840.0,0.078226
1845.0,0.077872
1850.0,0.077921
1855.0,0.077931
1860.0,0.0779
1865.0,0.078011
1870.0,0.078236
1875.0,0.077223
1880.0,0.077216
1885.0,0.077496
1890.0,0.077057
1895.0,0.077207
1900.0,0.077448
1905.0,0.077182
1910.0,0.076893
1915.0,0.076957
1920.0,0.076744
1925.0,0.076421
1930.0,0.076187
1935.0,0.076395
1940.0,0.076244
1945.0,0.076395
1950.0,0.076303
1955.0,0.076618
1960.0,0.076071
1965.0,0.076219
1970.0,0.076432
1975.0,0.076014
1980.0,0.07609
1985.0,0.075527
1990.0,0.075746
1995.0,0.07547
2000.0,0.075703
2005.0,0.075872
2010.0,0.075634
2015.0,0.075796
2020.0,0.075751
2025.0,0.075228
2030.0,0.076019
2035.0,0.075418
2040.0,0.075018
2045.0,0.074983
2050.0,0.075232
2055.0,0.075038
2060.0,0.074209
2065.0,0.073943
2070.0,0.074644
2075.0,0.07441
2080.0,0.074842
2085.0,0.074611
2090.0,0.074059
2095.0,0.074611
2100.0,0.074158
2105.0,0.07423
2110.0,0.074448
2115.0,0.074537
2120.0,0.074173
2125.0,0.07408
2130.0,0.073972
2135.0,0.074319
2140.0,0.073686
2145.0,0.073677
2150.0,0.073743
2155.0,0.073773
2160.0,0.07377
2165.0,0.074025
2170.0,0.073528
2175.0,0.073888
2180.0,0.07351
2185.0,0.073713
2190.0,0.073424
2195.0,0.073501
2200.0,0.073454
2205.0,0.073615
2210.0,0.073315
2215.0,0.073074
2220.0,0.073242
2225.0,0.073355
2230.0,0.072989
2235.0,0.07313
2240.0,0.073123
2245.0,0.073119
2250.0,0.07287
2255.0,0.072822
2260.0,0.073181
2265.0,0.07289
2270.0,0.073076
2275.0,0.072535
2280.0,0.072433
2285.0,0.072136
2290.0,0.072684
2295.0,0.072255
2300.0,0.071711
2305.0,0.072154
2310.0,0.072071
2315.0,0.072159
2320.0,0.072038
2325.0,0.072149
2330.0,0.072128
2335.0,0.072119
2340.0,0.071988
2345.0,0.072339
2350.0,0.072252
2355.0,0.072038
2360.0,0.072089
2365.0,0.071794
2370.0,0.072012
2375.0,0.071884
2380.0,0.071459
2385.0,0.071432
2390.0,0.071225
2395.0,0.071365
2400.0,0.071257
2405.0,0.071152
2410.0,0.071242
2415.0,0.071145
2420.0,0.071241
2425.0,0.070943
2430.0,0.070964
2435.0,0.071407
2440.0,0.071038
2445.0,0.07106
2450.0,0.07068
2455.0,0.070934
2460.0,0.070811
2465.0,0.070808
2470.0,0.070782
2475.0,0.070664
2480.0,0.070634
2485.0,0.070528
2490.0,0.070102
2495.0,0.070475
2500.0,0.070436
2505.0,0.070573
2510.0,0.070441
2515.0,0.070659
2520.0,0.070333
2525.0,0.070945
2530.0,0.071391
2535.0,0.070667
2540.0,0.07045
2545.0,0.071207
2550.0,0.070998
2555.0,0.070045
2560.0,0.071403
2565.0,0.070751
2570.0,0.071196
2575.0,0.071143
2580.0,0.070956
2585.0,0.070089
2590.0,0.069317
2595.0,0.070223
2600.0,0.070225
