Database of Origin,University of Winnipeg Spectrophotometer Facility
Sample Description,"Zeolites: RELAB + Nicolet spectra, Merged at 2.5 microns; note change in viewing geometry"
Date Added,2018-07-23 23:09:47.765722

Data ID,RLA_ZEO_1_20        
Sample ID,zeo124
Mineral Name,phillipsite
Grain Size,<45 um
Viewing Geometry,"30/0,30"
Resolution,5/.6-129 nm

Wavelength
305.0,0.212193
310.0,0.216863
315.0,0.225579
320.0,0.232869
325.0,0.240594
330.0,0.250884
335.0,0.261094
340.0,0.272584
345.0,0.283254
350.0,0.294599
355.0,0.307209
360.0,0.320574
365.0,0.334068
370.0,0.349858
375.0,0.366116
380.0,0.383118
385.0,0.398658
390.0,0.413526
395.0,0.425715
400.0,0.437675
405.0,0.446294
410.0,0.454459
415.0,0.462559
420.0,0.472064
425.0,0.483576
430.0,0.495654
435.0,0.50925
440.0,0.521017
445.0,0.534109
450.0,0.542931
455.0,0.553961
460.0,0.559907
465.0,0.56666
470.0,0.570793
475.0,0.57505
480.0,0.578868
485.0,0.586301
490.0,0.590911
495.0,0.598812
500.0,0.606588
505.0,0.615956
510.0,0.625291
515.0,0.634417
520.0,0.643612
525.0,0.652665
530.0,0.659721
535.0,0.667045
540.0,0.672704
545.0,0.678703
550.0,0.683532
555.0,0.688779
560.0,0.693431
565.0,0.698161
570.0,0.702061
575.0,0.704391
580.0,0.707448
585.0,0.709906
590.0,0.713658
595.0,0.715185
600.0,0.717218
605.0,0.719365
610.0,0.7216
615.0,0.723746
620.0,0.725978
625.0,0.728011
630.0,0.729254
635.0,0.731263
640.0,0.732983
645.0,0.734028
650.0,0.73665
655.0,0.739143
660.0,0.741872
665.0,0.741208
670.0,0.745419
675.0,0.745897
680.0,0.749129
685.0,0.749148
690.0,0.751777
695.0,0.752321
700.0,0.755049
705.0,0.756229
710.0,0.756318
715.0,0.758952
720.0,0.76122
725.0,0.762246
730.0,0.762932
735.0,0.76369
740.0,0.766143
745.0,0.768507
750.0,0.768356
755.0,0.768974
760.0,0.770284
765.0,0.771977
770.0,0.772162
775.0,0.77502
780.0,0.773622
785.0,0.777152
790.0,0.774955
795.0,0.778198
800.0,0.777136
805.0,0.779391
810.0,0.779569
815.0,0.778658
820.0,0.779221
825.0,0.779131
830.0,0.779514
835.0,0.778505
840.0,0.779223
845.0,0.779639
850.0,0.778986
855.0,0.778732
860.0,0.774988
865.0,0.778273
870.0,0.775747
875.0,0.776458
880.0,0.775943
885.0,0.774862
890.0,0.774894
895.0,0.77538
900.0,0.777115
905.0,0.776468
910.0,0.775569
915.0,0.775617
920.0,0.77791
925.0,0.777033
930.0,0.778036
935.0,0.777716
940.0,0.779175
945.0,0.777606
950.0,0.779297
955.0,0.77883
960.0,0.77862
965.0,0.778914
970.0,0.780701
975.0,0.78049
980.0,0.781323
985.0,0.781515
990.0,0.78152
995.0,0.783398
1000.0,0.782226
1005.0,0.781742
1010.0,0.781905
1015.0,0.783873
1020.0,0.784013
1025.0,0.783313
1030.0,0.784094
1035.0,0.782532
1040.0,0.784987
1045.0,0.78532
1050.0,0.784841
1055.0,0.785733
1060.0,0.783966
1065.0,0.785119
1070.0,0.786115
1075.0,0.786218
1080.0,0.785979
1085.0,0.786942
1090.0,0.786731
1095.0,0.786243
1100.0,0.786128
1105.0,0.787442
1110.0,0.786431
1115.0,0.787501
1120.0,0.786809
1125.0,0.787173
1130.0,0.786286
1135.0,0.789078
1140.0,0.786687
1145.0,0.786899
1150.0,0.78384
1155.0,0.785215
1160.0,0.783257
1165.0,0.785702
1170.0,0.785734
1175.0,0.786101
1180.0,0.787401
1185.0,0.788371
1190.0,0.789337
1195.0,0.789372
1200.0,0.790861
1205.0,0.788488
1210.0,0.79147
1215.0,0.791179
1220.0,0.791086
1225.0,0.792398
1230.0,0.794271
1235.0,0.793111
1240.0,0.794894
1245.0,0.795227
1250.0,0.79621
1255.0,0.796585
1260.0,0.796116
1265.0,0.79672
1270.0,0.79689
1275.0,0.797666
1280.0,0.79656
1285.0,0.796602
1290.0,0.796255
1295.0,0.796125
1300.0,0.795842
1305.0,0.796033
1310.0,0.796724
1315.0,0.79516
1320.0,0.796863
1325.0,0.795402
1330.0,0.795033
1335.0,0.792991
1340.0,0.795838
1345.0,0.791685
1350.0,0.790814
1355.0,0.792364
1360.0,0.789382
1365.0,0.785502
1370.0,0.785163
1375.0,0.781501
1380.0,0.782434
1385.0,0.76982
1390.0,0.765524
1395.0,0.76152
1400.0,0.747546
1405.0,0.735183
1410.0,0.717458
1415.0,0.710749
1420.0,0.705481
1425.0,0.706921
1430.0,0.709523
1435.0,0.716508
1440.0,0.722778
1445.0,0.730613
1450.0,0.736119
1455.0,0.739541
1460.0,0.740441
1465.0,0.741717
1470.0,0.742836
1475.0,0.745649
1480.0,0.751122
1485.0,0.755696
1490.0,0.760929
1495.0,0.762996
1500.0,0.768101
1505.0,0.770649
1510.0,0.773898
1515.0,0.774902
1520.0,0.778885
1525.0,0.778838
1530.0,0.781473
1535.0,0.780918
1540.0,0.783728
1545.0,0.783622
1550.0,0.785753
1555.0,0.784894
1560.0,0.786716
1565.0,0.786277
1570.0,0.788068
1575.0,0.788879
1580.0,0.790665
1585.0,0.789827
1590.0,0.790373
1595.0,0.792976
1600.0,0.790882
1605.0,0.792093
1610.0,0.792091
1615.0,0.792681
1620.0,0.794863
1625.0,0.793747
1630.0,0.793644
1635.0,0.795629
1640.0,0.794885
1645.0,0.795506
1650.0,0.794839
1655.0,0.796909
1660.0,0.795907
1665.0,0.79673
1670.0,0.795851
1675.0,0.798213
1680.0,0.797759
1685.0,0.798759
1690.0,0.796925
1695.0,0.797996
1700.0,0.796434
1705.0,0.796075
1710.0,0.795889
1715.0,0.795406
1720.0,0.795295
1725.0,0.793232
1730.0,0.793445
1735.0,0.791684
1740.0,0.791147
1745.0,0.7895
1750.0,0.788891
1755.0,0.788197
1760.0,0.788013
1765.0,0.785616
1770.0,0.784952
1775.0,0.784336
1780.0,0.783929
1785.0,0.783343
1790.0,0.782338
1795.0,0.781185
1800.0,0.780684
1805.0,0.78002
1810.0,0.780495
1815.0,0.778183
1820.0,0.778399
1825.0,0.777918
1830.0,0.777937
1835.0,0.775927
1840.0,0.775068
1845.0,0.774194
1850.0,0.771661
1855.0,0.76877
1860.0,0.765092
1865.0,0.759359
1870.0,0.751398
1875.0,0.738792
1880.0,0.721208
1885.0,0.697837
1890.0,0.664745
1895.0,0.619777
1900.0,0.571377
1905.0,0.526466
1910.0,0.497441
1915.0,0.48578
1920.0,0.488861
1925.0,0.501801
1930.0,0.51961
1935.0,0.538678
1940.0,0.554043
1945.0,0.567294
1950.0,0.579083
1955.0,0.588441
1960.0,0.59705
1965.0,0.60396
1970.0,0.61144
1975.0,0.617954
1980.0,0.625108
1985.0,0.631941
1990.0,0.639737
1995.0,0.647685
2000.0,0.655719
2005.0,0.663212
2010.0,0.670233
2015.0,0.677823
2020.0,0.683957
2025.0,0.690473
2030.0,0.696312
2035.0,0.700516
2040.0,0.704304
2045.0,0.707823
2050.0,0.710725
2055.0,0.712492
2060.0,0.715733
2065.0,0.717193
2070.0,0.718498
2075.0,0.720328
2080.0,0.721608
2085.0,0.722472
2090.0,0.72364
2095.0,0.724923
2100.0,0.725292
2105.0,0.725722
2110.0,0.726987
2115.0,0.72789
2120.0,0.728906
2125.0,0.730498
2130.0,0.731661
2135.0,0.732289
2140.0,0.732647
2145.0,0.733372
2150.0,0.733895
2155.0,0.733937
2160.0,0.734005
2165.0,0.732376
2170.0,0.731653
2175.0,0.730571
2180.0,0.729502
2185.0,0.728278
2190.0,0.727053
2195.0,0.724915
2200.0,0.723205
2205.0,0.719956
2210.0,0.717885
2215.0,0.717925
2220.0,0.71819
2225.0,0.718554
2230.0,0.71643
2235.0,0.716524
2240.0,0.715983
2245.0,0.714372
2250.0,0.714071
2255.0,0.713469
2260.0,0.712696
2265.0,0.712687
2270.0,0.712696
2275.0,0.711489
2280.0,0.710134
2285.0,0.707957
2290.0,0.705727
2295.0,0.702649
2300.0,0.699483
2305.0,0.697538
2310.0,0.69358
2315.0,0.689968
2320.0,0.685884
2325.0,0.681887
2330.0,0.677268
2335.0,0.672375
2340.0,0.667896
2345.0,0.662148
2350.0,0.655729
2355.0,0.64932
2360.0,0.643583
2365.0,0.637242
2370.0,0.630813
2375.0,0.624638
2380.0,0.617799
2385.0,0.610899
2390.0,0.604823
2395.0,0.598046
2400.0,0.591288
2405.0,0.584743
2410.0,0.578198
2415.0,0.571354
2420.0,0.564925
2425.0,0.55877
2430.0,0.552573
2435.0,0.547117
2440.0,0.541559
2445.0,0.536441
2450.0,0.530426
2455.0,0.525673
2460.0,0.520239
2465.0,0.515799
2470.0,0.511312
2475.0,0.506913
2480.0,0.508685
2485.0,0.497266
2490.0,0.492843
2495.0,0.487578
2500.0,0.483015
2505.0,0.478004
2510.0,0.473923
2515.0,0.469202
2520.0,0.464783
2525.0,0.460762
2530.0,0.457706
2535.0,0.454325
2540.0,0.451211
2545.0,0.44784
2550.0,0.44473
2555.0,0.442281
2560.0,0.438952
2565.0,0.435521
2570.0,0.433764
2575.0,0.430495
2580.0,0.428882
2581.74,0.428011
2583.03,0.427983
2584.31,0.42736
2585.6,0.427042
2586.89,0.426794
2588.19,0.42539
2589.48,0.425241
2590.77,0.425372
2592.07,0.42483
2593.36,0.423875
2594.66,0.421575
2595.96,0.421142
2597.26,0.423701
2598.56,0.423659
2599.87,0.421347
2601.17,0.419675
2602.48,0.419156
2603.78,0.418874
2605.09,0.417785
2606.4,0.41709
2607.71,0.418133
2609.03,0.417819
2610.34,0.41668
2611.66,0.416382
2612.97,0.415731
2614.29,0.414707
2615.61,0.413919
2616.93,0.412659
2618.25,0.41207
2619.57,0.412535
2620.9,0.411195
2622.22,0.40994
2623.55,0.409752
2624.88,0.409181
2626.21,0.407579
2627.54,0.406594
2628.87,0.40705
2630.21,0.405631
2631.54,0.404033
2632.88,0.403873
2634.21,0.403401
2635.55,0.402372
2636.89,0.401387
2638.24,0.400166
2639.58,0.399304
2640.92,0.398006
2642.27,0.396623
2643.62,0.39527
2644.97,0.393941
2646.32,0.392989
2647.67,0.391637
2649.02,0.39047
2650.38,0.389228
2651.73,0.388023
2653.09,0.386095
2654.45,0.384421
2655.81,0.382387
2657.17,0.380445
2658.53,0.37898
2659.89,0.37666
2661.26,0.374794
2662.63,0.372794
2664.0,0.370482
2665.36,0.367618
2666.74,0.365582
2668.11,0.363549
2669.48,0.360095
2670.86,0.354077
2672.23,0.349547
2673.61,0.34636
2674.99,0.341645
2676.37,0.3367
2677.76,0.332366
2679.14,0.329817
2680.52,0.326842
2681.91,0.324545
2683.3,0.322003
2684.69,0.319347
2686.08,0.316462
2687.47,0.313045
2688.87,0.309435
2690.26,0.305792
2691.66,0.301238
2693.06,0.29626
2694.46,0.290794
2695.86,0.285365
2697.26,0.279522
2698.66,0.273574
2700.07,0.267839
2701.48,0.261807
2702.89,0.255401
2704.3,0.249617
2705.71,0.243644
2707.12,0.237692
2708.53,0.231686
2709.95,0.225544
2711.37,0.219777
2712.79,0.214719
2714.21,0.208918
2715.63,0.202282
2717.05,0.195792
2718.48,0.189587
2719.9,0.183572
2721.33,0.177302
2722.76,0.171726
2724.19,0.165824
2725.62,0.159728
2727.06,0.154303
2728.49,0.149042
2729.93,0.143979
2731.37,0.138596
2732.81,0.133434
2734.25,0.129012
2735.69,0.124954
2737.14,0.12109
2738.58,0.117237
2740.03,0.113138
2741.48,0.109883
2742.93,0.107319
2744.38,0.104728
2745.83,0.102276
2747.29,0.09983
2748.75,0.098229
2750.2,0.096778
2751.66,0.095195
2753.13,0.093753
2754.59,0.092658
2756.05,0.091121
2757.52,0.089824
2758.99,0.089257
2760.46,0.088932
2761.93,0.088122
2763.4,0.087603
2764.87,0.087593
2766.35,0.087191
2767.82,0.086497
2769.3,0.086235
2770.78,0.086519
2772.26,0.086322
2773.75,0.085831
2775.23,0.085526
2776.72,0.085465
2778.21,0.085589
2779.7,0.085742
2781.19,0.085357
2782.68,0.084795
2784.18,0.084585
2785.67,0.084808
2787.17,0.084745
2788.67,0.084002
2790.17,0.083652
2791.67,0.083864
2793.18,0.084268
2794.68,0.084551
2796.19,0.08446
2797.7,0.083966
2799.21,0.083928
2800.72,0.084086
2802.24,0.084018
2803.75,0.083758
2805.27,0.08384
2806.79,0.083829
2808.31,0.083914
2809.83,0.084268
2811.35,0.08446
2812.88,0.08437
2814.41,0.084535
2815.93,0.084768
2817.46,0.084587
2819.0,0.084593
2820.53,0.085133
2822.07,0.085718
2823.6,0.085573
2825.14,0.085582
2826.68,0.086108
2828.22,0.086347
2829.77,0.0863
2831.31,0.086598
2832.86,0.087228
2834.41,0.087641
2835.96,0.087998
2837.51,0.08776
2839.07,0.0877
2840.62,0.088171
2842.18,0.088632
2843.74,0.088832
2845.3,0.089221
2846.86,0.089474
2848.43,0.089526
2849.99,0.089652
2851.56,0.090009
2853.13,0.090329
2854.7,0.090395
2856.27,0.090367
2857.85,0.090841
2859.42,0.091133
2861.0,0.091399
2862.58,0.091746
2864.16,0.09178
2865.75,0.092284
2867.33,0.092528
2868.92,0.092378
2870.51,0.092444
2872.1,0.09269
2873.69,0.092828
2875.28,0.093238
2876.88,0.093597
2878.48,0.093669
2880.07,0.093952
2881.68,0.094327
2883.28,0.094399
2884.88,0.094345
2886.49,0.094712
2888.1,0.095003
2889.71,0.095297
2891.32,0.095419
2892.93,0.095556
2894.55,0.095893
2896.16,0.096407
2897.78,0.0966
2899.4,0.096408
2901.03,0.096604
2902.65,0.096986
2904.28,0.097299
2905.91,0.097329
2907.54,0.097466
2909.17,0.097206
2910.8,0.09731
2912.44,0.097881
2914.07,0.098434
2915.71,0.098829
2917.35,0.098843
2918.99,0.098884
2920.64,0.099123
2922.29,0.09927
2923.93,0.099768
2925.58,0.100342
2927.24,0.100392
2928.89,0.100243
2930.55,0.100252
2932.2,0.100656
2933.86,0.100951
2935.52,0.10122
2937.19,0.101615
2938.85,0.10178
2940.52,0.101933
2942.19,0.102531
2943.86,0.103165
2945.53,0.103398
2947.21,0.103357
2948.88,0.103657
2950.56,0.104109
2952.24,0.104427
2953.92,0.104587
2955.61,0.104989
2957.29,0.105671
2958.98,0.105863
2960.67,0.106093
2962.36,0.106556
2964.06,0.106994
2965.75,0.107422
2967.45,0.107788
2969.15,0.10805
2970.85,0.108296
2972.55,0.108459
2974.26,0.108718
2975.97,0.109535
2977.68,0.110397
2979.39,0.110731
2981.1,0.110932
2982.82,0.111312
2984.53,0.111736
2986.25,0.112138
2987.97,0.1124
2989.7,0.112946
2991.42,0.1139
2993.15,0.114345
2994.88,0.114609
2996.61,0.115054
2998.34,0.115769
3000.08,0.116174
3001.82,0.116368
3003.55,0.117182
3005.3,0.11767
3007.04,0.117986
3008.78,0.118302
3010.53,0.118555
3012.28,0.119385
3014.03,0.120247
3015.79,0.120376
3017.54,0.120534
3019.3,0.121114
3021.06,0.1218
3022.82,0.122139
3024.58,0.122326
3026.35,0.122699
3028.12,0.123319
3029.89,0.123967
3031.66,0.123995
3033.43,0.12425
3035.21,0.124739
3036.99,0.125008
3038.77,0.125376
3040.55,0.125744
3042.33,0.125881
3044.12,0.126046
3045.91,0.126299
3047.7,0.126265
3049.49,0.126401
3051.29,0.126365
3053.08,0.126423
3054.88,0.1264
3056.68,0.126414
3058.49,0.126477
3060.29,0.126387
3062.1,0.12648
3063.91,0.126638
3065.72,0.126577
3067.54,0.126565
3069.35,0.126633
3071.17,0.126541
3072.99,0.126685
3074.81,0.126933
3076.64,0.126936
3078.47,0.12678
3080.29,0.126935
3082.13,0.127207
3083.96,0.127506
3085.79,0.127755
3087.63,0.127852
3089.47,0.1284
3091.31,0.128945
3093.16,0.129233
3095.01,0.129398
3096.85,0.129489
3098.71,0.130003
3100.56,0.130648
3102.41,0.131062
3104.27,0.131755
3106.13,0.132522
3107.99,0.133107
3109.86,0.133703
3111.73,0.134068
3113.59,0.134549
3115.47,0.135256
3117.34,0.136005
3119.21,0.136815
3121.09,0.137485
3122.97,0.13835
3124.86,0.139219
3126.74,0.139837
3128.63,0.140465
3130.52,0.141183
3132.41,0.141973
3134.3,0.14284
3136.2,0.1436
3138.1,0.144288
3140.0,0.145087
3141.9,0.146051
3143.81,0.146864
3145.71,0.147717
3147.62,0.148695
3149.54,0.149645
3151.45,0.150424
3153.37,0.151211
3155.29,0.151902
3157.21,0.152836
3159.13,0.153791
3161.06,0.154717
3162.99,0.155753
3164.92,0.156549
3166.85,0.157378
3168.79,0.15849
3170.72,0.159561
3172.67,0.160368
3174.61,0.161351
3176.55,0.16235
3178.5,0.163382
3180.45,0.164352
3182.4,0.165214
3184.36,0.166214
3186.32,0.167257
3188.27,0.168418
3190.24,0.169566
3192.2,0.17039
3194.17,0.171322
3196.14,0.172365
3198.11,0.173322
3200.08,0.174365
3202.06,0.175352
3204.04,0.176358
3206.02,0.177446
3208.0,0.178604
3209.99,0.17985
3211.98,0.181091
3213.97,0.182035
3215.96,0.183042
3217.96,0.184015
3219.96,0.184913
3221.96,0.18594
3223.96,0.1871
3225.97,0.188429
3227.98,0.18956
3229.99,0.190556
3232.0,0.191696
3234.02,0.192881
3236.04,0.193741
3238.06,0.194797
3240.08,0.195982
3242.11,0.197076
3244.14,0.198246
3246.17,0.199338
3248.2,0.200582
3250.24,0.201744
3252.28,0.20265
3254.32,0.203728
3256.37,0.204997
3258.41,0.20613
3260.46,0.207272
3262.51,0.208647
3264.57,0.209879
3266.63,0.210737
3268.69,0.211804
3270.75,0.213195
3272.81,0.214513
3274.88,0.215394
3276.95,0.216466
3279.02,0.217601
3281.1,0.21873
3283.18,0.220032
3285.26,0.221325
3287.34,0.222666
3289.43,0.223761
3291.51,0.224788
3293.61,0.225989
3295.7,0.227158
3297.8,0.228065
3299.9,0.229169
3302.0,0.230374
3304.1,0.23157
3306.21,0.232737
3308.32,0.233932
3310.43,0.235134
3312.55,0.236234
3314.66,0.237482
3316.79,0.238734
3318.91,0.239857
3321.03,0.240992
3323.16,0.242174
3325.29,0.243513
3327.43,0.244816
3329.57,0.245826
3331.71,0.246933
3333.85,0.248129
3335.99,0.249163
3338.14,0.250271
3340.29,0.251352
3342.45,0.252494
3344.6,0.253747
3346.76,0.255007
3348.92,0.256212
3351.09,0.257501
3353.26,0.258611
3355.43,0.259767
3357.6,0.260783
3359.78,0.261757
3361.96,0.263033
3364.14,0.264346
3366.32,0.265561
3368.51,0.266518
3370.7,0.267619
3372.89,0.268811
3375.09,0.26998
3377.29,0.271303
3379.49,0.272585
3381.69,0.273799
3383.9,0.275147
3386.11,0.276434
3388.32,0.277655
3390.54,0.278759
3392.76,0.279853
3394.98,0.280986
3397.21,0.282081
3399.43,0.283237
3401.66,0.28434
3403.9,0.285473
3406.13,0.2866
3408.37,0.287855
3410.61,0.289114
3412.86,0.29036
3415.11,0.291561
3417.36,0.292881
3419.61,0.294565
3421.87,0.295999
3424.13,0.297249
3426.39,0.298728
3428.66,0.300161
3430.93,0.301563
3433.2,0.302621
3435.48,0.303698
3437.76,0.304768
3440.04,0.305851
3442.32,0.307061
3444.61,0.308417
3446.9,0.309796
3449.19,0.311004
3451.49,0.312146
3453.79,0.313394
3456.09,0.314595
3458.4,0.31572
3460.7,0.316995
3463.02,0.318277
3465.33,0.319507
3467.65,0.320645
3469.97,0.321631
3472.29,0.322649
3474.62,0.323852
3476.95,0.324854
3479.29,0.325944
3481.62,0.327168
3483.96,0.328213
3486.3,0.329082
3488.65,0.330174
3491.0,0.331371
3493.35,0.332526
3495.71,0.333736
3498.07,0.334962
3500.43,0.336296
3502.79,0.337544
3505.16,0.339018
3507.53,0.340631
3509.91,0.342083
3512.29,0.343182
3514.67,0.344245
3517.05,0.345344
3519.44,0.346464
3521.83,0.347548
3524.23,0.348651
3526.62,0.349741
3529.02,0.351028
3531.43,0.352398
3533.83,0.353719
3536.24,0.355062
3538.66,0.35624
3541.08,0.357361
3543.5,0.358355
3545.92,0.35935
3548.35,0.360501
3550.78,0.361754
3553.21,0.362812
3555.65,0.363831
3558.09,0.364952
3560.53,0.366097
3562.98,0.367137
3565.43,0.368271
3567.88,0.369307
3570.34,0.370306
3572.8,0.371501
3575.27,0.37251
3577.73,0.37341
3580.2,0.374331
3582.68,0.375446
3585.16,0.376586
3587.64,0.377672
3590.12,0.378719
3592.61,0.3798
3595.1,0.380829
3597.6,0.381815
3600.09,0.382653
3602.6,0.3835
3605.1,0.384565
3607.61,0.385614
3610.12,0.386404
3612.64,0.38723
3615.16,0.388221
3617.68,0.389249
3620.21,0.390305
3622.74,0.391332
3625.27,0.392212
3627.81,0.393226
3630.35,0.394171
3632.89,0.39488
3635.44,0.395674
3637.99,0.396523
3640.54,0.397277
3643.1,0.398237
3645.66,0.399132
3648.23,0.39997
3650.8,0.400897
3653.37,0.401909
3655.95,0.402732
3658.53,0.403593
3661.11,0.404351
3663.7,0.4052
3666.29,0.406103
3668.89,0.406892
3671.48,0.407726
3674.09,0.408726
3676.69,0.40959
3679.3,0.410391
3681.91,0.411184
3684.53,0.411965
3687.15,0.412773
3689.78,0.413571
3692.4,0.414251
3695.04,0.414955
3697.67,0.41554
3700.31,0.416413
3702.95,0.417375
3705.6,0.418079
3708.25,0.418779
3710.91,0.419627
3713.56,0.420505
3716.23,0.421341
3718.89,0.421955
3721.56,0.422551
3724.23,0.423239
3726.91,0.424061
3729.59,0.424744
3732.28,0.425449
3734.97,0.426022
3737.66,0.426738
3740.36,0.427457
3743.06,0.428042
3745.76,0.428757
3748.47,0.429496
3751.18,0.43027
3753.9,0.431015
3756.62,0.431505
3759.34,0.432159
3762.07,0.432929
3764.8,0.433617
3767.54,0.43406
3770.28,0.434624
3773.02,0.43512
3775.77,0.435556
3778.52,0.436147
3781.28,0.436906
3784.04,0.437477
3786.8,0.437962
3789.57,0.438459
3792.34,0.439012
3795.12,0.439499
3797.9,0.440062
3800.69,0.440524
3803.47,0.440967
3806.27,0.44145
3809.06,0.442003
3811.86,0.442373
3814.67,0.442953
3817.48,0.443641
3820.29,0.444271
3823.11,0.444643
3825.93,0.445187
3828.76,0.445822
3831.59,0.44635
3834.42,0.446645
3837.26,0.447083
3840.1,0.447648
3842.95,0.448047
3845.8,0.448375
3848.65,0.448754
3851.51,0.449099
3854.38,0.44944
3857.24,0.449664
3860.12,0.449998
3862.99,0.45027
3865.87,0.450408
3868.76,0.450742
3871.65,0.450889
3874.54,0.451135
3877.44,0.451404
3880.34,0.451598
3883.25,0.451781
3886.16,0.451876
3889.07,0.452142
3891.99,0.452458
3894.92,0.452735
3897.85,0.452932
3900.78,0.453017
3903.72,0.453157
3906.66,0.453202
3909.6,0.453219
3912.55,0.453417
3915.51,0.453361
3918.47,0.453318
3921.43,0.453236
3924.4,0.453223
3927.38,0.453327
3930.35,0.453288
3933.33,0.453254
3936.32,0.453289
3939.31,0.453316
3942.31,0.453288
3945.31,0.453227
3948.31,0.453171
3951.32,0.453207
3954.34,0.453245
3957.35,0.45313
3960.38,0.452997
3963.41,0.452975
3966.44,0.453158
3969.48,0.453088
3972.52,0.453114
3975.56,0.453367
3978.61,0.453534
3981.67,0.453537
3984.73,0.453661
3987.8,0.453938
3990.87,0.454141
3993.94,0.454182
3997.02,0.454297
4000.1,0.454209
4003.19,0.453979
4006.29,0.453878
4009.39,0.453902
4012.49,0.453832
4015.6,0.453658
4018.71,0.453552
4021.83,0.453313
4024.95,0.452956
4028.08,0.452796
4031.21,0.452629
4034.35,0.452422
4037.49,0.452302
4040.64,0.451959
4043.79,0.45158
4046.94,0.451237
4050.11,0.450851
4053.27,0.450575
4056.44,0.450137
4059.62,0.44956
4062.8,0.449061
4065.99,0.448652
4069.18,0.448436
4072.38,0.448207
4075.58,0.447743
4078.78,0.447099
4082.0,0.446589
4085.21,0.446199
4088.43,0.445747
4091.66,0.445319
4094.89,0.444765
4098.13,0.444219
4101.37,0.443793
4104.62,0.443362
4107.87,0.442777
4111.13,0.442314
4114.39,0.441955
4117.66,0.441558
4120.93,0.440991
4124.21,0.440242
4127.5,0.439685
4130.79,0.439249
4134.08,0.438734
4137.38,0.438197
4140.68,0.437578
4143.99,0.436886
4147.31,0.436236
4150.63,0.435779
4153.95,0.435215
4157.29,0.434698
4160.62,0.434112
4163.96,0.433502
4167.31,0.43282
4170.66,0.432229
4174.02,0.431651
4177.39,0.431107
4180.75,0.430534
4184.13,0.429859
4187.51,0.429265
4190.89,0.428633
4194.28,0.427995
4197.68,0.427417
4201.08,0.426661
4204.49,0.425981
4207.9,0.425397
4211.32,0.424947
4214.74,0.424465
4218.17,0.423939
4221.61,0.423368
4225.05,0.422959
4228.5,0.422401
4231.95,0.421955
4235.4,0.421679
4238.87,0.421086
4242.34,0.420397
4245.81,0.419709
4249.29,0.41902
4252.78,0.418241
4256.27,0.416971
4259.77,0.415452
4263.27,0.414176
4266.78,0.413693
4270.29,0.41324
4273.81,0.412833
4277.34,0.412492
4280.87,0.411833
4284.41,0.411048
4287.95,0.410387
4291.5,0.409743
4295.06,0.409125
4298.62,0.408398
4302.19,0.407441
4305.76,0.406495
4309.34,0.405762
4312.92,0.405026
4316.52,0.404191
4320.11,0.403319
4323.72,0.402459
4327.32,0.401591
4330.94,0.400697
4334.56,0.399717
4338.19,0.398909
4341.82,0.398033
4345.46,0.397293
4349.11,0.396447
4352.76,0.395593
4356.42,0.394736
4360.08,0.39388
4363.75,0.393054
4367.43,0.392167
4371.11,0.391314
4374.8,0.390542
4378.49,0.389797
4382.19,0.389034
4385.9,0.388224
4389.61,0.387467
4393.33,0.386607
4397.06,0.385696
4400.79,0.384786
4404.53,0.384107
4408.28,0.383418
4412.03,0.382479
4415.79,0.381556
4419.55,0.380863
4423.32,0.380046
4427.1,0.379378
4430.88,0.378586
4434.68,0.377768
4438.47,0.377128
4442.28,0.37636
4446.08,0.375604
4449.9,0.37483
4453.72,0.374083
4457.55,0.37339
4461.39,0.372634
4465.23,0.371929
4469.08,0.371263
4472.94,0.3705
4476.8,0.369812
4480.67,0.369137
4484.55,0.368358
4488.43,0.367763
4492.32,0.367277
4496.21,0.366656
4500.12,0.365898
4504.03,0.365223
4507.94,0.364679
4511.87,0.364192
4515.8,0.363505
4519.73,0.362996
4523.68,0.362551
4527.63,0.36202
4531.59,0.361472
4535.55,0.360903
4539.52,0.360362
4543.5,0.359885
4547.49,0.359476
4551.48,0.359014
4555.48,0.358484
4559.49,0.358091
4563.5,0.357694
4567.52,0.357323
4571.55,0.357064
4575.58,0.356723
4579.63,0.356238
4583.67,0.355836
4587.73,0.355481
4591.79,0.355046
4595.86,0.354725
4599.94,0.354524
4604.03,0.354303
4608.12,0.354028
4612.22,0.353719
4616.33,0.35352
4620.44,0.353242
4624.56,0.353019
4628.69,0.352671
4632.83,0.352419
4636.97,0.352305
4641.12,0.352297
4645.28,0.352152
4649.45,0.351989
4653.62,0.351831
4657.8,0.351649
4661.99,0.351579
4666.19,0.351471
4670.39,0.351225
4674.6,0.351197
4678.82,0.351157
4683.05,0.351028
4687.28,0.350996
4691.52,0.351003
4695.77,0.351067
4700.03,0.351078
4704.3,0.351015
4708.57,0.351055
4712.85,0.351078
4717.14,0.35108
4721.43,0.35099
4725.74,0.3511
4730.05,0.351148
4734.37,0.351173
4738.7,0.351164
4743.03,0.351177
4747.38,0.351164
4751.73,0.35126
4756.09,0.351376
4760.45,0.351242
4764.83,0.351062
4769.21,0.351071
4773.6,0.351062
4778.0,0.351042
4782.41,0.350976
4786.83,0.350929
4791.25,0.351005
4795.68,0.351024
4800.13,0.350969
4804.57,0.350967
4809.03,0.351015
4813.5,0.351064
4817.97,0.350947
4822.45,0.350857
4826.94,0.350739
4831.44,0.350741
4835.95,0.350637
4840.46,0.350461
4844.99,0.350403
4849.52,0.350333
4854.06,0.350227
4858.61,0.35003
4863.17,0.349789
4867.73,0.349769
4872.31,0.349638
4876.89,0.349412
4881.48,0.349231
4886.08,0.348994
4890.69,0.34859
4895.31,0.348216
4899.94,0.347897
4904.57,0.347737
4909.22,0.347333
4913.87,0.346821
4918.53,0.346335
4923.21,0.34585
4927.88,0.345221
4932.57,0.344665
4937.27,0.344103
4941.98,0.34351
4946.69,0.342889
4951.42,0.342221
4956.15,0.341525
4960.9,0.340683
4965.65,0.339832
4970.41,0.338928
4975.18,0.337955
4979.96,0.336901
4984.75,0.33584
4989.54,0.334781
4994.35,0.333734
4999.17,0.332583
5003.99,0.331301
5008.83,0.330213
5013.67,0.329093
5018.52,0.327861
5023.39,0.326538
5028.26,0.325375
5033.14,0.32417
5038.03,0.322974
5042.93,0.321816
5047.84,0.320708
5052.76,0.319306
5057.69,0.318003
5062.63,0.316701
5067.58,0.315297
5072.54,0.313956
5077.51,0.312821
5082.49,0.311645
5087.47,0.310498
5092.47,0.309225
5097.48,0.308027
5102.5,0.306889
5107.52,0.305707
5112.56,0.304546
5117.61,0.303379
5122.66,0.302303
5127.73,0.301204
5132.81,0.300012
5137.89,0.298956
5142.99,0.297892
5148.1,0.296757
5153.22,0.295698
5158.34,0.294741
5163.48,0.29361
5168.63,0.292583
5173.79,0.291778
5178.96,0.290997
5184.13,0.290008
5189.32,0.28913
5194.52,0.288338
5199.73,0.287471
5204.96,0.286544
5210.19,0.285675
5215.43,0.284742
5220.68,0.284078
5225.94,0.283234
5231.22,0.282372
5236.5,0.281539
5241.79,0.280821
5247.1,0.279916
5252.42,0.278896
5257.74,0.277896
5263.08,0.277038
5268.43,0.27624
5273.79,0.275454
5279.16,0.274508
5284.54,0.273675
5289.93,0.272894
5295.34,0.272068
5300.75,0.271217
5306.18,0.270394
5311.61,0.269586
5317.06,0.268762
5322.52,0.267893
5327.99,0.267078
5333.47,0.266127
5338.96,0.265198
5344.47,0.26429
5349.98,0.263376
5355.51,0.262564
5361.05,0.261764
5366.6,0.260821
5372.16,0.259875
5377.73,0.258914
5383.32,0.258153
5388.91,0.257315
5394.52,0.256424
5400.14,0.255533
5405.77,0.254657
5411.41,0.253693
5417.07,0.252707
5422.74,0.251463
5428.41,0.25049
5434.1,0.24951
5439.81,0.248294
5445.52,0.247046
5451.25,0.245712
5456.98,0.244407
5462.73,0.243075
5468.5,0.241852
5474.27,0.240825
5480.06,0.239495
5485.86,0.238211
5491.67,0.23703
5497.49,0.235877
5503.33,0.234776
5509.18,0.233683
5515.04,0.232663
5520.91,0.231686
5526.8,0.230819
5532.69,0.229948
5538.61,0.229112
5544.53,0.228284
5550.47,0.227428
5556.41,0.226634
5562.38,0.225939
5568.35,0.225151
5574.34,0.224404
5580.34,0.223621
5586.35,0.223084
5592.38,0.222706
5598.42,0.222048
5604.47,0.221354
5610.54,0.220802
5616.61,0.22021
5622.71,0.219655
5628.81,0.219104
5634.93,0.218438
5641.06,0.217761
5647.21,0.217276
5653.36,0.216913
5659.54,0.216299
5665.72,0.215772
5671.92,0.215174
5678.13,0.214563
5684.36,0.214057
5690.6,0.213321
5696.85,0.212624
5703.12,0.212256
5709.4,0.211482
5715.69,0.210583
5722.0,0.209746
5728.33,0.208933
5734.66,0.20801
5741.01,0.206898
5747.38,0.205697
5753.76,0.204448
5760.15,0.20304
5766.56,0.20127
5772.98,0.199797
5779.41,0.198424
5785.86,0.196449
5792.33,0.194513
5798.81,0.192443
5805.3,0.190273
5811.81,0.188075
5818.33,0.185603
5824.87,0.182909
5831.42,0.180462
5837.99,0.17767
5844.57,0.174575
5851.17,0.171261
5857.78,0.167878
5864.41,0.164151
5871.05,0.160387
5877.7,0.156504
5884.38,0.152297
5891.06,0.147817
5897.76,0.143223
5904.48,0.138648
5911.21,0.133951
5917.96,0.129102
5924.73,0.124349
5931.5,0.11957
5938.3,0.114677
5945.11,0.109711
5951.93,0.104976
5958.78,0.100181
5965.63,0.095317
5972.51,0.090374
5979.39,0.085761
5986.3,0.081255
5993.22,0.076926
6000.16,0.072559
6007.11,0.068381
6014.08,0.064496
6021.06,0.060797
6028.06,0.057357
6035.08,0.054298
6042.12,0.051368
6049.17,0.048813
6056.23,0.046648
6063.32,0.044809
6070.42,0.043261
6077.53,0.042098
6084.67,0.041319
6091.82,0.040744
6098.98,0.040304
6106.17,0.040231
6113.37,0.040529
6120.58,0.04127
6127.82,0.042367
6135.07,0.04387
6142.34,0.045897
6149.63,0.048287
6156.93,0.051055
6164.25,0.054336
6171.59,0.058038
6178.95,0.061948
6186.32,0.06599
6193.71,0.070407
6201.12,0.074883
6208.54,0.079151
6215.99,0.083404
6223.45,0.087573
6230.93,0.091641
6238.43,0.095328
6245.95,0.098786
6253.48,0.1018
6261.03,0.104508
6268.6,0.10696
6276.19,0.109373
6283.8,0.111785
6291.43,0.114463
6299.07,0.117408
6306.73,0.120527
6314.42,0.123597
6322.12,0.12664
6329.84,0.129497
6337.57,0.132057
6345.33,0.134203
6353.11,0.136589
6360.9,0.138664
6368.72,0.140203
6376.55,0.141844
6384.4,0.143512
6392.27,0.144851
6400.17,0.146083
6408.08,0.147175
6416.01,0.148074
6423.96,0.149236
6431.93,0.150306
6439.92,0.151044
6447.93,0.151771
6455.96,0.152297
6464.01,0.152863
6472.08,0.153252
6480.17,0.153516
6488.28,0.153608
6496.41,0.153692
6504.56,0.154022
6512.73,0.154281
6520.92,0.15403
6529.14,0.153724
6537.37,0.153484
6545.63,0.153223
6553.9,0.152888
6562.2,0.152469
6570.51,0.151945
6578.85,0.151457
6587.21,0.151051
6595.59,0.150356
6603.99,0.149791
6612.42,0.149144
6620.86,0.148338
6629.33,0.147528
6637.82,0.146665
6646.33,0.146049
6654.86,0.145564
6663.41,0.144742
6671.99,0.143806
6680.59,0.142966
6689.21,0.142108
6697.85,0.141298
6706.51,0.14044
6715.2,0.139567
6723.91,0.138675
6732.64,0.137718
6741.4,0.136797
6750.18,0.135842
6758.98,0.134624
6767.8,0.133391
6776.65,0.132396
6785.52,0.13124
6794.41,0.129872
6803.33,0.128538
6812.27,0.127251
6821.23,0.126069
6830.22,0.124855
6839.23,0.123661
6848.26,0.12241
6857.32,0.121137
6866.4,0.119972
6875.51,0.118932
6884.64,0.117841
6893.8,0.11676
6902.98,0.115724
6912.18,0.114602
6921.41,0.113487
6930.66,0.112384
6939.94,0.111257
6949.24,0.110178
6958.57,0.109027
6967.92,0.107862
6977.3,0.106851
6986.7,0.105811
6996.13,0.104727
7005.59,0.103664
7015.07,0.102633
7024.57,0.101773
7034.1,0.10087
7043.66,0.099879
7053.25,0.098981
7062.85,0.098055
7072.49,0.097042
7082.15,0.096053
7091.84,0.095085
7101.55,0.094128
7111.3,0.0932
7121.06,0.092187
7130.86,0.091051
7140.68,0.090018
7150.53,0.089016
7160.41,0.087934
7170.31,0.08677
7180.24,0.085553
7190.2,0.08432
7200.19,0.083029
7210.2,0.081811
7220.24,0.080585
7230.31,0.079339
7240.41,0.078028
7250.54,0.076834
7260.69,0.075651
7270.88,0.074509
7281.09,0.073217
7291.33,0.071786
7301.6,0.070303
7311.9,0.068724
7322.22,0.067035
7332.58,0.065577
7342.97,0.064342
7353.38,0.063149
7363.83,0.061839
7374.3,0.060505
7384.81,0.059126
7395.34,0.057632
7405.91,0.056262
7416.5,0.054955
7427.13,0.053549
7437.78,0.052145
7448.47,0.050826
7459.19,0.049495
7469.94,0.048089
7480.71,0.04671
7491.52,0.045247
7502.37,0.043821
7513.24,0.042489
7524.14,0.04122
7535.08,0.039891
7546.05,0.038573
7557.05,0.037207
7568.08,0.035817
7579.15,0.034544
7590.24,0.033379
7601.37,0.03213
7612.53,0.03083
7623.73,0.029539
7634.96,0.028255
7646.22,0.027007
7657.51,0.025977
7668.84,0.02493
7680.2,0.023835
7691.59,0.022759
7703.02,0.021748
7714.49,0.020809
7725.98,0.019973
7737.52,0.019043
7749.08,0.018181
7760.68,0.017375
7772.32,0.016735
7783.99,0.016064
7795.69,0.015452
7807.43,0.014829
7819.21,0.014346
7831.02,0.01399
7842.87,0.013687
7854.75,0.01338
7866.67,0.013125
7878.62,0.013019
7890.62,0.013006
7902.64,0.013065
7914.71,0.01318
7926.81,0.013412
7938.95,0.013836
7951.13,0.014259
7963.34,0.014847
7975.59,0.015626
7987.88,0.016418
8000.21,0.017333
8012.57,0.018486
8024.98,0.019671
8037.42,0.020886
8049.9,0.022018
8062.42,0.023335
8074.98,0.02486
8087.57,0.026497
8100.21,0.028241
8112.89,0.029966
8125.6,0.031517
8138.36,0.033088
8151.16,0.034568
8163.99,0.035945
8176.87,0.037211
8189.79,0.038256
8202.75,0.039263
8215.75,0.040202
8228.79,0.040985
8241.87,0.041592
8254.99,0.04203
8268.16,0.04238
8281.37,0.042733
8294.62,0.042996
8307.91,0.0431
8321.24,0.043168
8334.62,0.043317
8348.04,0.043365
8361.51,0.043181
8375.02,0.042958
8388.57,0.04282
8402.16,0.042775
8415.8,0.042642
8429.49,0.042509
8443.22,0.042399
8456.99,0.042238
8470.81,0.041917
8484.67,0.041583
8498.58,0.041369
8512.54,0.041177
8526.54,0.040916
8540.58,0.040681
8554.68,0.040376
8568.82,0.040087
8583.0,0.039888
8597.24,0.039559
8611.52,0.039132
8625.85,0.038853
8640.23,0.038791
8654.65,0.038701
8669.12,0.038507
8683.64,0.038378
8698.21,0.03823
8712.83,0.03822
8727.5,0.038182
8742.22,0.038173
8756.99,0.03818
8771.8,0.038184
8786.67,0.038056
8801.59,0.038123
8816.56,0.038345
8831.58,0.038437
8846.65,0.03841
8861.77,0.038414
8876.94,0.038591
8892.17,0.038906
8907.45,0.0392
8922.78,0.039317
8938.16,0.039609
8953.6,0.040103
8969.09,0.040505
8984.64,0.040888
9000.23,0.041434
9015.89,0.041918
9031.59,0.042279
9047.36,0.04285
9063.17,0.043574
9079.05,0.044202
9094.97,0.044795
9110.96,0.045375
9127.0,0.046109
9143.1,0.04687
9159.25,0.047619
9175.46,0.048416
9191.73,0.049109
9208.06,0.049702
9224.44,0.050147
9240.88,0.050603
9257.38,0.051194
9273.94,0.05187
9290.56,0.052415
9307.24,0.052836
9323.98,0.053091
9340.78,0.053183
9357.64,0.053397
9374.57,0.053492
9391.55,0.053291
9408.59,0.0531
9425.7,0.052908
9442.87,0.052718
9460.1,0.052519
9477.4,0.052312
9494.75,0.051962
9512.17,0.051506
9529.66,0.051122
9547.21,0.050696
9564.83,0.050194
9582.5,0.049764
9600.25,0.049195
9618.06,0.048705
9635.94,0.048271
9653.88,0.047613
9671.89,0.047069
9689.97,0.04668
9708.12,0.046297
9726.33,0.04601
9744.62,0.045574
9762.97,0.045247
9781.39,0.044967
9799.88,0.044468
9818.44,0.043992
9837.07,0.043773
9855.77,0.043723
9874.54,0.043371
9893.39,0.04301
9912.3,0.042865
9931.29,0.04276
9950.36,0.042685
9969.49,0.042588
9988.7,0.04236
10007.98,0.042177
10027.34,0.042215
10046.77,0.042154
10066.28,0.042087
10085.87,0.042241
10105.53,0.042369
10125.26,0.042376
10145.08,0.042471
10164.97,0.042638
10184.94,0.042593
10204.99,0.042735
10225.12,0.043048
10245.33,0.043155
10265.61,0.043317
10285.98,0.043692
10306.43,0.043899
10326.96,0.044145
10347.57,0.044759
10368.27,0.04524
10389.05,0.045522
10409.91,0.046077
10430.86,0.046892
10451.88,0.047748
10473.0,0.048527
10494.2,0.04924
10515.49,0.050174
10536.86,0.051427
10558.32,0.052675
10579.87,0.054011
10601.5,0.055381
10623.23,0.056693
10645.04,0.058252
10666.94,0.059823
10688.94,0.061194
10711.02,0.062557
10733.2,0.06401
10755.47,0.065516
10777.83,0.06685
10800.28,0.068222
10822.83,0.069401
10845.47,0.070577
10868.21,0.071671
10891.04,0.072364
10913.97,0.07333
10936.99,0.074507
10960.12,0.075538
10983.34,0.076608
11006.66,0.077635
11030.07,0.078567
11053.59,0.079576
11077.21,0.080585
11100.93,0.081598
11124.75,0.082519
11148.68,0.083179
11172.71,0.083803
11196.84,0.084255
11221.07,0.084377
11245.41,0.084214
11269.86,0.084004
11294.41,0.084052
11319.07,0.083882
11343.84,0.083535
11368.72,0.083293
11393.7,0.082899
11418.8,0.082607
11444.01,0.082533
11469.33,0.08237
11494.76,0.082158
11520.3,0.082127
11545.96,0.082016
11571.73,0.081777
11597.62,0.081783
11623.62,0.081869
11649.74,0.081837
11675.98,0.081705
11702.34,0.081474
11728.81,0.081176
11755.41,0.080691
11782.13,0.08007
11808.96,0.079465
11835.92,0.078703
11863.01,0.077689
11890.22,0.076933
11917.55,0.076316
11945.01,0.074908
11972.6,0.073335
12000.31,0.071741
12028.16,0.069604
12056.13,0.067372
12084.23,0.065299
12112.46,0.062907
12140.83,0.060336
12169.33,0.057702
12197.96,0.054923
12226.73,0.052267
12255.64,0.049878
12284.68,0.047533
12313.86,0.045362
12343.18,0.04345
12372.64,0.041728
12402.24,0.039994
12431.98,0.038421
12461.86,0.037164
12491.89,0.036142
12522.07,0.03536
12552.38,0.034805
12582.85,0.034659
12613.47,0.034492
12644.23,0.034105
12675.15,0.03392
12706.21,0.033868
12737.43,0.033596
12768.81,0.03328
12800.33,0.033358
12832.02,0.033236
12863.86,0.032984
12895.86,0.032833
12928.02,0.03267
12960.34,0.032541
12992.82,0.03258
13025.46,0.032485
13058.27,0.032437
13091.25,0.032169
13124.39,0.031803
13157.7,0.031431
13191.18,0.031027
13224.83,0.030765
13258.66,0.030436
13292.65,0.030027
13326.83,0.029661
13361.17,0.029302
13395.7,0.028891
13430.4,0.028736
13465.29,0.028474
13500.35,0.028162
13535.6,0.027853
13571.03,0.027693
13606.65,0.027539
13642.46,0.02744
13678.46,0.027318
13714.64,0.027038
13751.02,0.027045
13787.59,0.027084
13824.36,0.027011
13861.32,0.026998
13898.49,0.027199
13935.85,0.027226
13973.41,0.027133
14011.17,0.027106
14049.15,0.026942
14087.32,0.026865
14125.71,0.026801
14164.3,0.026826
14203.11,0.026863
14242.13,0.02695
14281.36,0.026664
14320.81,0.026275
14360.49,0.025781
14400.38,0.025605
14440.49,0.025689
14480.82,0.025445
14521.39,0.025199
14562.18,0.025075
14603.2,0.025
14644.45,0.024827
14685.93,0.024793
14727.66,0.02454
14769.62,0.024476
14811.81,0.024391
14854.25,0.023957
14896.94,0.023743
14939.87,0.023481
14983.05,0.02337
15026.48,0.023111
15070.16,0.022677
15114.1,0.02245
15158.29,0.022158
15202.74,0.022048
15247.46,0.022079
15292.43,0.021818
15337.68,0.021781
15383.19,0.022064
15428.97,0.022204
15475.03,0.022447
15521.36,0.022705
15567.97,0.022702
15614.87,0.022603
15662.04,0.022867
15709.5,0.023154
15757.25,0.023136
15805.29,0.02284
15853.62,0.022998
15902.26,0.023291
15951.19,0.023538
16000.42,0.023799
16049.95,0.023869
16099.8,0.023646
16149.95,0.023806
16200.42,0.024222
16251.21,0.024784
16302.31,0.025526
16353.74,0.025844
16405.49,0.026059
16457.57,0.026398
16509.98,0.026881
16562.73,0.027201
16615.82,0.027386
16669.24,0.027492
16723.02,0.027431
16777.14,0.027574
16831.61,0.027716
16886.43,0.027636
16941.62,0.027433
16997.16,0.027684
17053.08,0.027781
17109.36,0.027808
17166.01,0.027901
17223.04,0.027955
17280.45,0.028111
17338.24,0.027724
17396.43,0.02742
17455.0,0.027474
17513.97,0.02753
17573.34,0.027648
17633.11,0.027634
17693.29,0.028048
17753.89,0.02812
17814.9,0.027637
17876.33,0.027456
17938.18,0.027632
18000.47,0.027797
18063.19,0.027601
18126.35,0.027513
18189.95,0.027896
18254.0,0.028268
18318.5,0.028813
18383.46,0.029345
18448.88,0.02944
18514.77,0.029499
18581.13,0.029733
18647.97,0.030377
18715.29,0.03097
18783.1,0.03116
18851.4,0.0316
18920.2,0.032031
18989.51,0.032024
19059.32,0.032693
19129.65,0.033146
19200.5,0.033178
19271.88,0.033343
19343.79,0.033178
19416.24,0.032805
19489.23,0.032399
19562.77,0.032419
19636.88,0.032415
19711.54,0.032695
19786.78,0.033727
19862.59,0.034625
19938.98,0.03523
20015.96,0.035859
20093.55,0.036954
20171.73,0.038383
20250.53,0.04013
20329.94,0.041972
20409.98,0.043793
20490.65,0.046075
20571.96,0.048865
20653.92,0.051201
20736.54,0.053899
20819.82,0.055853
20903.77,0.056917
20988.4,0.058819
21073.72,0.060803
21159.73,0.062338
21246.46,0.06292
21333.89,0.063417
21422.04,0.064338
21510.93,0.065629
21600.56,0.066685
21690.94,0.067085
21782.08,0.067618
21873.99,0.068857
21966.67,0.070125
22060.15,0.069891
22154.42,0.069814
22249.51,0.070513
22345.41,0.070626
22442.14,0.071186
22539.72,0.071838
22638.14,0.072409
22737.43,0.073265
22837.6,0.073752
22938.65,0.072863
23040.6,0.072118
23143.46,0.071958
23247.24,0.071055
23351.96,0.070141
23457.63,0.069241
23564.25,0.068238
23671.85,0.068064
23780.44,0.067676
23890.02,0.066038
24000.63,0.065715
24112.26,0.065028
24224.93,0.063033
24338.66,0.061894
24453.47,0.062446
24569.36,0.06337
24686.36,0.063711
24804.47,0.064812
24923.73,0.064272
25044.13,0.062451
25165.71,0.060981
25288.46,0.060122
25412.43,0.061034
25537.61,0.062171
25664.04,0.062151
25791.72,0.061354
25920.68,0.059668
