Database of Origin,University of Winnipeg Spectrophotometer Facility
Sample Description,"Zeolites: RELAB + Nicolet spectra, Merged at 2.5 microns; note change in viewing geometry"
Date Added,2018-07-23 23:09:47.133189

Data ID,RLA_ZEO_1_4         
Sample ID,zeo108
Mineral Name,gismondine
Grain Size,<45 um
Viewing Geometry,"30/0,30"
Resolution,5/.6-129 nm

Wavelength
305.0,0.544177
310.0,0.555867
315.0,0.566283
320.0,0.576585
325.0,0.582574
330.0,0.595859
335.0,0.604099
340.0,0.611303
345.0,0.61955
350.0,0.627502
355.0,0.63764
360.0,0.637002
365.0,0.651752
370.0,0.649479
375.0,0.661843
380.0,0.664568
385.0,0.669046
390.0,0.675863
395.0,0.677126
400.0,0.684734
405.0,0.686394
410.0,0.691643
415.0,0.694247
420.0,0.696631
425.0,0.700559
430.0,0.704039
435.0,0.707562
440.0,0.710149
445.0,0.713492
450.0,0.714693
455.0,0.717972
460.0,0.719295
465.0,0.724004
470.0,0.723617
475.0,0.724875
480.0,0.7262
485.0,0.728992
490.0,0.729834
495.0,0.734544
500.0,0.734673
505.0,0.736019
510.0,0.738462
515.0,0.741043
520.0,0.741251
525.0,0.745721
530.0,0.744408
535.0,0.749809
540.0,0.747993
545.0,0.751817
550.0,0.748871
555.0,0.754347
560.0,0.754363
565.0,0.758132
570.0,0.75661
575.0,0.760609
580.0,0.760453
585.0,0.762029
590.0,0.763459
595.0,0.763492
600.0,0.765041
605.0,0.766261
610.0,0.766301
615.0,0.766475
620.0,0.765156
625.0,0.766328
630.0,0.768272
635.0,0.76697
640.0,0.768622
645.0,0.768511
650.0,0.769613
655.0,0.77015
660.0,0.771155
665.0,0.770024
670.0,0.773332
675.0,0.772059
680.0,0.773721
685.0,0.770063
690.0,0.77529
695.0,0.77362
700.0,0.774831
705.0,0.774637
710.0,0.775937
715.0,0.774719
720.0,0.776818
725.0,0.774765
730.0,0.776755
735.0,0.776323
740.0,0.776584
745.0,0.777504
750.0,0.778513
755.0,0.776181
760.0,0.77882
765.0,0.777407
770.0,0.780281
775.0,0.777159
780.0,0.780484
785.0,0.777326
790.0,0.776814
795.0,0.7814
800.0,0.775993
805.0,0.78027
810.0,0.776585
815.0,0.780468
820.0,0.776743
825.0,0.779215
830.0,0.779056
835.0,0.777956
840.0,0.781017
845.0,0.777537
850.0,0.780789
855.0,0.777558
860.0,0.7793
865.0,0.77771
870.0,0.781469
875.0,0.780068
880.0,0.780279
885.0,0.777693
890.0,0.780231
895.0,0.780561
900.0,0.780073
905.0,0.780294
910.0,0.780516
915.0,0.778905
920.0,0.781242
925.0,0.778977
930.0,0.779729
935.0,0.779494
940.0,0.779315
945.0,0.77696
950.0,0.778064
955.0,0.776957
960.0,0.777778
965.0,0.774944
970.0,0.77601
975.0,0.77347
980.0,0.774303
985.0,0.77573
990.0,0.773921
995.0,0.776509
1000.0,0.772346
1005.0,0.776016
1010.0,0.7738
1015.0,0.776717
1020.0,0.772885
1025.0,0.777036
1030.0,0.774291
1035.0,0.777118
1040.0,0.775587
1045.0,0.77808
1050.0,0.775402
1055.0,0.778462
1060.0,0.776185
1065.0,0.776966
1070.0,0.776271
1075.0,0.776963
1080.0,0.777163
1085.0,0.776206
1090.0,0.776846
1095.0,0.776068
1100.0,0.7772
1105.0,0.775309
1110.0,0.776973
1115.0,0.776261
1120.0,0.77715
1125.0,0.77578
1130.0,0.775337
1135.0,0.774569
1140.0,0.775101
1145.0,0.772371
1150.0,0.773223
1155.0,0.7705
1160.0,0.768848
1165.0,0.76736
1170.0,0.768103
1175.0,0.766267
1180.0,0.768439
1185.0,0.768289
1190.0,0.768344
1195.0,0.767328
1200.0,0.768582
1205.0,0.766296
1210.0,0.767704
1215.0,0.770171
1220.0,0.766966
1225.0,0.768101
1230.0,0.767471
1235.0,0.76819
1240.0,0.769077
1245.0,0.767616
1250.0,0.769449
1255.0,0.770213
1260.0,0.768803
1265.0,0.771368
1270.0,0.769618
1275.0,0.770517
1280.0,0.768281
1285.0,0.771206
1290.0,0.769133
1295.0,0.771062
1300.0,0.76873
1305.0,0.770223
1310.0,0.767442
1315.0,0.76965
1320.0,0.765582
1325.0,0.766781
1330.0,0.764627
1335.0,0.763606
1340.0,0.761541
1345.0,0.759049
1350.0,0.757847
1355.0,0.75365
1360.0,0.75199
1365.0,0.751073
1370.0,0.748586
1375.0,0.746055
1380.0,0.742601
1385.0,0.742562
1390.0,0.73602
1395.0,0.72407
1400.0,0.714171
1405.0,0.702247
1410.0,0.692112
1415.0,0.678313
1420.0,0.670758
1425.0,0.662388
1430.0,0.657562
1435.0,0.654088
1440.0,0.651907
1445.0,0.651086
1450.0,0.653561
1455.0,0.652995
1460.0,0.655107
1465.0,0.652745
1470.0,0.652298
1475.0,0.6543
1480.0,0.655666
1485.0,0.660228
1490.0,0.664402
1495.0,0.667908
1500.0,0.673096
1505.0,0.677203
1510.0,0.681551
1515.0,0.684665
1520.0,0.688443
1525.0,0.692061
1530.0,0.693052
1535.0,0.696743
1540.0,0.69662
1545.0,0.700692
1550.0,0.699294
1555.0,0.704202
1560.0,0.701055
1565.0,0.704893
1570.0,0.702742
1575.0,0.705994
1580.0,0.703223
1585.0,0.706348
1590.0,0.704181
1595.0,0.706149
1600.0,0.704728
1605.0,0.705742
1610.0,0.705099
1615.0,0.706286
1620.0,0.70627
1625.0,0.705611
1630.0,0.705205
1635.0,0.704768
1640.0,0.705886
1645.0,0.705898
1650.0,0.706861
1655.0,0.705943
1660.0,0.706571
1665.0,0.706187
1670.0,0.708035
1675.0,0.70674
1680.0,0.70738
1685.0,0.706486
1690.0,0.707829
1695.0,0.705772
1700.0,0.705923
1705.0,0.705989
1710.0,0.705028
1715.0,0.704586
1720.0,0.702482
1725.0,0.702331
1730.0,0.698661
1735.0,0.697464
1740.0,0.695234
1745.0,0.694467
1750.0,0.693618
1755.0,0.693575
1760.0,0.693121
1765.0,0.692444
1770.0,0.692222
1775.0,0.691631
1780.0,0.692313
1785.0,0.692776
1790.0,0.693458
1795.0,0.693331
1800.0,0.694845
1805.0,0.694766
1810.0,0.695621
1815.0,0.69496
1820.0,0.695947
1825.0,0.696999
1830.0,0.696332
1835.0,0.694786
1840.0,0.695326
1845.0,0.694186
1850.0,0.692557
1855.0,0.687715
1860.0,0.685004
1865.0,0.677597
1870.0,0.66717
1875.0,0.65957
1880.0,0.645964
1885.0,0.62475
1890.0,0.599837
1895.0,0.569396
1900.0,0.532787
1905.0,0.493928
1910.0,0.458802
1915.0,0.427953
1920.0,0.408002
1925.0,0.400288
1930.0,0.396785
1935.0,0.395714
1940.0,0.396146
1945.0,0.398953
1950.0,0.401776
1955.0,0.407785
1960.0,0.412134
1965.0,0.417695
1970.0,0.421342
1975.0,0.427541
1980.0,0.433175
1985.0,0.441549
1990.0,0.447678
1995.0,0.457637
2000.0,0.464749
2005.0,0.474835
2010.0,0.483121
2015.0,0.492964
2020.0,0.501187
2025.0,0.511846
2030.0,0.520112
2035.0,0.528049
2040.0,0.53501
2045.0,0.541187
2050.0,0.547308
2055.0,0.55164
2060.0,0.556601
2065.0,0.560331
2070.0,0.564903
2075.0,0.56737
2080.0,0.571549
2085.0,0.574019
2090.0,0.57861
2095.0,0.581754
2100.0,0.58718
2105.0,0.589638
2110.0,0.594607
2115.0,0.596409
2120.0,0.600536
2125.0,0.60265
2130.0,0.606377
2135.0,0.608371
2140.0,0.611322
2145.0,0.613135
2150.0,0.616141
2155.0,0.617074
2160.0,0.620094
2165.0,0.620523
2170.0,0.622181
2175.0,0.622829
2180.0,0.625575
2185.0,0.626263
2190.0,0.627736
2195.0,0.628635
2200.0,0.629448
2205.0,0.629091
2210.0,0.6309
2215.0,0.63178
2220.0,0.633237
2225.0,0.633385
2230.0,0.633082
2235.0,0.634344
2240.0,0.632434
2245.0,0.634449
2250.0,0.631996
2255.0,0.633655
2260.0,0.631404
2265.0,0.632883
2270.0,0.629774
2275.0,0.631136
2280.0,0.628252
2285.0,0.628462
2290.0,0.624575
2295.0,0.62425
2300.0,0.620025
2305.0,0.617339
2310.0,0.612651
2315.0,0.608199
2320.0,0.602233
2325.0,0.59724
2330.0,0.591381
2335.0,0.583249
2340.0,0.576678
2345.0,0.568652
2350.0,0.560577
2355.0,0.551065
2360.0,0.543218
2365.0,0.533068
2370.0,0.524155
2375.0,0.51353
2380.0,0.504526
2385.0,0.493255
2390.0,0.4842
2395.0,0.471996
2400.0,0.461731
2405.0,0.450175
2410.0,0.440459
2415.0,0.430122
2420.0,0.421509
2425.0,0.412595
2430.0,0.404723
2435.0,0.396336
2440.0,0.390155
2445.0,0.382244
2450.0,0.376528
2455.0,0.369967
2460.0,0.364339
2465.0,0.359084
2470.0,0.354462
2475.0,0.350077
2480.0,0.349994
2485.0,0.342586
2490.0,0.339708
2495.0,0.335641
2500.0,0.33289
2505.0,0.329338
2510.0,0.325838
2515.0,0.323386
2520.0,0.320696
2525.0,0.319535
2530.0,0.315829
2535.0,0.314928
2540.0,0.314042
2545.0,0.313131
2550.0,0.312927
2555.0,0.312913
2560.0,0.311939
2565.0,0.312067
2570.0,0.310692
2575.0,0.312004
2580.0,0.311899
2581.74,0.310417
2583.03,0.310286
2584.31,0.309132
2585.6,0.311376
2586.89,0.31175
2588.19,0.309683
2589.48,0.310097
2590.77,0.310222
2592.07,0.309937
2593.36,0.308918
2594.66,0.306049
2595.96,0.307401
2597.26,0.312709
2598.56,0.311849
2599.87,0.309287
2601.17,0.308123
2602.48,0.308134
2603.78,0.308116
2605.09,0.306693
2606.4,0.306439
2607.71,0.308803
2609.03,0.308245
2610.34,0.30684
2611.66,0.306527
2612.97,0.305752
2614.29,0.305001
2615.61,0.305167
2616.93,0.303164
2618.25,0.303389
2619.57,0.304284
2620.9,0.301825
2622.22,0.303465
2623.55,0.303911
2624.88,0.301798
2626.21,0.300508
2627.54,0.29969
2628.87,0.301081
2630.21,0.29873
2631.54,0.297902
2632.88,0.300114
2634.21,0.298365
2635.55,0.297209
2636.89,0.297004
2638.24,0.295876
2639.58,0.29524
2640.92,0.294191
2642.27,0.293156
2643.62,0.292081
2644.97,0.290973
2646.32,0.289883
2647.67,0.289889
2649.02,0.289152
2650.38,0.287816
2651.73,0.286642
2653.09,0.28544
2654.45,0.285267
2655.81,0.284038
2657.17,0.282504
2658.53,0.281969
2659.89,0.279714
2661.26,0.278383
2662.63,0.277262
2664.0,0.27619
2665.36,0.272712
2666.74,0.271546
2668.11,0.272019
2669.48,0.270931
2670.86,0.266155
2672.23,0.267391
2673.61,0.267862
2674.99,0.26336
2676.37,0.260574
2677.76,0.259318
2679.14,0.258838
2680.52,0.25697
2681.91,0.255874
2683.3,0.252472
2684.69,0.24996
2686.08,0.248463
2687.47,0.246654
2688.87,0.244921
2690.26,0.24317
2691.66,0.240554
2693.06,0.237185
2694.46,0.234311
2695.86,0.233616
2697.26,0.231843
2698.66,0.229066
2700.07,0.226042
2701.48,0.222929
2702.89,0.220316
2704.3,0.21836
2705.71,0.215214
2707.12,0.211898
2708.53,0.208498
2709.95,0.205379
2711.37,0.202208
2712.79,0.200218
2714.21,0.197596
2715.63,0.193201
2717.05,0.189374
2718.48,0.185382
2719.9,0.181187
2721.33,0.176733
2722.76,0.174888
2724.19,0.170596
2725.62,0.166006
2727.06,0.163266
2728.49,0.15872
2729.93,0.154072
2731.37,0.149678
2732.81,0.145236
2734.25,0.141049
2735.69,0.137257
2737.14,0.133489
2738.58,0.129106
2740.03,0.124676
2741.48,0.121437
2742.93,0.11835
2744.38,0.114936
2745.83,0.111619
2747.29,0.10832
2748.75,0.105005
2750.2,0.101987
2751.66,0.09898
2753.13,0.096067
2754.59,0.092813
2756.05,0.089333
2757.52,0.087568
2758.99,0.085487
2760.46,0.082434
2761.93,0.079462
2763.4,0.076725
2764.87,0.075094
2766.35,0.073527
2767.82,0.071302
2769.3,0.068954
2770.78,0.067089
2772.26,0.065353
2773.75,0.063912
2775.23,0.062203
2776.72,0.060639
2778.21,0.059508
2779.7,0.058374
2781.19,0.057216
2782.68,0.056377
2784.18,0.055524
2785.67,0.054814
2787.17,0.053926
2788.67,0.053447
2790.17,0.053375
2791.67,0.052966
2793.18,0.052198
2794.68,0.051464
2796.19,0.051442
2797.7,0.051184
2799.21,0.050819
2800.72,0.050654
2802.24,0.050344
2803.75,0.0501
2805.27,0.049985
2806.79,0.050024
2808.31,0.049671
2809.83,0.049429
2811.35,0.04917
2812.88,0.048949
2814.41,0.048809
2815.93,0.048874
2817.46,0.048724
2819.0,0.048264
2820.53,0.048117
2822.07,0.047952
2823.6,0.047499
2825.14,0.047224
2826.68,0.04693
2828.22,0.047076
2829.77,0.047251
2831.31,0.046968
2832.86,0.04649
2834.41,0.046222
2835.96,0.046041
2837.51,0.046246
2839.07,0.046034
2840.62,0.045662
2842.18,0.045504
2843.74,0.045425
2845.3,0.045228
2846.86,0.04507
2848.43,0.044806
2849.99,0.044446
2851.56,0.044478
2853.13,0.044524
2854.7,0.04411
2856.27,0.043663
2857.85,0.043342
2859.42,0.043207
2861.0,0.042908
2862.58,0.042807
2864.16,0.042925
2865.75,0.04271
2867.33,0.042231
2868.92,0.042013
2870.51,0.042036
2872.1,0.041877
2873.69,0.041915
2875.28,0.042174
2876.88,0.04227
2878.48,0.042088
2880.07,0.042388
2881.68,0.042679
2883.28,0.042926
2884.88,0.043111
2886.49,0.043197
2888.1,0.043274
2889.71,0.043313
2891.32,0.043326
2892.93,0.043451
2894.55,0.043751
2896.16,0.044006
2897.78,0.044178
2899.4,0.044653
2901.03,0.045027
2902.65,0.045021
2904.28,0.04462
2905.91,0.044635
2907.54,0.04501
2909.17,0.045062
2910.8,0.045219
2912.44,0.045449
2914.07,0.045758
2915.71,0.045804
2917.35,0.045558
2918.99,0.045684
2920.64,0.046252
2922.29,0.046265
2923.93,0.046197
2925.58,0.046393
2927.24,0.046729
2928.89,0.046918
2930.55,0.046917
2932.2,0.046672
2933.86,0.046542
2935.52,0.046809
2937.19,0.046974
2938.85,0.046968
2940.52,0.047091
2942.19,0.047379
2943.86,0.047587
2945.53,0.04742
2947.21,0.047434
2948.88,0.04793
2950.56,0.048254
2952.24,0.047999
2953.92,0.047887
2955.61,0.047859
2957.29,0.048068
2958.98,0.048554
2960.67,0.048759
2962.36,0.048605
2964.06,0.048527
2965.75,0.048229
2967.45,0.04837
2969.15,0.048838
2970.85,0.049076
2972.55,0.049309
2974.26,0.049799
2975.97,0.050129
2977.68,0.050207
2979.39,0.050127
2981.1,0.050182
2982.82,0.050121
2984.53,0.050175
2986.25,0.050376
2987.97,0.050727
2989.7,0.050858
2991.42,0.050911
2993.15,0.050973
2994.88,0.0511
2996.61,0.051294
2998.34,0.051769
3000.08,0.052022
3001.82,0.051961
3003.55,0.052104
3005.3,0.052146
3007.04,0.052388
3008.78,0.05263
3010.53,0.052761
3012.28,0.052801
3014.03,0.05302
3015.79,0.053221
3017.54,0.053261
3019.3,0.053379
3021.06,0.05357
3022.82,0.053776
3024.58,0.053973
3026.35,0.054156
3028.12,0.054101
3029.89,0.054224
3031.66,0.054375
3033.43,0.054303
3035.21,0.054368
3036.99,0.054691
3038.77,0.054648
3040.55,0.054531
3042.33,0.054899
3044.12,0.055226
3045.91,0.055133
3047.7,0.054824
3049.49,0.054802
3051.29,0.055107
3053.08,0.055322
3054.88,0.055232
3056.68,0.05515
3058.49,0.055072
3060.29,0.05517
3062.1,0.055433
3063.91,0.055389
3065.72,0.055118
3067.54,0.055102
3069.35,0.055106
3071.17,0.055133
3072.99,0.055288
3074.81,0.055389
3076.64,0.055364
3078.47,0.055278
3080.29,0.055427
3082.13,0.055883
3083.96,0.055799
3085.79,0.05551
3087.63,0.055802
3089.47,0.055987
3091.31,0.055999
3093.16,0.056074
3095.01,0.056207
3096.85,0.056328
3098.71,0.056448
3100.56,0.056562
3102.41,0.056718
3104.27,0.056759
3106.13,0.056936
3107.99,0.057137
3109.86,0.057486
3111.73,0.057668
3113.59,0.057861
3115.47,0.058117
3117.34,0.058227
3119.21,0.058449
3121.09,0.058621
3122.97,0.058635
3124.86,0.058865
3126.74,0.058928
3128.63,0.058878
3130.52,0.059335
3132.41,0.059731
3134.3,0.059762
3136.2,0.059965
3138.1,0.060438
3140.0,0.060699
3141.9,0.060712
3143.81,0.060824
3145.71,0.061121
3147.62,0.061152
3149.54,0.061123
3151.45,0.061197
3153.37,0.061579
3155.29,0.061988
3157.21,0.062265
3159.13,0.062481
3161.06,0.06272
3162.99,0.063036
3164.92,0.063198
3166.85,0.063359
3168.79,0.063629
3170.72,0.063839
3172.67,0.063982
3174.61,0.064188
3176.55,0.064349
3178.5,0.064413
3180.45,0.064681
3182.4,0.064875
3184.36,0.06523
3186.32,0.065645
3188.27,0.065803
3190.24,0.065863
3192.2,0.066041
3194.17,0.06647
3196.14,0.066744
3198.11,0.066701
3200.08,0.066813
3202.06,0.067326
3204.04,0.067471
3206.02,0.067501
3208.0,0.067813
3209.99,0.068129
3211.98,0.06827
3213.97,0.068588
3215.96,0.069059
3217.96,0.06939
3219.96,0.069614
3221.96,0.069692
3223.96,0.069813
3225.97,0.07039
3227.98,0.070829
3229.99,0.071046
3232.0,0.071288
3234.02,0.071519
3236.04,0.07184
3238.06,0.072213
3240.08,0.072403
3242.11,0.072579
3244.14,0.072737
3246.17,0.073079
3248.2,0.073539
3250.24,0.074001
3252.28,0.074214
3254.32,0.074439
3256.37,0.074827
3258.41,0.075112
3260.46,0.075355
3262.51,0.075605
3264.57,0.076044
3266.63,0.076459
3268.69,0.076611
3270.75,0.076731
3272.81,0.077269
3274.88,0.077784
3276.95,0.078015
3279.02,0.078303
3281.1,0.078702
3283.18,0.079134
3285.26,0.07947
3287.34,0.079871
3289.43,0.08035
3291.51,0.080646
3293.61,0.08074
3295.7,0.081277
3297.8,0.081965
3299.9,0.08224
3302.0,0.082608
3304.1,0.083024
3306.21,0.083314
3308.32,0.083445
3310.43,0.083634
3312.55,0.084172
3314.66,0.084696
3316.79,0.085407
3318.91,0.085948
3321.03,0.086038
3323.16,0.086299
3325.29,0.086858
3327.43,0.087374
3329.57,0.08756
3331.71,0.087998
3333.85,0.088581
3335.99,0.089065
3338.14,0.089751
3340.29,0.090313
3342.45,0.090776
3344.6,0.091146
3346.76,0.091441
3348.92,0.091912
3351.09,0.092581
3353.26,0.093024
3355.43,0.09336
3357.6,0.093962
3359.78,0.094723
3361.96,0.095241
3364.14,0.095705
3366.32,0.096223
3368.51,0.096771
3370.7,0.09738
3372.89,0.097837
3375.09,0.098315
3377.29,0.098946
3379.49,0.099622
3381.69,0.100283
3383.9,0.100928
3386.11,0.101474
3388.32,0.102009
3390.54,0.102674
3392.76,0.103274
3394.98,0.103903
3397.21,0.104503
3399.43,0.105117
3401.66,0.105683
3403.9,0.106246
3406.13,0.106939
3408.37,0.107601
3410.61,0.108157
3412.86,0.10887
3415.11,0.109766
3417.36,0.110432
3419.61,0.11101
3421.87,0.111782
3424.13,0.112601
3426.39,0.113215
3428.66,0.113842
3430.93,0.114467
3433.2,0.115181
3435.48,0.115986
3437.76,0.116615
3440.04,0.117314
3442.32,0.117952
3444.61,0.118617
3446.9,0.119249
3449.19,0.119715
3451.49,0.120528
3453.79,0.121565
3456.09,0.12226
3458.4,0.122761
3460.7,0.123478
3463.02,0.12434
3465.33,0.125006
3467.65,0.125594
3469.97,0.126357
3472.29,0.127165
3474.62,0.12785
3476.95,0.128679
3479.29,0.129529
3481.62,0.130128
3483.96,0.130813
3486.3,0.131664
3488.65,0.132291
3491.0,0.13299
3493.35,0.133708
3495.71,0.134409
3498.07,0.135222
3500.43,0.135968
3502.79,0.136621
3505.16,0.137586
3507.53,0.138641
3509.91,0.139544
3512.29,0.140254
3514.67,0.140682
3517.05,0.141314
3519.44,0.142115
3521.83,0.142822
3524.23,0.143571
3526.62,0.144454
3529.02,0.145419
3531.43,0.146406
3533.83,0.147073
3536.24,0.14755
3538.66,0.14837
3541.08,0.149327
3543.5,0.150286
3545.92,0.151176
3548.35,0.152
3550.78,0.152709
3553.21,0.153623
3555.65,0.154472
3558.09,0.155322
3560.53,0.156325
3562.98,0.157177
3565.43,0.157865
3567.88,0.158776
3570.34,0.159726
3572.8,0.160589
3575.27,0.161229
3577.73,0.161895
3580.2,0.162741
3582.68,0.163735
3585.16,0.16468
3587.64,0.165593
3590.12,0.166365
3592.61,0.167077
3595.1,0.16783
3597.6,0.168794
3600.09,0.169691
3602.6,0.170504
3605.1,0.171507
3607.61,0.172392
3610.12,0.173101
3612.64,0.174009
3615.16,0.174769
3617.68,0.17549
3620.21,0.176446
3622.74,0.177292
3625.27,0.177944
3627.81,0.178758
3630.35,0.179793
3632.89,0.180787
3635.44,0.181637
3637.99,0.182406
3640.54,0.18315
3643.1,0.184046
3645.66,0.184913
3648.23,0.185855
3650.8,0.186555
3653.37,0.187342
3655.95,0.188324
3658.53,0.189148
3661.11,0.190104
3663.7,0.191095
3666.29,0.191761
3668.89,0.192521
3671.48,0.193342
3674.09,0.194232
3676.69,0.195057
3679.3,0.19585
3681.91,0.196657
3684.53,0.197655
3687.15,0.198521
3689.78,0.199212
3692.4,0.200096
3695.04,0.201097
3697.67,0.201977
3700.31,0.202721
3702.95,0.203428
3705.6,0.204155
3708.25,0.205127
3710.91,0.206151
3713.56,0.206998
3716.23,0.207789
3718.89,0.20856
3721.56,0.209382
3724.23,0.210298
3726.91,0.211098
3729.59,0.211823
3732.28,0.212743
3734.97,0.213713
3737.66,0.214524
3740.36,0.215114
3743.06,0.21599
3745.76,0.216737
3748.47,0.217501
3751.18,0.218277
3753.9,0.219116
3756.62,0.21979
3759.34,0.220719
3762.07,0.2217
3764.8,0.222355
3767.54,0.22293
3770.28,0.223919
3773.02,0.224748
3775.77,0.225501
3778.52,0.226357
3781.28,0.227117
3784.04,0.227825
3786.8,0.228721
3789.57,0.229464
3792.34,0.230197
3795.12,0.231024
3797.9,0.231747
3800.69,0.23255
3803.47,0.233388
3806.27,0.234199
3809.06,0.234908
3811.86,0.235559
3814.67,0.236258
3817.48,0.237127
3820.29,0.23796
3823.11,0.238666
3825.93,0.239415
3828.76,0.240253
3831.59,0.240951
3834.42,0.241507
3837.26,0.242137
3840.1,0.242726
3842.95,0.243518
3845.8,0.244361
3848.65,0.245213
3851.51,0.245957
3854.38,0.246644
3857.24,0.247202
3860.12,0.247886
3862.99,0.248615
3865.87,0.249191
3868.76,0.249787
3871.65,0.250456
3874.54,0.25108
3877.44,0.251871
3880.34,0.252637
3883.25,0.25339
3886.16,0.254058
3889.07,0.254571
3891.99,0.255138
3894.92,0.255803
3897.85,0.256393
3900.78,0.257024
3903.72,0.257589
3906.66,0.258052
3909.6,0.25857
3912.55,0.259137
3915.51,0.259871
3918.47,0.260622
3921.43,0.261145
3924.4,0.261562
3927.38,0.262166
3930.35,0.262772
3933.33,0.263183
3936.32,0.263549
3939.31,0.264089
3942.31,0.264546
3945.31,0.264928
3948.31,0.265601
3951.32,0.266006
3954.34,0.266344
3957.35,0.266893
3960.38,0.267336
3963.41,0.267747
3966.44,0.268179
3969.48,0.268702
3972.52,0.269013
3975.56,0.269334
3978.61,0.269855
3981.67,0.270212
3984.73,0.270525
3987.8,0.271006
3990.87,0.271499
3993.94,0.271899
3997.02,0.272244
4000.1,0.272624
4003.19,0.272915
4006.29,0.273268
4009.39,0.273806
4012.49,0.27425
4015.6,0.274634
4018.71,0.275074
4021.83,0.275409
4024.95,0.27575
4028.08,0.276171
4031.21,0.276428
4034.35,0.276751
4037.49,0.277146
4040.64,0.277506
4043.79,0.277677
4046.94,0.277999
4050.11,0.278398
4053.27,0.278805
4056.44,0.279224
4059.62,0.2796
4062.8,0.279884
4065.99,0.280179
4069.18,0.28031
4072.38,0.280576
4075.58,0.280924
4078.78,0.281152
4082.0,0.281158
4085.21,0.281462
4088.43,0.28179
4091.66,0.28187
4094.89,0.282175
4098.13,0.282559
4101.37,0.282642
4104.62,0.282755
4107.87,0.283094
4111.13,0.283279
4114.39,0.283348
4117.66,0.283451
4120.93,0.283497
4124.21,0.283744
4127.5,0.283925
4130.79,0.284146
4134.08,0.284338
4137.38,0.284477
4140.68,0.284552
4143.99,0.284571
4147.31,0.284553
4150.63,0.284577
4153.95,0.284653
4157.29,0.284794
4160.62,0.285006
4163.96,0.285129
4167.31,0.285105
4170.66,0.28507
4174.02,0.285106
4177.39,0.285163
4180.75,0.285451
4184.13,0.285589
4187.51,0.285394
4190.89,0.285268
4194.28,0.285263
4197.68,0.285324
4201.08,0.285266
4204.49,0.285262
4207.9,0.285148
4211.32,0.284964
4214.74,0.284754
4218.17,0.284644
4221.61,0.284601
4225.05,0.284631
4228.5,0.284639
4231.95,0.284577
4235.4,0.284592
4238.87,0.284788
4242.34,0.284783
4245.81,0.28488
4249.29,0.285086
4252.78,0.285314
4256.27,0.285349
4259.77,0.284638
4263.27,0.28356
4266.78,0.283249
4270.29,0.283311
4273.81,0.283395
4277.34,0.283525
4280.87,0.283539
4284.41,0.283363
4287.95,0.283214
4291.5,0.283106
4295.06,0.283068
4298.62,0.282932
4302.19,0.282643
4305.76,0.282423
4309.34,0.282301
4312.92,0.281934
4316.52,0.281692
4320.11,0.281659
4323.72,0.281576
4327.32,0.281278
4330.94,0.280919
4334.56,0.28063
4338.19,0.280401
4341.82,0.280137
4345.46,0.27992
4349.11,0.2794
4352.76,0.279027
4356.42,0.278729
4360.08,0.278364
4363.75,0.278014
4367.43,0.277686
4371.11,0.277442
4374.8,0.277132
4378.49,0.27664
4382.19,0.276119
4385.9,0.275748
4389.61,0.275506
4393.33,0.27517
4397.06,0.2748
4400.79,0.27436
4404.53,0.274023
4408.28,0.273563
4412.03,0.273151
4415.79,0.27272
4419.55,0.272286
4423.32,0.271835
4427.1,0.271375
4430.88,0.270945
4434.68,0.27043
4438.47,0.269929
4442.28,0.269516
4446.08,0.269096
4449.9,0.268615
4453.72,0.268145
4457.55,0.267649
4461.39,0.267161
4465.23,0.266802
4469.08,0.266373
4472.94,0.265795
4476.8,0.265105
4480.67,0.264707
4484.55,0.264368
4488.43,0.263767
4492.32,0.263211
4496.21,0.262773
4500.12,0.262239
4504.03,0.261754
4507.94,0.261371
4511.87,0.260843
4515.8,0.260349
4519.73,0.259859
4523.68,0.259318
4527.63,0.258733
4531.59,0.258156
4535.55,0.257574
4539.52,0.25703
4543.5,0.25654
4547.49,0.256114
4551.48,0.255647
4555.48,0.25507
4559.49,0.254609
4563.5,0.254221
4567.52,0.253727
4571.55,0.253255
4575.58,0.252811
4579.63,0.252485
4583.67,0.252117
4587.73,0.251714
4591.79,0.251297
4595.86,0.250821
4599.94,0.250321
4604.03,0.250128
4608.12,0.249877
4612.22,0.249455
4616.33,0.249129
4620.44,0.248849
4624.56,0.248565
4628.69,0.248175
4632.83,0.247815
4636.97,0.247517
4641.12,0.247167
4645.28,0.246889
4649.45,0.246644
4653.62,0.246266
4657.8,0.245964
4661.99,0.245773
4666.19,0.245691
4670.39,0.245493
4674.6,0.245212
4678.82,0.244999
4683.05,0.244779
4687.28,0.244458
4691.52,0.244205
4695.77,0.243963
4700.03,0.243734
4704.3,0.243454
4708.57,0.243279
4712.85,0.243039
4717.14,0.242837
4721.43,0.242612
4725.74,0.24235
4730.05,0.242082
4734.37,0.241923
4738.7,0.241775
4743.03,0.241488
4747.38,0.241243
4751.73,0.241156
4756.09,0.240968
4760.45,0.240832
4764.83,0.240684
4769.21,0.240505
4773.6,0.240234
4778.0,0.24008
4782.41,0.239978
4786.83,0.239737
4791.25,0.239524
4795.68,0.23932
4800.13,0.239217
4804.57,0.239088
4809.03,0.238906
4813.5,0.238802
4817.97,0.238762
4822.45,0.238527
4826.94,0.238274
4831.44,0.238113
4835.95,0.238013
4840.46,0.237817
4844.99,0.237544
4849.52,0.237432
4854.06,0.237413
4858.61,0.237297
4863.17,0.237155
4867.73,0.236884
4872.31,0.236609
4876.89,0.23646
4881.48,0.236297
4886.08,0.236154
4890.69,0.235975
4895.31,0.235747
4899.94,0.235512
4904.57,0.235415
4909.22,0.235288
4913.87,0.234982
4918.53,0.23464
4923.21,0.234461
4927.88,0.234361
4932.57,0.234145
4937.27,0.233856
4941.98,0.233813
4946.69,0.233773
4951.42,0.233478
4956.15,0.233187
4960.9,0.2331
4965.65,0.233016
4970.41,0.232802
4975.18,0.232688
4979.96,0.232533
4984.75,0.232396
4989.54,0.232276
4994.35,0.232145
4999.17,0.232051
5003.99,0.231957
5008.83,0.231956
5013.67,0.231961
5018.52,0.23193
5023.39,0.23194
5028.26,0.232115
5033.14,0.232092
5038.03,0.232023
5042.93,0.232092
5047.84,0.232148
5052.76,0.232168
5057.69,0.232179
5062.63,0.232284
5067.58,0.232409
5072.54,0.232439
5077.51,0.232341
5082.49,0.2322
5087.47,0.232226
5092.47,0.232355
5097.48,0.232379
5102.5,0.232198
5107.52,0.232155
5112.56,0.232362
5117.61,0.232272
5122.66,0.232209
5127.73,0.232111
5132.81,0.231945
5137.89,0.231895
5142.99,0.231756
5148.1,0.231553
5153.22,0.231718
5158.34,0.231938
5163.48,0.231809
5168.63,0.231757
5173.79,0.231556
5178.96,0.231305
5184.13,0.231311
5189.32,0.231521
5194.52,0.231518
5199.73,0.231333
5204.96,0.231196
5210.19,0.231224
5215.43,0.230921
5220.68,0.231041
5225.94,0.231034
5231.22,0.230781
5236.5,0.230596
5241.79,0.230455
5247.1,0.230326
5252.42,0.230212
5257.74,0.229984
5263.08,0.229734
5268.43,0.229469
5273.79,0.229127
5279.16,0.228822
5284.54,0.228644
5289.93,0.228285
5295.34,0.227823
5300.75,0.227757
5306.18,0.22743
5311.61,0.227089
5317.06,0.226688
5322.52,0.226266
5327.99,0.225887
5333.47,0.225464
5338.96,0.225051
5344.47,0.224669
5349.98,0.224109
5355.51,0.223992
5361.05,0.224031
5366.6,0.223499
5372.16,0.222976
5377.73,0.222617
5383.32,0.222389
5388.91,0.222081
5394.52,0.221631
5400.14,0.220992
5405.77,0.220596
5411.41,0.22019
5417.07,0.219743
5422.74,0.218924
5428.41,0.218896
5434.1,0.219007
5439.81,0.218165
5445.52,0.217496
5451.25,0.216861
5456.98,0.216409
5462.73,0.215572
5468.5,0.214912
5474.27,0.214787
5480.06,0.214025
5485.86,0.213497
5491.67,0.213021
5497.49,0.212223
5503.33,0.211541
5509.18,0.210828
5515.04,0.210099
5520.91,0.209187
5526.8,0.208485
5532.69,0.207849
5538.61,0.207139
5544.53,0.206187
5550.47,0.205183
5556.41,0.204137
5562.38,0.203328
5568.35,0.20241
5574.34,0.201274
5580.34,0.199932
5586.35,0.199473
5592.38,0.198763
5598.42,0.197382
5604.47,0.196166
5610.54,0.195262
5616.61,0.194126
5622.71,0.193044
5628.81,0.191868
5634.93,0.190305
5641.06,0.188525
5647.21,0.187454
5653.36,0.186777
5659.54,0.185045
5665.72,0.183964
5671.92,0.182214
5678.13,0.180299
5684.36,0.179127
5690.6,0.177454
5696.85,0.175582
5703.12,0.17421
5709.4,0.17191
5715.69,0.170067
5722.0,0.168578
5728.33,0.166496
5734.66,0.164354
5741.01,0.162014
5747.38,0.159505
5753.76,0.157196
5760.15,0.155018
5766.56,0.15165
5772.98,0.149742
5779.41,0.148267
5785.86,0.145202
5792.33,0.142311
5798.81,0.139394
5805.3,0.136655
5811.81,0.133997
5818.33,0.130813
5824.87,0.127761
5831.42,0.125751
5837.99,0.123252
5844.57,0.12044
5851.17,0.117625
5857.78,0.114693
5864.41,0.111735
5871.05,0.109128
5877.7,0.106287
5884.38,0.102991
5891.06,0.101206
5897.76,0.098082
5904.48,0.095398
5911.21,0.092885
5917.96,0.089561
5924.73,0.086748
5931.5,0.083761
5938.3,0.080458
5945.11,0.078452
5951.93,0.076097
5958.78,0.072957
5965.63,0.070212
5972.51,0.067472
5979.39,0.065087
5986.3,0.062258
5993.22,0.059713
6000.16,0.057622
6007.11,0.055423
6014.08,0.05309
6021.06,0.051158
6028.06,0.049414
6035.08,0.047606
6042.12,0.045972
6049.17,0.044382
6056.23,0.043604
6063.32,0.043229
6070.42,0.041901
6077.53,0.040994
6084.67,0.040565
6091.82,0.040317
6098.98,0.040193
6106.17,0.040153
6113.37,0.04021
6120.58,0.041024
6127.82,0.042225
6135.07,0.043397
6142.34,0.045092
6149.63,0.047247
6156.93,0.049632
6164.25,0.052252
6171.59,0.055295
6178.95,0.058065
6186.32,0.060616
6193.71,0.063885
6201.12,0.066993
6208.54,0.069315
6215.99,0.071893
6223.45,0.07418
6230.93,0.076154
6238.43,0.077869
6245.95,0.079592
6253.48,0.08109
6261.03,0.082422
6268.6,0.083439
6276.19,0.084463
6283.8,0.085374
6291.43,0.08638
6299.07,0.087266
6306.73,0.088096
6314.42,0.088886
6322.12,0.089818
6329.84,0.090881
6337.57,0.09196
6345.33,0.092574
6353.11,0.094089
6360.9,0.095437
6368.72,0.095669
6376.55,0.096472
6384.4,0.097623
6392.27,0.098006
6400.17,0.098375
6408.08,0.098332
6416.01,0.098196
6423.96,0.099721
6431.93,0.100352
6439.92,0.099874
6447.93,0.100066
6455.96,0.0998
6464.01,0.099877
6472.08,0.099629
6480.17,0.099426
6488.28,0.099312
6496.41,0.099308
6504.56,0.100359
6512.73,0.100861
6520.92,0.100083
6529.14,0.100409
6537.37,0.100929
6545.63,0.101002
6553.9,0.10128
6562.2,0.101774
6570.51,0.101883
6578.85,0.102245
6587.21,0.103584
6595.59,0.103779
6603.99,0.104289
6612.42,0.104783
6620.86,0.105148
6629.33,0.105363
6637.82,0.105145
6646.33,0.106355
6654.86,0.107639
6663.41,0.107326
6671.99,0.10724
6680.59,0.107425
6689.21,0.107769
6697.85,0.108514
6706.51,0.108498
6715.2,0.108361
6723.91,0.108771
6732.64,0.109078
6741.4,0.109081
6750.18,0.108975
6758.98,0.109103
6767.8,0.10927
6776.65,0.10918
6785.52,0.109293
6794.41,0.109443
6803.33,0.1101
6812.27,0.110113
6821.23,0.109834
6830.22,0.109867
6839.23,0.110292
6848.26,0.110255
6857.32,0.109713
6866.4,0.109404
6875.51,0.110413
6884.64,0.11066
6893.8,0.110113
6902.98,0.110126
6912.18,0.110217
6921.41,0.110434
6930.66,0.110392
6939.94,0.110392
6949.24,0.110309
6958.57,0.10997
6967.92,0.110072
6977.3,0.11056
6986.7,0.11015
6996.13,0.10996
7005.59,0.110029
7015.07,0.10995
7024.57,0.10985
7034.1,0.110027
7043.66,0.109645
7053.25,0.109614
7062.85,0.110209
7072.49,0.110139
7082.15,0.110006
7091.84,0.109889
7101.55,0.109922
7111.3,0.109829
7121.06,0.109627
7130.86,0.109638
7140.68,0.109491
7150.53,0.109143
7160.41,0.108903
7170.31,0.108534
7180.24,0.108282
7190.2,0.107984
7200.19,0.10727
7210.2,0.106646
7220.24,0.106241
7230.31,0.105568
7240.41,0.104666
7250.54,0.103928
7260.69,0.103293
7270.88,0.102731
7281.09,0.102033
7291.33,0.101629
7301.6,0.101235
7311.9,0.100638
7322.22,0.100043
7332.58,0.099479
7342.97,0.098917
7353.38,0.098628
7363.83,0.098179
7374.3,0.097608
7384.81,0.097149
7395.34,0.096737
7405.91,0.096296
7416.5,0.095767
7427.13,0.095256
7437.78,0.094794
7448.47,0.094352
7459.19,0.09395
7469.94,0.093381
7480.71,0.092824
7491.52,0.092262
7502.37,0.091539
7513.24,0.090505
7524.14,0.089591
7535.08,0.088891
7546.05,0.088083
7557.05,0.087182
7568.08,0.086363
7579.15,0.085487
7590.24,0.084479
7601.37,0.0835
7612.53,0.082777
7623.73,0.08194
7634.96,0.081123
7646.22,0.080433
7657.51,0.079459
7668.84,0.078434
7680.2,0.077499
7691.59,0.076602
7703.02,0.075628
7714.49,0.074492
7725.98,0.073407
7737.52,0.072298
7749.08,0.071081
7760.68,0.069841
7772.32,0.068653
7783.99,0.067291
7795.69,0.06591
7807.43,0.064638
7819.21,0.06343
7831.02,0.062202
7842.87,0.06085
7854.75,0.059436
7866.67,0.058153
7878.62,0.056693
7890.62,0.055216
7902.64,0.053801
7914.71,0.052261
7926.81,0.050846
7938.95,0.049501
7951.13,0.047971
7963.34,0.046461
7975.59,0.044936
7987.88,0.043461
8000.21,0.042041
8012.57,0.040503
8024.98,0.03899
8037.42,0.037636
8049.9,0.036227
8062.42,0.034718
8074.98,0.033214
8087.57,0.031944
8100.21,0.030589
8112.89,0.029099
8125.6,0.027661
8138.36,0.026487
8151.16,0.025331
8163.99,0.024177
8176.87,0.02297
8189.79,0.021665
8202.75,0.02055
8215.75,0.019566
8228.79,0.018597
8241.87,0.017584
8254.99,0.016708
8268.16,0.015836
8281.37,0.015006
8294.62,0.014217
8307.91,0.013396
8321.24,0.012858
8334.62,0.01233
8348.04,0.011746
8361.51,0.011279
8375.02,0.010979
8388.57,0.010849
8402.16,0.010777
8415.8,0.010598
8429.49,0.010663
8443.22,0.010925
8456.99,0.011154
8470.81,0.011228
8484.67,0.011546
8498.58,0.011898
8512.54,0.012322
8526.54,0.012675
8540.58,0.013251
8554.68,0.014004
8568.82,0.014578
8583.0,0.01514
8597.24,0.015798
8611.52,0.016569
8625.85,0.017371
8640.23,0.018084
8654.65,0.018959
8669.12,0.019825
8683.64,0.020619
8698.21,0.021345
8712.83,0.022061
8727.5,0.022667
8742.22,0.023328
8756.99,0.024227
8771.8,0.024974
8786.67,0.025736
8801.59,0.026628
8816.56,0.027367
8831.58,0.028187
8846.65,0.029041
8861.77,0.029934
8876.94,0.030666
8892.17,0.031153
8907.45,0.031768
8922.78,0.032216
8938.16,0.032626
8953.6,0.033117
8969.09,0.033386
8984.64,0.033661
9000.23,0.034004
9015.89,0.034286
9031.59,0.034363
9047.36,0.034416
9063.17,0.034607
9079.05,0.034871
9094.97,0.035026
9110.96,0.035045
9127.0,0.034933
9143.1,0.034805
9159.25,0.034818
9175.46,0.034547
9191.73,0.034206
9208.06,0.033864
9224.44,0.033331
9240.88,0.032892
9257.38,0.032493
9273.94,0.032164
9290.56,0.031835
9307.24,0.031671
9323.98,0.031516
9340.78,0.031467
9357.64,0.031526
9374.57,0.031515
9391.55,0.031606
9408.59,0.031837
9425.7,0.032083
9442.87,0.032564
9460.1,0.032905
9477.4,0.033274
9494.75,0.033946
9512.17,0.034618
9529.66,0.035135
9547.21,0.03606
9564.83,0.037059
9582.5,0.037763
9600.25,0.038586
9618.06,0.039374
9635.94,0.040505
9653.88,0.042043
9671.89,0.043234
9689.97,0.044192
9708.12,0.045271
9726.33,0.046124
9744.62,0.046784
9762.97,0.047357
9781.39,0.047693
9799.88,0.048062
9818.44,0.048385
9837.07,0.048494
9855.77,0.048503
9874.54,0.048777
9893.39,0.049129
9912.3,0.049385
9931.29,0.049765
9950.36,0.050275
9969.49,0.050955
9988.7,0.051532
10007.98,0.051968
10027.34,0.052521
10046.77,0.053145
10066.28,0.05349
10085.87,0.053777
10105.53,0.053714
10125.26,0.053568
10145.08,0.053483
10164.97,0.053276
10184.94,0.052847
10204.99,0.052246
10225.12,0.051682
10245.33,0.051287
10265.61,0.051175
10285.98,0.051171
10306.43,0.051248
10326.96,0.051251
10347.57,0.051361
10368.27,0.051808
10389.05,0.052268
10409.91,0.053035
10430.86,0.054002
10451.88,0.054779
10473.0,0.055638
10494.2,0.056575
10515.49,0.057419
10536.86,0.058086
10558.32,0.058443
10579.87,0.058635
10601.5,0.05907
10623.23,0.05978
10645.04,0.060126
10666.94,0.059997
10688.94,0.060286
10711.02,0.060473
10733.2,0.060179
10755.47,0.060151
10777.83,0.060407
10800.28,0.060577
10822.83,0.060419
10845.47,0.060237
10868.21,0.060275
10891.04,0.060671
10913.97,0.060947
10936.99,0.061179
10960.12,0.061538
10983.34,0.061902
11006.66,0.062353
11030.07,0.063107
11053.59,0.063995
11077.21,0.06452
11100.93,0.064907
11124.75,0.065768
11148.68,0.06713
11172.71,0.068255
11196.84,0.068968
11221.07,0.069737
11245.41,0.070408
11269.86,0.070986
11294.41,0.071293
11319.07,0.071554
11343.84,0.072233
11368.72,0.073355
11393.7,0.074443
11418.8,0.075539
11444.01,0.077006
11469.33,0.078934
11494.76,0.080792
11520.3,0.082535
11545.96,0.083962
11571.73,0.085183
11597.62,0.086202
11623.62,0.087213
11649.74,0.088164
11675.98,0.088606
11702.34,0.088738
11728.81,0.089073
11755.41,0.089433
11782.13,0.089417
11808.96,0.089299
11835.92,0.089232
11863.01,0.089126
11890.22,0.088635
11917.55,0.088239
11945.01,0.087793
11972.6,0.087094
12000.31,0.086279
12028.16,0.085085
12056.13,0.08366
12084.23,0.082317
12112.46,0.080575
12140.83,0.078712
12169.33,0.076678
12197.96,0.074835
12226.73,0.072938
12255.64,0.070567
12284.68,0.068412
12313.86,0.066015
12343.18,0.063554
12372.64,0.061128
12402.24,0.058568
12431.98,0.056162
12461.86,0.054269
12491.89,0.052331
12522.07,0.050335
12552.38,0.048545
12582.85,0.046615
12613.47,0.044875
12644.23,0.043495
12675.15,0.042078
12706.21,0.040746
12737.43,0.039704
12768.81,0.039211
12800.33,0.039115
12832.02,0.039356
12863.86,0.039396
12895.86,0.039563
12928.02,0.040122
12960.34,0.040332
12992.82,0.040225
13025.46,0.040152
13058.27,0.040013
13091.25,0.040007
13124.39,0.040321
13157.7,0.040678
13191.18,0.040861
13224.83,0.041054
13258.66,0.040892
13292.65,0.040577
13326.83,0.040328
13361.17,0.040176
13395.7,0.039686
13430.4,0.039146
13465.29,0.038855
13500.35,0.038598
13535.6,0.038152
13571.03,0.037647
13606.65,0.036844
13642.46,0.036219
13678.46,0.035636
13714.64,0.035061
13751.02,0.034157
13787.59,0.03319
13824.36,0.032397
13861.32,0.031943
13898.49,0.031328
13935.85,0.030608
13973.41,0.030095
14011.17,0.029133
14049.15,0.028375
14087.32,0.027957
14125.71,0.027364
14164.3,0.027004
14203.11,0.026614
14242.13,0.026365
14281.36,0.02613
14320.81,0.026283
14360.49,0.026375
14400.38,0.026012
14440.49,0.025503
14480.82,0.025141
14521.39,0.025091
14562.18,0.02531
14603.2,0.025123
14644.45,0.024787
14685.93,0.024462
14727.66,0.024404
14769.62,0.024399
14811.81,0.024155
14854.25,0.024027
14896.94,0.023942
14939.87,0.023771
14983.05,0.023581
15026.48,0.023654
15070.16,0.023986
15114.1,0.023991
15158.29,0.023678
15202.74,0.023317
15247.46,0.023265
15292.43,0.023182
15337.68,0.022657
15383.19,0.021763
15428.97,0.021239
15475.03,0.020742
15521.36,0.020037
15567.97,0.019714
15614.87,0.019688
15662.04,0.020251
15709.5,0.020472
15757.25,0.020318
15805.29,0.020358
15853.62,0.020781
15902.26,0.020982
15951.19,0.021061
16000.42,0.021719
16049.95,0.022282
16099.8,0.022652
16149.95,0.022793
16200.42,0.023024
16251.21,0.023263
16302.31,0.023487
16353.74,0.023885
16405.49,0.024267
16457.57,0.024622
16509.98,0.024996
16562.73,0.025398
16615.82,0.025716
16669.24,0.025866
16723.02,0.025746
16777.14,0.025547
16831.61,0.025608
16886.43,0.0259
16941.62,0.02603
16997.16,0.025716
17053.08,0.025459
17109.36,0.025665
17166.01,0.025921
17223.04,0.025802
17280.45,0.025876
17338.24,0.025866
17396.43,0.025876
17455.0,0.025767
17513.97,0.025653
17573.34,0.02564
17633.11,0.025766
17693.29,0.026209
17753.89,0.02639
17814.9,0.026116
17876.33,0.025594
17938.18,0.025564
18000.47,0.025703
18063.19,0.025612
18126.35,0.02546
18189.95,0.025403
18254.0,0.025617
18318.5,0.025774
18383.46,0.025651
18448.88,0.025524
18514.77,0.025697
18581.13,0.025765
18647.97,0.025698
18715.29,0.02593
18783.1,0.026219
18851.4,0.02589
18920.2,0.02532
18989.51,0.02523
19059.32,0.025019
19129.65,0.024595
19200.5,0.024605
19271.88,0.024547
19343.79,0.024356
19416.24,0.024432
19489.23,0.025343
19562.77,0.025719
19636.88,0.025572
19711.54,0.026197
19786.78,0.026709
19862.59,0.026698
19938.98,0.027294
20015.96,0.028121
20093.55,0.028478
20171.73,0.028945
20250.53,0.029201
20329.94,0.029142
20409.98,0.029644
20490.65,0.030098
20571.96,0.030636
20653.92,0.030793
20736.54,0.031102
20819.82,0.031959
20903.77,0.032718
20988.4,0.033261
21073.72,0.033883
21159.73,0.034325
21246.46,0.034971
21333.89,0.035961
21422.04,0.036862
21510.93,0.036975
21600.56,0.037282
21690.94,0.037967
21782.08,0.038807
21873.99,0.03929
21966.67,0.038991
22060.15,0.039052
22154.42,0.039754
22249.51,0.039509
22345.41,0.039592
22442.14,0.039809
22539.72,0.039992
22638.14,0.040505
22737.43,0.040102
22837.6,0.039844
22938.65,0.040475
23040.6,0.040977
23143.46,0.040309
23247.24,0.039513
23351.96,0.04025
23457.63,0.040905
23564.25,0.041077
23671.85,0.040474
23780.44,0.040031
23890.02,0.039971
24000.63,0.040301
24112.26,0.040599
24224.93,0.040548
24338.66,0.039791
24453.47,0.039978
24569.36,0.041282
24686.36,0.042739
24804.47,0.04414
24923.73,0.044948
25044.13,0.045431
25165.71,0.046174
25288.46,0.046914
25412.43,0.048869
25537.61,0.052017
25664.04,0.052829
25791.72,0.052577
25920.68,0.054521
