Database of Origin,University of Winnipeg Spectrophotometer Facility
Sample Description,Carbonates and Oxolates - RELAB+Nicolet spectra
Other Information,For pigments project -green.
Date Added,2018-08-06 20:49:03.609413

Data ID,RLA_CARB_2_1        
Sample ID,CRB501
Mineral Name,Malachite
Locality,Copper Queen Mine/ Besbee/ Cochise County/ Arizona/ USA
Grain Size,45-90 um
Viewing Geometry,30/0/30
Resolution,5/ 0.6-129 nm
Formula,Cu2+2(CO3)(OH)2
Composition,XRD shows nearly pure malachite/ high background indicates some amorphous material as well.

Wavelength
305.0,0.03219
310.0,0.031776
315.0,0.032494
320.0,0.033383
325.0,0.034761
330.0,0.036358
335.0,0.039233
340.0,0.042441
345.0,0.046759
350.0,0.052058
355.0,0.058807
360.0,0.067193
365.0,0.077513
370.0,0.090243
375.0,0.10598
380.0,0.125127
385.0,0.147288
390.0,0.173793
395.0,0.202452
400.0,0.233425
405.0,0.262919
410.0,0.289764
415.0,0.315672
420.0,0.337718
425.0,0.357725
430.0,0.374431
435.0,0.39136
440.0,0.406362
445.0,0.423001
450.0,0.438616
455.0,0.457535
460.0,0.47597
465.0,0.495743
470.0,0.513409
475.0,0.533701
480.0,0.552202
485.0,0.569269
490.0,0.58378
495.0,0.597032
500.0,0.608206
505.0,0.61764
510.0,0.624294
515.0,0.629138
520.0,0.632343
525.0,0.632187
530.0,0.628952
535.0,0.624084
540.0,0.615612
545.0,0.604564
550.0,0.588831
555.0,0.57291
560.0,0.55137
565.0,0.529579
570.0,0.508289
575.0,0.485808
580.0,0.461742
585.0,0.438955
590.0,0.417485
595.0,0.395855
600.0,0.376218
605.0,0.356446
610.0,0.339275
615.0,0.323359
620.0,0.310499
625.0,0.296327
630.0,0.283869
635.0,0.272653
640.0,0.261754
645.0,0.251846
650.0,0.24271
655.0,0.235081
660.0,0.228847
665.0,0.22255
670.0,0.216369
675.0,0.210549
680.0,0.205627
685.0,0.201273
690.0,0.196196
695.0,0.192685
700.0,0.188121
705.0,0.184355
710.0,0.181444
715.0,0.178167
720.0,0.175801
725.0,0.172819
730.0,0.170382
735.0,0.168231
740.0,0.166568
745.0,0.164865
750.0,0.164621
755.0,0.162201
760.0,0.161444
765.0,0.160492
770.0,0.159043
775.0,0.15849
780.0,0.15777
785.0,0.15742
790.0,0.157126
795.0,0.157055
800.0,0.156823
805.0,0.157011
810.0,0.156826
815.0,0.156006
820.0,0.15497
825.0,0.155309
830.0,0.154296
835.0,0.154397
840.0,0.154516
845.0,0.155044
850.0,0.156848
855.0,0.157361
860.0,0.158043
865.0,0.159034
870.0,0.160626
875.0,0.162163
880.0,0.164012
885.0,0.166974
890.0,0.170049
895.0,0.172739
900.0,0.175076
905.0,0.178821
910.0,0.182744
915.0,0.185502
920.0,0.190615
925.0,0.19473
930.0,0.199559
935.0,0.203661
940.0,0.208138
945.0,0.211933
950.0,0.217627
955.0,0.222241
960.0,0.22773
965.0,0.233156
970.0,0.237291
975.0,0.24191
980.0,0.246796
985.0,0.250667
990.0,0.255325
995.0,0.259486
1000.0,0.263458
1005.0,0.267539
1010.0,0.271356
1015.0,0.27425
1020.0,0.277586
1025.0,0.279931
1030.0,0.286054
1035.0,0.289036
1040.0,0.289213
1045.0,0.292088
1050.0,0.294101
1055.0,0.294688
1060.0,0.296655
1065.0,0.296547
1070.0,0.298237
1075.0,0.299245
1080.0,0.299447
1085.0,0.299245
1090.0,0.298715
1095.0,0.298799
1100.0,0.298869
1105.0,0.298523
1110.0,0.298779
1115.0,0.299084
1120.0,0.300154
1125.0,0.299535
1130.0,0.298726
1135.0,0.299777
1140.0,0.299174
1145.0,0.298756
1150.0,0.29799
1155.0,0.298511
1160.0,0.299312
1165.0,0.299475
1170.0,0.298791
1175.0,0.299285
1180.0,0.301729
1185.0,0.301005
1190.0,0.301416
1195.0,0.302702
1200.0,0.304699
1205.0,0.304753
1210.0,0.306694
1215.0,0.306924
1220.0,0.307565
1225.0,0.308937
1230.0,0.311344
1235.0,0.31271
1240.0,0.312783
1245.0,0.314286
1250.0,0.316238
1255.0,0.317457
1260.0,0.319151
1265.0,0.32122
1270.0,0.320877
1275.0,0.32261
1280.0,0.324007
1285.0,0.325486
1290.0,0.328561
1295.0,0.330881
1300.0,0.333063
1305.0,0.334784
1310.0,0.337424
1315.0,0.339187
1320.0,0.340572
1325.0,0.343305
1330.0,0.345877
1335.0,0.347836
1340.0,0.350509
1345.0,0.352931
1350.0,0.355311
1355.0,0.357537
1360.0,0.360208
1365.0,0.363328
1370.0,0.366137
1375.0,0.36983
1380.0,0.373068
1385.0,0.375945
1390.0,0.378416
1395.0,0.38158
1400.0,0.384037
1405.0,0.386688
1410.0,0.39036
1415.0,0.39411
1420.0,0.397672
1425.0,0.400918
1430.0,0.404729
1435.0,0.408284
1440.0,0.411651
1445.0,0.416134
1450.0,0.419532
1455.0,0.422329
1460.0,0.425652
1465.0,0.429207
1470.0,0.431901
1475.0,0.435568
1480.0,0.439165
1485.0,0.441632
1490.0,0.445464
1495.0,0.448092
1500.0,0.452206
1505.0,0.455879
1510.0,0.459021
1515.0,0.461998
1520.0,0.464908
1525.0,0.468649
1530.0,0.471496
1535.0,0.474983
1540.0,0.478327
1545.0,0.482145
1550.0,0.484823
1555.0,0.489042
1560.0,0.494192
1565.0,0.498337
1570.0,0.502104
1575.0,0.505747
1580.0,0.509163
1585.0,0.513021
1590.0,0.51744
1595.0,0.52193
1600.0,0.526979
1605.0,0.531314
1610.0,0.535185
1615.0,0.54032
1620.0,0.544227
1625.0,0.549017
1630.0,0.553489
1635.0,0.557897
1640.0,0.561847
1645.0,0.566669
1650.0,0.569816
1655.0,0.576312
1660.0,0.579759
1665.0,0.584728
1670.0,0.588968
1675.0,0.593237
1680.0,0.596898
1685.0,0.601213
1690.0,0.604422
1695.0,0.609394
1700.0,0.612919
1705.0,0.615675
1710.0,0.620406
1715.0,0.624088
1720.0,0.628066
1725.0,0.631333
1730.0,0.635152
1735.0,0.637796
1740.0,0.643033
1745.0,0.645742
1750.0,0.650749
1755.0,0.653688
1760.0,0.656448
1765.0,0.658996
1770.0,0.663501
1775.0,0.665976
1780.0,0.668971
1785.0,0.672457
1790.0,0.675388
1795.0,0.679087
1800.0,0.680169
1805.0,0.683592
1810.0,0.685456
1815.0,0.688671
1820.0,0.690494
1825.0,0.69208
1830.0,0.69325
1835.0,0.696162
1840.0,0.696839
1845.0,0.699127
1850.0,0.702108
1855.0,0.705793
1860.0,0.707867
1865.0,0.711039
1870.0,0.713785
1875.0,0.717969
1880.0,0.719525
1885.0,0.721741
1890.0,0.723484
1895.0,0.722836
1900.0,0.725287
1905.0,0.726363
1910.0,0.726616
1915.0,0.726899
1920.0,0.729771
1925.0,0.730983
1930.0,0.732098
1935.0,0.732672
1940.0,0.732475
1945.0,0.733764
1950.0,0.73318
1955.0,0.734407
1960.0,0.735919
1965.0,0.73684
1970.0,0.737131
1975.0,0.738542
1980.0,0.738607
1985.0,0.738797
1990.0,0.737362
1995.0,0.73799
2000.0,0.736818
2005.0,0.736214
2010.0,0.735316
2015.0,0.733638
2020.0,0.731963
2025.0,0.729839
2030.0,0.728631
2035.0,0.730155
2040.0,0.732588
2045.0,0.732861
2050.0,0.737013
2055.0,0.73744
2060.0,0.737979
2065.0,0.736794
2070.0,0.737307
2075.0,0.737975
2080.0,0.739765
2085.0,0.739958
2090.0,0.738728
2095.0,0.739137
2100.0,0.739357
2105.0,0.737804
2110.0,0.739735
2115.0,0.740096
2120.0,0.742653
2125.0,0.74501
2130.0,0.74694
2135.0,0.746831
2140.0,0.746165
2145.0,0.745167
2150.0,0.742483
2155.0,0.73893
2160.0,0.734669
2165.0,0.731272
2170.0,0.726221
2175.0,0.723254
2180.0,0.718821
2185.0,0.713852
2190.0,0.707331
2195.0,0.698109
2200.0,0.685456
2205.0,0.667829
2210.0,0.645893
2215.0,0.626384
2220.0,0.619483
2225.0,0.620621
2230.0,0.623228
2235.0,0.619162
2240.0,0.613726
2245.0,0.606178
2250.0,0.595563
2255.0,0.576524
2260.0,0.553596
2265.0,0.535803
2270.0,0.528884
2275.0,0.535087
2280.0,0.546977
2285.0,0.561907
2290.0,0.577987
2295.0,0.592874
2300.0,0.608624
2305.0,0.623596
2310.0,0.636473
2315.0,0.648813
2320.0,0.653695
2325.0,0.654552
2330.0,0.648867
2335.0,0.637171
2340.0,0.619247
2345.0,0.596429
2350.0,0.571957
2355.0,0.552056
2360.0,0.547401
2365.0,0.554476
2370.0,0.563112
2375.0,0.566179
2380.0,0.566194
2385.0,0.563467
2390.0,0.563378
2395.0,0.560052
2400.0,0.559046
2405.0,0.558593
2410.0,0.563741
2415.0,0.566904
2420.0,0.568051
2425.0,0.569866
2430.0,0.573966
2435.0,0.579162
2440.0,0.585804
2445.0,0.589318
2450.0,0.598808
2455.0,0.610777
2460.0,0.622523
2465.0,0.631256
2470.0,0.638433
2475.0,0.648052
2480.0,0.655078
2485.0,0.658601
2490.0,0.664158
2495.0,0.66482
2500.0,0.667126
2505.0,0.66697
2510.0,0.667854
2515.0,0.666716
2520.0,0.665431
2521.47,0.66589
2522.69,0.665283
2523.92,0.664965
2525.15,0.664695
2526.38,0.664064
2527.61,0.663429
2528.85,0.66201
2530.08,0.662097
2531.32,0.66293
2532.55,0.662907
2533.79,0.662531
2535.03,0.662495
2536.27,0.662492
2537.51,0.661963
2538.75,0.6607
2540.0,0.659891
2541.24,0.66015
2542.49,0.659007
2543.74,0.657205
2544.99,0.656379
2546.24,0.655447
2547.49,0.654401
2548.74,0.654219
2549.99,0.653931
2551.25,0.653085
2552.5,0.652141
2553.76,0.649862
2555.02,0.649181
2556.28,0.647582
2557.54,0.645434
2558.8,0.64502
2560.07,0.644477
2561.33,0.642123
2562.6,0.642985
2563.86,0.643367
2565.13,0.642992
2566.4,0.64243
2567.67,0.641609
2568.95,0.640248
2570.22,0.640221
2571.5,0.640928
2572.77,0.639127
2574.05,0.637375
2575.33,0.639023
2576.61,0.639675
2577.89,0.639144
2579.17,0.639121
2580.46,0.638312
2581.74,0.638785
2583.03,0.639253
2584.31,0.638577
2585.6,0.640951
2586.89,0.640489
2588.19,0.640791
2589.48,0.641922
2590.77,0.6426
2592.07,0.642473
2593.36,0.641768
2594.66,0.63969
2595.96,0.64279
2597.26,0.647427
2598.56,0.646853
2599.87,0.644675
2601.17,0.643354
2602.48,0.642794
2603.78,0.642082
2605.09,0.640367
2606.4,0.642739
2607.71,0.644682
2609.03,0.642888
2610.34,0.64221
2611.65,0.642522
2612.97,0.640203
2614.29,0.638193
2615.61,0.637588
2616.93,0.636419
2618.25,0.635693
2619.57,0.634345
2620.9,0.633332
2622.22,0.635459
2623.55,0.634363
2624.88,0.633174
2626.21,0.632177
2627.54,0.632797
2628.87,0.632276
2630.21,0.630196
2631.54,0.631041
2632.88,0.632306
2634.21,0.630747
2635.55,0.630071
2636.89,0.629425
2638.24,0.6287
2639.58,0.628381
2640.92,0.628472
2642.27,0.628395
2643.62,0.628357
2644.97,0.627051
2646.32,0.625795
2647.67,0.625163
2649.02,0.624083
2650.38,0.622412
2651.73,0.620809
2653.09,0.618723
2654.45,0.617309
2655.81,0.614353
2657.17,0.614079
2658.53,0.612835
2659.89,0.611803
2661.26,0.611542
2662.63,0.609784
2664.0,0.605888
2665.36,0.603342
2666.74,0.602781
2668.11,0.603039
2669.48,0.600826
2670.86,0.597646
2672.23,0.598852
2673.61,0.597353
2674.99,0.594474
2676.37,0.591797
2677.76,0.589607
2679.14,0.587991
2680.52,0.586422
2681.91,0.585533
2683.3,0.582949
2684.69,0.580731
2686.08,0.577727
2687.47,0.575851
2688.87,0.573914
2690.26,0.571344
2691.66,0.568582
2693.06,0.565893
2694.46,0.562621
2695.86,0.561295
2697.26,0.559645
2698.66,0.556947
2700.07,0.553221
2701.48,0.550332
2702.89,0.548373
2704.3,0.547117
2705.71,0.545052
2707.12,0.542558
2708.53,0.538299
2709.95,0.534828
2711.37,0.532449
2712.79,0.530925
2714.21,0.527964
2715.63,0.524885
2717.05,0.521169
2718.48,0.517336
2719.9,0.513634
2721.33,0.511449
2722.76,0.509207
2724.19,0.504309
2725.62,0.501048
2727.06,0.498656
2728.49,0.493555
2729.93,0.488998
2731.37,0.484738
2732.81,0.480361
2734.25,0.475292
2735.69,0.470142
2737.14,0.465657
2738.58,0.460729
2740.03,0.455979
2741.48,0.451526
2742.93,0.446843
2744.38,0.44196
2745.83,0.437034
2747.29,0.432021
2748.75,0.426151
2750.2,0.420692
2751.66,0.414462
2753.13,0.407695
2754.59,0.400517
2756.05,0.393901
2757.52,0.386957
2758.99,0.378789
2760.46,0.369201
2761.93,0.359951
2763.4,0.350122
2764.87,0.341352
2766.35,0.336044
2767.82,0.332503
2769.3,0.330245
2770.78,0.32851
2772.26,0.326326
2773.75,0.324269
2775.23,0.32145
2776.72,0.317234
2778.21,0.31236
2779.7,0.308553
2781.19,0.304254
2782.68,0.299463
2784.18,0.294751
2785.67,0.290965
2787.17,0.286946
2788.67,0.282568
2790.17,0.278419
2791.67,0.275124
2793.18,0.271579
2794.68,0.267508
2796.19,0.263245
2797.7,0.259062
2799.21,0.255264
2800.72,0.250897
2802.24,0.246012
2803.75,0.241488
2805.27,0.237641
2806.79,0.233746
2808.31,0.228755
2809.83,0.22309
2811.35,0.21804
2812.88,0.21383
2814.41,0.20894
2815.93,0.204583
2817.46,0.201012
2819.0,0.196484
2820.53,0.191757
2822.07,0.188105
2823.6,0.184295
2825.14,0.180442
2826.68,0.176425
2828.22,0.172571
2829.77,0.169057
2831.31,0.165118
2832.86,0.161765
2834.41,0.159606
2835.96,0.156328
2837.51,0.153276
2839.07,0.149758
2840.62,0.146362
2842.18,0.142989
2843.74,0.13958
2845.3,0.13624
2846.86,0.134199
2848.43,0.132194
2849.99,0.130018
2851.56,0.127506
2853.13,0.125658
2854.7,0.123842
2856.27,0.121923
2857.85,0.120414
2859.42,0.118745
2861.0,0.117284
2862.58,0.116213
2864.16,0.115531
2865.75,0.114189
2867.33,0.11291
2868.92,0.112507
2870.51,0.111191
2872.1,0.109315
2873.69,0.107922
2875.28,0.106953
2876.88,0.106184
2878.48,0.104166
2880.07,0.101973
2881.68,0.100869
2883.28,0.100059
2884.88,0.098503
2886.49,0.09636
2888.1,0.094534
2889.71,0.092722
2891.32,0.090995
2892.93,0.08933
2894.55,0.087569
2896.16,0.084699
2897.78,0.082203
2899.4,0.080227
2901.03,0.078606
2902.65,0.076244
2904.28,0.07378
2905.91,0.071841
2907.53,0.06963
2909.17,0.0675
2910.8,0.065006
2912.44,0.062251
2914.07,0.060194
2915.71,0.058532
2917.35,0.05721
2918.99,0.055616
2920.64,0.054451
2922.29,0.053478
2923.93,0.05238
2925.58,0.051228
2927.24,0.050897
2928.89,0.051249
2930.55,0.051507
2932.2,0.052353
2933.86,0.052843
2935.52,0.052643
2937.19,0.053
2938.85,0.053739
2940.52,0.054498
2942.19,0.055153
2943.86,0.05617
2945.53,0.057083
2947.21,0.057607
2948.88,0.058407
2950.56,0.059242
2952.24,0.06007
2953.92,0.061321
2955.61,0.062456
2957.29,0.062476
2958.98,0.062856
2960.67,0.063307
2962.36,0.062702
2964.06,0.06276
2965.75,0.062712
2967.45,0.062325
2969.15,0.06253
2970.85,0.062788
2972.55,0.062315
2974.26,0.061889
2975.97,0.061351
2977.68,0.060919
2979.39,0.060379
2981.1,0.06008
2982.82,0.059972
2984.53,0.059665
2986.25,0.059102
2987.97,0.058285
2989.7,0.057878
2991.42,0.057153
2993.15,0.056459
2994.88,0.056897
2996.61,0.056958
2998.34,0.056655
3000.08,0.056163
3001.82,0.056051
3003.55,0.056391
3005.3,0.057281
3007.04,0.057147
3008.78,0.056917
3010.53,0.057319
3012.28,0.05794
3014.03,0.058788
3015.79,0.06004
3017.54,0.060874
3019.3,0.062391
3021.06,0.063747
3022.82,0.064322
3024.58,0.065914
3026.35,0.067704
3028.12,0.069443
3029.89,0.0713
3031.66,0.0724
3033.43,0.073858
3035.21,0.075187
3036.99,0.076626
3038.77,0.078359
3040.55,0.080134
3042.33,0.081908
3044.12,0.083637
3045.91,0.085363
3047.7,0.086694
3049.49,0.087946
3051.29,0.089497
3053.08,0.090771
3054.88,0.09211
3056.68,0.093318
3058.49,0.094544
3060.29,0.095749
3062.1,0.09737
3063.91,0.098714
3065.72,0.099973
3067.54,0.101284
3069.35,0.102239
3071.17,0.10283
3072.99,0.103656
3074.81,0.105179
3076.64,0.106777
3078.46,0.107399
3080.29,0.108029
3082.13,0.109361
3083.96,0.110755
3085.79,0.11197
3087.63,0.112963
3089.47,0.114353
3091.31,0.115739
3093.16,0.116837
3095.01,0.117623
3096.85,0.117948
3098.71,0.118682
3100.56,0.11996
3102.41,0.121347
3104.27,0.122871
3106.13,0.123905
3107.99,0.1244
3109.86,0.12529
3111.73,0.126516
3113.59,0.128488
3115.47,0.13049
3117.34,0.131625
3119.21,0.132536
3121.09,0.133689
3122.97,0.134744
3124.86,0.136234
3126.74,0.137927
3128.63,0.139236
3130.52,0.140385
3132.41,0.141754
3134.3,0.143304
3136.2,0.144797
3138.1,0.145859
3140.0,0.147742
3141.9,0.14935
3143.81,0.150189
3145.71,0.151234
3147.62,0.15249
3149.54,0.153595
3151.45,0.15534
3153.37,0.157007
3155.29,0.158551
3157.21,0.159688
3159.13,0.160774
3161.06,0.16277
3162.99,0.164494
3164.92,0.165575
3166.85,0.166586
3168.79,0.168137
3170.72,0.170132
3172.67,0.171417
3174.61,0.172604
3176.55,0.173953
3178.5,0.175781
3180.45,0.177749
3182.4,0.179521
3184.36,0.181191
3186.32,0.183003
3188.27,0.18409
3190.24,0.185121
3192.2,0.186658
3194.17,0.188404
3196.14,0.189949
3198.11,0.191331
3200.08,0.192692
3202.06,0.193871
3204.04,0.195274
3206.02,0.196962
3208.0,0.198015
3209.99,0.199028
3211.98,0.200057
3213.97,0.201188
3215.96,0.202313
3217.96,0.203322
3219.96,0.204437
3221.96,0.205735
3223.96,0.207242
3225.97,0.208515
3227.98,0.209441
3229.99,0.210703
3232.0,0.212082
3234.02,0.21342
3236.04,0.214655
3238.06,0.21558
3240.08,0.216481
3242.11,0.217601
3244.14,0.218271
3246.17,0.218959
3248.2,0.219948
3250.24,0.221281
3252.28,0.222559
3254.32,0.22371
3256.37,0.224487
3258.41,0.225444
3260.46,0.226869
3262.51,0.228383
3264.57,0.230198
3266.63,0.231524
3268.69,0.23268
3270.75,0.234295
3272.81,0.235907
3274.88,0.237225
3276.95,0.238751
3279.02,0.240429
3281.1,0.241878
3283.18,0.243628
3285.26,0.245287
3287.34,0.246987
3289.43,0.248648
3291.51,0.250025
3293.61,0.251656
3295.7,0.253773
3297.8,0.255497
3299.89,0.256697
3302.0,0.257852
3304.1,0.259321
3306.21,0.260565
3308.32,0.262019
3310.43,0.263463
3312.55,0.264414
3314.66,0.265412
3316.78,0.266832
3318.91,0.267992
3321.03,0.269533
3323.16,0.271001
3325.29,0.272298
3327.43,0.273034
3329.57,0.273645
3331.71,0.274231
3333.85,0.274642
3335.99,0.275365
3338.14,0.27668
3340.29,0.277715
3342.45,0.278446
3344.6,0.279449
3346.76,0.280457
3348.92,0.280852
3351.09,0.281372
3353.26,0.28203
3355.43,0.282514
3357.6,0.28341
3359.78,0.284212
3361.96,0.284586
3364.14,0.284658
3366.32,0.284891
3368.51,0.285601
3370.7,0.286131
3372.89,0.286854
3375.09,0.287534
3377.29,0.28827
3379.49,0.288932
3381.69,0.289454
3383.9,0.28977
3386.11,0.290292
3388.32,0.290801
3390.54,0.291524
3392.76,0.292015
3394.98,0.292362
3397.21,0.292944
3399.43,0.293622
3401.66,0.294289
3403.9,0.295176
3406.13,0.295619
3408.37,0.295848
3410.61,0.296251
3412.86,0.296588
3415.11,0.296684
3417.36,0.297245
3419.61,0.297502
3421.87,0.297036
3424.13,0.296492
3426.39,0.296234
3428.66,0.295379
3430.93,0.294506
3433.2,0.294351
3435.48,0.293915
3437.76,0.293305
3440.04,0.292993
3442.32,0.293146
3444.61,0.29362
3446.9,0.2945
3449.19,0.296174
3451.49,0.297971
3453.79,0.299826
3456.09,0.301707
3458.4,0.303507
3460.7,0.304795
3463.02,0.305907
3465.33,0.307184
3467.65,0.308496
3469.97,0.309256
3472.29,0.309607
3474.62,0.310409
3476.95,0.311259
3479.29,0.311703
3481.62,0.311896
3483.96,0.312972
3486.3,0.314148
3488.65,0.314583
3491.0,0.315285
3493.35,0.315999
3495.71,0.31657
3498.07,0.316804
3500.43,0.317264
3502.79,0.318021
3505.16,0.318928
3507.53,0.319521
3509.91,0.320054
3512.29,0.320689
3514.67,0.32132
3517.05,0.322008
3519.44,0.322391
3521.83,0.322701
3524.22,0.323355
3526.62,0.323758
3529.02,0.324358
3531.43,0.325152
3533.83,0.325307
3536.24,0.32535
3538.66,0.325632
3541.08,0.325974
3543.5,0.326104
3545.92,0.326311
3548.35,0.32681
3550.78,0.327151
3553.21,0.327338
3555.65,0.327407
3558.09,0.327669
3560.53,0.327966
3562.98,0.328337
3565.43,0.328505
3567.88,0.328733
3570.34,0.329278
3572.8,0.330204
3575.27,0.331192
3577.73,0.332678
3580.2,0.334304
3582.68,0.336519
3585.16,0.338664
3587.64,0.340769
3590.12,0.343088
3592.61,0.345708
3595.1,0.348151
3597.6,0.350567
3600.09,0.352766
3602.6,0.354352
3605.1,0.355773
3607.61,0.357404
3610.12,0.358877
3612.64,0.359958
3615.16,0.361236
3617.68,0.362042
3620.21,0.362917
3622.74,0.363883
3625.27,0.364685
3627.81,0.36557
3630.35,0.366274
3632.89,0.366944
3635.44,0.36762
3637.99,0.368351
3640.54,0.368601
3643.1,0.369037
3645.66,0.369889
3648.23,0.370508
3650.8,0.371013
3653.37,0.371802
3655.95,0.372682
3658.53,0.37334
3661.11,0.37385
3663.7,0.374561
3666.29,0.374943
3668.89,0.375806
3671.48,0.376702
3674.09,0.376874
3676.69,0.377127
3679.3,0.377862
3681.91,0.378669
3684.53,0.379185
3687.15,0.379733
3689.78,0.380082
3692.4,0.380209
3695.04,0.38083
3697.67,0.381299
3700.31,0.381198
3702.95,0.380947
3705.6,0.38113
3708.25,0.38152
3710.91,0.38198
3713.56,0.381887
3716.23,0.382052
3718.89,0.382265
3721.56,0.381841
3724.23,0.381743
3726.91,0.382376
3729.59,0.382564
3732.28,0.383211
3734.97,0.384017
3737.66,0.384816
3740.36,0.386265
3743.06,0.387781
3745.76,0.388638
3748.47,0.3898
3751.18,0.391263
3753.9,0.392564
3756.62,0.393662
3759.34,0.394631
3762.07,0.395652
3764.8,0.39662
3767.54,0.397029
3770.28,0.397389
3773.02,0.397485
3775.77,0.397568
3778.52,0.397638
3781.28,0.397945
3784.04,0.397806
3786.8,0.397547
3789.57,0.397498
3792.34,0.397303
3795.12,0.396805
3797.9,0.396281
3800.69,0.395727
3803.47,0.395242
3806.27,0.395117
3809.06,0.394935
3811.86,0.394742
3814.67,0.394362
3817.48,0.393459
3820.29,0.392539
3823.11,0.391898
3825.93,0.391256
3828.76,0.390726
3831.59,0.39001
3834.42,0.388968
3837.26,0.388152
3840.1,0.387082
3842.95,0.385713
3845.8,0.384495
3848.65,0.383235
3851.51,0.381955
3854.38,0.380243
3857.24,0.378273
3860.12,0.376393
3862.99,0.373859
3865.87,0.371739
3868.76,0.370074
3871.65,0.368118
3874.54,0.366095
3877.44,0.364397
3880.34,0.362312
3883.25,0.360308
3886.16,0.358896
3889.07,0.357552
3891.99,0.355497
3894.92,0.353701
3897.85,0.351987
3900.78,0.350236
3903.72,0.348409
3906.66,0.346404
3909.6,0.344148
3912.55,0.342149
3915.51,0.340037
3918.47,0.33811
3921.43,0.336098
3924.4,0.333925
3927.37,0.33215
3930.35,0.33103
3933.33,0.33029
3936.32,0.32994
3939.31,0.330024
3942.31,0.330744
3945.31,0.331643
3948.31,0.333239
3951.32,0.335188
3954.34,0.337232
3957.35,0.339342
3960.38,0.341124
3963.41,0.342733
3966.44,0.344569
3969.48,0.346474
3972.52,0.348302
3975.56,0.350169
3978.61,0.352755
3981.67,0.35562
3984.73,0.358728
3987.8,0.362034
3990.87,0.365236
3993.94,0.368593
3997.02,0.371663
4000.1,0.374155
4003.19,0.376375
4006.29,0.37808
4009.39,0.379438
4012.49,0.380376
4015.6,0.381152
4018.71,0.381527
4021.83,0.381929
4024.95,0.38212
4028.08,0.38208
4031.21,0.382292
4034.35,0.382746
4037.49,0.382911
4040.64,0.383188
4043.79,0.383087
4046.94,0.382933
4050.11,0.38283
4053.27,0.382395
4056.44,0.381541
4059.62,0.38084
4062.8,0.380243
4065.99,0.379154
4069.18,0.377689
4072.38,0.376376
4075.58,0.375078
4078.78,0.373742
4082.0,0.372317
4085.21,0.370965
4088.43,0.369388
4091.66,0.367429
4094.89,0.365584
4098.13,0.363585
4101.37,0.361279
4104.62,0.359341
4107.87,0.357128
4111.13,0.354926
4114.39,0.352959
4117.66,0.351462
4120.93,0.350181
4124.21,0.349703
4127.5,0.349968
4130.78,0.350689
4134.08,0.35168
4137.38,0.353189
4140.68,0.355174
4143.99,0.357406
4147.31,0.359476
4150.63,0.361553
4153.95,0.363685
4157.29,0.36594
4160.62,0.368536
4163.96,0.371263
4167.31,0.373913
4170.66,0.376969
4174.02,0.380501
4177.39,0.384472
4180.75,0.388562
4184.13,0.392735
4187.51,0.396715
4190.89,0.400979
4194.28,0.40529
4197.68,0.409432
4201.08,0.413424
4204.49,0.417259
4207.9,0.420737
4211.32,0.42434
4214.74,0.42764
4218.17,0.431339
4221.61,0.434896
4225.05,0.438688
4228.5,0.442281
4231.95,0.445659
4235.4,0.448833
4238.87,0.451845
4242.34,0.454793
4245.81,0.457894
4249.29,0.460239
4252.78,0.462441
4256.27,0.464684
4259.77,0.466417
4263.27,0.467567
4266.78,0.469098
4270.29,0.470586
4273.81,0.471662
4277.34,0.472709
4280.87,0.473805
4284.41,0.47479
4287.95,0.475871
4291.5,0.476508
4295.06,0.477039
4298.62,0.47764
4302.19,0.478318
4305.76,0.478536
4309.34,0.478949
4312.92,0.479342
4316.52,0.479778
4320.11,0.479915
4323.72,0.480048
4327.32,0.480099
4330.94,0.480339
4334.56,0.480422
4338.19,0.48016
4341.82,0.479888
4345.46,0.479989
4349.11,0.480102
4352.76,0.480232
4356.42,0.47994
4360.08,0.479732
4363.75,0.479542
4367.43,0.479559
4371.11,0.479178
4374.8,0.478815
4378.49,0.478424
4382.19,0.478217
4385.9,0.478158
4389.61,0.477941
4393.33,0.477385
4397.06,0.476936
4400.79,0.476488
4404.53,0.476211
4408.28,0.475725
4412.03,0.475253
4415.79,0.474709
4419.55,0.474308
4423.32,0.473953
4427.1,0.473353
4430.88,0.472619
4434.67,0.471879
4438.47,0.471218
4442.27,0.471044
4446.08,0.470544
4449.9,0.46995
4453.72,0.469319
4457.55,0.468892
4461.39,0.468422
4465.23,0.467709
4469.08,0.466911
4472.94,0.466288
4476.8,0.465464
4480.67,0.464899
4484.55,0.464564
4488.43,0.463884
4492.32,0.462817
4496.21,0.462154
4500.12,0.461356
4504.03,0.460315
4507.94,0.459302
4511.87,0.458445
4515.8,0.457322
4519.73,0.456339
4523.68,0.455255
4527.63,0.454322
4531.59,0.453446
4535.55,0.452877
4539.52,0.451944
4543.5,0.451017
4547.49,0.450252
4551.48,0.44957
4555.48,0.448744
4559.49,0.447986
4563.5,0.446988
4567.52,0.445936
4571.55,0.444911
4575.58,0.443764
4579.62,0.442212
4583.67,0.440552
4587.73,0.438521
4591.79,0.436689
4595.86,0.434762
4599.94,0.432915
4604.03,0.431141
4608.12,0.42924
4612.22,0.427186
4616.33,0.425657
4620.44,0.424487
4624.56,0.423699
4628.69,0.423453
4632.83,0.423873
4636.97,0.424522
4641.12,0.425618
4645.28,0.427118
4649.45,0.429003
4653.62,0.430725
4657.8,0.432677
4661.99,0.43436
4666.19,0.435573
4670.39,0.43632
4674.6,0.437155
4678.82,0.437933
4683.05,0.438327
4687.28,0.438529
4691.52,0.438572
4695.77,0.438521
4700.03,0.438661
4704.3,0.438429
4708.57,0.438202
4712.85,0.438052
4717.14,0.437796
4721.43,0.437215
4725.74,0.437219
4730.05,0.437312
4734.37,0.437433
4738.7,0.437065
4743.03,0.436564
4747.38,0.436002
4751.73,0.435393
4756.09,0.433894
4760.45,0.432347
4764.83,0.430564
4769.21,0.428373
4773.6,0.42564
4778.0,0.422345
4782.41,0.418783
4786.83,0.415014
4791.25,0.410508
4795.68,0.405624
4800.13,0.400421
4804.57,0.395268
4809.03,0.390466
4813.5,0.38651
4817.97,0.383442
4822.45,0.381956
4826.94,0.381783
4831.44,0.383001
4835.95,0.385428
4840.46,0.389095
4844.99,0.39322
4849.52,0.397923
4854.06,0.402792
4858.61,0.407857
4863.17,0.412715
4867.73,0.417358
4872.31,0.421567
4876.89,0.42613
4881.48,0.430423
4886.08,0.434389
4890.69,0.438368
4895.31,0.441926
4899.94,0.444823
4904.57,0.447677
4909.22,0.450391
4913.87,0.452911
4918.53,0.454853
4923.21,0.456629
4927.88,0.458096
4932.57,0.459525
4937.27,0.460634
4941.98,0.46173
4946.69,0.462172
4951.42,0.462768
4956.15,0.463426
4960.89,0.463657
4965.65,0.463802
4970.41,0.463836
4975.18,0.463352
4979.96,0.462819
4984.75,0.462025
4989.54,0.461297
4994.35,0.460324
4999.17,0.459197
5003.99,0.457725
5008.83,0.456223
5013.67,0.454646
5018.52,0.45286
5023.39,0.451067
5028.26,0.449636
5033.14,0.447862
5038.03,0.446108
5042.93,0.44415
5047.84,0.442184
5052.76,0.440234
5057.69,0.438353
5062.63,0.436509
5067.58,0.435125
5072.54,0.433682
5077.51,0.432156
5082.49,0.430733
5087.47,0.429764
5092.47,0.429118
5097.48,0.42841
5102.5,0.427764
5107.52,0.427693
5112.56,0.42778
5117.61,0.427956
5122.66,0.428144
5127.73,0.428104
5132.81,0.427872
5137.89,0.42767
5142.99,0.427152
5148.1,0.426451
5153.22,0.425692
5158.34,0.425122
5163.48,0.424198
5168.63,0.423297
5173.79,0.422219
5178.96,0.421208
5184.13,0.420096
5189.32,0.419134
5194.52,0.418439
5199.73,0.418023
5204.95,0.417786
5210.19,0.418135
5215.43,0.418472
5220.68,0.418939
5225.94,0.419388
5231.22,0.419802
5236.5,0.420022
5241.79,0.420816
5247.1,0.42158
5252.42,0.422246
5257.74,0.42274
5263.08,0.423262
5268.43,0.423736
5273.79,0.424447
5279.16,0.424887
5284.54,0.425428
5289.93,0.425868
5295.34,0.426101
5300.75,0.426175
5306.18,0.426291
5311.61,0.426064
5317.06,0.425814
5322.52,0.425475
5327.99,0.424861
5333.47,0.423837
5338.96,0.422849
5344.47,0.421514
5349.98,0.419997
5355.51,0.418316
5361.05,0.416519
5366.6,0.41399
5372.16,0.411154
5377.73,0.407898
5383.32,0.404502
5388.91,0.400114
5394.52,0.395227
5400.14,0.389798
5405.77,0.384079
5411.41,0.378105
5417.07,0.372094
5422.74,0.365933
5428.41,0.360301
5434.1,0.355165
5439.81,0.351075
5445.52,0.347865
5451.25,0.345878
5456.98,0.345009
5462.73,0.344926
5468.5,0.345661
5474.27,0.346258
5480.06,0.345167
5485.86,0.342807
5491.67,0.339284
5497.49,0.33447
5503.33,0.328228
5509.18,0.321323
5515.04,0.313641
5520.91,0.305366
5526.8,0.296896
5532.69,0.289237
5538.61,0.282951
5544.53,0.278643
5550.47,0.276833
5556.41,0.277931
5562.38,0.281568
5568.35,0.286595
5574.34,0.292308
5580.34,0.297742
5586.35,0.302734
5592.38,0.306371
5598.42,0.308972
5604.47,0.311181
5610.54,0.312793
5616.61,0.314045
5622.71,0.315133
5628.81,0.315951
5634.93,0.316453
5641.06,0.317145
5647.21,0.318308
5653.36,0.319944
5659.54,0.3217
5665.72,0.324193
5671.92,0.32644
5678.13,0.328532
5684.36,0.330833
5690.6,0.332868
5696.85,0.334466
5703.12,0.336204
5709.4,0.337229
5715.69,0.338376
5722.0,0.338931
5728.33,0.339117
5734.66,0.33933
5741.01,0.339738
5747.38,0.339374
5753.76,0.338875
5760.15,0.337954
5766.56,0.336658
5772.98,0.335345
5779.41,0.334011
5785.86,0.332012
5792.33,0.329844
5798.81,0.327306
5805.3,0.324817
5811.81,0.321866
5818.33,0.319056
5824.87,0.315786
5831.42,0.312924
5837.99,0.309546
5844.57,0.306316
5851.17,0.302858
5857.78,0.299671
5864.41,0.296303
5871.05,0.292931
5877.7,0.288981
5884.38,0.285066
5891.06,0.281044
5897.76,0.277145
5904.48,0.273149
5911.21,0.269171
5917.96,0.265191
5924.73,0.26152
5931.5,0.257413
5938.3,0.253198
5945.11,0.249028
5951.93,0.245459
5958.78,0.241606
5965.63,0.23793
5972.51,0.234484
5979.39,0.231158
5986.3,0.227531
5993.22,0.224461
6000.16,0.221131
6007.11,0.218079
6014.08,0.214851
6021.06,0.212013
6028.06,0.209121
6035.08,0.206395
6042.12,0.20392
6049.17,0.201466
6056.23,0.19799
6063.32,0.19474
6070.42,0.191468
6077.53,0.188268
6084.67,0.184732
6091.82,0.181563
6098.98,0.178031
6106.17,0.174475
6113.37,0.170713
6120.58,0.167143
6127.82,0.163771
6135.07,0.160673
6142.34,0.156772
6149.63,0.153215
6156.93,0.149871
6164.25,0.146833
6171.59,0.143646
6178.94,0.140668
6186.32,0.137578
6193.71,0.13457
6201.12,0.131191
6208.54,0.127784
6215.99,0.124123
6223.45,0.120697
6230.93,0.116997
6238.43,0.113286
6245.95,0.109477
6253.48,0.105749
6261.03,0.101698
6268.6,0.097809
6276.19,0.093475
6283.8,0.089495
6291.43,0.085658
6299.07,0.082024
6306.73,0.078276
6314.42,0.074576
6322.12,0.070843
6329.83,0.067795
6337.57,0.064893
6345.33,0.062358
6353.11,0.059442
6360.9,0.056874
6368.72,0.054736
6376.55,0.052761
6384.4,0.051124
6392.27,0.050216
6400.17,0.04942
6408.08,0.049094
6416.01,0.049084
6423.96,0.049558
6431.93,0.050383
6439.92,0.051763
6447.93,0.053482
6455.96,0.055733
6464.01,0.058258
6472.08,0.060806
6480.17,0.063216
6488.28,0.065645
6496.41,0.068013
6504.56,0.070349
6512.73,0.072054
6520.92,0.073613
6529.14,0.07484
6537.37,0.075797
6545.63,0.076488
6553.9,0.076899
6562.2,0.077308
6570.51,0.077695
6578.85,0.07806
6587.21,0.078518
6595.59,0.078757
6603.99,0.079096
6612.42,0.079234
6620.86,0.079445
6629.33,0.079373
6637.82,0.079397
6646.33,0.07955
6654.86,0.079494
6663.41,0.079338
6671.99,0.079323
6680.59,0.078875
6689.21,0.07843
6697.85,0.078148
6706.51,0.077949
6715.2,0.07769
6723.91,0.077368
6732.64,0.076976
6741.4,0.076533
6750.18,0.075893
6758.98,0.075646
6767.8,0.075411
6776.65,0.074906
6785.52,0.074434
6794.41,0.074084
6803.33,0.073615
6812.27,0.073079
6821.23,0.072208
6830.22,0.071241
6839.23,0.069909
6848.26,0.068586
6857.32,0.066998
6866.4,0.065308
6875.51,0.06357
6884.64,0.061704
6893.8,0.059357
6902.98,0.057304
6912.18,0.055516
6921.41,0.053802
6930.66,0.052722
6939.94,0.052582
6949.24,0.05316
6958.57,0.055335
6967.92,0.059118
6977.3,0.06325
6986.7,0.067098
6996.13,0.071088
7005.59,0.075125
7015.07,0.079019
7024.57,0.08281
7034.1,0.086577
7043.66,0.090114
7053.24,0.093574
7062.85,0.096792
7072.49,0.099559
7082.15,0.102036
7091.84,0.104008
7101.55,0.105577
7111.3,0.106717
7121.06,0.107339
7130.86,0.107611
7140.68,0.107403
7150.53,0.106804
7160.41,0.106067
7170.31,0.10502
7180.24,0.103896
7190.2,0.103017
7200.19,0.102096
7210.2,0.101233
7220.24,0.100412
7230.31,0.099739
7240.41,0.099079
7250.54,0.098872
7260.69,0.098936
7270.88,0.099444
7281.09,0.100575
7291.33,0.102012
7301.6,0.103677
7311.9,0.105603
7322.22,0.1078
7332.58,0.110303
7342.97,0.112971
7353.38,0.115827
7363.83,0.118782
7374.3,0.121932
7384.81,0.124991
7395.34,0.128064
7405.91,0.131176
7416.5,0.13408
7427.13,0.136964
7437.78,0.139863
7448.47,0.14284
7459.19,0.145923
7469.94,0.148883
7480.71,0.151726
7491.52,0.15444
7502.37,0.157139
7513.24,0.15975
7524.14,0.162329
7535.08,0.164787
7546.05,0.16696
7557.05,0.169391
7568.08,0.172242
7579.14,0.175244
7590.24,0.178207
7601.37,0.181383
7612.53,0.184742
7623.73,0.188278
7634.96,0.191623
7646.22,0.195302
7657.51,0.199134
7668.84,0.202952
7680.2,0.206783
7691.59,0.210695
7703.02,0.214293
7714.49,0.21746
7725.98,0.220431
7737.51,0.2234
7749.08,0.225955
7760.68,0.228198
7772.32,0.230527
7783.99,0.232975
7795.69,0.235371
7807.43,0.237686
7819.21,0.239973
7831.02,0.242506
7842.87,0.2451
7854.75,0.247262
7866.67,0.249094
7878.62,0.251059
7890.62,0.252723
7902.64,0.254295
7914.71,0.255482
7926.81,0.256514
7938.95,0.257363
7951.13,0.258291
7963.34,0.258765
7975.59,0.258998
7987.88,0.259002
8000.21,0.259288
8012.57,0.259557
8024.98,0.259722
8037.42,0.259447
8049.9,0.259296
8062.42,0.259127
8074.98,0.258658
8087.57,0.258084
8100.21,0.257745
8112.89,0.257238
8125.6,0.256841
8138.36,0.256757
8151.16,0.256873
8163.99,0.256784
8176.87,0.256765
8189.79,0.256463
8202.75,0.256279
8215.74,0.256087
8228.79,0.255674
8241.87,0.255193
8254.99,0.254703
8268.16,0.253842
8281.37,0.252983
8294.62,0.25234
8307.91,0.251519
8321.24,0.250302
8334.62,0.249072
8348.04,0.248064
8361.51,0.247103
8375.02,0.245936
8388.57,0.244493
8402.16,0.242974
8415.8,0.241596
8429.49,0.239891
8443.22,0.23813
8456.99,0.23652
8470.81,0.234644
8484.67,0.232759
8498.58,0.231214
8512.54,0.229564
8526.54,0.227935
8540.58,0.226206
8554.68,0.224186
8568.82,0.221803
8583.0,0.219405
8597.24,0.217061
8611.52,0.214595
8625.85,0.212281
8640.22,0.209901
8654.65,0.206888
8669.12,0.203772
8683.64,0.200815
8698.21,0.198003
8712.83,0.194417
8727.5,0.190757
8742.22,0.187153
8756.98,0.183196
8771.8,0.179142
8786.67,0.175238
8801.59,0.171401
8816.56,0.166992
8831.58,0.162298
8846.65,0.157788
8861.77,0.153152
8876.94,0.148029
8892.17,0.142707
8907.45,0.137162
8922.78,0.131008
8938.16,0.124849
8953.6,0.119258
8969.09,0.113815
8984.64,0.108184
9000.23,0.10215
9015.89,0.096033
9031.59,0.090214
9047.36,0.084032
9063.17,0.077383
9079.04,0.071194
9094.97,0.065709
9110.96,0.06268
9127.0,0.063797
9143.09,0.069213
9159.25,0.078654
9175.46,0.090836
9191.73,0.101505
9208.05,0.106753
9224.44,0.105838
9240.88,0.10063
9257.38,0.093113
9273.94,0.084829
9290.56,0.076908
9307.24,0.069313
9323.98,0.062381
9340.78,0.056603
9357.64,0.051758
9374.57,0.048172
9391.55,0.046325
9408.59,0.046308
9425.7,0.048098
9442.87,0.051266
9460.1,0.055131
9477.39,0.059284
9494.75,0.063482
9512.17,0.067623
9529.66,0.070861
9547.21,0.073177
9564.82,0.074561
9582.5,0.07561
9600.25,0.076046
9618.06,0.076408
9635.94,0.077366
9653.88,0.078642
9671.89,0.080043
9689.97,0.081967
9708.12,0.084067
9726.33,0.086419
9744.61,0.088952
9762.97,0.091058
9781.39,0.093046
9799.88,0.095362
9818.44,0.097656
9837.07,0.099466
9855.77,0.10137
9874.54,0.103707
9893.39,0.105832
9912.3,0.107393
9931.29,0.109054
9950.35,0.110743
9969.49,0.111789
9988.7,0.112761
10007.98,0.113584
10027.34,0.1139
10046.77,0.114031
10066.28,0.114223
10085.87,0.114216
10105.53,0.113774
10125.26,0.113137
10145.08,0.112489
10164.97,0.112248
10184.94,0.111972
10204.99,0.11093
10225.12,0.110038
10245.33,0.109402
10265.61,0.108752
10285.98,0.108337
10306.43,0.107934
10326.96,0.107369
10347.57,0.106448
10368.27,0.105554
10389.05,0.104496
10409.91,0.103457
10430.85,0.102416
10451.88,0.100868
10473.0,0.099231
10494.2,0.097452
10515.49,0.095262
10536.86,0.092817
10558.32,0.090339
10579.87,0.088313
10601.5,0.086577
10623.23,0.08435
10645.04,0.082274
10666.94,0.080547
10688.94,0.078386
10711.02,0.076337
10733.2,0.074445
10755.47,0.072437
10777.83,0.07028
10800.28,0.068216
10822.83,0.066076
10845.47,0.063975
10868.21,0.062332
10891.04,0.060502
10913.97,0.058831
10936.99,0.057279
10960.12,0.055615
10983.34,0.05477
11006.66,0.054453
11030.07,0.054028
11053.59,0.053412
11077.21,0.05371
11100.93,0.05453
11124.75,0.055207
11148.68,0.056189
11172.7,0.057593
11196.84,0.058944
11221.07,0.060411
11245.41,0.062028
11269.86,0.063887
11294.41,0.065271
11319.07,0.06647
11343.84,0.067616
11368.72,0.068172
11393.7,0.068244
11418.8,0.068643
11444.01,0.069688
11469.33,0.071055
11494.76,0.071763
11520.3,0.072484
11545.96,0.073749
11571.73,0.07495
11597.62,0.076285
11623.62,0.07782
11649.74,0.07966
11675.98,0.081477
11702.34,0.083224
11728.81,0.085248
11755.41,0.08713
11782.13,0.089364
11808.96,0.091487
11835.92,0.09312
11863.01,0.094748
11890.22,0.0963
11917.55,0.097327
11945.01,0.098227
11972.6,0.098579
12000.31,0.098524
12028.16,0.097844
12056.13,0.097399
12084.23,0.098048
12112.46,0.099143
12140.83,0.100043
12169.33,0.101583
12197.96,0.10315
12226.73,0.102467
12255.64,0.100308
12284.68,0.103298
12313.86,0.112044
12343.18,0.118997
12372.64,0.121506
12402.24,0.120191
12431.98,0.116596
12461.86,0.114231
12491.89,0.113936
12522.06,0.113246
12552.38,0.111237
12582.85,0.108839
12613.47,0.106104
12644.23,0.102859
12675.15,0.099664
12706.21,0.096602
12737.43,0.094055
12768.8,0.091556
12800.33,0.08905
12832.02,0.087172
12863.86,0.086006
12895.86,0.085169
12928.02,0.083987
12960.34,0.08334
12992.82,0.082938
13025.46,0.081654
13058.27,0.07959
13091.25,0.077664
13124.39,0.075682
13157.7,0.072142
13191.18,0.068282
13224.83,0.064892
13258.66,0.063339
13292.65,0.065108
13326.83,0.068836
13361.17,0.072801
13395.7,0.076742
13430.4,0.080711
13465.29,0.084526
13500.35,0.087964
13535.6,0.090622
13571.03,0.0922
13606.65,0.093678
13642.46,0.094923
13678.46,0.095957
13714.64,0.097036
13751.02,0.09744
13787.59,0.097888
13824.36,0.098745
13861.32,0.098696
13898.48,0.096564
13935.85,0.093158
13973.41,0.088673
14011.17,0.083914
14049.15,0.08309
14087.32,0.08772
14125.71,0.09408
14164.3,0.098765
14203.11,0.102625
14242.13,0.105554
14281.36,0.107787
14320.81,0.110192
14360.48,0.111799
14400.38,0.112881
14440.49,0.113984
14480.82,0.115762
14521.39,0.117218
14562.18,0.118102
14603.2,0.119148
14644.45,0.120409
14685.93,0.121467
14727.66,0.122851
14769.62,0.124127
14811.81,0.125155
14854.25,0.126692
14896.94,0.128226
14939.87,0.129665
14983.05,0.130588
15026.48,0.131296
15070.16,0.13233
15114.1,0.133252
15158.29,0.133757
15202.74,0.133931
15247.46,0.134282
15292.43,0.135012
15337.68,0.135129
15383.19,0.134782
15428.97,0.135
15475.03,0.13498
15521.36,0.134729
15567.97,0.134753
15614.86,0.134137
15662.04,0.133555
15709.5,0.132621
15757.25,0.131217
15805.29,0.130192
15853.62,0.12854
15902.25,0.126784
15951.18,0.125116
16000.42,0.123509
16049.95,0.121863
16099.8,0.119694
16149.95,0.117104
16200.42,0.114301
16251.21,0.111669
16302.31,0.108888
16353.74,0.106346
16405.49,0.103858
16457.57,0.09979
16509.98,0.095945
16562.73,0.09115
16615.82,0.086392
16669.24,0.08191
16723.02,0.076679
16777.13,0.07147
16831.61,0.067006
16886.43,0.063649
16941.62,0.061768
16997.16,0.06135
17053.07,0.061329
17109.36,0.062077
17166.01,0.06353
17223.04,0.065445
17280.45,0.066727
17338.24,0.067955
17396.43,0.069201
17455.0,0.070947
17513.97,0.074059
17573.34,0.076271
17633.11,0.078225
17693.29,0.081812
17753.89,0.084744
17814.9,0.086372
17876.33,0.088409
17938.18,0.09034
18000.47,0.091803
18063.19,0.093037
18126.35,0.093556
18189.95,0.094026
18254.0,0.093113
18318.5,0.091048
18383.46,0.088076
18448.88,0.085179
18514.77,0.082967
18581.13,0.079477
18647.97,0.076723
18715.29,0.074215
18783.1,0.073769
18851.4,0.075902
18920.2,0.079021
18989.51,0.082364
19059.32,0.087039
19129.65,0.09016
19200.5,0.09156
19271.88,0.091649
19343.79,0.090321
19416.23,0.089533
19489.23,0.088689
19562.77,0.087607
19636.88,0.087184
19711.54,0.088216
19786.77,0.089656
19862.59,0.091095
19938.98,0.093295
20015.96,0.096249
20093.54,0.098828
20171.73,0.099877
20250.53,0.101357
20329.94,0.101484
20409.98,0.100206
20490.65,0.099822
20571.96,0.098989
20653.92,0.099065
20736.54,0.098425
20819.82,0.099267
20903.77,0.101224
20988.4,0.101424
21073.72,0.101689
21159.73,0.10374
21246.46,0.104497
21333.89,0.105152
21422.04,0.105608
21510.93,0.105197
21600.56,0.10423
21690.94,0.101861
21782.08,0.100884
21873.99,0.101928
21966.67,0.101603
22060.15,0.099701
22154.42,0.097532
22249.51,0.096117
22345.41,0.092902
22442.14,0.089044
22539.72,0.086187
22638.14,0.083016
22737.43,0.079313
22837.6,0.075885
22938.65,0.072868
23040.6,0.068976
23143.46,0.069244
23247.24,0.072934
23351.96,0.076674
23457.62,0.080752
23564.25,0.084859
23671.85,0.085386
23780.44,0.085068
23890.02,0.087019
24000.63,0.085757
24112.26,0.086841
24224.93,0.088056
24338.66,0.087046
24453.47,0.085833
24569.36,0.083888
24686.36,0.083282
24804.47,0.080201
24923.72,0.080269
25044.13,0.079376
25165.7,0.080882
25288.46,0.07889
25412.43,0.070642
25537.61,0.065167
25664.03,0.068814
25791.71,0.06569
25920.67,0.063509
