Database of Origin,University of Winnipeg Spectrophotometer Facility
Sample Description,"Zeolites: RELAB + Nicolet spectra, Merged at 2.5 microns; note change in viewing geometry"
Date Added,2018-07-23 23:09:47.674188

Data ID,RLA_ZEO_1_17        
Sample ID,zeo121
Mineral Name,stilbite
Grain Size,<45 um
Viewing Geometry,"30/0,30"
Resolution,5/.6-129 nm

Wavelength
305.0,0.653266
310.0,0.670547
315.0,0.682482
320.0,0.693907
325.0,0.706093
330.0,0.717429
335.0,0.72764
340.0,0.735457
345.0,0.7433
350.0,0.751751
355.0,0.758814
360.0,0.764535
365.0,0.770765
370.0,0.777277
375.0,0.784756
380.0,0.792099
385.0,0.798155
390.0,0.805633
395.0,0.808844
400.0,0.813086
405.0,0.817721
410.0,0.821596
415.0,0.826458
420.0,0.830181
425.0,0.834555
430.0,0.838251
435.0,0.842262
440.0,0.846036
445.0,0.848404
450.0,0.851248
455.0,0.854645
460.0,0.857847
465.0,0.86083
470.0,0.861842
475.0,0.865653
480.0,0.866898
485.0,0.868535
490.0,0.869972
495.0,0.871912
500.0,0.873189
505.0,0.875778
510.0,0.876969
515.0,0.878933
520.0,0.880463
525.0,0.881737
530.0,0.883269
535.0,0.88531
540.0,0.885558
545.0,0.887039
550.0,0.887576
555.0,0.889266
560.0,0.889053
565.0,0.890446
570.0,0.890188
575.0,0.891222
580.0,0.890496
585.0,0.891086
590.0,0.890281
595.0,0.89139
600.0,0.890088
605.0,0.889754
610.0,0.890033
615.0,0.890489
620.0,0.889043
625.0,0.889428
630.0,0.888794
635.0,0.889473
640.0,0.888712
645.0,0.888952
650.0,0.888695
655.0,0.888433
660.0,0.888571
665.0,0.888614
670.0,0.888797
675.0,0.888673
680.0,0.888897
685.0,0.888394
690.0,0.888716
695.0,0.888413
700.0,0.889425
705.0,0.88875
710.0,0.888703
715.0,0.888929
720.0,0.888358
725.0,0.889312
730.0,0.888228
735.0,0.888664
740.0,0.887428
745.0,0.887917
750.0,0.890075
755.0,0.888268
760.0,0.888585
765.0,0.888687
770.0,0.889649
775.0,0.888805
780.0,0.890854
785.0,0.891346
790.0,0.891239
795.0,0.890074
800.0,0.891511
805.0,0.889829
810.0,0.891921
815.0,0.891932
820.0,0.89136
825.0,0.891066
830.0,0.89169
835.0,0.892242
840.0,0.891638
845.0,0.893148
850.0,0.892361
855.0,0.8929
860.0,0.892188
865.0,0.894125
870.0,0.892018
875.0,0.893326
880.0,0.893026
885.0,0.894423
890.0,0.893104
895.0,0.893457
900.0,0.894258
905.0,0.893258
910.0,0.893459
915.0,0.894101
920.0,0.894401
925.0,0.893546
930.0,0.893139
935.0,0.892799
940.0,0.891495
945.0,0.891305
950.0,0.890055
955.0,0.889354
960.0,0.886549
965.0,0.88401
970.0,0.88397
975.0,0.884174
980.0,0.884809
985.0,0.885934
990.0,0.887736
995.0,0.888225
1000.0,0.889844
1005.0,0.891131
1010.0,0.89168
1015.0,0.892675
1020.0,0.893745
1025.0,0.894421
1030.0,0.894564
1035.0,0.89476
1040.0,0.894926
1045.0,0.895788
1050.0,0.895378
1055.0,0.895735
1060.0,0.896656
1065.0,0.896227
1070.0,0.896145
1075.0,0.896702
1080.0,0.896806
1085.0,0.896332
1090.0,0.896422
1095.0,0.896037
1100.0,0.896112
1105.0,0.895835
1110.0,0.895425
1115.0,0.895227
1120.0,0.895042
1125.0,0.895006
1130.0,0.894225
1135.0,0.892704
1140.0,0.890121
1145.0,0.885789
1150.0,0.879847
1155.0,0.873021
1160.0,0.869332
1165.0,0.868892
1170.0,0.871001
1175.0,0.874144
1180.0,0.877429
1185.0,0.879533
1190.0,0.880057
1195.0,0.880701
1200.0,0.880976
1205.0,0.882801
1210.0,0.884112
1215.0,0.884807
1220.0,0.885631
1225.0,0.886526
1230.0,0.88644
1235.0,0.887126
1240.0,0.887587
1245.0,0.888155
1250.0,0.888297
1255.0,0.888585
1260.0,0.88847
1265.0,0.888841
1270.0,0.889264
1275.0,0.888385
1280.0,0.887545
1285.0,0.887191
1290.0,0.887147
1295.0,0.885453
1300.0,0.884626
1305.0,0.883406
1310.0,0.881571
1315.0,0.87925
1320.0,0.876553
1325.0,0.872919
1330.0,0.869477
1335.0,0.86607
1340.0,0.861653
1345.0,0.857535
1350.0,0.853133
1355.0,0.849468
1360.0,0.844609
1365.0,0.840508
1370.0,0.836588
1375.0,0.831108
1380.0,0.825414
1385.0,0.814941
1390.0,0.802708
1395.0,0.785585
1400.0,0.763892
1405.0,0.737448
1410.0,0.711127
1415.0,0.68826
1420.0,0.67307
1425.0,0.666168
1430.0,0.667749
1435.0,0.674856
1440.0,0.6863
1445.0,0.69859
1450.0,0.709464
1455.0,0.718436
1460.0,0.722582
1465.0,0.722604
1470.0,0.723224
1475.0,0.729667
1480.0,0.74052
1485.0,0.751381
1490.0,0.760715
1495.0,0.769603
1500.0,0.776451
1505.0,0.781951
1510.0,0.786862
1515.0,0.791485
1520.0,0.795466
1525.0,0.799121
1530.0,0.801169
1535.0,0.803781
1540.0,0.805833
1545.0,0.807492
1550.0,0.808869
1555.0,0.810146
1560.0,0.810865
1565.0,0.812405
1570.0,0.813453
1575.0,0.813534
1580.0,0.81393
1585.0,0.814891
1590.0,0.815368
1595.0,0.815826
1600.0,0.815966
1605.0,0.817303
1610.0,0.817664
1615.0,0.818353
1620.0,0.818691
1625.0,0.818642
1630.0,0.819756
1635.0,0.819776
1640.0,0.820749
1645.0,0.821784
1650.0,0.821014
1655.0,0.822165
1660.0,0.823833
1665.0,0.825501
1670.0,0.826571
1675.0,0.826522
1680.0,0.826884
1685.0,0.826361
1690.0,0.826059
1695.0,0.8255
1700.0,0.825081
1705.0,0.823968
1710.0,0.822655
1715.0,0.820038
1720.0,0.81806
1725.0,0.81505
1730.0,0.811938
1735.0,0.807921
1740.0,0.805351
1745.0,0.80313
1750.0,0.800026
1755.0,0.798077
1760.0,0.796146
1765.0,0.795375
1770.0,0.793035
1775.0,0.791871
1780.0,0.790381
1785.0,0.789417
1790.0,0.788768
1795.0,0.787898
1800.0,0.787496
1805.0,0.786905
1810.0,0.78613
1815.0,0.786539
1820.0,0.786058
1825.0,0.785851
1830.0,0.785106
1835.0,0.783793
1840.0,0.781269
1845.0,0.777766
1850.0,0.772766
1855.0,0.766496
1860.0,0.757682
1865.0,0.747845
1870.0,0.73396
1875.0,0.713221
1880.0,0.686164
1885.0,0.653619
1890.0,0.609999
1895.0,0.554059
1900.0,0.491559
1905.0,0.43075
1910.0,0.391128
1915.0,0.371176
1920.0,0.369954
1925.0,0.382391
1930.0,0.402151
1935.0,0.424268
1940.0,0.444676
1945.0,0.462011
1950.0,0.475441
1955.0,0.486899
1960.0,0.496901
1965.0,0.505679
1970.0,0.514486
1975.0,0.522651
1980.0,0.531364
1985.0,0.541274
1990.0,0.550363
1995.0,0.56112
2000.0,0.572523
2005.0,0.584512
2010.0,0.595383
2015.0,0.606623
2020.0,0.618161
2025.0,0.627138
2030.0,0.635105
2035.0,0.642961
2040.0,0.649735
2045.0,0.655777
2050.0,0.660648
2055.0,0.66493
2060.0,0.668954
2065.0,0.671165
2070.0,0.674109
2075.0,0.67685
2080.0,0.678813
2085.0,0.681607
2090.0,0.683578
2095.0,0.686007
2100.0,0.688587
2105.0,0.690886
2110.0,0.692958
2115.0,0.694563
2120.0,0.697191
2125.0,0.699644
2130.0,0.701411
2135.0,0.702404
2140.0,0.703622
2145.0,0.704429
2150.0,0.705958
2155.0,0.706338
2160.0,0.70718
2165.0,0.706968
2170.0,0.707828
2175.0,0.707618
2180.0,0.707701
2185.0,0.708573
2190.0,0.709046
2195.0,0.708997
2200.0,0.709142
2205.0,0.708817
2210.0,0.709237
2215.0,0.708757
2220.0,0.708633
2225.0,0.70867
2230.0,0.707854
2235.0,0.707037
2240.0,0.707288
2245.0,0.707044
2250.0,0.705816
2255.0,0.705177
2260.0,0.70407
2265.0,0.70265
2270.0,0.701
2275.0,0.699189
2280.0,0.696966
2285.0,0.693764
2290.0,0.69059
2295.0,0.68759
2300.0,0.685272
2305.0,0.681021
2310.0,0.675862
2315.0,0.669481
2320.0,0.664546
2325.0,0.658243
2330.0,0.651402
2335.0,0.645131
2340.0,0.637136
2345.0,0.628495
2350.0,0.619495
2355.0,0.610069
2360.0,0.599543
2365.0,0.588543
2370.0,0.576568
2375.0,0.565184
2380.0,0.552226
2385.0,0.539246
2390.0,0.526005
2395.0,0.514457
2400.0,0.50159
2405.0,0.488447
2410.0,0.477241
2415.0,0.465582
2420.0,0.455344
2425.0,0.445418
2430.0,0.436525
2435.0,0.428506
2440.0,0.420999
2445.0,0.41515
2450.0,0.409463
2455.0,0.40369
2460.0,0.398728
2465.0,0.393087
2470.0,0.388543
2475.0,0.383873
2480.0,0.378889
2485.0,0.374388
2490.0,0.3704
2495.0,0.366589
2500.0,0.362386
2505.0,0.357771
2510.0,0.354534
2515.0,0.351296
2520.0,0.348023
2525.0,0.345138
2530.0,0.342604
2535.0,0.340842
2540.0,0.338188
2545.0,0.337008
2550.0,0.33382
2555.0,0.333665
2560.0,0.332308
2565.0,0.33241
2570.0,0.330138
2575.0,0.329998
2580.0,0.329525
2581.74,0.329047
2583.03,0.32879
2584.31,0.328557
2585.6,0.328592
2586.89,0.328685
2588.19,0.328439
2589.48,0.328089
2590.77,0.327966
2592.07,0.327607
2593.36,0.326632
2594.66,0.326125
2595.96,0.325893
2597.26,0.32619
2598.56,0.326287
2599.87,0.326175
2601.17,0.325661
2602.48,0.325048
2603.78,0.325002
2605.09,0.324546
2606.4,0.324155
2607.71,0.324042
2609.03,0.323568
2610.34,0.322921
2611.66,0.322234
2612.97,0.321725
2614.29,0.321128
2615.61,0.320563
2616.93,0.319881
2618.25,0.319651
2619.57,0.319701
2620.9,0.318695
2622.22,0.318382
2623.55,0.318104
2624.88,0.317073
2626.21,0.316426
2627.54,0.316146
2628.87,0.315704
2630.21,0.314652
2631.54,0.31345
2632.88,0.312921
2634.21,0.312202
2635.55,0.31135
2636.89,0.310392
2638.24,0.309153
2639.58,0.308253
2640.92,0.307445
2642.27,0.306337
2643.62,0.305161
2644.97,0.30365
2646.32,0.302593
2647.67,0.301895
2649.02,0.300853
2650.38,0.299474
2651.73,0.298354
2653.09,0.297345
2654.45,0.296231
2655.81,0.294212
2657.17,0.29246
2658.53,0.291021
2659.89,0.289226
2661.26,0.28769
2662.63,0.286682
2664.0,0.284951
2665.36,0.282436
2666.74,0.280348
2668.11,0.279035
2669.48,0.27744
2670.86,0.274562
2672.23,0.272182
2673.61,0.270201
2674.99,0.267509
2676.37,0.265211
2677.76,0.26328
2679.14,0.260891
2680.52,0.258144
2681.91,0.255798
2683.3,0.253355
2684.69,0.250533
2686.08,0.247657
2687.47,0.244627
2688.87,0.241593
2690.26,0.238723
2691.66,0.235718
2693.06,0.232619
2694.46,0.229018
2695.86,0.225382
2697.26,0.221842
2698.66,0.218231
2700.07,0.21427
2701.48,0.210123
2702.89,0.205667
2704.3,0.20145
2705.71,0.197496
2707.12,0.193277
2708.53,0.188566
2709.95,0.183659
2711.37,0.179007
2712.79,0.174486
2714.21,0.16927
2715.63,0.164175
2717.05,0.15928
2718.48,0.154487
2719.9,0.149565
2721.33,0.14454
2722.76,0.139695
2724.19,0.135519
2725.62,0.131245
2727.06,0.126729
2728.49,0.122094
2729.93,0.118058
2731.37,0.114396
2732.81,0.110766
2734.25,0.107092
2735.69,0.103621
2737.14,0.100283
2738.58,0.097286
2740.03,0.094421
2741.48,0.091305
2742.93,0.088085
2744.38,0.085591
2745.83,0.083206
2747.29,0.080703
2748.75,0.078692
2750.2,0.076617
2751.66,0.074307
2753.13,0.072484
2754.59,0.070862
2756.05,0.069627
2757.52,0.068198
2758.99,0.066505
2760.46,0.065065
2761.93,0.064121
2763.4,0.063165
2764.87,0.062339
2766.35,0.061721
2767.82,0.06093
2769.3,0.059993
2770.78,0.05925
2772.26,0.058734
2773.75,0.05822
2775.23,0.057732
2776.72,0.057485
2778.21,0.05694
2779.7,0.056117
2781.19,0.055583
2782.68,0.055292
2784.18,0.055152
2785.67,0.054934
2787.17,0.054644
2788.67,0.054531
2790.17,0.054394
2791.67,0.054249
2793.18,0.054306
2794.68,0.054051
2796.19,0.053998
2797.7,0.053785
2799.21,0.053467
2800.72,0.053189
2802.24,0.05309
2803.75,0.05329
2805.27,0.053414
2806.79,0.052938
2808.31,0.052567
2809.83,0.052783
2811.35,0.053252
2812.88,0.053076
2814.41,0.052863
2815.93,0.053039
2817.46,0.053013
2819.0,0.052873
2820.53,0.053088
2822.07,0.053046
2823.6,0.052935
2825.14,0.05311
2826.68,0.053279
2828.22,0.053148
2829.77,0.052936
2831.31,0.052755
2832.86,0.052733
2834.41,0.052924
2835.96,0.053006
2837.51,0.05297
2839.07,0.053017
2840.62,0.053208
2842.18,0.053232
2843.74,0.053167
2845.3,0.05337
2846.86,0.053633
2848.43,0.053667
2849.99,0.053384
2851.56,0.053452
2853.13,0.053571
2854.7,0.053701
2856.27,0.053711
2857.85,0.053798
2859.42,0.053978
2861.0,0.054249
2862.58,0.054403
2864.16,0.054191
2865.75,0.054106
2867.33,0.054458
2868.92,0.054516
2870.51,0.054212
2872.1,0.054178
2873.69,0.054551
2875.28,0.054546
2876.88,0.054536
2878.48,0.054707
2880.07,0.054777
2881.68,0.054744
2883.28,0.055038
2884.88,0.055311
2886.49,0.055004
2888.1,0.054918
2889.71,0.055229
2891.32,0.055511
2892.93,0.055414
2894.55,0.055361
2896.16,0.055678
2897.78,0.05574
2899.4,0.055624
2901.03,0.055724
2902.65,0.05567
2904.28,0.05563
2905.91,0.055817
2907.54,0.05616
2909.17,0.056062
2910.8,0.056001
2912.44,0.056199
2914.07,0.056303
2915.71,0.056336
2917.35,0.056713
2918.99,0.056795
2920.64,0.056435
2922.29,0.056254
2923.93,0.056641
2925.58,0.056984
2927.24,0.057075
2928.89,0.057201
2930.55,0.057223
2932.2,0.056971
2933.86,0.05702
2935.52,0.057227
2937.19,0.057326
2938.85,0.057814
2940.52,0.058238
2942.19,0.058311
2943.86,0.058133
2945.53,0.058212
2947.21,0.058405
2948.88,0.058651
2950.56,0.058745
2952.24,0.058598
2953.92,0.058567
2955.61,0.058917
2957.29,0.059274
2958.98,0.05951
2960.67,0.059667
2962.36,0.059834
2964.06,0.059957
2965.75,0.059919
2967.45,0.060196
2969.15,0.060633
2970.85,0.060732
2972.55,0.060788
2974.26,0.060894
2975.97,0.061126
2977.68,0.061236
2979.39,0.061482
2981.1,0.062064
2982.82,0.062419
2984.53,0.062579
2986.25,0.062909
2987.97,0.063264
2989.7,0.063447
2991.42,0.063693
2993.15,0.063891
2994.88,0.06399
2996.61,0.064314
2998.34,0.064579
3000.08,0.064604
3001.82,0.064802
3003.55,0.065065
3005.3,0.065125
3007.04,0.065357
3008.78,0.065828
3010.53,0.066271
3012.28,0.066508
3014.03,0.066808
3015.79,0.067124
3017.54,0.067162
3019.3,0.067375
3021.06,0.067654
3022.82,0.068125
3024.58,0.068379
3026.35,0.068511
3028.12,0.068656
3029.89,0.06856
3031.66,0.068371
3033.43,0.068642
3035.21,0.068967
3036.99,0.06884
3038.77,0.068999
3040.55,0.069322
3042.33,0.06932
3044.12,0.069513
3045.91,0.069554
3047.7,0.069692
3049.49,0.069856
3051.29,0.070015
3053.08,0.070121
3054.88,0.070247
3056.68,0.070298
3058.49,0.070349
3060.29,0.07031
3062.1,0.070256
3063.91,0.070047
3065.72,0.070199
3067.54,0.0705
3069.35,0.070612
3071.17,0.070503
3072.99,0.070607
3074.81,0.070898
3076.64,0.070952
3078.47,0.070969
3080.29,0.071259
3082.13,0.071763
3083.96,0.071792
3085.79,0.071644
3087.63,0.071837
3089.47,0.07212
3091.31,0.072533
3093.16,0.07275
3095.01,0.073011
3096.85,0.073382
3098.71,0.073513
3100.56,0.073611
3102.41,0.073937
3104.27,0.074466
3106.13,0.074768
3107.99,0.075229
3109.86,0.075792
3111.73,0.076026
3113.59,0.076178
3115.47,0.076506
3117.34,0.076882
3119.21,0.07724
3121.09,0.077879
3122.97,0.078517
3124.86,0.078891
3126.74,0.079306
3128.63,0.079911
3130.52,0.080489
3132.41,0.08065
3134.3,0.081055
3136.2,0.081838
3138.1,0.082494
3140.0,0.082852
3141.9,0.083255
3143.81,0.083588
3145.71,0.084182
3147.62,0.084724
3149.54,0.085256
3151.45,0.086047
3153.37,0.086513
3155.29,0.087015
3157.21,0.087703
3159.13,0.088205
3161.06,0.088579
3162.99,0.089325
3164.92,0.089929
3166.85,0.090392
3168.79,0.091003
3170.72,0.091572
3172.67,0.092246
3174.61,0.092951
3176.55,0.093655
3178.5,0.094415
3180.45,0.095009
3182.4,0.095529
3184.36,0.096115
3186.32,0.096689
3188.27,0.097495
3190.24,0.098109
3192.2,0.098676
3194.17,0.099451
3196.14,0.100132
3198.11,0.100923
3200.08,0.101652
3202.06,0.102272
3204.04,0.103096
3206.02,0.103793
3208.0,0.104517
3209.99,0.105217
3211.98,0.105845
3213.97,0.106474
3215.96,0.107343
3217.96,0.10821
3219.96,0.108992
3221.96,0.109813
3223.96,0.110539
3225.97,0.111312
3227.98,0.111998
3229.99,0.112743
3232.0,0.113547
3234.02,0.114431
3236.04,0.115367
3238.06,0.116228
3240.08,0.11702
3242.11,0.117882
3244.14,0.118724
3246.17,0.119489
3248.2,0.120269
3250.24,0.121242
3252.28,0.12214
3254.32,0.123011
3256.37,0.1238
3258.41,0.124643
3260.46,0.125381
3262.51,0.12618
3264.57,0.127167
3266.63,0.128345
3268.69,0.129217
3270.75,0.129979
3272.81,0.130817
3274.88,0.131611
3276.95,0.132533
3279.02,0.13376
3281.1,0.134802
3283.18,0.135743
3285.26,0.136716
3287.34,0.137493
3289.43,0.13843
3291.51,0.139495
3293.61,0.140378
3295.7,0.14132
3297.8,0.142531
3299.9,0.143617
3302.0,0.144691
3304.1,0.145838
3306.21,0.146729
3308.32,0.147636
3310.43,0.148558
3312.55,0.149336
3314.66,0.150513
3316.79,0.151674
3318.91,0.152603
3321.03,0.15355
3323.16,0.154754
3325.29,0.155841
3327.43,0.156688
3329.57,0.15776
3331.71,0.159063
3333.85,0.160269
3335.99,0.161412
3338.14,0.162515
3340.29,0.163511
3342.45,0.164486
3344.6,0.165544
3346.76,0.166688
3348.92,0.167866
3351.09,0.169077
3353.26,0.170166
3355.43,0.17124
3357.6,0.172464
3359.78,0.173567
3361.96,0.174638
3364.14,0.175744
3366.32,0.177055
3368.51,0.178426
3370.7,0.179664
3372.89,0.180991
3375.09,0.18235
3377.29,0.183577
3379.49,0.184752
3381.69,0.186041
3383.9,0.187236
3386.11,0.188479
3388.32,0.189727
3390.54,0.190926
3392.76,0.192066
3394.98,0.193186
3397.21,0.194429
3399.43,0.195745
3401.66,0.196978
3403.9,0.198395
3406.13,0.199773
3408.37,0.201037
3410.61,0.202358
3412.86,0.203693
3415.11,0.20518
3417.36,0.206611
3419.61,0.207926
3421.87,0.209174
3424.13,0.210401
3426.39,0.211812
3428.66,0.213008
3430.93,0.213987
3433.2,0.215298
3435.48,0.216507
3437.76,0.217586
3440.04,0.218774
3442.32,0.21999
3444.61,0.22132
3446.9,0.222638
3449.19,0.223847
3451.49,0.225027
3453.79,0.226314
3456.09,0.227639
3458.4,0.229013
3460.7,0.230307
3463.02,0.231407
3465.33,0.232563
3467.65,0.233881
3469.97,0.235185
3472.29,0.236531
3474.62,0.237939
3476.95,0.239129
3479.29,0.240463
3481.62,0.241905
3483.96,0.243181
3486.3,0.244483
3488.65,0.24586
3491.0,0.247224
3493.35,0.248588
3495.71,0.249798
3498.07,0.25111
3500.43,0.252715
3502.79,0.254118
3505.16,0.255429
3507.53,0.256891
3509.91,0.258233
3512.29,0.259443
3514.67,0.260681
3517.05,0.261861
3519.44,0.26293
3521.83,0.264031
3524.23,0.265195
3526.62,0.266488
3529.02,0.267924
3531.43,0.269085
3533.83,0.270177
3536.24,0.271437
3538.66,0.272742
3541.08,0.274077
3543.5,0.275487
3545.92,0.276667
3548.35,0.277862
3550.78,0.279073
3553.21,0.2803
3555.65,0.281523
3558.09,0.282752
3560.53,0.284
3562.98,0.285178
3565.43,0.286416
3567.88,0.287659
3570.34,0.288893
3572.8,0.290281
3575.27,0.291543
3577.73,0.29267
3580.2,0.293906
3582.68,0.295268
3585.16,0.296441
3587.64,0.297555
3590.12,0.29883
3592.61,0.300052
3595.1,0.301244
3597.6,0.302586
3600.09,0.303711
3602.6,0.304647
3605.1,0.305687
3607.61,0.306899
3610.12,0.308085
3612.64,0.309258
3615.16,0.310623
3617.68,0.311843
3620.21,0.312794
3622.74,0.313976
3625.27,0.315248
3627.81,0.316416
3630.35,0.317414
3632.89,0.318558
3635.44,0.31976
3637.99,0.320851
3640.54,0.321903
3643.1,0.323049
3645.66,0.324187
3648.23,0.325244
3650.8,0.326351
3653.37,0.327486
3655.95,0.328608
3658.53,0.32967
3661.11,0.330739
3663.7,0.331768
3666.29,0.33275
3668.89,0.333779
3671.48,0.334925
3674.09,0.336105
3676.69,0.337291
3679.3,0.338278
3681.91,0.339185
3684.53,0.340267
3687.15,0.341302
3689.78,0.342185
3692.4,0.343072
3695.04,0.344249
3697.67,0.34542
3700.31,0.346274
3702.95,0.347119
3705.6,0.348058
3708.25,0.349067
3710.91,0.350038
3713.56,0.350938
3716.23,0.351857
3718.89,0.352859
3721.56,0.353851
3724.23,0.354682
3726.91,0.355493
3729.59,0.356297
3732.28,0.357223
3734.97,0.358077
3737.66,0.359031
3740.36,0.35996
3743.06,0.360702
3745.76,0.361391
3748.47,0.362417
3751.18,0.363347
3753.9,0.36409
3756.62,0.364819
3759.34,0.365724
3762.07,0.366593
3764.8,0.367356
3767.54,0.368053
3770.28,0.368886
3773.02,0.369726
3775.77,0.370429
3778.52,0.371273
3781.28,0.372079
3784.04,0.372755
3786.8,0.373617
3789.57,0.374349
3792.34,0.374959
3795.12,0.375657
3797.9,0.37646
3800.69,0.377084
3803.47,0.377703
3806.27,0.37831
3809.06,0.379077
3811.86,0.379744
3814.67,0.380322
3817.48,0.380919
3820.29,0.381529
3823.11,0.382097
3825.93,0.382707
3828.76,0.383494
3831.59,0.384097
3834.42,0.38458
3837.26,0.385056
3840.1,0.385594
3842.95,0.386253
3845.8,0.386905
3848.65,0.387477
3851.51,0.387923
3854.38,0.388346
3857.24,0.388775
3860.12,0.389294
3862.99,0.389678
3865.87,0.390055
3868.76,0.390453
3871.65,0.390992
3874.54,0.39143
3877.44,0.391778
3880.34,0.392085
3883.25,0.392531
3886.16,0.393022
3889.07,0.393318
3891.99,0.393565
3894.92,0.393888
3897.85,0.394148
3900.78,0.394383
3903.72,0.39467
3906.66,0.394817
3909.6,0.394904
3912.55,0.395223
3915.51,0.395647
3918.47,0.395826
3921.43,0.396007
3924.4,0.396248
3927.38,0.396379
3930.35,0.396555
3933.33,0.39661
3936.32,0.396707
3939.31,0.396733
3942.31,0.396787
3945.31,0.396883
3948.31,0.397019
3951.32,0.39705
3954.34,0.396997
3957.35,0.396953
3960.38,0.397016
3963.41,0.396953
3966.44,0.396896
3969.48,0.396874
3972.52,0.396898
3975.56,0.396818
3978.61,0.396765
3981.67,0.396726
3984.73,0.396683
3987.8,0.396692
3990.87,0.396698
3993.94,0.396453
3997.02,0.396178
4000.1,0.396065
4003.19,0.395981
4006.29,0.395715
4009.39,0.395601
4012.49,0.395548
4015.6,0.395426
4018.71,0.395059
4021.83,0.394691
4024.95,0.3944
4028.08,0.394199
4031.21,0.394042
4034.35,0.393775
4037.49,0.393306
4040.64,0.392763
4043.79,0.392372
4046.94,0.392128
4050.11,0.391821
4053.27,0.391261
4056.44,0.390701
4059.62,0.390306
4062.8,0.389661
4065.99,0.389118
4069.18,0.388681
4072.38,0.388203
4075.58,0.38768
4078.78,0.387252
4082.0,0.386652
4085.21,0.385949
4088.43,0.3853
4091.66,0.384708
4094.89,0.384178
4098.13,0.383572
4101.37,0.382864
4104.62,0.382278
4107.87,0.381619
4111.13,0.380912
4114.39,0.380245
4117.66,0.379656
4120.93,0.378971
4124.21,0.378256
4127.5,0.377554
4130.79,0.376953
4134.08,0.376231
4137.38,0.375333
4140.68,0.374523
4143.99,0.374006
4147.31,0.373286
4150.63,0.37242
4153.95,0.371682
4157.29,0.37094
4160.62,0.370144
4163.96,0.369459
4167.31,0.368681
4170.66,0.367897
4174.02,0.367004
4177.39,0.366161
4180.75,0.365481
4184.13,0.364713
4187.51,0.363899
4190.89,0.36299
4194.28,0.361949
4197.68,0.361114
4201.08,0.360301
4204.49,0.359449
4207.9,0.358575
4211.32,0.357653
4214.74,0.356823
4218.17,0.355942
4221.61,0.354937
4225.05,0.353964
4228.5,0.353168
4231.95,0.352289
4235.4,0.35142
4238.87,0.35059
4242.34,0.349724
4245.81,0.348881
4249.29,0.348056
4252.78,0.347242
4256.27,0.346344
4259.77,0.345135
4263.27,0.343791
4266.78,0.342705
4270.29,0.341899
4273.81,0.341027
4277.34,0.340028
4280.87,0.339154
4284.41,0.338259
4287.95,0.337204
4291.5,0.336296
4295.06,0.335495
4298.62,0.334455
4302.19,0.333428
4305.76,0.332378
4309.34,0.331398
4312.92,0.330558
4316.52,0.329559
4320.11,0.328512
4323.72,0.327542
4327.32,0.326571
4330.94,0.325562
4334.56,0.324602
4338.19,0.323674
4341.82,0.322612
4345.46,0.321638
4349.11,0.320696
4352.76,0.319723
4356.42,0.31878
4360.08,0.317894
4363.75,0.316904
4367.43,0.315958
4371.11,0.315046
4374.8,0.314152
4378.49,0.313286
4382.19,0.312367
4385.9,0.311304
4389.61,0.31044
4393.33,0.309685
4397.06,0.30884
4400.79,0.307906
4404.53,0.307174
4408.28,0.306469
4412.03,0.305622
4415.79,0.304678
4419.55,0.303805
4423.32,0.303068
4427.1,0.302371
4430.88,0.301727
4434.68,0.301123
4438.47,0.300332
4442.28,0.299549
4446.08,0.298955
4449.9,0.298267
4453.72,0.29744
4457.55,0.296728
4461.39,0.296149
4465.23,0.295538
4469.08,0.294964
4472.94,0.294435
4476.8,0.293824
4480.67,0.293329
4484.55,0.292765
4488.43,0.292151
4492.32,0.291574
4496.21,0.291063
4500.12,0.290604
4504.03,0.290179
4507.94,0.28972
4511.87,0.289259
4515.8,0.288796
4519.73,0.288371
4523.68,0.288075
4527.63,0.287746
4531.59,0.28735
4535.55,0.286996
4539.52,0.286561
4543.5,0.286201
4547.49,0.28591
4551.48,0.285538
4555.48,0.285231
4559.49,0.28498
4563.5,0.284621
4567.52,0.28443
4571.55,0.284266
4575.58,0.284109
4579.63,0.283889
4583.67,0.283641
4587.73,0.283479
4591.79,0.283305
4595.86,0.283097
4599.94,0.283121
4604.03,0.283116
4608.12,0.283011
4612.22,0.2828
4616.33,0.282641
4620.44,0.282622
4624.56,0.282771
4628.69,0.282667
4632.83,0.282564
4636.97,0.282509
4641.12,0.282622
4645.28,0.282619
4649.45,0.282523
4653.62,0.282499
4657.8,0.282653
4661.99,0.282806
4666.19,0.282953
4670.39,0.283005
4674.6,0.283054
4678.82,0.283175
4683.05,0.283295
4687.28,0.283474
4691.52,0.283658
4695.77,0.283696
4700.03,0.283843
4704.3,0.283985
4708.57,0.284092
4712.85,0.284365
4717.14,0.284534
4721.43,0.284635
4725.74,0.284932
4730.05,0.285195
4734.37,0.285349
4738.7,0.285574
4743.03,0.285829
4747.38,0.285963
4751.73,0.286105
4756.09,0.286308
4760.45,0.286585
4764.83,0.286848
4769.21,0.287121
4773.6,0.287312
4778.0,0.287503
4782.41,0.287766
4786.83,0.288096
4791.25,0.288308
4795.68,0.288535
4800.13,0.28878
4804.57,0.289023
4809.03,0.28924
4813.5,0.289498
4817.97,0.289743
4822.45,0.290121
4826.94,0.290421
4831.44,0.290498
4835.95,0.290703
4840.46,0.290986
4844.99,0.291133
4849.52,0.29135
4854.06,0.291637
4858.61,0.291796
4863.17,0.291932
4867.73,0.292074
4872.31,0.292142
4876.89,0.292409
4881.48,0.292643
4886.08,0.292823
4890.69,0.292967
4895.31,0.293022
4899.94,0.293054
4904.57,0.293045
4909.22,0.293138
4913.87,0.293127
4918.53,0.293035
4923.21,0.29304
4927.88,0.292996
4932.57,0.292844
4937.27,0.292702
4941.98,0.292631
4946.69,0.292521
4951.42,0.292388
4956.15,0.292077
4960.9,0.291802
4965.65,0.291671
4970.41,0.291499
4975.18,0.291213
4979.96,0.290887
4984.75,0.290486
4989.54,0.290145
4994.35,0.289808
4999.17,0.289457
5003.99,0.289054
5008.83,0.288608
5013.67,0.288137
5018.52,0.287657
5023.39,0.287201
5028.26,0.286766
5033.14,0.286117
5038.03,0.285461
5042.93,0.284924
5047.84,0.284449
5052.76,0.283857
5057.69,0.283196
5062.63,0.282603
5067.58,0.282059
5072.54,0.28143
5077.51,0.280773
5082.49,0.28021
5087.47,0.279586
5092.47,0.278898
5097.48,0.278186
5102.5,0.277538
5107.52,0.276971
5112.56,0.276312
5117.61,0.275596
5122.66,0.274859
5127.73,0.274326
5132.81,0.273802
5137.89,0.273273
5142.99,0.272649
5148.1,0.271932
5153.22,0.27126
5158.34,0.270768
5163.48,0.270177
5168.63,0.269668
5173.79,0.269108
5178.96,0.26854
5184.13,0.267942
5189.32,0.267468
5194.52,0.267051
5199.73,0.266462
5204.96,0.265885
5210.19,0.265412
5215.43,0.264905
5220.68,0.264463
5225.94,0.264024
5231.22,0.263643
5236.5,0.263167
5241.79,0.262699
5247.1,0.262364
5252.42,0.261989
5257.74,0.261569
5263.08,0.261191
5268.43,0.260725
5273.79,0.260234
5279.16,0.259812
5284.54,0.259448
5289.93,0.258977
5295.34,0.258571
5300.75,0.2582
5306.18,0.257831
5311.61,0.257353
5317.06,0.25685
5322.52,0.256481
5327.99,0.256028
5333.47,0.255455
5338.96,0.25491
5344.47,0.254285
5349.98,0.253773
5355.51,0.253218
5361.05,0.252643
5366.6,0.252032
5372.16,0.251299
5377.73,0.250582
5383.32,0.249933
5388.91,0.24925
5394.52,0.248504
5400.14,0.247662
5405.77,0.246846
5411.41,0.245988
5417.07,0.245166
5422.74,0.244166
5428.41,0.243222
5434.1,0.242346
5439.81,0.241455
5445.52,0.240478
5451.25,0.239471
5456.98,0.238544
5462.73,0.237546
5468.5,0.236455
5474.27,0.235544
5480.06,0.234574
5485.86,0.233621
5491.67,0.232554
5497.49,0.23152
5503.33,0.230516
5509.18,0.229527
5515.04,0.228511
5520.91,0.227483
5526.8,0.226497
5532.69,0.225568
5538.61,0.224676
5544.53,0.223806
5550.47,0.222845
5556.41,0.221847
5562.38,0.220891
5568.35,0.220103
5574.34,0.219216
5580.34,0.218154
5586.35,0.217272
5592.38,0.216573
5598.42,0.215756
5604.47,0.214953
5610.54,0.214171
5616.61,0.213408
5622.71,0.212573
5628.81,0.211707
5634.93,0.210856
5641.06,0.210055
5647.21,0.20922
5653.36,0.208551
5659.54,0.207709
5665.72,0.206906
5671.92,0.206025
5678.13,0.205105
5684.36,0.204236
5690.6,0.203405
5696.85,0.202442
5703.12,0.201501
5709.4,0.200504
5715.69,0.199493
5722.0,0.198371
5728.33,0.197241
5734.66,0.195937
5741.01,0.194567
5747.38,0.193085
5753.76,0.191414
5760.15,0.189669
5766.56,0.187844
5772.98,0.185817
5779.41,0.183734
5785.86,0.181551
5792.33,0.179265
5798.81,0.176734
5805.3,0.174206
5811.81,0.17152
5818.33,0.168667
5824.87,0.165527
5831.42,0.162372
5837.99,0.159063
5844.57,0.155638
5851.17,0.152043
5857.78,0.148343
5864.41,0.14443
5871.05,0.140248
5877.7,0.136065
5884.38,0.131903
5891.06,0.127272
5897.76,0.122886
5904.48,0.118261
5911.21,0.113679
5917.96,0.109318
5924.73,0.104843
5931.5,0.100412
5938.3,0.096229
5945.11,0.09169
5951.93,0.087513
5958.78,0.083795
5965.63,0.080138
5972.51,0.076581
5979.39,0.073097
5986.3,0.070058
5993.22,0.067281
6000.16,0.064473
6007.11,0.062036
6014.08,0.060017
6021.06,0.05806
6028.06,0.056315
6035.08,0.054881
6042.12,0.053647
6049.17,0.052697
6056.23,0.051531
6063.32,0.050565
6070.42,0.050324
6077.53,0.049942
6084.67,0.049612
6091.82,0.049629
6098.98,0.049996
6106.17,0.050459
6113.37,0.051227
6120.58,0.052161
6127.82,0.053303
6135.07,0.054959
6142.34,0.05696
6149.63,0.059192
6156.93,0.06169
6164.25,0.064466
6171.59,0.067459
6178.95,0.070652
6186.32,0.074061
6193.71,0.077565
6201.12,0.081107
6208.54,0.084522
6215.99,0.087915
6223.45,0.091362
6230.93,0.094686
6238.43,0.097817
6245.95,0.10085
6253.48,0.103687
6261.03,0.106433
6268.6,0.109108
6276.19,0.111778
6283.8,0.114397
6291.43,0.116929
6299.07,0.119215
6306.73,0.121425
6314.42,0.12352
6322.12,0.12556
6329.84,0.127537
6337.57,0.129454
6345.33,0.131206
6353.11,0.132818
6360.9,0.134327
6368.72,0.135671
6376.55,0.136849
6384.4,0.138022
6392.27,0.139159
6400.17,0.140199
6408.08,0.141061
6416.01,0.141814
6423.96,0.142584
6431.93,0.143284
6439.92,0.143852
6447.93,0.144452
6455.96,0.145071
6464.01,0.145659
6472.08,0.146103
6480.17,0.146461
6488.28,0.146647
6496.41,0.146844
6504.56,0.147002
6512.73,0.147262
6520.92,0.147515
6529.14,0.147646
6537.37,0.147738
6545.63,0.147704
6553.9,0.147633
6562.2,0.147689
6570.51,0.147692
6578.85,0.147527
6587.21,0.147271
6595.59,0.147131
6603.99,0.147001
6612.42,0.146878
6620.86,0.146659
6629.33,0.146352
6637.82,0.14613
6646.33,0.145835
6654.86,0.145509
6663.41,0.145304
6671.99,0.144991
6680.59,0.144739
6689.21,0.14446
6697.85,0.144042
6706.51,0.143619
6715.2,0.143171
6723.91,0.142761
6732.64,0.142294
6741.4,0.14186
6750.18,0.141474
6758.98,0.140947
6767.8,0.140448
6776.65,0.140013
6785.52,0.139506
6794.41,0.138903
6803.33,0.138244
6812.27,0.137651
6821.23,0.137107
6830.22,0.136451
6839.23,0.135732
6848.26,0.134983
6857.32,0.134346
6866.4,0.133718
6875.51,0.132802
6884.64,0.131904
6893.8,0.131266
6902.98,0.130573
6912.18,0.129806
6921.41,0.129005
6930.66,0.128206
6939.94,0.127411
6949.24,0.126555
6958.57,0.125657
6967.92,0.124749
6977.3,0.123853
6986.7,0.123055
6996.13,0.122232
7005.59,0.121312
7015.07,0.120378
7024.57,0.119591
7034.1,0.118811
7043.66,0.118054
7053.25,0.117208
7062.85,0.116342
7072.49,0.115536
7082.15,0.114629
7091.84,0.113718
7101.55,0.112762
7111.3,0.111732
7121.06,0.110689
7130.86,0.109649
7140.68,0.108565
7150.53,0.107522
7160.41,0.106513
7170.31,0.105425
7180.24,0.10421
7190.2,0.103049
7200.19,0.101964
7210.2,0.100795
7220.24,0.099579
7230.31,0.098324
7240.41,0.097153
7250.54,0.095956
7260.69,0.094657
7270.88,0.093428
7281.09,0.092222
7291.33,0.09088
7301.6,0.08947
7311.9,0.088065
7322.22,0.086726
7332.58,0.085349
7342.97,0.083925
7353.38,0.082494
7363.83,0.081077
7374.3,0.079593
7384.81,0.078058
7395.34,0.076609
7405.91,0.07518
7416.5,0.073786
7427.13,0.072233
7437.78,0.070665
7448.47,0.069136
7459.19,0.067619
7469.94,0.066025
7480.71,0.064333
7491.52,0.062716
7502.37,0.061227
7513.24,0.059643
7524.14,0.057942
7535.08,0.056341
7546.05,0.054808
7557.05,0.053187
7568.08,0.051413
7579.15,0.049742
7590.24,0.04818
7601.37,0.046607
7612.53,0.045088
7623.73,0.04357
7634.96,0.042095
7646.22,0.040696
7657.51,0.039296
7668.84,0.037778
7680.2,0.036363
7691.59,0.035112
7703.02,0.033896
7714.49,0.032699
7725.98,0.031516
7737.52,0.030379
7749.08,0.029329
7760.68,0.028438
7772.32,0.027546
7783.99,0.026718
7795.69,0.02596
7807.43,0.025248
7819.21,0.0247
7831.02,0.024227
7842.87,0.023835
7854.75,0.023621
7866.67,0.023642
7878.62,0.023672
7890.62,0.02387
7902.64,0.024318
7914.71,0.024992
7926.81,0.025839
7938.95,0.026945
7951.13,0.028318
7963.34,0.030003
7975.59,0.031845
7987.88,0.03398
8000.21,0.03639
8012.57,0.039105
8024.98,0.042064
8037.42,0.045135
8049.9,0.048403
8062.42,0.051878
8074.98,0.055279
8087.57,0.058629
8100.21,0.061912
8112.89,0.064942
8125.6,0.067618
8138.36,0.06994
8151.16,0.071961
8163.99,0.073708
8176.87,0.075115
8189.79,0.076165
8202.75,0.076791
8215.75,0.07714
8228.79,0.077263
8241.87,0.077146
8254.99,0.076733
8268.16,0.076153
8281.37,0.075383
8294.62,0.074582
8307.91,0.073689
8321.24,0.072564
8334.62,0.071504
8348.04,0.070544
8361.51,0.06955
8375.02,0.068615
8388.57,0.067647
8402.16,0.066737
8415.8,0.065904
8429.49,0.065214
8443.22,0.064603
8456.99,0.064142
8470.81,0.063646
8484.67,0.062998
8498.58,0.062518
8512.54,0.062282
8526.54,0.06197
8540.58,0.061692
8554.68,0.061439
8568.82,0.061237
8583.0,0.06107
8597.24,0.060973
8611.52,0.060853
8625.85,0.060809
8640.23,0.060775
8654.65,0.060802
8669.12,0.060891
8683.64,0.060814
8698.21,0.060785
8712.83,0.060816
8727.5,0.060891
8742.22,0.060892
8756.99,0.060756
8771.8,0.060817
8786.67,0.060923
8801.59,0.060881
8816.56,0.060853
8831.58,0.061015
8846.65,0.061254
8861.77,0.061406
8876.94,0.061435
8892.17,0.061593
8907.45,0.061913
8922.78,0.062224
8938.16,0.062547
8953.6,0.06295
8969.09,0.063401
8984.64,0.063868
9000.23,0.064439
9015.89,0.065075
9031.59,0.065675
9047.36,0.066419
9063.17,0.067283
9079.05,0.068082
9094.97,0.068878
9110.96,0.069726
9127.0,0.070645
9143.1,0.071633
9159.25,0.072465
9175.46,0.073199
9191.73,0.074015
9208.06,0.074912
9224.44,0.075794
9240.88,0.076527
9257.38,0.07701
9273.94,0.077565
9290.56,0.078067
9307.24,0.078483
9323.98,0.078763
9340.78,0.078857
9357.64,0.078762
9374.57,0.078495
9391.55,0.078164
9408.59,0.077724
9425.7,0.077322
9442.87,0.076972
9460.1,0.076438
9477.4,0.07574
9494.75,0.075072
9512.17,0.074565
9529.66,0.073995
9547.21,0.073324
9564.83,0.072805
9582.5,0.072236
9600.25,0.07168
9618.06,0.071285
9635.94,0.070763
9653.88,0.070163
9671.89,0.069733
9689.97,0.069426
9708.12,0.069209
9726.33,0.068994
9744.62,0.068726
9762.97,0.068369
9781.39,0.067973
9799.88,0.067843
9818.44,0.0678
9837.07,0.067674
9855.77,0.06756
9874.54,0.067438
9893.39,0.067357
9912.3,0.067261
9931.29,0.067012
9950.36,0.066817
9969.49,0.066865
9988.7,0.06686
10007.98,0.066554
10027.34,0.066283
10046.77,0.066161
10066.28,0.066105
10085.87,0.066059
10105.53,0.065975
10125.26,0.065869
10145.08,0.065789
10164.97,0.06575
10184.94,0.065613
10204.99,0.065574
10225.12,0.065629
10245.33,0.065723
10265.61,0.065706
10285.98,0.065687
10306.43,0.065854
10326.96,0.066038
10347.57,0.066168
10368.27,0.066534
10389.05,0.067078
10409.91,0.067473
10430.86,0.067828
10451.88,0.068282
10473.0,0.068847
10494.2,0.069463
10515.49,0.070165
10536.86,0.070909
10558.32,0.071753
10579.87,0.072724
10601.5,0.073821
10623.23,0.074893
10645.04,0.076206
10666.94,0.077749
10688.94,0.079313
10711.02,0.080983
10733.2,0.082723
10755.47,0.084515
10777.83,0.086479
10800.28,0.088504
10822.83,0.090476
10845.47,0.092639
10868.21,0.094935
10891.04,0.097148
10913.97,0.099229
10936.99,0.101433
10960.12,0.10353
10983.34,0.105435
11006.66,0.107199
11030.07,0.108953
11053.59,0.11072
11077.21,0.112372
11100.93,0.113742
11124.75,0.114937
11148.68,0.115973
11172.71,0.116873
11196.84,0.117848
11221.07,0.118753
11245.41,0.119132
11269.86,0.119482
11294.41,0.120103
11319.07,0.120453
11343.84,0.120684
11368.72,0.120952
11393.7,0.120919
11418.8,0.120815
11444.01,0.120851
11469.33,0.12087
11494.76,0.120699
11520.3,0.120566
11545.96,0.1204
11571.73,0.120052
11597.62,0.119724
11623.62,0.119443
11649.74,0.118992
11675.98,0.118464
11702.34,0.117855
11728.81,0.11717
11755.41,0.116368
11782.13,0.115808
11808.96,0.115205
11835.92,0.114331
11863.01,0.113329
11890.22,0.112292
11917.55,0.111075
11945.01,0.109548
11972.6,0.108007
12000.31,0.106293
12028.16,0.104457
12056.13,0.10247
12084.23,0.100021
12112.46,0.09732
12140.83,0.094341
12169.33,0.091005
12197.96,0.087601
12226.73,0.084145
12255.64,0.080826
12284.68,0.077558
12313.86,0.074411
12343.18,0.071652
12372.64,0.069369
12402.24,0.067469
12431.98,0.065875
12461.86,0.064679
12491.89,0.06359
12522.07,0.06253
12552.38,0.061799
12582.85,0.061265
12613.47,0.060848
12644.23,0.060411
12675.15,0.059849
12706.21,0.059281
12737.43,0.058811
12768.81,0.058291
12800.33,0.058019
12832.02,0.057621
12863.86,0.057292
12895.86,0.057121
12928.02,0.056761
12960.34,0.056382
12992.82,0.055965
13025.46,0.055455
13058.27,0.055175
13091.25,0.054908
13124.39,0.054539
13157.7,0.0542
13191.18,0.053691
13224.83,0.05331
13258.66,0.053034
13292.65,0.052598
13326.83,0.052289
13361.17,0.051963
13395.7,0.051555
13430.4,0.051113
13465.29,0.050833
13500.35,0.050628
13535.6,0.050322
13571.03,0.050158
13606.65,0.049815
13642.46,0.049417
13678.46,0.049279
13714.64,0.049154
13751.02,0.049129
13787.59,0.049134
13824.36,0.049084
13861.32,0.04905
13898.49,0.048859
13935.85,0.048787
13973.41,0.048871
14011.17,0.04916
14049.15,0.049291
14087.32,0.049025
14125.71,0.048931
14164.3,0.049011
14203.11,0.048979
14242.13,0.048813
14281.36,0.048842
14320.81,0.048806
14360.49,0.048729
14400.38,0.04876
14440.49,0.048586
14480.82,0.048511
14521.39,0.048526
14562.18,0.048378
14603.2,0.048485
14644.45,0.048548
14685.93,0.048347
14727.66,0.048067
14769.62,0.047995
14811.81,0.048084
14854.25,0.048057
14896.94,0.047838
14939.87,0.047712
14983.05,0.047802
15026.48,0.047893
15070.16,0.047609
15114.1,0.047433
15158.29,0.047538
15202.74,0.047323
15247.46,0.047148
15292.43,0.046947
15337.68,0.046547
15383.19,0.046387
15428.97,0.046225
15475.03,0.045747
15521.36,0.045291
15567.97,0.045142
15614.87,0.04485
15662.04,0.044611
15709.5,0.044283
15757.25,0.043947
15805.29,0.043676
15853.62,0.043631
15902.26,0.04379
15951.19,0.044017
16000.42,0.044067
16049.95,0.043915
16099.8,0.04436
16149.95,0.045292
16200.42,0.045916
16251.21,0.046655
16302.31,0.047847
16353.74,0.0491
16405.49,0.05072
16457.57,0.052176
16509.98,0.053565
16562.73,0.054963
16615.82,0.056049
16669.24,0.056935
16723.02,0.057927
16777.14,0.058751
16831.61,0.059259
16886.43,0.059603
16941.62,0.060052
16997.16,0.060298
17053.08,0.060295
17109.36,0.060143
17166.01,0.060309
17223.04,0.06028
17280.45,0.05995
17338.24,0.05988
17396.43,0.059943
17455.0,0.059714
17513.97,0.059486
17573.34,0.059399
17633.11,0.059342
17693.29,0.059474
17753.89,0.059177
17814.9,0.05875
17876.33,0.058251
17938.18,0.058101
18000.47,0.058178
18063.19,0.057877
18126.35,0.057859
18189.95,0.058084
18254.0,0.058019
18318.5,0.057725
18383.46,0.057633
18448.88,0.057317
18514.77,0.056624
18581.13,0.056421
18647.97,0.056795
18715.29,0.056909
18783.1,0.057153
18851.4,0.057324
18920.2,0.057319
18989.51,0.057275
19059.32,0.056986
19129.65,0.057029
19200.5,0.05741
19271.88,0.05749
19343.79,0.057737
19416.24,0.058045
19489.23,0.058053
19562.77,0.058374
19636.88,0.058688
19711.54,0.059078
19786.78,0.059948
19862.59,0.061015
19938.98,0.062369
20015.96,0.063576
20093.55,0.064749
20171.73,0.066182
20250.53,0.068065
20329.94,0.069646
20409.98,0.071275
20490.65,0.073044
20571.96,0.07437
20653.92,0.076593
20736.54,0.079692
20819.82,0.081813
20903.77,0.083189
20988.4,0.084478
21073.72,0.085777
21159.73,0.087206
21246.46,0.089103
21333.89,0.090498
21422.04,0.091239
21510.93,0.091722
21600.56,0.091821
21690.94,0.092371
21782.08,0.092929
21873.99,0.0927
21966.67,0.09351
22060.15,0.094886
22154.42,0.095396
22249.51,0.095133
22345.41,0.0948
22442.14,0.09428
22539.72,0.093219
22638.14,0.091997
22737.43,0.091275
22837.6,0.090892
22938.65,0.089484
23040.6,0.086784
23143.46,0.084929
23247.24,0.082999
23351.96,0.08108
23457.63,0.080037
23564.25,0.079445
23671.85,0.078896
23780.44,0.077565
23890.02,0.076641
24000.63,0.076218
24112.26,0.074778
24224.93,0.075079
24338.66,0.075856
24453.47,0.07284
24569.36,0.074389
24686.36,0.077771
24804.47,0.077018
24923.73,0.07672
25044.13,0.076074
25165.71,0.07603
25288.46,0.076984
25412.43,0.080064
25537.61,0.081058
25664.04,0.080672
25791.72,0.079019
25920.68,0.079243
