Database of Origin,University of Winnipeg Spectrophotometer Facility
Sample Description,"Zeolites: RELAB + Nicolet spectra, Merged at 2.5 microns; note change in viewing geometry"
Date Added,2018-07-23 23:09:47.256981

Data ID,RLA_ZEO_1_8         
Sample ID,zeo112
Mineral Name,scolecite
Grain Size,<45 um
Viewing Geometry,"30/0,30"
Resolution,5/.6-129 nm

Wavelength
305.0,0.781399
310.0,0.790793
315.0,0.794372
320.0,0.801402
325.0,0.802804
330.0,0.808927
335.0,0.811237
340.0,0.815683
345.0,0.817843
350.0,0.822408
355.0,0.823632
360.0,0.826014
365.0,0.828274
370.0,0.830432
375.0,0.831106
380.0,0.833952
385.0,0.836945
390.0,0.838897
395.0,0.839906
400.0,0.840138
405.0,0.842037
410.0,0.843041
415.0,0.843515
420.0,0.844799
425.0,0.847116
430.0,0.848359
435.0,0.850403
440.0,0.850255
445.0,0.852199
450.0,0.854574
455.0,0.854921
460.0,0.856766
465.0,0.858183
470.0,0.860128
475.0,0.8606
480.0,0.860553
485.0,0.863867
490.0,0.863203
495.0,0.864718
500.0,0.866392
505.0,0.86762
510.0,0.867547
515.0,0.870215
520.0,0.868483
525.0,0.870136
530.0,0.871363
535.0,0.871208
540.0,0.872072
545.0,0.872748
550.0,0.87318
555.0,0.872725
560.0,0.874832
565.0,0.873716
570.0,0.872922
575.0,0.873343
580.0,0.87285
585.0,0.87453
590.0,0.873532
595.0,0.873495
600.0,0.873237
605.0,0.873987
610.0,0.872966
615.0,0.873126
620.0,0.872402
625.0,0.871986
630.0,0.871924
635.0,0.871923
640.0,0.871543
645.0,0.871577
650.0,0.871426
655.0,0.871815
660.0,0.871334
665.0,0.872166
670.0,0.872072
675.0,0.870838
680.0,0.871545
685.0,0.871814
690.0,0.87204
695.0,0.871465
700.0,0.871071
705.0,0.870775
710.0,0.870002
715.0,0.869523
720.0,0.871093
725.0,0.871196
730.0,0.871575
735.0,0.870781
740.0,0.869934
745.0,0.870297
750.0,0.871042
755.0,0.871475
760.0,0.871839
765.0,0.871878
770.0,0.870554
775.0,0.870772
780.0,0.872377
785.0,0.871905
790.0,0.871579
795.0,0.871956
800.0,0.870973
805.0,0.870817
810.0,0.8722
815.0,0.872419
820.0,0.871051
825.0,0.871433
830.0,0.870883
835.0,0.871574
840.0,0.871862
845.0,0.870823
850.0,0.871984
855.0,0.871843
860.0,0.871749
865.0,0.873168
870.0,0.872792
875.0,0.87261
880.0,0.872032
885.0,0.873698
890.0,0.871009
895.0,0.873481
900.0,0.871162
905.0,0.873698
910.0,0.872742
915.0,0.873044
920.0,0.87215
925.0,0.872762
930.0,0.871134
935.0,0.872851
940.0,0.871049
945.0,0.87062
950.0,0.868668
955.0,0.868337
960.0,0.866544
965.0,0.864328
970.0,0.864201
975.0,0.864468
980.0,0.863974
985.0,0.865657
990.0,0.867132
995.0,0.868441
1000.0,0.867872
1005.0,0.868136
1010.0,0.869658
1015.0,0.869414
1020.0,0.871801
1025.0,0.871173
1030.0,0.871314
1035.0,0.872044
1040.0,0.872215
1045.0,0.871208
1050.0,0.872727
1055.0,0.872385
1060.0,0.872929
1065.0,0.871894
1070.0,0.872423
1075.0,0.872525
1080.0,0.871554
1085.0,0.872143
1090.0,0.870795
1095.0,0.871848
1100.0,0.871601
1105.0,0.871572
1110.0,0.869971
1115.0,0.87036
1120.0,0.86954
1125.0,0.870328
1130.0,0.868315
1135.0,0.867825
1140.0,0.86568
1145.0,0.861519
1150.0,0.858112
1155.0,0.85213
1160.0,0.849608
1165.0,0.850175
1170.0,0.851104
1175.0,0.853562
1180.0,0.855611
1185.0,0.856774
1190.0,0.858376
1195.0,0.858243
1200.0,0.859641
1205.0,0.858282
1210.0,0.860167
1215.0,0.85826
1220.0,0.860145
1225.0,0.860199
1230.0,0.862206
1235.0,0.860889
1240.0,0.862126
1245.0,0.862062
1250.0,0.862373
1255.0,0.861648
1260.0,0.861103
1265.0,0.862274
1270.0,0.861313
1275.0,0.86047
1280.0,0.860545
1285.0,0.859475
1290.0,0.85994
1295.0,0.859457
1300.0,0.857434
1305.0,0.858226
1310.0,0.855045
1315.0,0.853784
1320.0,0.849871
1325.0,0.848959
1330.0,0.846123
1335.0,0.843
1340.0,0.840751
1345.0,0.836245
1350.0,0.832858
1355.0,0.830036
1360.0,0.825813
1365.0,0.821874
1370.0,0.81624
1375.0,0.81178
1380.0,0.808348
1385.0,0.796342
1390.0,0.786478
1395.0,0.770761
1400.0,0.750845
1405.0,0.727517
1410.0,0.70198
1415.0,0.683136
1420.0,0.669863
1425.0,0.666273
1430.0,0.668742
1435.0,0.676545
1440.0,0.68674
1445.0,0.696687
1450.0,0.707377
1455.0,0.716383
1460.0,0.719145
1465.0,0.720111
1470.0,0.719865
1475.0,0.725165
1480.0,0.736065
1485.0,0.745566
1490.0,0.753878
1495.0,0.761248
1500.0,0.7672
1505.0,0.772221
1510.0,0.777027
1515.0,0.780933
1520.0,0.783757
1525.0,0.787072
1530.0,0.788955
1535.0,0.791666
1540.0,0.793599
1545.0,0.793553
1550.0,0.794866
1555.0,0.795974
1560.0,0.796579
1565.0,0.797042
1570.0,0.797721
1575.0,0.796571
1580.0,0.798721
1585.0,0.798486
1590.0,0.79845
1595.0,0.797696
1600.0,0.798646
1605.0,0.798522
1610.0,0.80074
1615.0,0.800871
1620.0,0.799924
1625.0,0.802297
1630.0,0.799187
1635.0,0.800021
1640.0,0.800237
1645.0,0.801473
1650.0,0.80156
1655.0,0.802182
1660.0,0.803232
1665.0,0.806052
1670.0,0.80793
1675.0,0.807908
1680.0,0.807752
1685.0,0.806774
1690.0,0.807199
1695.0,0.806257
1700.0,0.806455
1705.0,0.805077
1710.0,0.803833
1715.0,0.801864
1720.0,0.79971
1725.0,0.796687
1730.0,0.795002
1735.0,0.791105
1740.0,0.789053
1745.0,0.786953
1750.0,0.78548
1755.0,0.783546
1760.0,0.783394
1765.0,0.78261
1770.0,0.780858
1775.0,0.78004
1780.0,0.780535
1785.0,0.779336
1790.0,0.77866
1795.0,0.777775
1800.0,0.777291
1805.0,0.777339
1810.0,0.775579
1815.0,0.775126
1820.0,0.77406
1825.0,0.774572
1830.0,0.772781
1835.0,0.770996
1840.0,0.766617
1845.0,0.764148
1850.0,0.759116
1855.0,0.753772
1860.0,0.746112
1865.0,0.738343
1870.0,0.726771
1875.0,0.706465
1880.0,0.682815
1885.0,0.653622
1890.0,0.617021
1895.0,0.56535
1900.0,0.506843
1905.0,0.446228
1910.0,0.403101
1915.0,0.382391
1920.0,0.379833
1925.0,0.390447
1930.0,0.409819
1935.0,0.431508
1940.0,0.45262
1945.0,0.470812
1950.0,0.485713
1955.0,0.497919
1960.0,0.508459
1965.0,0.515666
1970.0,0.524316
1975.0,0.531193
1980.0,0.539847
1985.0,0.548321
1990.0,0.556883
1995.0,0.567068
2000.0,0.578206
2005.0,0.588594
2010.0,0.600028
2015.0,0.610278
2020.0,0.619915
2025.0,0.629327
2030.0,0.638642
2035.0,0.64572
2040.0,0.652161
2045.0,0.657397
2050.0,0.662699
2055.0,0.666113
2060.0,0.669155
2065.0,0.671362
2070.0,0.673032
2075.0,0.676122
2080.0,0.677061
2085.0,0.680001
2090.0,0.681157
2095.0,0.684426
2100.0,0.686194
2105.0,0.688518
2110.0,0.689906
2115.0,0.692354
2120.0,0.693159
2125.0,0.69679
2130.0,0.697547
2135.0,0.70014
2140.0,0.699592
2145.0,0.701903
2150.0,0.702175
2155.0,0.703599
2160.0,0.7047
2165.0,0.704299
2170.0,0.704067
2175.0,0.70452
2180.0,0.70527
2185.0,0.704347
2190.0,0.705229
2195.0,0.703841
2200.0,0.70496
2205.0,0.704275
2210.0,0.704461
2215.0,0.704501
2220.0,0.704362
2225.0,0.703581
2230.0,0.703506
2235.0,0.703348
2240.0,0.702304
2245.0,0.700653
2250.0,0.70077
2255.0,0.698838
2260.0,0.69789
2265.0,0.69786
2270.0,0.696241
2275.0,0.692852
2280.0,0.691996
2285.0,0.689426
2290.0,0.685751
2295.0,0.683208
2300.0,0.680246
2305.0,0.675527
2310.0,0.671358
2315.0,0.666221
2320.0,0.660299
2325.0,0.653783
2330.0,0.64774
2335.0,0.640197
2340.0,0.632519
2345.0,0.624281
2350.0,0.613642
2355.0,0.604805
2360.0,0.593266
2365.0,0.582414
2370.0,0.569139
2375.0,0.557334
2380.0,0.54488
2385.0,0.530955
2390.0,0.518096
2395.0,0.504889
2400.0,0.492437
2405.0,0.47999
2410.0,0.468197
2415.0,0.45872
2420.0,0.448137
2425.0,0.439627
2430.0,0.431087
2435.0,0.424528
2440.0,0.419044
2445.0,0.413249
2450.0,0.408543
2455.0,0.404529
2460.0,0.400891
2465.0,0.396737
2470.0,0.393126
2475.0,0.389446
2480.0,0.38968
2485.0,0.38108
2490.0,0.376747
2495.0,0.372452
2500.0,0.368744
2505.0,0.36498
2510.0,0.36062
2515.0,0.35669
2520.0,0.352393
2525.0,0.348323
2530.0,0.344618
2535.0,0.340729
2540.0,0.33672
2545.0,0.333977
2550.0,0.330453
2555.0,0.32974
2560.0,0.327045
2565.0,0.326211
2570.0,0.324036
2575.0,0.322968
2580.0,0.32166
2581.74,0.320481
2583.03,0.320412
2584.31,0.319739
2585.6,0.319613
2586.89,0.320359
2588.19,0.319639
2589.48,0.319011
2590.77,0.31846
2592.07,0.318069
2593.36,0.317428
2594.66,0.316129
2595.96,0.315457
2597.26,0.316484
2598.56,0.316777
2599.87,0.315987
2601.17,0.315078
2602.48,0.314383
2603.78,0.313856
2605.09,0.312948
2606.4,0.312505
2607.71,0.313044
2609.03,0.312994
2610.34,0.31224
2611.66,0.311802
2612.97,0.311395
2614.29,0.310306
2615.61,0.309438
2616.93,0.30869
2618.25,0.308452
2619.57,0.308326
2620.9,0.306891
2622.22,0.306813
2623.55,0.307099
2624.88,0.305733
2626.21,0.304213
2627.54,0.303369
2628.87,0.303393
2630.21,0.302611
2631.54,0.301163
2632.88,0.301405
2634.21,0.300684
2635.55,0.29914
2636.89,0.298189
2638.24,0.297548
2639.58,0.297059
2640.92,0.295858
2642.27,0.294369
2643.62,0.29332
2644.97,0.292177
2646.32,0.290969
2647.67,0.289951
2649.02,0.289174
2650.38,0.287887
2651.73,0.286405
2653.09,0.284975
2654.45,0.28345
2655.81,0.28224
2657.17,0.280806
2658.53,0.279774
2659.89,0.278534
2661.26,0.277162
2662.63,0.275528
2664.0,0.273152
2665.36,0.270716
2666.74,0.268927
2668.11,0.267357
2669.48,0.266067
2670.86,0.263584
2672.23,0.261159
2673.61,0.259974
2674.99,0.257682
2676.37,0.254539
2677.76,0.252247
2679.14,0.250435
2680.52,0.247726
2681.91,0.245612
2683.3,0.243208
2684.69,0.240201
2686.08,0.23757
2687.47,0.235268
2688.87,0.232444
2690.26,0.22907
2691.66,0.226059
2693.06,0.22317
2694.46,0.219332
2695.86,0.215655
2697.26,0.212602
2698.66,0.209926
2700.07,0.205963
2701.48,0.201717
2702.89,0.197824
2704.3,0.19392
2705.71,0.189643
2707.12,0.18513
2708.53,0.180554
2709.95,0.176191
2711.37,0.1716
2712.79,0.167317
2714.21,0.162805
2715.63,0.157927
2717.05,0.153029
2718.48,0.14788
2719.9,0.143045
2721.33,0.138334
2722.76,0.133462
2724.19,0.129196
2725.62,0.124457
2727.06,0.119872
2728.49,0.115668
2729.93,0.111644
2731.37,0.107717
2732.81,0.104368
2734.25,0.100716
2735.69,0.097017
2737.14,0.093784
2738.58,0.090695
2740.03,0.087543
2741.48,0.084619
2742.93,0.081657
2744.38,0.079117
2745.83,0.076699
2747.29,0.074478
2748.75,0.072297
2750.2,0.070122
2751.66,0.068189
2753.13,0.066287
2754.59,0.064765
2756.05,0.06363
2757.52,0.062408
2758.99,0.060861
2760.46,0.059665
2761.93,0.058495
2763.4,0.057618
2764.87,0.056773
2766.35,0.055633
2767.82,0.054995
2769.3,0.054556
2770.78,0.054075
2772.26,0.053403
2773.75,0.052914
2775.23,0.052653
2776.72,0.051854
2778.21,0.051011
2779.7,0.050505
2781.19,0.0502
2782.68,0.050122
2784.18,0.050036
2785.67,0.049734
2787.17,0.049373
2788.67,0.049088
2790.17,0.048654
2791.67,0.048495
2793.18,0.048375
2794.68,0.048204
2796.19,0.048061
2797.7,0.047942
2799.21,0.047882
2800.72,0.047556
2802.24,0.047212
2803.75,0.047505
2805.27,0.047627
2806.79,0.047258
2808.31,0.047356
2809.83,0.047327
2811.35,0.047258
2812.88,0.047269
2814.41,0.047343
2815.93,0.047512
2817.46,0.047396
2819.0,0.047048
2820.53,0.046859
2822.07,0.046957
2823.6,0.047096
2825.14,0.047239
2826.68,0.047253
2828.22,0.047267
2829.77,0.047258
2831.31,0.047095
2832.86,0.04736
2834.41,0.047327
2835.96,0.046993
2837.51,0.046948
2839.07,0.047325
2840.62,0.047367
2842.18,0.04711
2843.74,0.04756
2845.3,0.047827
2846.86,0.047741
2848.43,0.047916
2849.99,0.04798
2851.56,0.047761
2853.13,0.047674
2854.7,0.047822
2856.27,0.048213
2857.85,0.048528
2859.42,0.048437
2861.0,0.048335
2862.58,0.048664
2864.16,0.049159
2865.75,0.049321
2867.33,0.049236
2868.92,0.049086
2870.51,0.049185
2872.1,0.049476
2873.69,0.049445
2875.28,0.049159
2876.88,0.049423
2878.48,0.049867
2880.07,0.050062
2881.68,0.050017
2883.28,0.049907
2884.88,0.05002
2886.49,0.050412
2888.1,0.050761
2889.71,0.050624
2891.32,0.050524
2892.93,0.050641
2894.55,0.050603
2896.16,0.050561
2897.78,0.050829
2899.4,0.050873
2901.03,0.050939
2902.65,0.051346
2904.28,0.051544
2905.91,0.051299
2907.54,0.051521
2909.17,0.051785
2910.8,0.051818
2912.44,0.051771
2914.07,0.051911
2915.71,0.052069
2917.35,0.052229
2918.99,0.052314
2920.64,0.052302
2922.29,0.052226
2923.93,0.052354
2925.58,0.052531
2927.24,0.052615
2928.89,0.052653
2930.55,0.05266
2932.2,0.052962
2933.86,0.053256
2935.52,0.053537
2937.19,0.053391
2938.85,0.053089
2940.52,0.053355
2942.19,0.053675
2943.86,0.053865
2945.53,0.054139
2947.21,0.054292
2948.88,0.054447
2950.56,0.054435
2952.24,0.0546
2953.92,0.05479
2955.61,0.054702
2957.29,0.054795
2958.98,0.055073
2960.67,0.055278
2962.36,0.05561
2964.06,0.055953
2965.75,0.055838
2967.45,0.055541
2969.15,0.056048
2970.85,0.056765
2972.55,0.056989
2974.26,0.056875
2975.97,0.05682
2977.68,0.05714
2979.39,0.057521
2981.1,0.057697
2982.82,0.057706
2984.53,0.058055
2986.25,0.058279
2987.97,0.05845
2989.7,0.058798
2991.42,0.059017
2993.15,0.05936
2994.88,0.059477
2996.61,0.05956
2998.34,0.059987
3000.08,0.060513
3001.82,0.060635
3003.55,0.060878
3005.3,0.061243
3007.04,0.06139
3008.78,0.061672
3010.53,0.061815
3012.28,0.061898
3014.03,0.062205
3015.79,0.062511
3017.54,0.062982
3019.3,0.063425
3021.06,0.063406
3022.82,0.063549
3024.58,0.063742
3026.35,0.063979
3028.12,0.064202
3029.89,0.064396
3031.66,0.064519
3033.43,0.064667
3035.21,0.064738
3036.99,0.064872
3038.77,0.065237
3040.55,0.065313
3042.33,0.065322
3044.12,0.065322
3045.91,0.065179
3047.7,0.065315
3049.49,0.065546
3051.29,0.065666
3053.08,0.065644
3054.88,0.065599
3056.68,0.065627
3058.49,0.065418
3060.29,0.06527
3062.1,0.065666
3063.91,0.065868
3065.72,0.065718
3067.54,0.065816
3069.35,0.066123
3071.17,0.066087
3072.99,0.065799
3074.81,0.065561
3076.64,0.065592
3078.47,0.065959
3080.29,0.066214
3082.13,0.066242
3083.96,0.066147
3085.79,0.066462
3087.63,0.0668
3089.47,0.066897
3091.31,0.067091
3093.16,0.067296
3095.01,0.067483
3096.85,0.067784
3098.71,0.06812
3100.56,0.068223
3102.41,0.068232
3104.27,0.068589
3106.13,0.068863
3107.99,0.069218
3109.86,0.069585
3111.73,0.070086
3113.59,0.070701
3115.47,0.071067
3117.34,0.071334
3119.21,0.071632
3121.09,0.071964
3122.97,0.072595
3124.86,0.0732
3126.74,0.07362
3128.63,0.074025
3130.52,0.074404
3132.41,0.074701
3134.3,0.075178
3136.2,0.07564
3138.1,0.076203
3140.0,0.076753
3141.9,0.077165
3143.81,0.077659
3145.71,0.078174
3147.62,0.078717
3149.54,0.079253
3151.45,0.079818
3153.37,0.080342
3155.29,0.080959
3157.21,0.081471
3159.13,0.081752
3161.06,0.082201
3162.99,0.083049
3164.92,0.083987
3166.85,0.084572
3168.79,0.085046
3170.72,0.085377
3172.67,0.085922
3174.61,0.086592
3176.55,0.087273
3178.5,0.087715
3180.45,0.088198
3182.4,0.088927
3184.36,0.089368
3186.32,0.089835
3188.27,0.090515
3190.24,0.091379
3192.2,0.092047
3194.17,0.092631
3196.14,0.093474
3198.11,0.094224
3200.08,0.094785
3202.06,0.095402
3204.04,0.09614
3206.02,0.096893
3208.0,0.097608
3209.99,0.098319
3211.98,0.098893
3213.97,0.099431
3215.96,0.100248
3217.96,0.101142
3219.96,0.102086
3221.96,0.10285
3223.96,0.103516
3225.97,0.104226
3227.98,0.105029
3229.99,0.105708
3232.0,0.106334
3234.02,0.10713
3236.04,0.107916
3238.06,0.108722
3240.08,0.109403
3242.11,0.110162
3244.14,0.111114
3246.17,0.111949
3248.2,0.112713
3250.24,0.1135
3252.28,0.114386
3254.32,0.11523
3256.37,0.116006
3258.41,0.116715
3260.46,0.11761
3262.51,0.118626
3264.57,0.119455
3266.63,0.120277
3268.69,0.120978
3270.75,0.121847
3272.81,0.122927
3274.88,0.123806
3276.95,0.124561
3279.02,0.125369
3281.1,0.126248
3283.18,0.12727
3285.26,0.128226
3287.34,0.129125
3289.43,0.130051
3291.51,0.130831
3293.61,0.1317
3295.7,0.132823
3297.8,0.133717
3299.9,0.134539
3302.0,0.135596
3304.1,0.136736
3306.21,0.137738
3308.32,0.138547
3310.43,0.139402
3312.55,0.140202
3314.66,0.141073
3316.79,0.142126
3318.91,0.143162
3321.03,0.144006
3323.16,0.145061
3325.29,0.146262
3327.43,0.147299
3329.57,0.148137
3331.71,0.148977
3333.85,0.149834
3335.99,0.150887
3338.14,0.151902
3340.29,0.152954
3342.45,0.153866
3344.6,0.154738
3346.76,0.15576
3348.92,0.156768
3351.09,0.157841
3353.26,0.158972
3355.43,0.160119
3357.6,0.161229
3359.78,0.162278
3361.96,0.163352
3364.14,0.164399
3366.32,0.165352
3368.51,0.16646
3370.7,0.167789
3372.89,0.168931
3375.09,0.169975
3377.29,0.171051
3379.49,0.1721
3381.69,0.173363
3383.9,0.174626
3386.11,0.175756
3388.32,0.177042
3390.54,0.178212
3392.76,0.179075
3394.98,0.18004
3397.21,0.181188
3399.43,0.182215
3401.66,0.183405
3403.9,0.184811
3406.13,0.186002
3408.37,0.187051
3410.61,0.18813
3412.86,0.189278
3415.11,0.190358
3417.36,0.191594
3419.61,0.1929
3421.87,0.194228
3424.13,0.195433
3426.39,0.196513
3428.66,0.19765
3430.93,0.198881
3433.2,0.200025
3435.48,0.201079
3437.76,0.202234
3440.04,0.203251
3442.32,0.204162
3444.61,0.205313
3446.9,0.206571
3449.19,0.207717
3451.49,0.20892
3453.79,0.210203
3456.09,0.211291
3458.4,0.212388
3460.7,0.213651
3463.02,0.21472
3465.33,0.215695
3467.65,0.216696
3469.97,0.21784
3472.29,0.218953
3474.62,0.220044
3476.95,0.221081
3479.29,0.222043
3481.62,0.223158
3483.96,0.224402
3486.3,0.225582
3488.65,0.2268
3491.0,0.22802
3493.35,0.229185
3495.71,0.230414
3498.07,0.231629
3500.43,0.232921
3502.79,0.234451
3505.16,0.235802
3507.53,0.236915
3509.91,0.238223
3512.29,0.239422
3514.67,0.240456
3517.05,0.241452
3519.44,0.242667
3521.83,0.244064
3524.23,0.245208
3526.62,0.246239
3529.02,0.247237
3531.43,0.248412
3533.83,0.249566
3536.24,0.250719
3538.66,0.252065
3541.08,0.253228
3543.5,0.254501
3545.92,0.255613
3548.35,0.256712
3550.78,0.257949
3553.21,0.259197
3555.65,0.260334
3558.09,0.261287
3560.53,0.262359
3562.98,0.263608
3565.43,0.264883
3567.88,0.265884
3570.34,0.266932
3572.8,0.268073
3575.27,0.269151
3577.73,0.270409
3580.2,0.271583
3582.68,0.272441
3585.16,0.273445
3587.64,0.274555
3590.12,0.275673
3592.61,0.276733
3595.1,0.277912
3597.6,0.279132
3600.09,0.280202
3602.6,0.281182
3605.1,0.282304
3607.61,0.28325
3610.12,0.284163
3612.64,0.285342
3615.16,0.286474
3617.68,0.287371
3620.21,0.288392
3622.74,0.289377
3625.27,0.290432
3627.81,0.291614
3630.35,0.292734
3632.89,0.293826
3635.44,0.294746
3637.99,0.295741
3640.54,0.296943
3643.1,0.297903
3645.66,0.298758
3648.23,0.299866
3650.8,0.300886
3653.37,0.302028
3655.95,0.303088
3658.53,0.304087
3661.11,0.304942
3663.7,0.305883
3666.29,0.306707
3668.89,0.307592
3671.48,0.308488
3674.09,0.309446
3676.69,0.31043
3679.3,0.311323
3681.91,0.31216
3684.53,0.313139
3687.15,0.314188
3689.78,0.315148
3692.4,0.316003
3695.04,0.316937
3697.67,0.31795
3700.31,0.318829
3702.95,0.319639
3705.6,0.320529
3708.25,0.321357
3710.91,0.322335
3713.56,0.323292
3716.23,0.324064
3718.89,0.324763
3721.56,0.325647
3724.23,0.326616
3726.91,0.327334
3729.59,0.328104
3732.28,0.329078
3734.97,0.329796
3737.66,0.330465
3740.36,0.331289
3743.06,0.332217
3745.76,0.333203
3748.47,0.334047
3751.18,0.334799
3753.9,0.335545
3756.62,0.336293
3759.34,0.336996
3762.07,0.337769
3764.8,0.338677
3767.54,0.339384
3770.28,0.340001
3773.02,0.340783
3775.77,0.341641
3778.52,0.342336
3781.28,0.343063
3784.04,0.343624
3786.8,0.344353
3789.57,0.345051
3792.34,0.345608
3795.12,0.34607
3797.9,0.346752
3800.69,0.347446
3803.47,0.348139
3806.27,0.348649
3809.06,0.349145
3811.86,0.349854
3814.67,0.350445
3817.48,0.350886
3820.29,0.35141
3823.11,0.351899
3825.93,0.352237
3828.76,0.352836
3831.59,0.353284
3834.42,0.353665
3837.26,0.354185
3840.1,0.354697
3842.95,0.355121
3845.8,0.35565
3848.65,0.3562
3851.51,0.356631
3854.38,0.357108
3857.24,0.357675
3860.12,0.358038
3862.99,0.358469
3865.87,0.358971
3868.76,0.359427
3871.65,0.359868
3874.54,0.360294
3877.44,0.360668
3880.34,0.360981
3883.25,0.361378
3886.16,0.361807
3889.07,0.362229
3891.99,0.362711
3894.92,0.363146
3897.85,0.36344
3900.78,0.36368
3903.72,0.3639
3906.66,0.36418
3909.6,0.364598
3912.55,0.36491
3915.51,0.364983
3918.47,0.365256
3921.43,0.365494
3924.4,0.365493
3927.38,0.365594
3930.35,0.36581
3933.33,0.365923
3936.32,0.366001
3939.31,0.36592
3942.31,0.365684
3945.31,0.365439
3948.31,0.365169
3951.32,0.364702
3954.34,0.36436
3957.35,0.364033
3960.38,0.363678
3963.41,0.363475
3966.44,0.363278
3969.48,0.363182
3972.52,0.363132
3975.56,0.363087
3978.61,0.362954
3981.67,0.362906
3984.73,0.363016
3987.8,0.363311
3990.87,0.363645
3993.94,0.364119
3997.02,0.364602
4000.1,0.364998
4003.19,0.365644
4006.29,0.366151
4009.39,0.366485
4012.49,0.3668
4015.6,0.367269
4018.71,0.367746
4021.83,0.368031
4024.95,0.368291
4028.08,0.368544
4031.21,0.368703
4034.35,0.368885
4037.49,0.36897
4040.64,0.36902
4043.79,0.36914
4046.94,0.369137
4050.11,0.369111
4053.27,0.368999
4056.44,0.368761
4059.62,0.368653
4062.8,0.368542
4065.99,0.368327
4069.18,0.368001
4072.38,0.367643
4075.58,0.367412
4078.78,0.36726
4082.0,0.366837
4085.21,0.366335
4088.43,0.365987
4091.66,0.365611
4094.89,0.365088
4098.13,0.364793
4101.37,0.364466
4104.62,0.364024
4107.87,0.363606
4111.13,0.363146
4114.39,0.362618
4117.66,0.36216
4120.93,0.361588
4124.21,0.361161
4127.5,0.36067
4130.79,0.360142
4134.08,0.35966
4137.38,0.35931
4140.68,0.35886
4143.99,0.358218
4147.31,0.357577
4150.63,0.357027
4153.95,0.356477
4157.29,0.35584
4160.62,0.355128
4163.96,0.354578
4167.31,0.354058
4170.66,0.35352
4174.02,0.35289
4177.39,0.352278
4180.75,0.351668
4184.13,0.351055
4187.51,0.350436
4190.89,0.349791
4194.28,0.349073
4197.68,0.348353
4201.08,0.347591
4204.49,0.346891
4207.9,0.346138
4211.32,0.34552
4214.74,0.344843
4218.17,0.34409
4221.61,0.343313
4225.05,0.342649
4228.5,0.34216
4231.95,0.341679
4235.4,0.341088
4238.87,0.340402
4242.34,0.339682
4245.81,0.339069
4249.29,0.338291
4252.78,0.337494
4256.27,0.336708
4259.77,0.335546
4263.27,0.334211
4266.78,0.333315
4270.29,0.332665
4273.81,0.332078
4277.34,0.331356
4280.87,0.330546
4284.41,0.329762
4287.95,0.328945
4291.5,0.328128
4295.06,0.327429
4298.62,0.326559
4302.19,0.325599
4305.76,0.324708
4309.34,0.323914
4312.92,0.322983
4316.52,0.322108
4320.11,0.321095
4323.72,0.320078
4327.32,0.319185
4330.94,0.318376
4334.56,0.317493
4338.19,0.31659
4341.82,0.315763
4345.46,0.314898
4349.11,0.314085
4352.76,0.313299
4356.42,0.312372
4360.08,0.311476
4363.75,0.310728
4367.43,0.309922
4371.11,0.308978
4374.8,0.308145
4378.49,0.307346
4382.19,0.306553
4385.9,0.305802
4389.61,0.305077
4393.33,0.304227
4397.06,0.303316
4400.79,0.302426
4404.53,0.301715
4408.28,0.301106
4412.03,0.300407
4415.79,0.299581
4419.55,0.298791
4423.32,0.29807
4427.1,0.297393
4430.88,0.296687
4434.68,0.296066
4438.47,0.295406
4442.28,0.294681
4446.08,0.293945
4449.9,0.293366
4453.72,0.292732
4457.55,0.292129
4461.39,0.291533
4465.23,0.290969
4469.08,0.290439
4472.94,0.289884
4476.8,0.289384
4480.67,0.288869
4484.55,0.288393
4488.43,0.287987
4492.32,0.287508
4496.21,0.287034
4500.12,0.286486
4504.03,0.286081
4507.94,0.285721
4511.87,0.285369
4515.8,0.284951
4519.73,0.284635
4523.68,0.284291
4527.63,0.283948
4531.59,0.283741
4535.55,0.283439
4539.52,0.283077
4543.5,0.282785
4547.49,0.282554
4551.48,0.282273
4555.48,0.28199
4559.49,0.281849
4563.5,0.281718
4567.52,0.281589
4571.55,0.281458
4575.58,0.281287
4579.63,0.281001
4583.67,0.280827
4587.73,0.280791
4591.79,0.280808
4595.86,0.280679
4599.94,0.280574
4604.03,0.280515
4608.12,0.280477
4612.22,0.280439
4616.33,0.280453
4620.44,0.280479
4624.56,0.280596
4628.69,0.280658
4632.83,0.280689
4636.97,0.280681
4641.12,0.280899
4645.28,0.281032
4649.45,0.28102
4653.62,0.280949
4657.8,0.281029
4661.99,0.281194
4666.19,0.281363
4670.39,0.281592
4674.6,0.281794
4678.82,0.281957
4683.05,0.28218
4687.28,0.282366
4691.52,0.282655
4695.77,0.282836
4700.03,0.283103
4704.3,0.283262
4708.57,0.283501
4712.85,0.283801
4717.14,0.284068
4721.43,0.28427
4725.74,0.284558
4730.05,0.285002
4734.37,0.285312
4738.7,0.285493
4743.03,0.285855
4747.38,0.286179
4751.73,0.286515
4756.09,0.286794
4760.45,0.287067
4764.83,0.287315
4769.21,0.287644
4773.6,0.287992
4778.0,0.288255
4782.41,0.288505
4786.83,0.288838
4791.25,0.289151
4795.68,0.289579
4800.13,0.289875
4804.57,0.290091
4809.03,0.290352
4813.5,0.290745
4817.97,0.291121
4822.45,0.291383
4826.94,0.291579
4831.44,0.291781
4835.95,0.291953
4840.46,0.292224
4844.99,0.292496
4849.52,0.292734
4854.06,0.292977
4858.61,0.293159
4863.17,0.293278
4867.73,0.293506
4872.31,0.293576
4876.89,0.293756
4881.48,0.293873
4886.08,0.293906
4890.69,0.293993
4895.31,0.294009
4899.94,0.293909
4904.57,0.293911
4909.22,0.293816
4913.87,0.293675
4918.53,0.293513
4923.21,0.293358
4927.88,0.293177
4932.57,0.293042
4937.27,0.292839
4941.98,0.292525
4946.69,0.292145
4951.42,0.291907
4956.15,0.291617
4960.9,0.29118
4965.65,0.290678
4970.41,0.290189
4975.18,0.289705
4979.96,0.289265
4984.75,0.288678
4989.54,0.288193
4994.35,0.287721
4999.17,0.287142
5003.99,0.286565
5008.83,0.28596
5013.67,0.285211
5018.52,0.284489
5023.39,0.283736
5028.26,0.283074
5033.14,0.282318
5038.03,0.281566
5042.93,0.280825
5047.84,0.280122
5052.76,0.279299
5057.69,0.278539
5062.63,0.277663
5067.58,0.276883
5072.54,0.276114
5077.51,0.275403
5082.49,0.274531
5087.47,0.273674
5092.47,0.272852
5097.48,0.271982
5102.5,0.271104
5107.52,0.270266
5112.56,0.26956
5117.61,0.268813
5122.66,0.268012
5127.73,0.267275
5132.81,0.26653
5137.89,0.265755
5142.99,0.264954
5148.1,0.264292
5153.22,0.263636
5158.34,0.262927
5163.48,0.262098
5168.63,0.261468
5173.79,0.26093
5178.96,0.260258
5184.13,0.259597
5189.32,0.259136
5194.52,0.258637
5199.73,0.258085
5204.96,0.257568
5210.19,0.257139
5215.43,0.256566
5220.68,0.256111
5225.94,0.255656
5231.22,0.255234
5236.5,0.254901
5241.79,0.254603
5247.1,0.254191
5252.42,0.253841
5257.74,0.253433
5263.08,0.253106
5268.43,0.252763
5273.79,0.252392
5279.16,0.252091
5284.54,0.251767
5289.93,0.251384
5295.34,0.251024
5300.75,0.250698
5306.18,0.250354
5311.61,0.249892
5317.06,0.249516
5322.52,0.249103
5327.99,0.248575
5333.47,0.24796
5338.96,0.247545
5344.47,0.24709
5349.98,0.246413
5355.51,0.245781
5361.05,0.245296
5366.6,0.244645
5372.16,0.243975
5377.73,0.243325
5383.32,0.242624
5388.91,0.241762
5394.52,0.240964
5400.14,0.240118
5405.77,0.239296
5411.41,0.238476
5417.07,0.237677
5422.74,0.236681
5428.41,0.235771
5434.1,0.234973
5439.81,0.234072
5445.52,0.233097
5451.25,0.232166
5456.98,0.231274
5462.73,0.230247
5468.5,0.229297
5474.27,0.22843
5480.06,0.227328
5485.86,0.226387
5491.67,0.22556
5497.49,0.224634
5503.33,0.223692
5509.18,0.222799
5515.04,0.221871
5520.91,0.22089
5526.8,0.219935
5532.69,0.218965
5538.61,0.21784
5544.53,0.216482
5550.47,0.215037
5556.41,0.213691
5562.38,0.212511
5568.35,0.21159
5574.34,0.210762
5580.34,0.20995
5586.35,0.209723
5592.38,0.209735
5598.42,0.209593
5604.47,0.209447
5610.54,0.209206
5616.61,0.208802
5622.71,0.208387
5628.81,0.20792
5634.93,0.207291
5641.06,0.20659
5647.21,0.205828
5653.36,0.205429
5659.54,0.204664
5665.72,0.203933
5671.92,0.203113
5678.13,0.202267
5684.36,0.201576
5690.6,0.200752
5696.85,0.199639
5703.12,0.198798
5709.4,0.197814
5715.69,0.196877
5722.0,0.195965
5728.33,0.194902
5734.66,0.193615
5741.01,0.192236
5747.38,0.19071
5753.76,0.189142
5760.15,0.18761
5766.56,0.185649
5772.98,0.18375
5779.41,0.182037
5785.86,0.17978
5792.33,0.177455
5798.81,0.174964
5805.3,0.172403
5811.81,0.169788
5818.33,0.16696
5824.87,0.16375
5831.42,0.160684
5837.99,0.157474
5844.57,0.154037
5851.17,0.150296
5857.78,0.146315
5864.41,0.142116
5871.05,0.137887
5877.7,0.133449
5884.38,0.128798
5891.06,0.124166
5897.76,0.119426
5904.48,0.114389
5911.21,0.109442
5917.96,0.104406
5924.73,0.099353
5931.5,0.094298
5938.3,0.089268
5945.11,0.084233
5951.93,0.079493
5958.78,0.07492
5965.63,0.070405
5972.51,0.066028
5979.39,0.062041
5986.3,0.058198
5993.22,0.054597
6000.16,0.051394
6007.11,0.048459
6014.08,0.045742
6021.06,0.043314
6028.06,0.041189
6035.08,0.039465
6042.12,0.03794
6049.17,0.036513
6056.23,0.035364
6063.32,0.034468
6070.42,0.033811
6077.53,0.033458
6084.67,0.033391
6091.82,0.033501
6098.98,0.033816
6106.17,0.034295
6113.37,0.035014
6120.58,0.036163
6127.82,0.037879
6135.07,0.039849
6142.34,0.042192
6149.63,0.044767
6156.93,0.047823
6164.25,0.051153
6171.59,0.05478
6178.95,0.05851
6186.32,0.062251
6193.71,0.066287
6201.12,0.070365
6208.54,0.074099
6215.99,0.077975
6223.45,0.081776
6230.93,0.085439
6238.43,0.088775
6245.95,0.091989
6253.48,0.09517
6261.03,0.098363
6268.6,0.101354
6276.19,0.104371
6283.8,0.107314
6291.43,0.110073
6299.07,0.112742
6306.73,0.115349
6314.42,0.117789
6322.12,0.120298
6329.84,0.122607
6337.57,0.124664
6345.33,0.126492
6353.11,0.128488
6360.9,0.130192
6368.72,0.131615
6376.55,0.133137
6384.4,0.134638
6392.27,0.135816
6400.17,0.137002
6408.08,0.137934
6416.01,0.138687
6423.96,0.139821
6431.93,0.140772
6439.92,0.141284
6447.93,0.141945
6455.96,0.142399
6464.01,0.142788
6472.08,0.143084
6480.17,0.143334
6488.28,0.14331
6496.41,0.143284
6504.56,0.14356
6512.73,0.14372
6520.92,0.143467
6529.14,0.143341
6537.37,0.143146
6545.63,0.142755
6553.9,0.142428
6562.2,0.142114
6570.51,0.141735
6578.85,0.141234
6587.21,0.140725
6595.59,0.140117
6603.99,0.139595
6612.42,0.139001
6620.86,0.138408
6629.33,0.137762
6637.82,0.13695
6646.33,0.136282
6654.86,0.135806
6663.41,0.135108
6671.99,0.134334
6680.59,0.133583
6689.21,0.132846
6697.85,0.132182
6706.51,0.13145
6715.2,0.130654
6723.91,0.129927
6732.64,0.129215
6741.4,0.128453
6750.18,0.127724
6758.98,0.126985
6767.8,0.126193
6776.65,0.125336
6785.52,0.124495
6794.41,0.123577
6803.33,0.122845
6812.27,0.12213
6821.23,0.121299
6830.22,0.120403
6839.23,0.119586
6848.26,0.11878
6857.32,0.117942
6866.4,0.117057
6875.51,0.116168
6884.64,0.115346
6893.8,0.114524
6902.98,0.113784
6912.18,0.112975
6921.41,0.112168
6930.66,0.111419
6939.94,0.110666
6949.24,0.109892
6958.57,0.10913
6967.92,0.108362
6977.3,0.107697
6986.7,0.107006
6996.13,0.106299
7005.59,0.105591
7015.07,0.10489
7024.57,0.104252
7034.1,0.103665
7043.66,0.103089
7053.25,0.102531
7062.85,0.101933
7072.49,0.101213
7082.15,0.100518
7091.84,0.099762
7101.55,0.099023
7111.3,0.098173
7121.06,0.097199
7130.86,0.096238
7140.68,0.09523
7150.53,0.094225
7160.41,0.093269
7170.31,0.092216
7180.24,0.091218
7190.2,0.090366
7200.19,0.089399
7210.2,0.088205
7220.24,0.087024
7230.31,0.086066
7240.41,0.085027
7250.54,0.083837
7260.69,0.08263
7270.88,0.081473
7281.09,0.080285
7291.33,0.079027
7301.6,0.077733
7311.9,0.076489
7322.22,0.075138
7332.58,0.073763
7342.97,0.072385
7353.38,0.070887
7363.83,0.069404
7374.3,0.06801
7384.81,0.066518
7395.34,0.065003
7405.91,0.063487
7416.5,0.062003
7427.13,0.060364
7437.78,0.058715
7448.47,0.057096
7459.19,0.055422
7469.94,0.053748
7480.71,0.052178
7491.52,0.050541
7502.37,0.048825
7513.24,0.047003
7524.14,0.045239
7535.08,0.043524
7546.05,0.041846
7557.05,0.040178
7568.08,0.03852
7579.15,0.036832
7590.24,0.035112
7601.37,0.03346
7612.53,0.031907
7623.73,0.030298
7634.96,0.028861
7646.22,0.02752
7657.51,0.026054
7668.84,0.024544
7680.2,0.023202
7691.59,0.021947
7703.02,0.020708
7714.49,0.019495
7725.98,0.018465
7737.52,0.017397
7749.08,0.016309
7760.68,0.015401
7772.32,0.014617
7783.99,0.013842
7795.69,0.013273
7807.43,0.012744
7819.21,0.012307
7831.02,0.011886
7842.87,0.011783
7854.75,0.011886
7866.67,0.012069
7878.62,0.012429
7890.62,0.012961
7902.64,0.013783
7914.71,0.014939
7926.81,0.01632
7938.95,0.017901
7951.13,0.019797
7963.34,0.022066
7975.59,0.024504
7987.88,0.027103
8000.21,0.030093
8012.57,0.033489
8024.98,0.036839
8037.42,0.040369
8049.9,0.044007
8062.42,0.047556
8074.98,0.050958
8087.57,0.054128
8100.21,0.057044
8112.89,0.059591
8125.6,0.061655
8138.36,0.063278
8151.16,0.064541
8163.99,0.065513
8176.87,0.066123
8189.79,0.066337
8202.75,0.066273
8215.75,0.065987
8228.79,0.065535
8241.87,0.064894
8254.99,0.064072
8268.16,0.063221
8281.37,0.062258
8294.62,0.061171
8307.91,0.060113
8321.24,0.059012
8334.62,0.057935
8348.04,0.056877
8361.51,0.055843
8375.02,0.054856
8388.57,0.053854
8402.16,0.053026
8415.8,0.052288
8429.49,0.051551
8443.22,0.050879
8456.99,0.050238
8470.81,0.049709
8484.67,0.049335
8498.58,0.049043
8512.54,0.048735
8526.54,0.04833
8540.58,0.047882
8554.68,0.04763
8568.82,0.047491
8583.0,0.047227
8597.24,0.046971
8611.52,0.046764
8625.85,0.046514
8640.23,0.046231
8654.65,0.046042
8669.12,0.04605
8683.64,0.045985
8698.21,0.045859
8712.83,0.045823
8727.5,0.045701
8742.22,0.045637
8756.99,0.045549
8771.8,0.045504
8786.67,0.045402
8801.59,0.045406
8816.56,0.045523
8831.58,0.045637
8846.65,0.045775
8861.77,0.045973
8876.94,0.046223
8892.17,0.046547
8907.45,0.046862
8922.78,0.047289
8938.16,0.047742
8953.6,0.048223
8969.09,0.048766
8984.64,0.049466
9000.23,0.050232
9015.89,0.051015
9031.59,0.051819
9047.36,0.052626
9063.17,0.053532
9079.05,0.054471
9094.97,0.055352
9110.96,0.056336
9127.0,0.057232
9143.1,0.058007
9159.25,0.058988
9175.46,0.05987
9191.73,0.060499
9208.06,0.061231
9224.44,0.061877
9240.88,0.062601
9257.38,0.063282
9273.94,0.063705
9290.56,0.064121
9307.24,0.064276
9323.98,0.064264
9340.78,0.0642
9357.64,0.064088
9374.57,0.063805
9391.55,0.063409
9408.59,0.062839
9425.7,0.06233
9442.87,0.061732
9460.1,0.061014
9477.4,0.060513
9494.75,0.059973
9512.17,0.059327
9529.66,0.058734
9547.21,0.058133
9564.83,0.057685
9582.5,0.057139
9600.25,0.056465
9618.06,0.055796
9635.94,0.055185
9653.88,0.054725
9671.89,0.054354
9689.97,0.053858
9708.12,0.053405
9726.33,0.053146
9744.62,0.052857
9762.97,0.052645
9781.39,0.05251
9799.88,0.052335
9818.44,0.052076
9837.07,0.052083
9855.77,0.052095
9874.54,0.051866
9893.39,0.051657
9912.3,0.051616
9931.29,0.051497
9950.36,0.051433
9969.49,0.051351
9988.7,0.051249
10007.98,0.051197
10027.34,0.051147
10046.77,0.051066
10066.28,0.050925
10085.87,0.050791
10105.53,0.050599
10125.26,0.050458
10145.08,0.050339
10164.97,0.0502
10184.94,0.050234
10204.99,0.050258
10225.12,0.050032
10245.33,0.049962
10265.61,0.049927
10285.98,0.049914
10306.43,0.050027
10326.96,0.050251
10347.57,0.050467
10368.27,0.050541
10389.05,0.05061
10409.91,0.050813
10430.86,0.051063
10451.88,0.051501
10473.0,0.052026
10494.2,0.052424
10515.49,0.052869
10536.86,0.053393
10558.32,0.053959
10579.87,0.054625
10601.5,0.055545
10623.23,0.056551
10645.04,0.057664
10666.94,0.05875
10688.94,0.059796
10711.02,0.061019
10733.2,0.062506
10755.47,0.064126
10777.83,0.065921
10800.28,0.067851
10822.83,0.069791
10845.47,0.071732
10868.21,0.074125
10891.04,0.076643
10913.97,0.079201
10936.99,0.08184
10960.12,0.084245
10983.34,0.086588
11006.66,0.089027
11030.07,0.091413
11053.59,0.093733
11077.21,0.095747
11100.93,0.097627
11124.75,0.099624
11148.68,0.101347
11172.71,0.102877
11196.84,0.104221
11221.07,0.105236
11245.41,0.106165
11269.86,0.106928
11294.41,0.107338
11319.07,0.107536
11343.84,0.107612
11368.72,0.107411
11393.7,0.107219
11418.8,0.107138
11444.01,0.10724
11469.33,0.107593
11494.76,0.107972
11520.3,0.108317
11545.96,0.108503
11571.73,0.10845
11597.62,0.108438
11623.62,0.108317
11649.74,0.107997
11675.98,0.107697
11702.34,0.107369
11728.81,0.106721
11755.41,0.105989
11782.13,0.105069
11808.96,0.103859
11835.92,0.103053
11863.01,0.102371
11890.22,0.101276
11917.55,0.099975
11945.01,0.098511
11972.6,0.096965
12000.31,0.095125
12028.16,0.0929
12056.13,0.090245
12084.23,0.087352
12112.46,0.084212
12140.83,0.080685
12169.33,0.076927
12197.96,0.073257
12226.73,0.069516
12255.64,0.065916
12284.68,0.062639
12313.86,0.059908
12343.18,0.057676
12372.64,0.055869
12402.24,0.054168
12431.98,0.052898
12461.86,0.051911
12491.89,0.051108
12522.07,0.050353
12552.38,0.049593
12582.85,0.04908
12613.47,0.048678
12644.23,0.048132
12675.15,0.047553
12706.21,0.046831
12737.43,0.046231
12768.81,0.045623
12800.33,0.045003
12832.02,0.044718
12863.86,0.044625
12895.86,0.044129
12928.02,0.043598
12960.34,0.043195
12992.82,0.042785
13025.46,0.042339
13058.27,0.041918
13091.25,0.041501
13124.39,0.041103
13157.7,0.040724
13191.18,0.040355
13224.83,0.039876
13258.66,0.039442
13292.65,0.038903
13326.83,0.038484
13361.17,0.038115
13395.7,0.037717
13430.4,0.03735
13465.29,0.037023
13500.35,0.036808
13535.6,0.036461
13571.03,0.035989
13606.65,0.035677
13642.46,0.035563
13678.46,0.035336
13714.64,0.035091
13751.02,0.034895
13787.59,0.034628
13824.36,0.034335
13861.32,0.034252
13898.49,0.03415
13935.85,0.033989
13973.41,0.03374
14011.17,0.033518
14049.15,0.033578
14087.32,0.033684
14125.71,0.033858
14164.3,0.034128
14203.11,0.034185
14242.13,0.033906
14281.36,0.033787
14320.81,0.033944
14360.49,0.033858
14400.38,0.033561
14440.49,0.033422
14480.82,0.03333
14521.39,0.033153
14562.18,0.032879
14603.2,0.032741
14644.45,0.032532
14685.93,0.032436
14727.66,0.032412
14769.62,0.032529
14811.81,0.032589
14854.25,0.032443
14896.94,0.032305
14939.87,0.032102
14983.05,0.031902
15026.48,0.031972
15070.16,0.032048
15114.1,0.031855
15158.29,0.031314
15202.74,0.030949
15247.46,0.031047
15292.43,0.03092
15337.68,0.030716
15383.19,0.030368
15428.97,0.029862
15475.03,0.02987
15521.36,0.029875
15567.97,0.029388
15614.87,0.029066
15662.04,0.028923
15709.5,0.028668
15757.25,0.028416
15805.29,0.028469
15853.62,0.02855
15902.26,0.028924
15951.19,0.029388
16000.42,0.029419
16049.95,0.029693
16099.8,0.030327
16149.95,0.030909
16200.42,0.031562
16251.21,0.032522
16302.31,0.033644
16353.74,0.035145
16405.49,0.036783
16457.57,0.038443
16509.98,0.039782
16562.73,0.04121
16615.82,0.042857
16669.24,0.044546
16723.02,0.045894
16777.14,0.046476
16831.61,0.046831
16886.43,0.047553
16941.62,0.048035
16997.16,0.048246
17053.08,0.048482
17109.36,0.048499
17166.01,0.048542
17223.04,0.048764
17280.45,0.048676
17338.24,0.048576
17396.43,0.048487
17455.0,0.048256
17513.97,0.047954
17573.34,0.04792
17633.11,0.047811
17693.29,0.047813
17753.89,0.047312
17814.9,0.046641
17876.33,0.046809
17938.18,0.046993
18000.47,0.046903
18063.19,0.046874
18126.35,0.046647
18189.95,0.046249
18254.0,0.045807
18318.5,0.045856
18383.46,0.045773
18448.88,0.045578
18514.77,0.045639
18581.13,0.045463
18647.97,0.04554
18715.29,0.045663
18783.1,0.045309
18851.4,0.044925
18920.2,0.04523
18989.51,0.045552
19059.32,0.045122
19129.65,0.044856
19200.5,0.04517
19271.88,0.04563
19343.79,0.046023
19416.24,0.046688
19489.23,0.046862
19562.77,0.046548
19636.88,0.046955
19711.54,0.047636
19786.78,0.048582
19862.59,0.049602
19938.98,0.050474
20015.96,0.051137
20093.55,0.052142
20171.73,0.053487
20250.53,0.054521
20329.94,0.05535
20409.98,0.056637
20490.65,0.058453
20571.96,0.060058
20653.92,0.061434
20736.54,0.062268
20819.82,0.063431
20903.77,0.065217
20988.4,0.067155
21073.72,0.068713
21159.73,0.06945
21246.46,0.070465
21333.89,0.072278
21422.04,0.073815
21510.93,0.074921
21600.56,0.075743
21690.94,0.076424
21782.08,0.077048
21873.99,0.077315
21966.67,0.078216
22060.15,0.079103
22154.42,0.079898
22249.51,0.079131
22345.41,0.078791
22442.14,0.079107
22539.72,0.078679
22638.14,0.077689
22737.43,0.076779
22837.6,0.075693
22938.65,0.073855
23040.6,0.07286
23143.46,0.072161
23247.24,0.070634
23351.96,0.068682
23457.63,0.067808
23564.25,0.066335
23671.85,0.064881
23780.44,0.065298
23890.02,0.064682
24000.63,0.063354
24112.26,0.06396
24224.93,0.064819
24338.66,0.064688
24453.47,0.065267
24569.36,0.065677
24686.36,0.066188
24804.47,0.06638
24923.73,0.064479
25044.13,0.064298
25165.71,0.067472
25288.46,0.069952
25412.43,0.070581
25537.61,0.07111
25664.04,0.069686
25791.72,0.069666
25920.68,0.071811
