Database of Origin,University of Winnipeg Spectrophotometer Facility
Sample Description,See Master Clays in HOSERLab database
Date Added,2016-12-11 20:57:06.176891

Data ID,RLA_CLAY_15         
Sample ID,ILS104
Mineral Name,Illite-smectite
Grain Size,<45um
Viewing Geometry,"30/0,30"
Resolution,"5,0.6-129"
Material Class,Phyllosilicate

Wavelength
305.0,0.19545
310.0,0.200309
315.0,0.20686
320.0,0.213411
325.0,0.218637
330.0,0.225509
335.0,0.229974
340.0,0.235554
345.0,0.241133
350.0,0.247058
355.0,0.254251
360.0,0.263183
365.0,0.272447
370.0,0.280992
375.0,0.293229
380.0,0.304511
385.0,0.319798
390.0,0.332588
395.0,0.348134
400.0,0.371303
405.0,0.379
410.0,0.391631
415.0,0.402883
420.0,0.414144
425.0,0.423099
430.0,0.435942
435.0,0.446689
440.0,0.461243
445.0,0.473822
450.0,0.484
455.0,0.493534
460.0,0.497839
465.0,0.50333
470.0,0.508989
475.0,0.513382
480.0,0.519855
485.0,0.525441
490.0,0.532737
495.0,0.541823
500.0,0.548775
505.0,0.560566
510.0,0.569122
515.0,0.57908
520.0,0.588537
525.0,0.599168
530.0,0.60488
535.0,0.615274
540.0,0.621287
545.0,0.632649
550.0,0.637111
555.0,0.646025
560.0,0.649912
565.0,0.657963
570.0,0.662989
575.0,0.665613
580.0,0.67144
585.0,0.677408
590.0,0.679351
595.0,0.683946
600.0,0.686663
605.0,0.693074
610.0,0.69431
615.0,0.694114
620.0,0.697397
625.0,0.701669
630.0,0.703797
635.0,0.706671
640.0,0.708381
645.0,0.71372
650.0,0.717829
655.0,0.722236
660.0,0.722987
665.0,0.726765
670.0,0.732979
675.0,0.735493
680.0,0.738974
685.0,0.741848
690.0,0.747529
695.0,0.746876
700.0,0.750626
705.0,0.752143
710.0,0.755747
715.0,0.756707
720.0,0.765267
725.0,0.769264
730.0,0.768696
735.0,0.771003
740.0,0.774466
745.0,0.7745
750.0,0.777372
755.0,0.779457
760.0,0.77934
765.0,0.78458
770.0,0.784068
775.0,0.787671
780.0,0.785375
785.0,0.786908
790.0,0.788696
795.0,0.791953
800.0,0.789561
805.0,0.793001
810.0,0.79019
815.0,0.792209
820.0,0.793452
825.0,0.793085
830.0,0.792069
835.0,0.793294
840.0,0.793021
845.0,0.794707
850.0,0.796798
855.0,0.792274
860.0,0.792116
865.0,0.791516
870.0,0.79403
875.0,0.792679
880.0,0.796687
885.0,0.792156
890.0,0.79407
895.0,0.795473
900.0,0.797047
905.0,0.796183
910.0,0.79761
915.0,0.798329
920.0,0.798941
925.0,0.799937
930.0,0.799107
935.0,0.800481
940.0,0.802289
945.0,0.801567
950.0,0.801093
955.0,0.801036
960.0,0.802423
965.0,0.803188
970.0,0.80356
975.0,0.804466
980.0,0.806111
985.0,0.806433
990.0,0.808587
995.0,0.807777
1000.0,0.809876
1005.0,0.810767
1010.0,0.810481
1015.0,0.813656
1020.0,0.814439
1025.0,0.814882
1030.0,0.816918
1035.0,0.816601
1040.0,0.818431
1045.0,0.820601
1050.0,0.820976
1055.0,0.820772
1060.0,0.819371
1065.0,0.823158
1070.0,0.822384
1075.0,0.823704
1080.0,0.824022
1085.0,0.823142
1090.0,0.825076
1095.0,0.825325
1100.0,0.824547
1105.0,0.826233
1110.0,0.827732
1115.0,0.82963
1120.0,0.829845
1125.0,0.831658
1130.0,0.831954
1135.0,0.830891
1140.0,0.833132
1145.0,0.83186
1150.0,0.832014
1155.0,0.832276
1160.0,0.832525
1165.0,0.832109
1170.0,0.834137
1175.0,0.834885
1180.0,0.834885
1185.0,0.837999
1190.0,0.839841
1195.0,0.837948
1200.0,0.837752
1205.0,0.838877
1210.0,0.840003
1215.0,0.844337
1220.0,0.84407
1225.0,0.843961
1230.0,0.844336
1235.0,0.8462
1240.0,0.844985
1245.0,0.846317
1250.0,0.846682
1255.0,0.846148
1260.0,0.848376
1265.0,0.848713
1270.0,0.849396
1275.0,0.849647
1280.0,0.848383
1285.0,0.847922
1290.0,0.852181
1295.0,0.850248
1300.0,0.850831
1305.0,0.850015
1310.0,0.850521
1315.0,0.849336
1320.0,0.848117
1325.0,0.84936
1330.0,0.849596
1335.0,0.850422
1340.0,0.849068
1345.0,0.845865
1350.0,0.844739
1355.0,0.83952
1360.0,0.83978
1365.0,0.843269
1370.0,0.837471
1375.0,0.833766
1380.0,0.822937
1385.0,0.822917
1390.0,0.801411
1395.0,0.770158
1400.0,0.75298
1405.0,0.735516
1410.0,0.727695
1415.0,0.713897
1420.0,0.732682
1425.0,0.749024
1430.0,0.760668
1435.0,0.774469
1440.0,0.776562
1445.0,0.777459
1450.0,0.776837
1455.0,0.784826
1460.0,0.787604
1465.0,0.785542
1470.0,0.790212
1475.0,0.797058
1480.0,0.800881
1485.0,0.80302
1490.0,0.805113
1495.0,0.811087
1500.0,0.810068
1505.0,0.817233
1510.0,0.818817
1515.0,0.82318
1520.0,0.823433
1525.0,0.826825
1530.0,0.825786
1535.0,0.826612
1540.0,0.829524
1545.0,0.832358
1550.0,0.835509
1555.0,0.836883
1560.0,0.840162
1565.0,0.839909
1570.0,0.845252
1575.0,0.843111
1580.0,0.847389
1585.0,0.845374
1590.0,0.84904
1595.0,0.849007
1600.0,0.848423
1605.0,0.850124
1610.0,0.854159
1615.0,0.854257
1620.0,0.853625
1625.0,0.855258
1630.0,0.854255
1635.0,0.854303
1640.0,0.859024
1645.0,0.85753
1650.0,0.856414
1655.0,0.857784
1660.0,0.857358
1665.0,0.857168
1670.0,0.857241
1675.0,0.857126
1680.0,0.855134
1685.0,0.856376
1690.0,0.855402
1695.0,0.856246
1700.0,0.855852
1705.0,0.855671
1710.0,0.854764
1715.0,0.853673
1720.0,0.852467
1725.0,0.851802
1730.0,0.848249
1735.0,0.847579
1740.0,0.843361
1745.0,0.842515
1750.0,0.839601
1755.0,0.840149
1760.0,0.840488
1765.0,0.840168
1770.0,0.840169
1775.0,0.835823
1780.0,0.837937
1785.0,0.83738
1790.0,0.838126
1795.0,0.837851
1800.0,0.840095
1805.0,0.838119
1810.0,0.840459
1815.0,0.83882
1820.0,0.839131
1825.0,0.836627
1830.0,0.840983
1835.0,0.84019
1840.0,0.836242
1845.0,0.832953
1850.0,0.831061
1855.0,0.828325
1860.0,0.824918
1865.0,0.81751
1870.0,0.813855
1875.0,0.79124
1880.0,0.7718
1885.0,0.749665
1890.0,0.717739
1895.0,0.678606
1900.0,0.63845
1905.0,0.601044
1910.0,0.584189
1915.0,0.584881
1920.0,0.591034
1925.0,0.595649
1930.0,0.596032
1935.0,0.594443
1940.0,0.592689
1945.0,0.59456
1950.0,0.597835
1955.0,0.608378
1960.0,0.621998
1965.0,0.631148
1970.0,0.636938
1975.0,0.64331
1980.0,0.650344
1985.0,0.657769
1990.0,0.664849
1995.0,0.674859
2000.0,0.686713
2005.0,0.69891
2010.0,0.708463
2015.0,0.715788
2020.0,0.723284
2025.0,0.727861
2030.0,0.734369
2035.0,0.739254
2040.0,0.741079
2045.0,0.744245
2050.0,0.74747
2055.0,0.750365
2060.0,0.749593
2065.0,0.75216
2070.0,0.751711
2075.0,0.751403
2080.0,0.754603
2085.0,0.754103
2090.0,0.752181
2095.0,0.751485
2100.0,0.75157
2105.0,0.751405
2110.0,0.749181
2115.0,0.750162
2120.0,0.74969
2125.0,0.748697
2130.0,0.749525
2135.0,0.748106
2140.0,0.746731
2145.0,0.743758
2150.0,0.739344
2155.0,0.732584
2160.0,0.72515
2165.0,0.715593
2170.0,0.707038
2175.0,0.696005
2180.0,0.68706
2185.0,0.676789
2190.0,0.669241
2195.0,0.659508
2200.0,0.652266
2205.0,0.643479
2210.0,0.635292
2215.0,0.64359
2220.0,0.656039
2225.0,0.666967
2230.0,0.678498
2235.0,0.692831
2240.0,0.702105
2245.0,0.709901
2250.0,0.712387
2255.0,0.716176
2260.0,0.719056
2265.0,0.716987
2270.0,0.716657
2275.0,0.715522
2280.0,0.716586
2285.0,0.715193
2290.0,0.71363
2295.0,0.708724
2300.0,0.704604
2305.0,0.700489
2310.0,0.693423
2315.0,0.686968
2320.0,0.680768
2325.0,0.673421
2330.0,0.670619
2335.0,0.66331
2340.0,0.659152
2345.0,0.652826
2350.0,0.64721
2355.0,0.640775
2360.0,0.636993
2365.0,0.634551
2370.0,0.632853
2375.0,0.627125
2380.0,0.623063
2385.0,0.613131
2390.0,0.609251
2395.0,0.604273
2400.0,0.596903
2405.0,0.590867
2410.0,0.584216
2415.0,0.57767
2420.0,0.572009
2425.0,0.565208
2430.0,0.558687
2435.0,0.553859
2440.0,0.547563
2445.0,0.543421
2450.0,0.53921
2455.0,0.537162
2460.0,0.533355
2465.0,0.531942
2470.0,0.526249
2475.0,0.522455
2480.0,0.516847
2485.0,0.51671
2490.0,0.514783
2495.0,0.512852
2500.0,0.511261
2505.0,0.510253
2510.0,0.507926
2515.0,0.505785
2520.0,0.503721
2525.15,0.504111
2530.08,0.504008
2535.03,0.503029
2540.0,0.50081
2544.99,0.501759
2549.99,0.499618
2552.5,0.498909
2553.76,0.498612
2556.28,0.498769
2558.8,0.497268
2561.33,0.49531
2563.86,0.494988
2565.13,0.494857
2566.4,0.495124
2567.67,0.495072
2568.95,0.493983
2570.22,0.493138
2571.5,0.49269
2572.77,0.492042
2574.05,0.490524
2575.33,0.490626
2576.61,0.490198
2577.89,0.489485
2579.17,0.489439
2580.46,0.488473
2581.74,0.48731
2583.03,0.486969
2584.31,0.486026
2585.6,0.486777
2586.89,0.486384
2588.19,0.484625
2589.48,0.484378
2590.77,0.484293
2592.07,0.482965
2593.36,0.481727
2594.66,0.479853
2595.96,0.47978
2597.26,0.482363
2598.56,0.482041
2599.87,0.480677
2601.17,0.479485
2602.48,0.478172
2603.78,0.477394
2605.09,0.476223
2606.4,0.475905
2607.71,0.476495
2609.03,0.476052
2610.34,0.474799
2611.66,0.474019
2612.97,0.472913
2614.29,0.472016
2615.61,0.47169
2616.93,0.470577
2618.25,0.470584
2619.57,0.471759
2620.9,0.470009
2622.22,0.469789
2623.55,0.469867
2624.88,0.468405
2626.21,0.467075
2627.54,0.466343
2628.87,0.466594
2630.21,0.465065
2631.54,0.46357
2632.88,0.464729
2634.21,0.464068
2635.55,0.462655
2636.89,0.461711
2638.24,0.46095
2639.58,0.459825
2640.92,0.458592
2642.27,0.457895
2643.62,0.45709
2644.97,0.45594
2646.32,0.454516
2647.67,0.45332
2649.02,0.452203
2650.38,0.45106
2651.73,0.449669
2653.09,0.448028
2654.45,0.44638
2655.81,0.444628
2657.17,0.442886
2658.53,0.441035
2659.89,0.438971
2661.26,0.437006
2662.63,0.434894
2664.0,0.43246
2665.36,0.42916
2666.74,0.426389
2668.11,0.42438
2669.48,0.421578
2670.86,0.416614
2672.23,0.413239
2673.61,0.410481
2674.99,0.405354
2676.37,0.399948
2677.76,0.394961
2679.14,0.390846
2680.52,0.385493
2681.91,0.379487
2683.3,0.372399
2684.69,0.364856
2686.08,0.356532
2687.47,0.347043
2688.87,0.337054
2690.26,0.326674
2691.66,0.315188
2693.06,0.303639
2694.46,0.292038
2695.86,0.280587
2697.26,0.268959
2698.66,0.258443
2700.07,0.248345
2701.48,0.238561
2702.89,0.228867
2704.3,0.219512
2705.71,0.210186
2707.12,0.201142
2708.53,0.192849
2709.95,0.186082
2711.37,0.17997
2712.79,0.173057
2714.21,0.166213
2715.63,0.15926
2717.05,0.151369
2718.48,0.143299
2719.9,0.135353
2721.33,0.127773
2722.76,0.119579
2724.19,0.112019
2725.62,0.105305
2727.06,0.09918
2728.49,0.093698
2729.93,0.089097
2731.37,0.085827
2732.81,0.083332
2734.25,0.080564
2735.69,0.077992
2737.14,0.075813
2738.58,0.074161
2740.03,0.073237
2741.48,0.072927
2742.93,0.072338
2744.38,0.071562
2745.83,0.071089
2747.29,0.071037
2748.75,0.070721
2750.2,0.070587
2751.66,0.07028
2753.13,0.070142
2754.59,0.069713
2756.05,0.069174
2757.52,0.068864
2758.99,0.068427
2760.46,0.068059
2761.93,0.068287
2763.4,0.069732
2764.87,0.072089
2766.35,0.07436
2767.82,0.076327
2769.3,0.078724
2770.78,0.081325
2772.26,0.084227
2773.75,0.08714
2775.23,0.090097
2776.72,0.093087
2778.21,0.096424
2779.7,0.100155
2781.19,0.104076
2782.68,0.108149
2784.18,0.112371
2785.67,0.11645
2787.17,0.120501
2788.67,0.125124
2790.17,0.129511
2791.67,0.133745
2793.18,0.137877
2794.68,0.141901
2796.19,0.145865
2797.7,0.149715
2799.21,0.153184
2800.72,0.15631
2802.24,0.159032
2803.75,0.161732
2805.27,0.164446
2806.79,0.166805
2808.31,0.168618
2809.83,0.170435
2811.35,0.17238
2812.88,0.174159
2814.41,0.175834
2815.93,0.177375
2817.46,0.17886
2819.0,0.180386
2820.53,0.181986
2822.07,0.183343
2823.6,0.18474
2825.14,0.186214
2826.68,0.187529
2828.22,0.188441
2829.77,0.189595
2831.31,0.191053
2832.86,0.192094
2834.41,0.19269
2835.96,0.193873
2837.51,0.194823
2839.07,0.195709
2840.62,0.19687
2842.18,0.197612
2843.74,0.19838
2845.3,0.19912
2846.86,0.199789
2848.43,0.200205
2849.99,0.200743
2851.56,0.201443
2853.13,0.202056
2854.7,0.202497
2856.27,0.202911
2857.85,0.20368
2859.42,0.204586
2861.0,0.20524
2862.58,0.205759
2864.16,0.206248
2865.75,0.206564
2867.33,0.206951
2868.92,0.207492
2870.51,0.207998
2872.1,0.207965
2873.69,0.208222
2875.28,0.208726
2876.88,0.209157
2878.48,0.209535
2880.07,0.20996
2881.68,0.210075
2883.28,0.210029
2884.88,0.210018
2886.49,0.210334
2888.1,0.210846
2889.71,0.210821
2891.32,0.21074
2892.93,0.210811
2894.55,0.210926
2896.16,0.211317
2897.78,0.211606
2899.4,0.211457
2901.03,0.211208
2902.65,0.211233
2904.28,0.21148
2905.91,0.211733
2907.54,0.211919
2909.17,0.211988
2910.8,0.21198
2912.44,0.211752
2914.07,0.21158
2915.71,0.21156
2917.35,0.21143
2918.99,0.211129
2920.64,0.211022
2922.29,0.210817
2923.93,0.210763
2925.58,0.210428
2927.24,0.210071
2928.89,0.20992
2930.55,0.210073
2932.2,0.209899
2933.86,0.209481
2935.52,0.209435
2937.19,0.209479
2938.85,0.209343
2940.52,0.20937
2942.19,0.209255
2943.86,0.209115
2945.53,0.209069
2947.21,0.208983
2948.88,0.208822
2950.56,0.208655
2952.24,0.208875
2953.92,0.20942
2955.61,0.209837
2957.29,0.210184
2958.98,0.210658
2960.67,0.211202
2962.36,0.211879
2964.06,0.21277
2965.75,0.213381
2967.45,0.214182
2969.15,0.214884
2970.85,0.215464
2972.55,0.216335
2974.26,0.217187
2975.97,0.217816
2977.68,0.218345
2979.39,0.219056
2981.1,0.219629
2982.82,0.220066
2984.53,0.220538
2986.25,0.221028
2987.97,0.221488
2989.7,0.222038
2991.42,0.222389
2993.15,0.222837
2994.88,0.223393
2996.61,0.223677
2998.34,0.22407
3000.08,0.224516
3001.82,0.225013
3003.55,0.225358
3005.3,0.225626
3007.04,0.226048
3008.78,0.226511
3010.53,0.226977
3012.28,0.227554
3014.03,0.22805
3015.79,0.228376
3017.54,0.228834
3019.3,0.229191
3021.06,0.229829
3022.82,0.230343
3024.58,0.230536
3026.35,0.231036
3028.12,0.231667
3029.89,0.232219
3031.66,0.232784
3033.43,0.23367
3035.21,0.234342
3036.99,0.234816
3038.77,0.235345
3040.55,0.235724
3042.33,0.236207
3044.12,0.236911
3045.91,0.237578
3047.7,0.238337
3049.49,0.238992
3051.29,0.239605
3053.08,0.240355
3054.88,0.241131
3056.68,0.241623
3058.49,0.242214
3060.29,0.243028
3062.1,0.243492
3063.91,0.243985
3065.72,0.244893
3067.54,0.245575
3069.35,0.245928
3071.17,0.246482
3072.99,0.247212
3074.81,0.247509
3076.64,0.247808
3078.47,0.248368
3080.29,0.249039
3082.13,0.249686
3083.96,0.250148
3085.79,0.250821
3087.63,0.251461
3089.47,0.252082
3091.31,0.252734
3093.16,0.253452
3095.01,0.254188
3096.85,0.254846
3098.71,0.255492
3100.56,0.256168
3102.41,0.256902
3104.27,0.25778
3106.13,0.258623
3107.99,0.259403
3109.86,0.260181
3111.73,0.260925
3113.59,0.261644
3115.47,0.262364
3117.34,0.263102
3119.21,0.263953
3121.09,0.264697
3122.97,0.265463
3124.86,0.266234
3126.74,0.266974
3128.63,0.267834
3130.52,0.268656
3132.41,0.269279
3134.3,0.269919
3136.2,0.270688
3138.1,0.271552
3140.0,0.272334
3141.9,0.273237
3143.81,0.274136
3145.71,0.274964
3147.62,0.27573
3149.54,0.276691
3151.45,0.277626
3153.37,0.278368
3155.29,0.279059
3157.21,0.280025
3159.13,0.281139
3161.06,0.281971
3162.99,0.282948
3164.92,0.283881
3166.85,0.284711
3168.79,0.285721
3170.72,0.28662
3172.67,0.287343
3174.61,0.288318
3176.55,0.289426
3178.5,0.290402
3180.45,0.291331
3182.4,0.292387
3184.36,0.293516
3186.32,0.294325
3188.27,0.295471
3190.24,0.296381
3192.2,0.297301
3194.17,0.298376
3196.14,0.299383
3198.11,0.300347
3200.08,0.301215
3202.06,0.302204
3204.04,0.303306
3206.02,0.304291
3208.0,0.305295
3209.99,0.306284
3211.98,0.307083
3213.97,0.308082
3215.96,0.309161
3217.96,0.310246
3219.96,0.31138
3221.96,0.312407
3223.96,0.313335
3225.97,0.314209
3227.98,0.315106
3229.99,0.315989
3232.0,0.317007
3234.02,0.317971
3236.04,0.318832
3238.06,0.319932
3240.08,0.320833
3242.11,0.321645
3244.14,0.322498
3246.17,0.323414
3248.2,0.324054
3250.24,0.324737
3252.28,0.325492
3254.32,0.326141
3256.37,0.326749
3258.41,0.327316
3260.46,0.32793
3262.51,0.328597
3264.57,0.329267
3266.63,0.329702
3268.69,0.330105
3270.75,0.330764
3272.81,0.331427
3274.88,0.332104
3276.95,0.332681
3279.02,0.333271
3281.1,0.334051
3283.18,0.33472
3285.26,0.335354
3287.34,0.336071
3289.43,0.336838
3291.51,0.337441
3293.61,0.338032
3295.7,0.338908
3297.8,0.339592
3299.9,0.34051
3302.0,0.341497
3304.1,0.342116
3306.21,0.342683
3308.32,0.343582
3310.43,0.344431
3312.55,0.345056
3314.66,0.345838
3316.79,0.346581
3318.91,0.347465
3321.03,0.348264
3323.16,0.349048
3325.29,0.34979
3327.43,0.350641
3329.57,0.351549
3331.71,0.352201
3333.85,0.352914
3335.99,0.353617
3338.14,0.35419
3340.29,0.354857
3342.45,0.355587
3344.6,0.356302
3346.76,0.356733
3348.92,0.357004
3351.09,0.357456
3353.26,0.358188
3355.43,0.358857
3357.6,0.359411
3359.78,0.360199
3361.96,0.361214
3364.14,0.361845
3366.32,0.362426
3368.51,0.362937
3370.7,0.363587
3372.89,0.364198
3375.09,0.364794
3377.29,0.365555
3379.49,0.366247
3381.69,0.367175
3383.9,0.36815
3386.11,0.369101
3388.32,0.370038
3390.54,0.370991
3392.76,0.371899
3394.98,0.372689
3397.21,0.373394
3399.43,0.374178
3401.66,0.374883
3403.9,0.375441
3406.13,0.376014
3408.37,0.376832
3410.61,0.377555
3412.86,0.37845
3415.11,0.379598
3417.36,0.380805
3419.61,0.382145
3421.87,0.383607
3424.13,0.385102
3426.39,0.386756
3428.66,0.388389
3430.93,0.390055
3433.2,0.391668
3435.48,0.393108
3437.76,0.394405
3440.04,0.395818
3442.32,0.397115
3444.61,0.398372
3446.9,0.399591
3449.19,0.400688
3451.49,0.401709
3453.79,0.402792
3456.09,0.403984
3458.4,0.405065
3460.7,0.4061
3463.02,0.407095
3465.33,0.407769
3467.65,0.408404
3469.97,0.409051
3472.29,0.409646
3474.62,0.410084
3476.95,0.410537
3479.29,0.411016
3481.62,0.411652
3483.96,0.412593
3486.3,0.413433
3488.65,0.414034
3491.0,0.414717
3493.35,0.415549
3495.71,0.416281
3498.07,0.41698
3500.43,0.417762
3502.79,0.418653
3505.16,0.419566
3507.53,0.42056
3509.91,0.421697
3512.29,0.422791
3514.67,0.423738
3517.05,0.424583
3519.44,0.42549
3521.83,0.426394
3524.23,0.427433
3526.62,0.428412
3529.02,0.429265
3531.43,0.43026
3533.83,0.431295
3536.24,0.432217
3538.66,0.43333
3541.08,0.434302
3543.5,0.435095
3545.92,0.435946
3548.35,0.436951
3550.78,0.437932
3553.21,0.438925
3555.65,0.439862
3558.09,0.441052
3560.53,0.442185
3562.98,0.443402
3565.43,0.444554
3567.88,0.445661
3570.34,0.446852
3572.8,0.448051
3575.27,0.44927
3577.73,0.450485
3580.2,0.451735
3582.68,0.453046
3585.16,0.454161
3587.64,0.455261
3590.12,0.456369
3592.61,0.457531
3595.1,0.4586
3597.6,0.459786
3600.09,0.460936
3602.6,0.462088
3605.1,0.463204
3607.61,0.464244
3610.12,0.465319
3612.64,0.466414
3615.16,0.467263
3617.68,0.468231
3620.21,0.469105
3622.74,0.469967
3625.27,0.470741
3627.81,0.471709
3630.35,0.472627
3632.89,0.47335
3635.44,0.474166
3637.99,0.47501
3640.54,0.47579
3643.1,0.476508
3645.66,0.477235
3648.23,0.477909
3650.8,0.478425
3653.37,0.479088
3655.95,0.479816
3658.53,0.480504
3661.11,0.481114
3663.7,0.481729
3666.29,0.482417
3668.89,0.483189
3671.48,0.483757
3674.09,0.484426
3676.69,0.484979
3679.3,0.485602
3681.91,0.486208
3684.53,0.486722
3687.15,0.487228
3689.78,0.487571
3692.4,0.488025
3695.04,0.488686
3697.67,0.489399
3700.31,0.490223
3702.95,0.491097
3705.6,0.491979
3708.25,0.492906
3710.91,0.49387
3713.56,0.494735
3716.23,0.495624
3718.89,0.496492
3721.56,0.497347
3724.23,0.498098
3726.91,0.499078
3729.59,0.499792
3732.28,0.50062
3734.97,0.501544
3737.66,0.502309
3740.36,0.502991
3743.06,0.503842
3745.76,0.504726
3748.47,0.505726
3751.18,0.506644
3753.9,0.507522
3756.62,0.508239
3759.34,0.50913
3762.07,0.509849
3764.8,0.510596
3767.54,0.51152
3770.28,0.512248
3773.02,0.512835
3775.77,0.513705
3778.52,0.51454
3781.28,0.515315
3784.04,0.515788
3786.8,0.516378
3789.57,0.517053
3792.34,0.517685
3795.12,0.518128
3797.9,0.518609
3800.69,0.519144
3803.47,0.519571
3806.27,0.519897
3809.06,0.520246
3811.86,0.520669
3814.67,0.520976
3817.48,0.521262
3820.29,0.521553
3823.11,0.521779
3825.93,0.522065
3828.76,0.522345
3831.59,0.522567
3834.42,0.522617
3837.26,0.522653
3840.1,0.522933
3842.95,0.523429
3845.8,0.523715
3848.65,0.523784
3851.51,0.523918
3854.38,0.524181
3857.24,0.524478
3860.12,0.524769
3862.99,0.525018
3865.87,0.525342
3868.76,0.525557
3871.65,0.52581
3874.54,0.526078
3877.44,0.526457
3880.34,0.526749
3883.25,0.527029
3886.16,0.527216
3889.07,0.527504
3891.99,0.527757
3894.92,0.527839
3897.85,0.52796
3900.78,0.52819
3903.72,0.528278
3906.66,0.528228
3909.6,0.528288
3912.55,0.528535
3915.51,0.528688
3918.47,0.528658
3921.43,0.528606
3924.4,0.528531
3927.38,0.528426
3930.35,0.528372
3933.33,0.52814
3936.32,0.527874
3939.31,0.527563
3942.31,0.527065
3945.31,0.526187
3948.31,0.525187
3951.32,0.524102
3954.34,0.52304
3957.35,0.52185
3960.38,0.520817
3963.41,0.519907
3966.44,0.519048
3969.48,0.518446
3972.52,0.517969
3975.56,0.517662
3978.61,0.517599
3981.67,0.517599
3984.73,0.517662
3987.8,0.518189
3990.87,0.518989
3993.94,0.520075
3997.02,0.521377
4000.1,0.522619
4003.19,0.523907
4006.29,0.525256
4009.39,0.526628
4012.49,0.527914
4015.6,0.529093
4018.71,0.530076
4021.83,0.530927
4024.95,0.531577
4028.08,0.532391
4031.21,0.53314
4034.35,0.533821
4037.49,0.534331
4040.64,0.534848
4043.79,0.535385
4046.94,0.535881
4050.11,0.536174
4053.27,0.536487
4056.44,0.536573
4059.62,0.536709
4062.8,0.536859
4065.99,0.536841
4069.18,0.536893
4072.38,0.537073
4075.58,0.536908
4078.78,0.53679
4082.0,0.536784
4085.21,0.536711
4088.43,0.536678
4091.66,0.536563
4094.89,0.536418
4098.13,0.536253
4101.37,0.535931
4104.62,0.535674
4107.87,0.535502
4111.13,0.535346
4114.39,0.535005
4117.66,0.534775
4120.93,0.534622
4124.21,0.534476
4127.5,0.534246
4130.79,0.534016
4134.08,0.53371
4137.38,0.533418
4140.68,0.533094
4143.99,0.532863
4147.31,0.532581
4150.63,0.532242
4153.95,0.531787
4157.29,0.531465
4160.62,0.531057
4163.96,0.530706
4167.31,0.530243
4170.66,0.529831
4174.02,0.529415
4177.39,0.528968
4180.75,0.528499
4184.13,0.528083
4187.51,0.52754
4190.89,0.526889
4194.28,0.526237
4197.68,0.525691
4201.08,0.524997
4204.49,0.524313
4207.9,0.523418
4211.32,0.522507
4214.74,0.521672
4218.17,0.520934
4221.61,0.520104
4225.05,0.519278
4228.5,0.51836
4231.95,0.517544
4235.4,0.516666
4238.87,0.515936
4242.34,0.515299
4245.81,0.514567
4249.29,0.513862
4252.78,0.513074
4256.27,0.512219
4259.77,0.51087
4263.27,0.509356
4266.78,0.508356
4270.29,0.507599
4273.81,0.507003
4277.34,0.506332
4280.87,0.505594
4284.41,0.50482
4287.95,0.504139
4291.5,0.503428
4295.06,0.502771
4298.62,0.502008
4302.19,0.501299
4305.76,0.50049
4309.34,0.499731
4312.92,0.49894
4316.52,0.498096
4320.11,0.497351
4323.72,0.496546
4327.32,0.495676
4330.94,0.494957
4334.56,0.494294
4338.19,0.493445
4341.82,0.492625
4345.46,0.491896
4349.11,0.491151
4352.76,0.490555
4356.42,0.489844
4360.08,0.489027
4363.75,0.488228
4367.43,0.487603
4371.11,0.486875
4374.8,0.486131
4378.49,0.485328
4382.19,0.484523
4385.9,0.483582
4389.61,0.482467
4393.33,0.481367
4397.06,0.480295
4400.79,0.479067
4404.53,0.477775
4408.28,0.476451
4412.03,0.475211
4415.79,0.473852
4419.55,0.472416
4423.32,0.470987
4427.1,0.469647
4430.88,0.468227
4434.68,0.466807
4438.47,0.465607
4442.28,0.464325
4446.08,0.462964
4449.9,0.461772
4453.72,0.460559
4457.55,0.459409
4461.39,0.458395
4465.23,0.457573
4469.08,0.456875
4472.94,0.456218
4476.8,0.455599
4480.67,0.45492
4484.55,0.454317
4488.43,0.453837
4492.32,0.453529
4496.21,0.45345
4500.12,0.453521
4504.03,0.453663
4507.94,0.45377
4511.87,0.454182
4515.8,0.454606
4519.73,0.45502
4523.68,0.45525
4527.63,0.455405
4531.59,0.455518
4535.55,0.455595
4539.52,0.455603
4543.5,0.455472
4547.49,0.455225
4551.48,0.454997
4555.48,0.45465
4559.49,0.454198
4563.5,0.453665
4567.52,0.452986
4571.55,0.45217
4575.58,0.451363
4579.63,0.450434
4583.67,0.449427
4587.73,0.44836
4591.79,0.447143
4595.86,0.445753
4599.94,0.444375
4604.03,0.443055
4608.12,0.441846
4612.22,0.44065
4616.33,0.439678
4620.44,0.438919
4624.56,0.43821
4628.69,0.437759
4632.83,0.437428
4636.97,0.436966
4641.12,0.436374
4645.28,0.435759
4649.45,0.435276
4653.62,0.434653
4657.8,0.434237
4661.99,0.433894
4666.19,0.433361
4670.39,0.432518
4674.6,0.4316
4678.82,0.430333
4683.05,0.428644
4687.28,0.426939
4691.52,0.425645
4695.77,0.425055
4700.03,0.425359
4704.3,0.426511
4708.57,0.42828
4712.85,0.430135
4717.14,0.431952
4721.43,0.43362
4725.74,0.435013
4730.05,0.435954
4734.37,0.436841
4738.7,0.437535
4743.03,0.438089
4747.38,0.438622
4751.73,0.43936
4756.09,0.440096
4760.45,0.440954
4764.83,0.441656
4769.21,0.442315
4773.6,0.442888
4778.0,0.443356
4782.41,0.44367
4786.83,0.443954
4791.25,0.444119
4795.68,0.444245
4800.13,0.444184
4804.57,0.444086
4809.03,0.44391
4813.5,0.443885
4817.97,0.443804
4822.45,0.443626
4826.94,0.443358
4831.44,0.443277
4835.95,0.443051
4840.46,0.442712
4844.99,0.442495
4849.52,0.442231
4854.06,0.441867
4858.61,0.441497
4863.17,0.440998
4867.73,0.440481
4872.31,0.439889
4876.89,0.439203
4881.48,0.438518
4886.08,0.43779
4890.69,0.436979
4895.31,0.436165
4899.94,0.435191
4904.57,0.43426
4909.22,0.433158
4913.87,0.432186
4918.53,0.431159
4923.21,0.430047
4927.88,0.428941
4932.57,0.428046
4937.27,0.427146
4941.98,0.426281
4946.69,0.425321
4951.42,0.424309
4956.15,0.423278
4960.9,0.422306
4965.65,0.421246
4970.41,0.42002
4975.18,0.418682
4979.96,0.417235
4984.75,0.415863
4989.54,0.414707
4994.35,0.413515
4999.17,0.412296
5003.99,0.4111
5008.83,0.409956
5013.67,0.408685
5018.52,0.407252
5023.39,0.40588
5028.26,0.404622
5033.14,0.403187
5038.03,0.401749
5042.93,0.400247
5047.84,0.398767
5052.76,0.397121
5057.69,0.395655
5062.63,0.394143
5067.58,0.392577
5072.54,0.391061
5077.51,0.389539
5082.49,0.387971
5087.47,0.386586
5092.47,0.385376
5097.48,0.38406
5102.5,0.382649
5107.52,0.381382
5112.56,0.380278
5117.61,0.379155
5122.66,0.378017
5127.73,0.376867
5132.81,0.375705
5137.89,0.374473
5142.99,0.373281
5148.1,0.372133
5153.22,0.371113
5158.34,0.370109
5163.48,0.368825
5168.63,0.367545
5173.79,0.366312
5178.96,0.365231
5184.13,0.364114
5189.32,0.363106
5194.52,0.362073
5199.73,0.360869
5204.96,0.359668
5210.19,0.358568
5215.43,0.357262
5220.68,0.356298
5225.94,0.355085
5231.22,0.353462
5236.5,0.3519
5241.79,0.350415
5247.1,0.34886
5252.42,0.347191
5257.74,0.345514
5263.08,0.343835
5268.43,0.34207
5273.79,0.340339
5279.16,0.338612
5284.54,0.336951
5289.93,0.335151
5295.34,0.333369
5300.75,0.331768
5306.18,0.33016
5311.61,0.328539
5317.06,0.326874
5322.52,0.325172
5327.99,0.323564
5333.47,0.322
5338.96,0.32039
5344.47,0.318751
5349.98,0.317199
5355.51,0.315951
5361.05,0.314809
5366.6,0.313448
5372.16,0.312262
5377.73,0.31138
5383.32,0.31065
5388.91,0.30991
5394.52,0.309255
5400.14,0.308624
5405.77,0.308141
5411.41,0.307534
5417.07,0.307007
5422.74,0.306217
5428.41,0.305797
5434.1,0.305565
5439.81,0.30485
5445.52,0.304097
5451.25,0.303499
5456.98,0.302986
5462.73,0.302206
5468.5,0.301629
5474.27,0.301389
5480.06,0.300703
5485.86,0.300404
5491.67,0.300232
5497.49,0.299969
5503.33,0.299808
5509.18,0.299858
5515.04,0.300061
5520.91,0.300216
5526.8,0.300429
5532.69,0.300584
5538.61,0.300488
5544.53,0.300103
5550.47,0.299333
5556.41,0.298415
5562.38,0.297725
5568.35,0.297401
5574.34,0.297336
5580.34,0.297579
5586.35,0.298884
5592.38,0.300525
5598.42,0.301719
5604.47,0.302853
5610.54,0.303982
5616.61,0.304699
5622.71,0.305318
5628.81,0.305749
5634.93,0.305757
5641.06,0.305726
5647.21,0.305989
5653.36,0.306424
5659.54,0.30614
5665.72,0.306085
5671.92,0.30559
5678.13,0.305163
5684.36,0.305069
5690.6,0.304619
5696.85,0.30407
5703.12,0.303764
5709.4,0.3028
5715.69,0.302409
5722.0,0.302323
5728.33,0.30173
5734.66,0.300887
5741.01,0.300009
5747.38,0.299024
5753.76,0.298171
5760.15,0.297148
5766.56,0.295327
5772.98,0.29448
5779.41,0.293805
5785.86,0.292015
5792.33,0.290438
5798.81,0.288872
5805.3,0.287389
5811.81,0.285955
5818.33,0.284286
5824.87,0.282609
5831.42,0.281741
5837.99,0.280273
5844.57,0.278565
5851.17,0.276597
5857.78,0.274688
5864.41,0.272633
5871.05,0.270671
5877.7,0.268269
5884.38,0.26569
5891.06,0.263965
5897.76,0.261015
5904.48,0.258261
5911.21,0.255407
5917.96,0.251959
5924.73,0.248843
5931.5,0.245466
5938.3,0.242202
5945.11,0.240196
5951.93,0.238377
5958.78,0.236244
5965.63,0.234427
5972.51,0.232539
5979.39,0.231013
5986.3,0.228645
5993.22,0.226237
6000.16,0.22366
6007.11,0.220635
6014.08,0.217176
6021.06,0.213707
6028.06,0.209899
6035.08,0.205926
6042.12,0.201675
6049.17,0.197389
6056.23,0.193091
6063.32,0.188598
6070.42,0.183765
6077.53,0.178981
6084.67,0.173875
6091.82,0.168789
6098.98,0.163693
6106.17,0.158825
6113.37,0.154148
6120.58,0.14992
6127.82,0.146118
6135.07,0.143092
6142.34,0.140594
6149.63,0.1389
6156.93,0.137961
6164.25,0.138086
6171.59,0.1396
6178.95,0.141951
6186.32,0.145112
6193.71,0.150225
6201.12,0.155787
6208.54,0.160896
6215.99,0.166843
6223.45,0.172973
6230.93,0.179182
6238.43,0.185179
6245.95,0.191149
6253.48,0.196836
6261.03,0.202317
6268.6,0.207298
6276.19,0.212051
6283.8,0.216356
6291.43,0.220202
6299.07,0.223713
6306.73,0.227092
6314.42,0.230143
6322.12,0.233022
6329.84,0.235481
6337.57,0.237558
6345.33,0.23931
6353.11,0.241949
6360.9,0.243879
6368.72,0.244818
6376.55,0.246156
6384.4,0.247553
6392.27,0.248209
6400.17,0.24882
6408.08,0.249014
6416.01,0.249073
6423.96,0.250208
6431.93,0.250269
6439.92,0.24952
6447.93,0.249094
6455.96,0.248341
6464.01,0.247519
6472.08,0.246306
6480.17,0.245006
6488.28,0.243362
6496.41,0.24166
6504.56,0.240245
6512.73,0.238308
6520.92,0.235843
6529.14,0.23366
6537.37,0.231347
6545.63,0.22884
6553.9,0.226523
6562.2,0.224288
6570.51,0.221998
6578.85,0.219892
6587.21,0.217998
6595.59,0.215821
6603.99,0.213833
6612.42,0.211752
6620.86,0.209799
6629.33,0.207821
6637.82,0.205914
6646.33,0.204314
6654.86,0.202581
6663.41,0.200498
6671.99,0.198511
6680.59,0.196665
6689.21,0.195164
6697.85,0.193687
6706.51,0.192096
6715.2,0.190628
6723.91,0.1892
6732.64,0.18751
6741.4,0.185854
6750.18,0.184138
6758.98,0.182423
6767.8,0.18056
6776.65,0.178665
6785.52,0.176593
6794.41,0.174512
6803.33,0.172298
6812.27,0.170056
6821.23,0.167863
6830.22,0.165745
6839.23,0.163612
6848.26,0.161462
6857.32,0.159308
6866.4,0.157197
6875.51,0.155068
6884.64,0.152799
6893.8,0.150626
6902.98,0.148594
6912.18,0.146511
6921.41,0.144527
6930.66,0.142453
6939.94,0.140495
6949.24,0.138647
6958.57,0.13703
6967.92,0.135441
6977.3,0.134107
6986.7,0.132909
6996.13,0.132018
7005.59,0.131412
7015.07,0.131134
7024.57,0.131094
7034.1,0.131355
7043.66,0.131449
7053.25,0.131753
7062.85,0.132146
7072.49,0.132503
7082.15,0.132844
7091.84,0.133202
7101.55,0.13362
7111.3,0.134205
7121.06,0.134908
7130.86,0.135805
7140.68,0.136738
7150.53,0.137917
7160.41,0.13928
7170.31,0.140631
7180.24,0.141938
7190.2,0.143147
7200.19,0.144052
7210.2,0.144926
7220.24,0.145633
7230.31,0.146053
7240.41,0.146183
7250.54,0.146127
7260.69,0.145955
7270.88,0.1457
7281.09,0.145263
7291.33,0.144717
7301.6,0.144061
7311.9,0.143348
7322.22,0.142542
7332.58,0.141716
7342.97,0.140882
7353.38,0.139939
7363.83,0.138898
7374.3,0.13793
7384.81,0.136892
7395.34,0.135728
7405.91,0.134408
7416.5,0.133097
7427.13,0.131776
7437.78,0.130381
7448.47,0.128869
7459.19,0.127353
7469.94,0.125703
7480.71,0.124041
7491.52,0.122345
7502.37,0.120578
7513.24,0.118619
7524.14,0.116745
7535.08,0.114882
7546.05,0.113029
7557.05,0.111064
7568.08,0.109046
7579.15,0.106905
7590.24,0.10481
7601.37,0.102773
7612.53,0.100732
7623.73,0.098591
7634.96,0.096562
7646.22,0.094649
7657.51,0.092732
7668.84,0.090726
7680.2,0.08869
7691.59,0.08664
7703.02,0.0847
7714.49,0.082785
7725.98,0.080844
7737.52,0.078801
7749.08,0.076817
7760.68,0.074749
7772.32,0.072777
7783.99,0.070807
7795.69,0.068777
7807.43,0.066782
7819.21,0.064992
7831.02,0.063217
7842.87,0.061496
7854.75,0.059917
7866.67,0.058405
7878.62,0.056874
7890.62,0.055482
7902.64,0.054141
7914.71,0.052983
7926.81,0.051942
7938.95,0.050988
7951.13,0.050083
7963.34,0.049365
7975.59,0.048751
7987.88,0.048345
8000.21,0.047826
8012.57,0.047452
8024.98,0.047122
8037.42,0.046908
8049.9,0.046835
8062.42,0.047019
8074.98,0.047233
8087.57,0.047542
8100.21,0.047831
8112.89,0.048182
8125.6,0.048514
8138.36,0.048928
8151.16,0.049328
8163.99,0.049692
8176.87,0.050162
8189.79,0.050955
8202.75,0.051843
8215.75,0.052755
8228.79,0.053594
8241.87,0.054447
8254.99,0.055229
8268.16,0.055935
8281.37,0.056684
8294.62,0.057594
8307.91,0.058516
8321.24,0.059409
8334.62,0.060283
8348.04,0.061263
8361.51,0.062119
8375.02,0.063058
8388.57,0.064084
8402.16,0.065176
8415.8,0.066182
8429.49,0.067154
8443.22,0.06798
8456.99,0.068772
8470.81,0.069488
8484.67,0.070008
8498.58,0.070426
8512.54,0.070935
8526.54,0.071445
8540.58,0.071817
8554.68,0.071997
8568.82,0.072227
8583.0,0.072269
8597.24,0.072342
8611.52,0.072438
8625.85,0.072536
8640.23,0.07243
8654.65,0.072252
8669.12,0.071934
8683.64,0.071315
8698.21,0.070621
8712.83,0.069971
8727.5,0.069467
8742.22,0.069193
8756.99,0.068923
8771.8,0.06872
8786.67,0.068637
8801.59,0.068559
8816.56,0.068189
8831.58,0.067792
8846.65,0.067217
8861.77,0.066518
8876.94,0.06574
8892.17,0.065036
8907.45,0.064256
8922.78,0.063545
8938.16,0.062727
8953.6,0.061872
8969.09,0.060994
8984.64,0.060092
9000.23,0.059246
9015.89,0.058706
9031.59,0.058215
9047.36,0.057707
9063.17,0.057362
9079.05,0.057144
9094.97,0.057014
9110.96,0.056849
9127.0,0.056684
9143.1,0.056492
9159.25,0.056264
9175.46,0.056092
9191.73,0.055864
9208.06,0.055754
9224.44,0.055816
9240.88,0.055967
9257.38,0.056113
9273.94,0.056389
9290.56,0.05682
9307.24,0.057127
9323.98,0.057349
9340.78,0.057633
9357.64,0.057905
9374.57,0.058179
9391.55,0.058142
9408.59,0.058114
9425.7,0.057845
9442.87,0.057466
9460.1,0.05701
9477.4,0.056427
9494.75,0.055762
9512.17,0.055168
9529.66,0.054392
9547.21,0.053736
9564.83,0.053048
9582.5,0.052195
9600.25,0.051325
9618.06,0.050752
9635.94,0.050173
9653.88,0.049499
9671.89,0.048738
9689.97,0.048054
9708.12,0.047394
9726.33,0.046691
9744.62,0.045944
9762.97,0.045338
9781.39,0.044813
9799.88,0.044334
9818.44,0.043912
9837.07,0.043494
9855.77,0.043138
9874.54,0.042898
9893.39,0.042812
9912.3,0.042741
9931.29,0.042557
9950.36,0.042448
9969.49,0.042358
9988.7,0.042306
10007.98,0.042218
10027.34,0.042239
10046.77,0.042172
10066.28,0.042153
10085.87,0.042032
10105.53,0.042005
10125.26,0.042245
10145.08,0.042557
10164.97,0.042793
10184.94,0.043134
10204.99,0.043513
10225.12,0.044004
10245.33,0.044483
10265.61,0.045041
10285.98,0.045618
10306.43,0.046193
10326.96,0.04663
10347.57,0.047061
10368.27,0.047448
10389.05,0.047711
10409.91,0.047872
10430.86,0.047981
10451.88,0.048004
10473.0,0.04787
10494.2,0.047649
10515.49,0.047458
10536.86,0.047153
10558.32,0.046798
10579.87,0.046344
10601.5,0.046218
10623.23,0.046049
10645.04,0.045714
10666.94,0.045453
10688.94,0.045137
10711.02,0.044886
10733.2,0.04475
10755.47,0.044665
10777.83,0.044725
10800.28,0.044826
10822.83,0.044811
10845.47,0.044893
10868.21,0.045265
10891.04,0.045593
10913.97,0.046059
10936.99,0.046724
10960.12,0.047592
10983.34,0.048686
11006.66,0.050007
11030.07,0.051479
11053.59,0.053274
11077.21,0.054884
11100.93,0.056398
11124.75,0.058029
11148.68,0.059597
11172.71,0.061144
11196.84,0.062376
11221.07,0.063346
11245.41,0.064431
11269.86,0.06542
11294.41,0.066397
11319.07,0.067401
11343.84,0.06845
11368.72,0.069488
11393.7,0.07037
11418.8,0.071106
11444.01,0.071938
11469.33,0.072783
11494.76,0.073841
11520.3,0.075031
11545.96,0.075943
11571.73,0.07644
11597.62,0.076493
11623.62,0.076171
11649.74,0.075621
11675.98,0.07482
11702.34,0.073891
11728.81,0.072932
11755.41,0.07179
11782.13,0.070623
11808.96,0.069646
11835.92,0.068942
11863.01,0.06839
11890.22,0.067857
11917.55,0.067411
11945.01,0.066713
11972.6,0.06609
12000.31,0.065305
12028.16,0.064327
12056.13,0.063304
12084.23,0.062357
12112.46,0.061665
12140.83,0.061385
12169.33,0.061253
12197.96,0.061489
12226.73,0.061776
12255.64,0.062106
12284.68,0.062466
12313.86,0.062721
12343.18,0.062593
12372.64,0.062238
12402.24,0.06155
12431.98,0.060452
12461.86,0.059131
12491.89,0.058242
12522.07,0.057863
12552.38,0.058142
12582.85,0.058938
12613.47,0.059896
12644.23,0.060672
12675.15,0.061192
12706.21,0.061364
12737.43,0.061048
12768.81,0.060421
12800.33,0.059704
12832.02,0.058909
12863.86,0.058491
12895.86,0.058489
12928.02,0.058662
12960.34,0.058932
12992.82,0.058882
13025.46,0.058359
13058.27,0.057297
13091.25,0.056122
13124.39,0.054861
13157.7,0.053715
13191.18,0.052847
13224.83,0.051965
13258.66,0.051352
13292.65,0.050892
13326.83,0.050631
13361.17,0.050846
13395.7,0.05127
13430.4,0.051538
13465.29,0.051758
13500.35,0.051906
13535.6,0.052109
13571.03,0.052236
13606.65,0.05217
13642.46,0.051797
13678.46,0.051118
13714.64,0.050503
13751.02,0.049779
13787.59,0.048849
13824.36,0.048224
13861.32,0.047695
13898.49,0.046996
13935.85,0.046091
13973.41,0.044949
14011.17,0.043479
14049.15,0.042158
14087.32,0.041225
14125.71,0.040541
14164.3,0.039519
14203.11,0.038444
14242.13,0.037472
14281.36,0.036319
14320.81,0.035257
14360.49,0.034072
14400.38,0.033066
14440.49,0.032572
14480.82,0.032217
14521.39,0.031822
14562.18,0.031284
14603.2,0.030707
14644.45,0.03046
14685.93,0.030132
14727.66,0.029542
14769.62,0.029061
14811.81,0.028875
14854.25,0.028727
14896.94,0.028656
14939.87,0.028526
14983.05,0.028196
15026.48,0.028336
15070.16,0.028616
15114.1,0.028775
15158.29,0.029028
15202.74,0.028909
15247.46,0.028348
15292.43,0.027719
15337.68,0.027165
15383.19,0.026529
15428.97,0.025856
15475.03,0.025111
15521.36,0.024417
15567.97,0.023932
15614.87,0.0236
15662.04,0.023167
15709.5,0.022581
15757.25,0.022234
15805.29,0.022015
15853.62,0.022355
15902.26,0.023363
15951.19,0.024294
16000.42,0.025199
16049.95,0.025975
16099.8,0.026328
16149.95,0.026966
16200.42,0.027604
16251.21,0.028154
16302.31,0.029114
16353.74,0.030101
16405.49,0.030665
16457.57,0.03146
16509.98,0.032604
16562.73,0.033678
16615.82,0.034561
16669.24,0.035759
16723.02,0.037246
16777.14,0.039006
16831.61,0.040834
16886.43,0.042501
16941.62,0.044155
16997.16,0.045827
17053.08,0.047473
17109.36,0.048897
17166.01,0.050221
17223.04,0.051425
17280.45,0.051946
17338.24,0.052519
17396.43,0.05332
17455.0,0.054394
17513.97,0.055651
17573.34,0.056458
17633.11,0.057228
17693.29,0.057767
17753.89,0.058261
17814.9,0.058788
17876.33,0.058972
17938.18,0.059344
18000.47,0.059574
18063.19,0.059699
18126.35,0.059639
18189.95,0.059392
18254.0,0.05963
18318.5,0.059942
18383.46,0.059919
18448.88,0.059603
18514.77,0.059436
18581.13,0.059417
18647.97,0.058482
18715.29,0.057286
18783.1,0.056571
18851.4,0.055917
18920.2,0.054806
18989.51,0.053667
19059.32,0.052456
19129.65,0.050789
19200.5,0.049418
19271.88,0.048585
19343.79,0.04764
19416.24,0.046727
19489.23,0.045424
19562.77,0.044495
19636.88,0.044046
19711.54,0.042877
19786.78,0.042352
19862.59,0.04249
19938.98,0.042045
20015.96,0.041796
20093.55,0.042388
20171.73,0.043833
20250.53,0.045704
20329.94,0.047856
20409.98,0.050338
20490.65,0.053338
20571.96,0.056245
20653.92,0.058639
20736.54,0.059996
20819.82,0.061136
20903.77,0.061742
20988.4,0.061479
21073.72,0.061381
21159.73,0.061504
21246.46,0.061148
21333.89,0.060849
21422.04,0.060578
21510.93,0.059823
21600.56,0.058888
21690.94,0.058259
21782.08,0.057569
21873.99,0.057326
21966.67,0.057387
22060.15,0.056843
22154.42,0.056226
22249.51,0.056419
22345.41,0.056391
22442.14,0.05617
22539.72,0.055245
22638.14,0.054118
22737.43,0.053619
22837.6,0.053543
22938.65,0.053123
23040.6,0.053067
23143.46,0.052006
23247.24,0.052517
23351.96,0.053213
23457.63,0.05323
23564.25,0.052703
23671.85,0.052464
23780.44,0.053177
23890.02,0.053535
24000.63,0.055118
24112.26,0.055854
24224.93,0.055122
24338.66,0.056053
24453.47,0.056935
24569.36,0.05866
24686.36,0.060716
24804.47,0.060523
24923.73,0.060695
25044.13,0.062303
25165.71,0.06159
25288.46,0.061284
25412.43,0.062161
25537.61,0.06459
25664.04,0.066366
25791.72,0.066976
25920.68,0.070654
