Database of Origin,University of Winnipeg Spectrophotometer Facility
Sample Description,"Zeolites: RELAB + Nicolet spectra, Merged at 2.5 microns; note change in viewing geometry"
Date Added,2018-07-23 23:09:47.225078

Data ID,RLA_ZEO_1_7         
Sample ID,zeo111
Mineral Name,scolecite
Grain Size,<45 um
Viewing Geometry,"30/0,30"
Resolution,5/.6-129 nm

Wavelength
305.0,0.667636
310.0,0.674415
315.0,0.677684
320.0,0.68386
325.0,0.689086
330.0,0.693512
335.0,0.697512
340.0,0.700633
345.0,0.704333
350.0,0.706245
355.0,0.709976
360.0,0.711989
365.0,0.714506
370.0,0.717369
375.0,0.719707
380.0,0.720605
385.0,0.723794
390.0,0.725746
395.0,0.72855
400.0,0.729438
405.0,0.731394
410.0,0.733439
415.0,0.734477
420.0,0.736787
425.0,0.738286
430.0,0.74025
435.0,0.742037
440.0,0.742515
445.0,0.74476
450.0,0.746384
455.0,0.747259
460.0,0.748836
465.0,0.749336
470.0,0.750844
475.0,0.75167
480.0,0.7532
485.0,0.753706
490.0,0.753558
495.0,0.754782
500.0,0.756129
505.0,0.756635
510.0,0.757331
515.0,0.75839
520.0,0.757695
525.0,0.758714
530.0,0.759325
535.0,0.760964
540.0,0.761163
545.0,0.762272
550.0,0.761903
555.0,0.762673
560.0,0.7627
565.0,0.763694
570.0,0.763401
575.0,0.763967
580.0,0.762945
585.0,0.763258
590.0,0.762112
595.0,0.762669
600.0,0.762124
605.0,0.761561
610.0,0.761406
615.0,0.760936
620.0,0.760441
625.0,0.759852
630.0,0.759372
635.0,0.759522
640.0,0.758879
645.0,0.757882
650.0,0.758277
655.0,0.757323
660.0,0.757451
665.0,0.757447
670.0,0.756898
675.0,0.75578
680.0,0.755862
685.0,0.756218
690.0,0.756157
695.0,0.756029
700.0,0.754883
705.0,0.755016
710.0,0.75481
715.0,0.754611
720.0,0.754136
725.0,0.753635
730.0,0.755218
735.0,0.75359
740.0,0.7545
745.0,0.753339
750.0,0.753347
755.0,0.752778
760.0,0.752291
765.0,0.753321
770.0,0.752469
775.0,0.752112
780.0,0.752184
785.0,0.750387
790.0,0.751705
795.0,0.75208
800.0,0.752583
805.0,0.750484
810.0,0.752446
815.0,0.75034
820.0,0.751294
825.0,0.750495
830.0,0.750258
835.0,0.750545
840.0,0.750885
845.0,0.748696
850.0,0.749298
855.0,0.750247
860.0,0.750858
865.0,0.750952
870.0,0.751192
875.0,0.750097
880.0,0.749683
885.0,0.749254
890.0,0.750763
895.0,0.749629
900.0,0.749605
905.0,0.747515
910.0,0.748375
915.0,0.749227
920.0,0.748341
925.0,0.749124
930.0,0.747548
935.0,0.748304
940.0,0.748044
945.0,0.747592
950.0,0.746911
955.0,0.747221
960.0,0.746764
965.0,0.746861
970.0,0.746459
975.0,0.745507
980.0,0.745427
985.0,0.745191
990.0,0.745828
995.0,0.745291
1000.0,0.745107
1005.0,0.745602
1010.0,0.745909
1015.0,0.745937
1020.0,0.745727
1025.0,0.746127
1030.0,0.74634
1035.0,0.74634
1040.0,0.746316
1045.0,0.746199
1050.0,0.746258
1055.0,0.745648
1060.0,0.746236
1065.0,0.746366
1070.0,0.745866
1075.0,0.745688
1080.0,0.745554
1085.0,0.745737
1090.0,0.745425
1095.0,0.745389
1100.0,0.745477
1105.0,0.744999
1110.0,0.744876
1115.0,0.744541
1120.0,0.744688
1125.0,0.744571
1130.0,0.744384
1135.0,0.744491
1140.0,0.74404
1145.0,0.743439
1150.0,0.742798
1155.0,0.741707
1160.0,0.740524
1165.0,0.739333
1170.0,0.738231
1175.0,0.7373
1180.0,0.73698
1185.0,0.737443
1190.0,0.738411
1195.0,0.738742
1200.0,0.738719
1205.0,0.740626
1210.0,0.739738
1215.0,0.738482
1220.0,0.739396
1225.0,0.738588
1230.0,0.739268
1235.0,0.739583
1240.0,0.738903
1245.0,0.737208
1250.0,0.737929
1255.0,0.738764
1260.0,0.738474
1265.0,0.73903
1270.0,0.737545
1275.0,0.73746
1280.0,0.737311
1285.0,0.736324
1290.0,0.73718
1295.0,0.736277
1300.0,0.73749
1305.0,0.735494
1310.0,0.734402
1315.0,0.735231
1320.0,0.733139
1325.0,0.733015
1330.0,0.731013
1335.0,0.730626
1340.0,0.72796
1345.0,0.728865
1350.0,0.725104
1355.0,0.724861
1360.0,0.723329
1365.0,0.721654
1370.0,0.718647
1375.0,0.718942
1380.0,0.718883
1385.0,0.714846
1390.0,0.713158
1395.0,0.708304
1400.0,0.706151
1405.0,0.698502
1410.0,0.690933
1415.0,0.682201
1420.0,0.674564
1425.0,0.664079
1430.0,0.660759
1435.0,0.655182
1440.0,0.645403
1445.0,0.632728
1450.0,0.636627
1455.0,0.647462
1460.0,0.651068
1465.0,0.650197
1470.0,0.65786
1475.0,0.666868
1480.0,0.66695
1485.0,0.657704
1490.0,0.658108
1495.0,0.665427
1500.0,0.671127
1505.0,0.677086
1510.0,0.684668
1515.0,0.68644
1520.0,0.689963
1525.0,0.689623
1530.0,0.691142
1535.0,0.688756
1540.0,0.687602
1545.0,0.686393
1550.0,0.688127
1555.0,0.692112
1560.0,0.690271
1565.0,0.688938
1570.0,0.688465
1575.0,0.690389
1580.0,0.688201
1585.0,0.687367
1590.0,0.687727
1595.0,0.688862
1600.0,0.684634
1605.0,0.685399
1610.0,0.685125
1615.0,0.683489
1620.0,0.687283
1625.0,0.681844
1630.0,0.683499
1635.0,0.681646
1640.0,0.68254
1645.0,0.684149
1650.0,0.684659
1655.0,0.689258
1660.0,0.689969
1665.0,0.690642
1670.0,0.692432
1675.0,0.693795
1680.0,0.69501
1685.0,0.69566
1690.0,0.696583
1695.0,0.697467
1700.0,0.69822
1705.0,0.699001
1710.0,0.699023
1715.0,0.698466
1720.0,0.696708
1725.0,0.695055
1730.0,0.693642
1735.0,0.692941
1740.0,0.693135
1745.0,0.693532
1750.0,0.693719
1755.0,0.694627
1760.0,0.695707
1765.0,0.696443
1770.0,0.696617
1775.0,0.697136
1780.0,0.697676
1785.0,0.698661
1790.0,0.699622
1795.0,0.700509
1800.0,0.701199
1805.0,0.701532
1810.0,0.702299
1815.0,0.702757
1820.0,0.703801
1825.0,0.703406
1830.0,0.702902
1835.0,0.70278
1840.0,0.70166
1845.0,0.700901
1850.0,0.699976
1855.0,0.697942
1860.0,0.695448
1865.0,0.692105
1870.0,0.686582
1875.0,0.67768
1880.0,0.667575
1885.0,0.654596
1890.0,0.637175
1895.0,0.614076
1900.0,0.585192
1905.0,0.550658
1910.0,0.5213
1915.0,0.500122
1920.0,0.48012
1925.0,0.455498
1930.0,0.422127
1935.0,0.376052
1940.0,0.332342
1945.0,0.318683
1950.0,0.346388
1955.0,0.407376
1960.0,0.460209
1965.0,0.481221
1970.0,0.477336
1975.0,0.468617
1980.0,0.477285
1985.0,0.500334
1990.0,0.520288
1995.0,0.534969
2000.0,0.544093
2005.0,0.54714
2010.0,0.547447
2015.0,0.548344
2020.0,0.551496
2025.0,0.555236
2030.0,0.556743
2035.0,0.558657
2040.0,0.561657
2045.0,0.566249
2050.0,0.569889
2055.0,0.572402
2060.0,0.571878
2065.0,0.573704
2070.0,0.581702
2075.0,0.594209
2080.0,0.605663
2085.0,0.613951
2090.0,0.620112
2095.0,0.624828
2100.0,0.628895
2105.0,0.631999
2110.0,0.635061
2115.0,0.635942
2120.0,0.637189
2125.0,0.6366
2130.0,0.635903
2135.0,0.634079
2140.0,0.632546
2145.0,0.630605
2150.0,0.629
2155.0,0.626564
2160.0,0.625038
2165.0,0.622997
2170.0,0.621488
2175.0,0.621576
2180.0,0.621279
2185.0,0.622111
2190.0,0.622112
2195.0,0.622018
2200.0,0.623129
2205.0,0.624208
2210.0,0.625554
2215.0,0.626558
2220.0,0.627679
2225.0,0.628936
2230.0,0.630237
2235.0,0.631175
2240.0,0.632171
2245.0,0.633273
2250.0,0.633972
2255.0,0.634431
2260.0,0.634624
2265.0,0.635303
2270.0,0.635585
2275.0,0.634869
2280.0,0.634421
2285.0,0.633172
2290.0,0.631657
2295.0,0.630468
2300.0,0.628898
2305.0,0.627188
2310.0,0.624003
2315.0,0.620484
2320.0,0.617556
2325.0,0.612432
2330.0,0.608848
2335.0,0.603276
2340.0,0.595955
2345.0,0.58856
2350.0,0.580331
2355.0,0.570981
2360.0,0.560004
2365.0,0.548024
2370.0,0.535236
2375.0,0.520239
2380.0,0.503727
2385.0,0.48415
2390.0,0.465735
2395.0,0.447885
2400.0,0.432962
2405.0,0.423867
2410.0,0.419958
2415.0,0.417983
2420.0,0.414153
2425.0,0.409017
2430.0,0.403223
2435.0,0.39651
2440.0,0.391204
2445.0,0.385259
2450.0,0.378565
2455.0,0.372711
2460.0,0.36906
2465.0,0.36752
2470.0,0.368067
2475.0,0.370911
2480.0,0.372754
2485.0,0.374504
2490.0,0.374953
2495.0,0.374606
2500.0,0.372997
2505.0,0.370615
2510.0,0.366748
2515.0,0.363583
2520.0,0.361159
2525.0,0.359069
2530.0,0.356888
2535.0,0.355455
2540.0,0.353906
2545.0,0.353363
2550.0,0.353425
2555.0,0.353384
2560.0,0.352942
2565.0,0.353308
2570.0,0.352113
2575.0,0.352357
2580.0,0.353423
2581.74,0.353124
2583.03,0.352946
2584.31,0.352534
2585.6,0.352693
2586.89,0.352953
2588.19,0.35291
2589.48,0.353224
2590.77,0.353627
2592.07,0.353719
2593.36,0.353748
2594.66,0.353056
2595.96,0.352512
2597.26,0.353722
2598.56,0.354912
2599.87,0.354737
2601.17,0.354469
2602.48,0.354457
2603.78,0.354177
2605.09,0.353791
2606.4,0.353306
2607.71,0.354067
2609.03,0.354675
2610.34,0.354269
2611.66,0.354376
2612.97,0.354823
2614.29,0.354611
2615.61,0.354116
2616.93,0.353461
2618.25,0.353144
2619.57,0.353681
2620.9,0.353227
2622.22,0.352982
2623.55,0.353364
2624.88,0.352627
2626.21,0.351271
2627.54,0.350984
2628.87,0.351503
2630.21,0.351379
2631.54,0.350938
2632.88,0.351207
2634.21,0.350455
2635.55,0.3495
2636.89,0.349346
2638.24,0.349052
2639.58,0.34845
2640.92,0.34767
2642.27,0.346997
2643.62,0.346565
2644.97,0.345547
2646.32,0.344362
2647.67,0.344222
2649.02,0.343894
2650.38,0.342801
2651.73,0.34171
2653.09,0.340418
2654.45,0.339804
2655.81,0.338863
2657.17,0.337732
2658.53,0.336452
2659.89,0.334797
2661.26,0.333531
2662.63,0.332367
2664.0,0.331066
2665.36,0.329309
2666.74,0.327641
2668.11,0.326683
2669.48,0.3255
2670.86,0.322847
2672.23,0.321036
2673.61,0.320188
2674.99,0.317954
2676.37,0.315548
2677.76,0.313164
2679.14,0.311399
2680.52,0.309532
2681.91,0.307143
2683.3,0.304768
2684.69,0.302451
2686.08,0.300171
2687.47,0.297903
2688.87,0.295263
2690.26,0.292209
2691.66,0.28933
2693.06,0.285851
2694.46,0.281892
2695.86,0.278497
2697.26,0.274943
2698.66,0.27165
2700.07,0.268011
2701.48,0.26413
2702.89,0.260273
2704.3,0.256781
2705.71,0.252972
2707.12,0.248441
2708.53,0.243799
2709.95,0.239376
2711.37,0.235192
2712.79,0.230433
2714.21,0.226051
2715.63,0.221463
2717.05,0.216548
2718.48,0.211839
2719.9,0.207324
2721.33,0.202958
2722.76,0.198238
2724.19,0.193255
2725.62,0.187964
2727.06,0.18273
2728.49,0.177696
2729.93,0.173228
2731.37,0.168595
2732.81,0.163799
2734.25,0.159047
2735.69,0.154074
2737.14,0.149006
2738.58,0.144928
2740.03,0.14048
2741.48,0.135925
2742.93,0.131189
2744.38,0.126822
2745.83,0.123092
2747.29,0.119426
2748.75,0.115334
2750.2,0.111133
2751.66,0.107149
2753.13,0.103482
2754.59,0.099946
2756.05,0.096346
2757.52,0.092052
2758.99,0.087976
2760.46,0.084523
2761.93,0.081296
2763.4,0.077952
2764.87,0.074451
2766.35,0.071468
2767.82,0.068553
2769.3,0.065207
2770.78,0.062263
2772.26,0.059529
2773.75,0.05731
2775.23,0.055332
2776.72,0.053142
2778.21,0.050577
2779.7,0.048468
2781.19,0.046755
2782.68,0.045285
2784.18,0.043817
2785.67,0.042931
2787.17,0.042425
2788.67,0.041856
2790.17,0.041114
2791.67,0.040841
2793.18,0.04114
2794.68,0.041311
2796.19,0.041399
2797.7,0.042287
2799.21,0.043181
2800.72,0.043686
2802.24,0.04429
2803.75,0.044799
2805.27,0.045916
2806.79,0.047056
2808.31,0.047552
2809.83,0.048081
2811.35,0.048916
2812.88,0.049352
2814.41,0.049346
2815.93,0.049475
2817.46,0.049459
2819.0,0.048963
2820.53,0.048283
2822.07,0.047818
2823.6,0.047179
2825.14,0.046084
2826.68,0.045569
2828.22,0.044615
2829.77,0.043048
2831.31,0.041888
2832.86,0.040641
2834.41,0.039644
2835.96,0.038725
2837.51,0.037797
2839.07,0.036966
2840.62,0.035994
2842.18,0.034793
2843.74,0.03422
2845.3,0.033992
2846.86,0.033499
2848.43,0.033536
2849.99,0.033839
2851.56,0.033843
2853.13,0.033944
2854.7,0.034484
2856.27,0.035235
2857.85,0.03594
2859.42,0.037031
2861.0,0.038352
2862.58,0.039463
2864.16,0.040566
2865.75,0.041859
2867.33,0.043187
2868.92,0.044312
2870.51,0.045241
2872.1,0.046162
2873.69,0.047241
2875.28,0.048047
2876.88,0.048557
2878.48,0.048916
2880.07,0.049034
2881.68,0.049243
2883.28,0.049434
2884.88,0.049042
2886.49,0.048732
2888.1,0.048888
2889.71,0.048427
2891.32,0.047806
2892.93,0.047497
2894.55,0.046956
2896.16,0.046265
2897.78,0.045975
2899.4,0.045414
2901.03,0.044559
2902.65,0.043729
2904.28,0.043076
2905.91,0.042415
2907.54,0.041681
2909.17,0.041229
2910.8,0.041021
2912.44,0.040488
2914.07,0.039803
2915.71,0.039378
2917.35,0.03917
2918.99,0.038853
2920.64,0.03829
2922.29,0.037724
2923.93,0.037666
2925.58,0.037521
2927.24,0.037271
2928.89,0.037398
2930.55,0.037629
2932.2,0.0376
2933.86,0.037691
2935.52,0.037968
2937.19,0.038423
2938.85,0.038822
2940.52,0.039138
2942.19,0.039398
2943.86,0.040208
2945.53,0.040932
2947.21,0.041833
2948.88,0.042776
2950.56,0.043701
2952.24,0.044413
2953.92,0.045145
2955.61,0.046064
2957.29,0.046775
2958.98,0.047285
2960.67,0.048134
2962.36,0.048776
2964.06,0.049412
2965.75,0.049931
2967.45,0.05039
2969.15,0.05074
2970.85,0.050959
2972.55,0.051219
2974.26,0.051607
2975.97,0.05175
2977.68,0.051411
2979.39,0.051009
2981.1,0.051255
2982.82,0.051401
2984.53,0.050952
2986.25,0.05067
2987.97,0.050599
2989.7,0.050587
2991.42,0.050461
2993.15,0.050184
2994.88,0.04995
2996.61,0.049672
2998.34,0.049672
3000.08,0.049796
3001.82,0.04996
3003.55,0.049987
3005.3,0.04989
3007.04,0.05016
3008.78,0.050584
3010.53,0.050902
3012.28,0.051575
3014.03,0.052072
3015.79,0.0526
3017.54,0.053244
3019.3,0.053885
3021.06,0.054783
3022.82,0.05576
3024.58,0.056843
3026.35,0.057962
3028.12,0.058633
3029.89,0.059294
3031.66,0.060292
3033.43,0.061303
3035.21,0.061686
3036.99,0.062092
3038.77,0.062545
3040.55,0.062511
3042.33,0.062592
3044.12,0.062633
3045.91,0.062351
3047.7,0.061883
3049.49,0.061142
3051.29,0.060359
3053.08,0.059617
3054.88,0.05889
3056.68,0.058085
3058.49,0.056998
3060.29,0.055899
3062.1,0.054411
3063.91,0.052888
3065.72,0.051824
3067.54,0.050789
3069.35,0.049537
3071.17,0.048398
3072.99,0.047457
3074.81,0.046576
3076.64,0.045654
3078.47,0.044663
3080.29,0.043559
3082.13,0.042798
3083.96,0.042131
3085.79,0.0414
3087.63,0.040808
3089.47,0.040509
3091.31,0.040202
3093.16,0.039702
3095.01,0.040012
3096.85,0.040527
3098.71,0.040871
3100.56,0.041184
3102.41,0.041719
3104.27,0.042779
3106.13,0.043862
3107.99,0.044816
3109.86,0.04599
3111.73,0.047356
3113.59,0.048804
3115.47,0.050143
3117.34,0.051662
3119.21,0.053309
3121.09,0.054964
3122.97,0.056683
3124.86,0.058306
3126.74,0.059715
3128.63,0.061313
3130.52,0.063123
3132.41,0.064596
3134.3,0.066126
3136.2,0.067831
3138.1,0.069294
3140.0,0.070762
3141.9,0.072067
3143.81,0.073341
3145.71,0.074582
3147.62,0.075778
3149.54,0.076934
3151.45,0.077794
3153.37,0.078796
3155.29,0.079749
3157.21,0.080578
3159.13,0.081215
3161.06,0.081887
3162.99,0.082594
3164.92,0.083131
3166.85,0.083654
3168.79,0.084275
3170.72,0.084726
3172.67,0.085289
3174.61,0.08594
3176.55,0.086448
3178.5,0.087099
3180.45,0.087684
3182.4,0.088361
3184.36,0.0891
3186.32,0.089736
3188.27,0.090809
3190.24,0.091954
3192.2,0.093034
3194.17,0.093817
3196.14,0.094765
3198.11,0.096101
3200.08,0.097405
3202.06,0.09851
3204.04,0.099647
3206.02,0.101064
3208.0,0.102581
3209.99,0.103897
3211.98,0.105132
3213.97,0.106579
3215.96,0.107986
3217.96,0.109386
3219.96,0.11058
3221.96,0.111786
3223.96,0.113157
3225.97,0.114496
3227.98,0.115593
3229.99,0.116581
3232.0,0.117857
3234.02,0.118942
3236.04,0.119545
3238.06,0.12042
3240.08,0.121293
3242.11,0.122029
3244.14,0.122868
3246.17,0.123712
3248.2,0.124229
3250.24,0.12459
3252.28,0.125445
3254.32,0.126208
3256.37,0.126473
3258.41,0.126902
3260.46,0.127641
3262.51,0.128103
3264.57,0.128525
3266.63,0.129154
3268.69,0.129812
3270.75,0.130281
3272.81,0.130749
3274.88,0.131614
3276.95,0.132687
3279.02,0.133617
3281.1,0.134502
3283.18,0.135406
3285.26,0.136565
3287.34,0.137675
3289.43,0.138781
3291.51,0.140147
3293.61,0.141812
3295.7,0.143298
3297.8,0.144711
3299.9,0.146368
3302.0,0.148086
3304.1,0.149738
3306.21,0.151329
3308.32,0.153148
3310.43,0.155028
3312.55,0.156829
3314.66,0.158603
3316.79,0.160376
3318.91,0.162358
3321.03,0.164305
3323.16,0.166054
3325.29,0.168011
3327.43,0.170158
3329.57,0.172133
3331.71,0.173873
3333.85,0.175652
3335.99,0.177462
3338.14,0.179261
3340.29,0.180945
3342.45,0.182714
3344.6,0.184658
3346.76,0.186333
3348.92,0.187859
3351.09,0.189681
3353.26,0.191334
3355.43,0.192884
3357.6,0.194637
3359.78,0.196332
3361.96,0.198033
3364.14,0.199642
3366.32,0.201344
3368.51,0.202869
3370.7,0.204479
3372.89,0.206119
3375.09,0.207591
3377.29,0.209331
3379.49,0.211121
3381.69,0.212785
3383.9,0.21451
3386.11,0.215975
3388.32,0.217649
3390.54,0.219406
3392.76,0.221131
3394.98,0.222956
3397.21,0.224694
3399.43,0.22618
3401.66,0.227968
3403.9,0.229664
3406.13,0.231171
3408.37,0.232868
3410.61,0.234832
3412.86,0.236589
3415.11,0.238247
3417.36,0.239999
3419.61,0.241665
3421.87,0.2436
3424.13,0.245397
3426.39,0.246876
3428.66,0.24851
3430.93,0.250095
3433.2,0.251509
3435.48,0.252984
3437.76,0.254393
3440.04,0.255873
3442.32,0.257515
3444.61,0.259082
3446.9,0.260513
3449.19,0.262096
3451.49,0.263704
3453.79,0.265245
3456.09,0.266581
3458.4,0.26802
3460.7,0.26948
3463.02,0.270934
3465.33,0.272518
3467.65,0.274141
3469.97,0.275768
3472.29,0.276972
3474.62,0.27843
3476.95,0.280227
3479.29,0.281914
3481.62,0.283313
3483.96,0.284703
3486.3,0.28619
3488.65,0.287619
3491.0,0.289248
3493.35,0.290847
3495.71,0.292398
3498.07,0.294099
3500.43,0.295786
3502.79,0.297358
3505.16,0.299041
3507.53,0.300737
3509.91,0.302277
3512.29,0.303706
3514.67,0.305173
3517.05,0.306666
3519.44,0.308083
3521.83,0.309661
3524.23,0.311118
3526.62,0.312449
3529.02,0.313851
3531.43,0.31542
3533.83,0.317063
3536.24,0.318585
3538.66,0.320099
3541.08,0.321743
3543.5,0.323298
3545.92,0.324772
3548.35,0.32632
3550.78,0.327811
3553.21,0.329279
3555.65,0.330654
3558.09,0.332206
3560.53,0.333817
3562.98,0.335415
3565.43,0.336857
3567.88,0.338329
3570.34,0.339695
3572.8,0.340917
3575.27,0.342257
3577.73,0.343702
3580.2,0.345003
3582.68,0.346259
3585.16,0.347671
3587.64,0.348976
3590.12,0.350288
3592.61,0.351611
3595.1,0.352822
3597.6,0.354049
3600.09,0.355422
3602.6,0.356651
3605.1,0.357935
3607.61,0.359061
3610.12,0.360017
3612.64,0.361175
3615.16,0.362313
3617.68,0.363505
3620.21,0.364694
3622.74,0.365858
3625.27,0.367067
3627.81,0.368112
3630.35,0.369106
3632.89,0.370309
3635.44,0.371601
3637.99,0.372725
3640.54,0.373766
3643.1,0.37469
3645.66,0.375776
3648.23,0.376911
3650.8,0.377969
3653.37,0.37894
3655.95,0.3799
3658.53,0.380691
3661.11,0.381701
3663.7,0.382854
3666.29,0.383754
3668.89,0.384752
3671.48,0.385794
3674.09,0.386775
3676.69,0.387745
3679.3,0.388663
3681.91,0.389617
3684.53,0.390223
3687.15,0.391001
3689.78,0.391966
3692.4,0.392853
3695.04,0.393711
3697.67,0.394601
3700.31,0.395495
3702.95,0.396389
3705.6,0.397429
3708.25,0.398233
3710.91,0.398923
3713.56,0.399803
3716.23,0.400745
3718.89,0.401656
3721.56,0.402691
3724.23,0.403453
3726.91,0.404178
3729.59,0.405108
3732.28,0.40607
3734.97,0.406869
3737.66,0.407649
3740.36,0.408428
3743.06,0.409209
3745.76,0.409861
3748.47,0.410349
3751.18,0.411022
3753.9,0.411889
3756.62,0.412738
3759.34,0.413437
3762.07,0.414212
3764.8,0.415151
3767.54,0.4161
3770.28,0.416782
3773.02,0.417449
3775.77,0.418282
3778.52,0.419074
3781.28,0.419558
3784.04,0.420061
3786.8,0.420904
3789.57,0.421732
3792.34,0.422316
3795.12,0.422841
3797.9,0.423468
3800.69,0.42422
3803.47,0.425119
3806.27,0.426228
3809.06,0.427287
3811.86,0.42814
3814.67,0.428995
3817.48,0.429851
3820.29,0.430719
3823.11,0.431632
3825.93,0.43243
3828.76,0.43311
3831.59,0.433695
3834.42,0.434422
3837.26,0.435367
3840.1,0.436243
3842.95,0.436807
3845.8,0.437227
3848.65,0.437734
3851.51,0.438496
3854.38,0.439017
3857.24,0.439501
3860.12,0.440158
3862.99,0.440879
3865.87,0.441498
3868.76,0.442014
3871.65,0.442598
3874.54,0.443263
3877.44,0.444119
3880.34,0.444942
3883.25,0.445783
3886.16,0.446356
3889.07,0.446894
3891.99,0.447541
3894.92,0.448102
3897.85,0.448551
3900.78,0.448799
3903.72,0.448905
3906.66,0.449371
3909.6,0.449845
3912.55,0.450009
3915.51,0.450049
3918.47,0.45014
3921.43,0.450365
3924.4,0.450405
3927.38,0.450395
3930.35,0.450456
3933.33,0.450429
3936.32,0.450127
3939.31,0.449772
3942.31,0.44971
3945.31,0.449629
3948.31,0.44938
3951.32,0.449108
3954.34,0.448916
3957.35,0.448511
3960.38,0.448109
3963.41,0.447925
3966.44,0.44777
3969.48,0.447615
3972.52,0.447711
3975.56,0.44772
3978.61,0.44761
3981.67,0.447487
3984.73,0.44748
3987.8,0.447328
3990.87,0.447036
3993.94,0.446683
3997.02,0.446563
4000.1,0.446408
4003.19,0.44615
4006.29,0.445792
4009.39,0.445286
4012.49,0.444938
4015.6,0.444597
4018.71,0.444307
4021.83,0.444002
4024.95,0.443575
4028.08,0.443252
4031.21,0.442609
4034.35,0.441937
4037.49,0.441586
4040.64,0.441179
4043.79,0.440502
4046.94,0.43996
4050.11,0.439328
4053.27,0.438671
4056.44,0.438082
4059.62,0.437409
4062.8,0.436514
4065.99,0.435639
4069.18,0.434917
4072.38,0.434045
4075.58,0.433077
4078.78,0.432256
4082.0,0.431315
4085.21,0.430104
4088.43,0.428983
4091.66,0.427832
4094.89,0.426443
4098.13,0.425142
4101.37,0.423895
4104.62,0.42256
4107.87,0.42128
4111.13,0.419777
4114.39,0.418132
4117.66,0.416492
4120.93,0.415116
4124.21,0.41396
4127.5,0.412821
4130.79,0.411564
4134.08,0.410358
4137.38,0.409276
4140.68,0.408242
4143.99,0.406972
4147.31,0.405672
4150.63,0.404437
4153.95,0.403292
4157.29,0.402168
4160.62,0.401069
4163.96,0.399938
4167.31,0.398598
4170.66,0.397228
4174.02,0.39595
4177.39,0.394639
4180.75,0.393381
4184.13,0.392083
4187.51,0.390898
4190.89,0.389686
4194.28,0.388355
4197.68,0.387063
4201.08,0.385701
4204.49,0.384104
4207.9,0.382299
4211.32,0.380417
4214.74,0.378535
4218.17,0.37674
4221.61,0.374888
4225.05,0.373102
4228.5,0.371377
4231.95,0.369534
4235.4,0.367684
4238.87,0.365861
4242.34,0.364009
4245.81,0.362202
4249.29,0.360365
4252.78,0.358535
4256.27,0.356628
4259.77,0.354159
4263.27,0.351229
4266.78,0.348806
4270.29,0.346363
4273.81,0.343801
4277.34,0.341629
4280.87,0.339333
4284.41,0.336845
4287.95,0.334342
4291.5,0.331632
4295.06,0.328901
4298.62,0.326443
4302.19,0.323902
4305.76,0.321226
4309.34,0.318634
4312.92,0.316108
4316.52,0.313619
4320.11,0.31111
4323.72,0.308444
4327.32,0.305611
4330.94,0.302981
4334.56,0.30029
4338.19,0.297568
4341.82,0.294875
4345.46,0.292187
4349.11,0.289379
4352.76,0.286541
4356.42,0.283816
4360.08,0.281153
4363.75,0.278602
4367.43,0.276236
4371.11,0.274178
4374.8,0.272244
4378.49,0.270565
4382.19,0.269118
4385.9,0.2677
4389.61,0.266643
4393.33,0.265855
4397.06,0.265276
4400.79,0.264776
4404.53,0.264422
4408.28,0.264286
4412.03,0.264379
4415.79,0.264603
4419.55,0.265027
4423.32,0.265552
4427.1,0.266332
4430.88,0.267271
4434.68,0.268445
4438.47,0.269828
4442.28,0.271125
4446.08,0.272497
4449.9,0.273972
4453.72,0.275596
4457.55,0.277241
4461.39,0.279003
4465.23,0.28085
4469.08,0.282568
4472.94,0.284206
4476.8,0.285763
4480.67,0.287296
4484.55,0.288607
4488.43,0.289926
4492.32,0.291135
4496.21,0.292213
4500.12,0.29319
4504.03,0.294033
4507.94,0.294818
4511.87,0.295511
4515.8,0.296195
4519.73,0.296969
4523.68,0.297609
4527.63,0.298224
4531.59,0.298879
4535.55,0.299602
4539.52,0.300173
4543.5,0.300776
4547.49,0.30161
4551.48,0.302478
4555.48,0.303144
4559.49,0.303873
4563.5,0.304814
4567.52,0.305696
4571.55,0.30651
4575.58,0.307344
4579.63,0.308254
4583.67,0.309115
4587.73,0.309996
4591.79,0.310817
4595.86,0.311644
4599.94,0.312577
4604.03,0.313324
4608.12,0.314172
4612.22,0.314934
4616.33,0.315517
4620.44,0.316159
4624.56,0.316797
4628.69,0.317418
4632.83,0.317887
4636.97,0.318336
4641.12,0.318704
4645.28,0.319049
4649.45,0.319458
4653.62,0.319824
4657.8,0.320177
4661.99,0.320489
4666.19,0.320915
4670.39,0.321204
4674.6,0.321454
4678.82,0.321883
4683.05,0.322282
4687.28,0.32267
4691.52,0.323054
4695.77,0.323466
4700.03,0.323854
4704.3,0.324267
4708.57,0.324655
4712.85,0.32506
4717.14,0.325517
4721.43,0.325849
4725.74,0.326157
4730.05,0.326292
4734.37,0.326534
4738.7,0.326743
4743.03,0.326987
4747.38,0.327209
4751.73,0.327347
4756.09,0.327581
4760.45,0.327907
4764.83,0.328093
4769.21,0.328344
4773.6,0.328594
4778.0,0.328698
4782.41,0.329001
4786.83,0.32918
4791.25,0.329266
4795.68,0.329437
4800.13,0.329683
4804.57,0.329924
4809.03,0.33009
4813.5,0.330453
4817.97,0.330883
4822.45,0.331042
4826.94,0.331315
4831.44,0.331801
4835.95,0.332234
4840.46,0.332594
4844.99,0.332987
4849.52,0.33354
4854.06,0.334157
4858.61,0.334837
4863.17,0.335587
4867.73,0.336533
4872.31,0.337563
4876.89,0.338727
4881.48,0.339746
4886.08,0.340832
4890.69,0.341866
4895.31,0.34298
4899.94,0.344205
4904.57,0.345324
4909.22,0.346372
4913.87,0.347625
4918.53,0.34876
4923.21,0.349624
4927.88,0.350343
4932.57,0.351116
4937.27,0.351755
4941.98,0.352509
4946.69,0.35314
4951.42,0.353637
4956.15,0.353891
4960.9,0.354242
4965.65,0.354634
4970.41,0.355005
4975.18,0.355437
4979.96,0.355918
4984.75,0.356573
4989.54,0.357509
4994.35,0.358474
4999.17,0.35946
5003.99,0.360466
5008.83,0.361528
5013.67,0.362432
5018.52,0.363271
5023.39,0.364178
5028.26,0.365101
5033.14,0.365988
5038.03,0.366845
5042.93,0.36754
5047.84,0.368164
5052.76,0.368763
5057.69,0.369322
5062.63,0.369919
5067.58,0.370601
5072.54,0.371299
5077.51,0.371954
5082.49,0.372562
5087.47,0.373313
5092.47,0.374201
5097.48,0.374883
5102.5,0.375513
5107.52,0.376237
5112.56,0.377002
5117.61,0.377556
5122.66,0.377962
5127.73,0.37844
5132.81,0.378893
5137.89,0.379224
5142.99,0.379443
5148.1,0.379652
5153.22,0.379627
5158.34,0.379504
5163.48,0.379242
5168.63,0.379009
5173.79,0.378629
5178.96,0.378398
5184.13,0.378242
5189.32,0.378132
5194.52,0.378044
5199.73,0.377978
5204.96,0.378078
5210.19,0.378261
5215.43,0.37822
5220.68,0.378549
5225.94,0.378695
5231.22,0.378567
5236.5,0.378207
5241.79,0.377753
5247.1,0.377268
5252.42,0.376604
5257.74,0.375625
5263.08,0.374523
5268.43,0.373386
5273.79,0.372399
5279.16,0.371351
5284.54,0.370504
5289.93,0.369793
5295.34,0.369058
5300.75,0.368245
5306.18,0.367463
5311.61,0.366671
5317.06,0.365733
5322.52,0.364682
5327.99,0.363486
5333.47,0.362111
5338.96,0.360562
5344.47,0.358729
5349.98,0.356729
5355.51,0.354781
5361.05,0.3529
5366.6,0.350659
5372.16,0.34829
5377.73,0.34598
5383.32,0.343969
5388.91,0.342204
5394.52,0.341073
5400.14,0.34036
5405.77,0.34001
5411.41,0.339805
5417.07,0.339809
5422.74,0.339603
5428.41,0.339739
5434.1,0.339801
5439.81,0.339218
5445.52,0.338486
5451.25,0.337637
5456.98,0.336332
5462.73,0.334602
5468.5,0.332685
5474.27,0.330736
5480.06,0.328401
5485.86,0.326155
5491.67,0.323968
5497.49,0.321481
5503.33,0.318999
5509.18,0.31669
5515.04,0.314626
5520.91,0.312554
5526.8,0.310559
5532.69,0.308748
5538.61,0.307102
5544.53,0.305585
5550.47,0.304236
5556.41,0.303071
5562.38,0.301952
5568.35,0.300905
5574.34,0.299914
5580.34,0.29902
5586.35,0.298703
5592.38,0.298484
5598.42,0.297943
5604.47,0.297427
5610.54,0.296897
5616.61,0.296204
5622.71,0.295384
5628.81,0.294336
5634.93,0.29302
5641.06,0.291573
5647.21,0.289904
5653.36,0.288137
5659.54,0.2858
5665.72,0.283513
5671.92,0.280843
5678.13,0.278015
5684.36,0.275238
5690.6,0.272401
5696.85,0.269506
5703.12,0.266789
5709.4,0.263796
5715.69,0.261134
5722.0,0.25894
5728.33,0.256743
5734.66,0.254572
5741.01,0.252441
5747.38,0.250114
5753.76,0.247976
5760.15,0.246077
5766.56,0.243739
5772.98,0.241822
5779.41,0.240213
5785.86,0.237918
5792.33,0.235625
5798.81,0.233408
5805.3,0.231233
5811.81,0.228824
5818.33,0.226229
5824.87,0.22343
5831.42,0.220899
5837.99,0.218047
5844.57,0.214896
5851.17,0.21142
5857.78,0.207634
5864.41,0.203508
5871.05,0.199257
5877.7,0.194541
5884.38,0.189258
5891.06,0.183691
5897.76,0.177656
5904.48,0.170959
5911.21,0.163957
5917.96,0.156477
5924.73,0.14827
5931.5,0.139609
5938.3,0.130495
5945.11,0.120513
5951.93,0.110627
5958.78,0.100771
5965.63,0.091089
5972.51,0.081857
5979.39,0.073196
5986.3,0.066142
5993.22,0.060693
6000.16,0.056376
6007.11,0.053479
6014.08,0.052017
6021.06,0.051976
6028.06,0.05274
6035.08,0.053676
6042.12,0.053978
6049.17,0.05319
6056.23,0.051694
6063.32,0.050704
6070.42,0.05124
6077.53,0.053884
6084.67,0.058999
6091.82,0.065638
6098.98,0.07336
6106.17,0.08179
6113.37,0.090227
6120.58,0.0985
6127.82,0.106138
6135.07,0.112695
6142.34,0.11857
6149.63,0.123485
6156.93,0.12735
6164.25,0.130513
6171.59,0.132904
6178.95,0.134063
6186.32,0.134391
6193.71,0.134116
6201.12,0.133144
6208.54,0.131173
6215.99,0.128545
6223.45,0.125259
6230.93,0.121631
6238.43,0.117688
6245.95,0.113782
6253.48,0.109991
6261.03,0.106781
6268.6,0.104305
6276.19,0.102756
6283.8,0.10228
6291.43,0.103068
6299.07,0.104937
6306.73,0.108016
6314.42,0.111992
6322.12,0.116728
6329.84,0.121837
6337.57,0.12726
6345.33,0.132629
6353.11,0.1386
6360.9,0.144488
6368.72,0.149645
6376.55,0.154628
6384.4,0.159679
6392.27,0.164145
6400.17,0.168447
6408.08,0.172114
6416.01,0.17544
6423.96,0.179385
6431.93,0.182853
6439.92,0.185549
6447.93,0.188386
6455.96,0.190651
6464.01,0.192812
6472.08,0.194712
6480.17,0.196579
6488.28,0.198182
6496.41,0.199664
6504.56,0.20155
6512.73,0.203375
6520.92,0.204425
6529.14,0.205788
6537.37,0.207282
6545.63,0.208435
6553.9,0.20941
6562.2,0.21064
6570.51,0.211521
6578.85,0.21229
6587.21,0.213373
6595.59,0.214022
6603.99,0.214642
6612.42,0.215189
6620.86,0.215527
6629.33,0.215775
6637.82,0.215714
6646.33,0.216084
6654.86,0.216529
6663.41,0.216486
6671.99,0.216264
6680.59,0.215985
6689.21,0.215658
6697.85,0.215529
6706.51,0.215125
6715.2,0.214784
6723.91,0.214514
6732.64,0.214348
6741.4,0.214219
6750.18,0.214044
6758.98,0.21385
6767.8,0.213769
6776.65,0.213446
6785.52,0.2131
6794.41,0.212786
6803.33,0.212474
6812.27,0.211911
6821.23,0.211411
6830.22,0.210745
6839.23,0.210088
6848.26,0.209394
6857.32,0.208701
6866.4,0.207921
6875.51,0.207375
6884.64,0.206647
6893.8,0.205573
6902.98,0.204517
6912.18,0.203414
6921.41,0.202384
6930.66,0.201336
6939.94,0.200147
6949.24,0.198898
6958.57,0.197591
6967.92,0.196422
6977.3,0.195446
6986.7,0.194362
6996.13,0.193406
7005.59,0.192517
7015.07,0.191558
7024.57,0.190674
7034.1,0.189936
7043.66,0.189126
7053.25,0.18845
7062.85,0.188004
7072.49,0.187249
7082.15,0.186312
7091.84,0.185589
7101.55,0.184948
7111.3,0.184151
7121.06,0.183285
7130.86,0.182431
7140.68,0.181658
7150.53,0.180791
7160.41,0.17982
7170.31,0.178752
7180.24,0.177701
7190.2,0.176645
7200.19,0.17551
7210.2,0.174273
7220.24,0.173074
7230.31,0.171893
7240.41,0.170636
7250.54,0.169547
7260.69,0.168453
7270.88,0.167261
7281.09,0.165887
7291.33,0.164499
7301.6,0.163306
7311.9,0.162069
7322.22,0.160705
7332.58,0.159294
7342.97,0.15788
7353.38,0.156438
7363.83,0.155101
7374.3,0.153895
7384.81,0.152464
7395.34,0.150971
7405.91,0.149616
7416.5,0.148293
7427.13,0.146847
7437.78,0.14541
7448.47,0.144022
7459.19,0.142708
7469.94,0.14133
7480.71,0.139872
7491.52,0.138295
7502.37,0.136592
7513.24,0.134879
7524.14,0.133242
7535.08,0.131445
7546.05,0.129538
7557.05,0.127658
7568.08,0.125747
7579.15,0.123713
7590.24,0.12158
7601.37,0.119447
7612.53,0.117284
7623.73,0.114994
7634.96,0.112738
7646.22,0.110472
7657.51,0.108224
7668.84,0.106048
7680.2,0.103883
7691.59,0.101562
7703.02,0.099204
7714.49,0.096842
7725.98,0.094632
7737.52,0.092515
7749.08,0.090432
7760.68,0.088358
7772.32,0.086243
7783.99,0.084066
7795.69,0.081896
7807.43,0.079892
7819.21,0.077789
7831.02,0.075597
7842.87,0.073534
7854.75,0.071452
7866.67,0.069379
7878.62,0.067216
7890.62,0.065132
7902.64,0.062968
7914.71,0.060722
7926.81,0.058523
7938.95,0.056354
7951.13,0.054143
7963.34,0.051983
7975.59,0.049764
7987.88,0.047509
8000.21,0.045246
8012.57,0.043084
8024.98,0.041141
8037.42,0.039227
8049.9,0.037249
8062.42,0.035171
8074.98,0.033183
8087.57,0.03132
8100.21,0.029495
8112.89,0.027851
8125.6,0.026176
8138.36,0.024627
8151.16,0.023093
8163.99,0.021617
8176.87,0.020127
8189.79,0.018798
8202.75,0.017447
8215.75,0.016115
8228.79,0.015043
8241.87,0.014087
8254.99,0.012984
8268.16,0.012198
8281.37,0.011639
8294.62,0.010927
8307.91,0.010167
8321.24,0.00977
8334.62,0.009469
8348.04,0.00923
8361.51,0.009197
8375.02,0.00928
8388.57,0.009395
8402.16,0.00979
8415.8,0.010286
8429.49,0.010904
8443.22,0.011925
8456.99,0.013204
8470.81,0.014506
8484.67,0.016033
8498.58,0.017956
8512.54,0.020456
8526.54,0.02323
8540.58,0.026214
8554.68,0.029763
8568.82,0.033832
8583.0,0.038181
8597.24,0.043135
8611.52,0.048439
8625.85,0.05403
8640.23,0.060201
8654.65,0.066592
8669.12,0.072931
8683.64,0.079538
8698.21,0.086171
8712.83,0.092624
8727.5,0.099096
8742.22,0.105162
8756.99,0.110559
8771.8,0.115139
8786.67,0.118977
8801.59,0.122277
8816.56,0.124683
8831.58,0.12616
8846.65,0.126972
8861.77,0.126934
8876.94,0.125898
8892.17,0.12384
8907.45,0.1212
8922.78,0.117909
8938.16,0.113881
8953.6,0.109787
8969.09,0.105804
8984.64,0.101527
9000.23,0.097225
9015.89,0.093389
9031.59,0.089746
9047.36,0.086048
9063.17,0.082546
9079.05,0.079174
9094.97,0.075981
9110.96,0.073433
9127.0,0.071395
9143.1,0.070178
9159.25,0.06996
9175.46,0.070427
9191.73,0.07177
9208.06,0.074302
9224.44,0.077547
9240.88,0.081199
9257.38,0.084869
9273.94,0.087995
9290.56,0.090158
9307.24,0.091191
9323.98,0.090981
9340.78,0.089927
9357.64,0.088108
9374.57,0.086246
9391.55,0.084873
9408.59,0.084339
9425.7,0.084406
9442.87,0.08459
9460.1,0.085294
9477.4,0.086215
9494.75,0.086916
9512.17,0.087581
9529.66,0.088029
9547.21,0.087971
9564.83,0.087214
9582.5,0.086006
9600.25,0.084912
9618.06,0.084725
9635.94,0.085456
9653.88,0.08666
9671.89,0.087585
9689.97,0.087316
9708.12,0.085909
9726.33,0.084266
9744.62,0.083012
9762.97,0.082582
9781.39,0.083045
9799.88,0.08387
9818.44,0.084323
9837.07,0.08367
9855.77,0.08184
9874.54,0.07918
9893.39,0.075742
9912.3,0.071989
9931.29,0.068319
9950.36,0.064976
9969.49,0.062151
9988.7,0.060566
10007.98,0.06132
10027.34,0.064483
10046.77,0.06902
10066.28,0.074004
10085.87,0.078708
10105.53,0.082389
10125.26,0.084108
10145.08,0.083628
10164.97,0.081206
10184.94,0.077339
10204.99,0.072971
10225.12,0.068872
10245.33,0.065667
10265.61,0.063585
10285.98,0.062831
10306.43,0.063698
10326.96,0.066917
10347.57,0.071618
10368.27,0.07611
10389.05,0.079783
10409.91,0.082166
10430.86,0.08345
10451.88,0.083759
10473.0,0.083188
10494.2,0.081913
10515.49,0.080026
10536.86,0.077715
10558.32,0.075249
10579.87,0.072443
10601.5,0.069563
10623.23,0.067186
10645.04,0.065595
10666.94,0.065214
10688.94,0.066108
10711.02,0.068197
10733.2,0.070458
10755.47,0.072149
10777.83,0.073351
10800.28,0.073888
10822.83,0.074167
10845.47,0.074898
10868.21,0.076067
10891.04,0.077438
10913.97,0.079339
10936.99,0.081557
10960.12,0.083965
10983.34,0.086782
11006.66,0.089797
11030.07,0.09272
11053.59,0.095591
11077.21,0.098436
11100.93,0.101195
11124.75,0.103834
11148.68,0.106418
11172.71,0.109009
11196.84,0.111351
11221.07,0.113587
11245.41,0.115684
11269.86,0.117404
11294.41,0.118874
11319.07,0.120187
11343.84,0.121012
11368.72,0.121834
11393.7,0.122899
11418.8,0.124228
11444.01,0.125623
11469.33,0.126869
11494.76,0.128157
11520.3,0.129792
11545.96,0.131084
11571.73,0.13218
11597.62,0.13316
11623.62,0.134204
11649.74,0.135213
11675.98,0.136042
11702.34,0.136853
11728.81,0.137339
11755.41,0.137873
11782.13,0.138487
11808.96,0.138907
11835.92,0.139043
11863.01,0.139343
11890.22,0.139715
11917.55,0.139915
11945.01,0.14003
11972.6,0.140183
12000.31,0.140091
12028.16,0.139924
12056.13,0.139915
12084.23,0.140098
12112.46,0.140214
12140.83,0.140128
12169.33,0.139658
12197.96,0.138998
12226.73,0.138568
12255.64,0.13796
12284.68,0.13727
12313.86,0.136475
12343.18,0.135196
12372.64,0.134076
12402.24,0.133076
12431.98,0.131595
12461.86,0.12989
12491.89,0.128205
12522.07,0.126268
12552.38,0.12426
12582.85,0.122448
12613.47,0.120638
12644.23,0.118722
12675.15,0.116498
12706.21,0.114084
12737.43,0.111613
12768.81,0.109154
12800.33,0.106567
12832.02,0.103752
12863.86,0.100591
12895.86,0.097444
12928.02,0.094346
12960.34,0.091012
12992.82,0.087623
13025.46,0.084126
13058.27,0.080555
13091.25,0.076879
13124.39,0.073302
13157.7,0.069821
13191.18,0.066324
13224.83,0.062738
13258.66,0.058807
13292.65,0.054956
13326.83,0.051298
13361.17,0.047479
13395.7,0.04352
13430.4,0.039569
13465.29,0.036057
13500.35,0.033072
13535.6,0.030982
13571.03,0.029992
13606.65,0.030441
13642.46,0.03213
13678.46,0.034483
13714.64,0.037122
13751.02,0.040029
13787.59,0.042973
13824.36,0.04546
13861.32,0.047301
13898.49,0.04898
13935.85,0.049979
13973.41,0.05003
14011.17,0.049404
14049.15,0.048602
14087.32,0.04778
14125.71,0.046691
14164.3,0.045812
14203.11,0.045447
14242.13,0.045447
14281.36,0.045552
14320.81,0.045625
14360.49,0.045854
14400.38,0.046549
14440.49,0.047284
14480.82,0.047549
14521.39,0.047785
14562.18,0.04789
14603.2,0.047472
14644.45,0.046821
14685.93,0.046323
14727.66,0.045652
14769.62,0.045153
14811.81,0.045118
14854.25,0.045264
14896.94,0.045497
14939.87,0.045859
14983.05,0.046327
15026.48,0.046793
15070.16,0.047156
15114.1,0.047638
15158.29,0.048479
15202.74,0.04916
15247.46,0.05022
15292.43,0.051466
15337.68,0.052742
15383.19,0.054059
15428.97,0.055119
15475.03,0.05623
15521.36,0.057074
15567.97,0.057615
15614.87,0.057918
15662.04,0.058201
15709.5,0.058142
15757.25,0.057761
15805.29,0.057221
15853.62,0.056909
15902.26,0.056572
15951.19,0.056226
16000.42,0.055771
16049.95,0.055165
16099.8,0.054387
16149.95,0.053899
16200.42,0.053692
16251.21,0.053454
16302.31,0.052982
16353.74,0.052604
16405.49,0.052066
16457.57,0.051555
16509.98,0.051371
16562.73,0.05121
16615.82,0.05096
16669.24,0.050834
16723.02,0.05081
16777.14,0.050668
16831.61,0.05051
16886.43,0.050609
16941.62,0.050494
16997.16,0.050428
17053.08,0.050343
17109.36,0.050346
17166.01,0.05054
17223.04,0.050866
17280.45,0.050759
17338.24,0.050522
17396.43,0.050182
17455.0,0.050068
17513.97,0.04997
17573.34,0.049889
17633.11,0.049835
17693.29,0.049677
17753.89,0.049197
17814.9,0.048853
17876.33,0.04868
17938.18,0.048487
18000.47,0.047793
18063.19,0.047452
18126.35,0.047351
18189.95,0.047165
18254.0,0.046889
18318.5,0.046555
18383.46,0.046129
18448.88,0.04619
18514.77,0.046551
18581.13,0.046798
18647.97,0.047149
18715.29,0.048029
18783.1,0.049106
18851.4,0.049201
18920.2,0.049238
18989.51,0.050192
19059.32,0.051082
19129.65,0.051647
19200.5,0.051657
19271.88,0.052254
19343.79,0.053083
19416.24,0.053402
19489.23,0.054529
19562.77,0.05601
19636.88,0.056602
19711.54,0.056508
19786.78,0.057228
19862.59,0.058642
19938.98,0.060279
20015.96,0.061712
20093.55,0.062614
20171.73,0.063108
20250.53,0.062892
20329.94,0.062591
20409.98,0.062298
20490.65,0.062845
20571.96,0.062851
20653.92,0.062621
20736.54,0.061625
20819.82,0.060525
20903.77,0.059368
20988.4,0.057974
21073.72,0.056787
21159.73,0.055958
21246.46,0.053986
21333.89,0.053553
21422.04,0.054264
21510.93,0.054821
21600.56,0.056467
21690.94,0.059442
21782.08,0.063056
21873.99,0.067503
21966.67,0.072704
22060.15,0.078355
22154.42,0.085239
22249.51,0.090977
22345.41,0.095516
22442.14,0.098688
22539.72,0.102345
22638.14,0.104993
22737.43,0.106993
22837.6,0.107451
22938.65,0.106363
23040.6,0.106146
23143.46,0.106159
23247.24,0.107877
23351.96,0.107824
23457.63,0.105818
23564.25,0.104772
23671.85,0.10238
23780.44,0.097353
23890.02,0.093238
24000.63,0.092208
24112.26,0.090664
24224.93,0.088349
24338.66,0.089096
24453.47,0.088701
24569.36,0.086147
24686.36,0.08411
24804.47,0.082088
24923.73,0.080895
25044.13,0.079931
25165.71,0.07935
25288.46,0.083351
25412.43,0.083636
25537.61,0.085194
25664.04,0.084413
25791.72,0.084257
25920.68,0.086686
