Database of Origin,University of Winnipeg Spectrophotometer Facility
Sample Description,12. Palagonites and Planetary Soil Analogues Merged RELAB + Nicolet spectra (Brown U)
Other Information,#91-16 (Ted Roush)
Date Added,2018-07-23 23:19:16.137121

Data ID,RLA_PAL_5_2         
Sample ID,PAL102B
Mineral Name,Palagonite
Locality,Mauna Kea
Grain Size,<45 um
Viewing Geometry,30/0/30
Resolution,5/ 0.6-129 nm
Composition,Dry sieved Baked at 600C 2 hours in air

Wavelength
305.0,0.028119
310.0,0.025976
315.0,0.026563
320.0,0.025072
325.0,0.025115
330.0,0.026955
335.0,0.026595
340.0,0.026583
345.0,0.026944
350.0,0.026723
355.0,0.027323
360.0,0.027434
365.0,0.0281
370.0,0.029033
375.0,0.029567
380.0,0.030583
385.0,0.031786
390.0,0.032648
395.0,0.034225
400.0,0.035856
405.0,0.037702
410.0,0.03873
415.0,0.039679
420.0,0.041244
425.0,0.042798
430.0,0.044117
435.0,0.046354
440.0,0.047888
445.0,0.050401
450.0,0.052544
455.0,0.054578
460.0,0.057152
465.0,0.058769
470.0,0.060841
475.0,0.062792
480.0,0.06424
485.0,0.066587
490.0,0.068176
495.0,0.071099
500.0,0.073643
505.0,0.076799
510.0,0.080694
515.0,0.084506
520.0,0.089351
525.0,0.094389
530.0,0.099643
535.0,0.105913
540.0,0.111665
545.0,0.118907
550.0,0.125504
555.0,0.133303
560.0,0.14039
565.0,0.148466
570.0,0.157014
575.0,0.164751
580.0,0.173433
585.0,0.181287
590.0,0.189837
595.0,0.197445
600.0,0.20531
605.0,0.213303
610.0,0.220373
615.0,0.227646
620.0,0.234
625.0,0.241663
630.0,0.247378
635.0,0.254526
640.0,0.259978
645.0,0.26672
650.0,0.271831
655.0,0.278603
660.0,0.284432
665.0,0.28957
670.0,0.296849
675.0,0.301824
680.0,0.308516
685.0,0.312943
690.0,0.319538
695.0,0.324152
700.0,0.331136
705.0,0.335214
710.0,0.340427
715.0,0.346325
720.0,0.350542
725.0,0.356376
730.0,0.360488
735.0,0.366342
740.0,0.369958
745.0,0.374526
750.0,0.37804
755.0,0.383504
760.0,0.385799
765.0,0.389971
770.0,0.394143
775.0,0.394684
780.0,0.399907
785.0,0.398937
790.0,0.404976
795.0,0.402535
800.0,0.406956
805.0,0.409373
810.0,0.409367
815.0,0.411758
820.0,0.411557
825.0,0.413428
830.0,0.413363
835.0,0.414473
840.0,0.416402
845.0,0.414372
850.0,0.417666
855.0,0.417164
860.0,0.417116
865.0,0.417437
870.0,0.417669
875.0,0.418788
880.0,0.419043
885.0,0.419555
890.0,0.418777
895.0,0.420346
900.0,0.420148
905.0,0.420087
910.0,0.420561
915.0,0.422318
920.0,0.421748
925.0,0.422446
930.0,0.422501
935.0,0.424067
940.0,0.424205
945.0,0.424951
950.0,0.425356
955.0,0.425688
960.0,0.42688
965.0,0.427168
970.0,0.428596
975.0,0.427986
980.0,0.430528
985.0,0.429665
990.0,0.431749
995.0,0.431172
1000.0,0.432525
1005.0,0.43268
1010.0,0.433239
1015.0,0.433873
1020.0,0.434943
1025.0,0.435999
1030.0,0.436327
1035.0,0.437479
1040.0,0.437335
1045.0,0.439362
1050.0,0.439995
1055.0,0.441447
1060.0,0.441533
1065.0,0.44309
1070.0,0.44287
1075.0,0.444342
1080.0,0.444469
1085.0,0.445889
1090.0,0.446185
1095.0,0.447269
1100.0,0.447934
1105.0,0.44841
1110.0,0.449647
1115.0,0.450421
1120.0,0.451922
1125.0,0.45175
1130.0,0.45433
1135.0,0.453583
1140.0,0.455074
1145.0,0.454785
1150.0,0.457229
1155.0,0.457363
1160.0,0.458061
1165.0,0.459306
1170.0,0.459887
1175.0,0.460791
1180.0,0.460697
1185.0,0.462282
1190.0,0.462354
1195.0,0.463788
1200.0,0.463523
1205.0,0.464319
1210.0,0.465114
1215.0,0.46651
1220.0,0.466301
1225.0,0.467273
1230.0,0.467147
1235.0,0.46875
1240.0,0.468259
1245.0,0.469441
1250.0,0.469471
1255.0,0.47065
1260.0,0.471745
1265.0,0.4714
1270.0,0.472584
1275.0,0.472342
1280.0,0.472992
1285.0,0.47256
1290.0,0.474938
1295.0,0.474955
1300.0,0.475932
1305.0,0.475918
1310.0,0.476915
1315.0,0.477439
1320.0,0.477219
1325.0,0.478338
1330.0,0.478753
1335.0,0.479998
1340.0,0.479837
1345.0,0.480393
1350.0,0.480457
1355.0,0.48066
1360.0,0.480508
1365.0,0.48223
1370.0,0.482271
1375.0,0.483134
1380.0,0.481749
1385.0,0.484013
1390.0,0.482349
1395.0,0.481242
1400.0,0.480212
1405.0,0.481032
1410.0,0.481411
1415.0,0.480625
1420.0,0.481548
1425.0,0.481773
1430.0,0.483895
1435.0,0.484665
1440.0,0.485889
1445.0,0.485191
1450.0,0.487214
1455.0,0.486611
1460.0,0.488496
1465.0,0.488809
1470.0,0.489346
1475.0,0.490483
1480.0,0.490217
1485.0,0.49136
1490.0,0.491502
1495.0,0.492907
1500.0,0.492946
1505.0,0.493849
1510.0,0.493687
1515.0,0.494683
1520.0,0.494211
1525.0,0.495566
1530.0,0.49565
1535.0,0.496143
1540.0,0.495989
1545.0,0.49689
1550.0,0.497119
1555.0,0.497494
1560.0,0.497356
1565.0,0.497783
1570.0,0.498552
1575.0,0.49759
1580.0,0.499285
1585.0,0.499037
1590.0,0.499387
1595.0,0.49911
1600.0,0.499657
1605.0,0.498937
1610.0,0.500917
1615.0,0.500371
1620.0,0.500894
1625.0,0.500546
1630.0,0.500706
1635.0,0.500865
1640.0,0.500706
1645.0,0.501033
1650.0,0.5006
1655.0,0.5017
1660.0,0.501392
1665.0,0.501684
1670.0,0.501962
1675.0,0.503018
1680.0,0.502199
1685.0,0.502824
1690.0,0.502366
1695.0,0.503025
1700.0,0.502641
1705.0,0.50342
1710.0,0.50282
1715.0,0.503307
1720.0,0.503161
1725.0,0.503665
1730.0,0.503117
1735.0,0.503362
1740.0,0.503484
1745.0,0.502802
1750.0,0.50339
1755.0,0.503537
1760.0,0.502927
1765.0,0.503237
1770.0,0.503042
1775.0,0.503173
1780.0,0.502909
1785.0,0.502828
1790.0,0.503557
1795.0,0.503391
1800.0,0.503619
1805.0,0.502931
1810.0,0.503455
1815.0,0.502538
1820.0,0.50379
1825.0,0.503462
1830.0,0.504215
1835.0,0.503686
1840.0,0.50381
1845.0,0.503652
1850.0,0.503883
1855.0,0.503625
1860.0,0.502971
1865.0,0.502659
1870.0,0.501947
1875.0,0.50208
1880.0,0.499931
1885.0,0.496819
1890.0,0.493296
1895.0,0.49079
1900.0,0.484821
1905.0,0.48231
1910.0,0.479894
1915.0,0.479342
1920.0,0.478779
1925.0,0.481002
1930.0,0.481436
1935.0,0.483716
1940.0,0.483584
1945.0,0.485
1950.0,0.485669
1955.0,0.486516
1960.0,0.487992
1965.0,0.488778
1970.0,0.489986
1975.0,0.490811
1980.0,0.492161
1985.0,0.492112
1990.0,0.49392
1995.0,0.493585
2000.0,0.495448
2005.0,0.495273
2010.0,0.49736
2015.0,0.497123
2020.0,0.498635
2025.0,0.498788
2030.0,0.4995
2035.0,0.500197
2040.0,0.50037
2045.0,0.501062
2050.0,0.500629
2055.0,0.501729
2060.0,0.501525
2065.0,0.502122
2070.0,0.501946
2075.0,0.50277
2080.0,0.502331
2085.0,0.50383
2090.0,0.502871
2095.0,0.503973
2100.0,0.503189
2105.0,0.504549
2110.0,0.503805
2115.0,0.504506
2120.0,0.504208
2125.0,0.504447
2130.0,0.504861
2135.0,0.504529
2140.0,0.504841
2145.0,0.5036
2150.0,0.50384
2155.0,0.502177
2160.0,0.501616
2165.0,0.499677
2170.0,0.499177
2175.0,0.497262
2180.0,0.497445
2185.0,0.496156
2190.0,0.496511
2195.0,0.495415
2200.0,0.495467
2205.0,0.494413
2210.0,0.495363
2215.0,0.495358
2220.0,0.495099
2225.0,0.495608
2230.0,0.495249
2235.0,0.49571
2240.0,0.495145
2245.0,0.496165
2250.0,0.495588
2255.0,0.497098
2260.0,0.496516
2265.0,0.497755
2270.0,0.497376
2275.0,0.498314
2280.0,0.497903
2285.0,0.498309
2290.0,0.497712
2295.0,0.498178
2300.0,0.497993
2305.0,0.498005
2310.0,0.498174
2315.0,0.496784
2320.0,0.497544
2325.0,0.496556
2330.0,0.497568
2335.0,0.496056
2340.0,0.496628
2345.0,0.495647
2350.0,0.496077
2355.0,0.49482
2360.0,0.49519
2365.0,0.494139
2370.0,0.494038
2375.0,0.493623
2380.0,0.492611
2385.0,0.492557
2390.0,0.490901
2395.0,0.490914
2400.0,0.490277
2405.0,0.489423
2410.0,0.488809
2415.0,0.4885
2420.0,0.486943
2425.0,0.487499
2430.0,0.485561
2435.0,0.485535
2440.0,0.483929
2445.0,0.483022
2450.0,0.480933
2455.0,0.480745
2460.0,0.479347
2465.0,0.478199
2470.0,0.477162
2475.0,0.476154
2480.0,0.476622
2485.0,0.474213
2490.0,0.473389
2495.0,0.471341
2500.0,0.471366
2505.0,0.47031
2510.0,0.469602
2515.0,0.468562
2520.0,0.467848
2525.0,0.466945
2530.0,0.466784
2531.32,0.466558
2532.55,0.466486
2533.79,0.466776
2535.03,0.467093
2536.27,0.466875
2537.51,0.466579
2538.75,0.466423
2540.0,0.466787
2541.24,0.466959
2542.49,0.467098
2543.74,0.467322
2544.99,0.467442
2546.24,0.467105
2547.49,0.46661
2548.74,0.466338
2549.99,0.466422
2551.25,0.46658
2552.5,0.466544
2553.76,0.466518
2555.02,0.467133
2556.28,0.467128
2557.54,0.467012
2558.8,0.467024
2560.07,0.467049
2561.33,0.466696
2562.6,0.466394
2563.86,0.466608
2565.13,0.466953
2566.4,0.467288
2567.67,0.467118
2568.95,0.466759
2570.22,0.466835
2571.5,0.467702
2572.77,0.467794
2574.05,0.466626
2575.33,0.467422
2576.61,0.467926
2577.89,0.467594
2579.17,0.468198
2580.46,0.46828
2581.74,0.468094
2583.03,0.468502
2584.31,0.468087
2585.6,0.46836
2586.89,0.468409
2588.19,0.468538
2589.48,0.469287
2590.77,0.469798
2592.07,0.47007
2593.36,0.469813
2594.66,0.468306
2595.96,0.468136
2597.26,0.47046
2598.56,0.471218
2599.87,0.47076
2601.17,0.470841
2602.48,0.471233
2603.78,0.471022
2605.09,0.470255
2606.4,0.47048
2607.71,0.471513
2609.03,0.472252
2610.34,0.472144
2611.66,0.472371
2612.97,0.472489
2614.29,0.472457
2615.61,0.472871
2616.93,0.472228
2618.25,0.472061
2619.57,0.472868
2620.9,0.47222
2622.22,0.472773
2623.55,0.473607
2624.88,0.473283
2626.21,0.47281
2627.54,0.472549
2628.87,0.472923
2630.21,0.472466
2631.54,0.472379
2632.88,0.4736
2634.21,0.473573
2635.55,0.473064
2636.89,0.472751
2638.24,0.472296
2639.58,0.472405
2640.92,0.472601
2642.27,0.472409
2643.62,0.47224
2644.97,0.471916
2646.32,0.471422
2647.67,0.471178
2649.02,0.470959
2650.38,0.470443
2651.73,0.469748
2653.09,0.468956
2654.45,0.46891
2655.81,0.468407
2657.17,0.467399
2658.53,0.466598
2659.89,0.465407
2661.26,0.463963
2662.63,0.462541
2664.0,0.460746
2665.36,0.45777
2666.74,0.454974
2668.11,0.45146
2669.48,0.443905
2670.86,0.432216
2672.23,0.421256
2673.61,0.415405
2674.99,0.411731
2676.37,0.410371
2677.76,0.410866
2679.14,0.411713
2680.52,0.41216
2681.91,0.412835
2683.3,0.411548
2684.69,0.409564
2686.08,0.407863
2687.47,0.405628
2688.87,0.402646
2690.26,0.400023
2691.66,0.396906
2693.06,0.393336
2694.46,0.389413
2695.86,0.385868
2697.26,0.382363
2698.66,0.378908
2700.07,0.375135
2701.48,0.370824
2702.89,0.366697
2704.3,0.362674
2705.71,0.358261
2707.12,0.353938
2708.53,0.349074
2709.95,0.344131
2711.37,0.339143
2712.79,0.334613
2714.21,0.33055
2715.63,0.325896
2717.05,0.320941
2718.48,0.316178
2719.9,0.311535
2721.33,0.307133
2722.76,0.303163
2724.19,0.299032
2725.62,0.294607
2727.06,0.290954
2728.49,0.287367
2729.93,0.284189
2731.37,0.281039
2732.81,0.277921
2734.25,0.27493
2735.69,0.272173
2737.14,0.269829
2738.58,0.267343
2740.03,0.264966
2741.48,0.263346
2742.93,0.261477
2744.38,0.259108
2745.83,0.257027
2747.29,0.255549
2748.75,0.254139
2750.2,0.252588
2751.66,0.250859
2753.13,0.249318
2754.59,0.247817
2756.05,0.246506
2757.52,0.246163
2758.99,0.245414
2760.46,0.244123
2761.93,0.242722
2763.4,0.241497
2764.87,0.240929
2766.35,0.240479
2767.82,0.239694
2769.3,0.238817
2770.78,0.237863
2772.26,0.237189
2773.75,0.237104
2775.23,0.236815
2776.72,0.236417
2778.21,0.236141
2779.7,0.235463
2781.19,0.234909
2782.68,0.23477
2784.18,0.234499
2785.67,0.234357
2787.17,0.234058
2788.67,0.233919
2790.17,0.23414
2791.67,0.234068
2793.18,0.233645
2794.68,0.233391
2796.19,0.233458
2797.7,0.233353
2799.21,0.233215
2800.72,0.233192
2802.24,0.233216
2803.75,0.232897
2805.27,0.232605
2806.79,0.232678
2808.31,0.23296
2809.83,0.232878
2811.35,0.232778
2812.88,0.232987
2814.41,0.232783
2815.93,0.232452
2817.46,0.232399
2819.0,0.232437
2820.53,0.232525
2822.07,0.232627
2823.6,0.232608
2825.14,0.232756
2826.68,0.233295
2828.22,0.233249
2829.77,0.233088
2831.31,0.233398
2832.86,0.233599
2834.41,0.233432
2835.96,0.233667
2837.51,0.23392
2839.07,0.233714
2840.62,0.233566
2842.18,0.233506
2843.74,0.233388
2845.3,0.233593
2846.86,0.233819
2848.43,0.233642
2849.99,0.233881
2851.56,0.234259
2853.13,0.234429
2854.7,0.234318
2856.27,0.234253
2857.85,0.234186
2859.42,0.234221
2861.0,0.234509
2862.58,0.235013
2864.16,0.235205
2865.75,0.235142
2867.33,0.235266
2868.92,0.235647
2870.51,0.235685
2872.1,0.235709
2873.69,0.235818
2875.28,0.235852
2876.88,0.235954
2878.48,0.236148
2880.07,0.236393
2881.68,0.236593
2883.28,0.2366
2884.88,0.23675
2886.49,0.236988
2888.1,0.237309
2889.71,0.237396
2891.32,0.237624
2892.93,0.23793
2894.55,0.238386
2896.16,0.238544
2897.78,0.238457
2899.4,0.238653
2901.03,0.238669
2902.65,0.238856
2904.28,0.239236
2905.91,0.239596
2907.54,0.239908
2909.17,0.240007
2910.8,0.240087
2912.44,0.240175
2914.07,0.240271
2915.71,0.240673
2917.35,0.240995
2918.99,0.241055
2920.64,0.241219
2922.29,0.241287
2923.93,0.241573
2925.58,0.241829
2927.24,0.242152
2928.89,0.242299
2930.55,0.242336
2932.2,0.242663
2933.86,0.24305
2935.52,0.243245
2937.19,0.243096
2938.85,0.243074
2940.52,0.243388
2942.19,0.243884
2943.86,0.24422
2945.53,0.244428
2947.21,0.244564
2948.88,0.244596
2950.56,0.245014
2952.24,0.24524
2953.92,0.245472
2955.61,0.245755
2957.29,0.246066
2958.98,0.246488
2960.67,0.246469
2962.36,0.246676
2964.06,0.247086
2965.75,0.247379
2967.45,0.247476
2969.15,0.247615
2970.85,0.247927
2972.55,0.248285
2974.26,0.248467
2975.97,0.248708
2977.68,0.249198
2979.39,0.249442
2981.1,0.249458
2982.82,0.24964
2984.53,0.250111
2986.25,0.25063
2987.97,0.250969
2989.7,0.251205
2991.42,0.251221
2993.15,0.251423
2994.88,0.251798
2996.61,0.25235
2998.34,0.252637
3000.08,0.252785
3001.82,0.252801
3003.55,0.253015
3005.3,0.253478
3007.04,0.253736
3008.78,0.254041
3010.53,0.254417
3012.28,0.255003
3014.03,0.255366
3015.79,0.255541
3017.54,0.255785
3019.3,0.255955
3021.06,0.256171
3022.82,0.256659
3024.58,0.25714
3026.35,0.257549
3028.12,0.257956
3029.89,0.258192
3031.66,0.258393
3033.43,0.258545
3035.21,0.258707
3036.99,0.259068
3038.77,0.259375
3040.55,0.259581
3042.33,0.259827
3044.12,0.2598
3045.91,0.260209
3047.7,0.260663
3049.49,0.260686
3051.29,0.260723
3053.08,0.260907
3054.88,0.261173
3056.68,0.261298
3058.49,0.261388
3060.29,0.261571
3062.1,0.261758
3063.91,0.261914
3065.72,0.261982
3067.54,0.262111
3069.35,0.262336
3071.17,0.262604
3072.99,0.262848
3074.81,0.262967
3076.64,0.263059
3078.47,0.263179
3080.29,0.263526
3082.13,0.263638
3083.96,0.263628
3085.79,0.264056
3087.63,0.264463
3089.47,0.264722
3091.31,0.265052
3093.16,0.265348
3095.01,0.265473
3096.85,0.265599
3098.71,0.265777
3100.56,0.265904
3102.41,0.266153
3104.27,0.266533
3106.13,0.266857
3107.99,0.266953
3109.86,0.267239
3111.73,0.2677
3113.59,0.26812
3115.47,0.268484
3117.34,0.268681
3119.21,0.268897
3121.09,0.26938
3122.97,0.269991
3124.86,0.270393
3126.74,0.270586
3128.63,0.270924
3130.52,0.271381
3132.41,0.271705
3134.3,0.272258
3136.2,0.27271
3138.1,0.273153
3140.0,0.27365
3141.9,0.273943
3143.81,0.27422
3145.71,0.274706
3147.62,0.275113
3149.54,0.275532
3151.45,0.276096
3153.37,0.276764
3155.29,0.27718
3157.21,0.277615
3159.13,0.278159
3161.06,0.278612
3162.99,0.279
3164.92,0.279292
3166.85,0.279862
3168.79,0.280473
3170.72,0.280881
3172.67,0.281228
3174.61,0.281754
3176.55,0.282271
3178.5,0.282627
3180.45,0.283082
3182.4,0.283676
3184.36,0.284268
3186.32,0.284771
3188.27,0.285252
3190.24,0.285682
3192.2,0.286182
3194.17,0.286667
3196.14,0.287331
3198.11,0.287804
3200.08,0.288151
3202.06,0.288635
3204.04,0.289364
3206.02,0.289968
3208.0,0.290413
3209.99,0.290991
3211.98,0.291484
3213.97,0.292086
3215.96,0.292721
3217.96,0.293231
3219.96,0.293595
3221.96,0.29401
3223.96,0.294743
3225.97,0.295295
3227.98,0.295729
3229.99,0.296258
3232.0,0.296893
3234.02,0.297464
3236.04,0.298068
3238.06,0.29874
3240.08,0.299328
3242.11,0.300044
3244.14,0.300582
3246.17,0.301148
3248.2,0.301787
3250.24,0.302162
3252.28,0.302752
3254.32,0.303391
3256.37,0.303888
3258.41,0.304459
3260.46,0.305006
3262.51,0.305628
3264.57,0.306287
3266.63,0.306908
3268.69,0.307429
3270.75,0.307978
3272.81,0.308564
3274.88,0.309093
3276.95,0.309613
3279.02,0.310153
3281.1,0.310904
3283.18,0.311427
3285.26,0.312019
3287.34,0.312767
3289.43,0.313328
3291.51,0.313861
3293.61,0.314558
3295.7,0.315155
3297.8,0.315855
3299.9,0.316616
3302.0,0.317227
3304.1,0.317846
3306.21,0.318455
3308.32,0.319066
3310.43,0.319612
3312.55,0.320115
3314.66,0.32087
3316.79,0.321758
3318.91,0.322379
3321.03,0.322812
3323.16,0.323443
3325.29,0.323986
3327.43,0.324595
3329.57,0.325411
3331.71,0.326011
3333.85,0.326489
3335.99,0.327199
3338.14,0.327845
3340.29,0.328269
3342.45,0.328755
3344.6,0.329362
3346.76,0.329895
3348.92,0.330312
3351.09,0.330733
3353.26,0.331123
3355.43,0.331671
3357.6,0.332094
3359.78,0.33242
3361.96,0.332583
3364.14,0.332681
3366.32,0.332676
3368.51,0.332912
3370.7,0.333223
3372.89,0.333557
3375.09,0.333812
3377.29,0.33426
3379.49,0.334863
3381.69,0.335423
3383.9,0.336023
3386.11,0.33692
3388.32,0.337547
3390.54,0.338158
3392.76,0.338737
3394.98,0.339161
3397.21,0.339211
3399.43,0.339201
3401.66,0.339137
3403.9,0.338989
3406.13,0.338729
3408.37,0.338624
3410.61,0.338389
3412.86,0.338128
3415.11,0.338437
3417.36,0.338828
3419.61,0.33949
3421.87,0.340697
3424.13,0.342299
3426.39,0.343985
3428.66,0.345829
3430.93,0.347575
3433.2,0.349048
3435.48,0.350594
3437.76,0.351964
3440.04,0.353104
3442.32,0.354338
3444.61,0.355725
3446.9,0.356798
3449.19,0.357809
3451.49,0.35895
3453.79,0.360102
3456.09,0.361082
3458.4,0.361995
3460.7,0.362918
3463.02,0.363915
3465.33,0.364891
3467.65,0.365657
3469.97,0.36629
3472.29,0.366898
3474.62,0.367438
3476.95,0.367857
3479.29,0.368456
3481.62,0.369085
3483.96,0.369473
3486.3,0.369975
3488.65,0.370475
3491.0,0.370853
3493.35,0.370994
3495.71,0.371174
3498.07,0.37134
3500.43,0.371595
3502.79,0.372116
3505.16,0.373108
3507.53,0.374382
3509.91,0.375929
3512.29,0.377381
3514.67,0.378835
3517.05,0.380441
3519.44,0.382013
3521.83,0.383318
3524.23,0.38465
3526.62,0.386031
3529.02,0.387236
3531.43,0.388306
3533.83,0.389449
3536.24,0.39054
3538.66,0.39154
3541.08,0.392449
3543.5,0.393453
3545.92,0.394332
3548.35,0.395036
3550.78,0.39592
3553.21,0.396896
3555.65,0.397767
3558.09,0.398391
3560.53,0.39916
3562.98,0.399966
3565.43,0.400759
3567.88,0.401634
3570.34,0.402347
3572.8,0.402973
3575.27,0.403723
3577.73,0.404588
3580.2,0.405419
3582.68,0.406206
3585.16,0.406921
3587.64,0.407642
3590.12,0.408398
3592.61,0.409076
3595.1,0.409766
3597.6,0.410392
3600.09,0.411031
3602.6,0.411722
3605.1,0.412502
3607.61,0.413277
3610.12,0.413849
3612.64,0.414496
3615.16,0.41527
3617.68,0.415959
3620.21,0.416564
3622.74,0.417185
3625.27,0.417979
3627.81,0.418778
3630.35,0.419271
3632.89,0.419785
3635.44,0.420561
3637.99,0.421294
3640.54,0.421932
3643.1,0.422567
3645.66,0.423198
3648.23,0.423803
3650.8,0.424499
3653.37,0.425197
3655.95,0.425746
3658.53,0.426152
3661.11,0.426856
3663.7,0.427604
3666.29,0.428111
3668.89,0.428641
3671.48,0.429228
3674.09,0.429877
3676.69,0.430411
3679.3,0.431018
3681.91,0.431615
3684.53,0.432187
3687.15,0.432702
3689.78,0.433206
3692.4,0.433633
3695.04,0.434059
3697.67,0.434586
3700.31,0.435118
3702.95,0.43566
3705.6,0.436242
3708.25,0.436639
3710.91,0.437018
3713.56,0.437426
3716.23,0.437876
3718.89,0.438278
3721.56,0.438797
3724.23,0.439233
3726.91,0.439683
3729.59,0.440164
3732.28,0.440561
3734.97,0.44102
3737.66,0.441403
3740.36,0.441803
3743.06,0.442196
3745.76,0.442501
3748.47,0.442819
3751.18,0.443187
3753.9,0.44355
3756.62,0.443824
3759.34,0.444231
3762.07,0.444648
3764.8,0.444935
3767.54,0.445187
3770.28,0.4455
3773.02,0.445898
3775.77,0.446271
3778.52,0.446446
3781.28,0.446568
3784.04,0.446816
3786.8,0.447233
3789.57,0.447586
3792.34,0.447888
3795.12,0.448145
3797.9,0.448311
3800.69,0.448552
3803.47,0.448874
3806.27,0.449152
3809.06,0.44938
3811.86,0.449505
3814.67,0.449682
3817.48,0.449932
3820.29,0.450243
3823.11,0.450298
3825.93,0.450419
3828.76,0.450623
3831.59,0.450737
3834.42,0.450871
3837.26,0.451112
3840.1,0.451229
3842.95,0.45133
3845.8,0.451474
3848.65,0.451478
3851.51,0.451539
3854.38,0.4517
3857.24,0.451754
3860.12,0.451712
3862.99,0.451717
3865.87,0.4518
3868.76,0.451816
3871.65,0.45181
3874.54,0.451914
3877.44,0.451946
3880.34,0.451765
3883.25,0.451728
3886.16,0.451775
3889.07,0.451757
3891.99,0.451748
3894.92,0.451673
3897.85,0.45145
3900.78,0.451305
3903.72,0.451238
3906.66,0.45123
3909.6,0.451069
3912.55,0.450817
3915.51,0.450683
3918.47,0.450671
3921.43,0.450549
3924.4,0.450322
3927.38,0.450003
3930.35,0.449813
3933.33,0.449544
3936.32,0.449338
3939.31,0.448976
3942.31,0.448675
3945.31,0.44845
3948.31,0.448153
3951.32,0.447944
3954.34,0.447818
3957.35,0.447642
3960.38,0.447442
3963.41,0.447129
3966.44,0.446843
3969.48,0.446524
3972.52,0.446173
3975.56,0.445925
3978.61,0.445783
3981.67,0.445575
3984.73,0.445307
3987.8,0.444931
3990.87,0.444594
3993.94,0.444304
3997.02,0.44401
4000.1,0.443752
4003.19,0.443465
4006.29,0.443105
4009.39,0.442856
4012.49,0.442498
4015.6,0.442136
4018.71,0.441957
4021.83,0.441702
4024.95,0.441462
4028.08,0.441248
4031.21,0.440942
4034.35,0.440719
4037.49,0.4405
4040.64,0.440143
4043.79,0.439859
4046.94,0.439724
4050.11,0.439434
4053.27,0.439149
4056.44,0.438862
4059.62,0.438727
4062.8,0.438505
4065.99,0.438244
4069.18,0.437947
4072.38,0.437755
4075.58,0.437502
4078.78,0.437172
4082.0,0.436921
4085.21,0.436678
4088.43,0.436371
4091.66,0.436195
4094.89,0.436051
4098.13,0.435801
4101.37,0.435469
4104.62,0.435268
4107.87,0.435074
4111.13,0.434797
4114.39,0.434594
4117.66,0.4344
4120.93,0.434083
4124.21,0.433874
4127.5,0.433721
4130.79,0.433579
4134.08,0.433462
4137.38,0.433232
4140.68,0.432976
4143.99,0.432869
4147.31,0.432659
4150.63,0.432518
4153.95,0.432429
4157.29,0.432205
4160.62,0.432054
4163.96,0.432028
4167.31,0.431921
4170.66,0.431699
4174.02,0.431539
4177.39,0.431528
4180.75,0.431452
4184.13,0.431237
4187.51,0.430967
4190.89,0.430913
4194.28,0.430839
4197.68,0.430776
4201.08,0.430587
4204.49,0.430397
4207.9,0.430187
4211.32,0.429883
4214.74,0.429528
4218.17,0.429224
4221.61,0.428912
4225.05,0.428559
4228.5,0.428179
4231.95,0.42795
4235.4,0.427796
4238.87,0.427688
4242.34,0.42758
4245.81,0.427668
4249.29,0.427735
4252.78,0.427771
4256.27,0.427702
4259.77,0.427532
4263.27,0.427092
4266.78,0.426829
4270.29,0.426839
4273.81,0.426975
4277.34,0.427065
4280.87,0.427163
4284.41,0.427123
4287.95,0.427102
4291.5,0.427122
4295.06,0.427251
4298.62,0.427442
4302.19,0.427652
4305.76,0.427704
4309.34,0.427768
4312.92,0.427755
4316.52,0.427736
4320.11,0.427773
4323.72,0.427942
4327.32,0.428009
4330.94,0.428057
4334.56,0.428131
4338.19,0.428092
4341.82,0.428084
4345.46,0.428172
4349.11,0.428195
4352.76,0.42816
4356.42,0.428078
4360.08,0.428061
4363.75,0.428152
4367.43,0.428158
4371.11,0.428118
4374.8,0.428141
4378.49,0.428183
4382.19,0.428182
4385.9,0.428076
4389.61,0.427993
4393.33,0.428108
4397.06,0.428232
4400.79,0.428239
4404.53,0.428244
4408.28,0.428256
4412.03,0.428203
4415.79,0.428184
4419.55,0.428305
4423.32,0.428353
4427.1,0.428389
4430.88,0.428468
4434.68,0.428505
4438.47,0.428499
4442.28,0.428512
4446.08,0.42853
4449.9,0.428498
4453.72,0.428484
4457.55,0.428555
4461.39,0.428545
4465.23,0.428593
4469.08,0.428565
4472.94,0.428561
4476.8,0.428593
4480.67,0.428574
4484.55,0.428589
4488.43,0.428623
4492.32,0.428567
4496.21,0.428525
4500.12,0.428531
4504.03,0.428621
4507.94,0.428737
4511.87,0.428766
4515.8,0.428689
4519.73,0.428744
4523.68,0.428766
4527.63,0.428711
4531.59,0.428682
4535.55,0.428685
4539.52,0.428648
4543.5,0.428809
4547.49,0.428948
4551.48,0.428816
4555.48,0.428623
4559.49,0.42859
4563.5,0.428608
4567.52,0.428669
4571.55,0.428642
4575.58,0.428728
4579.63,0.428701
4583.67,0.428622
4587.73,0.428515
4591.79,0.428504
4595.86,0.428523
4599.94,0.428501
4604.03,0.428458
4608.12,0.428437
4612.22,0.428352
4616.33,0.428322
4620.44,0.428337
4624.56,0.428362
4628.69,0.428351
4632.83,0.428404
4636.97,0.428344
4641.12,0.428418
4645.28,0.428374
4649.45,0.428262
4653.62,0.42824
4657.8,0.428287
4661.99,0.428316
4666.19,0.428318
4670.39,0.428182
4674.6,0.428143
4678.82,0.428134
4683.05,0.428248
4687.28,0.428199
4691.52,0.428135
4695.77,0.428213
4700.03,0.42834
4704.3,0.428324
4708.57,0.428375
4712.85,0.428309
4717.14,0.428344
4721.43,0.428463
4725.74,0.428521
4730.05,0.428464
4734.37,0.428501
4738.7,0.428486
4743.03,0.428486
4747.38,0.428455
4751.73,0.428361
4756.09,0.428295
4760.45,0.42831
4764.83,0.428271
4769.21,0.42833
4773.6,0.428444
4778.0,0.428416
4782.41,0.428304
4786.83,0.428325
4791.25,0.428269
4795.68,0.42824
4800.13,0.428248
4804.57,0.428179
4809.03,0.428043
4813.5,0.427904
4817.97,0.427756
4822.45,0.427645
4826.94,0.427549
4831.44,0.427335
4835.95,0.427146
4840.46,0.427115
4844.99,0.426975
4849.52,0.426724
4854.06,0.426603
4858.61,0.42643
4863.17,0.426078
4867.73,0.42586
4872.31,0.42558
4876.89,0.42519
4881.48,0.424898
4886.08,0.424659
4890.69,0.424255
4895.31,0.423766
4899.94,0.423432
4904.57,0.423087
4909.22,0.422624
4913.87,0.422193
4918.53,0.421733
4923.21,0.421187
4927.88,0.42058
4932.57,0.420062
4937.27,0.419424
4941.98,0.418759
4946.69,0.418062
4951.42,0.417299
4956.15,0.416535
4960.9,0.415887
4965.65,0.415162
4970.41,0.414506
4975.18,0.413744
4979.96,0.413121
4984.75,0.412362
4989.54,0.411618
4994.35,0.410911
4999.17,0.410287
5003.99,0.409506
5008.83,0.408694
5013.67,0.407881
5018.52,0.407075
5023.39,0.406216
5028.26,0.405483
5033.14,0.404825
5038.03,0.404085
5042.93,0.403216
5047.84,0.402387
5052.76,0.401502
5057.69,0.400726
5062.63,0.39993
5067.58,0.39902
5072.54,0.398116
5077.51,0.397233
5082.49,0.396361
5087.47,0.395556
5092.47,0.394695
5097.48,0.393807
5102.5,0.392827
5107.52,0.391932
5112.56,0.391133
5117.61,0.390324
5122.66,0.389346
5127.73,0.388285
5132.81,0.387339
5137.89,0.386476
5142.99,0.385492
5148.1,0.384529
5153.22,0.38363
5158.34,0.3828
5163.48,0.381833
5168.63,0.380891
5173.79,0.379855
5178.96,0.378887
5184.13,0.377895
5189.32,0.376947
5194.52,0.375978
5199.73,0.375
5204.96,0.373981
5210.19,0.373012
5215.43,0.371896
5220.68,0.370929
5225.94,0.37006
5231.22,0.369077
5236.5,0.368057
5241.79,0.367073
5247.1,0.365984
5252.42,0.364925
5257.74,0.363921
5263.08,0.362977
5268.43,0.361938
5273.79,0.360861
5279.16,0.359904
5284.54,0.358991
5289.93,0.35799
5295.34,0.35701
5300.75,0.355958
5306.18,0.355006
5311.61,0.354167
5317.06,0.353303
5322.52,0.352374
5327.99,0.351564
5333.47,0.350727
5338.96,0.349809
5344.47,0.348929
5349.98,0.348167
5355.51,0.347306
5361.05,0.346497
5366.6,0.345687
5372.16,0.34506
5377.73,0.344357
5383.32,0.343558
5388.91,0.342775
5394.52,0.342137
5400.14,0.341423
5405.77,0.340702
5411.41,0.339963
5417.07,0.339355
5422.74,0.338539
5428.41,0.337764
5434.1,0.337285
5439.81,0.336675
5445.52,0.335919
5451.25,0.335235
5456.98,0.334595
5462.73,0.333927
5468.5,0.333212
5474.27,0.332656
5480.06,0.332038
5485.86,0.33144
5491.67,0.330866
5497.49,0.3303
5503.33,0.329591
5509.18,0.328877
5515.04,0.328214
5520.91,0.327684
5526.8,0.327178
5532.69,0.326657
5538.61,0.325994
5544.53,0.325281
5550.47,0.324586
5556.41,0.323941
5562.38,0.323318
5568.35,0.322727
5574.34,0.322061
5580.34,0.321353
5586.35,0.32079
5592.38,0.320313
5598.42,0.319627
5604.47,0.318911
5610.54,0.318176
5616.61,0.317551
5622.71,0.316923
5628.81,0.316288
5634.93,0.315598
5641.06,0.314845
5647.21,0.314173
5653.36,0.31372
5659.54,0.313148
5665.72,0.312701
5671.92,0.312079
5678.13,0.311509
5684.36,0.31118
5690.6,0.310685
5696.85,0.310038
5703.12,0.309645
5709.4,0.309121
5715.69,0.30863
5722.0,0.308248
5728.33,0.307795
5734.66,0.307285
5741.01,0.306683
5747.38,0.305934
5753.76,0.305392
5760.15,0.305002
5766.56,0.304165
5772.98,0.303326
5779.41,0.302876
5785.86,0.302118
5792.33,0.301272
5798.81,0.300356
5805.3,0.299545
5811.81,0.298761
5818.33,0.297876
5824.87,0.296641
5831.42,0.295711
5837.99,0.294765
5844.57,0.29373
5851.17,0.292654
5857.78,0.29148
5864.41,0.290201
5871.05,0.289031
5877.7,0.287704
5884.38,0.28611
5891.06,0.284823
5897.76,0.283242
5904.48,0.281699
5911.21,0.280322
5917.96,0.278474
5924.73,0.276817
5931.5,0.275024
5938.3,0.27306
5945.11,0.271217
5951.93,0.269478
5958.78,0.2674
5965.63,0.265432
5972.51,0.263179
5979.39,0.261039
5986.3,0.258697
5993.22,0.256337
6000.16,0.253988
6007.11,0.251729
6014.08,0.249329
6021.06,0.247003
6028.06,0.244614
6035.08,0.24219
6042.12,0.239805
6049.17,0.237407
6056.23,0.235015
6063.32,0.233127
6070.42,0.231034
6077.53,0.229037
6084.67,0.227174
6091.82,0.225664
6098.98,0.224168
6106.17,0.222757
6113.37,0.221461
6120.58,0.22071
6127.82,0.220341
6135.07,0.220224
6142.34,0.220337
6149.63,0.220846
6156.93,0.221576
6164.25,0.222552
6171.59,0.224051
6178.95,0.225737
6186.32,0.227309
6193.71,0.229273
6201.12,0.23129
6208.54,0.233058
6215.99,0.234903
6223.45,0.236608
6230.93,0.238184
6238.43,0.239668
6245.95,0.241074
6253.48,0.24229
6261.03,0.243354
6268.6,0.244301
6276.19,0.245195
6283.8,0.245972
6291.43,0.246673
6299.07,0.247336
6306.73,0.247956
6314.42,0.248442
6322.12,0.248745
6329.84,0.24904
6337.57,0.249292
6345.33,0.249288
6353.11,0.249547
6360.9,0.24988
6368.72,0.249923
6376.55,0.250073
6384.4,0.250271
6392.27,0.250284
6400.17,0.250257
6408.08,0.250163
6416.01,0.249899
6423.96,0.250041
6431.93,0.250198
6439.92,0.250045
6447.93,0.250028
6455.96,0.24991
6464.01,0.249779
6472.08,0.249575
6480.17,0.249269
6488.28,0.248935
6496.41,0.248582
6504.56,0.248524
6512.73,0.24855
6520.92,0.248222
6529.14,0.248005
6537.37,0.247911
6545.63,0.247712
6553.9,0.247403
6562.2,0.247067
6570.51,0.246689
6578.85,0.246317
6587.21,0.246194
6595.59,0.245834
6603.99,0.245528
6612.42,0.245124
6620.86,0.24467
6629.33,0.244091
6637.82,0.243364
6646.33,0.242853
6654.86,0.242561
6663.41,0.241964
6671.99,0.241267
6680.59,0.240605
6689.21,0.240029
6697.85,0.239436
6706.51,0.238735
6715.2,0.237924
6723.91,0.237232
6732.64,0.236586
6741.4,0.236011
6750.18,0.235281
6758.98,0.234492
6767.8,0.233722
6776.65,0.232985
6785.52,0.232191
6794.41,0.231165
6803.33,0.230196
6812.27,0.229333
6821.23,0.228458
6830.22,0.227559
6839.23,0.226874
6848.26,0.226221
6857.32,0.225413
6866.4,0.224661
6875.51,0.224162
6884.64,0.223656
6893.8,0.223159
6902.98,0.22271
6912.18,0.222155
6921.41,0.221595
6930.66,0.220938
6939.94,0.220141
6949.24,0.219233
6958.57,0.218433
6967.92,0.217657
6977.3,0.21691
6986.7,0.21608
6996.13,0.215125
7005.59,0.214092
7015.07,0.21327
7024.57,0.212423
7034.1,0.211644
7043.66,0.210867
7053.25,0.210053
7062.85,0.209137
7072.49,0.208297
7082.15,0.207537
7091.84,0.206658
7101.55,0.205643
7111.3,0.204691
7121.06,0.203506
7130.86,0.202388
7140.68,0.201412
7150.53,0.200272
7160.41,0.198934
7170.31,0.197838
7180.24,0.196722
7190.2,0.195593
7200.19,0.194318
7210.2,0.192997
7220.24,0.191555
7230.31,0.190246
7240.41,0.188884
7250.54,0.187452
7260.69,0.186012
7270.88,0.184604
7281.09,0.183135
7291.33,0.181709
7301.6,0.180125
7311.9,0.178468
7322.22,0.176753
7332.58,0.175162
7342.97,0.173515
7353.38,0.17198
7363.83,0.170353
7374.3,0.168536
7384.81,0.16659
7395.34,0.164768
7405.91,0.162825
7416.5,0.160924
7427.13,0.158968
7437.78,0.157003
7448.47,0.154943
7459.19,0.153058
7469.94,0.150992
7480.71,0.148829
7491.52,0.146609
7502.37,0.144512
7513.24,0.142364
7524.14,0.140081
7535.08,0.137628
7546.05,0.135234
7557.05,0.132913
7568.08,0.130638
7579.15,0.128183
7590.24,0.125882
7601.37,0.123389
7612.53,0.120856
7623.73,0.118278
7634.96,0.11573
7646.22,0.113019
7657.51,0.110288
7668.84,0.107413
7680.2,0.10463
7691.59,0.101917
7703.02,0.099116
7714.49,0.09622
7725.98,0.093248
7737.52,0.09028
7749.08,0.087519
7760.68,0.084651
7772.32,0.081744
7783.99,0.078894
7795.69,0.076233
7807.43,0.073488
7819.21,0.070756
7831.02,0.06801
7842.87,0.065362
7854.75,0.062725
7866.67,0.060319
7878.62,0.057912
7890.62,0.055746
7902.64,0.053501
7914.71,0.051314
7926.81,0.048997
7938.95,0.046956
7951.13,0.045018
7963.34,0.043164
7975.59,0.041295
7987.88,0.039761
8000.21,0.038333
8012.57,0.037024
8024.98,0.03589
8037.42,0.035041
8049.9,0.034243
8062.42,0.033783
8074.98,0.033521
8087.57,0.033659
8100.21,0.033858
8112.89,0.034319
8125.6,0.03487
8138.36,0.035719
8151.16,0.036813
8163.99,0.037871
8176.87,0.03901
8189.79,0.040436
8202.75,0.041687
8215.75,0.043058
8228.79,0.044596
8241.87,0.046059
8254.99,0.047209
8268.16,0.048452
8281.37,0.049575
8294.62,0.050699
8307.91,0.051648
8321.24,0.052568
8334.62,0.053341
8348.04,0.054066
8361.51,0.054524
8375.02,0.054985
8388.57,0.055507
8402.16,0.055895
8415.8,0.05605
8429.49,0.05645
8443.22,0.056853
8456.99,0.057284
8470.81,0.057611
8484.67,0.05783
8498.58,0.057979
8512.54,0.058369
8526.54,0.058603
8540.58,0.058862
8554.68,0.05905
8568.82,0.059278
8583.0,0.059379
8597.24,0.059596
8611.52,0.059844
8625.85,0.060149
8640.23,0.060306
8654.65,0.060386
8669.12,0.060394
8683.64,0.06066
8698.21,0.060672
8712.83,0.060614
8727.5,0.060564
8742.22,0.060642
8756.99,0.060575
8771.8,0.060604
8786.67,0.060735
8801.59,0.060785
8816.56,0.060587
8831.58,0.060424
8846.65,0.060286
8861.77,0.060384
8876.94,0.060343
8892.17,0.060337
8907.45,0.060203
8922.78,0.060179
8938.16,0.060178
8953.6,0.060176
8969.09,0.060192
8984.64,0.060438
9000.23,0.06055
9015.89,0.060656
9031.59,0.060648
9047.36,0.060756
9063.17,0.060819
9079.05,0.060899
9094.97,0.060848
9110.96,0.060988
9127.0,0.061102
9143.1,0.061286
9159.25,0.061428
9175.46,0.061471
9191.73,0.061332
9208.06,0.061443
9224.44,0.061622
9240.88,0.061871
9257.38,0.061806
9273.94,0.061804
9290.56,0.061959
9307.24,0.062046
9323.98,0.062192
9340.78,0.062425
9357.64,0.062388
9374.57,0.062373
9391.55,0.062474
9408.59,0.062701
9425.7,0.06273
9442.87,0.062749
9460.1,0.062631
9477.4,0.062537
9494.75,0.062444
9512.17,0.062452
9529.66,0.062641
9547.21,0.062881
9564.83,0.062757
9582.5,0.062441
9600.25,0.062215
9618.06,0.062276
9635.94,0.062278
9653.88,0.062116
9671.89,0.0619
9689.97,0.061653
9708.12,0.061386
9726.33,0.061245
9744.62,0.061074
9762.97,0.061046
9781.39,0.060887
9799.88,0.060725
9818.44,0.06062
9837.07,0.060598
9855.77,0.060331
9874.54,0.060213
9893.39,0.060217
9912.3,0.060155
9931.29,0.059926
9950.36,0.059876
9969.49,0.059808
9988.7,0.059804
10007.98,0.059844
10027.34,0.059725
10046.77,0.059591
10066.28,0.059627
10085.87,0.059516
10105.53,0.059318
10125.26,0.059178
10145.08,0.059356
10164.97,0.059429
10184.94,0.059517
10204.99,0.059306
10225.12,0.059315
10245.33,0.05936
10265.61,0.05922
10285.98,0.059182
10306.43,0.05926
10326.96,0.059411
10347.57,0.059468
10368.27,0.059314
10389.05,0.059248
10409.91,0.059198
10430.86,0.059141
10451.88,0.058999
10473.0,0.059126
10494.2,0.05913
10515.49,0.059124
10536.86,0.059186
10558.32,0.059144
10579.87,0.059226
10601.5,0.059612
10623.23,0.059641
10645.04,0.059428
10666.94,0.059432
10688.94,0.059663
10711.02,0.059504
10733.2,0.05939
10755.47,0.059507
10777.83,0.059633
10800.28,0.059572
10822.83,0.059633
10845.47,0.059612
10868.21,0.059677
10891.04,0.059696
10913.97,0.059768
10936.99,0.059876
10960.12,0.059944
10983.34,0.059689
11006.66,0.059539
11030.07,0.059717
11053.59,0.060097
11077.21,0.060134
11100.93,0.059926
11124.75,0.059761
11148.68,0.059785
11172.71,0.059785
11196.84,0.059889
11221.07,0.060075
11245.41,0.060081
11269.86,0.059838
11294.41,0.059781
11319.07,0.059917
11343.84,0.059972
11368.72,0.059892
11393.7,0.059853
11418.8,0.059581
11444.01,0.059314
11469.33,0.059346
11494.76,0.059419
11520.3,0.059026
11545.96,0.058754
11571.73,0.058916
11597.62,0.058851
11623.62,0.058733
11649.74,0.058795
11675.98,0.058948
11702.34,0.059117
11728.81,0.05918
11755.41,0.058923
11782.13,0.058684
11808.96,0.058705
11835.92,0.058763
11863.01,0.058945
11890.22,0.05906
11917.55,0.059208
11945.01,0.059224
11972.6,0.059229
12000.31,0.059251
12028.16,0.059411
12056.13,0.059521
12084.23,0.059605
12112.46,0.059335
12140.83,0.059125
12169.33,0.059004
12197.96,0.058883
12226.73,0.058521
12255.64,0.057992
12284.68,0.057593
12313.86,0.057099
12343.18,0.056292
12372.64,0.055579
12402.24,0.054809
12431.98,0.053889
12461.86,0.052975
12491.89,0.052541
12522.07,0.051847
12552.38,0.050923
12582.85,0.050632
12613.47,0.050667
12644.23,0.050358
12675.15,0.049824
12706.21,0.049356
12737.43,0.049188
12768.81,0.048902
12800.33,0.048737
12832.02,0.048718
12863.86,0.048613
12895.86,0.048064
12928.02,0.047762
12960.34,0.047693
12992.82,0.047615
13025.46,0.047317
13058.27,0.047271
13091.25,0.047135
13124.39,0.047099
13157.7,0.047137
13191.18,0.046925
13224.83,0.046655
13258.66,0.046584
13292.65,0.046403
13326.83,0.046521
13361.17,0.046142
13395.7,0.045887
13430.4,0.045937
13465.29,0.045893
13500.35,0.045571
13535.6,0.045062
13571.03,0.044801
13606.65,0.044592
13642.46,0.044264
13678.46,0.044154
13714.64,0.044108
13751.02,0.044149
13787.59,0.044075
13824.36,0.043986
13861.32,0.043882
13898.49,0.043652
13935.85,0.043324
13973.41,0.043288
14011.17,0.043148
14049.15,0.042921
14087.32,0.042774
14125.71,0.042657
14164.3,0.042367
14203.11,0.042199
14242.13,0.042214
14281.36,0.042389
14320.81,0.042385
14360.49,0.042158
14400.38,0.04188
14440.49,0.041959
14480.82,0.041996
14521.39,0.041903
14562.18,0.041897
14603.2,0.041735
14644.45,0.041523
14685.93,0.04168
14727.66,0.041828
14769.62,0.041933
14811.81,0.041636
14854.25,0.041478
14896.94,0.041454
14939.87,0.041313
14983.05,0.041035
15026.48,0.040701
15070.16,0.040475
15114.1,0.040346
15158.29,0.04011
15202.74,0.040371
15247.46,0.040649
15292.43,0.040627
15337.68,0.040446
15383.19,0.04073
15428.97,0.041293
15475.03,0.041968
15521.36,0.042517
15567.97,0.042946
15614.87,0.043381
15662.04,0.044032
15709.5,0.044695
15757.25,0.045097
15805.29,0.045474
15853.62,0.04615
15902.26,0.046515
15951.19,0.047097
16000.42,0.047393
16049.95,0.047842
16099.8,0.048352
16149.95,0.048836
16200.42,0.048974
16251.21,0.04954
16302.31,0.050407
16353.74,0.051341
16405.49,0.051695
16457.57,0.052057
16509.98,0.052335
16562.73,0.052133
16615.82,0.052104
16669.24,0.052497
16723.02,0.052934
16777.14,0.052882
16831.61,0.053213
16886.43,0.05383
16941.62,0.054019
16997.16,0.05412
17053.08,0.054489
17109.36,0.054957
17166.01,0.055152
17223.04,0.055393
17280.45,0.055496
17338.24,0.055641
17396.43,0.055617
17455.0,0.056035
17513.97,0.056179
17573.34,0.05659
17633.11,0.057113
17693.29,0.057023
17753.89,0.056678
17814.9,0.056768
17876.33,0.05684
17938.18,0.056895
18000.47,0.056505
18063.19,0.056399
18126.35,0.056797
18189.95,0.05737
18254.0,0.057697
18318.5,0.058177
18383.46,0.05826
18448.88,0.058706
18514.77,0.059704
18581.13,0.060764
18647.97,0.061046
18715.29,0.06076
18783.1,0.060346
18851.4,0.060152
18920.2,0.060045
18989.51,0.059945
19059.32,0.060285
19129.65,0.060848
19200.5,0.060499
19271.88,0.060332
19343.79,0.060294
19416.24,0.060417
19489.23,0.060481
19562.77,0.060817
19636.88,0.061138
19711.54,0.06102
19786.78,0.061068
19862.59,0.061874
19938.98,0.062137
20015.96,0.062492
20093.55,0.0628
20171.73,0.063103
20250.53,0.063207
20329.94,0.063453
20409.98,0.063668
20490.65,0.063853
20571.96,0.06367
20653.92,0.06418
20736.54,0.064625
20819.82,0.06495
20903.77,0.065962
20988.4,0.066238
21073.72,0.066009
21159.73,0.066241
21246.46,0.066756
21333.89,0.066839
21422.04,0.067135
21510.93,0.067907
21600.56,0.067999
21690.94,0.06793
21782.08,0.068494
21873.99,0.06922
21966.67,0.070491
22060.15,0.070743
22154.42,0.069949
22249.51,0.07064
22345.41,0.070623
22442.14,0.07049
22539.72,0.071639
22638.14,0.072486
22737.43,0.072728
22837.6,0.073043
22938.65,0.071838
23040.6,0.072071
23143.46,0.072667
23247.24,0.071879
23351.96,0.072041
23457.63,0.072975
23564.25,0.072968
23671.85,0.072713
23780.44,0.072914
23890.02,0.073039
24000.63,0.072368
24112.26,0.074092
24224.93,0.074197
24338.66,0.07253
24453.47,0.071276
24569.36,0.07354
24686.36,0.075206
24804.47,0.073773
24923.73,0.072445
25044.13,0.073645
25165.71,0.074124
25288.46,0.072808
25412.43,0.073019
25537.61,0.07893
25664.04,0.080363
25791.72,0.075205
25920.68,0.075365
