Database of Origin,University of Winnipeg Spectrophotometer Facility
Sample Description,"Zeolites: RELAB + Nicolet spectra, Merged at 2.5 microns; note change in viewing geometry"
Date Added,2018-07-23 23:09:47.101806

Data ID,RLA_ZEO_1_3         
Sample ID,zeo107
Mineral Name,gismondine
Grain Size,<45 um
Viewing Geometry,"30/0,30"
Resolution,5/.6-129 nm

Wavelength
305.0,0.634059
310.0,0.644429
315.0,0.655732
320.0,0.662657
325.0,0.667782
330.0,0.676115
335.0,0.679471
340.0,0.684528
345.0,0.687125
350.0,0.692806
355.0,0.696336
360.0,0.699491
365.0,0.703584
370.0,0.706513
375.0,0.709333
380.0,0.713622
385.0,0.715575
390.0,0.721605
395.0,0.722832
400.0,0.721822
405.0,0.724665
410.0,0.726774
415.0,0.729271
420.0,0.731688
425.0,0.732849
430.0,0.734971
435.0,0.734275
440.0,0.738002
445.0,0.738463
450.0,0.740868
455.0,0.742245
460.0,0.743459
465.0,0.745124
470.0,0.747174
475.0,0.748379
480.0,0.749127
485.0,0.751375
490.0,0.751308
495.0,0.754175
500.0,0.754218
505.0,0.756546
510.0,0.756615
515.0,0.758695
520.0,0.758519
525.0,0.761128
530.0,0.761372
535.0,0.763122
540.0,0.763323
545.0,0.765397
550.0,0.765257
555.0,0.766489
560.0,0.766662
565.0,0.767654
570.0,0.768019
575.0,0.768056
580.0,0.768217
585.0,0.768183
590.0,0.768446
595.0,0.768097
600.0,0.7679
605.0,0.767187
610.0,0.767276
615.0,0.767961
620.0,0.768421
625.0,0.767992
630.0,0.768613
635.0,0.76706
640.0,0.766842
645.0,0.765563
650.0,0.766503
655.0,0.767442
660.0,0.767117
665.0,0.766873
670.0,0.766809
675.0,0.766113
680.0,0.765949
685.0,0.765406
690.0,0.765942
695.0,0.765833
700.0,0.765344
705.0,0.765026
710.0,0.764662
715.0,0.764474
720.0,0.764214
725.0,0.763954
730.0,0.764428
735.0,0.764305
740.0,0.76426
745.0,0.763558
750.0,0.762786
755.0,0.763794
760.0,0.76431
765.0,0.763039
770.0,0.764912
775.0,0.763153
780.0,0.762642
785.0,0.763753
790.0,0.764464
795.0,0.761706
800.0,0.762779
805.0,0.76305
810.0,0.763547
815.0,0.761979
820.0,0.763498
825.0,0.763576
830.0,0.7622
835.0,0.762371
840.0,0.761968
845.0,0.762587
850.0,0.761707
855.0,0.761945
860.0,0.761526
865.0,0.761537
870.0,0.76182
875.0,0.761157
880.0,0.760442
885.0,0.761567
890.0,0.761542
895.0,0.760483
900.0,0.761485
905.0,0.761196
910.0,0.760731
915.0,0.761376
920.0,0.761999
925.0,0.761082
930.0,0.761239
935.0,0.761479
940.0,0.760815
945.0,0.759942
950.0,0.759932
955.0,0.75942
960.0,0.758858
965.0,0.758538
970.0,0.75821
975.0,0.757739
980.0,0.758308
985.0,0.758329
990.0,0.758598
995.0,0.758562
1000.0,0.758072
1005.0,0.758866
1010.0,0.758488
1015.0,0.759369
1020.0,0.759158
1025.0,0.759799
1030.0,0.760279
1035.0,0.75994
1040.0,0.759922
1045.0,0.760647
1050.0,0.760373
1055.0,0.759904
1060.0,0.760984
1065.0,0.760214
1070.0,0.761165
1075.0,0.760862
1080.0,0.76109
1085.0,0.760998
1090.0,0.760947
1095.0,0.760757
1100.0,0.761183
1105.0,0.760728
1110.0,0.760947
1115.0,0.760545
1120.0,0.76107
1125.0,0.759783
1130.0,0.75923
1135.0,0.759401
1140.0,0.758321
1145.0,0.757337
1150.0,0.755575
1155.0,0.754088
1160.0,0.752759
1165.0,0.751847
1170.0,0.751755
1175.0,0.751327
1180.0,0.751629
1185.0,0.752306
1190.0,0.751642
1195.0,0.752054
1200.0,0.751887
1205.0,0.751646
1210.0,0.751968
1215.0,0.75206
1220.0,0.752111
1225.0,0.752702
1230.0,0.753044
1235.0,0.753138
1240.0,0.753939
1245.0,0.754286
1250.0,0.754099
1255.0,0.754486
1260.0,0.753961
1265.0,0.754245
1270.0,0.753912
1275.0,0.753577
1280.0,0.752311
1285.0,0.752269
1290.0,0.752166
1295.0,0.751396
1300.0,0.751025
1305.0,0.750293
1310.0,0.74926
1315.0,0.748656
1320.0,0.747787
1325.0,0.746278
1330.0,0.745368
1335.0,0.743228
1340.0,0.7421
1345.0,0.739974
1350.0,0.737736
1355.0,0.737115
1360.0,0.735182
1365.0,0.730224
1370.0,0.728759
1375.0,0.726403
1380.0,0.72609
1385.0,0.717825
1390.0,0.71397
1395.0,0.70966
1400.0,0.698547
1405.0,0.687293
1410.0,0.673175
1415.0,0.661439
1420.0,0.65269
1425.0,0.646211
1430.0,0.642027
1435.0,0.638788
1440.0,0.639522
1445.0,0.640269
1450.0,0.640673
1455.0,0.642488
1460.0,0.642937
1465.0,0.642903
1470.0,0.642638
1475.0,0.642344
1480.0,0.645334
1485.0,0.649019
1490.0,0.653132
1495.0,0.657153
1500.0,0.661481
1505.0,0.665572
1510.0,0.668194
1515.0,0.672393
1520.0,0.676451
1525.0,0.678776
1530.0,0.680244
1535.0,0.683252
1540.0,0.68371
1545.0,0.684096
1550.0,0.687831
1555.0,0.688682
1560.0,0.6897
1565.0,0.689405
1570.0,0.690455
1575.0,0.69145
1580.0,0.691907
1585.0,0.692301
1590.0,0.693505
1595.0,0.692838
1600.0,0.690555
1605.0,0.690588
1610.0,0.692436
1615.0,0.692968
1620.0,0.693065
1625.0,0.69343
1630.0,0.693078
1635.0,0.692657
1640.0,0.692873
1645.0,0.693348
1650.0,0.692763
1655.0,0.693921
1660.0,0.693959
1665.0,0.69396
1670.0,0.693783
1675.0,0.694483
1680.0,0.693638
1685.0,0.694022
1690.0,0.693873
1695.0,0.693628
1700.0,0.693633
1705.0,0.692791
1710.0,0.692361
1715.0,0.691356
1720.0,0.690289
1725.0,0.688697
1730.0,0.687227
1735.0,0.685101
1740.0,0.683538
1745.0,0.68283
1750.0,0.681336
1755.0,0.680392
1760.0,0.680231
1765.0,0.679644
1770.0,0.679107
1775.0,0.678822
1780.0,0.679211
1785.0,0.679697
1790.0,0.679462
1795.0,0.680559
1800.0,0.680686
1805.0,0.680774
1810.0,0.681102
1815.0,0.681954
1820.0,0.682214
1825.0,0.681479
1830.0,0.682213
1835.0,0.68212
1840.0,0.680825
1845.0,0.677617
1850.0,0.676939
1855.0,0.67336
1860.0,0.670152
1865.0,0.665038
1870.0,0.662148
1875.0,0.642606
1880.0,0.627721
1885.0,0.613506
1890.0,0.59084
1895.0,0.560405
1900.0,0.526009
1905.0,0.482001
1910.0,0.44261
1915.0,0.413026
1920.0,0.393958
1925.0,0.38553
1930.0,0.384424
1935.0,0.385947
1940.0,0.389144
1945.0,0.393653
1950.0,0.397777
1955.0,0.4025
1960.0,0.406466
1965.0,0.411209
1970.0,0.416491
1975.0,0.421484
1980.0,0.428591
1985.0,0.436494
1990.0,0.445099
1995.0,0.453141
2000.0,0.46256
2005.0,0.471912
2010.0,0.481003
2015.0,0.490506
2020.0,0.499246
2025.0,0.50858
2030.0,0.516828
2035.0,0.523482
2040.0,0.530736
2045.0,0.537368
2050.0,0.542929
2055.0,0.547675
2060.0,0.551574
2065.0,0.555971
2070.0,0.55949
2075.0,0.563182
2080.0,0.566678
2085.0,0.57102
2090.0,0.574257
2095.0,0.578026
2100.0,0.581022
2105.0,0.584008
2110.0,0.587711
2115.0,0.59067
2120.0,0.594093
2125.0,0.597127
2130.0,0.600554
2135.0,0.60242
2140.0,0.605106
2145.0,0.606701
2150.0,0.608942
2155.0,0.610477
2160.0,0.61238
2165.0,0.613351
2170.0,0.6144
2175.0,0.615766
2180.0,0.617679
2185.0,0.618816
2190.0,0.619676
2195.0,0.621171
2200.0,0.621535
2205.0,0.62295
2210.0,0.623632
2215.0,0.624259
2220.0,0.624423
2225.0,0.625023
2230.0,0.625375
2235.0,0.625538
2240.0,0.625755
2245.0,0.62623
2250.0,0.626018
2255.0,0.625384
2260.0,0.625787
2265.0,0.62501
2270.0,0.624283
2275.0,0.623096
2280.0,0.621637
2285.0,0.61967
2290.0,0.617724
2295.0,0.616176
2300.0,0.613015
2305.0,0.610453
2310.0,0.606302
2315.0,0.602004
2320.0,0.596111
2325.0,0.590583
2330.0,0.584914
2335.0,0.5787
2340.0,0.571446
2345.0,0.563803
2350.0,0.555386
2355.0,0.547264
2360.0,0.538583
2365.0,0.530266
2370.0,0.520953
2375.0,0.511251
2380.0,0.50184
2385.0,0.491817
2390.0,0.480961
2395.0,0.470381
2400.0,0.460339
2405.0,0.449814
2410.0,0.439804
2415.0,0.429702
2420.0,0.420703
2425.0,0.411205
2430.0,0.403916
2435.0,0.397402
2440.0,0.390654
2445.0,0.385076
2450.0,0.378983
2455.0,0.373635
2460.0,0.368015
2465.0,0.362944
2470.0,0.358386
2475.0,0.354156
2480.0,0.349409
2485.0,0.346219
2490.0,0.341905
2495.0,0.339164
2500.0,0.336126
2505.0,0.333122
2510.0,0.329414
2515.0,0.327509
2520.0,0.324689
2525.0,0.321752
2530.0,0.32079
2535.0,0.318262
2540.0,0.315407
2545.0,0.316678
2550.0,0.313751
2555.0,0.312714
2560.0,0.311074
2565.0,0.309592
2570.0,0.30867
2575.0,0.309517
2580.0,0.308045
2581.74,0.307333
2583.03,0.308316
2584.31,0.307657
2585.6,0.307995
2586.89,0.307737
2588.19,0.306377
2589.48,0.306422
2590.77,0.306128
2592.07,0.305291
2593.36,0.303586
2594.66,0.302568
2595.96,0.304767
2597.26,0.307295
2598.56,0.30512
2599.87,0.303678
2601.17,0.303916
2602.48,0.303765
2603.78,0.303242
2605.09,0.302224
2606.4,0.303052
2607.71,0.303556
2609.03,0.302126
2610.34,0.302181
2611.66,0.302083
2612.97,0.300694
2614.29,0.299595
2615.61,0.299525
2616.93,0.298689
2618.25,0.298935
2619.57,0.297924
2620.9,0.296236
2622.22,0.297901
2623.55,0.297432
2624.88,0.295576
2626.21,0.294979
2627.54,0.29554
2628.87,0.295786
2630.21,0.293076
2631.54,0.292425
2632.88,0.292744
2634.21,0.290671
2635.55,0.289715
2636.89,0.288922
2638.24,0.287905
2639.58,0.287115
2640.92,0.286512
2642.27,0.286347
2643.62,0.28612
2644.97,0.285475
2646.32,0.28435
2647.67,0.283508
2649.02,0.282288
2650.38,0.280995
2651.73,0.279905
2653.09,0.279491
2654.45,0.278981
2655.81,0.278068
2657.17,0.277341
2658.53,0.275838
2659.89,0.273515
2661.26,0.272975
2662.63,0.27261
2664.0,0.271291
2665.36,0.269227
2666.74,0.268516
2668.11,0.267258
2669.48,0.265385
2670.86,0.262939
2672.23,0.262959
2673.61,0.261915
2674.99,0.259246
2676.37,0.257943
2677.76,0.256782
2679.14,0.255721
2680.52,0.253936
2681.91,0.252619
2683.3,0.250287
2684.69,0.249067
2686.08,0.24786
2687.47,0.245415
2688.87,0.243144
2690.26,0.241185
2691.66,0.239793
2693.06,0.237678
2694.46,0.235878
2695.86,0.234995
2697.26,0.232402
2698.66,0.229371
2700.07,0.226579
2701.48,0.225085
2702.89,0.223314
2704.3,0.220819
2705.71,0.218492
2707.12,0.216108
2708.53,0.212924
2709.95,0.210138
2711.37,0.207162
2712.79,0.204587
2714.21,0.201723
2715.63,0.199434
2717.05,0.196896
2718.48,0.193737
2719.9,0.190191
2721.33,0.187219
2722.76,0.18439
2724.19,0.17985
2725.62,0.176237
2727.06,0.173839
2728.49,0.169593
2729.93,0.165015
2731.37,0.162047
2732.81,0.159239
2734.25,0.155361
2735.69,0.151335
2737.14,0.147369
2738.58,0.143199
2740.03,0.139602
2741.48,0.135989
2742.93,0.131888
2744.38,0.128083
2745.83,0.124725
2747.29,0.121568
2748.75,0.118482
2750.2,0.115486
2751.66,0.112229
2753.13,0.108895
2754.59,0.105079
2756.05,0.101584
2757.52,0.098654
2758.99,0.096133
2760.46,0.094384
2761.93,0.091957
2763.4,0.088771
2764.87,0.086262
2766.35,0.08387
2767.82,0.081848
2769.3,0.079815
2770.78,0.078253
2772.26,0.076608
2773.75,0.074698
2775.23,0.072149
2776.72,0.070522
2778.21,0.069641
2779.7,0.068295
2781.19,0.067164
2782.68,0.066548
2784.18,0.064872
2785.67,0.063595
2787.17,0.063031
2788.67,0.062195
2790.17,0.062068
2791.67,0.061758
2793.18,0.061176
2794.68,0.060732
2796.19,0.060527
2797.7,0.060251
2799.21,0.059768
2800.72,0.059522
2802.24,0.059151
2803.75,0.058482
2805.27,0.058904
2806.79,0.059468
2808.31,0.059088
2809.83,0.058719
2811.35,0.058369
2812.88,0.058525
2814.41,0.058598
2815.93,0.057788
2817.46,0.057271
2819.0,0.056903
2820.53,0.056363
2822.07,0.056238
2823.6,0.056507
2825.14,0.056971
2826.68,0.056837
2828.22,0.056256
2829.77,0.05614
2831.31,0.056372
2832.86,0.056646
2834.41,0.055769
2835.96,0.054822
2837.51,0.055079
2839.07,0.054768
2840.62,0.054256
2842.18,0.053918
2843.74,0.053738
2845.3,0.053821
2846.86,0.054091
2848.43,0.054197
2849.99,0.05381
2851.56,0.053013
2853.13,0.052643
2854.7,0.052919
2856.27,0.053034
2857.85,0.052324
2859.42,0.051581
2861.0,0.051528
2862.58,0.051248
2864.16,0.051205
2865.75,0.051836
2867.33,0.051713
2868.92,0.051292
2870.51,0.05131
2872.1,0.050883
2873.69,0.050337
2875.28,0.050394
2876.88,0.050008
2878.48,0.049997
2880.07,0.050752
2881.68,0.050939
2883.28,0.050832
2884.88,0.050937
2886.49,0.05125
2888.1,0.051278
2889.71,0.051091
2891.32,0.051247
2892.93,0.051285
2894.55,0.051323
2896.16,0.051226
2897.78,0.051233
2899.4,0.050901
2901.03,0.050634
2902.65,0.050977
2904.28,0.051264
2905.91,0.052037
2907.54,0.052718
2909.17,0.05261
2910.8,0.052036
2912.44,0.051558
2914.07,0.051052
2915.71,0.050809
2917.35,0.051187
2918.99,0.051838
2920.64,0.052124
2922.29,0.051448
2923.93,0.0519
2925.58,0.052584
2927.24,0.052393
2928.89,0.052185
2930.55,0.052424
2932.2,0.052089
2933.86,0.052201
2935.52,0.052737
2937.19,0.052615
2938.85,0.052801
2940.52,0.053097
2942.19,0.052861
2943.86,0.052969
2945.53,0.053201
2947.21,0.05327
2948.88,0.053484
2950.56,0.053677
2952.24,0.053227
2953.92,0.053227
2955.61,0.053511
2957.29,0.053477
2958.98,0.054095
2960.67,0.054403
2962.36,0.054331
2964.06,0.054225
2965.75,0.054281
2967.45,0.054581
2969.15,0.054692
2970.85,0.054478
2972.55,0.054586
2974.26,0.054645
2975.97,0.054973
2977.68,0.055779
2979.39,0.05579
2981.1,0.055893
2982.82,0.055944
2984.53,0.055815
2986.25,0.056018
2987.97,0.056107
2989.7,0.055653
2991.42,0.055946
2993.15,0.05624
2994.88,0.056491
2996.61,0.056759
2998.34,0.057089
3000.08,0.057551
3001.82,0.057681
3003.55,0.05768
3005.3,0.057291
3007.04,0.056814
3008.78,0.057027
3010.53,0.057569
3012.28,0.058197
3014.03,0.058879
3015.79,0.059024
3017.54,0.058645
3019.3,0.058711
3021.06,0.058777
3022.82,0.058735
3024.58,0.058761
3026.35,0.058809
3028.12,0.058798
3029.89,0.058697
3031.66,0.059014
3033.43,0.059549
3035.21,0.059352
3036.99,0.059435
3038.77,0.059829
3040.55,0.060143
3042.33,0.060047
3044.12,0.05961
3045.91,0.059555
3047.7,0.059752
3049.49,0.059624
3051.29,0.059304
3053.08,0.059326
3054.88,0.059655
3056.68,0.060131
3058.49,0.060226
3060.29,0.059858
3062.1,0.059707
3063.91,0.059493
3065.72,0.059291
3067.54,0.059359
3069.35,0.059506
3071.17,0.059663
3072.99,0.059915
3074.81,0.060206
3076.64,0.060555
3078.47,0.060801
3080.29,0.060218
3082.13,0.059764
3083.96,0.059821
3085.79,0.059521
3087.63,0.059934
3089.47,0.060578
3091.31,0.060657
3093.16,0.060716
3095.01,0.060838
3096.85,0.060688
3098.71,0.060941
3100.56,0.060986
3102.41,0.061006
3104.27,0.061141
3106.13,0.060886
3107.99,0.060953
3109.86,0.061385
3111.73,0.061406
3113.59,0.061649
3115.47,0.061883
3117.34,0.061912
3119.21,0.06254
3121.09,0.062826
3122.97,0.062408
3124.86,0.062327
3126.74,0.062729
3128.63,0.063465
3130.52,0.06377
3132.41,0.063699
3134.3,0.063903
3136.2,0.064113
3138.1,0.06432
3140.0,0.064261
3141.9,0.064319
3143.81,0.064671
3145.71,0.06459
3147.62,0.064464
3149.54,0.064825
3151.45,0.06521
3153.37,0.065201
3155.29,0.06522
3157.21,0.065852
3159.13,0.066169
3161.06,0.065964
3162.99,0.066201
3164.92,0.066474
3166.85,0.066484
3168.79,0.066687
3170.72,0.066921
3172.67,0.067184
3174.61,0.06741
3176.55,0.067511
3178.5,0.067732
3180.45,0.068027
3182.4,0.068315
3184.36,0.068274
3186.32,0.068605
3188.27,0.068653
3190.24,0.068579
3192.2,0.069045
3194.17,0.068904
3196.14,0.068919
3198.11,0.069876
3200.08,0.070197
3202.06,0.069846
3204.04,0.070178
3206.02,0.07081
3208.0,0.071313
3209.99,0.071394
3211.98,0.071233
3213.97,0.071664
3215.96,0.071805
3217.96,0.071587
3219.96,0.071754
3221.96,0.072022
3223.96,0.07245
3225.97,0.072674
3227.98,0.07275
3229.99,0.073018
3232.0,0.073549
3234.02,0.073878
3236.04,0.074056
3238.06,0.074122
3240.08,0.074458
3242.11,0.074911
3244.14,0.075401
3246.17,0.07529
3248.2,0.075028
3250.24,0.075186
3252.28,0.075571
3254.32,0.076034
3256.37,0.076375
3258.41,0.076437
3260.46,0.076523
3262.51,0.076993
3264.57,0.077448
3266.63,0.077889
3268.69,0.077938
3270.75,0.078286
3272.81,0.079037
3274.88,0.07935
3276.95,0.079251
3279.02,0.079178
3281.1,0.079623
3283.18,0.080251
3285.26,0.080477
3287.34,0.080478
3289.43,0.080664
3291.51,0.081042
3293.61,0.081476
3295.7,0.081838
3297.8,0.08215
3299.9,0.082289
3302.0,0.082446
3304.1,0.082892
3306.21,0.083248
3308.32,0.083697
3310.43,0.083913
3312.55,0.084344
3314.66,0.084692
3316.79,0.084993
3318.91,0.085558
3321.03,0.085971
3323.16,0.085929
3325.29,0.085814
3327.43,0.086502
3329.57,0.08687
3331.71,0.087178
3333.85,0.087866
3335.99,0.088342
3338.14,0.088403
3340.29,0.088605
3342.45,0.08864
3344.6,0.088882
3346.76,0.089601
3348.92,0.090199
3351.09,0.090488
3353.26,0.090721
3355.43,0.091005
3357.6,0.091172
3359.78,0.091658
3361.96,0.092292
3364.14,0.092736
3366.32,0.093179
3368.51,0.093437
3370.7,0.093564
3372.89,0.094085
3375.09,0.095047
3377.29,0.095958
3379.49,0.09656
3381.69,0.096812
3383.9,0.097143
3386.11,0.097452
3388.32,0.097414
3390.54,0.097711
3392.76,0.098662
3394.98,0.099361
3397.21,0.099618
3399.43,0.100111
3401.66,0.100803
3403.9,0.101001
3406.13,0.101147
3408.37,0.101593
3410.61,0.102609
3412.86,0.103349
3415.11,0.103555
3417.36,0.104437
3419.61,0.105139
3421.87,0.105563
3424.13,0.105633
3426.39,0.105951
3428.66,0.106846
3430.93,0.107542
3433.2,0.107904
3435.48,0.108253
3437.76,0.108417
3440.04,0.108876
3442.32,0.109255
3444.61,0.109673
3446.9,0.110338
3449.19,0.110771
3451.49,0.111253
3453.79,0.111619
3456.09,0.112105
3458.4,0.112863
3460.7,0.113566
3463.02,0.114152
3465.33,0.114378
3467.65,0.11454
3469.97,0.115277
3472.29,0.116108
3474.62,0.116501
3476.95,0.116886
3479.29,0.117419
3481.62,0.118168
3483.96,0.118452
3486.3,0.118868
3488.65,0.11975
3491.0,0.120324
3493.35,0.120678
3495.71,0.121223
3498.07,0.121768
3500.43,0.122823
3502.79,0.123536
3505.16,0.123466
3507.53,0.123784
3509.91,0.124509
3512.29,0.125319
3514.67,0.126058
3517.05,0.126454
3519.44,0.126672
3521.83,0.127217
3524.23,0.127822
3526.62,0.128459
3529.02,0.12898
3531.43,0.129416
3533.83,0.130144
3536.24,0.130638
3538.66,0.131303
3541.08,0.13197
3543.5,0.132058
3545.92,0.132367
3548.35,0.133189
3550.78,0.133973
3553.21,0.134465
3555.65,0.135098
3558.09,0.135802
3560.53,0.136365
3562.98,0.137028
3565.43,0.137562
3567.88,0.137936
3570.34,0.138349
3572.8,0.139319
3575.27,0.139892
3577.73,0.140421
3580.2,0.141058
3582.68,0.14145
3585.16,0.142178
3587.64,0.142929
3590.12,0.143328
3592.61,0.143869
3595.1,0.144465
3597.6,0.144912
3600.09,0.14541
3602.6,0.146212
3605.1,0.146815
3607.61,0.147683
3610.12,0.14845
3612.64,0.148597
3615.16,0.148595
3617.68,0.14913
3620.21,0.149861
3622.74,0.150821
3625.27,0.151679
3627.81,0.152028
3630.35,0.152385
3632.89,0.152954
3635.44,0.15355
3637.99,0.154186
3640.54,0.155101
3643.1,0.155918
3645.66,0.156537
3648.23,0.157012
3650.8,0.157726
3653.37,0.158076
3655.95,0.158505
3658.53,0.159309
3661.11,0.160022
3663.7,0.160569
3666.29,0.161104
3668.89,0.161655
3671.48,0.162319
3674.09,0.163002
3676.69,0.163583
3679.3,0.164262
3681.91,0.164977
3684.53,0.165505
3687.15,0.166103
3689.78,0.16655
3692.4,0.167064
3695.04,0.167737
3697.67,0.168097
3700.31,0.168844
3702.95,0.169735
3705.6,0.170461
3708.25,0.170943
3710.91,0.171607
3713.56,0.172134
3716.23,0.172639
3718.89,0.173307
3721.56,0.173932
3724.23,0.174224
3726.91,0.174916
3729.59,0.175749
3732.28,0.176313
3734.97,0.176666
3737.66,0.177078
3740.36,0.177842
3743.06,0.178358
3745.76,0.178996
3748.47,0.179736
3751.18,0.180485
3753.9,0.181011
3756.62,0.181067
3759.34,0.181442
3762.07,0.182316
3764.8,0.183356
3767.54,0.183952
3770.28,0.184293
3773.02,0.18473
3775.77,0.185291
3778.52,0.186138
3781.28,0.186726
3784.04,0.18727
3786.8,0.187969
3789.57,0.188377
3792.34,0.188985
3795.12,0.189649
3797.9,0.190167
3800.69,0.190511
3803.47,0.191013
3806.27,0.191584
3809.06,0.192115
3811.86,0.192804
3814.67,0.193344
3817.48,0.193884
3820.29,0.194363
3823.11,0.195033
3825.93,0.195494
3828.76,0.195774
3831.59,0.196292
3834.42,0.197065
3837.26,0.197626
3840.1,0.198252
3842.95,0.198877
3845.8,0.19914
3848.65,0.19941
3851.51,0.199797
3854.38,0.200305
3857.24,0.2009
3860.12,0.20161
3862.99,0.201969
3865.87,0.202313
3868.76,0.203047
3871.65,0.20397
3874.54,0.204531
3877.44,0.204769
3880.34,0.205149
3883.25,0.205706
3886.16,0.206145
3889.07,0.206586
3891.99,0.206999
3894.92,0.207646
3897.85,0.208261
3900.78,0.208742
3903.72,0.209267
3906.66,0.209769
3909.6,0.210257
3912.55,0.210644
3915.51,0.210914
3918.47,0.211192
3921.43,0.211706
3924.4,0.212178
3927.38,0.212453
3930.35,0.21282
3933.33,0.213432
3936.32,0.213814
3939.31,0.21416
3942.31,0.21467
3945.31,0.215001
3948.31,0.21503
3951.32,0.215185
3954.34,0.215753
3957.35,0.216308
3960.38,0.216425
3963.41,0.216623
3966.44,0.217045
3969.48,0.217386
3972.52,0.217608
3975.56,0.217767
3978.61,0.218072
3981.67,0.218296
3984.73,0.218586
3987.8,0.218871
3990.87,0.219326
3993.94,0.220003
3997.02,0.220343
4000.1,0.220582
4003.19,0.221079
4006.29,0.2215
4009.39,0.221992
4012.49,0.222302
4015.6,0.222405
4018.71,0.222739
4021.83,0.223336
4024.95,0.223688
4028.08,0.223994
4031.21,0.224232
4034.35,0.224561
4037.49,0.224566
4040.64,0.224622
4043.79,0.225193
4046.94,0.225809
4050.11,0.225921
4053.27,0.226095
4056.44,0.226464
4059.62,0.226759
4062.8,0.226852
4065.99,0.227042
4069.18,0.227145
4072.38,0.226992
4075.58,0.226972
4078.78,0.227306
4082.0,0.227463
4085.21,0.227645
4088.43,0.228091
4091.66,0.228182
4094.89,0.228027
4098.13,0.227999
4101.37,0.228157
4104.62,0.228236
4107.87,0.22825
4111.13,0.22819
4114.39,0.228175
4117.66,0.22839
4120.93,0.228628
4124.21,0.228763
4127.5,0.228788
4130.79,0.228734
4134.08,0.228787
4137.38,0.228958
4140.68,0.228909
4143.99,0.229101
4147.31,0.229217
4150.63,0.229232
4153.95,0.229128
4157.29,0.228899
4160.62,0.228896
4163.96,0.228871
4167.31,0.228956
4170.66,0.229108
4174.02,0.229116
4177.39,0.229232
4180.75,0.22921
4184.13,0.229219
4187.51,0.229249
4190.89,0.22906
4194.28,0.228939
4197.68,0.229097
4201.08,0.229243
4204.49,0.229258
4207.9,0.229143
4211.32,0.22919
4214.74,0.229072
4218.17,0.228799
4221.61,0.228682
4225.05,0.228575
4228.5,0.228438
4231.95,0.228376
4235.4,0.228114
4238.87,0.227718
4242.34,0.227348
4245.81,0.227392
4249.29,0.227487
4252.78,0.227609
4256.27,0.227587
4259.77,0.22789
4263.27,0.228282
4266.78,0.228192
4270.29,0.228009
4273.81,0.227937
4277.34,0.227468
4280.87,0.227438
4284.41,0.227758
4287.95,0.227665
4291.5,0.227403
4295.06,0.227326
4298.62,0.227176
4302.19,0.227075
4305.76,0.227053
4309.34,0.22695
4312.92,0.226705
4316.52,0.226667
4320.11,0.22674
4323.72,0.226687
4327.32,0.226618
4330.94,0.226311
4334.56,0.226178
4338.19,0.226358
4341.82,0.22621
4345.46,0.225906
4349.11,0.2257
4352.76,0.225682
4356.42,0.225529
4360.08,0.225217
4363.75,0.225071
4367.43,0.224874
4371.11,0.224585
4374.8,0.22435
4378.49,0.224142
4382.19,0.223964
4385.9,0.223832
4389.61,0.223646
4393.33,0.223306
4397.06,0.22323
4400.79,0.22318
4404.53,0.222995
4408.28,0.2226
4412.03,0.221975
4415.79,0.221761
4419.55,0.22168
4423.32,0.221504
4427.1,0.22137
4430.88,0.221059
4434.68,0.22086
4438.47,0.220727
4442.28,0.220486
4446.08,0.220131
4449.9,0.219701
4453.72,0.219373
4457.55,0.219183
4461.39,0.219059
4465.23,0.218863
4469.08,0.218459
4472.94,0.218168
4476.8,0.21796
4480.67,0.21775
4484.55,0.217538
4488.43,0.217345
4492.32,0.217186
4496.21,0.217085
4500.12,0.21676
4504.03,0.216357
4507.94,0.216052
4511.87,0.215967
4515.8,0.215844
4519.73,0.215586
4523.68,0.215241
4527.63,0.214972
4531.59,0.214685
4535.55,0.214496
4539.52,0.214286
4543.5,0.214094
4547.49,0.214085
4551.48,0.213934
4555.48,0.21355
4559.49,0.213578
4563.5,0.213602
4567.52,0.213497
4571.55,0.213377
4575.58,0.213365
4579.63,0.213316
4583.67,0.213303
4587.73,0.213208
4591.79,0.213158
4595.86,0.213045
4599.94,0.212955
4604.03,0.212983
4608.12,0.213236
4612.22,0.213346
4616.33,0.213308
4620.44,0.213339
4624.56,0.21339
4628.69,0.213497
4632.83,0.21364
4636.97,0.213599
4641.12,0.213856
4645.28,0.214155
4649.45,0.2142
4653.62,0.214169
4657.8,0.214312
4661.99,0.214576
4666.19,0.21473
4670.39,0.214945
4674.6,0.215125
4678.82,0.215186
4683.05,0.21535
4687.28,0.21548
4691.52,0.215645
4695.77,0.215706
4700.03,0.215852
4704.3,0.216164
4708.57,0.216472
4712.85,0.216407
4717.14,0.216448
4721.43,0.216626
4725.74,0.216889
4730.05,0.217097
4734.37,0.217256
4738.7,0.217328
4743.03,0.217478
4747.38,0.217718
4751.73,0.217895
4756.09,0.218098
4760.45,0.218439
4764.83,0.218674
4769.21,0.218796
4773.6,0.218801
4778.0,0.219077
4782.41,0.219322
4786.83,0.219501
4791.25,0.219763
4795.68,0.220015
4800.13,0.219939
4804.57,0.220086
4809.03,0.220359
4813.5,0.220704
4817.97,0.220986
4822.45,0.221004
4826.94,0.221075
4831.44,0.221394
4835.95,0.221465
4840.46,0.221672
4844.99,0.222049
4849.52,0.222189
4854.06,0.222379
4858.61,0.222618
4863.17,0.222728
4867.73,0.222864
4872.31,0.222983
4876.89,0.223055
4881.48,0.223242
4886.08,0.223621
4890.69,0.223927
4895.31,0.224127
4899.94,0.224151
4904.57,0.224451
4909.22,0.22457
4913.87,0.224713
4918.53,0.225048
4923.21,0.22519
4927.88,0.225159
4932.57,0.225293
4937.27,0.225599
4941.98,0.225876
4946.69,0.225958
4951.42,0.225992
4956.15,0.2261
4960.9,0.226379
4965.65,0.226676
4970.41,0.226908
4975.18,0.227003
4979.96,0.227091
4984.75,0.227167
4989.54,0.22743
4994.35,0.22763
4999.17,0.227908
5003.99,0.228207
5008.83,0.228309
5013.67,0.228559
5018.52,0.228788
5023.39,0.228994
5028.26,0.229468
5033.14,0.229699
5038.03,0.22987
5042.93,0.229958
5047.84,0.230312
5052.76,0.230653
5057.69,0.230782
5062.63,0.230997
5067.58,0.231446
5072.54,0.231597
5077.51,0.231795
5082.49,0.231977
5087.47,0.232127
5092.47,0.232216
5097.48,0.232501
5102.5,0.232787
5107.52,0.232713
5112.56,0.232761
5117.61,0.233084
5122.66,0.233237
5127.73,0.233259
5132.81,0.23335
5137.89,0.233399
5142.99,0.233522
5148.1,0.233825
5153.22,0.23395
5158.34,0.233942
5163.48,0.233878
5168.63,0.234041
5173.79,0.234228
5178.96,0.234305
5184.13,0.234372
5189.32,0.234677
5194.52,0.234787
5199.73,0.234808
5204.96,0.234992
5210.19,0.234992
5215.43,0.234926
5220.68,0.234922
5225.94,0.234962
5231.22,0.235072
5236.5,0.235029
5241.79,0.235062
5247.1,0.234966
5252.42,0.23483
5257.74,0.234777
5263.08,0.234767
5268.43,0.23459
5273.79,0.234469
5279.16,0.234164
5284.54,0.23404
5289.93,0.234014
5295.34,0.233896
5300.75,0.233452
5306.18,0.233152
5311.61,0.232965
5317.06,0.232764
5322.52,0.232377
5327.99,0.232155
5333.47,0.23186
5338.96,0.231551
5344.47,0.231191
5349.98,0.230909
5355.51,0.230617
5361.05,0.230337
5366.6,0.230151
5372.16,0.229883
5377.73,0.229449
5383.32,0.229033
5388.91,0.228718
5394.52,0.22845
5400.14,0.228172
5405.77,0.227882
5411.41,0.227411
5417.07,0.226941
5422.74,0.226447
5428.41,0.225942
5434.1,0.225451
5439.81,0.225063
5445.52,0.224515
5451.25,0.223924
5456.98,0.223368
5462.73,0.222916
5468.5,0.222333
5474.27,0.221727
5480.06,0.221125
5485.86,0.22051
5491.67,0.219875
5497.49,0.21925
5503.33,0.218545
5509.18,0.217975
5515.04,0.217335
5520.91,0.21664
5526.8,0.215697
5532.69,0.214691
5538.61,0.213748
5544.53,0.212881
5550.47,0.211733
5556.41,0.210441
5562.38,0.208986
5568.35,0.20774
5574.34,0.206705
5580.34,0.205653
5586.35,0.204645
5592.38,0.204037
5598.42,0.203489
5604.47,0.202696
5610.54,0.201774
5616.61,0.200836
5622.71,0.199819
5628.81,0.19861
5634.93,0.197197
5641.06,0.195936
5647.21,0.194621
5653.36,0.193225
5659.54,0.19189
5665.72,0.190536
5671.92,0.188956
5678.13,0.187425
5684.36,0.18582
5690.6,0.184199
5696.85,0.182445
5703.12,0.180676
5709.4,0.179062
5715.69,0.177354
5722.0,0.175497
5728.33,0.173693
5734.66,0.171746
5741.01,0.169771
5747.38,0.167601
5753.76,0.165469
5760.15,0.163134
5766.56,0.160822
5772.98,0.158313
5779.41,0.155642
5785.86,0.152956
5792.33,0.150418
5798.81,0.148063
5805.3,0.145445
5811.81,0.142713
5818.33,0.139984
5824.87,0.137202
5831.42,0.13451
5837.99,0.132033
5844.57,0.129524
5851.17,0.126945
5857.78,0.124378
5864.41,0.121667
5871.05,0.118975
5877.7,0.116376
5884.38,0.113703
5891.06,0.110822
5897.76,0.108004
5904.48,0.105087
5911.21,0.102285
5917.96,0.09916
5924.73,0.095945
5931.5,0.092928
5938.3,0.089786
5945.11,0.086365
5951.93,0.083175
5958.78,0.080134
5965.63,0.076866
5972.51,0.073739
5979.39,0.070658
5986.3,0.067546
5993.22,0.064582
6000.16,0.061796
6007.11,0.059357
6014.08,0.057275
6021.06,0.055342
6028.06,0.053429
6035.08,0.051642
6042.12,0.050081
6049.17,0.048877
6056.23,0.047705
6063.32,0.047028
6070.42,0.046652
6077.53,0.046264
6084.67,0.04589
6091.82,0.045898
6098.98,0.046158
6106.17,0.046411
6113.37,0.046989
6120.58,0.047802
6127.82,0.048959
6135.07,0.050676
6142.34,0.052496
6149.63,0.054547
6156.93,0.056975
6164.25,0.059752
6171.59,0.062835
6178.95,0.065939
6186.32,0.069192
6193.71,0.072515
6201.12,0.075676
6208.54,0.078649
6215.99,0.081647
6223.45,0.084381
6230.93,0.086955
6238.43,0.089254
6245.95,0.091328
6253.48,0.093178
6261.03,0.094816
6268.6,0.096375
6276.19,0.097822
6283.8,0.099168
6291.43,0.1005
6299.07,0.101705
6306.73,0.102866
6314.42,0.103995
6322.12,0.104903
6329.84,0.105661
6337.57,0.106484
6345.33,0.107226
6353.11,0.107945
6360.9,0.108735
6368.72,0.109563
6376.55,0.110237
6384.4,0.110693
6392.27,0.111109
6400.17,0.11164
6408.08,0.112103
6416.01,0.112561
6423.96,0.112791
6431.93,0.113062
6439.92,0.113317
6447.93,0.113389
6455.96,0.11342
6464.01,0.113441
6472.08,0.113618
6480.17,0.113802
6488.28,0.113887
6496.41,0.113973
6504.56,0.114022
6512.73,0.114247
6520.92,0.114555
6529.14,0.114847
6537.37,0.114961
6545.63,0.115232
6553.9,0.11566
6562.2,0.116067
6570.51,0.116419
6578.85,0.116724
6587.21,0.117142
6595.59,0.117681
6603.99,0.118157
6612.42,0.118729
6620.86,0.119115
6629.33,0.119424
6637.82,0.119796
6646.33,0.120058
6654.86,0.120425
6663.41,0.121018
6671.99,0.12146
6680.59,0.121883
6689.21,0.122211
6697.85,0.122503
6706.51,0.122926
6715.2,0.123362
6723.91,0.123635
6732.64,0.123749
6741.4,0.123857
6750.18,0.124268
6758.98,0.1246
6767.8,0.124747
6776.65,0.124818
6785.52,0.124914
6794.41,0.125008
6803.33,0.125154
6812.27,0.125438
6821.23,0.125567
6830.22,0.125601
6839.23,0.125657
6848.26,0.125745
6857.32,0.125873
6866.4,0.125777
6875.51,0.125668
6884.64,0.125827
6893.8,0.125959
6902.98,0.12599
6912.18,0.126071
6921.41,0.126124
6930.66,0.1262
6939.94,0.126261
6949.24,0.126233
6958.57,0.126211
6967.92,0.12614
6977.3,0.126079
6986.7,0.126276
6996.13,0.126451
7005.59,0.126438
7015.07,0.126389
7024.57,0.126529
7034.1,0.12676
7043.66,0.126814
7053.25,0.12687
7062.85,0.126966
7072.49,0.127105
7082.15,0.127373
7091.84,0.127616
7101.55,0.127708
7111.3,0.127706
7121.06,0.127783
7130.86,0.127696
7140.68,0.12753
7150.53,0.127359
7160.41,0.127177
7170.31,0.127026
7180.24,0.126821
7190.2,0.126653
7200.19,0.126532
7210.2,0.126267
7220.24,0.125954
7230.31,0.125591
7240.41,0.125229
7250.54,0.124958
7260.69,0.124648
7270.88,0.124208
7281.09,0.123761
7291.33,0.12345
7301.6,0.123158
7311.9,0.122765
7322.22,0.122246
7332.58,0.12187
7342.97,0.121492
7353.38,0.120882
7363.83,0.120342
7374.3,0.119695
7384.81,0.119034
7395.34,0.118488
7405.91,0.117976
7416.5,0.117432
7427.13,0.116805
7437.78,0.116075
7448.47,0.115259
7459.19,0.114539
7469.94,0.113727
7480.71,0.112799
7491.52,0.111961
7502.37,0.111056
7513.24,0.110004
7524.14,0.109016
7535.08,0.108055
7546.05,0.106993
7557.05,0.105869
7568.08,0.104741
7579.15,0.103636
7590.24,0.102525
7601.37,0.101289
7612.53,0.100082
7623.73,0.099124
7634.96,0.098117
7646.22,0.096925
7657.51,0.095755
7668.84,0.094657
7680.2,0.093349
7691.59,0.092013
7703.02,0.090795
7714.49,0.0895
7725.98,0.088302
7737.52,0.087119
7749.08,0.085772
7760.68,0.084356
7772.32,0.082996
7783.99,0.081411
7795.69,0.079846
7807.43,0.078456
7819.21,0.076928
7831.02,0.075222
7842.87,0.073716
7854.75,0.072319
7866.67,0.070753
7878.62,0.069112
7890.62,0.067534
7902.64,0.065972
7914.71,0.064311
7926.81,0.062544
7938.95,0.060857
7951.13,0.059282
7963.34,0.057648
7975.59,0.055851
7987.88,0.054099
8000.21,0.052433
8012.57,0.050816
8024.98,0.049091
8037.42,0.0475
8049.9,0.045886
8062.42,0.044249
8074.98,0.042549
8087.57,0.040959
8100.21,0.03945
8112.89,0.037945
8125.6,0.0364
8138.36,0.034852
8151.16,0.033559
8163.99,0.032194
8176.87,0.030765
8189.79,0.02953
8202.75,0.028467
8215.75,0.027441
8228.79,0.026376
8241.87,0.025378
8254.99,0.024541
8268.16,0.023705
8281.37,0.022952
8294.62,0.022579
8307.91,0.02229
8321.24,0.021965
8334.62,0.021797
8348.04,0.021896
8361.51,0.022108
8375.02,0.022506
8388.57,0.022883
8402.16,0.023388
8415.8,0.024275
8429.49,0.025396
8443.22,0.026389
8456.99,0.027442
8470.81,0.028623
8484.67,0.029947
8498.58,0.03145
8512.54,0.032982
8526.54,0.034512
8540.58,0.036012
8554.68,0.037291
8568.82,0.038719
8583.0,0.040347
8597.24,0.041905
8611.52,0.043364
8625.85,0.044942
8640.23,0.046618
8654.65,0.048292
8669.12,0.049901
8683.64,0.051295
8698.21,0.052788
8712.83,0.054366
8727.5,0.055949
8742.22,0.057387
8756.99,0.05879
8771.8,0.060222
8786.67,0.061623
8801.59,0.063022
8816.56,0.064467
8831.58,0.065867
8846.65,0.067214
8861.77,0.068407
8876.94,0.06936
8892.17,0.070052
8907.45,0.070728
8922.78,0.071143
8938.16,0.071388
8953.6,0.071395
8969.09,0.071272
8984.64,0.071197
9000.23,0.07103
9015.89,0.070701
9031.59,0.070211
9047.36,0.069896
9063.17,0.069694
9079.05,0.069559
9094.97,0.069363
9110.96,0.068956
9127.0,0.068346
9143.1,0.06773
9159.25,0.067141
9175.46,0.066563
9191.73,0.065973
9208.06,0.065529
9224.44,0.064678
9240.88,0.063687
9257.38,0.062926
9273.94,0.06223
9290.56,0.061541
9307.24,0.061002
9323.98,0.060871
9340.78,0.060992
9357.64,0.061031
9374.57,0.061203
9391.55,0.061537
9408.59,0.061885
9425.7,0.062206
9442.87,0.062681
9460.1,0.063216
9477.4,0.063759
9494.75,0.064628
9512.17,0.065522
9529.66,0.0662
9547.21,0.067207
9564.83,0.068246
9582.5,0.069231
9600.25,0.070395
9618.06,0.071589
9635.94,0.072642
9653.88,0.073949
9671.89,0.075318
9689.97,0.076468
9708.12,0.077393
9726.33,0.078161
9744.62,0.078628
9762.97,0.078796
9781.39,0.079025
9799.88,0.079269
9818.44,0.079389
9837.07,0.079431
9855.77,0.079428
9874.54,0.079235
9893.39,0.078906
9912.3,0.07879
9931.29,0.07872
9950.36,0.078839
9969.49,0.079099
9988.7,0.079207
10007.98,0.079356
10027.34,0.079539
10046.77,0.079605
10066.28,0.079555
10085.87,0.079323
10105.53,0.078953
10125.26,0.078307
10145.08,0.077605
10164.97,0.077102
10184.94,0.076465
10204.99,0.075705
10225.12,0.074987
10245.33,0.074222
10265.61,0.073537
10285.98,0.073035
10306.43,0.07272
10326.96,0.072501
10347.57,0.072351
10368.27,0.07228
10389.05,0.072599
10409.91,0.073014
10430.86,0.073376
10451.88,0.073906
10473.0,0.074368
10494.2,0.074636
10515.49,0.074872
10536.86,0.07507
10558.32,0.075256
10579.87,0.075196
10601.5,0.075243
10623.23,0.075372
10645.04,0.075411
10666.94,0.07536
10688.94,0.075004
10711.02,0.0746
10733.2,0.074299
10755.47,0.074214
10777.83,0.074319
10800.28,0.074299
10822.83,0.074262
10845.47,0.074158
10868.21,0.074087
10891.04,0.074118
10913.97,0.074028
10936.99,0.074068
10960.12,0.074485
10983.34,0.07505
11006.66,0.07563
11030.07,0.076387
11053.59,0.077416
11077.21,0.078394
11100.93,0.079257
11124.75,0.080313
11148.68,0.081598
11172.71,0.082746
11196.84,0.083788
11221.07,0.084777
11245.41,0.08588
11269.86,0.086689
11294.41,0.087208
11319.07,0.087875
11343.84,0.088706
11368.72,0.089647
11393.7,0.090834
11418.8,0.092058
11444.01,0.093596
11469.33,0.095359
11494.76,0.096941
11520.3,0.098532
11545.96,0.10009
11571.73,0.101458
11597.62,0.102575
11623.62,0.103309
11649.74,0.104006
11675.98,0.104721
11702.34,0.105266
11728.81,0.105687
11755.41,0.105892
11782.13,0.105732
11808.96,0.105355
11835.92,0.105162
11863.01,0.105032
11890.22,0.104995
11917.55,0.104532
11945.01,0.103813
11972.6,0.102865
12000.31,0.101893
12028.16,0.100872
12056.13,0.099486
12084.23,0.097914
12112.46,0.096395
12140.83,0.094778
12169.33,0.092775
12197.96,0.090542
12226.73,0.088322
12255.64,0.08597
12284.68,0.083494
12313.86,0.081007
12343.18,0.078424
12372.64,0.075787
12402.24,0.073464
12431.98,0.071487
12461.86,0.069487
12491.89,0.067616
12522.07,0.065778
12552.38,0.064058
12582.85,0.062516
12613.47,0.060955
12644.23,0.059393
12675.15,0.058049
12706.21,0.056834
12737.43,0.055899
12768.81,0.055491
12800.33,0.055479
12832.02,0.055671
12863.86,0.055768
12895.86,0.055763
12928.02,0.05582
12960.34,0.056013
12992.82,0.056344
13025.46,0.056427
13058.27,0.056124
13091.25,0.055878
13124.39,0.055924
13157.7,0.055843
13191.18,0.055627
13224.83,0.055407
13258.66,0.055165
13292.65,0.054937
13326.83,0.054539
13361.17,0.054244
13395.7,0.053935
13430.4,0.053611
13465.29,0.053237
13500.35,0.052904
13535.6,0.052674
13571.03,0.052221
13606.65,0.051921
13642.46,0.051482
13678.46,0.050916
13714.64,0.050149
13751.02,0.049621
13787.59,0.049326
13824.36,0.048773
13861.32,0.048163
13898.49,0.047604
13935.85,0.047231
13973.41,0.04668
14011.17,0.04586
14049.15,0.045188
14087.32,0.045082
14125.71,0.045057
14164.3,0.04505
14203.11,0.045054
14242.13,0.045062
14281.36,0.045214
14320.81,0.044981
14360.49,0.044653
14400.38,0.04459
14440.49,0.044566
14480.82,0.044399
14521.39,0.044158
14562.18,0.043927
14603.2,0.043975
14644.45,0.044106
14685.93,0.043913
14727.66,0.043753
14769.62,0.043683
14811.81,0.043537
14854.25,0.043399
14896.94,0.043639
14939.87,0.044206
14983.05,0.044537
15026.48,0.044709
15070.16,0.045405
15114.1,0.045875
15158.29,0.045886
15202.74,0.045835
15247.46,0.046191
15292.43,0.046417
15337.68,0.04664
15383.19,0.046424
15428.97,0.046305
15475.03,0.046247
15521.36,0.046271
15567.97,0.046595
15614.87,0.04719
15662.04,0.047923
15709.5,0.048697
15757.25,0.049313
15805.29,0.04973
15853.62,0.050583
15902.26,0.051634
15951.19,0.052315
16000.42,0.052911
16049.95,0.054148
16099.8,0.055106
16149.95,0.055731
16200.42,0.056588
16251.21,0.057598
16302.31,0.058437
16353.74,0.05921
16405.49,0.059958
16457.57,0.060942
16509.98,0.061743
16562.73,0.062083
16615.82,0.062137
16669.24,0.062067
16723.02,0.062103
16777.14,0.062395
16831.61,0.062457
16886.43,0.062493
16941.62,0.062526
16997.16,0.063018
17053.08,0.063368
17109.36,0.063372
17166.01,0.063008
17223.04,0.062462
17280.45,0.061689
17338.24,0.061333
17396.43,0.061137
17455.0,0.060999
17513.97,0.061072
17573.34,0.060919
17633.11,0.060092
17693.29,0.05986
17753.89,0.06004
17814.9,0.05968
17876.33,0.05918
17938.18,0.059049
18000.47,0.059297
18063.19,0.05888
18126.35,0.058509
18189.95,0.058455
18254.0,0.058552
18318.5,0.058291
18383.46,0.057959
18448.88,0.057958
18514.77,0.058507
18581.13,0.057625
18647.97,0.056642
18715.29,0.05623
18783.1,0.055869
18851.4,0.05608
18920.2,0.055652
18989.51,0.05463
19059.32,0.054011
19129.65,0.054211
19200.5,0.05461
19271.88,0.053909
19343.79,0.052573
19416.24,0.052582
19489.23,0.053356
19562.77,0.053499
19636.88,0.053007
19711.54,0.052906
19786.78,0.053563
19862.59,0.054927
19938.98,0.055677
20015.96,0.056401
20093.55,0.057099
20171.73,0.058011
20250.53,0.0586
20329.94,0.05896
20409.98,0.059475
20490.65,0.060227
20571.96,0.061458
20653.92,0.062844
20736.54,0.063759
20819.82,0.064414
20903.77,0.06597
20988.4,0.067848
21073.72,0.068447
21159.73,0.069975
21246.46,0.071461
21333.89,0.072014
21422.04,0.072993
21510.93,0.074892
21600.56,0.07622
21690.94,0.076314
21782.08,0.076243
21873.99,0.076515
21966.67,0.076451
22060.15,0.077624
22154.42,0.078504
22249.51,0.079254
22345.41,0.080189
22442.14,0.08103
22539.72,0.081499
22638.14,0.081474
22737.43,0.081773
22837.6,0.082371
22938.65,0.081962
23040.6,0.080416
23143.46,0.07964
23247.24,0.079839
23351.96,0.079575
23457.63,0.078364
23564.25,0.077811
23671.85,0.078194
23780.44,0.079583
23890.02,0.079598
24000.63,0.079288
24112.26,0.079897
24224.93,0.080305
24338.66,0.082088
24453.47,0.083016
24569.36,0.084747
24686.36,0.085037
24804.47,0.085844
24923.73,0.088273
25044.13,0.092005
25165.71,0.097467
25288.46,0.099685
25412.43,0.09869
25537.61,0.098578
25664.04,0.098121
25791.72,0.098968
25920.68,0.099734
