Database of Origin,University of Winnipeg Spectrophotometer Facility
Sample Description,Carbonaceous chondrites - RELAB archive 1. CI chondrites
Other Information,ccms03
Date Added,2018-07-23 23:44:49.201296

Data ID,RLA_MET_32_3        
Sample ID,Orgueil
Mineral Name,Orgueil
Grain Size,100-200 um
Viewing Geometry,30/0
Material Class,Cl 1

Wavelength
350.0,0.022804
355.0,0.023082
360.0,0.023042
365.0,0.023253
370.0,0.023617
375.0,0.024469
380.0,0.024659
385.0,0.025304
390.0,0.025862
395.0,0.026578
400.0,0.026873
405.0,0.028064
410.0,0.02783
415.0,0.028183
420.0,0.028467
425.0,0.028935
430.0,0.029233
435.0,0.02981
440.0,0.030037
445.0,0.030574
450.0,0.030737
455.0,0.030897
460.0,0.030959
465.0,0.031345
470.0,0.031472
475.0,0.031586
480.0,0.031804
485.0,0.031864
490.0,0.032073
495.0,0.032443
500.0,0.032625
505.0,0.032946
510.0,0.033447
515.0,0.033771
520.0,0.034129
525.0,0.0345
530.0,0.034795
535.0,0.035163
540.0,0.035482
545.0,0.035758
550.0,0.035926
555.0,0.036084
560.0,0.036268
565.0,0.036378
570.0,0.036435
575.0,0.036482
580.0,0.03654
585.0,0.03661
590.0,0.036657
595.0,0.036716
600.0,0.036868
605.0,0.03679
610.0,0.036794
615.0,0.036868
620.0,0.036959
625.0,0.037079
630.0,0.03713
635.0,0.03705
640.0,0.037114
645.0,0.037185
650.0,0.037132
655.0,0.037143
660.0,0.037093
665.0,0.03715
670.0,0.037046
675.0,0.036865
680.0,0.036686
685.0,0.036691
690.0,0.036682
695.0,0.036653
700.0,0.036555
705.0,0.036563
710.0,0.036725
715.0,0.036598
720.0,0.036565
725.0,0.036599
730.0,0.036666
735.0,0.03647
740.0,0.036377
745.0,0.036375
750.0,0.036382
755.0,0.036428
760.0,0.036028
765.0,0.035992
770.0,0.035902
775.0,0.035797
780.0,0.035938
785.0,0.036026
790.0,0.035963
795.0,0.036013
800.0,0.035961
805.0,0.035736
810.0,0.035879
815.0,0.035934
820.0,0.035616
825.0,0.035801
830.0,0.035837
835.0,0.035809
840.0,0.035659
845.0,0.035524
850.0,0.035647
855.0,0.035938
860.0,0.035633
865.0,0.035559
870.0,0.035597
875.0,0.03567
880.0,0.03531
885.0,0.035404
890.0,0.034973
895.0,0.035788
900.0,0.035065
905.0,0.035329
910.0,0.035057
915.0,0.035014
920.0,0.034471
925.0,0.034635
930.0,0.034519
935.0,0.034477
940.0,0.034515
945.0,0.034655
950.0,0.034498
955.0,0.034565
960.0,0.03429
965.0,0.034452
970.0,0.034421
975.0,0.034336
980.0,0.034281
985.0,0.034137
990.0,0.033925
995.0,0.034089
1000.0,0.034217
1005.0,0.033979
1010.0,0.034223
1015.0,0.034082
1020.0,0.034291
1025.0,0.034355
1030.0,0.034099
1035.0,0.034081
1040.0,0.034276
1045.0,0.034178
1050.0,0.034228
1055.0,0.034045
1060.0,0.0341
1065.0,0.034025
1070.0,0.034057
1075.0,0.03365
1080.0,0.033609
1085.0,0.033449
1090.0,0.033631
1095.0,0.033643
1100.0,0.033694
1105.0,0.033577
1110.0,0.033616
1115.0,0.03331
1120.0,0.033427
1125.0,0.033585
1130.0,0.033459
1135.0,0.033507
1140.0,0.033649
1145.0,0.033464
1150.0,0.033574
1155.0,0.033291
1160.0,0.033344
1165.0,0.033252
1170.0,0.033401
1175.0,0.033448
1180.0,0.033248
1185.0,0.033523
1190.0,0.033371
1195.0,0.033189
1200.0,0.033327
1205.0,0.033543
1210.0,0.033242
1215.0,0.033254
1220.0,0.03339
1225.0,0.033499
1230.0,0.033371
1235.0,0.033216
1240.0,0.033109
1245.0,0.033335
1250.0,0.033293
1255.0,0.033408
1260.0,0.033196
1265.0,0.033271
1270.0,0.033116
1275.0,0.033068
1280.0,0.033052
1285.0,0.033171
1290.0,0.033213
1295.0,0.033015
1300.0,0.032964
1305.0,0.032835
1310.0,0.032843
1315.0,0.033076
1320.0,0.033075
1325.0,0.033155
1330.0,0.033273
1335.0,0.033065
1340.0,0.033122
1345.0,0.033054
1350.0,0.033078
1355.0,0.032974
1360.0,0.032908
1365.0,0.032914
1370.0,0.03295
1375.0,0.032424
1380.0,0.032939
1385.0,0.032514
1390.0,0.03304
1395.0,0.032781
1400.0,0.032672
1405.0,0.032799
1410.0,0.032786
1415.0,0.032732
1420.0,0.032832
1425.0,0.032633
1430.0,0.032475
1435.0,0.032685
1440.0,0.032588
1445.0,0.032424
1450.0,0.032269
1455.0,0.032401
1460.0,0.032041
1465.0,0.03234
1470.0,0.032403
1475.0,0.032282
1480.0,0.032424
1485.0,0.032542
1490.0,0.032576
1495.0,0.031925
1500.0,0.032142
1505.0,0.03238
1510.0,0.032287
1515.0,0.032353
1520.0,0.032619
1525.0,0.032648
1530.0,0.032608
1535.0,0.032317
1540.0,0.032617
1545.0,0.032687
1550.0,0.032515
1555.0,0.032403
1560.0,0.032279
1565.0,0.032472
1570.0,0.032594
1575.0,0.032262
1580.0,0.032701
1585.0,0.032294
1590.0,0.032541
1595.0,0.032488
1600.0,0.032597
1605.0,0.032534
1610.0,0.032506
1615.0,0.031961
1620.0,0.032359
1625.0,0.032532
1630.0,0.032637
1635.0,0.032494
1640.0,0.032544
1645.0,0.03255
1650.0,0.032578
1655.0,0.03255
1660.0,0.032046
1665.0,0.032358
1670.0,0.03248
1675.0,0.03259
1680.0,0.032476
1685.0,0.032239
1690.0,0.032293
1695.0,0.032118
1700.0,0.032177
1705.0,0.032208
1710.0,0.031967
1715.0,0.031937
1720.0,0.032129
1725.0,0.031995
1730.0,0.03214
1735.0,0.032155
1740.0,0.032089
1745.0,0.032126
1750.0,0.032033
1755.0,0.032053
1760.0,0.0323
1765.0,0.032056
1770.0,0.03221
1775.0,0.032111
1780.0,0.032199
1785.0,0.032014
1790.0,0.032159
1795.0,0.032088
1800.0,0.032247
1805.0,0.032072
1810.0,0.032111
1815.0,0.032197
1820.0,0.032158
1825.0,0.032026
1830.0,0.032141
1835.0,0.031985
1840.0,0.031956
1845.0,0.031752
1850.0,0.031875
1855.0,0.031993
1860.0,0.031946
1865.0,0.032225
1870.0,0.032217
1875.0,0.031511
1880.0,0.031833
1885.0,0.031932
1890.0,0.032087
1895.0,0.032063
1900.0,0.031881
1905.0,0.031594
1910.0,0.031583
1915.0,0.031461
1920.0,0.031502
1925.0,0.031435
1930.0,0.031345
1935.0,0.031616
1940.0,0.031536
1945.0,0.031603
1950.0,0.031707
1955.0,0.031623
1960.0,0.031676
1965.0,0.031588
1970.0,0.031425
1975.0,0.031726
1980.0,0.031601
1985.0,0.031777
1990.0,0.031743
1995.0,0.031699
2000.0,0.03169
2005.0,0.031864
2010.0,0.031945
2015.0,0.031866
2020.0,0.031904
2025.0,0.03197
2030.0,0.032111
2035.0,0.032113
2040.0,0.03204
2045.0,0.032217
2050.0,0.031932
2055.0,0.031971
2060.0,0.031934
2065.0,0.032062
2070.0,0.031866
2075.0,0.031954
2080.0,0.032143
2085.0,0.032121
2090.0,0.032303
2095.0,0.032109
2100.0,0.032194
2105.0,0.032048
2110.0,0.032095
2115.0,0.031955
2120.0,0.031946
2125.0,0.032082
2130.0,0.031936
2135.0,0.031922
2140.0,0.031867
2145.0,0.031863
2150.0,0.031844
2155.0,0.031886
2160.0,0.031849
2165.0,0.032057
2170.0,0.031817
2175.0,0.032007
2180.0,0.032021
2185.0,0.032066
2190.0,0.031906
2195.0,0.032042
2200.0,0.032346
2205.0,0.032158
2210.0,0.0321
2215.0,0.031978
2220.0,0.032057
2225.0,0.032029
2230.0,0.03217
2235.0,0.032188
2240.0,0.032212
2245.0,0.032094
2250.0,0.03199
2255.0,0.032428
2260.0,0.03209
2265.0,0.03219
2270.0,0.032239
2275.0,0.03222
2280.0,0.032045
2285.0,0.031891
2290.0,0.03193
2295.0,0.031826
2300.0,0.031687
2305.0,0.032029
2310.0,0.031873
2315.0,0.031914
2320.0,0.031982
2325.0,0.031816
2330.0,0.031714
2335.0,0.031908
2340.0,0.031679
2345.0,0.031684
2350.0,0.031753
2355.0,0.031735
2360.0,0.031678
2365.0,0.031382
2370.0,0.031433
2375.0,0.031139
2380.0,0.031516
2385.0,0.031339
2390.0,0.031399
2395.0,0.031486
2400.0,0.031522
2405.0,0.031506
2410.0,0.031357
2415.0,0.031786
2420.0,0.031262
2425.0,0.031675
2430.0,0.031345
2435.0,0.031434
2440.0,0.031282
2445.0,0.031299
2450.0,0.031325
2455.0,0.031144
2460.0,0.03126
2465.0,0.031212
2470.0,0.031215
2475.0,0.031246
2480.0,0.031361
2485.0,0.031291
2490.0,0.0313
2495.0,0.031318
2500.0,0.031301
2505.0,0.031281
2510.0,0.03129
2515.0,0.031363
2520.0,0.031141
2525.0,0.031307
2530.0,0.031659
2535.0,0.031073
2540.0,0.031712
2545.0,0.031422
2550.0,0.031395
2555.0,0.030903
2560.0,0.032856
2565.0,0.030285
2570.0,0.031137
2575.0,0.030786
2580.0,0.031452
2585.0,0.031482
2590.0,0.03109
2595.0,0.030923
2600.0,0.031662
