Database of Origin,University of Winnipeg Spectrophotometer Facility
Sample Description,See Master Clays in HOSERLab database
Date Added,2016-12-11 20:58:41.902809

Data ID,RLA_CLAY_35         
Sample ID,GYR001
Mineral Name,Gyrolite
Grain Size,<45um
Viewing Geometry,"30/0,30"
Resolution,"5,0.6-129"
Material Class,Phyllosilicate

Wavelength
305.0,0.276416
310.0,0.287824
315.0,0.299138
320.0,0.312616
325.0,0.329117
330.0,0.344819
335.0,0.357314
340.0,0.370278
345.0,0.38159
350.0,0.395937
355.0,0.410329
360.0,0.422129
365.0,0.433303
370.0,0.443652
375.0,0.455311
380.0,0.47008
385.0,0.481675
390.0,0.490076
395.0,0.49905
400.0,0.507433
405.0,0.516108
410.0,0.523019
415.0,0.527897
420.0,0.534585
425.0,0.541791
430.0,0.547689
435.0,0.554343
440.0,0.562428
445.0,0.567782
450.0,0.575534
455.0,0.581138
460.0,0.587565
465.0,0.593125
470.0,0.598124
475.0,0.6032
480.0,0.607541
485.0,0.612621
490.0,0.61685
495.0,0.622631
500.0,0.629128
505.0,0.633273
510.0,0.640382
515.0,0.644449
520.0,0.651447
525.0,0.656388
530.0,0.661361
535.0,0.665651
540.0,0.66931
545.0,0.673613
550.0,0.677267
555.0,0.680483
560.0,0.683283
565.0,0.68533
570.0,0.688388
575.0,0.689798
580.0,0.692309
585.0,0.691891
590.0,0.695118
595.0,0.695557
600.0,0.697969
605.0,0.697629
610.0,0.700897
615.0,0.701677
620.0,0.701577
625.0,0.703915
630.0,0.705205
635.0,0.70634
640.0,0.707163
645.0,0.709233
650.0,0.709507
655.0,0.711174
660.0,0.712177
665.0,0.713068
670.0,0.715304
675.0,0.714684
680.0,0.71716
685.0,0.717528
690.0,0.72021
695.0,0.720932
700.0,0.721182
705.0,0.72431
710.0,0.723739
715.0,0.726692
720.0,0.72667
725.0,0.728767
730.0,0.73078
735.0,0.729873
740.0,0.733926
745.0,0.733634
750.0,0.735203
755.0,0.737397
760.0,0.737556
765.0,0.740277
770.0,0.739827
775.0,0.742083
780.0,0.74336
785.0,0.744271
790.0,0.746271
795.0,0.747359
800.0,0.748144
805.0,0.749005
810.0,0.749846
815.0,0.75132
820.0,0.751962
825.0,0.752611
830.0,0.75407
835.0,0.755794
840.0,0.7562
845.0,0.75698
850.0,0.758297
855.0,0.759151
860.0,0.759605
865.0,0.761044
870.0,0.760986
875.0,0.76196
880.0,0.759899
885.0,0.759396
890.0,0.760724
895.0,0.759686
900.0,0.761151
905.0,0.762836
910.0,0.763693
915.0,0.76381
920.0,0.763218
925.0,0.763184
930.0,0.76435
935.0,0.764354
940.0,0.764675
945.0,0.764317
950.0,0.7657
955.0,0.766271
960.0,0.765688
965.0,0.765278
970.0,0.767273
975.0,0.767262
980.0,0.766857
985.0,0.767191
990.0,0.768188
995.0,0.766676
1000.0,0.766694
1005.0,0.766465
1010.0,0.768364
1015.0,0.76876
1020.0,0.769841
1025.0,0.770592
1030.0,0.771149
1035.0,0.770486
1040.0,0.771299
1045.0,0.771385
1050.0,0.772316
1055.0,0.772791
1060.0,0.773265
1065.0,0.773038
1070.0,0.774411
1075.0,0.773956
1080.0,0.774774
1085.0,0.775061
1090.0,0.776028
1095.0,0.776598
1100.0,0.777726
1105.0,0.77832
1110.0,0.779181
1115.0,0.780309
1120.0,0.78097
1125.0,0.780226
1130.0,0.781149
1135.0,0.781794
1140.0,0.782579
1145.0,0.782307
1150.0,0.783008
1155.0,0.783146
1160.0,0.783136
1165.0,0.782783
1170.0,0.783561
1175.0,0.784105
1180.0,0.78456
1185.0,0.784563
1190.0,0.784959
1195.0,0.784536
1200.0,0.784946
1205.0,0.78513
1210.0,0.785839
1215.0,0.785557
1220.0,0.786628
1225.0,0.787961
1230.0,0.787252
1235.0,0.786794
1240.0,0.787612
1245.0,0.787944
1250.0,0.786916
1255.0,0.788713
1260.0,0.789981
1265.0,0.790275
1270.0,0.790054
1275.0,0.790918
1280.0,0.790177
1285.0,0.789861
1290.0,0.789863
1295.0,0.790784
1300.0,0.790487
1305.0,0.791045
1310.0,0.791859
1315.0,0.792033
1320.0,0.790137
1325.0,0.789011
1330.0,0.788338
1335.0,0.78803
1340.0,0.787149
1345.0,0.78651
1350.0,0.785806
1355.0,0.785891
1360.0,0.784671
1365.0,0.78441
1370.0,0.783332
1375.0,0.781929
1380.0,0.776094
1385.0,0.770049
1390.0,0.762258
1395.0,0.752124
1400.0,0.749883
1405.0,0.738072
1410.0,0.707971
1415.0,0.709677
1420.0,0.724493
1425.0,0.728603
1430.0,0.731685
1435.0,0.736872
1440.0,0.742975
1445.0,0.742181
1450.0,0.745735
1455.0,0.747262
1460.0,0.749923
1465.0,0.751772
1470.0,0.754365
1475.0,0.755559
1480.0,0.75812
1485.0,0.759539
1490.0,0.762487
1495.0,0.764557
1500.0,0.766898
1505.0,0.769198
1510.0,0.771075
1515.0,0.771795
1520.0,0.774176
1525.0,0.77585
1530.0,0.775259
1535.0,0.776536
1540.0,0.777886
1545.0,0.776397
1550.0,0.77595
1555.0,0.77702
1560.0,0.776477
1565.0,0.776299
1570.0,0.777133
1575.0,0.776371
1580.0,0.776661
1585.0,0.777788
1590.0,0.778533
1595.0,0.779182
1600.0,0.779644
1605.0,0.780741
1610.0,0.780563
1615.0,0.780788
1620.0,0.781793
1625.0,0.78173
1630.0,0.780047
1635.0,0.780739
1640.0,0.779936
1645.0,0.778576
1650.0,0.780274
1655.0,0.782052
1660.0,0.782491
1665.0,0.78451
1670.0,0.785505
1675.0,0.785011
1680.0,0.783102
1685.0,0.783263
1690.0,0.780689
1695.0,0.780375
1700.0,0.780477
1705.0,0.780863
1710.0,0.779793
1715.0,0.779367
1720.0,0.778618
1725.0,0.778283
1730.0,0.777058
1735.0,0.77657
1740.0,0.77555
1745.0,0.774897
1750.0,0.776714
1755.0,0.773579
1760.0,0.772342
1765.0,0.771623
1770.0,0.770145
1775.0,0.769215
1780.0,0.769812
1785.0,0.768992
1790.0,0.76831
1795.0,0.768485
1800.0,0.766257
1805.0,0.766855
1810.0,0.768459
1815.0,0.765792
1820.0,0.765068
1825.0,0.767173
1830.0,0.763186
1835.0,0.762561
1840.0,0.763359
1845.0,0.765861
1850.0,0.762515
1855.0,0.76197
1860.0,0.760513
1865.0,0.752453
1870.0,0.742602
1875.0,0.738144
1880.0,0.731172
1885.0,0.711315
1890.0,0.689562
1895.0,0.662633
1900.0,0.622676
1905.0,0.593262
1910.0,0.568815
1915.0,0.558429
1920.0,0.563906
1925.0,0.571877
1930.0,0.583774
1935.0,0.594902
1940.0,0.604734
1945.0,0.613954
1950.0,0.621485
1955.0,0.626623
1960.0,0.632895
1965.0,0.638155
1970.0,0.642854
1975.0,0.648502
1980.0,0.652666
1985.0,0.656253
1990.0,0.661127
1995.0,0.662671
2000.0,0.66795
2005.0,0.672171
2010.0,0.677523
2015.0,0.681903
2020.0,0.685356
2025.0,0.690003
2030.0,0.694334
2035.0,0.693736
2040.0,0.696183
2045.0,0.700804
2050.0,0.702311
2055.0,0.702302
2060.0,0.704321
2065.0,0.704621
2070.0,0.702718
2075.0,0.707724
2080.0,0.70874
2085.0,0.71034
2090.0,0.70908
2095.0,0.708088
2100.0,0.71413
2105.0,0.710016
2110.0,0.713896
2115.0,0.713568
2120.0,0.716576
2125.0,0.714883
2130.0,0.714349
2135.0,0.714993
2140.0,0.715471
2145.0,0.717051
2150.0,0.71571
2155.0,0.71241
2160.0,0.711117
2165.0,0.712031
2170.0,0.709741
2175.0,0.708145
2180.0,0.706383
2185.0,0.705103
2190.0,0.702712
2195.0,0.699012
2200.0,0.698586
2205.0,0.696712
2210.0,0.696396
2215.0,0.695641
2220.0,0.692162
2225.0,0.696299
2230.0,0.692961
2235.0,0.690914
2240.0,0.691214
2245.0,0.690031
2250.0,0.691185
2255.0,0.685311
2260.0,0.687832
2265.0,0.684241
2270.0,0.683633
2275.0,0.683595
2280.0,0.677525
2285.0,0.672327
2290.0,0.669579
2295.0,0.664159
2300.0,0.66103
2305.0,0.66037
2310.0,0.646557
2315.0,0.637027
2320.0,0.636454
2325.0,0.632941
2330.0,0.630666
2335.0,0.624593
2340.0,0.622142
2345.0,0.613788
2350.0,0.609882
2355.0,0.599184
2360.0,0.594119
2365.0,0.587971
2370.0,0.588601
2375.0,0.587481
2380.0,0.592685
2385.0,0.594866
2390.0,0.596492
2395.0,0.595915
2400.0,0.597413
2405.0,0.589486
2410.0,0.583958
2415.0,0.57808
2420.0,0.576121
2425.0,0.571015
2430.0,0.566355
2435.0,0.555722
2440.0,0.555905
2445.0,0.55233
2450.0,0.549809
2455.0,0.540172
2460.0,0.538186
2465.0,0.535045
2470.0,0.531712
2475.0,0.528886
2480.0,0.525363
2485.0,0.521727
2490.0,0.517548
2495.0,0.51388
2500.0,0.511322
2505.0,0.509495
2509.26,0.506997
2511.69,0.505975
2514.13,0.505466
2516.57,0.505314
2519.02,0.5051
2521.47,0.505051
2523.92,0.504915
2526.38,0.50473
2528.85,0.504244
2531.32,0.503522
2533.79,0.50279
2536.27,0.502222
2538.75,0.501704
2541.24,0.50131
2543.74,0.500719
2546.24,0.500175
2548.74,0.499718
2551.25,0.499727
2553.76,0.499844
2556.28,0.499943
2558.8,0.499922
2561.33,0.499253
2563.86,0.497844
2566.4,0.496645
2568.95,0.495456
2571.5,0.493751
2574.05,0.491929
2576.61,0.49078
2579.17,0.490362
2581.74,0.490512
2584.31,0.490559
2586.89,0.491082
2589.48,0.491612
2592.07,0.491739
2594.66,0.491288
2597.26,0.49009
2599.87,0.489863
2602.48,0.48944
2605.09,0.488054
2607.71,0.486839
2610.34,0.486068
2612.97,0.485432
2615.61,0.484356
2618.25,0.482979
2620.9,0.481637
2623.55,0.480746
2626.21,0.479332
2628.87,0.477688
2631.54,0.475727
2634.22,0.473898
2636.89,0.471935
2639.58,0.469805
2642.27,0.467258
2644.97,0.464554
2647.67,0.461376
2650.38,0.458517
2653.09,0.455088
2655.81,0.45127
2658.53,0.447372
2661.26,0.442846
2664.0,0.437496
2666.74,0.43134
2669.48,0.422151
2672.23,0.408543
2674.99,0.391725
2677.76,0.383195
2680.52,0.381398
2683.3,0.376729
2686.08,0.367735
2688.87,0.356015
2691.66,0.342938
2694.46,0.330113
2697.26,0.315256
2700.07,0.29874
2702.89,0.280925
2705.71,0.26299
2708.53,0.247727
2711.37,0.232074
2714.21,0.210535
2717.05,0.187694
2719.9,0.169865
2722.76,0.162695
2725.62,0.160526
2728.49,0.156414
2731.37,0.150333
2734.25,0.143836
2737.14,0.136554
2740.03,0.128868
2742.93,0.117965
2745.83,0.101801
2748.75,0.084197
2751.66,0.072918
2754.59,0.070179
2757.52,0.071633
2760.46,0.073695
2763.4,0.075116
2766.35,0.076455
2769.3,0.078277
2772.26,0.080177
2775.23,0.081221
2778.21,0.081624
2781.19,0.081831
2784.18,0.081922
2787.17,0.081946
2790.17,0.081746
2793.18,0.081272
2796.19,0.080862
2799.21,0.080358
2802.24,0.080069
2805.27,0.079675
2808.31,0.079133
2811.35,0.078885
2814.41,0.07869
2817.46,0.078582
2820.53,0.078922
2823.6,0.078911
2826.68,0.079143
2829.77,0.079673
2832.86,0.08024
2835.96,0.080557
2839.07,0.080932
2842.18,0.081197
2845.3,0.081788
2848.43,0.082384
2851.56,0.083034
2854.7,0.083102
2857.85,0.083468
2861.0,0.083716
2864.16,0.083829
2867.33,0.08385
2870.51,0.084101
2873.69,0.084272
2876.88,0.084509
2880.07,0.084593
2883.28,0.084819
2886.49,0.085304
2889.71,0.08544
2892.93,0.08532
2896.17,0.085632
2899.4,0.085609
2902.65,0.085403
2905.91,0.085431
2909.17,0.08567
2912.44,0.085581
2915.71,0.085768
2918.99,0.085726
2922.29,0.085792
2925.58,0.085832
2928.89,0.085909
2932.2,0.08582
2935.52,0.085846
2938.85,0.086055
2942.19,0.086118
2945.53,0.086062
2948.88,0.086449
2952.24,0.086793
2955.61,0.087129
2958.98,0.087516
2962.36,0.087879
2965.75,0.088104
2969.15,0.088592
2972.55,0.088824
2975.97,0.089265
2979.39,0.089903
2982.82,0.090342
2986.25,0.090919
2989.7,0.091362
2993.15,0.091899
2996.61,0.092748
3000.08,0.093175
3003.55,0.093794
3007.04,0.094613
3010.53,0.095436
3014.03,0.096245
3017.54,0.096998
3021.06,0.0975
3024.58,0.098229
3028.12,0.098675
3031.66,0.099127
3035.21,0.099357
3038.77,0.099669
3042.33,0.099878
3045.91,0.100136
3049.49,0.100363
3053.08,0.100818
3056.68,0.100762
3060.29,0.100692
3063.91,0.100821
3067.54,0.101168
3071.17,0.10098
3074.81,0.100825
3078.47,0.100952
3082.13,0.101456
3085.79,0.101824
3089.47,0.102197
3093.16,0.102765
3096.85,0.103616
3100.56,0.10368
3104.27,0.104328
3107.99,0.104595
3111.73,0.105002
3115.47,0.105804
3119.21,0.106537
3122.97,0.106923
3126.74,0.107722
3130.52,0.107995
3134.3,0.10899
3138.1,0.109742
3141.9,0.111003
3145.71,0.111899
3149.54,0.112318
3153.37,0.112999
3155.29,0.113197
3157.21,0.113664
3159.13,0.114331
3161.06,0.114863
3162.99,0.115184
3164.92,0.115331
3166.85,0.115662
3168.79,0.116157
3170.72,0.116621
3172.67,0.117249
3174.61,0.117754
3176.55,0.117776
3178.5,0.117611
3180.45,0.118121
3182.4,0.118816
3184.36,0.119083
3186.32,0.119411
3188.27,0.120205
3190.24,0.120525
3192.2,0.120474
3194.17,0.120768
3196.14,0.12144
3198.11,0.122107
3200.08,0.122577
3202.06,0.123342
3204.04,0.124092
3206.02,0.124304
3208.0,0.124463
3209.99,0.125134
3211.98,0.125774
3213.97,0.125987
3215.96,0.125993
3217.96,0.126282
3219.96,0.126932
3221.96,0.127534
3223.96,0.127948
3225.97,0.128562
3227.98,0.128989
3229.99,0.129389
3232.0,0.129758
3234.02,0.13019
3236.04,0.130755
3238.06,0.130984
3240.08,0.131292
3242.11,0.131496
3244.14,0.13197
3246.17,0.132383
3248.2,0.13286
3250.24,0.133617
3252.28,0.134199
3254.32,0.134477
3256.37,0.134735
3258.41,0.135341
3260.46,0.136036
3262.51,0.136373
3264.57,0.136757
3266.63,0.136819
3268.69,0.137011
3270.75,0.137703
3272.81,0.138386
3274.88,0.138826
3276.95,0.139171
3279.02,0.139304
3281.1,0.139838
3283.18,0.140435
3285.26,0.140862
3287.34,0.141135
3289.43,0.141364
3291.51,0.142041
3293.61,0.142562
3295.7,0.142671
3297.8,0.142953
3299.9,0.143662
3302.0,0.144219
3304.1,0.144563
3306.21,0.144973
3308.32,0.145563
3310.43,0.146172
3312.55,0.146441
3314.66,0.146383
3316.79,0.14648
3318.91,0.146893
3321.03,0.147444
3323.16,0.147858
3325.29,0.148581
3327.43,0.149107
3329.57,0.149145
3331.71,0.149445
3333.85,0.149883
3335.99,0.15047
3338.14,0.150729
3340.29,0.150794
3342.45,0.150946
3344.6,0.15108
3346.76,0.151225
3348.92,0.151127
3351.09,0.151444
3353.26,0.151893
3355.43,0.151888
3357.6,0.151731
3359.78,0.151676
3361.96,0.151778
3364.14,0.151883
3366.32,0.151811
3368.51,0.151954
3370.7,0.151648
3372.89,0.150986
3375.09,0.150743
3377.29,0.151089
3379.49,0.151497
3381.69,0.151942
3383.9,0.152552
3386.11,0.153039
3388.32,0.153384
3390.54,0.153932
3392.76,0.154509
3394.98,0.154871
3397.21,0.154967
3399.43,0.155129
3401.66,0.15513
3403.9,0.154591
3406.13,0.154381
3408.37,0.154633
3410.61,0.154862
3412.86,0.155141
3415.11,0.155429
3417.36,0.155604
3419.61,0.156236
3421.87,0.157164
3424.13,0.158785
3426.39,0.160611
3428.66,0.1619
3430.93,0.163074
3433.2,0.164218
3435.48,0.165291
3437.76,0.166207
3440.04,0.167479
3442.32,0.168323
3444.61,0.1691
3446.9,0.169905
3449.19,0.170649
3451.49,0.171216
3453.79,0.171973
3456.09,0.172633
3458.4,0.173101
3460.7,0.173709
3463.02,0.174151
3465.33,0.174362
3467.65,0.17454
3469.97,0.174621
3472.29,0.174526
3474.62,0.17425
3476.95,0.174283
3479.29,0.174281
3481.62,0.174303
3483.96,0.174349
3486.3,0.174497
3488.65,0.174602
3491.0,0.174978
3493.35,0.174946
3495.71,0.17513
3498.07,0.175371
3500.43,0.175128
3502.79,0.175449
3505.16,0.176743
3507.53,0.178383
3509.91,0.180042
3512.29,0.181681
3514.67,0.183479
3517.05,0.185251
3519.44,0.18698
3521.83,0.188976
3524.23,0.190865
3526.62,0.192443
3529.02,0.194086
3531.43,0.19524
3533.83,0.196096
3536.24,0.197266
3538.66,0.19862
3541.08,0.200044
3543.5,0.201178
3545.92,0.202169
3548.35,0.203243
3550.78,0.204145
3553.21,0.204921
3555.65,0.205752
3558.09,0.20643
3560.53,0.207254
3562.98,0.208272
3565.43,0.209013
3567.88,0.209641
3570.34,0.210133
3572.8,0.210798
3575.27,0.211532
3577.73,0.212264
3580.2,0.212783
3582.68,0.213436
3585.16,0.213991
3587.64,0.214702
3590.12,0.215634
3592.61,0.216053
3595.1,0.216165
3597.6,0.217039
3600.09,0.217832
3602.6,0.218477
3605.1,0.218995
3607.61,0.219584
3610.12,0.219979
3612.64,0.220314
3615.16,0.221265
3617.68,0.222054
3620.21,0.222394
3622.74,0.222866
3625.27,0.223279
3627.81,0.22394
3630.35,0.22462
3632.89,0.225131
3635.44,0.225557
3637.99,0.226157
3640.54,0.227165
3643.1,0.228168
3645.66,0.228696
3648.23,0.229179
3650.8,0.22984
3653.37,0.230652
3655.95,0.231052
3658.53,0.231492
3661.11,0.232237
3663.7,0.232974
3666.29,0.233525
3668.89,0.234312
3671.48,0.234943
3674.09,0.235639
3676.69,0.236337
3679.3,0.236974
3681.91,0.237603
3684.53,0.238562
3687.15,0.239437
3689.78,0.240047
3692.4,0.240418
3695.04,0.240931
3697.67,0.24165
3700.31,0.24261
3702.95,0.243207
3705.6,0.243661
3708.25,0.244261
3710.91,0.245146
3713.56,0.245799
3716.23,0.24647
3718.89,0.246998
3721.56,0.24776
3724.23,0.248337
3726.91,0.248701
3729.59,0.249176
3732.28,0.24986
3734.97,0.250623
3737.66,0.251343
3740.36,0.251842
3743.06,0.252587
3745.76,0.253206
3748.47,0.253771
3751.18,0.254569
3753.9,0.2551
3756.62,0.255566
3759.34,0.256184
3762.07,0.256923
3764.8,0.257755
3767.54,0.258251
3770.28,0.258616
3773.02,0.259148
3775.77,0.259849
3778.52,0.260562
3781.28,0.261249
3784.04,0.261593
3786.8,0.262071
3789.57,0.262791
3792.34,0.263123
3795.12,0.263654
3797.9,0.26438
3800.69,0.264801
3803.47,0.26541
3806.27,0.26608
3809.06,0.266633
3811.86,0.267094
3814.67,0.267634
3817.48,0.268017
3820.29,0.268525
3823.11,0.26896
3825.93,0.269527
3828.76,0.270193
3831.59,0.270481
3834.42,0.27078
3837.26,0.27124
3840.1,0.271582
3842.95,0.272179
3845.8,0.272896
3848.65,0.273451
3851.51,0.273733
3854.38,0.274159
3857.24,0.274745
3860.12,0.275346
3862.99,0.275878
3865.87,0.276517
3868.76,0.276927
3871.65,0.277253
3874.54,0.277583
3877.44,0.277768
3880.34,0.277679
3883.25,0.27813
3886.16,0.278827
3889.07,0.279583
3891.99,0.279965
3894.92,0.27994
3897.85,0.280013
3900.78,0.28063
3903.72,0.281183
3906.66,0.281728
3909.6,0.282283
3912.55,0.282508
3915.51,0.282275
3918.47,0.282521
3921.43,0.282806
3924.4,0.283161
3927.38,0.283625
3930.35,0.284014
3933.33,0.284149
3936.32,0.284539
3939.31,0.284679
3942.31,0.284833
3945.31,0.284742
3948.31,0.284758
3951.32,0.285039
3954.34,0.28512
3957.35,0.285156
3960.38,0.285449
3963.41,0.285365
3966.44,0.285349
3969.48,0.285829
3972.52,0.286042
3975.56,0.285686
3978.61,0.285707
3981.67,0.285746
3984.73,0.285849
3987.8,0.286069
3990.87,0.286544
3993.94,0.286868
3997.02,0.287439
4000.1,0.287851
4003.19,0.287726
4006.29,0.287607
4009.39,0.287889
4012.49,0.288272
4015.6,0.288745
4018.71,0.28904
4021.83,0.289252
4024.95,0.289627
4028.08,0.290011
4031.21,0.290065
4034.35,0.290028
4037.49,0.290158
4040.64,0.290327
4043.79,0.290093
4046.94,0.290128
4050.11,0.290344
4053.27,0.290625
4056.44,0.290623
4059.62,0.290529
4062.8,0.290547
4065.99,0.29067
4069.18,0.290654
4072.38,0.290607
4075.58,0.290468
4078.78,0.290549
4082.0,0.290622
4085.21,0.290632
4088.43,0.290458
4091.66,0.290419
4094.89,0.29009
4098.13,0.289965
4101.37,0.289997
4104.62,0.289937
4107.87,0.289793
4111.13,0.289876
4114.39,0.289784
4117.66,0.289692
4120.93,0.289441
4124.21,0.289497
4127.5,0.289434
4130.79,0.289173
4134.08,0.289125
4137.38,0.289057
4140.68,0.288847
4143.99,0.288927
4147.31,0.288426
4150.63,0.288062
4153.95,0.287931
4157.29,0.287716
4160.62,0.287454
4163.96,0.287372
4167.31,0.287186
4170.66,0.28705
4174.02,0.286851
4177.39,0.286749
4180.75,0.286906
4184.13,0.286877
4187.51,0.286347
4190.89,0.286065
4194.28,0.285928
4197.68,0.285619
4201.08,0.285275
4204.49,0.285142
4207.9,0.284899
4211.32,0.28472
4214.74,0.284722
4218.17,0.284566
4221.61,0.284164
4225.05,0.283975
4228.5,0.283637
4231.95,0.283428
4235.4,0.283331
4238.87,0.283332
4242.34,0.283205
4245.81,0.283082
4249.29,0.28299
4252.78,0.282731
4256.27,0.282522
4259.77,0.282487
4263.27,0.282031
4266.78,0.28166
4270.29,0.281363
4273.81,0.28143
4277.34,0.281233
4280.87,0.280873
4284.41,0.280731
4287.95,0.280642
4291.5,0.280434
4295.06,0.280313
4298.62,0.280246
4302.19,0.280327
4305.76,0.280142
4309.34,0.2799
4312.92,0.27972
4316.52,0.279758
4320.11,0.279727
4323.72,0.279481
4327.32,0.279238
4330.94,0.279467
4334.56,0.279519
4338.19,0.279149
4341.82,0.27871
4345.46,0.278555
4349.11,0.278652
4352.76,0.278786
4356.42,0.278699
4360.08,0.278746
4363.75,0.27865
4367.43,0.278599
4371.11,0.278457
4374.8,0.278391
4378.49,0.278418
4382.19,0.278213
4385.9,0.278183
4389.61,0.278406
4393.33,0.278186
4397.06,0.278174
4400.79,0.278115
4404.53,0.278256
4408.28,0.278201
4412.03,0.278124
4415.79,0.277984
4419.55,0.278083
4423.32,0.278203
4427.1,0.27816
4430.88,0.277928
4434.68,0.277852
4438.47,0.278014
4442.28,0.278316
4446.08,0.27838
4449.9,0.278435
4453.72,0.278492
4457.55,0.278481
4461.39,0.2785
4465.23,0.278609
4469.08,0.2782
4472.94,0.277993
4476.8,0.278249
4480.67,0.278571
4484.55,0.278607
4488.43,0.278739
4492.32,0.278886
4496.21,0.279155
4500.12,0.27917
4504.03,0.27911
4507.94,0.279015
4511.87,0.279168
4515.8,0.279272
4519.73,0.279381
4523.68,0.27923
4527.63,0.27939
4531.59,0.279733
4535.55,0.279842
4539.52,0.27986
4543.5,0.279956
4547.49,0.280147
4551.48,0.280362
4555.48,0.280414
4559.49,0.280467
4563.5,0.280618
4567.52,0.280766
4571.55,0.280723
4575.58,0.280721
4579.63,0.280883
4583.67,0.280968
4587.73,0.280688
4591.79,0.280907
4595.86,0.281117
4599.94,0.281336
4604.03,0.281255
4608.12,0.281201
4612.22,0.281186
4616.33,0.281318
4620.44,0.281495
4624.56,0.281774
4628.69,0.28176
4632.83,0.281773
4636.97,0.281659
4641.12,0.281684
4645.28,0.281507
4649.45,0.281688
4653.62,0.281992
4657.8,0.28198
4661.99,0.281524
4666.19,0.281567
4670.39,0.28167
4674.6,0.281743
4678.82,0.281655
4683.05,0.281763
4687.28,0.281783
4691.52,0.281848
4695.77,0.281666
4700.03,0.281608
4704.3,0.281703
4708.57,0.281807
4712.85,0.281764
4717.14,0.281762
4721.43,0.28186
4725.74,0.282157
4730.05,0.28232
4734.37,0.282368
4738.7,0.282131
4743.03,0.282261
4747.38,0.282554
4751.73,0.282847
4756.09,0.282745
4760.45,0.282961
4764.83,0.28325
4769.21,0.283347
4773.6,0.283313
4778.0,0.283563
4782.41,0.283614
4786.83,0.28375
4791.25,0.283814
4795.68,0.283821
4800.13,0.283834
4804.57,0.284236
4809.03,0.284222
4813.5,0.284192
4817.97,0.284233
4822.45,0.284336
4826.94,0.284408
4831.44,0.284644
4835.95,0.284615
4840.46,0.284639
4844.99,0.284595
4849.52,0.284619
4854.06,0.284402
4858.61,0.284371
4863.17,0.284265
4867.73,0.284377
4872.31,0.284441
4876.89,0.284278
4881.48,0.284045
4886.08,0.284293
4890.69,0.28421
4895.31,0.284025
4899.94,0.283973
4904.57,0.284028
4909.22,0.283693
4913.87,0.283585
4918.53,0.283479
4923.21,0.283474
4927.88,0.283351
4932.57,0.283237
4937.27,0.283027
4941.98,0.283022
4946.69,0.282824
4951.42,0.28254
4956.15,0.282187
4960.9,0.282112
4965.65,0.282009
4970.41,0.281908
4975.18,0.281516
4979.96,0.281466
4984.75,0.281428
4989.54,0.281444
4994.35,0.281133
4999.17,0.280951
5003.99,0.280793
5008.83,0.280531
5013.67,0.280032
5018.52,0.279583
5023.39,0.27933
5028.26,0.279166
5033.14,0.278847
5038.03,0.278544
5042.93,0.277936
5047.84,0.277465
5052.76,0.276856
5057.69,0.276446
5062.63,0.275841
5067.58,0.275185
5072.54,0.274436
5077.51,0.273634
5082.49,0.272603
5087.47,0.271874
5092.47,0.271016
5097.48,0.270063
5102.5,0.26895
5107.52,0.267964
5112.56,0.266919
5117.61,0.265926
5122.66,0.264779
5127.73,0.263669
5132.81,0.262485
5137.89,0.261598
5142.99,0.260925
5148.1,0.260161
5153.22,0.259303
5158.34,0.258531
5163.48,0.257569
5168.63,0.256467
5173.79,0.255228
5178.96,0.254407
5184.13,0.253516
5189.32,0.252749
5194.52,0.251789
5199.73,0.250969
5204.96,0.250324
5210.19,0.249918
5215.43,0.249037
5220.68,0.248541
5225.94,0.248172
5231.22,0.24782
5236.5,0.24729
5241.79,0.246748
5247.1,0.246223
5252.42,0.245788
5257.74,0.245183
5263.08,0.24489
5268.43,0.24476
5273.79,0.244668
5279.16,0.244192
5284.54,0.244138
5289.93,0.243894
5295.34,0.243829
5300.75,0.243773
5306.18,0.243721
5311.61,0.243423
5317.06,0.243219
5322.52,0.242999
5327.99,0.242901
5333.47,0.242788
5338.96,0.242702
5344.47,0.242141
5349.98,0.241828
5355.51,0.24177
5361.05,0.241937
5366.6,0.241605
5372.16,0.24116
5377.73,0.240609
5383.32,0.240126
5388.91,0.23954
5394.52,0.239425
5400.14,0.23899
5405.77,0.238321
5411.41,0.237597
5417.07,0.237026
5422.74,0.236162
5428.41,0.235823
5434.1,0.235344
5439.81,0.234644
5445.52,0.233825
5451.25,0.23336
5456.98,0.232589
5462.73,0.231986
5468.5,0.231449
5474.27,0.23107
5480.06,0.23039
5485.86,0.230098
5491.67,0.22945
5497.49,0.22877
5503.33,0.228238
5509.18,0.22808
5515.04,0.227652
5520.91,0.227231
5526.8,0.226678
5532.69,0.226173
5538.61,0.225468
5544.53,0.225088
5550.47,0.224476
5556.41,0.223706
5562.38,0.222795
5568.35,0.222352
5574.34,0.221911
5580.34,0.221649
5586.35,0.22174
5592.38,0.222366
5598.42,0.222346
5604.47,0.222262
5610.54,0.222154
5616.61,0.221991
5622.71,0.22145
5628.81,0.221329
5634.93,0.220701
5641.06,0.219921
5647.21,0.219442
5653.36,0.219216
5659.54,0.218407
5665.72,0.218053
5671.92,0.217057
5678.13,0.216415
5684.36,0.215683
5690.6,0.214954
5696.85,0.213937
5703.12,0.213428
5709.4,0.212257
5715.69,0.211418
5722.0,0.21049
5728.33,0.209729
5734.66,0.208618
5741.01,0.207535
5747.38,0.205788
5753.76,0.204535
5760.15,0.202882
5766.56,0.200958
5772.98,0.198916
5779.41,0.197288
5785.86,0.194797
5792.33,0.192681
5798.81,0.189911
5805.3,0.187162
5811.81,0.184047
5818.33,0.18134
5824.87,0.177879
5831.42,0.174623
5837.99,0.17077
5844.57,0.167248
5851.17,0.163374
5857.78,0.159648
5864.41,0.15538
5871.05,0.151498
5877.7,0.147432
5884.38,0.143256
5891.06,0.138312
5897.76,0.134859
5904.48,0.130735
5911.21,0.127039
5917.96,0.123337
5924.73,0.119578
5931.5,0.115822
5938.3,0.112496
5945.11,0.108254
5951.93,0.105029
5958.78,0.101699
5965.63,0.098763
5972.51,0.095734
5979.39,0.093106
5986.3,0.090809
5993.22,0.088778
6000.16,0.086473
6007.11,0.084771
6014.08,0.083001
6021.06,0.081226
6028.06,0.079233
6035.08,0.077691
6042.12,0.07619
6049.17,0.074964
6056.23,0.0732
6063.32,0.071966
6070.42,0.070762
6077.53,0.069569
6084.67,0.068519
6091.82,0.06778
6098.98,0.066856
6106.17,0.066305
6113.37,0.065639
6120.58,0.06522
6127.82,0.065044
6135.07,0.065279
6142.34,0.065337
6149.63,0.065549
6156.93,0.065796
6164.25,0.065917
6171.59,0.066091
6178.95,0.066197
6186.32,0.066
6193.71,0.065872
6201.12,0.06531
6208.54,0.064754
6215.99,0.06414
6223.45,0.063553
6230.93,0.063015
6238.43,0.062831
6245.95,0.063044
6253.48,0.06361
6261.03,0.064324
6268.6,0.065176
6276.19,0.066045
6283.8,0.066926
6291.43,0.067952
6299.07,0.069173
6306.73,0.070359
6314.42,0.071613
6322.12,0.07326
6329.84,0.074914
6337.57,0.076432
6345.33,0.078355
6353.11,0.081488
6360.9,0.084181
6368.72,0.086226
6376.55,0.088596
6384.4,0.091013
6392.27,0.092783
6400.17,0.094287
6408.08,0.094961
6416.01,0.09525
6423.96,0.096128
6431.93,0.096704
6439.92,0.097252
6447.93,0.098269
6455.96,0.099751
6464.01,0.101921
6472.08,0.104141
6480.17,0.10708
6488.28,0.110159
6496.41,0.113754
6504.56,0.118504
6512.73,0.12209
6520.92,0.12446
6529.14,0.127761
6537.37,0.130791
6545.63,0.133148
6553.9,0.13495
6562.2,0.136897
6570.51,0.138477
6578.85,0.139959
6587.21,0.140938
6595.59,0.141432
6603.99,0.14224
6612.42,0.142875
6620.86,0.143133
6629.33,0.142944
6637.82,0.142647
6646.33,0.143268
6654.86,0.143427
6663.41,0.142986
6671.99,0.142751
6680.59,0.142465
6689.21,0.142098
6697.85,0.141726
6706.51,0.14118
6715.2,0.140471
6723.91,0.139741
6732.64,0.138907
6741.4,0.13809
6750.18,0.136823
6758.98,0.135397
6767.8,0.133526
6776.65,0.131137
6785.52,0.128362
6794.41,0.124798
6803.33,0.120431
6812.27,0.116556
6821.23,0.11298
6830.22,0.109764
6839.23,0.106854
6848.26,0.10516
6857.32,0.104362
6866.4,0.10436
6875.51,0.105305
6884.64,0.106254
6893.8,0.107015
6902.98,0.107655
6912.18,0.108482
6921.41,0.109381
6930.66,0.109824
6939.94,0.11002
6949.24,0.109852
6958.57,0.1095
6967.92,0.10932
6977.3,0.109284
6986.7,0.109159
6996.13,0.109069
7005.59,0.108958
7015.07,0.108588
7024.57,0.108182
7034.1,0.107978
7043.66,0.107735
7053.25,0.10765
7062.85,0.107494
7072.49,0.107414
7082.15,0.107443
7091.84,0.107282
7101.55,0.106826
7111.3,0.106259
7121.06,0.105327
7130.86,0.103737
7140.68,0.101993
7150.53,0.100145
7160.41,0.098315
7170.31,0.09688
7180.24,0.096215
7190.2,0.095834
7200.19,0.0955
7210.2,0.095342
7220.24,0.094823
7230.31,0.093586
7240.41,0.09178
7250.54,0.089626
7260.69,0.08735
7270.88,0.085644
7281.09,0.084305
7291.33,0.08335
7301.6,0.082862
7311.9,0.083054
7322.22,0.083285
7332.58,0.083416
7342.97,0.08353
7353.38,0.083672
7363.83,0.083674
7374.3,0.083655
7384.81,0.083697
7395.34,0.084053
7405.91,0.084967
7416.5,0.086742
7427.13,0.088871
7437.78,0.091132
7448.47,0.093126
7459.19,0.09454
7469.94,0.095358
7480.71,0.096101
7491.52,0.096255
7502.37,0.096046
7513.24,0.095665
7524.14,0.095041
7535.08,0.094395
7546.05,0.09361
7557.05,0.09251
7568.08,0.091248
7579.15,0.089918
7590.24,0.088728
7601.37,0.087446
7612.53,0.086393
7623.73,0.085362
7634.96,0.084343
7646.22,0.083301
7657.51,0.081877
7668.84,0.080169
7680.2,0.078647
7691.59,0.07735
7703.02,0.075725
7714.49,0.073975
7725.98,0.072409
7737.52,0.070807
7749.08,0.068962
7760.68,0.067027
7772.32,0.065122
7783.99,0.063202
7795.69,0.061204
7807.43,0.059119
7819.21,0.056999
7831.02,0.054879
7842.87,0.052886
7854.75,0.050838
7866.67,0.048895
7878.62,0.046874
7890.62,0.044838
7902.64,0.042785
7914.71,0.040822
7926.81,0.038784
7938.95,0.036727
7951.13,0.034695
7963.34,0.032904
7975.59,0.031146
7987.88,0.029397
8000.21,0.027535
8012.57,0.026005
8024.98,0.024321
8037.42,0.022631
8049.9,0.021223
8062.42,0.020115
8074.98,0.018797
8087.57,0.017707
8100.21,0.016342
8112.89,0.015168
8125.6,0.014305
8138.36,0.013551
8151.16,0.012755
8163.99,0.012119
8176.87,0.011571
8189.79,0.011221
8202.75,0.010839
8215.75,0.010558
8228.79,0.010186
8241.87,0.009854
8254.99,0.009679
8268.16,0.009773
8281.37,0.009758
8294.62,0.009979
8307.91,0.010274
8321.24,0.010729
8334.62,0.010945
8348.04,0.011625
8361.51,0.012215
8375.02,0.012911
8388.57,0.013534
8402.16,0.014542
8415.8,0.015872
8429.49,0.017457
8443.22,0.019033
8456.99,0.020871
8470.81,0.022635
8484.67,0.02428
8498.58,0.025981
8512.54,0.028064
8526.54,0.030062
8540.58,0.031638
8554.68,0.0332
8568.82,0.034945
8583.0,0.036391
8597.24,0.037942
8611.52,0.039362
8625.85,0.040709
8640.23,0.041822
8654.65,0.043213
8669.12,0.044762
8683.64,0.046413
8698.21,0.047729
8712.83,0.04871
8727.5,0.049567
8742.22,0.05052
8756.99,0.051109
8771.8,0.051292
8786.67,0.05134
8801.59,0.051631
8816.56,0.051754
8831.58,0.051246
8846.65,0.050524
8861.77,0.049743
8876.94,0.048629
8892.17,0.047451
8907.45,0.045767
8922.78,0.044378
8938.16,0.043337
8953.6,0.042044
8969.09,0.040621
8984.64,0.039838
9000.23,0.039456
9015.89,0.039503
9031.59,0.040033
9047.36,0.040848
9063.17,0.04153
9079.05,0.042842
9094.97,0.044672
9110.96,0.04623
9127.0,0.047863
9143.1,0.05007
9159.25,0.052375
9175.46,0.054542
9191.73,0.0563
9208.06,0.05817
9224.44,0.060302
9240.88,0.062512
9257.38,0.064081
9273.94,0.065575
9290.56,0.067394
9307.24,0.069104
9323.98,0.070331
9340.78,0.071503
9357.64,0.072215
9374.57,0.072858
9391.55,0.073444
9408.59,0.073734
9425.7,0.073348
9442.87,0.072724
9460.1,0.072274
9477.4,0.072129
9494.75,0.071841
9512.17,0.0712
9529.66,0.070529
9547.21,0.06955
9564.83,0.068475
9582.5,0.067176
9600.25,0.065598
9618.06,0.064525
9635.94,0.064045
9653.88,0.063073
9671.89,0.062099
9689.97,0.061442
9708.12,0.06064
9726.33,0.05972
9744.62,0.058525
9762.97,0.057337
9781.39,0.055996
9799.88,0.054536
9818.44,0.053174
9837.07,0.052287
9855.77,0.051322
9874.54,0.050362
9893.39,0.049803
9912.3,0.049209
9931.29,0.048887
9950.36,0.049342
9969.49,0.050119
9988.7,0.050872
10007.98,0.051329
10027.34,0.051926
10046.77,0.052698
10066.28,0.053369
10085.87,0.053849
10105.53,0.053846
10125.26,0.053701
10145.08,0.05402
10164.97,0.053841
10184.94,0.053932
10204.99,0.054166
10225.12,0.05441
10245.33,0.054405
10265.61,0.054058
10285.98,0.053925
10306.43,0.054338
10326.96,0.054336
10347.57,0.054347
10368.27,0.054761
10389.05,0.055719
10409.91,0.056399
10430.86,0.057074
10451.88,0.057845
10473.0,0.058737
10494.2,0.059788
10515.49,0.060795
10536.86,0.061458
10558.32,0.062075
10579.87,0.062957
10601.5,0.063668
10623.23,0.06363
10645.04,0.063697
10666.94,0.064101
10688.94,0.064573
10711.02,0.064788
10733.2,0.064987
10755.47,0.065522
10777.83,0.066364
10800.28,0.066855
10822.83,0.067395
10845.47,0.068101
10868.21,0.068955
10891.04,0.06997
10913.97,0.070734
10936.99,0.071304
10960.12,0.072424
10983.34,0.073607
11006.66,0.074679
11030.07,0.075896
11053.59,0.077219
11077.21,0.078222
11100.93,0.078692
11124.75,0.079697
11148.68,0.080676
11172.71,0.080766
11196.84,0.080816
11221.07,0.080993
11245.41,0.080947
11269.86,0.081118
11294.41,0.08127
11319.07,0.081022
11343.84,0.080681
11368.72,0.080584
11393.7,0.080358
11418.8,0.080094
11444.01,0.080277
11469.33,0.080364
11494.76,0.080644
11520.3,0.080884
11545.96,0.081053
11571.73,0.081235
11597.62,0.081124
11623.62,0.08118
11649.74,0.082071
11675.98,0.082233
11702.34,0.08219
11728.81,0.082663
11755.41,0.082639
11782.13,0.0822
11808.96,0.082086
11835.92,0.08192
11863.01,0.081068
11890.22,0.080452
11917.55,0.079781
11945.01,0.078828
11972.6,0.077459
12000.31,0.076016
12028.16,0.074867
12056.13,0.073616
12084.23,0.072521
12112.46,0.071455
12140.83,0.07044
12169.33,0.069351
12197.96,0.068063
12226.73,0.066234
12255.64,0.064097
12284.68,0.061692
12313.86,0.05891
12343.18,0.056446
12372.64,0.053425
12402.24,0.049612
12431.98,0.046503
12461.86,0.043801
12491.89,0.040836
12522.07,0.038307
12552.38,0.036635
12582.85,0.03514
12613.47,0.034128
12644.23,0.033931
12675.15,0.03414
12706.21,0.034339
12737.43,0.035419
12768.81,0.037039
12800.33,0.038249
12832.02,0.038973
12863.86,0.039766
12895.86,0.040856
12928.02,0.041908
12960.34,0.042928
12992.82,0.043769
13025.46,0.04456
13058.27,0.045528
13091.25,0.045883
13124.39,0.046056
13157.7,0.04627
13191.18,0.046264
13224.83,0.045992
13258.66,0.045549
13292.65,0.045083
13326.83,0.044527
13361.17,0.04416
13395.7,0.044017
13430.4,0.04342
13465.29,0.04277
13500.35,0.042145
13535.6,0.041171
13571.03,0.04056
13606.65,0.040256
13642.46,0.039885
13678.46,0.039671
13714.64,0.039541
13751.02,0.039237
13787.59,0.038862
13824.36,0.038716
13861.32,0.038375
13898.49,0.037971
13935.85,0.037719
13973.41,0.036923
14011.17,0.036513
14049.15,0.036512
14087.32,0.035801
14125.71,0.034307
14164.3,0.032968
14203.11,0.032288
14242.13,0.032065
14281.36,0.031699
14320.81,0.030275
14360.49,0.028901
14400.38,0.027746
14440.49,0.027033
14480.82,0.02612
14521.39,0.024864
14562.18,0.024254
14603.2,0.024411
14644.45,0.024552
14685.93,0.024204
14727.66,0.024321
14769.62,0.024416
14811.81,0.024612
14854.25,0.02527
14896.94,0.025483
14939.87,0.025034
14983.05,0.024663
15026.48,0.025079
15070.16,0.025064
15114.1,0.02432
15158.29,0.02395
15202.74,0.023578
15247.46,0.022826
15292.43,0.022046
15337.68,0.021419
15383.19,0.021515
15428.97,0.021697
15475.03,0.020993
15521.36,0.01992
15567.97,0.019645
15614.87,0.019849
15662.04,0.020171
15709.5,0.02009
15757.25,0.01993
15805.29,0.020779
15853.62,0.021825
15902.26,0.022278
15951.19,0.023352
16000.42,0.025118
16049.95,0.026885
16099.8,0.028713
16149.95,0.030091
16200.42,0.031051
16251.21,0.032599
16302.31,0.033904
16353.74,0.034114
16405.49,0.033671
16457.57,0.033222
16509.98,0.032566
16562.73,0.031468
16615.82,0.030815
16669.24,0.031281
16723.02,0.031217
16777.14,0.031793
16831.61,0.03302
16886.43,0.033989
16941.62,0.034174
16997.16,0.033853
17053.08,0.033729
17109.36,0.033958
17166.01,0.033032
17223.04,0.031387
17280.45,0.030204
17338.24,0.029498
17396.43,0.028193
17455.0,0.026727
17513.97,0.025782
17573.34,0.025315
17633.11,0.02498
17693.29,0.024502
17753.89,0.024372
17814.9,0.023639
17876.33,0.022132
17938.18,0.02182
18000.47,0.022561
18063.19,0.023125
18126.35,0.02328
18189.95,0.024264
18254.0,0.025061
18318.5,0.025925
18383.46,0.027443
18448.88,0.028828
18514.77,0.029774
18581.13,0.030339
18647.97,0.032263
18715.29,0.034653
18783.1,0.037052
18851.4,0.039159
18920.2,0.041167
18989.51,0.043675
19059.32,0.046321
19129.65,0.050083
19200.5,0.053824
19271.88,0.057
19343.79,0.059889
19416.24,0.063399
19489.23,0.067621
19562.77,0.07115
19636.88,0.07378
19711.54,0.075937
19786.78,0.078469
19862.59,0.081007
19938.98,0.082772
20015.96,0.085187
20093.55,0.086908
20171.73,0.087561
20250.53,0.088016
20329.94,0.085241
20409.98,0.08057
20490.65,0.076837
20571.96,0.076039
20653.92,0.079349
20736.54,0.084646
20819.82,0.08821
20903.77,0.089734
20988.4,0.089177
21073.72,0.085815
21159.73,0.084132
21246.46,0.083414
21333.89,0.083544
21422.04,0.083703
21510.93,0.083919
21600.56,0.083941
21690.94,0.083146
21782.08,0.082471
21873.99,0.082348
21966.67,0.080961
22060.15,0.079351
22154.42,0.077873
22249.51,0.077018
22345.41,0.077296
22442.14,0.075384
22539.72,0.071496
22638.14,0.069488
22737.43,0.06766
22837.6,0.064737
22938.65,0.063106
23040.6,0.059846
23143.46,0.057465
23247.24,0.0565
23351.96,0.056136
23457.63,0.05555
23564.25,0.054148
23671.85,0.051416
23780.44,0.050274
23890.02,0.048636
24000.63,0.050678
24112.26,0.053519
24224.93,0.053528
24338.66,0.051508
24453.47,0.047491
24569.36,0.046132
24686.36,0.04926
24804.47,0.05035
24923.73,0.05072
25044.13,0.049181
25165.71,0.048036
25288.46,0.051021
25412.43,0.054114
25537.61,0.052434
25664.04,0.05149
25791.72,0.055055
25920.68,0.062606
