Database of Origin,University of Winnipeg Spectrophotometer Facility
Sample Description,See Master Clays in HOSERLab database
Date Added,2016-12-11 20:58:47.185426

Data ID,RLA_CLAY_39         
Sample ID,HIS001
Mineral Name,Hissingerite
Grain Size,<45um
Viewing Geometry,"30/0,30"
Resolution,"5,0.6-129"
Material Class,Phyllosilicate

Wavelength
305.0,0.02951
310.0,0.029853
315.0,0.031238
320.0,0.032274
325.0,0.033656
330.0,0.035184
335.0,0.036167
340.0,0.037482
345.0,0.039336
350.0,0.041331
355.0,0.043305
360.0,0.046304
365.0,0.049994
370.0,0.053391
375.0,0.057771
380.0,0.062835
385.0,0.067534
390.0,0.072142
395.0,0.077074
400.0,0.080743
405.0,0.084418
410.0,0.088368
415.0,0.092362
420.0,0.096745
425.0,0.101778
430.0,0.107582
435.0,0.11339
440.0,0.119047
445.0,0.124616
450.0,0.129609
455.0,0.134108
460.0,0.138388
465.0,0.142075
470.0,0.146561
475.0,0.151047
480.0,0.155824
485.0,0.161336
490.0,0.167393
495.0,0.174103
500.0,0.182132
505.0,0.190154
510.0,0.199762
515.0,0.209042
520.0,0.218635
525.0,0.227842
530.0,0.2373
535.0,0.246022
540.0,0.254957
545.0,0.261876
550.0,0.269258
555.0,0.274903
560.0,0.281653
565.0,0.286284
570.0,0.291566
575.0,0.295976
580.0,0.300556
585.0,0.304397
590.0,0.308751
595.0,0.312195
600.0,0.316864
605.0,0.319312
610.0,0.324827
615.0,0.328439
620.0,0.333782
625.0,0.337488
630.0,0.342634
635.0,0.346855
640.0,0.351406
645.0,0.355156
650.0,0.35972
655.0,0.363673
660.0,0.367863
665.0,0.371663
670.0,0.376949
675.0,0.380197
680.0,0.385517
685.0,0.389578
690.0,0.394576
695.0,0.398988
700.0,0.403577
705.0,0.408088
710.0,0.412271
715.0,0.416755
720.0,0.421012
725.0,0.430922
730.0,0.43628
735.0,0.440166
740.0,0.44573
745.0,0.450095
750.0,0.454098
755.0,0.458407
760.0,0.462004
765.0,0.46555
770.0,0.468911
775.0,0.471671
780.0,0.475994
785.0,0.478205
790.0,0.481286
795.0,0.483707
800.0,0.48465
805.0,0.486158
810.0,0.488108
815.0,0.490003
820.0,0.489065
825.0,0.491339
830.0,0.49158
835.0,0.492282
840.0,0.491575
845.0,0.491936
850.0,0.492369
855.0,0.492697
860.0,0.492617
865.0,0.49385
870.0,0.49657
875.0,0.497124
880.0,0.498067
885.0,0.498608
890.0,0.49942
895.0,0.495535
900.0,0.494457
905.0,0.495232
910.0,0.496778
915.0,0.498167
920.0,0.499112
925.0,0.499532
930.0,0.500373
935.0,0.501039
940.0,0.501174
945.0,0.501142
950.0,0.502095
955.0,0.501845
960.0,0.502784
965.0,0.504274
970.0,0.505367
975.0,0.506624
980.0,0.508215
985.0,0.509016
990.0,0.509787
995.0,0.511587
1000.0,0.512714
1005.0,0.513631
1010.0,0.514519
1015.0,0.515725
1020.0,0.517939
1025.0,0.518585
1030.0,0.520358
1035.0,0.521947
1040.0,0.522768
1045.0,0.522818
1050.0,0.524229
1055.0,0.524956
1060.0,0.526185
1065.0,0.527925
1070.0,0.528587
1075.0,0.529248
1080.0,0.531463
1085.0,0.53297
1090.0,0.534352
1095.0,0.535856
1100.0,0.538861
1105.0,0.539845
1110.0,0.542391
1115.0,0.544091
1120.0,0.545914
1125.0,0.546574
1130.0,0.547909
1135.0,0.548367
1140.0,0.549602
1145.0,0.551343
1150.0,0.552314
1155.0,0.553848
1160.0,0.556848
1165.0,0.558706
1170.0,0.559518
1175.0,0.562048
1180.0,0.562719
1185.0,0.563005
1190.0,0.565302
1195.0,0.567075
1200.0,0.569405
1205.0,0.572346
1210.0,0.573391
1215.0,0.574912
1220.0,0.577555
1225.0,0.577991
1230.0,0.578973
1235.0,0.581882
1240.0,0.583108
1245.0,0.583013
1250.0,0.584975
1255.0,0.5874
1260.0,0.588328
1265.0,0.590103
1270.0,0.591396
1275.0,0.592024
1280.0,0.59214
1285.0,0.592889
1290.0,0.594054
1295.0,0.594959
1300.0,0.595876
1305.0,0.596024
1310.0,0.597172
1315.0,0.596914
1320.0,0.598214
1325.0,0.598726
1330.0,0.600637
1335.0,0.599961
1340.0,0.600976
1345.0,0.602612
1350.0,0.60432
1355.0,0.602655
1360.0,0.603496
1365.0,0.603243
1370.0,0.603303
1375.0,0.600321
1380.0,0.601315
1385.0,0.599092
1390.0,0.595775
1395.0,0.589068
1400.0,0.583641
1405.0,0.575549
1410.0,0.573703
1415.0,0.564225
1420.0,0.566544
1425.0,0.570518
1430.0,0.571592
1435.0,0.573829
1440.0,0.574595
1445.0,0.577276
1450.0,0.579095
1455.0,0.580519
1460.0,0.582658
1465.0,0.586243
1470.0,0.588822
1475.0,0.591886
1480.0,0.594098
1485.0,0.596417
1490.0,0.59726
1495.0,0.599115
1500.0,0.599627
1505.0,0.601842
1510.0,0.603548
1515.0,0.606457
1520.0,0.608195
1525.0,0.610658
1530.0,0.612483
1535.0,0.612316
1540.0,0.613045
1545.0,0.613511
1550.0,0.615117
1555.0,0.616527
1560.0,0.619104
1565.0,0.620735
1570.0,0.622009
1575.0,0.621708
1580.0,0.621483
1585.0,0.621838
1590.0,0.622228
1595.0,0.622327
1600.0,0.622208
1605.0,0.622738
1610.0,0.623506
1615.0,0.62396
1620.0,0.625481
1625.0,0.626171
1630.0,0.625498
1635.0,0.625827
1640.0,0.627055
1645.0,0.626898
1650.0,0.627243
1655.0,0.628744
1660.0,0.628218
1665.0,0.626946
1670.0,0.626503
1675.0,0.626138
1680.0,0.625467
1685.0,0.624366
1690.0,0.625418
1695.0,0.625521
1700.0,0.626233
1705.0,0.625807
1710.0,0.625797
1715.0,0.624912
1720.0,0.624271
1725.0,0.625103
1730.0,0.624607
1735.0,0.62385
1740.0,0.622685
1745.0,0.621419
1750.0,0.619219
1755.0,0.620767
1760.0,0.620329
1765.0,0.620354
1770.0,0.619639
1775.0,0.619638
1780.0,0.618768
1785.0,0.618765
1790.0,0.619764
1795.0,0.61999
1800.0,0.620779
1805.0,0.621529
1810.0,0.62215
1815.0,0.620612
1820.0,0.620856
1825.0,0.619921
1830.0,0.620115
1835.0,0.618785
1840.0,0.618
1845.0,0.616269
1850.0,0.615261
1855.0,0.612351
1860.0,0.61306
1865.0,0.608629
1870.0,0.601667
1875.0,0.593275
1880.0,0.577525
1885.0,0.571649
1890.0,0.559714
1895.0,0.52728
1900.0,0.504426
1905.0,0.472921
1910.0,0.450849
1915.0,0.450157
1920.0,0.453011
1925.0,0.457041
1930.0,0.466403
1935.0,0.471989
1940.0,0.47721
1945.0,0.482025
1950.0,0.48702
1955.0,0.491258
1960.0,0.495743
1965.0,0.499915
1970.0,0.504695
1975.0,0.50923
1980.0,0.513927
1985.0,0.519005
1990.0,0.523697
1995.0,0.527208
2000.0,0.530983
2005.0,0.535055
2010.0,0.538281
2015.0,0.542019
2020.0,0.546261
2025.0,0.54962
2030.0,0.552779
2035.0,0.555674
2040.0,0.558474
2045.0,0.560458
2050.0,0.562399
2055.0,0.564232
2060.0,0.566196
2065.0,0.5677
2070.0,0.568389
2075.0,0.569227
2080.0,0.570585
2085.0,0.570967
2090.0,0.571637
2095.0,0.573
2100.0,0.574498
2105.0,0.57443
2110.0,0.575745
2115.0,0.576718
2120.0,0.577479
2125.0,0.577845
2130.0,0.578519
2135.0,0.578694
2140.0,0.578203
2145.0,0.577017
2150.0,0.576501
2155.0,0.576325
2160.0,0.575807
2165.0,0.575463
2170.0,0.57477
2175.0,0.574287
2180.0,0.573427
2185.0,0.57218
2190.0,0.570472
2195.0,0.569903
2200.0,0.568619
2205.0,0.567531
2210.0,0.566644
2215.0,0.566472
2220.0,0.566263
2225.0,0.56491
2230.0,0.564022
2235.0,0.563026
2240.0,0.561459
2245.0,0.559303
2250.0,0.556684
2255.0,0.553499
2260.0,0.549621
2265.0,0.546673
2270.0,0.542775
2275.0,0.539141
2280.0,0.534793
2285.0,0.531198
2290.0,0.527005
2295.0,0.522448
2300.0,0.519597
2305.0,0.518221
2310.0,0.51656
2315.0,0.51599
2320.0,0.516835
2325.0,0.518686
2330.0,0.518509
2335.0,0.519847
2340.0,0.518759
2345.0,0.517277
2350.0,0.514013
2355.0,0.513442
2360.0,0.510094
2365.0,0.508284
2370.0,0.506444
2375.0,0.503816
2380.0,0.500463
2385.0,0.497169
2390.0,0.492521
2395.0,0.489382
2400.0,0.486388
2405.0,0.483492
2410.0,0.480994
2415.0,0.480364
2420.0,0.478021
2425.0,0.476233
2430.0,0.47216
2435.0,0.469491
2440.0,0.466171
2445.0,0.461334
2450.0,0.457081
2455.0,0.453749
2460.0,0.449421
2465.0,0.44543
2470.0,0.441608
2475.0,0.437722
2480.0,0.434641
2485.0,0.43029
2490.0,0.426579
2495.0,0.424918
2500.0,0.421974
2505.0,0.420239
2510.0,0.419441
2515.0,0.417298
2520.0,0.416776
2523.92,0.416254
2526.38,0.415838
2528.85,0.415207
2531.32,0.414626
2533.79,0.414
2536.27,0.413564
2538.75,0.413118
2541.24,0.412744
2543.74,0.412131
2546.24,0.411627
2548.74,0.411142
2551.25,0.410573
2553.76,0.409987
2556.28,0.409684
2558.8,0.409376
2561.33,0.40852
2563.86,0.407208
2566.4,0.40692
2568.95,0.406996
2571.5,0.406399
2574.05,0.40549
2576.61,0.404679
2579.17,0.404206
2581.74,0.403704
2584.31,0.402263
2586.89,0.401233
2589.48,0.400695
2592.07,0.400045
2594.66,0.398812
2597.26,0.396869
2599.87,0.39678
2602.48,0.396302
2605.09,0.39432
2607.71,0.392576
2610.34,0.39173
2612.97,0.391124
2615.61,0.389818
2618.25,0.38773
2620.9,0.385891
2623.55,0.385151
2626.21,0.383836
2628.87,0.381573
2631.54,0.37918
2634.21,0.377415
2636.89,0.375811
2639.58,0.374023
2642.27,0.371281
2644.97,0.368442
2647.67,0.365307
2650.38,0.362405
2651.73,0.359348
2653.09,0.357229
2654.45,0.358926
2655.81,0.357245
2657.17,0.35235
2658.53,0.34878
2659.89,0.346283
2661.26,0.346738
2662.63,0.346178
2664.0,0.342408
2665.36,0.337501
2666.74,0.335099
2668.11,0.332909
2669.48,0.329567
2670.86,0.324219
2672.23,0.317054
2673.61,0.312193
2674.99,0.307723
2676.37,0.304315
2677.76,0.299597
2679.14,0.296645
2680.52,0.293003
2681.91,0.288293
2683.3,0.281537
2684.69,0.276054
2686.08,0.271038
2687.47,0.265504
2688.87,0.259978
2690.26,0.254236
2691.66,0.247079
2693.06,0.23965
2694.46,0.230377
2695.86,0.224771
2697.26,0.21966
2698.66,0.212269
2700.07,0.205282
2701.48,0.197926
2702.89,0.191727
2704.3,0.186964
2705.71,0.18168
2707.12,0.176939
2708.53,0.172864
2709.95,0.169981
2711.37,0.165526
2712.79,0.160282
2714.21,0.158094
2715.63,0.155666
2717.05,0.151837
2718.48,0.146641
2719.9,0.142346
2721.33,0.138886
2722.76,0.136137
2724.19,0.134566
2725.62,0.130894
2727.06,0.128346
2728.49,0.12748
2729.93,0.124803
2731.37,0.120573
2732.81,0.117983
2734.25,0.115461
2735.69,0.112652
2737.14,0.113167
2738.58,0.112984
2740.03,0.111058
2741.48,0.107762
2742.93,0.104625
2744.38,0.101672
2745.83,0.099219
2747.29,0.098946
2748.75,0.098393
2750.2,0.096661
2751.66,0.096327
2753.13,0.095801
2754.59,0.094381
2756.05,0.09196
2757.52,0.09022
2758.99,0.090364
2760.46,0.09018
2761.93,0.089877
2763.4,0.088361
2764.87,0.088495
2766.35,0.088894
2767.82,0.086777
2769.3,0.085407
2770.78,0.085141
2772.26,0.08531
2773.75,0.084516
2775.23,0.085416
2776.72,0.08547
2778.21,0.084605
2779.7,0.083894
2781.19,0.083282
2782.68,0.083675
2784.18,0.084253
2785.67,0.08334
2787.17,0.081127
2788.67,0.079984
2790.17,0.082576
2791.67,0.083501
2793.18,0.082302
2794.68,0.080564
2796.19,0.079844
2797.7,0.080223
2799.21,0.080372
2800.72,0.079493
2802.24,0.07902
2803.75,0.079553
2805.27,0.078947
2806.79,0.078013
2808.31,0.078342
2809.83,0.078743
2811.35,0.078482
2812.88,0.079186
2814.41,0.079407
2815.93,0.078868
2817.46,0.077166
2819.0,0.076565
2820.53,0.077487
2822.07,0.080054
2823.6,0.081466
2825.14,0.078693
2826.68,0.077518
2828.22,0.078888
2829.77,0.079541
2831.31,0.079507
2832.86,0.079563
2834.41,0.079264
2835.96,0.07801
2837.51,0.077049
2839.07,0.077988
2840.62,0.079252
2842.18,0.079417
2843.74,0.080291
2845.3,0.080985
2846.86,0.081905
2848.43,0.082973
2849.99,0.082559
2851.56,0.081869
2853.13,0.082242
2854.7,0.083479
2856.27,0.083667
2857.85,0.083899
2859.42,0.084205
2861.0,0.08572
2862.58,0.08581
2864.16,0.085202
2865.75,0.085396
2867.33,0.085294
2868.92,0.086131
2870.51,0.086826
2872.1,0.085786
2873.69,0.085452
2875.28,0.086545
2876.88,0.086689
2878.48,0.085756
2880.07,0.086681
2881.68,0.087788
2883.28,0.087336
2884.88,0.087715
2886.49,0.088166
2888.1,0.087771
2889.71,0.088163
2891.32,0.088177
2892.93,0.088244
2894.55,0.087009
2896.16,0.087728
2897.78,0.089556
2899.4,0.090311
2901.03,0.090455
2902.65,0.091073
2904.28,0.090249
2905.91,0.090047
2907.53,0.090503
2909.17,0.089041
2910.8,0.090018
2912.44,0.091022
2914.07,0.091672
2915.71,0.091818
2917.35,0.09199
2918.99,0.091367
2920.64,0.090598
2922.29,0.091158
2923.93,0.092409
2925.58,0.092144
2927.24,0.091667
2928.89,0.091911
2930.55,0.09205
2932.2,0.091847
2933.86,0.092239
2935.52,0.093579
2937.19,0.093777
2938.85,0.093473
2940.52,0.093399
2942.19,0.093469
2943.86,0.09349
2945.53,0.093499
2947.21,0.093484
2948.88,0.093578
2950.56,0.093372
2952.24,0.093427
2953.92,0.092993
2955.61,0.093632
2957.29,0.094745
2958.98,0.09554
2960.67,0.096541
2962.36,0.097068
2964.06,0.096492
2965.75,0.096306
2967.45,0.096512
2969.15,0.09645
2970.85,0.09622
2972.55,0.097643
2974.26,0.099581
2975.97,0.100168
2977.68,0.09929
2979.39,0.098938
2981.1,0.099731
2982.82,0.100811
2984.53,0.100868
2986.25,0.100436
2987.97,0.100144
2989.7,0.100986
2991.42,0.100869
2993.15,0.099763
2994.88,0.099767
2996.61,0.100286
2998.34,0.101543
3000.08,0.102958
3001.82,0.103566
3003.55,0.103736
3005.3,0.104336
3007.04,0.105215
3008.78,0.103641
3010.53,0.102981
3012.28,0.104648
3014.03,0.106158
3015.79,0.106107
3017.54,0.106617
3019.3,0.107025
3021.06,0.106648
3022.82,0.106678
3024.58,0.105816
3026.35,0.10564
3028.12,0.10615
3029.89,0.1083
3031.66,0.109924
3033.43,0.108325
3035.21,0.10674
3036.99,0.106618
3038.77,0.107579
3040.55,0.108181
3042.33,0.10867
3044.12,0.10934
3045.91,0.109386
3047.7,0.10954
3049.49,0.110124
3051.29,0.110592
3053.08,0.110906
3054.88,0.111481
3056.68,0.110754
3058.49,0.110603
3060.29,0.11168
3062.1,0.111659
3063.91,0.111487
3065.72,0.11266
3067.54,0.112323
3069.35,0.111766
3071.17,0.112886
3072.99,0.113405
3074.81,0.1127
3076.64,0.113053
3078.46,0.113848
3080.29,0.114146
3082.13,0.114654
3083.96,0.115321
3085.79,0.115692
3087.63,0.116407
3089.47,0.116596
3091.31,0.115653
3093.16,0.114862
3095.01,0.11643
3096.85,0.118055
3098.71,0.118185
3100.56,0.11743
3102.41,0.116393
3104.27,0.116916
3106.13,0.117822
3107.99,0.118552
3109.86,0.119747
3111.73,0.120643
3113.59,0.120737
3115.47,0.120829
3117.34,0.120524
3119.21,0.121945
3121.09,0.123339
3122.97,0.12177
3124.86,0.121903
3126.74,0.124039
3128.63,0.125156
3130.52,0.12452
3132.41,0.124231
3134.3,0.124682
3136.2,0.125488
3138.1,0.125662
3140.0,0.126473
3141.9,0.126746
3143.81,0.12722
3145.71,0.1283
3147.62,0.128354
3149.54,0.128418
3151.45,0.128847
3153.37,0.129926
3155.29,0.130423
3157.21,0.130615
3159.13,0.130965
3161.06,0.131612
3162.99,0.132279
3164.92,0.132074
3166.85,0.132798
3168.79,0.133878
3170.72,0.134245
3172.67,0.134751
3174.61,0.13531
3176.55,0.135995
3178.5,0.136782
3180.45,0.137013
3182.4,0.137405
3184.36,0.137386
3186.32,0.138648
3188.27,0.139698
3190.24,0.139306
3192.2,0.139428
3194.17,0.141054
3196.14,0.142404
3198.11,0.142354
3200.08,0.142604
3202.06,0.143084
3204.04,0.144222
3206.02,0.14462
3208.0,0.144302
3209.99,0.145562
3211.98,0.146879
3213.97,0.14678
3215.96,0.147499
3217.96,0.14773
3219.96,0.147506
3221.96,0.148209
3223.96,0.148613
3225.97,0.148713
3227.98,0.149916
3229.99,0.150468
3232.0,0.150382
3234.02,0.152046
3236.04,0.153491
3238.06,0.153398
3240.08,0.153749
3242.11,0.154314
3244.14,0.154927
3246.17,0.155275
3248.2,0.156048
3250.24,0.156636
3252.28,0.156237
3254.32,0.155925
3256.37,0.157653
3258.41,0.158909
3260.46,0.160405
3262.51,0.160849
3264.57,0.160945
3266.63,0.160575
3268.69,0.160628
3270.75,0.161671
3272.81,0.162982
3274.88,0.163562
3276.95,0.163685
3279.02,0.163709
3281.1,0.164012
3283.18,0.164424
3285.26,0.165006
3287.34,0.165941
3289.43,0.167346
3291.51,0.168342
3293.61,0.168448
3295.7,0.16875
3297.8,0.169323
3299.89,0.170195
3302.0,0.170388
3304.1,0.170433
3306.21,0.170953
3308.32,0.17204
3310.43,0.172632
3312.55,0.172821
3314.66,0.174139
3316.78,0.174423
3318.91,0.174198
3321.03,0.174651
3323.16,0.175351
3325.29,0.176376
3327.43,0.177675
3329.57,0.177705
3331.71,0.178047
3333.85,0.178886
3335.99,0.179458
3338.14,0.180322
3340.29,0.179997
3342.45,0.180322
3344.6,0.181547
3346.76,0.181865
3348.92,0.182387
3351.09,0.18311
3353.26,0.184221
3355.43,0.18421
3357.6,0.184351
3359.78,0.18499
3361.96,0.185316
3364.14,0.186494
3366.32,0.187027
3368.51,0.187157
3370.7,0.188081
3372.89,0.188567
3375.09,0.18882
3377.29,0.188874
3379.49,0.189065
3381.69,0.189613
3383.9,0.190573
3386.11,0.191564
3388.32,0.191999
3390.54,0.192478
3392.76,0.192888
3394.98,0.193344
3397.21,0.193456
3399.43,0.193949
3401.66,0.194262
3403.9,0.19447
3406.13,0.194517
3408.37,0.195254
3410.61,0.195697
3412.86,0.196606
3415.11,0.197617
3417.36,0.198186
3419.61,0.198787
3421.87,0.199367
3424.13,0.200559
3426.39,0.202287
3428.66,0.202148
3430.93,0.202803
3433.2,0.204379
3435.48,0.204927
3437.76,0.205447
3440.04,0.206085
3442.32,0.207298
3444.61,0.207843
3446.9,0.209093
3449.19,0.20958
3451.49,0.210278
3453.79,0.21162
3456.09,0.212242
3458.4,0.213116
3460.7,0.213836
3463.02,0.213552
3465.33,0.213187
3467.65,0.213965
3469.97,0.214675
3472.29,0.21472
3474.62,0.214094
3476.95,0.214567
3479.29,0.21522
3481.62,0.215569
3483.96,0.216514
3486.3,0.217403
3488.65,0.217533
3491.0,0.217169
3493.35,0.218238
3495.71,0.219322
3498.07,0.219352
3500.43,0.219607
3502.79,0.220719
3505.16,0.222213
3507.53,0.222816
3509.91,0.223413
3512.29,0.224583
3514.67,0.227118
3517.05,0.228369
3519.44,0.22886
3521.83,0.229093
3524.22,0.230447
3526.62,0.231793
3529.02,0.232492
3531.43,0.233845
3533.83,0.234828
3536.24,0.236028
3538.66,0.236817
3541.08,0.237903
3543.5,0.23965
3545.92,0.240091
3548.35,0.240686
3550.78,0.241164
3553.21,0.242168
3555.65,0.242897
3558.09,0.243417
3560.53,0.244247
3562.98,0.245332
3565.43,0.246058
3567.88,0.246756
3570.34,0.247287
3572.8,0.247838
3575.27,0.248364
3577.73,0.249412
3580.2,0.249865
3582.68,0.250447
3585.16,0.251475
3587.64,0.252223
3590.12,0.252976
3592.61,0.253062
3595.1,0.252937
3597.6,0.253041
3600.09,0.25414
3602.6,0.255881
3605.1,0.256601
3607.61,0.256887
3610.12,0.257193
3612.64,0.258035
3615.16,0.259012
3617.68,0.259701
3620.21,0.260806
3622.74,0.261332
3625.27,0.261693
3627.81,0.262926
3630.35,0.263738
3632.89,0.263818
3635.44,0.264157
3637.99,0.265159
3640.54,0.265931
3643.1,0.266286
3645.66,0.26641
3648.23,0.26699
3650.8,0.268492
3653.37,0.269424
3655.95,0.269479
3658.53,0.270075
3661.11,0.270293
3663.7,0.271431
3666.29,0.272753
3668.89,0.273205
3671.48,0.273522
3674.09,0.27456
3676.69,0.276002
3679.3,0.276724
3681.91,0.276235
3684.53,0.276415
3687.15,0.277856
3689.78,0.278653
3692.4,0.278916
3695.04,0.279358
3697.67,0.280043
3700.31,0.280749
3702.95,0.282019
3705.6,0.282746
3708.25,0.282985
3710.91,0.28399
3713.56,0.284491
3716.23,0.284766
3718.89,0.285328
3721.56,0.286616
3724.23,0.287845
3726.91,0.288712
3729.59,0.289486
3732.28,0.28981
3734.97,0.290565
3737.66,0.291413
3740.36,0.292075
3743.06,0.292504
3745.76,0.292819
3748.47,0.293472
3751.18,0.293991
3753.9,0.294651
3756.62,0.295097
3759.34,0.295819
3762.07,0.296579
3764.8,0.296697
3767.54,0.297315
3770.28,0.297918
3773.02,0.298205
3775.77,0.298919
3778.52,0.29895
3781.28,0.300026
3784.04,0.30096
3786.8,0.300817
3789.57,0.30091
3792.34,0.301293
3795.12,0.301789
3797.9,0.302515
3800.69,0.303916
3803.47,0.304921
3806.27,0.305262
3809.06,0.30565
3811.86,0.306082
3814.67,0.306788
3817.48,0.30723
3820.29,0.307372
3823.11,0.308346
3825.93,0.309708
3828.76,0.31019
3831.59,0.31069
3834.42,0.312013
3837.26,0.312787
3840.1,0.312709
3842.95,0.312799
3845.8,0.313781
3848.65,0.315001
3851.51,0.315203
3854.38,0.31523
3857.24,0.315504
3860.12,0.316018
3862.99,0.317426
3865.87,0.318558
3868.76,0.318982
3871.65,0.318667
3874.54,0.318196
3877.44,0.319078
3880.34,0.320219
3883.25,0.320517
3886.16,0.32029
3889.07,0.32094
3891.99,0.322033
3894.92,0.323049
3897.85,0.323097
3900.78,0.322993
3903.72,0.323694
3906.66,0.323517
3909.6,0.323171
3912.55,0.324036
3915.51,0.32477
3918.47,0.325677
3921.43,0.32601
3924.4,0.326035
3927.37,0.326879
3930.35,0.32782
3933.33,0.328129
3936.32,0.329073
3939.31,0.329542
3942.31,0.329728
3945.31,0.329942
3948.31,0.330784
3951.32,0.33195
3954.34,0.332238
3957.35,0.331846
3960.38,0.332666
3963.41,0.333484
3966.44,0.333638
3969.48,0.334073
3972.52,0.334178
3975.56,0.334267
3978.61,0.334606
3981.67,0.335483
3984.73,0.336395
3987.8,0.33581
3990.87,0.335575
3993.94,0.335928
3997.02,0.336501
4000.1,0.33667
4003.19,0.336486
4006.29,0.336678
4009.39,0.337743
4012.49,0.338394
4015.6,0.338678
4018.71,0.338932
4021.83,0.339219
4024.95,0.339209
4028.08,0.338945
4031.21,0.33941
4034.35,0.340116
4037.49,0.340186
4040.64,0.340345
4043.79,0.340847
4046.94,0.341466
4050.11,0.341222
4053.27,0.340956
4056.44,0.341113
4059.62,0.342253
4062.8,0.343028
4065.99,0.343376
4069.18,0.344135
4072.38,0.344067
4075.58,0.343482
4078.78,0.343839
4082.0,0.344276
4085.21,0.34419
4088.43,0.344214
4091.66,0.344701
4094.89,0.34503
4098.13,0.345412
4101.37,0.345391
4104.62,0.345698
4107.87,0.34526
4111.13,0.345152
4114.39,0.345642
4117.66,0.345831
4120.93,0.345682
4124.21,0.346015
4127.5,0.345936
4130.78,0.345824
4134.08,0.345814
4137.38,0.345608
4140.68,0.345608
4143.99,0.345987
4147.31,0.345912
4150.63,0.346359
4153.95,0.346075
4157.29,0.345808
4160.62,0.346454
4163.96,0.34651
4167.31,0.345931
4170.66,0.34617
4174.02,0.34687
4177.39,0.347072
4180.75,0.34723
4184.13,0.347588
4187.51,0.347499
4190.89,0.347659
4194.28,0.347766
4197.68,0.3482
4201.08,0.348483
4204.49,0.348829
4207.9,0.348308
4211.32,0.347398
4214.74,0.347305
4218.17,0.347959
4221.61,0.347981
4225.05,0.347936
4228.5,0.348445
4231.95,0.34942
4235.4,0.349415
4238.87,0.348233
4242.34,0.347692
4245.81,0.348391
4249.29,0.348277
4252.78,0.348011
4256.27,0.348128
4259.77,0.348724
4263.27,0.349177
4266.78,0.349289
4270.29,0.348927
4273.81,0.348493
4277.34,0.348249
4280.87,0.348703
4284.41,0.349113
4287.95,0.349058
4291.5,0.348542
4295.06,0.348833
4298.62,0.348879
4302.19,0.348559
4305.76,0.348337
4309.34,0.349166
4312.92,0.349842
4316.52,0.349881
4320.11,0.350095
4323.72,0.349993
4327.32,0.349328
4330.94,0.349487
4334.56,0.34942
4338.19,0.349896
4341.82,0.35021
4345.46,0.350046
4349.11,0.350412
4352.76,0.350666
4356.42,0.350527
4360.08,0.350117
4363.75,0.350041
4367.43,0.350924
4371.11,0.351407
4374.8,0.351544
4378.49,0.351274
4382.19,0.351171
4385.9,0.35129
4389.61,0.35131
4393.33,0.351405
4397.06,0.35118
4400.79,0.350889
4404.53,0.350938
4408.28,0.351295
4412.03,0.351574
4415.79,0.351366
4419.55,0.351424
4423.32,0.351725
4427.1,0.351647
4430.88,0.351147
4434.67,0.351224
4438.47,0.351273
4442.27,0.351053
4446.08,0.350582
4449.9,0.350673
4453.72,0.351026
4457.55,0.351582
4461.39,0.352001
4465.23,0.35174
4469.08,0.351705
4472.94,0.352353
4476.8,0.351806
4480.67,0.351667
4484.55,0.351526
4488.43,0.351547
4492.32,0.351961
4496.21,0.352231
4500.12,0.352003
4504.03,0.351781
4507.94,0.352179
4511.87,0.35272
4515.8,0.352767
4519.73,0.352616
4523.68,0.352247
4527.63,0.352236
4531.59,0.351624
4535.55,0.351571
4539.52,0.352068
4543.5,0.351876
4547.49,0.351263
4551.48,0.351464
4555.48,0.351832
4559.49,0.351881
4563.5,0.351425
4567.52,0.351078
4571.55,0.350544
4575.58,0.350609
4579.62,0.35002
4583.67,0.349405
4587.73,0.349434
4591.79,0.349338
4595.86,0.349368
4599.94,0.349687
4604.03,0.349384
4608.12,0.349224
4612.22,0.349073
4616.33,0.349098
4620.44,0.34851
4624.56,0.348277
4628.69,0.348101
4632.83,0.348318
4636.97,0.348363
4641.12,0.347868
4645.28,0.347649
4649.45,0.348007
4653.62,0.347653
4657.8,0.347317
4661.99,0.347216
4666.19,0.347295
4670.39,0.347461
4674.6,0.347086
4678.82,0.346515
4683.05,0.346692
4687.28,0.346454
4691.52,0.345411
4695.77,0.344571
4700.03,0.344437
4704.3,0.344365
4708.57,0.345012
4712.85,0.345077
4717.14,0.344304
4721.43,0.34365
4725.74,0.343645
4730.05,0.343236
4734.37,0.342822
4738.7,0.342562
4743.03,0.342589
4747.38,0.342083
4751.73,0.341779
4756.09,0.341391
4760.45,0.341376
4764.83,0.341053
4769.21,0.340761
4773.6,0.340319
4778.0,0.340076
4782.41,0.339787
4786.83,0.339534
4791.25,0.339123
4795.68,0.339114
4800.13,0.339121
4804.57,0.33886
4809.03,0.338493
4813.5,0.338612
4817.97,0.339132
4822.45,0.339531
4826.94,0.338683
4831.44,0.337888
4835.95,0.337646
4840.46,0.337939
4844.99,0.33755
4849.52,0.337115
4854.06,0.336501
4858.61,0.336544
4863.17,0.336335
4867.73,0.335896
4872.31,0.335669
4876.89,0.335557
4881.48,0.334816
4886.08,0.334614
4890.69,0.334236
4895.31,0.334121
4899.94,0.334271
4904.57,0.333483
4909.22,0.332686
4913.87,0.332639
4918.53,0.332387
4923.21,0.332024
4927.88,0.331736
4932.57,0.331393
4937.27,0.330822
4941.98,0.33056
4946.69,0.329996
4951.42,0.329592
4956.15,0.329161
4960.89,0.329044
4965.65,0.328858
4970.41,0.328691
4975.18,0.328306
4979.96,0.327724
4984.75,0.327228
4989.54,0.327052
4994.35,0.326736
4999.17,0.326292
5003.99,0.325228
5008.83,0.324432
5013.67,0.324211
5018.52,0.323748
5023.39,0.323119
5028.26,0.322831
5033.14,0.322389
5038.03,0.322096
5042.93,0.321167
5047.84,0.320097
5052.76,0.319446
5057.69,0.319337
5062.63,0.318444
5067.58,0.317626
5072.54,0.317113
5077.51,0.316449
5082.49,0.315201
5087.47,0.314179
5092.47,0.313452
5097.48,0.313076
5102.5,0.311884
5107.52,0.310939
5112.56,0.309825
5117.61,0.309317
5122.66,0.308955
5127.73,0.308462
5132.81,0.307495
5137.89,0.30684
5142.99,0.30594
5148.1,0.305065
5153.22,0.304444
5158.34,0.303917
5163.48,0.303459
5168.63,0.302943
5173.79,0.30225
5178.96,0.301646
5184.13,0.300763
5189.32,0.300267
5194.52,0.299652
5199.73,0.299081
5204.95,0.298921
5210.19,0.298456
5215.43,0.2975
5220.68,0.29717
5225.94,0.296858
5231.22,0.296695
5236.5,0.295845
5241.79,0.295298
5247.1,0.295084
5252.42,0.294938
5257.74,0.29412
5263.08,0.292978
5268.43,0.292173
5273.79,0.291915
5279.16,0.291292
5284.54,0.290294
5289.93,0.289324
5295.34,0.289157
5300.75,0.288793
5306.18,0.288339
5311.61,0.287565
5317.06,0.286924
5322.52,0.286295
5327.99,0.285877
5333.47,0.284764
5338.96,0.283924
5344.47,0.283476
5349.98,0.283208
5355.51,0.282423
5361.05,0.281939
5366.6,0.281468
5372.16,0.280846
5377.73,0.279837
5383.32,0.2795
5388.91,0.279166
5394.52,0.27862
5400.14,0.278064
5405.77,0.277741
5411.41,0.276856
5417.07,0.275789
5422.74,0.274724
5428.41,0.274599
5434.1,0.274516
5439.81,0.274043
5445.52,0.273288
5451.25,0.272747
5456.98,0.272004
5462.73,0.270913
5468.5,0.269612
5474.27,0.26981
5480.06,0.269325
5485.86,0.268917
5491.67,0.268735
5497.49,0.268099
5503.33,0.267134
5509.18,0.266754
5515.04,0.266259
5520.91,0.265877
5526.8,0.265307
5532.69,0.264543
5538.61,0.263917
5544.53,0.26371
5550.47,0.263392
5556.41,0.26254
5562.38,0.261797
5568.35,0.262006
5574.34,0.261576
5580.34,0.26079
5586.35,0.260349
5592.38,0.260404
5598.42,0.260329
5604.47,0.260118
5610.54,0.25994
5616.61,0.259824
5622.71,0.259131
5628.81,0.258836
5634.93,0.258243
5641.06,0.258034
5647.21,0.257729
5653.36,0.25789
5659.54,0.257307
5665.72,0.256892
5671.92,0.256523
5678.13,0.256449
5684.36,0.256255
5690.6,0.255973
5696.85,0.255157
5703.12,0.254803
5709.4,0.253905
5715.69,0.253484
5722.0,0.253163
5728.33,0.252981
5734.66,0.252135
5741.01,0.251161
5747.38,0.249927
5753.76,0.248794
5760.15,0.247437
5766.56,0.2456
5772.98,0.24313
5779.41,0.241915
5785.86,0.24026
5792.33,0.238915
5798.81,0.236659
5805.3,0.234356
5811.81,0.231911
5818.33,0.229128
5824.87,0.22572
5831.42,0.223562
5837.99,0.221192
5844.57,0.21893
5851.17,0.216277
5857.78,0.213798
5864.41,0.210681
5871.05,0.207899
5877.7,0.204425
5884.38,0.200564
5891.06,0.19674
5897.76,0.194105
5904.48,0.190419
5911.21,0.187435
5917.96,0.183301
5924.73,0.178898
5931.5,0.175206
5938.3,0.171038
5945.11,0.165473
5951.93,0.162064
5958.78,0.157985
5965.63,0.154149
5972.51,0.149599
5979.39,0.145819
5986.3,0.142049
5993.22,0.137508
6000.16,0.13258
6007.11,0.128959
6014.08,0.125071
6021.06,0.121117
6028.06,0.117264
6035.08,0.113595
6042.12,0.109819
6049.17,0.106107
6056.23,0.101342
6063.32,0.098316
6070.42,0.095369
6077.53,0.092084
6084.67,0.088919
6091.82,0.08704
6098.98,0.085237
6106.17,0.083901
6113.37,0.082459
6120.58,0.081082
6127.82,0.080619
6135.07,0.080774
6142.34,0.080566
6149.63,0.080868
6156.93,0.081816
6164.25,0.082886
6171.59,0.083975
6178.94,0.085682
6186.32,0.087532
6193.71,0.089403
6201.12,0.091362
6208.54,0.093252
6215.99,0.094616
6223.45,0.096349
6230.93,0.098142
6238.43,0.099675
6245.95,0.10094
6253.48,0.102518
6261.03,0.103928
6268.6,0.105457
6276.19,0.10687
6283.8,0.108136
6291.43,0.109676
6299.07,0.111379
6306.73,0.11289
6314.42,0.11452
6322.12,0.115734
6329.83,0.117421
6337.57,0.119549
6345.33,0.121127
6353.11,0.122867
6360.9,0.124786
6368.72,0.126596
6376.55,0.128526
6384.4,0.130434
6392.27,0.131938
6400.17,0.133687
6408.08,0.135225
6416.01,0.136385
6423.96,0.139534
6431.93,0.142061
6439.92,0.144165
6447.93,0.146983
6455.96,0.149331
6464.01,0.151883
6472.08,0.154324
6480.17,0.15643
6488.28,0.158169
6496.41,0.160008
6504.56,0.162906
6512.73,0.165725
6520.92,0.167536
6529.14,0.169427
6537.37,0.171461
6545.63,0.17257
6553.9,0.173383
6562.2,0.174749
6570.51,0.175659
6578.85,0.176221
6587.21,0.177077
6595.59,0.177065
6603.99,0.177879
6612.42,0.17851
6620.86,0.177893
6629.33,0.176797
6637.82,0.175669
6646.33,0.174683
6654.86,0.17464
6663.41,0.17408
6671.99,0.172763
6680.59,0.170573
6689.21,0.168697
6697.85,0.167025
6706.51,0.165356
6715.2,0.162533
6723.91,0.159699
6732.64,0.157123
6741.4,0.15486
6750.18,0.151977
6758.98,0.148769
6767.8,0.1456
6776.65,0.142054
6785.52,0.138457
6794.41,0.134672
6803.33,0.130742
6812.27,0.128351
6821.23,0.125969
6830.22,0.12295
6839.23,0.119616
6848.26,0.116971
6857.32,0.114061
6866.4,0.11107
6875.51,0.10768
6884.64,0.10496
6893.8,0.102858
6902.98,0.101071
6912.18,0.098664
6921.41,0.096616
6930.66,0.094778
6939.94,0.093286
6949.24,0.091356
6958.57,0.089514
6967.92,0.08771
6977.3,0.086732
6986.7,0.085401
6996.13,0.083774
7005.59,0.08238
7015.07,0.081692
7024.57,0.080901
7034.1,0.08017
7043.66,0.079424
7053.24,0.078585
7062.85,0.077585
7072.49,0.077051
7082.15,0.076745
7091.84,0.076151
7101.55,0.075243
7111.3,0.074874
7121.06,0.074665
7130.86,0.074469
7140.68,0.073708
7150.53,0.073108
7160.41,0.072615
7170.31,0.072379
7180.24,0.07234
7190.2,0.072415
7200.19,0.072025
7210.2,0.071661
7220.24,0.071495
7230.31,0.071714
7240.41,0.071574
7250.54,0.071084
7260.69,0.07071
7270.88,0.070172
7281.09,0.069554
7291.33,0.069559
7301.6,0.069165
7311.9,0.068186
7322.22,0.067458
7332.58,0.067357
7342.97,0.067174
7353.38,0.066887
7363.83,0.06642
7374.3,0.066132
7384.81,0.06533
7395.34,0.065243
7405.91,0.065119
7416.5,0.064816
7427.13,0.064747
7437.78,0.064823
7448.47,0.064969
7459.19,0.065495
7469.94,0.065094
7480.71,0.064976
7491.52,0.065052
7502.37,0.064645
7513.24,0.064322
7524.14,0.064516
7535.08,0.064476
7546.05,0.064553
7557.05,0.063965
7568.08,0.063239
7579.14,0.062821
7590.24,0.062645
7601.37,0.062315
7612.53,0.061764
7623.73,0.061037
7634.96,0.0605
7646.22,0.05971
7657.51,0.059434
7668.84,0.059199
7680.2,0.058937
7691.59,0.058823
7703.02,0.058636
7714.49,0.058259
7725.98,0.058261
7737.51,0.057827
7749.08,0.057081
7760.68,0.056368
7772.32,0.055682
7783.99,0.054905
7795.69,0.054885
7807.43,0.054552
7819.21,0.053828
7831.02,0.053114
7842.87,0.052591
7854.75,0.051852
7866.67,0.05149
7878.62,0.050986
7890.62,0.050174
7902.64,0.049013
7914.71,0.047984
7926.81,0.047609
7938.95,0.047065
7951.13,0.045992
7963.34,0.044757
7975.59,0.043472
7987.88,0.042694
8000.21,0.041637
8012.57,0.040797
8024.98,0.039488
8037.42,0.038507
8049.9,0.03751
8062.42,0.036239
8074.98,0.035055
8087.57,0.034089
8100.21,0.033311
8112.89,0.032413
8125.6,0.03102
8138.36,0.029857
8151.16,0.029115
8163.99,0.028483
8176.87,0.027729
8189.79,0.026698
8202.75,0.025267
8215.74,0.024663
8228.79,0.024082
8241.87,0.023189
8254.99,0.022243
8268.16,0.022033
8281.37,0.021407
8294.62,0.020661
8307.91,0.019666
8321.24,0.019203
8334.62,0.019161
8348.04,0.018974
8361.51,0.0188
8375.02,0.018763
8388.57,0.018545
8402.16,0.018237
8415.8,0.017495
8429.49,0.017057
8443.22,0.017198
8456.99,0.017634
8470.81,0.017682
8484.67,0.017873
8498.58,0.018125
8512.54,0.018545
8526.54,0.018531
8540.58,0.018765
8554.68,0.019441
8568.82,0.020089
8583.0,0.020529
8597.24,0.021393
8611.52,0.022139
8625.85,0.022881
8640.22,0.023663
8654.65,0.0247
8669.12,0.025345
8683.64,0.026126
8698.21,0.026853
8712.83,0.02763
8727.5,0.028466
8742.22,0.029448
8756.98,0.030564
8771.8,0.031502
8786.67,0.031909
8801.59,0.033228
8816.56,0.034136
8831.58,0.034661
8846.65,0.035524
8861.77,0.036225
8876.94,0.036704
8892.17,0.037971
8907.45,0.038931
8922.78,0.038959
8938.16,0.038938
8953.6,0.039636
8969.09,0.040728
8984.64,0.042307
9000.23,0.042963
9015.89,0.04332
9031.59,0.043943
9047.36,0.044554
9063.17,0.044647
9079.04,0.045496
9094.97,0.046593
9110.96,0.047416
9127.0,0.048401
9143.09,0.049532
9159.25,0.049617
9175.46,0.050374
9191.73,0.051581
9208.05,0.052566
9224.44,0.053233
9240.88,0.053824
9257.38,0.054878
9273.94,0.055412
9290.56,0.055762
9307.24,0.056325
9323.98,0.056716
9340.78,0.056943
9357.64,0.057074
9374.57,0.057451
9391.55,0.058213
9408.59,0.058694
9425.7,0.058219
9442.87,0.058163
9460.1,0.058254
9477.39,0.058288
9494.75,0.058346
9512.17,0.058902
9529.66,0.058994
9547.21,0.058661
9564.82,0.058219
9582.5,0.057752
9600.25,0.057153
9618.06,0.056677
9635.94,0.05626
9653.88,0.056262
9671.89,0.05589
9689.97,0.054816
9708.12,0.054024
9726.33,0.0535
9744.61,0.053089
9762.97,0.052835
9781.39,0.05242
9799.88,0.052235
9818.44,0.051407
9837.07,0.050826
9855.77,0.050701
9874.54,0.050422
9893.39,0.049947
9912.3,0.049378
9931.29,0.049024
9950.35,0.04951
9969.49,0.049352
9988.7,0.048588
10007.98,0.048116
10027.34,0.047865
10046.77,0.047917
10066.28,0.047848
10085.87,0.047508
10105.53,0.047408
10125.26,0.04747
10145.08,0.047401
10164.97,0.047169
10184.94,0.046693
10204.99,0.046379
10225.12,0.046643
10245.33,0.046491
10265.61,0.04623
10285.98,0.046057
10306.43,0.045484
10326.96,0.045383
10347.57,0.046081
10368.27,0.046831
10389.05,0.047324
10409.91,0.047095
10430.85,0.047218
10451.88,0.047185
10473.0,0.047126
10494.2,0.047285
10515.49,0.047377
10536.86,0.04763
10558.32,0.048279
10579.87,0.04889
10601.5,0.048522
10623.23,0.048059
10645.04,0.048225
10666.94,0.04855
10688.94,0.048833
10711.02,0.048847
10733.2,0.049291
10755.47,0.049581
10777.83,0.049709
10800.28,0.049913
10822.83,0.050192
10845.47,0.050529
10868.21,0.050588
10891.04,0.050703
10913.97,0.051047
10936.99,0.05114
10960.12,0.051351
10983.34,0.051644
11006.66,0.051511
11030.07,0.05202
11053.59,0.052469
11077.21,0.052574
11100.93,0.053107
11124.75,0.053326
11148.68,0.053738
11172.7,0.054283
11196.84,0.054466
11221.07,0.054486
11245.41,0.054587
11269.86,0.055221
11294.41,0.05543
11319.07,0.05552
11343.84,0.056064
11368.72,0.05651
11393.7,0.056625
11418.8,0.057061
11444.01,0.057175
11469.33,0.056756
11494.76,0.05647
11520.3,0.057257
11545.96,0.058159
11571.73,0.058084
11597.62,0.05793
11623.62,0.057504
11649.74,0.057604
11675.98,0.058129
11702.34,0.058435
11728.81,0.059063
11755.41,0.059844
11782.13,0.060309
11808.96,0.060277
11835.92,0.060497
11863.01,0.061011
11890.22,0.06141
11917.55,0.061625
11945.01,0.06147
11972.6,0.061811
12000.31,0.061772
12028.16,0.061745
12056.13,0.061717
12084.23,0.062233
12112.46,0.062518
12140.83,0.062085
12169.33,0.061473
12197.96,0.060524
12226.73,0.060105
12255.64,0.059894
12284.68,0.059821
12313.86,0.059643
12343.18,0.058962
12372.64,0.058209
12402.24,0.05747
12431.98,0.056953
12461.86,0.055468
12491.89,0.054572
12522.06,0.054463
12552.38,0.053907
12582.85,0.053282
12613.47,0.052795
12644.23,0.052428
12675.15,0.052425
12706.21,0.052196
12737.43,0.05148
12768.8,0.051348
12800.33,0.051336
12832.02,0.051078
12863.86,0.050246
12895.86,0.049625
12928.02,0.049559
12960.34,0.048924
12992.82,0.048247
13025.46,0.047809
13058.27,0.047561
13091.25,0.04784
13124.39,0.0473
13157.7,0.04623
13191.18,0.045903
13224.83,0.046498
13258.66,0.045595
13292.65,0.044096
13326.83,0.044035
13361.17,0.043662
13395.7,0.04343
13430.4,0.043293
13465.29,0.042168
13500.35,0.041144
13535.6,0.041382
13571.03,0.041096
13606.65,0.04035
13642.46,0.039611
13678.46,0.039467
13714.64,0.039688
13751.02,0.039604
13787.59,0.039346
13824.36,0.038738
13861.32,0.03807
13898.48,0.038247
13935.85,0.037391
13973.41,0.036327
14011.17,0.036209
14049.15,0.03615
14087.32,0.035843
14125.71,0.034635
14164.3,0.033634
14203.11,0.033183
14242.13,0.032635
14281.36,0.032695
14320.81,0.032256
14360.48,0.031479
14400.38,0.031217
14440.49,0.030681
14480.82,0.030148
14521.39,0.029513
14562.18,0.029029
14603.2,0.028931
14644.45,0.02925
14685.93,0.030467
14727.66,0.031234
14769.62,0.031397
14811.81,0.029882
14854.25,0.029506
14896.94,0.030801
14939.87,0.032071
14983.05,0.03244
15026.48,0.032076
15070.16,0.032219
15114.1,0.031968
15158.29,0.031717
15202.74,0.032027
15247.46,0.031956
15292.43,0.032035
15337.68,0.031879
15383.19,0.031588
15428.97,0.031326
15475.03,0.031321
15521.36,0.031401
15567.97,0.031719
15614.86,0.030961
15662.04,0.03088
15709.5,0.031539
15757.25,0.031565
15805.29,0.031229
15853.62,0.031148
15902.25,0.03172
15951.18,0.032398
16000.42,0.032637
16049.95,0.031762
16099.8,0.030976
16149.95,0.031006
16200.42,0.030934
16251.21,0.029937
16302.31,0.029511
16353.74,0.029982
16405.49,0.029804
16457.57,0.029858
16509.98,0.029317
16562.73,0.029948
16615.82,0.029944
16669.24,0.029134
16723.02,0.028302
16777.13,0.028132
16831.61,0.027671
16886.43,0.027171
16941.62,0.026916
16997.16,0.027416
17053.07,0.028436
17109.36,0.028684
17166.01,0.027967
17223.04,0.027615
17280.45,0.028305
17338.24,0.029332
17396.43,0.029462
17455.0,0.031056
17513.97,0.031313
17573.34,0.03049
17633.11,0.030294
17693.29,0.031585
17753.89,0.033206
17814.9,0.035346
17876.33,0.036456
17938.18,0.037975
18000.47,0.039855
18063.19,0.042311
18126.35,0.043918
18189.95,0.045795
18254.0,0.047779
18318.5,0.048628
18383.46,0.049501
18448.88,0.051337
18514.77,0.054819
18581.13,0.057823
18647.97,0.059715
18715.29,0.061933
18783.1,0.063012
18851.4,0.06341
18920.2,0.064912
18989.51,0.06563
19059.32,0.066736
19129.65,0.068041
19200.5,0.070212
19271.88,0.070576
19343.79,0.070295
19416.23,0.069998
19489.23,0.070286
19562.77,0.070438
19636.88,0.071907
19711.54,0.074019
19786.77,0.075092
19862.59,0.077448
19938.98,0.079299
20015.96,0.077537
20093.54,0.077031
20171.73,0.078472
20250.53,0.08004
20329.94,0.080684
20409.98,0.078823
20490.65,0.079025
20571.96,0.080155
20653.92,0.080852
20736.54,0.08054
20819.82,0.080784
20903.77,0.083278
20988.4,0.084082
21073.72,0.083785
21159.73,0.083183
21246.46,0.083194
21333.89,0.082912
21422.04,0.083165
21510.93,0.086439
21600.56,0.085918
21690.94,0.082059
21782.08,0.082794
21873.99,0.084841
21966.67,0.083041
22060.15,0.080747
22154.42,0.080549
22249.51,0.081948
22345.41,0.081392
22442.14,0.078779
22539.72,0.079402
22638.14,0.080312
22737.43,0.077901
22837.6,0.078691
22938.65,0.075345
23040.6,0.070581
23143.46,0.072051
23247.24,0.072739
23351.96,0.068584
23457.62,0.068326
23564.25,0.067209
23671.85,0.068969
23780.44,0.071963
23890.02,0.072317
24000.63,0.068676
24112.26,0.066672
24224.93,0.068168
24338.66,0.069511
24453.47,0.073541
24569.36,0.078068
24686.36,0.072498
24804.47,0.063239
24923.72,0.057007
25044.13,0.062072
25165.7,0.072453
25288.46,0.067774
25412.43,0.073039
25537.61,0.080924
25664.03,0.073758
25791.71,0.079618
25920.67,0.091154
