Database of Origin,University of Winnipeg Spectrophotometer Facility
Sample Description,Carbonates and Oxolates - RELAB+Nicolet spectra Newly merged spectra (merged by RELAB)
Other Information,dry seived
Date Added,2018-08-06 20:49:02.019906

Data ID,RLA_CARB_1_8        
Sample ID,CRB104
Mineral Name,Gaspeite
Locality,Lemieux/ Township/ Gaspe Nord County/ Gaspe Peninsula/ Quebec Canada
Grain Size,45-90 um
Viewing Geometry,30/0/30
Resolution,5/ 0.6-129 nm
Formula,(Ni/Mg/Fe+2)CO3
Composition,Almost all gaspetite and a bit of laumontite. Green Crystalline masses/ minor rock

Wavelength
305.0,0.093343
310.0,0.092996
315.0,0.092594
320.0,0.093028
325.0,0.092328
330.0,0.094408
335.0,0.095441
340.0,0.096357
345.0,0.099477
350.0,0.102007
355.0,0.107094
360.0,0.111337
365.0,0.11795
370.0,0.123075
375.0,0.127402
380.0,0.127856
385.0,0.126233
390.0,0.122746
395.0,0.118499
400.0,0.117788
405.0,0.116692
410.0,0.114109
415.0,0.11371
420.0,0.113321
425.0,0.116384
430.0,0.122895
435.0,0.133972
440.0,0.150363
445.0,0.172927
450.0,0.194319
455.0,0.211755
460.0,0.222421
465.0,0.230408
470.0,0.237498
475.0,0.246341
480.0,0.256767
485.0,0.273458
490.0,0.295217
495.0,0.318381
500.0,0.339119
505.0,0.356064
510.0,0.367539
515.0,0.378817
520.0,0.388049
525.0,0.397436
530.0,0.406633
535.0,0.416198
540.0,0.42547
545.0,0.433979
550.0,0.440595
555.0,0.447582
560.0,0.452241
565.0,0.456606
570.0,0.459067
575.0,0.459385
580.0,0.458466
585.0,0.453595
590.0,0.445516
595.0,0.435658
600.0,0.42223
605.0,0.405176
610.0,0.391547
615.0,0.373468
620.0,0.35046
625.0,0.336107
630.0,0.320944
635.0,0.303047
640.0,0.286624
645.0,0.269015
650.0,0.249301
655.0,0.234545
660.0,0.224683
665.0,0.211386
670.0,0.197285
675.0,0.189003
680.0,0.188688
685.0,0.190236
690.0,0.189144
695.0,0.186138
700.0,0.184647
705.0,0.184233
710.0,0.183024
715.0,0.180448
720.0,0.177907
725.0,0.174865
730.0,0.170653
735.0,0.167716
740.0,0.166716
745.0,0.164686
750.0,0.164382
755.0,0.164443
760.0,0.166033
765.0,0.168662
770.0,0.174267
775.0,0.180111
780.0,0.186732
785.0,0.194469
790.0,0.203498
795.0,0.213122
800.0,0.223452
805.0,0.23596
810.0,0.250217
815.0,0.26283
820.0,0.278074
825.0,0.292591
830.0,0.30724
835.0,0.322291
840.0,0.340138
845.0,0.356835
850.0,0.373378
855.0,0.388713
860.0,0.403801
865.0,0.418082
870.0,0.431866
875.0,0.442193
880.0,0.45139
885.0,0.45875
890.0,0.461498
895.0,0.464538
900.0,0.465754
905.0,0.465252
910.0,0.462479
915.0,0.458223
920.0,0.452898
925.0,0.446552
930.0,0.439995
935.0,0.432519
940.0,0.424023
945.0,0.416554
950.0,0.407637
955.0,0.399635
960.0,0.391642
965.0,0.384036
970.0,0.376172
975.0,0.367929
980.0,0.361233
985.0,0.353092
990.0,0.34515
995.0,0.337595
1000.0,0.33072
1005.0,0.323837
1010.0,0.316169
1015.0,0.310289
1020.0,0.303454
1025.0,0.296717
1030.0,0.289445
1035.0,0.283145
1040.0,0.27534
1045.0,0.269725
1050.0,0.264254
1055.0,0.258255
1060.0,0.2515
1065.0,0.245736
1070.0,0.24227
1075.0,0.236562
1080.0,0.230653
1085.0,0.225933
1090.0,0.221392
1095.0,0.217077
1100.0,0.211291
1105.0,0.207038
1110.0,0.204056
1115.0,0.200688
1120.0,0.197767
1125.0,0.194061
1130.0,0.190685
1135.0,0.187994
1140.0,0.184971
1145.0,0.182419
1150.0,0.17997
1155.0,0.177926
1160.0,0.176738
1165.0,0.175156
1170.0,0.17411
1175.0,0.173384
1180.0,0.172981
1185.0,0.172426
1190.0,0.172102
1195.0,0.171945
1200.0,0.169948
1205.0,0.168962
1210.0,0.170579
1215.0,0.170641
1220.0,0.17139
1225.0,0.172138
1230.0,0.172396
1235.0,0.173242
1240.0,0.175115
1245.0,0.176025
1250.0,0.177523
1255.0,0.178774
1260.0,0.180026
1265.0,0.181273
1270.0,0.18258
1275.0,0.184168
1280.0,0.186202
1285.0,0.187906
1290.0,0.187654
1295.0,0.189678
1300.0,0.192432
1305.0,0.194647
1310.0,0.198585
1315.0,0.201055
1320.0,0.203155
1325.0,0.205832
1330.0,0.20912
1335.0,0.211983
1340.0,0.215614
1345.0,0.218804
1350.0,0.223343
1355.0,0.227297
1360.0,0.231407
1365.0,0.234809
1370.0,0.240565
1375.0,0.245052
1380.0,0.2504
1385.0,0.254373
1420.0,0.299012
1425.0,0.306554
1430.0,0.313655
1435.0,0.321557
1440.0,0.33238
1445.0,0.341085
1450.0,0.350795
1455.0,0.360197
1460.0,0.369973
1465.0,0.380084
1470.0,0.390494
1475.0,0.400779
1480.0,0.411832
1485.0,0.422471
1490.0,0.432256
1495.0,0.443394
1500.0,0.453897
1505.0,0.463994
1510.0,0.475243
1515.0,0.485843
1520.0,0.497207
1525.0,0.508085
1530.0,0.518328
1535.0,0.528978
1540.0,0.540642
1545.0,0.549746
1550.0,0.559544
1555.0,0.569042
1560.0,0.577982
1565.0,0.587343
1570.0,0.596268
1575.0,0.604657
1580.0,0.612769
1585.0,0.620839
1590.0,0.628478
1595.0,0.635127
1600.0,0.641251
1605.0,0.647012
1610.0,0.653641
1615.0,0.659337
1620.0,0.664963
1625.0,0.669302
1630.0,0.673308
1635.0,0.677593
1640.0,0.68168
1645.0,0.685857
1650.0,0.688574
1655.0,0.691481
1660.0,0.69481
1665.0,0.698567
1670.0,0.700756
1675.0,0.702571
1680.0,0.705242
1685.0,0.706487
1690.0,0.707824
1695.0,0.708712
1700.0,0.710037
1705.31,0.710924
1709.81,0.712016
1715.46,0.712806
1720.02,0.713271
1724.6,0.714029
1730.35,0.714837
1734.98,0.715145
1739.64,0.714911
1745.5,0.715384
1750.21,0.715418
1754.95,0.716429
1759.72,0.716849
1764.51,0.717054
1770.54,0.717432
1775.39,0.717419
1780.27,0.717441
1785.17,0.717604
1790.1,0.717329
1795.06,0.717067
1800.05,0.716673
1805.06,0.716035
1810.1,0.71555
1815.17,0.714928
1820.27,0.714044
1825.4,0.713107
1830.56,0.712275
1834.44,0.71147
1839.65,0.710463
1844.89,0.709647
1850.16,0.708794
1855.45,0.707631
1859.45,0.707045
1864.8,0.706053
1870.18,0.704568
1875.59,0.702904
1879.67,0.70097
1885.14,0.697354
1890.64,0.693035
1894.79,0.688651
1900.34,0.680753
1904.53,0.676068
1910.15,0.672723
1914.38,0.671659
1920.05,0.671553
1924.33,0.671697
1930.06,0.672094
1934.38,0.672245
1940.17,0.672405
1944.54,0.672385
1950.39,0.672624
1954.8,0.672561
1960.72,0.672378
1965.18,0.672288
1969.66,0.672189
1975.66,0.671794
1980.19,0.671713
1984.74,0.671625
1989.31,0.671781
1995.43,0.672031
2000.05,0.672511
2004.69,0.6736
2009.35,0.674648
2015.6,0.676368
2020.32,0.677576
2025.05,0.678189
2029.81,0.678882
2034.59,0.679486
2039.39,0.679831
2044.22,0.679743
2050.69,0.680178
2055.57,0.680151
2060.47,0.680085
2065.39,0.679932
2070.34,0.67988
2075.31,0.679438
2080.31,0.678543
2085.33,0.677563
2090.38,0.676846
2095.45,0.676188
2100.54,0.675753
2105.66,0.675793
2110.8,0.67557
2114.25,0.675315
2119.43,0.674889
2124.65,0.674495
2129.88,0.673825
2135.15,0.67298
2140.44,0.672293
2145.75,0.671939
2149.31,0.671472
2154.67,0.671614
2160.06,0.671984
2165.47,0.67275
2170.91,0.673332
2174.55,0.673444
2180.04,0.672838
2185.55,0.671747
2189.25,0.670755
2194.81,0.668929
2200.4,0.667054
2204.14,0.665359
2209.78,0.661986
2215.44,0.65838
2219.24,0.655382
2224.95,0.651042
2230.7,0.645718
2234.54,0.641622
2240.33,0.634623
2244.21,0.629583
2250.06,0.622349
2255.93,0.614838
2259.87,0.609487
2265.79,0.601092
2269.76,0.594584
2275.74,0.582903
2279.74,0.574168
2285.77,0.559379
2289.81,0.549052
2295.9,0.536528
2299.97,0.53163
2304.06,0.52725
2310.22,0.519489
2314.35,0.517963
2320.56,0.517972
2324.72,0.515668
2331.0,0.524042
2335.2,0.535135
2339.41,0.545912
2345.76,0.557947
2350.02,0.564218
2354.28,0.569353
2360.72,0.577371
2365.03,0.583525
2369.35,0.592941
2375.86,0.60822
2380.23,0.612604
2384.61,0.611608
2389.0,0.608168
2395.63,0.600668
2400.06,0.59543
2404.52,0.591503
2408.98,0.587504
2415.72,0.583331
2420.23,0.581542
2424.76,0.578289
2429.3,0.573003
2433.87,0.567417
2440.74,0.555923
2445.35,0.547084
2449.97,0.5375
2454.61,0.527646
2459.27,0.517938
2463.94,0.509311
2470.99,0.497959
2475.71,0.491641
2480.45,0.485865
2485.2,0.481366
2489.98,0.47766
2494.77,0.47372
2499.58,0.470593
2504.41,0.467228
2509.26,0.464207
2514.13,0.461872
2519.02,0.460598
2523.92,0.459877
2528.85,0.460743
2533.79,0.463285
2541.24,0.470546
2543.74,0.474011
2548.74,0.483383
2553.76,0.495626
2556.28,0.502837
2558.8,0.510513
2561.33,0.518479
2563.86,0.526632
2566.4,0.535529
2568.95,0.544007
2571.5,0.551676
2574.05,0.55817
2576.61,0.563127
2579.17,0.566842
2581.74,0.569392
2584.31,0.570794
2586.89,0.572115
2589.48,0.573469
2592.07,0.574276
2594.66,0.574231
2597.26,0.574213
2599.87,0.575196
2602.48,0.575753
2605.09,0.57544
2607.71,0.575079
2610.34,0.574901
2612.97,0.5745
2615.61,0.573988
2618.25,0.57307
2620.9,0.571835
2623.55,0.571175
2626.21,0.570404
2628.87,0.569103
2631.54,0.567719
2634.22,0.56652
2636.89,0.565086
2639.58,0.563716
2642.27,0.562286
2644.97,0.560645
2647.67,0.558745
2650.38,0.556671
2653.09,0.554131
2655.81,0.551237
2658.53,0.548042
2661.26,0.544733
2664.0,0.540944
2666.74,0.536395
2669.48,0.531571
2672.23,0.526274
2674.99,0.52019
2677.76,0.51336
2680.52,0.504983
2683.3,0.496169
2686.08,0.486688
2688.87,0.47569
2691.66,0.463224
2694.46,0.449154
2697.26,0.431603
2700.07,0.412956
2702.89,0.395831
2705.71,0.379094
2708.53,0.357195
2711.37,0.330293
2714.21,0.302916
2717.05,0.276049
2719.9,0.238584
2722.76,0.2083
2725.62,0.204567
2728.49,0.192218
2731.37,0.159756
2734.25,0.148368
2737.14,0.16063
2740.03,0.159821
2742.93,0.139371
2745.83,0.126074
2748.75,0.139667
2751.66,0.153289
2754.59,0.154048
2757.52,0.142322
2760.46,0.130179
2763.4,0.137133
2766.35,0.150464
2769.3,0.155405
2772.26,0.156226
2775.23,0.155604
2778.21,0.154585
2781.19,0.15334
2784.18,0.152335
2787.17,0.150861
2790.17,0.149441
2793.18,0.148129
2796.19,0.147338
2799.21,0.146936
2802.24,0.146792
2805.27,0.146526
2808.31,0.146429
2811.35,0.146391
2814.41,0.14626
2817.46,0.145958
2820.53,0.145877
2823.6,0.145462
2826.68,0.144964
2829.77,0.144202
2832.86,0.143571
2835.96,0.142843
2839.07,0.142065
2842.18,0.141233
2845.3,0.140284
2848.43,0.139319
2851.56,0.138614
2854.7,0.137687
2857.85,0.136862
2861.0,0.13606
2864.16,0.135174
2867.33,0.134178
2870.51,0.133258
2873.69,0.132512
2876.88,0.131777
2880.07,0.130792
2883.28,0.12996
2886.49,0.129144
2889.71,0.128161
2892.93,0.127381
2896.17,0.126493
2899.4,0.125294
2902.65,0.124645
2905.91,0.124129
2909.17,0.123173
2912.44,0.12201
2915.71,0.121329
2918.99,0.120691
2922.29,0.119855
2925.58,0.119176
2928.89,0.118561
2932.2,0.117828
2935.52,0.117222
2938.85,0.116566
2942.19,0.115995
2945.53,0.115443
2948.88,0.115094
2952.24,0.114393
2955.61,0.113786
2958.98,0.113182
2962.36,0.112625
2965.75,0.11199
2969.15,0.111543
2972.55,0.111426
2975.97,0.111043
2979.39,0.110621
2986.25,0.110164
2989.7,0.110056
2993.15,0.109695
2996.61,0.109679
3000.08,0.109616
3003.55,0.109375
3007.04,0.109445
3010.53,0.110112
3014.03,0.110703
3017.54,0.111106
3021.06,0.111352
3024.58,0.111836
3028.12,0.112495
3031.66,0.113018
3035.21,0.113586
3038.77,0.114532
3042.33,0.115272
3045.91,0.115734
3049.49,0.116153
3053.08,0.116805
3056.68,0.117463
3060.29,0.118293
3063.91,0.119185
3067.54,0.11962
3071.17,0.120331
3074.81,0.121172
3078.47,0.121746
3082.13,0.122361
3085.79,0.122918
3089.47,0.123484
3093.16,0.124192
3096.85,0.125427
3100.56,0.126536
3104.27,0.126935
3107.99,0.127421
3111.73,0.128092
3115.47,0.129001
3119.21,0.129856
3122.97,0.130268
3126.74,0.131094
3130.52,0.131262
3134.3,0.131865
3138.1,0.132109
3141.9,0.133012
3145.71,0.133723
3149.54,0.133988
3153.37,0.134689
3157.21,0.13508
3161.06,0.135751
3164.92,0.13647
3168.79,0.137001
3172.67,0.137812
3176.55,0.138239
3180.45,0.139025
3184.36,0.139785
3188.27,0.140882
3192.2,0.141991
3196.14,0.142829
3200.08,0.143938
3204.04,0.144855
3208.0,0.145673
3211.98,0.146331
3215.96,0.146828
3219.96,0.147749
3223.96,0.148603
3227.98,0.149178
3232.0,0.149962
3236.04,0.150552
3240.08,0.150817
3244.14,0.150743
3248.2,0.150923
3252.28,0.149688
3256.37,0.147772
3260.46,0.144379
3264.57,0.138419
3268.69,0.130848
3272.81,0.123043
3276.95,0.115454
3281.1,0.108375
3285.26,0.101863
3289.43,0.096574
3293.61,0.091801
3297.8,0.087618
3302.0,0.084181
3306.21,0.080928
3310.43,0.078329
3314.66,0.076267
3318.91,0.074153
3323.16,0.073289
3327.43,0.073308
3331.71,0.073032
3335.99,0.073157
3340.29,0.073531
3344.6,0.0738
3348.92,0.074138
3353.26,0.074159
3357.6,0.074151
3361.96,0.074303
3366.32,0.074221
3370.7,0.073987
3375.09,0.0739
3379.49,0.073677
3383.9,0.073509
3388.32,0.07342
3392.76,0.073261
3397.21,0.073106
3401.66,0.072615
3406.13,0.071641
3410.61,0.070554
3415.11,0.069305
3419.61,0.068469
3424.13,0.067214
3428.66,0.066728
3433.2,0.065953
3437.76,0.065286
3442.32,0.064851
3446.9,0.064347
3451.49,0.064163
3456.09,0.06397
3460.7,0.063764
3465.33,0.063895
3469.97,0.063991
3474.62,0.064195
3479.29,0.064201
3483.96,0.064772
3488.65,0.06539
3493.35,0.066479
3498.07,0.068063
3502.79,0.070573
3507.53,0.073832
3512.29,0.078151
3517.05,0.083368
3521.83,0.089536
3526.62,0.096572
3531.43,0.104517
3536.24,0.113945
3541.08,0.125644
3543.5,0.13278
3545.92,0.141522
3548.35,0.151711
3550.78,0.16317
3553.21,0.175761
3555.65,0.188628
3558.09,0.200907
3560.53,0.212135
3562.98,0.222036
3565.43,0.230414
3567.88,0.237274
3570.34,0.242952
3572.8,0.247973
3575.27,0.252649
3577.73,0.256912
3580.2,0.260889
3582.68,0.264386
3585.16,0.267231
3587.64,0.269488
3590.12,0.271505
3592.61,0.27382
3595.1,0.276707
3597.6,0.28048
3600.09,0.284304
3602.6,0.287604
3605.1,0.290417
3607.61,0.292863
3610.12,0.294986
3612.64,0.296906
3615.16,0.298893
3617.68,0.301048
3620.21,0.303293
3622.74,0.305282
3625.27,0.307013
3627.81,0.308645
3630.35,0.310096
3632.89,0.31155
3635.44,0.312707
3637.99,0.313866
3640.54,0.314975
3643.1,0.315894
3645.66,0.316754
3648.23,0.317489
3650.8,0.318223
3653.37,0.319026
3655.95,0.319606
3658.53,0.320075
3661.11,0.320587
3663.7,0.320933
3666.29,0.321213
3668.89,0.321493
3671.48,0.321523
3674.09,0.321525
3676.69,0.321612
3679.3,0.321421
3681.91,0.320967
3684.53,0.320599
3687.15,0.319943
3689.78,0.319181
3692.4,0.3184
3695.04,0.317591
3697.67,0.316684
3700.31,0.315633
3702.95,0.314208
3705.6,0.312705
3708.25,0.311212
3710.91,0.309331
3713.56,0.307195
3716.23,0.304611
3718.89,0.301242
3721.56,0.297369
3724.23,0.29291
3726.91,0.287595
3729.59,0.281194
3732.28,0.273871
3734.97,0.265643
3737.66,0.256528
3740.36,0.246861
3743.06,0.236593
3745.76,0.225851
3748.47,0.214967
3751.18,0.204173
3753.9,0.193442
3756.62,0.183133
3759.34,0.173353
3762.07,0.164062
3764.8,0.155113
3767.54,0.146825
3770.28,0.139313
3773.02,0.132481
3775.77,0.126143
3778.52,0.12021
3781.28,0.11473
3784.04,0.109851
3786.8,0.105598
3789.57,0.101509
3792.34,0.097795
3795.12,0.094653
3797.9,0.091646
3800.69,0.089032
3803.47,0.086674
3806.27,0.084527
3809.06,0.082595
3811.86,0.080905
3814.67,0.07951
3817.48,0.078174
3820.29,0.076911
3823.11,0.075747
3825.93,0.07494
3828.76,0.074278
3831.59,0.07345
3834.42,0.072768
3837.26,0.072259
3840.1,0.071711
3842.95,0.071127
3845.8,0.070656
3848.65,0.070135
3851.51,0.069575
3854.38,0.068966
3857.24,0.068452
3860.12,0.068031
3862.99,0.067545
3865.87,0.066957
3868.76,0.066547
3871.65,0.065961
3874.54,0.065365
3877.44,0.064647
3880.34,0.063832
3883.25,0.062999
3886.16,0.062114
3889.07,0.061271
3891.99,0.060262
3894.92,0.059205
3897.85,0.058152
3900.78,0.057094
3903.72,0.056043
3906.66,0.054878
3909.6,0.053731
3912.55,0.052636
3915.51,0.051495
3918.47,0.050519
3921.43,0.049593
3924.4,0.048684
3927.38,0.047879
3930.35,0.046939
3933.33,0.045896
3936.32,0.045075
3939.31,0.044323
3942.31,0.043654
3945.31,0.043017
3948.31,0.042344
3951.32,0.041796
3954.34,0.041418
3957.35,0.040915
3960.38,0.040406
3963.41,0.040246
3966.44,0.040149
3969.48,0.039913
3972.52,0.039743
3975.56,0.03983
3978.61,0.039985
3981.67,0.040009
3984.73,0.040234
3987.8,0.040569
3990.87,0.040943
3993.94,0.041588
3997.02,0.042446
4000.1,0.043535
4003.19,0.044909
4006.29,0.046746
4009.39,0.049253
4012.49,0.05257
4015.6,0.056908
4018.71,0.06246
4021.83,0.069301
4024.95,0.07762
4028.08,0.087219
4031.21,0.09777
4034.35,0.108821
4037.49,0.12007
4040.64,0.13136
4043.79,0.142519
4046.94,0.15325
4050.11,0.163703
4053.27,0.174177
4056.44,0.184394
4059.62,0.194408
4062.8,0.204266
4065.99,0.213695
4069.18,0.222713
4072.38,0.231263
4075.58,0.239211
4078.78,0.246612
4082.0,0.253485
4085.21,0.259919
4088.43,0.265976
4091.66,0.271533
4094.89,0.276752
4098.13,0.281843
4101.37,0.286614
4104.62,0.290969
4107.87,0.295101
4111.13,0.299144
4114.39,0.302959
4117.66,0.306507
4120.93,0.309715
4124.21,0.31279
4127.5,0.315788
4130.79,0.318584
4134.08,0.321134
4137.38,0.323529
4140.68,0.325848
4143.99,0.328071
4147.31,0.330122
4150.63,0.332078
4153.95,0.333925
4157.29,0.335617
4160.62,0.337169
4163.96,0.338734
4167.31,0.340254
4170.66,0.341645
4174.02,0.343095
4177.39,0.344533
4180.75,0.345773
4184.13,0.347019
4187.51,0.34841
4190.89,0.349656
4194.28,0.350786
4197.68,0.35175
4201.08,0.352548
4204.49,0.353276
4207.9,0.353739
4211.32,0.353988
4214.74,0.354062
4218.17,0.354019
4221.61,0.353775
4225.05,0.353499
4228.5,0.353125
4231.95,0.352476
4235.4,0.351992
4238.87,0.351731
4242.34,0.351372
4245.81,0.350958
4249.29,0.350425
4252.78,0.349826
4256.27,0.349108
4259.77,0.347805
4263.27,0.345796
4266.78,0.343821
4270.29,0.342424
4273.81,0.341592
4277.34,0.341386
4280.87,0.341435
4284.41,0.341089
4287.95,0.340494
4291.5,0.339919
4295.06,0.339237
4298.62,0.338271
4302.19,0.33715
4305.76,0.336035
4309.34,0.334819
4312.92,0.333322
4316.52,0.331808
4320.11,0.330228
4323.72,0.328536
4327.32,0.326846
4330.94,0.325277
4334.56,0.32367
4338.19,0.322071
4341.82,0.320574
4345.46,0.319179
4349.11,0.317945
4352.76,0.316797
4356.42,0.315741
4360.08,0.314707
4363.75,0.313688
4367.43,0.312737
4371.11,0.311801
4374.8,0.310822
4378.49,0.309892
4382.19,0.309102
4385.9,0.308182
4389.61,0.307278
4393.33,0.306456
4397.06,0.305622
4400.79,0.30466
4404.53,0.303584
4408.28,0.302407
4412.03,0.301154
4415.79,0.299859
4419.55,0.298649
4423.32,0.297592
4427.1,0.296655
4430.88,0.295812
4434.68,0.295033
4438.47,0.294362
4442.28,0.293825
4446.08,0.293184
4449.9,0.292579
4453.72,0.291999
4457.55,0.291396
4461.39,0.290878
4465.23,0.29033
4469.08,0.289562
4472.94,0.288908
4476.8,0.288249
4480.67,0.287464
4484.55,0.286464
4488.43,0.285374
4492.32,0.284253
4496.21,0.283134
4500.12,0.281824
4504.03,0.280349
4507.94,0.278746
4511.87,0.277015
4515.8,0.275049
4519.73,0.272926
4523.68,0.270631
4527.63,0.26811
4531.59,0.265339
4535.55,0.262399
4539.52,0.259318
4543.5,0.255999
4547.49,0.252542
4551.48,0.248952
4555.48,0.245268
4559.49,0.241707
4563.5,0.238068
4567.52,0.234346
4571.55,0.230877
4575.58,0.227652
4579.63,0.224552
4583.67,0.221655
4587.73,0.219014
4591.79,0.216396
4595.86,0.214022
4599.94,0.211948
4604.03,0.210007
4608.12,0.208324
4612.22,0.206871
4616.33,0.205858
4620.44,0.205211
4624.56,0.205211
4628.69,0.205952
4632.83,0.207525
4636.97,0.210031
4641.12,0.213468
4645.28,0.217969
4649.45,0.223484
4653.62,0.229892
4657.8,0.237368
4661.99,0.245816
4666.19,0.255022
4670.39,0.264609
4674.6,0.273998
4678.82,0.282718
4683.05,0.290793
4687.28,0.297982
4691.52,0.304172
4695.77,0.309637
4700.03,0.314425
4704.3,0.31861
4708.57,0.322372
4712.85,0.325859
4717.14,0.328927
4721.43,0.331727
4725.74,0.33429
4730.05,0.336585
4734.37,0.338687
4738.7,0.340509
4743.03,0.34215
4747.38,0.343679
4751.73,0.345083
4756.09,0.346293
4760.45,0.347297
4764.83,0.348204
4769.21,0.349021
4773.6,0.349601
4778.0,0.350132
4782.41,0.350558
4786.83,0.350851
4791.25,0.351072
4795.68,0.351331
4800.13,0.351412
4804.57,0.351446
4809.03,0.351416
4813.5,0.351399
4817.97,0.351232
4822.45,0.35113
4826.94,0.350936
4831.44,0.350798
4835.95,0.350626
4840.46,0.350327
4844.99,0.349979
4849.52,0.349733
4854.06,0.349454
4858.61,0.349055
4863.17,0.348507
4867.73,0.348076
4872.31,0.34755
4876.89,0.346898
4881.48,0.346259
4886.08,0.345722
4890.69,0.345074
4895.31,0.344286
4899.94,0.343592
4904.57,0.343029
4909.22,0.342412
4913.87,0.341821
4918.53,0.341242
4923.21,0.340683
4927.88,0.340129
4932.57,0.339535
4937.27,0.338808
4941.98,0.338229
4946.69,0.337719
4951.42,0.337101
4956.15,0.336452
4960.9,0.33587
4965.65,0.335214
4970.41,0.334388
4975.18,0.333589
4979.96,0.332753
4984.75,0.331823
4989.54,0.330729
4994.35,0.329606
4999.17,0.328375
5003.99,0.326918
5008.83,0.325302
5013.67,0.323534
5018.52,0.321576
5023.39,0.319306
5028.26,0.31679
5033.14,0.313845
5038.03,0.310338
5042.93,0.306238
5047.84,0.301464
5052.76,0.296014
5057.69,0.290156
5062.63,0.283924
5067.58,0.277569
5072.54,0.27152
5077.51,0.265923
5082.49,0.260851
5087.47,0.256468
5092.47,0.252835
5097.48,0.249956
5102.5,0.247846
5107.52,0.246695
5112.56,0.246292
5117.61,0.246566
5122.66,0.247179
5127.73,0.24792
5132.81,0.24868
5137.89,0.249262
5142.99,0.249396
5148.1,0.249012
5153.22,0.247973
5158.34,0.246404
5163.48,0.24427
5168.63,0.241657
5173.79,0.238667
5178.96,0.235421
5184.13,0.231994
5189.32,0.228499
5194.52,0.224936
5199.73,0.221354
5204.96,0.217717
5210.19,0.214075
5215.43,0.21051
5220.68,0.207018
5225.94,0.203557
5231.22,0.200077
5236.5,0.196503
5241.79,0.192919
5247.1,0.189393
5252.42,0.185813
5257.74,0.182207
5263.08,0.178632
5268.43,0.175016
5273.79,0.171368
5279.16,0.16764
5284.54,0.16375
5289.93,0.159756
5295.34,0.155633
5300.75,0.151318
5306.18,0.146825
5311.61,0.142108
5317.06,0.137199
5322.52,0.131967
5327.99,0.126459
5333.47,0.120773
5338.96,0.114796
5344.47,0.108577
5349.98,0.102243
5355.51,0.095738
5361.05,0.089111
5366.6,0.082514
5372.16,0.076
5377.73,0.06966
5383.32,0.063522
5388.91,0.057714
5394.52,0.052353
5400.14,0.047476
5405.77,0.04307
5411.41,0.039282
5417.07,0.036053
5422.74,0.033392
5428.41,0.031148
5434.1,0.029373
5439.81,0.028029
5445.52,0.026946
5451.25,0.02605
5456.98,0.025401
5462.73,0.024984
5468.5,0.024698
5474.27,0.024534
5480.06,0.024536
5485.86,0.024566
5491.67,0.02466
5497.49,0.024919
5503.33,0.025354
5509.18,0.025883
5515.04,0.026649
5520.91,0.027554
5526.8,0.028622
5532.69,0.029811
5538.61,0.031189
5544.53,0.032732
5550.47,0.034276
5556.41,0.035813
5562.38,0.037378
5568.35,0.038994
5574.34,0.04055
5580.34,0.041996
5586.35,0.043382
5592.38,0.044627
5598.42,0.04585
5604.47,0.047039
5610.54,0.048194
5616.61,0.049236
5622.71,0.050192
5628.81,0.051166
5634.93,0.05196
5641.06,0.052553
5647.21,0.053045
5653.36,0.053453
5659.54,0.053924
5665.72,0.054273
5671.92,0.054578
5678.13,0.054748
5684.36,0.054808
5690.6,0.054803
5696.85,0.054825
5703.12,0.05478
5709.4,0.054691
5715.69,0.054389
5722.0,0.054099
5728.33,0.053944
5734.66,0.053655
5741.01,0.053285
5747.38,0.052933
5753.76,0.052532
5760.15,0.051992
5766.56,0.051455
5772.98,0.050695
5779.41,0.049952
5785.86,0.049311
5792.33,0.048652
5798.81,0.048071
5805.3,0.047444
5811.81,0.046778
5818.33,0.04613
5824.87,0.045565
5831.42,0.044941
5837.99,0.044304
5844.57,0.043686
5851.17,0.043247
5857.78,0.042739
5864.41,0.042215
5871.05,0.041756
5877.7,0.041378
5884.38,0.04107
5891.06,0.040643
5897.76,0.040353
5904.48,0.040104
5911.21,0.039837
5917.96,0.039705
5924.73,0.039484
5931.5,0.039391
5938.3,0.039386
5945.11,0.0392
5951.93,0.039051
5958.78,0.039081
5965.63,0.039157
5972.51,0.039217
5979.39,0.039287
5986.3,0.039601
5993.22,0.039907
6000.16,0.040246
6007.11,0.040597
6014.08,0.041085
6021.06,0.041597
6028.06,0.042206
6035.08,0.042886
6042.12,0.043773
6049.17,0.04469
6056.23,0.045521
6063.32,0.046342
6070.42,0.047542
6077.53,0.048731
6084.67,0.050024
6091.82,0.051389
6098.98,0.053031
6106.17,0.054778
6113.37,0.056591
6120.58,0.058347
6127.82,0.060224
6135.07,0.062146
6142.34,0.064099
6149.63,0.06598
6156.93,0.06797
6164.25,0.070155
6171.59,0.072635
6178.95,0.07552
6186.32,0.079178
6193.71,0.083669
6201.12,0.089117
6208.54,0.095375
6215.99,0.102428
6223.45,0.110061
6230.93,0.118323
6238.43,0.127219
6245.95,0.137003
6253.48,0.147804
6261.03,0.159862
6268.6,0.172948
6276.19,0.186624
6283.8,0.20016
6291.43,0.213007
6299.07,0.224588
6306.73,0.234558
6314.42,0.242792
6322.12,0.249504
6329.84,0.255224
6337.57,0.26046
6345.33,0.264898
6353.11,0.267991
6360.9,0.269539
6368.72,0.269565
6376.55,0.267979
6384.4,0.265516
6392.27,0.262724
6400.17,0.259715
6408.08,0.25656
6416.01,0.253201
6423.96,0.249249
6431.93,0.245381
6439.92,0.241597
6447.93,0.237535
6455.96,0.233393
6464.01,0.229066
6472.08,0.224715
6480.17,0.220188
6488.28,0.215581
6496.41,0.211022
6504.56,0.206364
6512.73,0.201875
6520.92,0.197688
6529.14,0.193267
6537.37,0.189015
6545.63,0.185042
6553.9,0.181186
6562.2,0.177479
6570.51,0.173982
6578.85,0.170593
6587.21,0.167175
6595.59,0.164047
6603.99,0.16099
6612.42,0.15807
6620.86,0.155257
6629.33,0.152501
6637.82,0.149995
6646.33,0.147437
6654.86,0.14491
6663.41,0.142681
6671.99,0.140519
6680.59,0.138415
6689.21,0.136396
6697.85,0.134426
6706.51,0.13271
6715.2,0.131139
6723.91,0.12957
6732.64,0.12806
6741.4,0.126744
6750.18,0.125555
6758.98,0.124374
6767.8,0.123266
6776.65,0.122257
6785.52,0.121238
6794.41,0.120215
6803.33,0.119246
6812.27,0.118416
6821.23,0.117684
6830.22,0.11697
6839.23,0.116191
6848.26,0.115554
6857.32,0.115047
6866.4,0.11449
6875.51,0.113896
6884.64,0.113512
6893.8,0.113257
6902.98,0.112983
6912.18,0.112771
6921.41,0.112605
6930.66,0.112535
6939.94,0.112539
6949.24,0.112633
6958.57,0.112838
6967.92,0.113125
6977.3,0.11356
6986.7,0.114123
6996.13,0.114694
7005.59,0.115233
7015.07,0.115853
7024.57,0.116418
7034.1,0.11686
7043.66,0.117325
7053.25,0.117784
7062.85,0.118142
7072.49,0.118497
7082.15,0.118709
7091.84,0.118654
7101.55,0.118244
7111.3,0.117344
7121.06,0.115794
7130.86,0.113384
7140.68,0.110038
7150.53,0.106089
7160.41,0.102063
7170.31,0.098439
7180.24,0.095332
7190.2,0.093026
7200.19,0.091434
7210.2,0.090249
7220.24,0.089211
7230.31,0.088232
7240.41,0.087328
7250.54,0.086448
7260.69,0.085616
7270.88,0.084818
7281.09,0.084013
7291.33,0.083283
7301.6,0.082629
7311.9,0.082075
7322.22,0.081535
7332.58,0.081043
7342.97,0.080633
7353.38,0.080249
7363.83,0.079905
7374.3,0.079497
7384.81,0.079132
7395.34,0.078915
7405.91,0.078735
7416.5,0.078561
7427.13,0.078425
7437.78,0.07828
7448.47,0.078212
7459.19,0.078238
7469.94,0.078308
7480.71,0.078384
7491.52,0.078431
7502.37,0.078514
7513.24,0.078595
7524.14,0.078728
7535.08,0.078885
7546.05,0.079098
7557.05,0.079234
7568.08,0.079378
7579.15,0.079607
7590.24,0.079805
7601.37,0.079981
7612.53,0.080155
7623.73,0.080312
7634.96,0.08051
7646.22,0.080677
7657.51,0.080875
7668.84,0.081062
7680.2,0.081278
7691.59,0.081571
7703.02,0.081782
7714.49,0.081928
7725.98,0.082143
7737.52,0.082372
7749.08,0.082465
7760.68,0.082486
7772.32,0.082461
7783.99,0.082382
7795.69,0.082268
7807.43,0.08206
7819.21,0.08176
7831.02,0.081484
7842.87,0.081159
7854.75,0.080688
7866.67,0.080202
7878.62,0.079752
7890.62,0.079344
7902.64,0.078894
7914.71,0.078369
7926.81,0.07779
7938.95,0.077257
7951.13,0.076766
7963.34,0.076168
7975.59,0.075596
7987.88,0.07507
8000.21,0.074588
8012.57,0.074134
8024.98,0.073643
8037.42,0.073289
8049.9,0.072945
8062.42,0.072528
8074.98,0.072114
8087.57,0.07173
8100.21,0.071291
8112.89,0.070798
8125.6,0.070273
8138.36,0.069764
8151.16,0.069231
8163.99,0.068757
8176.87,0.068373
8189.79,0.068227
8202.75,0.068233
8215.75,0.068276
8228.79,0.068377
8241.87,0.068602
8254.99,0.068938
8268.16,0.06936
8281.37,0.0699
8294.62,0.070698
8307.91,0.071768
8321.24,0.073204
8334.62,0.074966
8348.04,0.077064
8361.51,0.079503
8375.02,0.08223
8388.57,0.084962
8402.16,0.087383
8415.8,0.08944
8429.49,0.090977
8443.22,0.092028
8456.99,0.092763
8470.81,0.093192
8484.67,0.093523
8498.58,0.09381
8512.54,0.094192
8526.54,0.094553
8540.58,0.094823
8554.68,0.09508
8568.82,0.095377
8583.0,0.095746
8597.24,0.095961
8611.52,0.096109
8625.85,0.096311
8640.23,0.096404
8654.65,0.096341
8669.12,0.096075
8683.64,0.095689
8698.21,0.095171
8712.83,0.094508
8727.5,0.093816
8742.22,0.093126
8756.99,0.092394
8771.8,0.091663
8786.67,0.090888
8801.59,0.090202
8816.56,0.089538
8831.58,0.088918
8846.65,0.0883
8861.77,0.087742
8876.94,0.087277
8892.17,0.086833
8907.45,0.08627
8922.78,0.085701
8938.16,0.085289
8953.6,0.084998
8969.09,0.084635
8984.64,0.084349
9000.23,0.08406
9015.89,0.083692
9031.59,0.083321
9047.36,0.082879
9063.17,0.08238
9079.05,0.081977
9094.97,0.081652
9110.96,0.08144
9127.0,0.081397
9143.1,0.081518
9159.25,0.081567
9175.46,0.081631
9191.73,0.081803
9208.06,0.08213
9224.44,0.08241
9240.88,0.082624
9257.38,0.082847
9273.94,0.083268
9290.56,0.083712
9307.24,0.084102
9323.98,0.084527
9340.78,0.084943
9357.64,0.085287
9374.57,0.085514
9391.55,0.085703
9408.59,0.085941
9425.7,0.086077
9442.87,0.08606
9460.1,0.086005
9477.4,0.08603
9494.75,0.085975
9512.17,0.085875
9529.66,0.085841
9547.21,0.085833
9564.83,0.085833
9582.5,0.085845
9600.25,0.085775
9618.06,0.08562
9635.94,0.085374
9653.88,0.085073
9671.89,0.084614
9689.97,0.083996
9708.12,0.08334
9726.33,0.082648
9744.62,0.081964
9762.97,0.081295
9781.39,0.080588
9799.88,0.079911
9818.44,0.079253
9837.07,0.07862
9855.77,0.077992
9874.54,0.077314
9893.39,0.07669
9912.3,0.075979
9931.29,0.075257
9950.36,0.074724
9969.49,0.074255
9988.7,0.07383
10007.98,0.073494
10027.34,0.073161
10046.77,0.072821
10066.28,0.072586
10085.87,0.072486
10105.53,0.072418
10125.26,0.072246
10145.08,0.072165
10164.97,0.072237
10184.94,0.072269
10204.99,0.072267
10225.12,0.072497
10245.33,0.072686
10265.61,0.072885
10285.98,0.073208
10306.43,0.073405
10326.96,0.073607
10347.57,0.073909
10368.27,0.074331
10389.05,0.074875
10409.91,0.075418
10430.86,0.075938
10451.88,0.076493
10473.0,0.077153
10494.2,0.077783
10515.49,0.078423
10536.86,0.079106
10558.32,0.079898
10579.87,0.080688
10601.5,0.081646
10623.23,0.082618
10645.04,0.083654
10666.94,0.084892
10688.94,0.086215
10711.02,0.08754
10733.2,0.088877
10755.47,0.090432
10777.83,0.092007
10800.28,0.093417
10822.83,0.094823
10845.47,0.096294
10868.21,0.097746
10891.04,0.099247
10913.97,0.100836
10936.99,0.102774
10960.12,0.105027
10983.34,0.107547
11006.66,0.110741
11030.07,0.114911
11053.59,0.119979
11077.21,0.126066
11100.93,0.13268
11124.75,0.138878
11148.68,0.143781
11172.71,0.146594
11196.84,0.146437
11221.07,0.14336
11245.41,0.13829
11269.86,0.132173
11294.41,0.125548
11319.07,0.119094
11343.84,0.113123
11368.72,0.107872
11393.7,0.103229
11418.8,0.099109
11444.01,0.095428
11469.33,0.092164
11494.76,0.089272
11520.3,0.086964
11545.96,0.08507
11571.73,0.083773
11597.62,0.083134
11623.62,0.083232
11649.74,0.084066
11675.98,0.085463
11702.34,0.086049
11728.81,0.085871
11755.41,0.085132
11782.13,0.084049
11808.96,0.083034
11835.92,0.082353
11863.01,0.082289
11890.22,0.083446
11917.55,0.087232
11945.01,0.096305
11972.6,0.106585
12000.31,0.111917
12028.16,0.114284
12056.13,0.115658
12084.23,0.116652
12112.46,0.117425
12140.83,0.118032
12169.33,0.118253
12197.96,0.118308
12226.73,0.118291
12255.64,0.118208
12284.68,0.118004
12313.86,0.117588
12343.18,0.117098
12372.64,0.116611
12402.24,0.115928
12431.98,0.115146
12461.86,0.114289
12491.89,0.113255
12522.07,0.112206
12552.38,0.111038
12582.85,0.109645
12613.47,0.108273
12644.23,0.106624
12675.15,0.104798
12706.21,0.102759
12737.43,0.100524
12768.81,0.097933
12800.33,0.094973
12832.02,0.091546
12863.86,0.087686
12895.86,0.083508
12928.02,0.078943
12960.34,0.073998
12992.82,0.068987
13025.46,0.064012
13058.27,0.059222
13091.25,0.054886
13124.39,0.051181
13157.7,0.048334
13191.18,0.046926
13224.83,0.047986
13258.66,0.052572
13292.65,0.058893
13326.83,0.063936
13361.17,0.06642
13395.7,0.066728
13430.4,0.066127
13465.29,0.065471
13500.35,0.06512
13535.6,0.065405
13571.03,0.065972
13606.65,0.06666
13642.46,0.067628
13678.46,0.06866
13714.64,0.069613
13751.02,0.070683
13787.59,0.071685
13824.36,0.072575
13861.32,0.073269
13898.49,0.073883
13935.85,0.074276
13973.41,0.074407
14011.17,0.074599
14049.15,0.074904
14087.32,0.075165
14125.71,0.075374
14164.3,0.075611
14203.11,0.075898
14242.13,0.076102
14281.36,0.076274
14320.81,0.076497
14360.49,0.07669
14400.38,0.076813
14440.49,0.076764
14480.82,0.07658
14521.39,0.076348
14562.18,0.075972
14603.2,0.075518
14644.45,0.075021
14685.93,0.074407
14727.66,0.0737
14769.62,0.073416
14811.81,0.073131
14854.25,0.073072
14896.94,0.073356
14939.87,0.073728
14983.05,0.074235
15026.48,0.074773
15070.16,0.075473
15114.1,0.076202
15158.29,0.076616
15202.74,0.077123
15247.46,0.077699
15292.43,0.078193
15337.68,0.078684
15383.19,0.079066
15428.97,0.079563
15475.03,0.080236
15521.36,0.080578
15567.97,0.080813
15614.87,0.081021
15662.04,0.081287
15709.5,0.081637
15757.25,0.081794
15805.29,0.081854
15853.62,0.081877
15902.26,0.081775
15951.19,0.081667
16000.42,0.081395
16049.95,0.080979
16099.8,0.080694
16149.95,0.080438
16200.42,0.080176
16251.21,0.0799
16302.31,0.079316
16353.74,0.078709
16405.49,0.078253
16457.57,0.077758
16509.98,0.077225
16562.73,0.076664
16615.82,0.076115
16669.24,0.075567
16723.02,0.074815
16777.14,0.074352
16831.61,0.073841
16886.43,0.07324
16941.62,0.0728
16997.16,0.072176
17053.08,0.071471
17109.36,0.07083
17166.01,0.070237
17223.04,0.069728
17280.45,0.069312
17338.24,0.068919
17396.43,0.068435
17455.0,0.068082
17513.97,0.067815
17573.34,0.067583
17633.11,0.067301
17693.29,0.066993
17753.89,0.066855
17814.9,0.066732
17876.33,0.066779
17938.18,0.0669
18000.47,0.066866
18063.19,0.067093
18126.35,0.067288
18189.95,0.067269
18254.0,0.067479
18318.5,0.067936
18383.46,0.068403
18448.88,0.068817
18514.77,0.06907
18581.13,0.069397
18647.97,0.069913
18715.29,0.070091
18783.1,0.070099
18851.4,0.070475
18920.2,0.070694
18989.51,0.071119
19059.32,0.071456
19129.65,0.071581
19200.5,0.071756
19271.88,0.07224
19343.79,0.072554
19416.24,0.072649
19489.23,0.072713
19562.77,0.07304
19636.88,0.073615
19711.54,0.073832
19786.78,0.073862
19862.59,0.074119
19938.98,0.074159
20015.96,0.074306
20093.55,0.074667
20171.73,0.075327
20250.53,0.07625
20329.94,0.077045
20409.98,0.077552
20490.65,0.078471
20571.96,0.079272
20653.92,0.080314
20736.54,0.081784
20819.82,0.082431
20903.77,0.083168
20988.4,0.084688
21073.72,0.086376
21159.73,0.088245
21246.46,0.089954
21333.89,0.091971
21422.04,0.093506
21510.93,0.094867
21600.56,0.096075
21690.94,0.097124
21782.08,0.09867
21873.99,0.100702
21966.67,0.10394
22060.15,0.109065
22154.42,0.114777
22249.51,0.119922
22345.41,0.124376
22442.14,0.127686
22539.72,0.131014
22638.14,0.134946
22737.43,0.139143
22837.6,0.143193
22938.65,0.147352
23040.6,0.151811
23143.46,0.155949
23247.24,0.159784
23351.96,0.163531
23457.63,0.167638
23564.25,0.172464
23671.85,0.176012
23780.44,0.17822
23890.02,0.180424
24000.63,0.182339
24112.26,0.183456
24224.93,0.184575
24338.66,0.18587
24453.47,0.187318
24569.36,0.188518
24686.36,0.190074
24804.47,0.19207
24923.73,0.192597
25044.13,0.193391
25165.71,0.194567
25288.46,0.195187
25412.43,0.195565
25537.61,0.196157
25664.04,0.19613
25791.72,0.195467
25920.68,0.194166
