Database of Origin,University of Winnipeg Spectrophotometer Facility
Sample Description,"RELAB + Nicolet merged data for spinels. Merged @2500nm, different viewing geometries. See Master Spinels in the PSF database for additional information."
Date Added,2016-11-08 17:54:00.627274

Data ID,RLA_SPI_19          
Sample ID,SPI133
Mineral Name,Spinel
Grain Size,<45
Viewing Geometry,"30/0,30/30"
Resolution,5/1.2-129
Composition,"Fe,Zn?"
Material Class,Oxide

Wavelength
300.0,0.082059
305.0,0.092462
310.0,0.100831
315.0,0.105182
320.0,0.108565
325.0,0.111115
330.0,0.114299
335.0,0.118016
340.0,0.122566
345.0,0.127037
350.0,0.133043
355.0,0.142553
360.0,0.15607
365.0,0.168968
370.0,0.177214
375.0,0.174526
380.0,0.179625
385.0,0.178045
390.0,0.177782
395.0,0.183603
400.0,0.191866
405.0,0.201665
410.0,0.215457
415.0,0.23281
420.0,0.250366
425.0,0.2705
430.0,0.286526
435.0,0.30048
440.0,0.311928
445.0,0.318269
450.0,0.318109
455.0,0.308298
460.0,0.29609
465.0,0.299155
470.0,0.309306
475.0,0.318714
480.0,0.331229
485.0,0.341959
490.0,0.349528
495.0,0.35472
500.0,0.357971
505.0,0.358985
510.0,0.358011
515.0,0.358889
520.0,0.358846
525.0,0.357479
530.0,0.354446
535.0,0.351574
540.0,0.348485
545.0,0.345624
550.0,0.342022
555.0,0.338486
560.0,0.337789
565.0,0.337334
570.0,0.335535
575.0,0.334049
580.0,0.33277
585.0,0.331256
590.0,0.329924
595.0,0.329444
600.0,0.327822
605.0,0.326394
610.0,0.324467
615.0,0.322337
620.0,0.320051
625.0,0.317526
630.0,0.315238
635.0,0.312701
640.0,0.310383
645.0,0.308352
650.0,0.306391
655.0,0.304896
660.0,0.303699
665.0,0.303039
670.0,0.303683
675.0,0.304042
680.0,0.305467
685.0,0.306957
690.0,0.309401
695.0,0.31216
700.0,0.314669
705.0,0.317376
710.0,0.320065
715.0,0.323285
720.0,0.326177
725.0,0.328047
730.0,0.329812
735.0,0.332441
740.0,0.335305
745.0,0.336786
750.0,0.339276
755.0,0.341166
760.0,0.342282
765.0,0.344133
770.0,0.346582
775.0,0.347714
780.0,0.348973
785.0,0.350425
790.0,0.351626
795.0,0.353133
800.0,0.353989
805.0,0.355785
810.0,0.356186
815.0,0.357981
820.0,0.359235
825.0,0.360142
830.0,0.361115
835.0,0.361472
840.0,0.363263
845.0,0.363458
850.0,0.363842
855.0,0.363622
860.0,0.363955
865.0,0.364771
870.0,0.364501
875.0,0.36526
880.0,0.365047
885.0,0.365187
890.0,0.364632
895.0,0.364173
900.0,0.363046
905.0,0.361962
910.0,0.362294
915.0,0.36255
920.0,0.361781
925.0,0.361992
930.0,0.362727
935.0,0.362982
940.0,0.364147
945.0,0.366431
950.0,0.367891
955.0,0.370497
960.0,0.373335
965.0,0.376456
970.0,0.380714
975.0,0.384554
980.0,0.389465
985.0,0.394353
990.0,0.399344
995.0,0.404275
1000.0,0.408605
1005.0,0.413225
1010.0,0.418208
1015.0,0.423514
1020.0,0.428053
1025.0,0.432817
1030.0,0.437482
1035.0,0.441155
1040.0,0.44572
1045.0,0.449256
1050.0,0.45302
1055.0,0.455955
1060.0,0.459365
1065.0,0.461849
1070.0,0.464862
1075.0,0.467463
1080.0,0.470266
1085.0,0.47196
1090.0,0.474019
1095.0,0.476051
1100.0,0.476569
1105.0,0.478647
1110.0,0.480076
1115.0,0.481813
1120.0,0.482602
1125.0,0.483257
1130.0,0.483646
1135.0,0.484435
1140.0,0.485182
1145.0,0.485248
1150.0,0.486041
1155.0,0.486745
1160.0,0.487664
1165.0,0.487434
1170.0,0.487405
1175.0,0.487929
1180.0,0.488274
1185.0,0.488174
1190.0,0.488204
1195.0,0.488507
1200.0,0.488845
1205.0,0.489148
1210.0,0.489562
1215.0,0.489104
1220.0,0.488413
1225.0,0.488629
1230.0,0.488788
1235.0,0.488844
1240.0,0.488629
1245.0,0.488871
1250.0,0.488898
1255.0,0.488166
1260.0,0.488798
1265.0,0.48868
1270.0,0.488137
1275.0,0.487571
1280.0,0.487032
1285.0,0.486919
1290.0,0.487005
1295.0,0.486569
1300.0,0.486726
1305.0,0.486396
1310.0,0.485946
1315.0,0.485994
1320.0,0.485484
1325.0,0.485155
1330.0,0.48482
1335.0,0.483808
1340.0,0.483745
1345.0,0.483291
1350.0,0.481647
1355.0,0.479813
1360.0,0.478816
1365.0,0.477874
1370.0,0.476946
1375.0,0.476177
1380.0,0.476438
1385.0,0.473932
1390.0,0.474033
1395.0,0.471485
1400.0,0.469855
1405.0,0.468483
1410.0,0.466359
1415.0,0.465548
1420.0,0.46311
1425.0,0.461684
1430.0,0.460201
1435.0,0.45783
1440.0,0.455235
1445.0,0.45234
1450.0,0.450549
1455.0,0.447273
1460.0,0.444314
1465.0,0.44058
1470.0,0.437791
1475.0,0.434467
1480.0,0.43043
1485.0,0.427039
1490.0,0.423288
1495.0,0.418593
1500.0,0.414945
1505.0,0.410508
1510.0,0.406622
1515.0,0.401737
1520.0,0.397464
1525.0,0.393055
1530.0,0.387818
1535.0,0.383505
1540.0,0.377856
1545.0,0.372861
1550.0,0.36794
1555.0,0.3631
1560.0,0.357973
1565.0,0.353258
1570.0,0.347797
1575.0,0.342614
1580.0,0.33716
1585.0,0.332736
1590.0,0.327489
1595.0,0.321937
1600.0,0.316828
1605.0,0.312008
1610.0,0.307209
1615.0,0.30195
1620.0,0.29696
1625.0,0.292595
1630.0,0.287107
1635.0,0.281955
1640.0,0.277941
1645.0,0.273621
1650.0,0.268432
1655.0,0.263901
1660.0,0.260464
1665.0,0.255867
1670.0,0.251206
1675.0,0.247097
1680.0,0.243087
1685.0,0.239208
1690.0,0.235016
1695.0,0.230909
1700.0,0.228674
1705.0,0.223702
1710.0,0.220065
1715.0,0.216379
1720.0,0.212918
1725.0,0.209529
1730.0,0.206067
1735.0,0.202544
1740.0,0.199309
1745.0,0.196132
1750.0,0.192972
1755.0,0.189817
1760.0,0.187
1765.0,0.184195
1770.0,0.18171
1775.0,0.178703
1780.0,0.175993
1785.0,0.173434
1790.0,0.171089
1795.0,0.169088
1800.0,0.166798
1805.0,0.164298
1810.0,0.162358
1815.0,0.160191
1820.0,0.158646
1825.0,0.156708
1830.0,0.154918
1835.0,0.153431
1840.0,0.151448
1845.0,0.15004
1850.0,0.148433
1855.0,0.14717
1860.0,0.145788
1865.0,0.144497
1870.0,0.14315
1875.0,0.141764
1880.0,0.140848
1885.0,0.140006
1890.0,0.139125
1895.0,0.138404
1900.0,0.137325
1905.0,0.135772
1910.0,0.135302
1915.0,0.134578
1920.0,0.134033
1925.0,0.13346
1930.0,0.132823
1935.0,0.132486
1940.0,0.131757
1945.0,0.13113
1950.0,0.130606
1955.0,0.130329
1960.0,0.12959
1965.0,0.129364
1970.0,0.128887
1975.0,0.128453
1980.0,0.127922
1985.0,0.127685
1990.0,0.127276
1995.0,0.127198
2000.0,0.126743
2005.0,0.126436
2010.0,0.125844
2015.0,0.125635
2020.0,0.125559
2025.0,0.125214
2030.0,0.125179
2035.0,0.124773
2040.0,0.124581
2045.0,0.124147
2050.0,0.124346
2055.0,0.12424
2060.0,0.12377
2065.0,0.124263
2070.0,0.124057
2075.0,0.124109
2080.0,0.124252
2085.0,0.124164
2090.0,0.124196
2095.0,0.124762
2100.0,0.124755
2105.0,0.125076
2110.0,0.125606
2115.0,0.12559
2120.0,0.125878
2125.0,0.126393
2130.0,0.126897
2135.0,0.127646
2140.0,0.127543
2145.0,0.128184
2150.0,0.128735
2155.0,0.12911
2160.0,0.129413
2165.0,0.130185
2170.0,0.130441
2175.0,0.131382
2180.0,0.13178
2185.0,0.132736
2190.0,0.133471
2195.0,0.134
2200.0,0.134805
2205.0,0.135856
2210.0,0.136644
2215.0,0.137313
2220.0,0.138515
2225.0,0.139093
2230.0,0.13982
2235.0,0.140786
2240.0,0.141772
2245.0,0.142474
2250.0,0.143546
2255.0,0.144414
2260.0,0.145296
2265.0,0.146295
2270.0,0.146742
2275.0,0.147597
2280.0,0.148352
2285.0,0.148718
2290.0,0.149567
2295.0,0.150369
2300.0,0.150976
2305.0,0.151753
2310.0,0.152087
2315.0,0.152372
2320.0,0.152908
2325.0,0.153246
2330.0,0.153831
2335.0,0.154075
2340.0,0.154857
2345.0,0.15476
2350.0,0.155136
2355.0,0.155086
2360.0,0.15552
2365.0,0.155445
2370.0,0.155723
2375.0,0.155863
2380.0,0.155723
2385.0,0.155726
2390.0,0.155836
2395.0,0.15592
2400.0,0.156047
2405.0,0.155837
2410.0,0.155995
2415.0,0.155837
2420.0,0.155617
2425.0,0.15573
2430.0,0.155403
2435.0,0.155102
2440.0,0.155092
2445.0,0.154899
2450.0,0.154733
2455.0,0.154344
2460.0,0.1544
2465.0,0.154449
2470.0,0.154204
2475.0,0.153851
2480.0,0.154135
2485.0,0.154209
2490.0,0.153777
2495.0,0.154113
2500.0,0.154034
2502.0,0.154234
2503.2,0.154038
2504.41,0.154094
2505.62,0.154151
2506.83,0.154372
2508.05,0.154719
2509.26,0.154805
2510.48,0.154793
2511.69,0.154853
2512.91,0.154839
2514.13,0.154171
2515.35,0.15416
2516.57,0.154409
2517.79,0.154612
2519.02,0.154499
2520.24,0.154375
2521.47,0.154194
2522.69,0.15399
2523.92,0.154084
2525.15,0.154385
2526.38,0.154434
2527.61,0.15448
2528.85,0.154753
2530.08,0.154396
2531.32,0.153804
2532.55,0.153579
2533.79,0.153864
2535.03,0.154282
2536.27,0.154443
2537.51,0.154771
2538.75,0.154924
2540.0,0.154715
2541.24,0.154568
2542.49,0.154721
2543.74,0.155002
2544.99,0.15474
2546.24,0.154419
2547.49,0.154575
2548.74,0.154811
2549.99,0.154789
2551.25,0.154724
2552.5,0.154747
2553.76,0.154786
2555.02,0.154641
2556.28,0.154226
2557.54,0.154328
2558.8,0.154407
2560.07,0.154777
2561.33,0.154918
2562.6,0.154563
2563.86,0.154369
2565.13,0.154697
2566.4,0.154984
2567.67,0.154852
2568.95,0.154616
2570.22,0.154633
2571.5,0.154812
2572.77,0.154895
2574.05,0.154731
2575.33,0.154675
2576.61,0.154438
2577.89,0.154103
2579.17,0.154493
2580.46,0.154527
2581.74,0.15464
2583.03,0.15446
2584.31,0.15451
2585.6,0.154325
2586.89,0.154477
2588.19,0.154921
2589.48,0.154973
2590.77,0.155109
2592.07,0.154887
2593.36,0.154824
2594.66,0.154749
2595.96,0.155421
2597.26,0.155251
2598.56,0.154203
2599.87,0.153885
2601.17,0.154561
2602.48,0.154755
2603.78,0.154521
2605.09,0.154525
2606.4,0.154512
2607.71,0.155005
2609.03,0.154895
2610.34,0.154596
2611.66,0.154213
2612.97,0.154209
2614.29,0.154118
2615.61,0.154003
2616.93,0.154303
2618.25,0.154574
2619.57,0.154593
2620.9,0.154484
2622.22,0.154199
2623.55,0.154007
2624.88,0.154003
2626.21,0.153928
2627.54,0.154268
2628.87,0.154179
2630.21,0.153941
2631.54,0.153779
2632.88,0.15396
2634.21,0.153859
2635.55,0.153885
2636.89,0.153798
2638.24,0.153623
2639.58,0.153831
2640.92,0.153847
2642.27,0.153735
2643.62,0.153597
2644.97,0.153736
2646.32,0.153807
2647.67,0.153862
2649.02,0.153667
2650.38,0.15342
2651.73,0.153388
2653.09,0.153243
2654.45,0.152998
2655.81,0.152887
2657.17,0.153339
2658.53,0.153592
2659.89,0.153723
2661.26,0.153336
2662.63,0.152804
2664.0,0.153018
2665.36,0.153064
2666.74,0.152702
2668.11,0.152486
2669.48,0.152305
2670.86,0.152016
2672.23,0.15213
2673.61,0.152639
2674.99,0.152665
2676.37,0.152497
2677.76,0.152497
2679.14,0.152472
2680.52,0.152506
2681.91,0.152534
2683.3,0.152247
2684.69,0.151954
2686.08,0.152281
2687.47,0.152456
2688.87,0.152508
2690.26,0.152322
2691.66,0.152396
2693.06,0.152205
2694.46,0.152313
2695.86,0.152352
2697.26,0.152166
2698.66,0.152144
2700.07,0.152143
2701.48,0.151551
2702.89,0.151576
2704.3,0.151626
2705.71,0.151529
2707.12,0.15127
2708.53,0.151235
2709.95,0.150702
2711.37,0.150242
2712.79,0.150336
2714.21,0.150339
2715.63,0.149966
2717.05,0.149479
2718.48,0.149061
2719.9,0.149147
2721.33,0.149309
2722.76,0.149251
2724.19,0.148832
2725.62,0.14813
2727.06,0.147942
2728.49,0.147683
2729.93,0.147003
2731.37,0.147062
2732.81,0.147459
2734.25,0.146923
2735.69,0.14617
2737.14,0.146421
2738.58,0.146655
2740.03,0.146629
2741.48,0.146594
2742.93,0.146548
2744.38,0.146444
2745.83,0.146139
2747.29,0.146076
2748.75,0.146015
2750.2,0.145775
2751.66,0.145472
2753.13,0.145397
2754.59,0.145647
2756.05,0.145702
2757.52,0.145771
2758.99,0.145834
2760.46,0.145797
2761.93,0.14598
2763.4,0.146536
2764.87,0.146935
2766.35,0.147344
2767.82,0.147323
2769.3,0.147746
2770.78,0.148327
2772.26,0.148618
2773.75,0.149443
2775.23,0.150165
2776.72,0.150143
2778.21,0.150487
2779.7,0.150961
2781.19,0.151235
2782.68,0.151514
2784.18,0.152181
2785.67,0.152428
2787.17,0.152645
2788.67,0.153369
2790.17,0.154043
2791.67,0.154019
2793.18,0.153906
2794.68,0.154168
2796.19,0.154487
2797.7,0.154658
2799.21,0.155096
2800.72,0.155451
2802.24,0.15571
2803.75,0.15572
2805.27,0.156322
2806.79,0.156507
2808.31,0.156443
2809.83,0.156753
2811.35,0.157465
2812.88,0.157876
2814.41,0.158189
2815.93,0.158601
2817.46,0.15875
2819.0,0.1589
2820.53,0.159556
2822.07,0.160151
2823.6,0.160333
2825.14,0.160301
2826.68,0.160407
2828.22,0.160812
2829.77,0.161222
2831.31,0.161631
2832.86,0.162068
2834.41,0.162226
2835.96,0.162463
2837.51,0.1632
2839.07,0.164065
2840.62,0.16436
2842.18,0.164692
2843.74,0.165156
2845.3,0.165674
2846.86,0.166246
2848.43,0.166349
2849.99,0.16637
2851.56,0.166686
2853.13,0.167256
2854.7,0.168003
2856.27,0.168595
2857.85,0.168603
2859.42,0.169073
2861.0,0.169642
2862.58,0.170009
2864.16,0.17059
2865.75,0.170881
2867.33,0.171154
2868.92,0.17152
2870.51,0.17215
2872.1,0.172531
2873.69,0.172846
2875.28,0.173458
2876.88,0.17405
2878.48,0.174419
2880.07,0.174934
2881.68,0.175696
2883.28,0.176216
2884.88,0.176628
2886.49,0.177007
2888.1,0.177383
2889.71,0.177746
2891.32,0.178161
2892.93,0.178744
2894.55,0.179175
2896.16,0.179765
2897.78,0.180308
2899.4,0.180513
2901.03,0.180891
2902.65,0.181627
2904.28,0.182143
2905.91,0.182745
2907.54,0.183375
2909.17,0.184087
2910.8,0.184543
2912.44,0.185026
2914.07,0.185126
2915.71,0.185821
2917.35,0.18645
2918.99,0.186858
2920.64,0.18731
2922.29,0.187723
2923.93,0.188325
2925.58,0.188958
2927.24,0.189533
2928.89,0.190019
2930.55,0.19083
2932.2,0.191613
2933.86,0.191988
2935.52,0.192472
2937.19,0.192885
2938.85,0.193636
2940.52,0.194523
2942.19,0.195478
2943.86,0.195723
2945.53,0.195939
2947.21,0.196502
2948.88,0.197578
2950.56,0.198309
2952.24,0.198873
2953.92,0.199479
2955.61,0.199806
2957.29,0.200529
2958.98,0.201282
2960.67,0.20179
2962.36,0.202333
2964.06,0.203102
2965.75,0.203737
2967.45,0.204543
2969.15,0.205673
2970.85,0.206416
2972.55,0.207014
2974.26,0.207621
2975.97,0.208356
2977.68,0.208994
2979.39,0.209526
2981.1,0.210076
2982.82,0.210785
2984.53,0.21163
2986.25,0.212583
2987.97,0.21309
2989.7,0.213546
2991.42,0.214293
2993.15,0.21506
2994.88,0.215886
2996.61,0.216788
2998.34,0.217382
3000.08,0.217975
3001.82,0.218496
3003.55,0.219344
3005.3,0.220356
3007.04,0.221383
3008.78,0.222225
3010.53,0.222875
3012.28,0.223702
3014.03,0.224235
3015.79,0.224797
3017.54,0.225551
3019.3,0.226385
3021.06,0.227211
3022.82,0.22826
3024.58,0.229478
3026.35,0.23041
3028.12,0.230844
3029.89,0.231347
3031.66,0.232226
3033.43,0.233284
3035.21,0.234308
3036.99,0.234986
3038.77,0.235438
3040.55,0.236069
3042.33,0.236986
3044.12,0.237801
3045.91,0.238546
3047.7,0.239263
3049.49,0.239985
3051.29,0.24084
3053.08,0.241797
3054.88,0.242702
3056.68,0.243323
3058.49,0.244278
3060.29,0.245284
3062.1,0.246166
3063.91,0.246816
3065.72,0.247547
3067.54,0.248229
3069.35,0.249151
3071.17,0.250077
3072.99,0.250922
3074.81,0.25169
3076.64,0.252545
3078.47,0.253458
3080.29,0.254603
3082.13,0.255374
3083.96,0.25605
3085.79,0.256856
3087.63,0.257779
3089.47,0.258647
3091.31,0.25957
3093.16,0.260688
3095.01,0.261673
3096.85,0.262207
3098.71,0.263031
3100.56,0.263889
3102.41,0.264728
3104.27,0.265488
3106.13,0.266365
3107.99,0.267313
3109.86,0.268149
3111.73,0.268851
3113.59,0.26962
3115.47,0.270542
3117.34,0.271476
3119.21,0.272483
3121.09,0.273432
3122.97,0.274348
3124.86,0.275283
3126.74,0.276016
3128.63,0.27689
3130.52,0.277801
3132.41,0.27876
3134.3,0.279643
3136.2,0.280617
3138.1,0.281543
3140.0,0.282348
3141.9,0.283201
3143.81,0.284003
3145.71,0.284883
3147.62,0.285703
3149.54,0.286505
3151.45,0.287454
3153.37,0.288434
3155.29,0.289383
3157.21,0.290371
3159.13,0.291071
3161.06,0.291788
3162.99,0.2929
3164.92,0.293758
3166.85,0.294448
3168.79,0.295371
3170.72,0.296489
3172.67,0.297749
3174.61,0.298676
3176.55,0.299257
3178.5,0.299971
3180.45,0.300799
3182.4,0.301556
3184.36,0.302498
3186.32,0.303643
3188.27,0.304392
3190.24,0.305149
3192.2,0.306094
3194.17,0.307037
3196.14,0.307907
3198.11,0.308969
3200.08,0.309805
3202.06,0.310557
3204.04,0.311436
3206.02,0.312629
3208.0,0.313717
3209.99,0.314505
3211.98,0.315247
3213.97,0.315905
3215.96,0.316732
3217.96,0.31779
3219.96,0.318586
3221.96,0.319331
3223.96,0.320275
3225.97,0.321169
3227.98,0.321972
3229.99,0.322565
3232.0,0.323255
3234.02,0.32414
3236.04,0.325124
3238.06,0.326119
3240.08,0.327049
3242.11,0.32796
3244.14,0.328772
3246.17,0.329553
3248.2,0.330394
3250.24,0.331368
3252.28,0.33194
3254.32,0.332625
3256.37,0.333556
3258.41,0.334374
3260.46,0.335307
3262.51,0.336215
3264.57,0.336982
3266.63,0.337741
3268.69,0.338452
3270.75,0.339282
3272.81,0.340221
3274.88,0.340984
3276.95,0.341717
3279.02,0.34264
3281.1,0.343588
3283.18,0.344479
3285.26,0.345377
3287.34,0.346303
3289.43,0.34715
3291.51,0.347765
3293.61,0.348539
3295.7,0.349391
3297.8,0.350146
3299.9,0.350885
3302.0,0.351616
3304.1,0.352205
3306.21,0.353001
3308.32,0.353844
3310.43,0.354627
3312.55,0.355603
3314.66,0.356534
3316.79,0.357216
3318.91,0.358025
3321.03,0.358792
3323.16,0.359508
3325.29,0.360164
3327.43,0.360856
3329.57,0.361532
3331.71,0.362232
3333.85,0.36295
3335.99,0.363564
3338.14,0.364132
3340.29,0.364844
3342.45,0.365577
3344.6,0.366077
3346.76,0.366557
3348.92,0.367193
3351.09,0.36763
3353.26,0.368128
3355.43,0.368713
3357.6,0.36916
3359.78,0.369416
3361.96,0.369737
3364.14,0.370192
3366.32,0.370443
3368.51,0.370704
3370.7,0.371148
3372.89,0.371594
3375.09,0.371832
3377.29,0.372087
3379.49,0.372703
3381.69,0.373508
3383.9,0.374275
3386.11,0.375134
3388.32,0.375951
3390.54,0.376525
3392.76,0.376983
3394.98,0.377468
3397.21,0.377864
3399.43,0.377963
3401.66,0.377902
3403.9,0.377954
3406.13,0.378002
3408.37,0.377932
3410.61,0.377776
3412.86,0.377754
3415.11,0.377838
3417.36,0.378207
3419.61,0.378749
3421.87,0.379692
3424.13,0.38105
3426.39,0.382806
3428.66,0.384563
3430.93,0.386159
3433.2,0.387634
3435.48,0.389057
3437.76,0.390278
3440.04,0.391454
3442.32,0.392655
3444.61,0.39357
3446.9,0.394551
3449.19,0.395582
3451.49,0.396541
3453.79,0.39754
3456.09,0.398332
3458.4,0.399159
3460.7,0.400092
3463.02,0.400907
3465.33,0.401644
3467.65,0.402221
3469.97,0.402799
3472.29,0.403482
3474.62,0.404099
3476.95,0.404592
3479.29,0.405089
3481.62,0.405629
3483.96,0.40601
3486.3,0.406659
3488.65,0.407245
3491.0,0.407567
3493.35,0.407856
3495.71,0.408103
3498.07,0.408396
3500.43,0.408758
3502.79,0.408993
3505.16,0.409392
3507.53,0.410582
3509.91,0.412254
3512.29,0.413848
3514.67,0.415361
3517.05,0.416797
3519.44,0.418176
3521.83,0.419372
3524.23,0.420424
3526.62,0.421441
3529.02,0.422253
3531.43,0.423042
3533.83,0.423709
3536.24,0.424372
3538.66,0.425136
3541.08,0.425956
3543.5,0.4267
3545.92,0.427352
3548.35,0.427898
3550.78,0.428499
3553.21,0.429158
3555.65,0.42978
3558.09,0.430329
3560.53,0.431032
3562.98,0.431746
3565.43,0.432266
3567.88,0.432848
3570.34,0.433441
3572.8,0.434108
3575.27,0.434679
3577.73,0.435204
3580.2,0.435621
3582.68,0.436211
3585.16,0.436763
3587.64,0.437284
3590.12,0.437722
3592.61,0.43825
3595.1,0.438933
3597.6,0.439445
3600.09,0.439869
3602.6,0.4404
3605.1,0.440986
3607.61,0.441545
3610.12,0.441947
3612.64,0.442431
3615.16,0.442965
3617.68,0.443586
3620.21,0.444167
3622.74,0.444556
3625.27,0.444872
3627.81,0.44528
3630.35,0.445674
3632.89,0.446203
3635.44,0.446772
3637.99,0.447128
3640.54,0.447453
3643.1,0.447913
3645.66,0.44841
3648.23,0.449032
3650.8,0.449609
3653.37,0.449974
3655.95,0.45019
3658.53,0.450361
3661.11,0.450832
3663.7,0.451359
3666.29,0.451796
3668.89,0.452374
3671.48,0.452802
3674.09,0.45317
3676.69,0.453562
3679.3,0.454065
3681.91,0.454427
3684.53,0.454766
3687.15,0.455138
3689.78,0.455597
3692.4,0.45606
3695.04,0.456425
3697.67,0.456751
3700.31,0.457152
3702.95,0.457516
3705.6,0.457868
3708.25,0.4582
3710.91,0.458592
3713.56,0.459006
3716.23,0.459374
3718.89,0.459653
3721.56,0.460051
3724.23,0.460443
3726.91,0.46079
3729.59,0.461195
3732.28,0.461448
3734.97,0.461733
3737.66,0.462035
3740.36,0.46245
3743.06,0.463025
3745.76,0.463161
3748.47,0.463361
3751.18,0.463717
3753.9,0.464092
3756.62,0.464391
3759.34,0.464645
3762.07,0.464952
3764.8,0.465336
3767.54,0.465562
3770.28,0.465826
3773.02,0.466013
3775.77,0.466223
3778.52,0.4666
3781.28,0.466959
3784.04,0.467294
3786.8,0.467519
3789.57,0.467622
3792.34,0.46802
3795.12,0.468388
3797.9,0.468577
3800.69,0.468779
3803.47,0.469084
3806.27,0.469347
3809.06,0.469705
3811.86,0.469872
3814.67,0.470143
3817.48,0.470436
3820.29,0.470679
3823.11,0.470848
3825.93,0.471106
3828.76,0.47145
3831.59,0.471768
3834.42,0.471996
3837.26,0.472228
3840.1,0.472453
3842.95,0.472679
3845.8,0.472877
3848.65,0.473057
3851.51,0.473264
3854.38,0.473486
3857.24,0.473698
3860.12,0.473965
3862.99,0.474046
3865.87,0.474109
3868.76,0.474316
3871.65,0.47452
3874.54,0.474755
3877.44,0.475139
3880.34,0.475327
3883.25,0.475605
3886.16,0.475884
3889.07,0.476112
3891.99,0.476179
3894.92,0.476196
3897.85,0.476321
3900.78,0.476662
3903.72,0.477039
3906.66,0.477143
3909.6,0.477246
3912.55,0.47747
3915.51,0.477736
3918.47,0.478014
3921.43,0.478106
3924.4,0.478148
3927.38,0.478318
3930.35,0.478524
3933.33,0.478638
3936.32,0.47878
3939.31,0.479003
3942.31,0.479195
3945.31,0.479293
3948.31,0.479364
3951.32,0.479495
3954.34,0.479604
3957.35,0.479754
3960.38,0.479951
3963.41,0.47997
3966.44,0.480002
3969.48,0.480123
3972.52,0.480342
3975.56,0.480463
3978.61,0.480626
3981.67,0.480731
3984.73,0.480731
3987.8,0.480757
3990.87,0.480874
3993.94,0.480952
3997.02,0.481022
4000.1,0.481049
4003.19,0.481041
4006.29,0.481063
4009.39,0.481315
4012.49,0.481317
4015.6,0.481318
4018.71,0.481389
4021.83,0.481505
4024.95,0.481592
4028.08,0.481758
4031.21,0.481818
4034.35,0.481874
4037.49,0.481734
4040.64,0.481826
4043.79,0.48191
4046.94,0.481918
4050.11,0.482046
4053.27,0.482138
4056.44,0.482216
4059.62,0.482257
4062.8,0.482323
4065.99,0.482401
4069.18,0.482439
4072.38,0.482685
4075.58,0.482748
4078.78,0.482625
4082.0,0.482678
4085.21,0.482766
4088.43,0.482853
4091.66,0.483032
4094.89,0.483037
4098.13,0.483109
4101.37,0.4832
4104.62,0.483478
4107.87,0.483424
4111.13,0.483422
4114.39,0.483583
4117.66,0.48359
4120.93,0.483617
4124.21,0.483799
4127.5,0.483792
4130.79,0.483823
4134.08,0.483896
4137.38,0.48403
4140.68,0.484174
4143.99,0.484195
4147.31,0.484185
4150.63,0.484289
4153.95,0.484324
4157.29,0.484233
4160.62,0.484232
4163.96,0.484363
4167.31,0.484423
4170.66,0.484489
4174.02,0.484519
4177.39,0.484551
4180.75,0.484519
4184.13,0.484626
4187.51,0.484653
4190.89,0.484679
4194.28,0.484619
4197.68,0.484551
4201.08,0.484566
4204.49,0.4847
4207.9,0.484728
4211.32,0.484628
4214.74,0.484519
4218.17,0.484476
4221.61,0.484401
4225.05,0.484329
4228.5,0.484163
4231.95,0.484177
4235.4,0.484089
4238.87,0.483826
4242.34,0.4836
4245.81,0.483512
4249.29,0.483272
4252.78,0.483084
4256.27,0.482887
4259.77,0.482692
4263.27,0.482417
4266.78,0.482277
4270.29,0.482188
4273.81,0.482369
4277.34,0.48256
4280.87,0.482606
4284.41,0.482637
4287.95,0.482703
4291.5,0.482843
4295.06,0.483003
4298.62,0.483196
4302.19,0.483486
4305.76,0.483639
4309.34,0.483773
4312.92,0.483867
4316.52,0.484058
4320.11,0.484196
4323.72,0.484299
4327.32,0.484498
4330.94,0.484645
4334.56,0.484591
4338.19,0.484682
4341.82,0.484775
4345.46,0.484884
4349.11,0.484906
4352.76,0.484907
4356.42,0.484944
4360.08,0.48495
4363.75,0.484944
4367.43,0.485073
4371.11,0.485122
4374.8,0.485059
4378.49,0.484948
4382.19,0.484954
4385.9,0.484928
4389.61,0.484965
4393.33,0.484929
4397.06,0.484945
4400.79,0.484903
4404.53,0.485
4408.28,0.485007
4412.03,0.484945
4415.79,0.484782
4419.55,0.484809
4423.32,0.484754
4427.1,0.484717
4430.88,0.484667
4434.68,0.484731
4438.47,0.4847
4442.28,0.484714
4446.08,0.484664
4449.9,0.484573
4453.72,0.484475
4457.55,0.484532
4461.39,0.484547
4465.23,0.484547
4469.08,0.484476
4472.94,0.48441
4476.8,0.484448
4480.67,0.484583
4484.55,0.484472
4488.43,0.484344
4492.32,0.484366
4496.21,0.484371
4500.12,0.484186
4504.03,0.484207
4507.94,0.484204
4511.87,0.484243
4515.8,0.484236
4519.73,0.484188
4523.68,0.484071
4527.63,0.483945
4531.59,0.483905
4535.55,0.484046
4539.52,0.484011
4543.5,0.483881
4547.49,0.483723
4551.48,0.483708
4555.48,0.483628
4559.49,0.483599
4563.5,0.483517
4567.52,0.483472
4571.55,0.483356
4575.58,0.483296
4579.63,0.483274
4583.67,0.48323
4587.73,0.483109
4591.79,0.483121
4595.86,0.483113
4599.94,0.483119
4604.03,0.483081
4608.12,0.483016
4612.22,0.482825
4616.33,0.482731
4620.44,0.482687
4624.56,0.482644
4628.69,0.482389
4632.83,0.482239
4636.97,0.482282
4641.12,0.482389
4645.28,0.482263
4649.45,0.482135
4653.62,0.481939
4657.8,0.481863
4661.99,0.481718
4666.19,0.481726
4670.39,0.481581
4674.6,0.481476
4678.82,0.481448
4683.05,0.48144
4687.28,0.48135
4691.52,0.481322
4695.77,0.481256
4700.03,0.481171
4704.3,0.480924
4708.57,0.480924
4712.85,0.480897
4717.14,0.480781
4721.43,0.480621
4725.74,0.480513
4730.05,0.480417
4734.37,0.480456
4738.7,0.480419
4743.03,0.480286
4747.38,0.480002
4751.73,0.479872
4756.09,0.479752
4760.45,0.479758
4764.83,0.479724
4769.21,0.479608
4773.6,0.479399
4778.0,0.479252
4782.41,0.479174
4786.83,0.479127
4791.25,0.478936
4795.68,0.478791
4800.13,0.478668
4804.57,0.478682
4809.03,0.478535
4813.5,0.478382
4817.97,0.478188
4822.45,0.478179
4826.94,0.478059
4831.44,0.477929
4835.95,0.477726
4840.46,0.477629
4844.99,0.477443
4849.52,0.477312
4854.06,0.477199
4858.61,0.477089
4863.17,0.476803
4867.73,0.47663
4872.31,0.476416
4876.89,0.476218
4881.48,0.476081
4886.08,0.475857
4890.69,0.475479
4895.31,0.475289
4899.94,0.475037
4904.57,0.474768
4909.22,0.474489
4913.87,0.474244
4918.53,0.4739
4923.21,0.473731
4927.88,0.473498
4932.57,0.473233
4937.27,0.472954
4941.98,0.472817
4946.69,0.472642
4951.42,0.472517
4956.15,0.472284
4960.9,0.472006
4965.65,0.471619
4970.41,0.471364
4975.18,0.471082
4979.96,0.470801
4984.75,0.470461
4989.54,0.470205
4994.35,0.469943
4999.17,0.469799
5003.99,0.469588
5008.83,0.469562
5013.67,0.469444
5018.52,0.469313
5023.39,0.469129
5028.26,0.469162
5033.14,0.469095
5038.03,0.468991
5042.93,0.468885
5047.84,0.468763
5052.76,0.468638
5057.69,0.468605
5062.63,0.468473
5067.58,0.468336
5072.54,0.468202
5077.51,0.468226
5082.49,0.468099
5087.47,0.468112
5092.47,0.468121
5097.48,0.468068
5102.5,0.467993
5107.52,0.46798
5112.56,0.467881
5117.61,0.467881
5122.66,0.467711
5127.73,0.467558
5132.81,0.467327
5137.89,0.467238
5142.99,0.467149
5148.1,0.467087
5153.22,0.466929
5158.34,0.46682
5163.48,0.46661
5168.63,0.466535
5173.79,0.466357
5178.96,0.466266
5184.13,0.465995
5189.32,0.465792
5194.52,0.465618
5199.73,0.46544
5204.96,0.465153
5210.19,0.464869
5215.43,0.464545
5220.68,0.464191
5225.94,0.463855
5231.22,0.463455
5236.5,0.462918
5241.79,0.462232
5247.1,0.461535
5252.42,0.461123
5257.74,0.460597
5263.08,0.460009
5268.43,0.459345
5273.79,0.458858
5279.16,0.458278
5284.54,0.45775
5289.93,0.457325
5295.34,0.456843
5300.75,0.456302
5306.18,0.455997
5311.61,0.455518
5317.06,0.455085
5322.52,0.454657
5327.99,0.454359
5333.47,0.454028
5338.96,0.453707
5344.47,0.453415
5349.98,0.453234
5355.51,0.452931
5361.05,0.452964
5366.6,0.452956
5372.16,0.452986
5377.73,0.453085
5383.32,0.453323
5388.91,0.453582
5394.52,0.453838
5400.14,0.454121
5405.77,0.454496
5411.41,0.45461
5417.07,0.454766
5422.74,0.454944
5428.41,0.454974
5434.1,0.455073
5439.81,0.455228
5445.52,0.454991
5451.25,0.454916
5456.98,0.454758
5462.73,0.454537
5468.5,0.454175
5474.27,0.454014
5480.06,0.453806
5485.86,0.453557
5491.67,0.453322
5497.49,0.453095
5503.33,0.45272
5509.18,0.452427
5515.04,0.452068
5520.91,0.451764
5526.8,0.451281
5532.69,0.450944
5538.61,0.450551
5544.53,0.450258
5550.47,0.449877
5556.41,0.449528
5562.38,0.449118
5568.35,0.448918
5574.34,0.448545
5580.34,0.448239
5586.35,0.447904
5592.38,0.447893
5598.42,0.447715
5604.47,0.447564
5610.54,0.447321
5616.61,0.447289
5622.71,0.447052
5628.81,0.446966
5634.93,0.446812
5641.06,0.446684
5647.21,0.446353
5653.36,0.446222
5659.54,0.446189
5665.72,0.44598
5671.92,0.445702
5678.13,0.445405
5684.36,0.444833
5690.6,0.444357
5696.85,0.443599
5703.12,0.442871
5709.4,0.442101
5715.69,0.441064
5722.0,0.440169
5728.33,0.439525
5734.66,0.438833
5741.01,0.438408
5747.38,0.437849
5753.76,0.437317
5760.15,0.436799
5766.56,0.436621
5772.98,0.435949
5779.41,0.435849
5785.86,0.435746
5792.33,0.43569
5798.81,0.435591
5805.3,0.435332
5811.81,0.435039
5818.33,0.434739
5824.87,0.433849
5831.42,0.432937
5837.99,0.432245
5844.57,0.431573
5851.17,0.430681
5857.78,0.42957
5864.41,0.428276
5871.05,0.426883
5877.7,0.425452
5884.38,0.424079
5891.06,0.42223
5897.76,0.421322
5904.48,0.419597
5911.21,0.418596
5917.96,0.417531
5924.73,0.416252
5931.5,0.415029
5938.3,0.413796
5945.11,0.412108
5951.93,0.411392
5958.78,0.410602
5965.63,0.409754
5972.51,0.408759
5979.39,0.407532
5986.3,0.406826
5993.22,0.405987
6000.16,0.405013
6007.11,0.404333
6014.08,0.403629
6021.06,0.402861
6028.06,0.40204
6035.08,0.40151
6042.12,0.400914
6049.17,0.400377
6056.23,0.399324
6063.32,0.399084
6070.42,0.399076
6077.53,0.398611
6084.67,0.398338
6091.82,0.398207
6098.98,0.397911
6106.17,0.397534
6113.37,0.397194
6120.58,0.396697
6127.82,0.396572
6135.07,0.396454
6142.34,0.396077
6149.63,0.395767
6156.93,0.395442
6164.25,0.395142
6171.59,0.394783
6178.95,0.394634
6186.32,0.39434
6193.71,0.393894
6201.12,0.393645
6208.54,0.393521
6215.99,0.39327
6223.45,0.393187
6230.93,0.392912
6238.43,0.39274
6245.95,0.392509
6253.48,0.392507
6261.03,0.392456
6268.6,0.392394
6276.19,0.392334
6283.8,0.392437
6291.43,0.392527
6299.07,0.392609
6306.73,0.39263
6314.42,0.392699
6322.12,0.392634
6329.84,0.392721
6337.57,0.392733
6345.33,0.39287
6353.11,0.392711
6360.9,0.392772
6368.72,0.392867
6376.55,0.392737
6384.4,0.392612
6392.27,0.392633
6400.17,0.392609
6408.08,0.392711
6416.01,0.392502
6423.96,0.391931
6431.93,0.391836
6439.92,0.391758
6447.93,0.391476
6455.96,0.391402
6464.01,0.390956
6472.08,0.390583
6480.17,0.389938
6488.28,0.389554
6496.41,0.388933
6504.56,0.388124
6512.73,0.3877
6520.92,0.387479
6529.14,0.386611
6537.37,0.385956
6545.63,0.385163
6553.9,0.384479
6562.2,0.383671
6570.51,0.383019
6578.85,0.382221
6587.21,0.381343
6595.59,0.380762
6603.99,0.379988
6612.42,0.379274
6620.86,0.378528
6629.33,0.37763
6637.82,0.376787
6646.33,0.37528
6654.86,0.37435
6663.41,0.373586
6671.99,0.372489
6680.59,0.371101
6689.21,0.369569
6697.85,0.368056
6706.51,0.366864
6715.2,0.365091
6723.91,0.363297
6732.64,0.361615
6741.4,0.35993
6750.18,0.358013
6758.98,0.356085
6767.8,0.354219
6776.65,0.352393
6785.52,0.350635
6794.41,0.349357
6803.33,0.348035
6812.27,0.347475
6821.23,0.347031
6830.22,0.346775
6839.23,0.346447
6848.26,0.346348
6857.32,0.346113
6866.4,0.345676
6875.51,0.344822
6884.64,0.344287
6893.8,0.343393
6902.98,0.342279
6912.18,0.340861
6921.41,0.339333
6930.66,0.337676
6939.94,0.335855
6949.24,0.333669
6958.57,0.331515
6967.92,0.3288
6977.3,0.326163
6986.7,0.323678
6996.13,0.32094
7005.59,0.318105
7015.07,0.315593
7024.57,0.313269
7034.1,0.311225
7043.66,0.309626
7053.25,0.308159
7062.85,0.306848
7072.49,0.306213
7082.15,0.305606
7091.84,0.305347
7101.55,0.305141
7111.3,0.305142
7121.06,0.305052
7130.86,0.30532
7140.68,0.305773
7150.53,0.306343
7160.41,0.306953
7170.31,0.307808
7180.24,0.308353
7190.2,0.309111
7200.19,0.30981
7210.2,0.310372
7220.24,0.310601
7230.31,0.310728
7240.41,0.310544
7250.54,0.310281
7260.69,0.309957
7270.88,0.309721
7281.09,0.309355
7291.33,0.30914
7301.6,0.308943
7311.9,0.308727
7322.22,0.308559
7332.58,0.308488
7342.97,0.308203
7353.38,0.307934
7363.83,0.307526
7374.3,0.307089
7384.81,0.30663
7395.34,0.306146
7405.91,0.305473
7416.5,0.304784
7427.13,0.303934
7437.78,0.303074
7448.47,0.302115
7459.19,0.301337
7469.94,0.300385
7480.71,0.2994
7491.52,0.29848
7502.37,0.297759
7513.24,0.297013
7524.14,0.296286
7535.08,0.295358
7546.05,0.294373
7557.05,0.293203
7568.08,0.291994
7579.15,0.290575
7590.24,0.28904
7601.37,0.28726
7612.53,0.285389
7623.73,0.283296
7634.96,0.281216
7646.22,0.278907
7657.51,0.276515
7668.84,0.273817
7680.2,0.270992
7691.59,0.2679
7703.02,0.264816
7714.49,0.261417
7725.98,0.257939
7737.52,0.254274
7749.08,0.250735
7760.68,0.247163
7772.32,0.243836
7783.99,0.240608
7795.69,0.237831
7807.43,0.235425
7819.21,0.233493
7831.02,0.231718
7842.87,0.230277
7854.75,0.228891
7866.67,0.227712
7878.62,0.226395
7890.62,0.225124
7902.64,0.223664
7914.71,0.22225
7926.81,0.220542
7938.95,0.21874
7951.13,0.216508
7963.34,0.214226
7975.59,0.211652
7987.88,0.209086
8000.21,0.206132
8012.57,0.20335
8024.98,0.200449
8037.42,0.197652
8049.9,0.194831
8062.42,0.192231
8074.98,0.18941
8087.57,0.186877
8100.21,0.184322
8112.89,0.181953
8125.6,0.179561
8138.36,0.17739
8151.16,0.17513
8163.99,0.173105
8176.87,0.171026
8189.79,0.169108
8202.75,0.166799
8215.75,0.164775
8228.79,0.162619
8241.87,0.160694
8254.99,0.158643
8268.16,0.156747
8281.37,0.154725
8294.62,0.153018
8307.91,0.151141
8321.24,0.149365
8334.62,0.147479
8348.04,0.145971
8361.51,0.144185
8375.02,0.142488
8388.57,0.140709
8402.16,0.139023
8415.8,0.137087
8429.49,0.13533
8443.22,0.133306
8456.99,0.131426
8470.81,0.129365
8484.67,0.127447
8498.58,0.125219
8512.54,0.123106
8526.54,0.120762
8540.58,0.11838
8554.68,0.115699
8568.82,0.113129
8583.0,0.110244
8597.24,0.10747
8611.52,0.104481
8625.85,0.10184
8640.23,0.099417
8654.65,0.09739
8669.12,0.095327
8683.64,0.093899
8698.21,0.09237
8712.83,0.091141
8727.5,0.089863
8742.22,0.088855
8756.99,0.087769
8771.8,0.086918
8786.67,0.085953
8801.59,0.085273
8816.56,0.084287
8831.58,0.083581
8846.65,0.082721
8861.77,0.082065
8876.94,0.081335
8892.17,0.080748
8907.45,0.079694
8922.78,0.078714
8938.16,0.077461
8953.6,0.076528
8969.09,0.075418
8984.64,0.074406
9000.23,0.073043
9015.89,0.071972
9031.59,0.07056
9047.36,0.069538
9063.17,0.068305
9079.05,0.067102
9094.97,0.06571
9110.96,0.064711
9127.0,0.06355
9143.1,0.06285
9159.25,0.061903
9175.46,0.061171
9191.73,0.060372
9208.06,0.059989
9224.44,0.059256
9240.88,0.058859
9257.38,0.058301
9273.94,0.057954
9290.56,0.057331
9307.24,0.05674
9323.98,0.055851
9340.78,0.055259
9357.64,0.054243
9374.57,0.053318
9391.55,0.052097
9408.59,0.051046
9425.7,0.049731
9442.87,0.048743
9460.1,0.047562
9477.4,0.046577
9494.75,0.0455
9512.17,0.044678
9529.66,0.043639
9547.21,0.04291
9564.83,0.041924
9582.5,0.04114
9600.25,0.040257
9618.06,0.039549
9635.94,0.038519
9653.88,0.037847
9671.89,0.037136
9689.97,0.036628
9708.12,0.035869
9726.33,0.035344
9744.62,0.034556
9762.97,0.03389
9781.39,0.032932
9799.88,0.032205
9818.44,0.031213
9837.07,0.030436
9855.77,0.029481
9874.54,0.028763
9893.39,0.027918
9912.3,0.027231
9931.29,0.026413
9950.36,0.025898
9969.49,0.025278
9988.7,0.024803
10007.98,0.024192
10027.34,0.023845
10046.77,0.023373
10066.28,0.023178
10085.87,0.0228
10105.53,0.022403
10125.26,0.021671
10145.08,0.021196
10164.97,0.020669
10184.94,0.020504
10204.99,0.020081
10225.12,0.019723
10245.33,0.019148
10265.61,0.018889
10285.98,0.018372
10306.43,0.017916
10326.96,0.017273
10347.57,0.016907
10368.27,0.016436
10389.05,0.016263
10409.91,0.01575
10430.86,0.015481
10451.88,0.015163
10473.0,0.015069
10494.2,0.01472
10515.49,0.014474
10536.86,0.014019
10558.32,0.013843
10579.87,0.01344
10601.5,0.013182
10623.23,0.012867
10645.04,0.012757
10666.94,0.012462
10688.94,0.012337
10711.02,0.012184
10733.2,0.012473
10755.47,0.01248
10777.83,0.012638
10800.28,0.012724
10822.83,0.013223
10845.47,0.013599
10868.21,0.014142
10891.04,0.014549
10913.97,0.015382
10936.99,0.016152
10960.12,0.017164
10983.34,0.018131
11006.66,0.019483
11030.07,0.020531
11053.59,0.021792
11077.21,0.023046
11100.93,0.024647
11124.75,0.026054
11148.68,0.027658
11172.71,0.029282
11196.84,0.031195
11221.07,0.033202
11245.41,0.035613
11269.86,0.037973
11294.41,0.040781
11319.07,0.043789
11343.84,0.047201
11368.72,0.0501
11393.7,0.053002
11418.8,0.05581
11444.01,0.058638
11469.33,0.061353
11494.76,0.064499
11520.3,0.067713
11545.96,0.071096
11571.73,0.074226
11597.62,0.077225
11623.62,0.079806
11649.74,0.081893
11675.98,0.082765
11702.34,0.082348
11728.81,0.080352
11755.41,0.077668
11782.13,0.074185
11808.96,0.071071
11835.92,0.068539
11863.01,0.067027
11890.22,0.066043
11917.55,0.065622
11945.01,0.065089
11972.6,0.06491
12000.31,0.064813
12028.16,0.065201
12056.13,0.06589
12084.23,0.06732
12112.46,0.069299
12140.83,0.072011
12169.33,0.074993
12197.96,0.078341
12226.73,0.081425
12255.64,0.084517
12284.68,0.087062
12313.86,0.089558
12343.18,0.091789
12372.64,0.093789
12402.24,0.095472
12431.98,0.09727
12461.86,0.09866
12491.89,0.100202
12522.07,0.10157
12552.38,0.102811
12582.85,0.103713
12613.47,0.104719
12644.23,0.105588
12675.15,0.106622
12706.21,0.107334
12737.43,0.10817
12768.81,0.108785
12800.33,0.109412
12832.02,0.109933
12863.86,0.110558
12895.86,0.110663
12928.02,0.110947
12960.34,0.111369
12992.82,0.11189
13025.46,0.112173
13058.27,0.112676
13091.25,0.112963
13124.39,0.113672
13157.7,0.11447
13191.18,0.115281
13224.83,0.115862
13258.66,0.116514
13292.65,0.117194
13326.83,0.118141
13361.17,0.118834
13395.7,0.119759
13430.4,0.120522
13465.29,0.121335
13500.35,0.122062
13535.6,0.122494
13571.03,0.122721
13606.65,0.123173
13642.46,0.123467
13678.46,0.124011
13714.64,0.124441
13751.02,0.124988
13787.59,0.125102
13824.36,0.125318
13861.32,0.125661
13898.49,0.126074
13935.85,0.126251
13973.41,0.126341
14011.17,0.126183
14049.15,0.126291
14087.32,0.126232
14125.71,0.125926
14164.3,0.125249
14203.11,0.124981
14242.13,0.12476
14281.36,0.124616
14320.81,0.12445
14360.49,0.124208
14400.38,0.123589
14440.49,0.12327
14480.82,0.123003
14521.39,0.122884
14562.18,0.122307
14603.2,0.121792
14644.45,0.121557
14685.93,0.121427
14727.66,0.121046
14769.62,0.120497
14811.81,0.119954
14854.25,0.119859
14896.94,0.119735
14939.87,0.119906
14983.05,0.11952
15026.48,0.118924
15070.16,0.117907
15114.1,0.116643
15158.29,0.11496
15202.74,0.113372
15247.46,0.111366
15292.43,0.109303
15337.68,0.10642
15383.19,0.102723
15428.97,0.097431
15475.03,0.090797
15521.36,0.083298
15567.97,0.076251
15614.87,0.069764
15662.04,0.064198
15709.5,0.059218
15757.25,0.054638
15805.29,0.050344
15853.62,0.046947
15902.26,0.043177
15951.19,0.039399
16000.42,0.035673
16049.95,0.0322
16099.8,0.02866
16149.95,0.025437
16200.42,0.022481
16251.21,0.020325
16302.31,0.019154
16353.74,0.019939
16405.49,0.02275
16457.57,0.028904
16509.98,0.036962
16562.73,0.046851
16615.82,0.056612
16669.24,0.065607
16723.02,0.073914
16777.14,0.081749
16831.61,0.087935
16886.43,0.093262
16941.62,0.097524
16997.16,0.101366
17053.08,0.10451
17109.36,0.107031
17166.01,0.108651
17223.04,0.110226
17280.45,0.111702
17338.24,0.11314
17396.43,0.113181
17455.0,0.113372
17513.97,0.114223
17573.34,0.115092
17633.11,0.115191
17693.29,0.115154
17753.89,0.115356
17814.9,0.116011
17876.33,0.116446
17938.18,0.116723
18000.47,0.116383
18063.19,0.11544
18126.35,0.113163
18189.95,0.109771
18254.0,0.10419
18318.5,0.095053
18383.46,0.082685
18448.88,0.070925
18514.77,0.059699
18581.13,0.049286
18647.97,0.041397
18715.29,0.038463
18783.1,0.043141
18851.4,0.056444
18920.2,0.072316
18989.51,0.086611
19059.32,0.096855
19129.65,0.103867
19200.5,0.108088
19271.88,0.112149
19343.79,0.115437
19416.24,0.117859
19489.23,0.119664
19562.77,0.121711
19636.88,0.124042
19711.54,0.12617
19786.78,0.128186
19862.59,0.130804
19938.98,0.132841
20015.96,0.134832
20093.55,0.136381
20171.73,0.137539
20250.53,0.137613
20329.94,0.138584
20409.98,0.139457
20490.65,0.1403
20571.96,0.14172
20653.92,0.143628
20736.54,0.144136
20819.82,0.144675
20903.77,0.144035
20988.4,0.141205
21073.72,0.134808
21159.73,0.127665
21246.46,0.119528
21333.89,0.112445
21422.04,0.106549
21510.93,0.10219
21600.56,0.099182
21690.94,0.097154
21782.08,0.094751
21873.99,0.093025
21966.67,0.089838
22060.15,0.087376
22154.42,0.086802
22249.51,0.087227
22345.41,0.087201
22442.14,0.086332
22539.72,0.084671
22638.14,0.084509
22737.43,0.083919
22837.6,0.084243
22938.65,0.084071
23040.6,0.083807
23143.46,0.0822
23247.24,0.082799
23351.96,0.08215
23457.63,0.081276
23564.25,0.08176
23671.85,0.082658
23780.44,0.082196
23890.02,0.083793
24000.63,0.083288
24112.26,0.080875
24224.93,0.078913
24338.66,0.080298
24453.47,0.079246
24569.36,0.078034
24686.36,0.078371
24804.47,0.080152
24923.73,0.078048
25044.13,0.078293
25165.71,0.078023
25288.46,0.074715
25412.43,0.081213
25537.61,0.090222
25664.04,0.084865
25791.72,0.080568
25920.68,0.070346
