Database of Origin,University of Winnipeg Spectrophotometer Facility
Sample Description,Carbonaceous chondrites - RELAB archive 4. CR chondrites
Date Added,2018-07-23 23:44:51.355604

Data ID,RLA_MET_35_2        
Sample ID,A-881595/94
Mineral Name,CR Chondrite
Grain Size,<125 um
Viewing Geometry,30/0
Material Class,CR2

Wavelength
305.0,0.024904
310.0,0.024783
315.0,0.024609
320.0,0.024156
325.0,0.024854
330.0,0.02522
335.0,0.025262
340.0,0.025558
345.0,0.026087
350.0,0.02662
355.0,0.027171
360.0,0.027619
365.0,0.028412
370.0,0.029065
375.0,0.029862
380.0,0.030574
385.0,0.031413
390.0,0.032314
395.0,0.033136
400.0,0.033889
405.0,0.034837
410.0,0.036999
415.0,0.037559
420.0,0.038593
425.0,0.039505
430.0,0.041017
435.0,0.042458
440.0,0.043911
445.0,0.045159
450.0,0.04612
455.0,0.047076
460.0,0.047751
465.0,0.048451
470.0,0.048939
475.0,0.049587
480.0,0.049976
485.0,0.050665
490.0,0.051536
495.0,0.052681
500.0,0.053794
505.0,0.055209
510.0,0.056626
515.0,0.058351
520.0,0.059988
525.0,0.061411
530.0,0.063271
535.0,0.064978
540.0,0.066625
545.0,0.068136
550.0,0.069607
555.0,0.071143
560.0,0.072412
565.0,0.073409
570.0,0.074473
575.0,0.075563
580.0,0.076354
585.0,0.077326
590.0,0.07787
595.0,0.078485
600.0,0.079281
605.0,0.079706
610.0,0.080288
615.0,0.0809
620.0,0.081103
625.0,0.081762
630.0,0.081982
635.0,0.082242
640.0,0.08265
645.0,0.083107
650.0,0.083207
655.0,0.083395
660.0,0.083666
665.0,0.083815
670.0,0.083855
675.0,0.084141
680.0,0.084234
685.0,0.084718
690.0,0.084704
695.0,0.084593
700.0,0.085208
705.0,0.08537
710.0,0.085378
715.0,0.085488
720.0,0.085454
725.0,0.085508
730.0,0.085426
735.0,0.085371
740.0,0.085318
745.0,0.08532
750.0,0.085018
755.0,0.085141
760.0,0.085229
765.0,0.084961
770.0,0.084353
775.0,0.084577
780.0,0.084514
785.0,0.084432
790.0,0.084292
795.0,0.084626
800.0,0.084798
805.0,0.084662
810.0,0.08456
815.0,0.084463
820.0,0.084364
825.0,0.084236
830.0,0.084049
835.0,0.083986
840.0,0.083982
845.0,0.083781
850.0,0.08342
855.0,0.082878
860.0,0.08303
865.0,0.08277
870.0,0.082632
875.0,0.082572
880.0,0.082128
885.0,0.082125
890.0,0.082015
895.0,0.081846
900.0,0.082288
905.0,0.08202
910.0,0.081906
915.0,0.081902
920.0,0.081789
925.0,0.081789
930.0,0.0818
935.0,0.081734
940.0,0.081529
945.0,0.081583
950.0,0.081454
955.0,0.081465
960.0,0.081345
965.0,0.081479
970.0,0.081388
975.0,0.081493
980.0,0.081175
985.0,0.081011
990.0,0.080979
995.0,0.081168
1000.0,0.080879
1005.0,0.080943
1010.0,0.080971
1015.0,0.081035
1020.0,0.081098
1025.0,0.081186
1030.0,0.081039
1035.0,0.081127
1040.0,0.081041
1045.0,0.081102
1050.0,0.081081
1055.0,0.081163
1060.0,0.080942
1065.0,0.080993
1070.0,0.081082
1075.0,0.081127
1080.0,0.080911
1085.0,0.081166
1090.0,0.08109
1095.0,0.081199
1100.0,0.081006
1105.0,0.081228
1110.0,0.081224
1115.0,0.081228
1120.0,0.081255
1125.0,0.08137
1130.0,0.081312
1135.0,0.081367
1140.0,0.081269
1145.0,0.081406
1150.0,0.081463
1155.0,0.081273
1160.0,0.081137
1165.0,0.081266
1170.0,0.081123
1175.0,0.080976
1180.0,0.081
1185.0,0.080907
1190.0,0.081016
1195.0,0.081161
1200.0,0.080994
1205.0,0.080762
1210.0,0.081008
1215.0,0.081067
1220.0,0.080908
1225.0,0.080855
1230.0,0.08086
1235.0,0.080675
1240.0,0.080954
1245.0,0.080761
1250.0,0.080618
1255.0,0.080532
1260.0,0.080741
1265.0,0.080695
1270.0,0.080677
1275.0,0.080443
1280.0,0.080622
1285.0,0.080513
1290.0,0.080478
1295.0,0.080444
1300.0,0.080656
1305.0,0.080588
1310.0,0.080638
1315.0,0.080496
1320.0,0.080528
1325.0,0.080548
1330.0,0.08076
1335.0,0.080624
1340.0,0.080773
1345.0,0.080787
1350.0,0.080811
1355.0,0.080847
1360.0,0.080883
1365.0,0.080977
1370.0,0.081014
1375.0,0.081047
1380.0,0.081084
1385.0,0.081161
1390.0,0.081243
1395.0,0.081349
1400.0,0.081339
1405.0,0.081466
1410.0,0.081677
1415.0,0.081604
1420.0,0.081401
1425.0,0.081344
1430.0,0.081474
1435.0,0.081636
1440.0,0.081572
1445.0,0.081343
1450.0,0.081128
1455.0,0.081255
1460.0,0.081263
1465.0,0.081158
1470.0,0.081286
1475.0,0.081558
1480.0,0.081769
1485.0,0.08146
1490.0,0.081279
1495.0,0.081496
1500.0,0.081431
1505.0,0.08149
1510.0,0.081486
1515.0,0.081473
1520.0,0.081622
1525.0,0.08174
1530.0,0.081689
1535.0,0.081895
1540.0,0.081985
1545.0,0.081908
1550.0,0.081863
1555.0,0.081844
1560.0,0.082031
1565.0,0.0818
1570.0,0.081927
1575.0,0.081676
1580.0,0.082235
1585.0,0.082196
1590.0,0.0823
1595.0,0.082262
1600.0,0.082195
1605.0,0.082161
1610.0,0.082321
1615.0,0.082241
1620.0,0.08239
1625.0,0.08229
1630.0,0.082559
1635.0,0.082464
1640.0,0.082405
1645.0,0.082324
1650.0,0.082385
1655.0,0.082197
1660.0,0.082338
1665.0,0.081873
1670.0,0.081985
1675.0,0.081893
1680.0,0.082012
1685.0,0.082038
1690.0,0.081954
1695.0,0.081967
1700.0,0.082168
1705.0,0.081898
1710.0,0.081973
1715.0,0.081757
1720.0,0.081943
1725.0,0.081869
1730.0,0.081853
1735.0,0.081964
1740.0,0.081958
1745.0,0.081928
1750.0,0.081894
1755.0,0.08212
1760.0,0.082197
1765.0,0.082257
1770.0,0.082324
1775.0,0.082454
1780.0,0.082345
1785.0,0.082459
1790.0,0.082482
1795.0,0.082391
1800.0,0.082359
1805.0,0.082361
1810.0,0.082304
1815.0,0.082227
1820.0,0.082278
1825.0,0.08233
1830.0,0.082535
1835.0,0.082468
1840.0,0.082356
1845.0,0.083077
1850.0,0.082812
1855.0,0.083013
1860.0,0.082841
1865.0,0.082795
1870.0,0.082128
1875.0,0.082174
1880.0,0.083266
1885.0,0.082539
1890.0,0.082324
1895.0,0.08204
1900.0,0.081712
1905.0,0.081442
1910.0,0.081479
1915.0,0.081079
1920.0,0.080992
1925.0,0.080921
1930.0,0.080959
1935.0,0.080917
1940.0,0.080562
1945.0,0.080658
1950.0,0.080689
1955.0,0.080393
1960.0,0.080488
1965.0,0.080556
1970.0,0.080599
1975.0,0.080596
1980.0,0.08076
1985.0,0.080702
1990.0,0.08075
1995.0,0.080717
2000.0,0.080731
2005.0,0.080971
2010.0,0.081106
2015.0,0.081329
2020.0,0.081386
2025.0,0.081361
2030.0,0.081374
2035.0,0.081452
2040.0,0.081418
2045.0,0.081592
2050.0,0.08169
2055.0,0.081895
2060.0,0.081796
2065.0,0.082115
2070.0,0.082155
2075.0,0.082324
2080.0,0.082477
2085.0,0.082561
2090.0,0.082935
2095.0,0.083108
2100.0,0.08336
2105.0,0.083293
2110.0,0.083215
2115.0,0.08345
2120.0,0.083456
2125.0,0.083477
2130.0,0.08369
2135.0,0.083883
2140.0,0.08375
2145.0,0.08394
2150.0,0.084016
2155.0,0.084012
2160.0,0.084024
2165.0,0.084024
2170.0,0.084013
2175.0,0.084125
2180.0,0.084159
2185.0,0.084014
2190.0,0.084145
2195.0,0.084111
2200.0,0.084151
2205.0,0.084357
2210.0,0.084265
2215.0,0.084176
2220.0,0.084371
2225.0,0.084381
2230.0,0.084439
2235.0,0.084583
2240.0,0.084554
2245.0,0.084487
2250.0,0.084565
2255.0,0.08469
2260.0,0.084823
2265.0,0.084887
2270.0,0.084896
2275.0,0.085071
2280.0,0.084936
2285.0,0.085056
2290.0,0.085215
2295.0,0.085009
2300.0,0.08499
2305.0,0.084911
2310.0,0.084949
2315.0,0.084752
2320.0,0.084362
2325.0,0.084185
2330.0,0.084097
2335.0,0.08399
2340.0,0.083908
2345.0,0.083865
2350.0,0.083912
2355.0,0.083762
2360.0,0.083624
2365.0,0.083611
2370.0,0.083478
2375.0,0.083331
2380.0,0.082961
2385.0,0.083098
2390.0,0.08308
2395.0,0.083182
2400.0,0.083446
2405.0,0.083451
2410.0,0.083599
2415.0,0.083591
2420.0,0.083476
2425.0,0.083544
2430.0,0.083541
2435.0,0.083544
2440.0,0.083727
2445.0,0.083588
2450.0,0.083556
2455.0,0.083518
2460.0,0.083584
2465.0,0.083482
2470.0,0.083473
2475.0,0.083551
2480.0,0.08361
2485.0,0.083421
2490.0,0.083355
2495.0,0.083333
2500.0,0.083367
2505.0,0.083351
2510.0,0.08327
2515.0,0.083683
2520.0,0.083604
2525.0,0.083705
2530.0,0.08349
2535.0,0.083339
2540.0,0.083431
2545.0,0.082839
2550.0,0.082727
2555.0,0.083113
2560.0,0.082792
2565.0,0.080732
2570.0,0.081699
2575.0,0.080862
2580.0,0.08138
2585.0,0.079923
2590.0,0.080663
2595.0,0.079322
2600.0,0.081403
