Database of Origin,University of Winnipeg Spectrophotometer Facility
Sample Description,"RELAB plus Nicolet merged plagioclase data. Merged @2500nm, different viewing geometries. See Master Plagioclase in PSF sample database for more information"
Date Added,2016-11-22 03:59:30.083992

Data ID,RLA_PLG_20          
Sample ID,PLG121
Mineral Name,Oligoclase
Grain Size,<45
Viewing Geometry,"30/0,30"
Resolution,"5,0.6-129"
Composition,An11
Material Class,Tectosilicate

Wavelength
300.0,0.522374
305.0,0.535971
310.0,0.55193
315.0,0.565322
320.0,0.578539
325.0,0.590122
330.0,0.600885
335.0,0.611038
340.0,0.619808
345.0,0.628999
350.0,0.636536
355.0,0.645205
360.0,0.651057
365.0,0.657679
370.0,0.661968
375.0,0.668019
380.0,0.671817
385.0,0.67707
390.0,0.679689
395.0,0.683218
400.0,0.686272
405.0,0.688586
410.0,0.692322
415.0,0.694714
420.0,0.697853
425.0,0.701152
430.0,0.704111
435.0,0.707129
440.0,0.708501
445.0,0.710945
450.0,0.712171
455.0,0.714795
460.0,0.715063
465.0,0.71744
470.0,0.717299
475.0,0.719613
480.0,0.719135
485.0,0.72148
490.0,0.721343
495.0,0.724315
500.0,0.723917
505.0,0.727092
510.0,0.727848
515.0,0.732147
520.0,0.732087
525.0,0.736115
530.0,0.736555
535.0,0.740714
540.0,0.74129
545.0,0.746386
550.0,0.747571
555.0,0.752219
560.0,0.753331
565.0,0.758048
570.0,0.760111
575.0,0.7632
580.0,0.764564
585.0,0.767583
590.0,0.768083
595.0,0.769914
600.0,0.770711
605.0,0.773192
610.0,0.772036
615.0,0.774218
620.0,0.773584
625.0,0.774922
630.0,0.774255
635.0,0.776348
640.0,0.775463
645.0,0.776682
650.0,0.777159
655.0,0.778148
660.0,0.778591
665.0,0.779072
670.0,0.780306
675.0,0.780602
680.0,0.781644
685.0,0.781074
690.0,0.782231
695.0,0.78177
700.0,0.783037
705.0,0.782267
710.0,0.783548
715.0,0.784536
720.0,0.783082
725.0,0.785836
730.0,0.784736
735.0,0.786855
740.0,0.786647
745.0,0.786403
750.0,0.786621
755.0,0.787327
760.0,0.788176
765.0,0.787483
770.0,0.788283
775.0,0.787839
780.0,0.789027
785.0,0.788177
790.0,0.789558
795.0,0.789521
800.0,0.789889
805.0,0.790565
810.0,0.790807
815.0,0.790964
820.0,0.791056
825.0,0.790452
830.0,0.792395
835.0,0.791102
840.0,0.792568
845.0,0.791568
850.0,0.79194
855.0,0.792102
860.0,0.79211
865.0,0.792026
870.0,0.792384
875.0,0.790705
880.0,0.791772
885.0,0.789851
890.0,0.790291
895.0,0.790949
900.0,0.793317
905.0,0.792258
910.0,0.792771
915.0,0.789998
920.0,0.790113
925.0,0.790809
930.0,0.790252
935.0,0.788552
940.0,0.78871
945.0,0.789469
950.0,0.788177
955.0,0.788911
960.0,0.791993
965.0,0.793221
970.0,0.79546
975.0,0.794617
980.0,0.794828
985.0,0.794393
990.0,0.794098
995.0,0.79146
1000.0,0.79169
1005.0,0.792076
1010.0,0.792628
1015.0,0.795218
1020.0,0.796421
1025.0,0.795979
1030.0,0.794971
1035.0,0.793668
1040.0,0.791783
1045.0,0.789882
1050.0,0.790962
1055.0,0.790546
1060.0,0.792042
1065.0,0.792215
1070.0,0.793702
1075.0,0.794246
1080.0,0.795363
1085.0,0.794655
1090.0,0.795765
1095.0,0.794278
1100.0,0.793395
1105.0,0.793074
1110.0,0.792892
1115.0,0.792535
1120.0,0.793668
1125.0,0.795064
1130.0,0.794863
1135.0,0.795864
1140.0,0.79545
1145.0,0.795827
1150.0,0.794706
1155.0,0.795606
1160.0,0.793791
1165.0,0.794286
1170.0,0.794229
1175.0,0.79546
1180.0,0.795904
1185.0,0.797858
1190.0,0.79745
1195.0,0.798033
1200.0,0.797295
1205.0,0.796762
1210.0,0.796748
1215.0,0.796753
1220.0,0.796515
1225.0,0.79655
1230.0,0.797328
1235.0,0.796591
1240.0,0.797495
1245.0,0.797708
1250.0,0.798401
1255.0,0.798197
1260.0,0.798664
1265.0,0.797939
1270.0,0.797767
1275.0,0.797202
1280.0,0.796871
1285.0,0.796571
1290.0,0.797183
1295.0,0.796851
1300.0,0.796757
1305.0,0.797105
1310.0,0.797201
1315.0,0.797481
1320.0,0.798299
1325.0,0.798754
1330.0,0.798929
1335.0,0.799263
1340.0,0.799186
1345.0,0.798835
1350.0,0.798238
1355.0,0.797962
1360.0,0.798801
1365.0,0.799152
1370.0,0.798794
1375.0,0.799457
1380.0,0.799698
1385.0,0.799748
1390.0,0.800395
1395.0,0.801268
1400.0,0.800667
1405.0,0.801061
1410.0,0.801605
1415.0,0.801079
1420.0,0.80042
1425.0,0.800219
1430.0,0.800154
1435.0,0.800563
1440.0,0.801231
1445.0,0.80153
1450.0,0.801421
1455.0,0.801878
1460.0,0.801219
1465.0,0.801205
1470.0,0.80089
1475.0,0.801663
1480.0,0.801349
1485.0,0.801671
1490.0,0.801296
1495.0,0.80203
1500.0,0.802496
1505.0,0.803092
1510.0,0.803572
1515.0,0.804282
1520.0,0.804597
1525.0,0.804341
1530.0,0.804453
1535.0,0.805007
1540.0,0.805528
1545.0,0.806151
1550.0,0.806942
1555.0,0.807141
1560.0,0.807215
1565.0,0.808138
1570.0,0.808171
1575.0,0.807693
1580.0,0.808165
1585.0,0.808709
1590.0,0.808129
1595.0,0.807983
1600.0,0.808638
1605.0,0.809373
1610.0,0.809449
1615.0,0.810802
1620.0,0.810994
1625.0,0.810833
1630.0,0.810548
1635.0,0.81119
1640.0,0.81051
1645.0,0.810984
1650.0,0.811491
1655.0,0.810615
1660.0,0.809958
1665.0,0.810838
1670.0,0.811193
1675.0,0.811467
1680.0,0.810925
1685.0,0.811267
1690.0,0.811851
1695.0,0.812872
1700.0,0.812907
1705.0,0.812894
1710.0,0.812716
1715.0,0.812548
1720.0,0.811852
1725.0,0.812111
1730.0,0.812364
1735.0,0.812461
1740.0,0.812492
1745.0,0.812351
1750.0,0.812584
1755.0,0.812113
1760.0,0.811955
1765.0,0.811812
1770.0,0.811708
1775.0,0.811882
1780.0,0.812834
1785.0,0.812699
1790.0,0.812607
1795.0,0.812465
1800.0,0.812731
1805.0,0.811686
1810.0,0.8122
1815.0,0.812492
1820.0,0.812861
1825.0,0.812183
1830.0,0.814044
1835.0,0.8136
1840.0,0.813839
1845.0,0.814321
1850.0,0.814831
1855.0,0.813245
1860.0,0.812639
1865.0,0.81318
1870.0,0.813304
1875.0,0.812404
1880.0,0.812152
1885.0,0.812849
1890.0,0.810694
1895.0,0.808845
1900.0,0.808092
1905.0,0.807429
1910.0,0.806053
1915.0,0.806009
1920.0,0.806045
1925.0,0.805947
1930.0,0.806568
1935.0,0.807511
1940.0,0.805881
1945.0,0.806633
1950.0,0.807237
1955.0,0.807117
1960.0,0.807209
1965.0,0.809349
1970.0,0.809275
1975.0,0.809625
1980.0,0.809639
1985.0,0.809805
1990.0,0.810102
1995.0,0.809653
2000.0,0.809553
2005.0,0.810312
2010.0,0.809855
2015.0,0.810534
2020.0,0.811348
2025.0,0.811404
2030.0,0.811003
2035.0,0.811044
2040.0,0.809232
2045.0,0.808646
2050.0,0.809405
2055.0,0.809547
2060.0,0.809983
2065.0,0.811618
2070.0,0.813175
2075.0,0.813173
2080.0,0.813921
2085.0,0.814317
2090.0,0.814286
2095.0,0.813748
2100.0,0.814459
2105.0,0.814091
2110.0,0.815018
2115.0,0.815373
2120.0,0.815468
2125.0,0.814603
2130.0,0.814588
2135.0,0.813585
2140.0,0.813102
2145.0,0.81233
2150.0,0.812064
2155.0,0.811873
2160.0,0.811771
2165.0,0.811982
2170.0,0.812475
2175.0,0.812749
2180.0,0.813552
2185.0,0.814188
2190.0,0.814741
2195.0,0.814858
2200.0,0.81474
2205.0,0.81457
2210.0,0.814431
2215.0,0.815107
2220.0,0.816134
2225.0,0.816618
2230.0,0.815897
2235.0,0.816484
2240.0,0.8153
2245.0,0.814509
2250.0,0.81436
2255.0,0.815261
2260.0,0.814757
2265.0,0.816335
2270.0,0.817059
2275.0,0.816841
2280.0,0.817424
2285.0,0.817269
2290.0,0.817211
2295.0,0.816752
2300.0,0.816793
2305.0,0.815656
2310.0,0.81611
2315.0,0.814978
2320.0,0.815429
2325.0,0.816677
2330.0,0.817287
2335.0,0.816259
2340.0,0.816195
2345.0,0.815963
2350.0,0.814344
2355.0,0.814645
2360.0,0.814907
2365.0,0.81478
2370.0,0.814715
2375.0,0.815282
2380.0,0.813586
2385.0,0.814311
2390.0,0.813536
2395.0,0.812202
2400.0,0.8125
2405.0,0.813523
2410.0,0.812194
2415.0,0.813685
2420.0,0.814467
2425.0,0.813939
2430.0,0.815012
2435.0,0.816501
2440.0,0.815754
2445.0,0.814955
2450.0,0.814636
2455.0,0.813078
2460.0,0.811184
2465.0,0.810385
2470.0,0.810778
2475.0,0.811063
2480.0,0.810525
2485.0,0.810287
2490.0,0.809921
2495.0,0.809384
2500.0,0.808558
2505.0,0.807387
2510.0,0.807795
2515.0,0.808197
2520.0,0.808417
2525.0,0.809446
2530.08,0.809046
2535.03,0.808551
2540.0,0.80681
2544.99,0.806687
2549.99,0.804646
2552.5,0.804607
2553.76,0.805453
2555.02,0.807393
2556.28,0.806618
2557.54,0.805274
2558.8,0.804716
2560.07,0.803092
2561.33,0.800254
2562.6,0.801567
2563.86,0.805367
2565.13,0.807385
2566.4,0.808502
2567.67,0.807912
2568.95,0.803961
2570.22,0.802275
2571.5,0.805693
2572.77,0.805774
2574.05,0.800765
2575.33,0.805876
2576.61,0.806159
2577.89,0.803353
2579.17,0.806819
2580.46,0.806721
2581.74,0.803207
2583.03,0.80442
2584.31,0.801082
2585.6,0.805635
2586.89,0.808496
2588.19,0.804934
2589.48,0.806077
2590.77,0.807588
2592.07,0.806191
2593.36,0.802563
2594.66,0.794296
2595.96,0.796538
2597.26,0.81466
2598.56,0.815998
2599.87,0.809091
2601.17,0.803847
2602.48,0.802589
2603.78,0.803551
2605.09,0.801614
2606.4,0.801829
2607.71,0.808156
2609.03,0.808713
2610.34,0.806517
2611.65,0.807365
2612.97,0.806343
2614.29,0.804616
2615.61,0.804228
2616.93,0.799757
2618.25,0.802744
2619.57,0.809103
2620.9,0.803077
2622.22,0.806597
2623.55,0.810208
2624.88,0.805833
2626.21,0.801359
2627.54,0.800128
2628.87,0.806848
2630.21,0.803279
2631.54,0.801407
2632.88,0.810074
2634.21,0.807627
2635.55,0.80553
2636.89,0.806213
2638.24,0.804812
2639.58,0.804483
2640.92,0.804037
2642.27,0.803285
2643.62,0.804069
2644.97,0.804235
2646.32,0.802916
2647.67,0.804664
2649.02,0.805433
2650.38,0.803964
2651.73,0.801813
2653.09,0.799519
2654.45,0.80319
2655.81,0.804906
2657.17,0.80504
2658.53,0.805598
2659.89,0.801816
2661.26,0.802693
2662.63,0.804892
2664.0,0.803401
2665.36,0.796843
2666.74,0.797943
2668.11,0.805521
2669.48,0.808486
2670.86,0.798361
2672.23,0.804945
2673.61,0.812605
2674.99,0.804665
2676.37,0.797704
2677.76,0.797911
2679.14,0.803681
2680.52,0.80462
2681.91,0.80572
2683.3,0.800265
2684.69,0.797638
2686.08,0.797785
2687.47,0.797527
2688.87,0.798224
2690.26,0.797759
2691.66,0.795148
2693.06,0.790588
2694.46,0.787094
2695.86,0.791203
2697.26,0.793478
2698.66,0.790934
2700.07,0.784946
2701.48,0.780073
2702.89,0.778762
2704.3,0.778665
2705.71,0.774355
2707.12,0.770791
2708.53,0.766443
2709.95,0.763143
2711.37,0.762661
2712.79,0.767723
2714.21,0.769642
2715.63,0.764608
2717.05,0.760732
2718.48,0.758007
2719.9,0.753894
2721.33,0.74978
2722.76,0.757952
2724.19,0.754636
2725.62,0.747274
2727.06,0.750838
2728.49,0.74907
2729.93,0.743353
2731.37,0.739355
2732.81,0.737017
2734.25,0.733104
2735.69,0.729683
2737.14,0.731492
2738.58,0.727626
2740.03,0.720057
2741.48,0.721895
2742.93,0.726312
2744.38,0.725635
2745.83,0.719551
2747.29,0.715169
2748.75,0.712277
2750.2,0.70985
2751.66,0.706768
2753.13,0.703887
2754.59,0.70065
2756.05,0.6958
2757.52,0.701392
2758.99,0.703498
2760.46,0.696696
2761.93,0.690778
2763.4,0.687655
2764.87,0.691212
2766.35,0.693148
2767.82,0.690028
2769.3,0.689122
2770.78,0.688908
2772.26,0.68813
2773.75,0.689955
2775.23,0.688332
2776.72,0.685318
2778.21,0.683574
2779.7,0.683368
2781.19,0.682118
2782.68,0.681598
2784.18,0.681295
2785.67,0.679831
2787.17,0.676664
2788.67,0.678048
2790.17,0.680186
2791.67,0.678661
2793.18,0.6756
2794.68,0.674341
2796.19,0.673838
2797.7,0.673067
2799.21,0.672326
2800.72,0.671591
2802.24,0.669715
2803.75,0.668543
2805.27,0.671319
2806.79,0.672671
2808.31,0.670601
2809.83,0.669361
2811.35,0.668544
2812.88,0.667844
2814.41,0.666536
2815.93,0.666145
2817.46,0.666617
2819.0,0.665591
2820.53,0.664713
2822.07,0.66539
2823.6,0.665677
2825.14,0.665282
2826.68,0.664312
2828.22,0.663435
2829.77,0.663308
2831.31,0.663204
2832.86,0.662341
2834.41,0.661964
2835.96,0.661624
2837.51,0.661788
2839.07,0.661692
2840.62,0.661911
2842.18,0.660981
2843.74,0.66028
2845.3,0.65965
2846.86,0.659092
2848.43,0.658214
2849.99,0.657692
2851.56,0.657417
2853.13,0.657323
2854.7,0.656147
2856.27,0.655897
2857.85,0.655691
2859.42,0.655048
2861.0,0.654298
2862.58,0.653661
2864.16,0.652477
2865.75,0.651841
2867.33,0.651275
2868.92,0.650956
2870.51,0.649925
2872.1,0.649235
2873.69,0.649043
2875.28,0.649149
2876.88,0.648509
2878.48,0.647094
2880.07,0.646305
2881.68,0.646071
2883.28,0.645768
2884.88,0.645059
2886.49,0.644428
2888.1,0.643907
2889.71,0.64327
2891.32,0.643087
2892.93,0.642248
2894.55,0.641774
2896.16,0.641605
2897.78,0.641146
2899.4,0.640572
2901.03,0.639721
2902.65,0.639386
2904.28,0.639314
2905.91,0.638622
2907.53,0.638215
2909.17,0.637602
2910.8,0.636917
2912.44,0.636165
2914.07,0.635807
2915.71,0.635207
2917.35,0.635057
2918.99,0.634588
2920.64,0.633892
2922.29,0.633183
2923.93,0.63302
2925.58,0.633268
2927.24,0.633278
2928.89,0.632448
2930.55,0.631664
2932.2,0.631272
2933.86,0.6311
2935.52,0.630509
2937.19,0.630348
2938.85,0.629825
2940.52,0.629809
2942.19,0.629129
2943.86,0.628831
2945.53,0.628643
2947.21,0.628558
2948.88,0.627936
2950.56,0.627282
2952.24,0.626499
2953.92,0.626597
2955.61,0.626996
2957.29,0.626922
2958.98,0.62647
2960.67,0.626443
2962.36,0.626137
2964.06,0.625922
2965.75,0.625887
2967.45,0.626128
2969.15,0.625902
2970.85,0.625785
2972.55,0.625915
2974.26,0.626436
2975.97,0.626569
2977.68,0.626768
2979.39,0.626964
2981.1,0.627003
2982.82,0.626885
2984.53,0.626395
2986.25,0.626053
2987.97,0.626587
2989.7,0.626563
2991.42,0.626548
2993.15,0.626632
2994.88,0.626638
2996.61,0.626359
2998.34,0.626596
3000.08,0.626632
3001.82,0.6264
3003.55,0.626182
3005.3,0.626225
3007.04,0.626352
3008.78,0.626462
3010.53,0.626612
3012.28,0.626776
3014.03,0.626561
3015.79,0.627028
3017.54,0.62727
3019.3,0.627236
3021.06,0.627195
3022.82,0.627407
3024.58,0.627285
3026.35,0.627432
3028.12,0.627498
3029.89,0.627816
3031.66,0.627926
3033.43,0.628273
3035.21,0.628519
3036.99,0.628719
3038.77,0.629047
3040.55,0.629551
3042.33,0.630039
3044.12,0.630888
3045.91,0.631234
3047.7,0.631478
3049.49,0.631508
3051.29,0.631887
3053.08,0.632499
3054.88,0.633268
3056.68,0.633942
3058.49,0.63453
3060.29,0.634756
3062.1,0.635192
3063.91,0.635721
3065.72,0.63658
3067.54,0.637161
3069.35,0.637537
3071.17,0.637697
3072.99,0.638422
3074.81,0.639093
3076.64,0.639813
3078.46,0.640369
3080.29,0.640578
3082.13,0.640789
3083.96,0.641579
3085.79,0.64198
3087.63,0.642373
3089.47,0.642931
3091.31,0.64373
3093.16,0.644102
3095.01,0.644199
3096.85,0.644819
3098.71,0.645724
3100.56,0.646169
3102.41,0.646592
3104.27,0.646612
3106.13,0.646902
3107.99,0.647728
3109.86,0.648349
3111.73,0.648323
3113.59,0.648869
3115.47,0.649319
3117.34,0.649961
3119.21,0.650477
3121.09,0.650711
3122.97,0.651161
3124.86,0.651897
3126.74,0.652229
3128.63,0.652694
3130.52,0.653504
3132.41,0.654312
3134.3,0.654576
3136.2,0.655017
3138.1,0.655525
3140.0,0.656184
3141.9,0.656827
3143.81,0.657642
3145.71,0.65827
3147.62,0.658725
3149.54,0.659383
3151.45,0.660304
3153.37,0.660993
3155.29,0.661722
3157.21,0.662369
3159.13,0.662911
3161.06,0.663548
3162.99,0.664405
3164.92,0.664968
3166.85,0.665573
3168.79,0.666252
3170.72,0.666844
3172.67,0.667386
3174.61,0.668211
3176.55,0.668876
3178.5,0.669506
3180.45,0.670035
3182.4,0.670704
3184.36,0.671531
3186.32,0.672476
3188.27,0.672957
3190.24,0.673332
3192.2,0.67391
3194.17,0.674464
3196.14,0.674831
3198.11,0.675426
3200.08,0.67658
3202.06,0.677227
3204.04,0.677525
3206.02,0.677893
3208.0,0.678259
3209.99,0.678743
3211.98,0.678964
3213.97,0.679534
3215.96,0.680033
3217.96,0.680287
3219.96,0.68055
3221.96,0.680861
3223.96,0.681338
3225.97,0.682184
3227.98,0.682815
3229.99,0.68343
3232.0,0.683928
3234.02,0.68444
3236.04,0.684953
3238.06,0.68538
3240.08,0.685828
3242.11,0.686672
3244.14,0.687371
3246.17,0.68809
3248.2,0.688884
3250.24,0.689652
3252.28,0.69045
3254.32,0.691198
3256.37,0.691804
3258.41,0.692506
3260.46,0.693287
3262.51,0.69433
3264.57,0.694723
3266.63,0.69551
3268.69,0.696188
3270.75,0.697031
3272.81,0.697549
3274.88,0.698374
3276.95,0.699
3279.02,0.699611
3281.1,0.700226
3283.18,0.700914
3285.26,0.701473
3287.34,0.702056
3289.43,0.702732
3291.51,0.703581
3293.61,0.704187
3295.7,0.704907
3297.8,0.705591
3299.89,0.706335
3302.0,0.706798
3304.1,0.707253
3306.21,0.707674
3308.32,0.708577
3310.43,0.70941
3312.55,0.710016
3314.66,0.71024
3316.78,0.710767
3318.91,0.711454
3321.03,0.712197
3323.16,0.712502
3325.29,0.713018
3327.43,0.713049
3329.57,0.713222
3331.71,0.713368
3333.85,0.713488
3335.99,0.713496
3338.14,0.713693
3340.29,0.713724
3342.45,0.713994
3344.6,0.713607
3346.76,0.712744
3348.92,0.712347
3351.09,0.711815
3353.26,0.710959
3355.43,0.710095
3357.6,0.708707
3359.78,0.7074
3361.96,0.705889
3364.14,0.70452
3366.32,0.702789
3368.51,0.700395
3370.7,0.69779
3372.89,0.695635
3375.09,0.693568
3377.29,0.692159
3379.49,0.691398
3381.69,0.691573
3383.9,0.692155
3386.11,0.693199
3388.32,0.694368
3390.54,0.69495
3392.76,0.69486
3394.98,0.693867
3397.21,0.691598
3399.43,0.688426
3401.66,0.684039
3403.9,0.679242
3406.13,0.673585
3408.37,0.667503
3410.61,0.661371
3412.86,0.655738
3415.11,0.650508
3417.36,0.646589
3419.61,0.644788
3421.87,0.645407
3424.13,0.648993
3426.39,0.655284
3428.66,0.662581
3430.93,0.670229
3433.2,0.677764
3435.48,0.685009
3437.76,0.691108
3440.04,0.696337
3442.32,0.700483
3444.61,0.70396
3446.9,0.706795
3449.19,0.709671
3451.49,0.712136
3453.79,0.714641
3456.09,0.717304
3458.4,0.719883
3460.7,0.722202
3463.02,0.724337
3465.33,0.725842
3467.65,0.727106
3469.97,0.727815
3472.29,0.728169
3474.62,0.727942
3476.95,0.727617
3479.29,0.727161
3481.62,0.726693
3483.96,0.726517
3486.3,0.726439
3488.65,0.725598
3491.0,0.724248
3493.35,0.721755
3495.71,0.718061
3498.07,0.713453
3500.43,0.70834
3502.79,0.703928
3505.16,0.702219
3507.53,0.704331
3509.91,0.710019
3512.29,0.718058
3514.67,0.727386
3517.05,0.736244
3519.44,0.743402
3521.83,0.748804
3524.22,0.75305
3526.62,0.756373
3529.02,0.758997
3531.43,0.760913
3533.83,0.7626
3536.24,0.763937
3538.66,0.765554
3541.08,0.76688
3543.5,0.767855
3545.92,0.768504
3548.35,0.769336
3550.78,0.770327
3553.21,0.77137
3555.65,0.772185
3558.09,0.773054
3560.53,0.773733
3562.98,0.774494
3565.43,0.775348
3567.88,0.776282
3570.34,0.776842
3572.8,0.777461
3575.27,0.777985
3577.73,0.778781
3580.2,0.779441
3582.68,0.780139
3585.16,0.780754
3587.64,0.781463
3590.12,0.781961
3592.61,0.78253
3595.1,0.782953
3597.6,0.783546
3600.09,0.783982
3602.6,0.784541
3605.1,0.785141
3607.61,0.785769
3610.12,0.786286
3612.64,0.786732
3615.16,0.787171
3617.68,0.78783
3620.21,0.788106
3622.74,0.788448
3625.27,0.789008
3627.81,0.78975
3630.35,0.790217
3632.89,0.790481
3635.44,0.790651
3637.99,0.79106
3640.54,0.79138
3643.1,0.791737
3645.66,0.792199
3648.23,0.792811
3650.8,0.793148
3653.37,0.793452
3655.95,0.793701
3658.53,0.794038
3661.11,0.794296
3663.7,0.794682
3666.29,0.79507
3668.89,0.795649
3671.48,0.79578
3674.09,0.796101
3676.69,0.796359
3679.3,0.796828
3681.91,0.797071
3684.53,0.79757
3687.15,0.797777
3689.78,0.798049
3692.4,0.798241
3695.04,0.798612
3697.67,0.798882
3700.31,0.799139
3702.95,0.799284
3705.6,0.799643
3708.25,0.799839
3710.91,0.79995
3713.56,0.799989
3716.23,0.800345
3718.89,0.800599
3721.56,0.801016
3724.23,0.801268
3726.91,0.801631
3729.59,0.801925
3732.28,0.802139
3734.97,0.802188
3737.66,0.802741
3740.36,0.802921
3743.06,0.803106
3745.76,0.803431
3748.47,0.803881
3751.18,0.80429
3753.9,0.804788
3756.62,0.805192
3759.34,0.805816
3762.07,0.806328
3764.8,0.806845
3767.54,0.807141
3770.28,0.807635
3773.02,0.807873
3775.77,0.808237
3778.52,0.808589
3781.28,0.80927
3784.04,0.809744
3786.8,0.810138
3789.57,0.810566
3792.34,0.811129
3795.12,0.811573
3797.9,0.811838
3800.69,0.811998
3803.47,0.81241
3806.27,0.812792
3809.06,0.813204
3811.86,0.813316
3814.67,0.813793
3817.48,0.813999
3820.29,0.814172
3823.11,0.814279
3825.93,0.81448
3828.76,0.814626
3831.59,0.814995
3834.42,0.815233
3837.26,0.815606
3840.1,0.815796
3842.95,0.816186
3845.8,0.816457
3848.65,0.816496
3851.51,0.81654
3854.38,0.816901
3857.24,0.817322
3860.12,0.817716
3862.99,0.817897
3865.87,0.818276
3868.76,0.818656
3871.65,0.819239
3874.54,0.819508
3877.44,0.819626
3880.34,0.819856
3883.25,0.820199
3886.16,0.820683
3889.07,0.821299
3891.99,0.821409
3894.92,0.821802
3897.85,0.82208
3900.78,0.822409
3903.72,0.822556
3906.66,0.822912
3909.6,0.823131
3912.55,0.823407
3915.51,0.8237
3918.47,0.823836
3921.43,0.824195
3924.4,0.824489
3927.37,0.824474
3930.35,0.82468
3933.33,0.824738
3936.32,0.824953
3939.31,0.825091
3942.31,0.825227
3945.31,0.825319
3948.31,0.825461
3951.32,0.825472
3954.34,0.825608
3957.35,0.825638
3960.38,0.825845
3963.41,0.82575
3966.44,0.825859
3969.48,0.825848
3972.52,0.825986
3975.56,0.826213
3978.61,0.826355
3981.67,0.826375
3984.73,0.826535
3987.8,0.826603
3990.87,0.826837
3993.94,0.826943
3997.02,0.827349
4000.1,0.82746
4003.19,0.8276
4006.29,0.827771
4009.39,0.828215
4012.49,0.828279
4015.6,0.828433
4018.71,0.828664
4021.83,0.82905
4024.95,0.829039
4028.08,0.829295
4031.21,0.829585
4034.35,0.82991
4037.49,0.829998
4040.64,0.830448
4043.79,0.830848
4046.94,0.830985
4050.11,0.831124
4053.27,0.831449
4056.44,0.8314
4059.62,0.831541
4062.8,0.831573
4065.99,0.831765
4069.18,0.831802
4072.38,0.831782
4075.58,0.83147
4078.78,0.831579
4082.0,0.83156
4085.21,0.831553
4088.43,0.831335
4091.66,0.831414
4094.89,0.831101
4098.13,0.831055
4101.37,0.830817
4104.62,0.830832
4107.87,0.830694
4111.13,0.830493
4114.39,0.830323
4117.66,0.830189
4120.93,0.829959
4124.21,0.829823
4127.5,0.829584
4130.78,0.829634
4134.08,0.829299
4137.38,0.829071
4140.68,0.828762
4143.99,0.828757
4147.31,0.828563
4150.63,0.828329
4153.95,0.827967
4157.29,0.82788
4160.62,0.827778
4163.96,0.82772
4167.31,0.827394
4170.66,0.827267
4174.02,0.82693
4177.39,0.826685
4180.75,0.826298
4184.13,0.826261
4187.51,0.825893
4190.89,0.825459
4194.28,0.824973
4197.68,0.824689
4201.08,0.824554
4204.49,0.824397
4207.9,0.824153
4211.32,0.824287
4214.74,0.824352
4218.17,0.824385
4221.61,0.824489
4225.05,0.825047
4228.5,0.825266
4231.95,0.825389
4235.4,0.825527
4238.87,0.825618
4242.34,0.825703
4245.81,0.826051
4249.29,0.82553
4252.78,0.825087
4256.27,0.824204
4259.77,0.822043
4263.27,0.819861
4266.78,0.819518
4270.29,0.819807
4273.81,0.819623
4277.34,0.818961
4280.87,0.818491
4284.41,0.817946
4287.95,0.817582
4291.5,0.817032
4295.06,0.816514
4298.62,0.815894
4302.19,0.81543
4305.76,0.814897
4309.34,0.814639
4312.92,0.814032
4316.52,0.813358
4320.11,0.812339
4323.72,0.811564
4327.32,0.810738
4330.94,0.810006
4334.56,0.80909
4338.19,0.808203
4341.82,0.80705
4345.46,0.805925
4349.11,0.804847
4352.76,0.803738
4356.42,0.802181
4360.08,0.800928
4363.75,0.799705
4367.43,0.798273
4371.11,0.796834
4374.8,0.79568
4378.49,0.794114
4382.19,0.792298
4385.9,0.790513
4389.61,0.789016
4393.33,0.787412
4397.06,0.785975
4400.79,0.784249
4404.53,0.782557
4408.28,0.780943
4412.03,0.779482
4415.79,0.778147
4419.55,0.776917
4423.32,0.775321
4427.1,0.773812
4430.88,0.772309
4434.67,0.771061
4438.47,0.769655
4442.27,0.768533
4446.08,0.767426
4449.9,0.766246
4453.72,0.764612
4457.55,0.762936
4461.39,0.76108
4465.23,0.75947
4469.08,0.75804
4472.94,0.757026
4476.8,0.756085
4480.67,0.755597
4484.55,0.755211
4488.43,0.754969
4492.32,0.754503
4496.21,0.754118
4500.12,0.753708
4504.03,0.753683
4507.94,0.753731
4511.87,0.753962
4515.8,0.754411
4519.73,0.754907
4523.68,0.75485
4527.63,0.754954
4531.59,0.754941
4535.55,0.754671
4539.52,0.754236
4543.5,0.753959
4547.49,0.753337
4551.48,0.752764
4555.48,0.751964
4559.49,0.751046
4563.5,0.749972
4567.52,0.749185
4571.55,0.748026
4575.58,0.746652
4579.62,0.745218
4583.67,0.743955
4587.73,0.742478
4591.79,0.741081
4595.86,0.739542
4599.94,0.738041
4604.03,0.73641
4608.12,0.734731
4612.22,0.732644
4616.33,0.730654
4620.44,0.728646
4624.56,0.726537
4628.69,0.72421
4632.83,0.721942
4636.97,0.719477
4641.12,0.717024
4645.28,0.714683
4649.45,0.712347
4653.62,0.709856
4657.8,0.707722
4661.99,0.705602
4666.19,0.703481
4670.39,0.701275
4674.6,0.699162
4678.82,0.697177
4683.05,0.695423
4687.28,0.69386
4691.52,0.692845
4695.77,0.692156
4700.03,0.691722
4704.3,0.691345
4708.57,0.691088
4712.85,0.690366
4717.14,0.689484
4721.43,0.688638
4725.74,0.687668
4730.05,0.686359
4734.37,0.685175
4738.7,0.683885
4743.03,0.682539
4747.38,0.681071
4751.73,0.679768
4756.09,0.678508
4760.45,0.677344
4764.83,0.676094
4769.21,0.674964
4773.6,0.673914
4778.0,0.673068
4782.41,0.672307
4786.83,0.671724
4791.25,0.671342
4795.68,0.671212
4800.13,0.670945
4804.57,0.670763
4809.03,0.670359
4813.5,0.669967
4817.97,0.669332
4822.45,0.668662
4826.94,0.667747
4831.44,0.666698
4835.95,0.665319
4840.46,0.663818
4844.99,0.662063
4849.52,0.660304
4854.06,0.658195
4858.61,0.655839
4863.17,0.653372
4867.73,0.650796
4872.31,0.647786
4876.89,0.644571
4881.48,0.640917
4886.08,0.637119
4890.69,0.632769
4895.31,0.627687
4899.94,0.622007
4904.57,0.616029
4909.22,0.609512
4913.87,0.60312
4918.53,0.597149
4923.21,0.59203
4927.88,0.58742
4932.57,0.583533
4937.27,0.580509
4941.98,0.577872
4946.69,0.575144
4951.42,0.572261
4956.15,0.568845
4960.89,0.564808
4965.65,0.559946
4970.41,0.554065
4975.18,0.547547
4979.96,0.541035
4984.75,0.534828
4989.54,0.529643
4994.35,0.525425
4999.17,0.521963
5003.99,0.518998
5008.83,0.516697
5013.67,0.514858
5018.52,0.513273
5023.39,0.512283
5028.26,0.511978
5033.14,0.51146
5038.03,0.511004
5042.93,0.510389
5047.84,0.509718
5052.76,0.508993
5057.69,0.508208
5062.63,0.507193
5067.58,0.506519
5072.54,0.506101
5077.51,0.506064
5082.49,0.506275
5087.47,0.506978
5092.47,0.507813
5097.48,0.508294
5102.5,0.508538
5107.52,0.50869
5112.56,0.508524
5117.61,0.507802
5122.66,0.506614
5127.73,0.505191
5132.81,0.503848
5137.89,0.502599
5142.99,0.501651
5148.1,0.500941
5153.22,0.50055
5158.34,0.500013
5163.48,0.498921
5168.63,0.49811
5173.79,0.497261
5178.96,0.496428
5184.13,0.495506
5189.32,0.494562
5194.52,0.493392
5199.73,0.491825
5204.95,0.49002
5210.19,0.487742
5215.43,0.484328
5220.68,0.481059
5225.94,0.476457
5231.22,0.471007
5236.5,0.464991
5241.79,0.458718
5247.1,0.452263
5252.42,0.445778
5257.74,0.439734
5263.08,0.43414
5268.43,0.428815
5273.79,0.423787
5279.16,0.419012
5284.54,0.414723
5289.93,0.41052
5295.34,0.406901
5300.75,0.404038
5306.18,0.401059
5311.61,0.398525
5317.06,0.396455
5322.52,0.394514
5327.99,0.39293
5333.47,0.39152
5338.96,0.390297
5344.47,0.389099
5349.98,0.387934
5355.51,0.388029
5361.05,0.389041
5366.6,0.389926
5372.16,0.391774
5377.73,0.394717
5383.32,0.398981
5388.91,0.404022
5394.52,0.409768
5400.14,0.415815
5405.77,0.422022
5411.41,0.427502
5417.07,0.432436
5422.74,0.436159
5428.41,0.440573
5434.1,0.443369
5439.81,0.443708
5445.52,0.444014
5451.25,0.443743
5456.98,0.442761
5462.73,0.440675
5468.5,0.438559
5474.27,0.436557
5480.06,0.432967
5485.86,0.429782
5491.67,0.426344
5497.49,0.422224
5503.33,0.418354
5509.18,0.414208
5515.04,0.410157
5520.91,0.40587
5526.8,0.40174
5532.69,0.397532
5538.61,0.393269
5544.53,0.388976
5550.47,0.385081
5556.41,0.381592
5562.38,0.378746
5568.35,0.375848
5574.34,0.373208
5580.34,0.370943
5586.35,0.370549
5592.38,0.369975
5598.42,0.368944
5604.47,0.368621
5610.54,0.369661
5616.61,0.370382
5622.71,0.371489
5628.81,0.372577
5634.93,0.373786
5641.06,0.375213
5647.21,0.378417
5653.36,0.382193
5659.54,0.383915
5665.72,0.386588
5671.92,0.388332
5678.13,0.390114
5684.36,0.392755
5690.6,0.393919
5696.85,0.39481
5703.12,0.396151
5709.4,0.395886
5715.69,0.396719
5722.0,0.398212
5728.33,0.39854
5734.66,0.398359
5741.01,0.398265
5747.38,0.398072
5753.76,0.398173
5760.15,0.39812
5766.56,0.396168
5772.98,0.397379
5779.41,0.397831
5785.86,0.395683
5792.33,0.394551
5798.81,0.39318
5805.3,0.392005
5811.81,0.390962
5818.33,0.389129
5824.87,0.387961
5831.42,0.388267
5837.99,0.386534
5844.57,0.384062
5851.17,0.381278
5857.78,0.378775
5864.41,0.376315
5871.05,0.374403
5877.7,0.371187
5884.38,0.368084
5891.06,0.367441
5897.76,0.363297
5904.48,0.36068
5911.21,0.357618
5917.96,0.353491
5924.73,0.350865
5931.5,0.348329
5938.3,0.346069
5945.11,0.34693
5951.93,0.346358
5958.78,0.344952
5965.63,0.345
5972.51,0.345726
5979.39,0.34809
5986.3,0.348311
5993.22,0.349277
6000.16,0.351268
6007.11,0.351503
6014.08,0.351097
6021.06,0.352156
6028.06,0.352703
6035.08,0.352233
6042.12,0.351484
6049.17,0.35051
6056.23,0.353081
6063.32,0.354181
6070.42,0.351363
6077.53,0.351081
6084.67,0.351445
6091.82,0.349771
6098.98,0.347411
6106.17,0.345446
6113.37,0.342936
6120.58,0.341518
6127.82,0.338996
6135.07,0.334673
6142.34,0.330368
6149.63,0.326404
6156.93,0.321737
6164.25,0.316967
6171.59,0.312324
6178.94,0.307314
6186.32,0.302824
6193.71,0.300241
6201.12,0.297608
6208.54,0.294852
6215.99,0.29339
6223.45,0.292815
6230.93,0.292966
6238.43,0.293384
6245.95,0.294308
6253.48,0.2956
6261.03,0.297314
6268.6,0.299388
6276.19,0.301793
6283.8,0.304336
6291.43,0.30705
6299.07,0.309771
6306.73,0.312838
6314.42,0.31574
6322.12,0.318658
6329.83,0.321733
6337.57,0.324747
6345.33,0.327113
6353.11,0.331367
6360.9,0.334214
6368.72,0.335376
6376.55,0.338502
6384.4,0.342062
6392.27,0.343695
6400.17,0.345875
6408.08,0.347016
6416.01,0.348153
6423.96,0.352268
6431.93,0.352441
6439.92,0.350905
6447.93,0.350224
6455.96,0.348616
6464.01,0.347141
6472.08,0.344805
6480.17,0.342725
6488.28,0.340193
6496.41,0.337488
6504.56,0.334652
6512.73,0.330006
6520.92,0.324802
6529.14,0.320555
6537.37,0.316059
6545.63,0.311901
6553.9,0.308976
6562.2,0.307092
6570.51,0.305845
6578.85,0.305483
6587.21,0.305927
6595.59,0.305029
6603.99,0.304917
6612.42,0.304302
6620.86,0.304056
6629.33,0.303709
6637.82,0.303567
6646.33,0.304793
6654.86,0.304508
6663.41,0.302536
6671.99,0.301159
6680.59,0.299837
6689.21,0.298587
6697.85,0.297035
6706.51,0.29519
6715.2,0.294288
6723.91,0.294125
6732.64,0.293656
6741.4,0.293337
6750.18,0.29286
6758.98,0.292798
6767.8,0.292686
6776.65,0.292717
6785.52,0.2928
6794.41,0.292531
6803.33,0.292164
6812.27,0.290806
6821.23,0.289331
6830.22,0.288691
6839.23,0.28844
6848.26,0.287196
6857.32,0.285856
6866.4,0.285198
6875.51,0.284758
6884.64,0.28316
6893.8,0.281504
6902.98,0.280277
6912.18,0.278905
6921.41,0.277413
6930.66,0.275349
6939.94,0.273394
6949.24,0.271146
6958.57,0.268919
6967.92,0.266816
6977.3,0.264302
6986.7,0.261525
6996.13,0.259244
7005.59,0.256816
7015.07,0.254548
7024.57,0.252167
7034.1,0.249834
7043.66,0.247254
7053.24,0.24507
7062.85,0.242553
7072.49,0.239842
7082.15,0.237208
7091.84,0.234698
7101.55,0.232101
7111.3,0.229514
7121.06,0.22661
7130.86,0.223394
7140.68,0.219743
7150.53,0.216159
7160.41,0.212323
7170.31,0.208609
7180.24,0.20501
7190.2,0.201284
7200.19,0.197638
7210.2,0.194329
7220.24,0.190609
7230.31,0.186743
7240.41,0.182818
7250.54,0.178854
7260.69,0.174862
7270.88,0.171064
7281.09,0.16714
7291.33,0.163234
7301.6,0.159424
7311.9,0.155973
7322.22,0.152452
7332.58,0.149403
7342.97,0.146389
7353.38,0.143245
7363.83,0.140084
7374.3,0.137211
7384.81,0.134392
7395.34,0.131779
7405.91,0.129001
7416.5,0.126467
7427.13,0.123789
7437.78,0.12115
7448.47,0.118528
7459.19,0.116227
7469.94,0.113857
7480.71,0.111579
7491.52,0.10931
7502.37,0.107352
7513.24,0.105467
7524.14,0.103803
7535.08,0.102034
7546.05,0.100298
7557.05,0.098408
7568.08,0.096952
7579.14,0.095618
7590.24,0.094378
7601.37,0.093074
7612.53,0.092394
7623.73,0.091941
7634.96,0.091927
7646.22,0.092309
7657.51,0.093291
7668.84,0.094476
7680.2,0.095797
7691.59,0.096969
7703.02,0.098352
7714.49,0.099723
7725.98,0.101326
7737.51,0.102893
7749.08,0.104659
7760.68,0.106619
7772.32,0.108447
7783.99,0.109949
7795.69,0.111226
7807.43,0.112578
7819.21,0.114534
7831.02,0.116877
7842.87,0.120086
7854.75,0.12392
7866.67,0.128358
7878.62,0.133219
7890.62,0.13879
7902.64,0.144875
7914.71,0.151355
7926.81,0.158121
7938.95,0.165364
7951.13,0.172793
7963.34,0.180285
7975.59,0.187708
7987.88,0.194824
8000.21,0.201478
8012.57,0.20788
8024.98,0.213941
8037.42,0.219954
8049.9,0.225988
8062.42,0.231906
8074.98,0.23777
8087.57,0.243715
8100.21,0.249564
8112.89,0.255007
8125.6,0.260121
8138.36,0.264951
8151.16,0.269443
8163.99,0.273195
8176.87,0.27546
8189.79,0.276181
8202.75,0.27539
8215.74,0.27331
8228.79,0.269935
8241.87,0.265437
8254.99,0.260134
8268.16,0.254345
8281.37,0.248084
8294.62,0.241698
8307.91,0.235329
8321.24,0.229498
8334.62,0.223962
8348.04,0.218698
8361.51,0.213723
8375.02,0.2093
8388.57,0.205127
8402.16,0.20118
8415.8,0.197358
8429.49,0.194051
8443.22,0.190974
8456.99,0.188035
8470.81,0.185427
8484.67,0.183008
8498.58,0.180484
8512.54,0.177942
8526.54,0.175225
8540.58,0.172571
8554.68,0.169712
8568.82,0.166352
8583.0,0.162217
8597.24,0.157523
8611.52,0.152019
8625.85,0.146875
8640.22,0.143867
8654.65,0.143599
8669.12,0.144821
8683.64,0.145807
8698.21,0.145914
8712.83,0.145596
8727.5,0.1446
8742.22,0.143409
8756.98,0.142269
8771.8,0.140983
8786.67,0.13957
8801.59,0.138483
8816.56,0.137524
8831.58,0.136825
8846.65,0.136056
8861.77,0.13564
8876.94,0.134881
8892.17,0.133964
8907.45,0.133225
8922.78,0.132766
8938.16,0.132167
8953.6,0.131541
8969.09,0.130903
8984.64,0.130197
9000.23,0.129273
9015.89,0.128726
9031.59,0.128096
9047.36,0.127164
9063.17,0.126189
9079.04,0.125417
9094.97,0.124695
9110.96,0.124215
9127.0,0.123659
9143.09,0.12334
9159.25,0.123117
9175.46,0.122905
9191.73,0.122787
9208.05,0.122664
9224.44,0.122199
9240.88,0.121569
9257.38,0.120969
9273.94,0.120617
9290.56,0.12015
9307.24,0.119369
9323.98,0.11854
9340.78,0.117339
9357.64,0.115595
9374.57,0.113625
9391.55,0.111197
9408.59,0.109027
9425.7,0.107214
9442.87,0.105955
9460.1,0.105447
9477.39,0.10561
9494.75,0.106432
9512.17,0.108034
9529.66,0.109905
9547.21,0.11193
9564.82,0.113664
9582.5,0.114761
9600.25,0.115685
9618.06,0.116367
9635.94,0.116659
9653.88,0.116886
9671.89,0.11646
9689.97,0.115735
9708.12,0.114791
9726.33,0.113805
9744.61,0.112702
9762.97,0.111869
9781.39,0.111344
9799.88,0.111221
9818.44,0.111166
9837.07,0.1114
9855.77,0.111657
9874.54,0.111986
9893.39,0.112408
9912.3,0.112832
9931.29,0.112682
9950.35,0.11244
9969.49,0.111923
9988.7,0.111397
10007.98,0.110907
10027.34,0.110381
10046.77,0.109779
10066.28,0.109386
10085.87,0.10908
10105.53,0.10861
10125.26,0.10818
10145.08,0.107833
10164.97,0.107238
10184.94,0.106846
10204.99,0.106596
10225.12,0.106042
10245.33,0.105303
10265.61,0.104963
10285.98,0.104639
10306.43,0.104224
10326.96,0.10392
10347.57,0.103755
10368.27,0.103485
10389.05,0.103272
10409.91,0.103308
10430.85,0.103557
10451.88,0.103644
10473.0,0.103827
10494.2,0.10426
10515.49,0.104891
10536.86,0.105395
10558.32,0.105684
10579.87,0.10629
10601.5,0.107132
10623.23,0.108047
10645.04,0.109105
10666.94,0.110192
10688.94,0.111472
10711.02,0.112861
10733.2,0.114733
10755.47,0.116518
10777.83,0.118494
10800.28,0.120841
10822.83,0.123296
10845.47,0.126023
10868.21,0.128997
10891.04,0.132053
10913.97,0.135383
10936.99,0.138722
10960.12,0.142149
10983.34,0.145774
11006.66,0.149413
11030.07,0.153247
11053.59,0.157289
11077.21,0.161265
11100.93,0.165419
11124.75,0.169548
11148.68,0.173685
11172.7,0.177652
11196.84,0.181392
11221.07,0.184917
11245.41,0.188386
11269.86,0.191545
11294.41,0.194403
11319.07,0.197123
11343.84,0.199307
11368.72,0.201264
11393.7,0.202774
11418.8,0.203852
11444.01,0.204639
11469.33,0.20524
11494.76,0.20546
11520.3,0.205437
11545.96,0.205707
11571.73,0.206127
11597.62,0.206611
11623.62,0.207352
11649.74,0.208163
11675.98,0.208951
11702.34,0.2095
11728.81,0.209889
11755.41,0.210129
11782.13,0.210504
11808.96,0.210725
11835.92,0.210627
11863.01,0.210457
11890.22,0.209934
11917.55,0.209153
11945.01,0.208466
11972.6,0.207481
12000.31,0.205733
12028.16,0.203506
12056.13,0.200619
12084.23,0.196544
12112.46,0.191641
12140.83,0.185844
12169.33,0.178807
12197.96,0.170309
12226.73,0.160904
12255.64,0.151475
12284.68,0.141913
12313.86,0.133025
12343.18,0.125556
12372.64,0.119255
12402.24,0.113355
12431.98,0.10727
12461.86,0.101001
12491.89,0.095315
12522.06,0.090466
12552.38,0.086591
12582.85,0.083232
12613.47,0.080241
12644.23,0.078098
12675.15,0.077644
12706.21,0.077929
12737.43,0.07874
12768.8,0.079638
12800.33,0.080176
12832.02,0.080312
12863.86,0.080374
12895.86,0.08025
12928.02,0.080501
12960.34,0.081083
12992.82,0.082176
13025.46,0.083375
13058.27,0.0848
13091.25,0.085958
13124.39,0.086825
13157.7,0.087784
13191.18,0.088858
13224.83,0.089909
13258.66,0.091234
13292.65,0.091866
13326.83,0.092298
13361.17,0.092693
13395.7,0.093142
13430.4,0.093416
13465.29,0.093568
13500.35,0.093845
13535.6,0.094271
13571.03,0.094694
13606.65,0.095127
13642.46,0.095092
13678.46,0.095017
13714.64,0.094643
13751.02,0.093858
13787.59,0.09305
13824.36,0.092986
13861.32,0.093694
13898.48,0.094639
13935.85,0.095564
13973.41,0.096702
14011.17,0.097701
14049.15,0.0986
14087.32,0.099149
14125.71,0.099097
14164.3,0.098532
14203.11,0.097473
14242.13,0.095862
14281.36,0.092989
14320.81,0.088852
14360.48,0.085432
14400.38,0.083775
14440.49,0.084435
14480.82,0.08683
14521.39,0.090773
14562.18,0.094831
14603.2,0.098216
14644.45,0.101129
14685.93,0.103547
14727.66,0.105072
14769.62,0.106837
14811.81,0.10765
14854.25,0.107866
14896.94,0.108067
14939.87,0.10823
14983.05,0.108421
15026.48,0.108646
15070.16,0.108425
15114.1,0.108509
15158.29,0.108442
15202.74,0.10784
15247.46,0.106866
15292.43,0.105246
15337.68,0.102997
15383.19,0.100419
15428.97,0.097668
15475.03,0.094736
15521.36,0.091582
15567.97,0.088812
15614.86,0.086715
15662.04,0.086041
15709.5,0.086243
15757.25,0.086899
15805.29,0.088399
15853.62,0.090781
15902.25,0.093476
15951.18,0.096179
16000.42,0.098561
16049.95,0.100818
16099.8,0.101876
16149.95,0.102073
16200.42,0.101323
16251.21,0.099936
16302.31,0.098225
16353.74,0.096194
16405.49,0.093992
16457.57,0.092277
16509.98,0.09118
16562.73,0.090999
16615.82,0.091062
16669.24,0.091488
16723.02,0.091856
16777.13,0.091782
16831.61,0.091681
16886.43,0.091908
16941.62,0.091547
16997.16,0.090884
17053.07,0.090625
17109.36,0.090882
17166.01,0.090704
17223.04,0.090964
17280.45,0.091179
17338.24,0.091094
17396.43,0.091573
17455.0,0.092311
17513.97,0.092602
17573.34,0.093063
17633.11,0.094017
17693.29,0.095062
17753.89,0.095769
17814.9,0.096735
17876.33,0.097209
17938.18,0.097841
18000.47,0.099407
18063.19,0.101313
18126.35,0.103007
18189.95,0.104347
18254.0,0.105415
18318.5,0.106984
18383.46,0.107931
18448.88,0.107825
18514.77,0.107266
18581.13,0.106483
18647.97,0.104699
18715.29,0.103455
18783.1,0.104106
18851.4,0.10323
18920.2,0.101372
18989.51,0.101522
19059.32,0.102071
19129.65,0.103038
19200.5,0.103401
19271.88,0.103868
19343.79,0.106078
19416.23,0.108692
19489.23,0.110394
19562.77,0.112034
19636.88,0.114985
19711.54,0.118796
19786.77,0.122137
19862.59,0.125186
19938.98,0.127223
20015.96,0.128056
20093.54,0.128974
20171.73,0.129895
20250.53,0.130881
20329.94,0.13161
20409.98,0.131616
20490.65,0.131071
20571.96,0.130013
20653.92,0.129423
20736.54,0.127774
20819.82,0.126096
20903.77,0.124385
20988.4,0.121573
21073.72,0.117638
21159.73,0.114045
21246.46,0.110683
21333.89,0.108705
21422.04,0.107412
21510.93,0.107256
21600.56,0.106429
21690.94,0.105677
21782.08,0.104488
21873.99,0.102701
21966.67,0.10204
22060.15,0.103588
22154.42,0.106397
22249.51,0.108255
22345.41,0.107838
22442.14,0.107308
22539.72,0.107846
22638.14,0.109153
22737.43,0.110626
22837.6,0.11112
22938.65,0.111283
23040.6,0.112164
23143.46,0.110908
23247.24,0.110189
23351.96,0.109483
23457.62,0.108633
23564.25,0.106276
23671.85,0.106248
23780.44,0.104821
23890.02,0.103962
24000.63,0.10327
24112.26,0.100493
24224.93,0.097558
24338.66,0.096631
24453.47,0.095521
24569.36,0.093578
24686.36,0.090482
24804.47,0.089406
24923.72,0.091394
25044.13,0.095422
25165.7,0.098453
25288.46,0.100334
25412.43,0.101069
25537.61,0.098583
25664.03,0.099715
25791.71,0.102852
25920.67,0.101754
