Database of Origin,University of Winnipeg Spectrophotometer Facility
Sample Description,Carbonaceous chondrites - RELAB archive 6. CV chondrites
Date Added,2018-07-23 23:45:03.296249

Data ID,RLA_MET_37_27       
Sample ID,Allende
Mineral Name,Allende
Grain Size,<45 um
Viewing Geometry,30/0
Material Class,CV3.2-3.3/ OxA

Wavelength
305.0,0.028163
310.0,0.030261
315.0,0.032596
320.0,0.035115
325.0,0.037636
330.0,0.040349
335.0,0.041881
340.0,0.043625
345.0,0.045515
350.0,0.047401
355.0,0.049027
360.0,0.050665
365.0,0.052273
370.0,0.053709
375.0,0.054996
380.0,0.05629
385.0,0.057473
390.0,0.058569
395.0,0.059577
400.0,0.060457
405.0,0.061203
410.0,0.061856
415.0,0.062489
420.0,0.063076
425.0,0.06362
430.0,0.064168
435.0,0.064746
440.0,0.065274
445.0,0.065789
450.0,0.066297
455.0,0.06682
460.0,0.067298
465.0,0.067763
470.0,0.068216
475.0,0.06864
480.0,0.069083
485.0,0.069533
490.0,0.069973
495.0,0.070408
500.0,0.07084
505.0,0.071237
510.0,0.071614
515.0,0.071962
520.0,0.072298
525.0,0.072605
530.0,0.072904
535.0,0.073182
540.0,0.073431
545.0,0.073678
550.0,0.073906
555.0,0.0741
560.0,0.074297
565.0,0.074472
570.0,0.074638
575.0,0.074786
580.0,0.07493
585.0,0.075093
590.0,0.075259
595.0,0.075397
600.0,0.075502
605.0,0.075617
610.0,0.075738
615.0,0.075848
620.0,0.075952
625.0,0.076063
630.0,0.076196
635.0,0.076312
640.0,0.076391
645.0,0.076456
650.0,0.076548
655.0,0.076637
660.0,0.0767
665.0,0.076756
670.0,0.076832
675.0,0.076893
680.0,0.076927
685.0,0.07695
690.0,0.076979
695.0,0.077017
700.0,0.077047
705.0,0.077056
710.0,0.077069
715.0,0.077098
720.0,0.077132
725.0,0.07714
730.0,0.077126
735.0,0.077117
740.0,0.077114
745.0,0.077107
750.0,0.077103
755.0,0.077102
760.0,0.07709
765.0,0.077084
770.0,0.077095
775.0,0.077097
780.0,0.077052
785.0,0.077008
790.0,0.076999
795.0,0.076958
800.0,0.076876
805.0,0.076844
810.0,0.076743
815.0,0.07674
820.0,0.076747
825.0,0.076669
830.0,0.076624
835.0,0.0766
840.0,0.076682
845.0,0.076691
850.0,0.076611
855.0,0.076594
860.0,0.076538
865.0,0.07656
870.0,0.076456
875.0,0.076287
880.0,0.076227
885.0,0.076129
890.0,0.07601
895.0,0.075841
900.0,0.075704
905.0,0.075703
910.0,0.075646
915.0,0.07561
920.0,0.075531
925.0,0.075512
930.0,0.075528
935.0,0.075499
940.0,0.075451
945.0,0.075444
950.0,0.075406
955.0,0.075361
960.0,0.075239
965.0,0.075201
970.0,0.075084
975.0,0.07501
980.0,0.07491
985.0,0.074839
990.0,0.074761
995.0,0.074677
1000.0,0.074619
1005.0,0.074529
1010.0,0.074473
1015.0,0.074457
1020.0,0.074376
1025.0,0.074369
1030.0,0.074309
1035.0,0.074257
1040.0,0.074205
1045.0,0.074159
1050.0,0.074149
1055.0,0.074114
1060.0,0.074079
1065.0,0.074094
1070.0,0.074107
1075.0,0.074149
1080.0,0.074167
1085.0,0.074241
1090.0,0.074318
1095.0,0.074406
1100.0,0.074508
1105.0,0.074606
1110.0,0.074741
1115.0,0.074906
1120.0,0.075019
1125.0,0.075133
1130.0,0.075258
1135.0,0.075364
1140.0,0.075452
1145.0,0.075573
1150.0,0.075691
1155.0,0.075787
1160.0,0.075884
1165.0,0.075937
1170.0,0.07599
1175.0,0.076068
1180.0,0.076168
1185.0,0.076245
1190.0,0.076342
1195.0,0.076446
1200.0,0.076522
1205.0,0.076585
1210.0,0.076655
1215.0,0.076712
1220.0,0.076812
1225.0,0.076882
1230.0,0.076929
1235.0,0.07695
1240.0,0.076997
1245.0,0.077035
1250.0,0.077049
1255.0,0.077061
1260.0,0.077081
1265.0,0.077113
1270.0,0.077144
1275.0,0.077157
1280.0,0.077187
1285.0,0.077253
1290.0,0.077318
1295.0,0.077365
1300.0,0.077408
1305.0,0.077491
1310.0,0.077565
1315.0,0.077625
1320.0,0.077674
1325.0,0.077761
1330.0,0.077842
1335.0,0.077962
1340.0,0.078026
1345.0,0.078095
1350.0,0.078165
1355.0,0.078283
1360.0,0.078343
1365.0,0.078424
1370.0,0.078532
1375.0,0.078652
1380.0,0.078736
1385.0,0.078829
1390.0,0.078898
1395.0,0.078974
1400.0,0.079062
1405.0,0.079117
1410.0,0.079175
1415.0,0.079281
1420.0,0.07937
1425.0,0.07945
1430.0,0.079495
1435.0,0.079566
1440.0,0.079616
1445.0,0.07969
1450.0,0.079791
1455.0,0.079877
1460.0,0.079984
1465.0,0.080033
1470.0,0.080066
1475.0,0.080145
1480.0,0.080192
1485.0,0.080277
1490.0,0.080348
1495.0,0.080438
1500.0,0.080502
1505.0,0.08056
1510.0,0.080621
1515.0,0.080699
1520.0,0.080778
1525.0,0.080855
1530.0,0.080892
1535.0,0.08092
1540.0,0.080959
1545.0,0.080982
1550.0,0.081021
1555.0,0.081056
1560.0,0.081047
1565.0,0.081014
1570.0,0.080978
1575.0,0.080961
1580.0,0.080963
1585.0,0.080951
1590.0,0.080984
1595.0,0.081
1600.0,0.081021
1605.0,0.080995
1610.0,0.080957
1615.0,0.080958
1620.0,0.080972
1625.0,0.081023
1630.0,0.081039
1635.0,0.081003
1640.0,0.081043
1645.0,0.081014
1650.0,0.080976
1655.0,0.080944
1660.0,0.080966
1665.0,0.08093
1670.0,0.080941
1675.0,0.080952
1680.0,0.08092
1685.0,0.080908
1690.0,0.080934
1695.0,0.080879
1700.0,0.080856
1705.0,0.08087
1710.0,0.080861
1715.0,0.080828
1720.0,0.080872
1725.0,0.080846
1730.0,0.08085
1735.0,0.08084
1740.0,0.080837
1745.0,0.080822
1750.0,0.080841
1755.0,0.080873
1760.0,0.080877
1765.0,0.080894
1770.0,0.080891
1775.0,0.080893
1780.0,0.08085
1785.0,0.080808
1790.0,0.080779
1795.0,0.080717
1800.0,0.080649
1805.0,0.080559
1810.0,0.080481
1815.0,0.080388
1820.0,0.080276
1825.0,0.080178
1830.0,0.080073
1835.0,0.080019
1840.0,0.079956
1845.0,0.0799
1850.0,0.079876
1855.0,0.079857
1860.0,0.079842
1865.0,0.079819
1870.0,0.079802
1875.0,0.079833
1880.0,0.079829
1885.0,0.079797
1890.0,0.079789
1895.0,0.07977
1900.0,0.079754
1905.0,0.079741
1910.0,0.079727
1915.0,0.079722
1920.0,0.079722
1925.0,0.079714
1930.0,0.079684
1935.0,0.079684
1940.0,0.079694
1945.0,0.079712
1950.0,0.079729
1955.0,0.079723
1960.0,0.079746
1965.0,0.079773
1970.0,0.079789
1975.0,0.079806
1980.0,0.079833
1985.0,0.079884
1990.0,0.07993
1995.0,0.079971
2000.0,0.079982
2005.0,0.080005
2010.0,0.080027
2015.0,0.08002
2020.0,0.080027
2025.0,0.080051
2030.0,0.080068
2035.0,0.080094
2040.0,0.080091
2045.0,0.08009
2050.0,0.08012
2055.0,0.080165
2060.0,0.080235
2065.0,0.080265
2070.0,0.080322
2075.0,0.080375
2080.0,0.080399
2085.0,0.080432
2090.0,0.080475
2095.0,0.080516
2100.0,0.08056
2105.0,0.080573
2110.0,0.080587
2115.0,0.080602
2120.0,0.080691
2125.0,0.080731
2130.0,0.080776
2135.0,0.080833
2140.0,0.080869
2145.0,0.080901
2150.0,0.080918
2155.0,0.080938
2160.0,0.080978
2165.0,0.080999
2170.0,0.080997
2175.0,0.080994
2180.0,0.081002
2185.0,0.081035
2190.0,0.08106
2195.0,0.081106
2200.0,0.081136
2205.0,0.081163
2210.0,0.081198
2215.0,0.081222
2220.0,0.081258
2225.0,0.081291
2230.0,0.08132
2235.0,0.081356
2240.0,0.08139
2245.0,0.08143
2250.0,0.081453
2255.0,0.081485
2260.0,0.081559
2265.0,0.081599
2270.0,0.081641
2275.0,0.081698
2280.0,0.081762
2285.0,0.081816
2290.0,0.081867
2295.0,0.081897
2300.0,0.081931
2305.0,0.081992
2310.0,0.082028
2315.0,0.082013
2320.0,0.082029
2325.0,0.082028
2330.0,0.082018
2335.0,0.082021
2340.0,0.082005
2345.0,0.082026
2350.0,0.082041
2355.0,0.082057
2360.0,0.08206
2365.0,0.082085
2370.0,0.082145
2375.0,0.082187
2380.0,0.082238
2385.0,0.082291
2390.0,0.08233
2395.0,0.082386
2400.0,0.082418
2405.0,0.082438
2410.0,0.082481
2415.0,0.082489
2420.0,0.082512
2425.0,0.082501
2430.0,0.082487
2435.0,0.082478
2440.0,0.082502
2445.0,0.082534
2450.0,0.082585
2455.0,0.082646
2460.0,0.082752
2465.0,0.082831
2470.0,0.082968
2475.0,0.083087
2480.0,0.083236
2485.0,0.083379
2490.0,0.083545
2495.0,0.083665
2500.0,0.083774
2505.0,0.083902
2510.0,0.083961
2515.0,0.083967
2520.0,0.083933
2525.0,0.08393
2530.0,0.083821
2535.0,0.083801
2540.0,0.083809
2545.0,0.083823
2550.0,0.08388
2555.0,0.083918
2560.0,0.083967
2565.0,0.083946
2570.0,0.083996
2575.0,0.084063
2580.0,0.084073
2585.0,0.084185
2590.0,0.084212
2595.0,0.084229
2600.0,0.084218
