Database of Origin,University of Winnipeg Spectrophotometer Facility
Sample Description,Carbonates and Oxolates - RELAB+Nicolet spectra Newly merged spectra (merged by RELAB)
Other Information,dry seived
Date Added,2018-08-06 20:49:02.507104

Data ID,RLA_CARB_1_23       
Sample ID,CRB113
Mineral Name,Mn-calcite
Locality,Funeral Mountains/ Nevada/ USA
Grain Size,45-90 um
Viewing Geometry,30/0/30
Resolution,5/ 0.6-129 nm
Formula,(Mn/Ca)CO3
Composition,XRD shows only calcite.

Wavelength
305.0,0.070588
310.0,0.073234
315.0,0.071034
320.0,0.070984
325.0,0.069994
330.0,0.069075
335.0,0.067931
340.0,0.068138
345.0,0.067616
350.0,0.065812
355.0,0.065898
360.0,0.066271
365.0,0.066252
370.0,0.066726
375.0,0.066214
380.0,0.066102
385.0,0.066432
390.0,0.066425
395.0,0.066958
400.0,0.067371
405.0,0.066973
410.0,0.067183
415.0,0.067709
420.0,0.067565
425.0,0.068515
430.0,0.068641
435.0,0.069203
440.0,0.069752
445.0,0.070297
450.0,0.07028
455.0,0.071148
460.0,0.071102
465.0,0.071912
470.0,0.072211
475.0,0.073113
480.0,0.073572
485.0,0.074492
490.0,0.074963
495.0,0.075862
500.0,0.076849
505.0,0.077728
510.0,0.078862
515.0,0.079761
520.0,0.080651
525.0,0.081848
530.0,0.082772
535.0,0.083883
540.0,0.08521
545.0,0.08633
550.0,0.087535
555.0,0.08891
560.0,0.090145
565.0,0.091253
570.0,0.092676
575.0,0.093723
580.0,0.094888
585.0,0.09583
590.0,0.096892
595.0,0.097897
600.0,0.099237
605.0,0.100364
610.0,0.101681
615.0,0.102838
620.0,0.103613
625.0,0.104751
630.0,0.105772
635.0,0.106774
640.0,0.107777
645.0,0.108591
650.0,0.109588
655.0,0.110544
660.0,0.111121
665.0,0.111976
670.0,0.112819
675.0,0.113261
680.0,0.114226
685.0,0.115164
690.0,0.116211
695.0,0.11698
700.0,0.117859
705.0,0.118662
710.0,0.11933
715.0,0.120131
720.0,0.120488
725.0,0.120969
730.0,0.12214
735.0,0.122505
740.0,0.123154
745.0,0.12367
750.0,0.123772
755.0,0.124486
760.0,0.125105
765.0,0.125652
770.0,0.126026
775.0,0.126264
780.0,0.126808
785.0,0.127578
790.0,0.127518
795.0,0.12803
800.0,0.128042
805.0,0.128786
810.0,0.128663
815.0,0.129606
820.0,0.12973
825.0,0.130402
830.0,0.130449
835.0,0.130461
840.0,0.130414
845.0,0.13105
850.0,0.131415
855.0,0.131472
860.0,0.131665
865.0,0.131568
870.0,0.131542
875.0,0.131602
880.0,0.132343
885.0,0.132103
890.0,0.132179
895.0,0.132743
900.0,0.132326
905.0,0.132088
910.0,0.132523
915.0,0.132307
920.0,0.132181
925.0,0.132372
930.0,0.132289
935.0,0.133091
940.0,0.132591
945.0,0.132326
950.0,0.13225
955.0,0.132273
960.0,0.132687
965.0,0.13197
970.0,0.132563
975.0,0.132595
980.0,0.132119
985.0,0.13239
990.0,0.132691
995.0,0.132584
1000.0,0.132898
1005.0,0.133099
1010.0,0.132829
1015.0,0.132619
1020.0,0.132966
1025.0,0.132962
1030.0,0.132686
1035.0,0.133737
1040.0,0.133163
1045.0,0.133431
1050.0,0.133422
1055.0,0.133584
1060.0,0.133519
1065.0,0.133944
1070.0,0.133644
1075.0,0.133768
1080.0,0.133422
1085.0,0.133643
1090.0,0.13333
1095.0,0.133511
1100.0,0.133713
1105.0,0.134099
1110.0,0.134336
1115.0,0.134206
1120.0,0.134332
1125.0,0.134526
1130.0,0.133578
1135.0,0.133912
1140.0,0.134208
1145.0,0.134217
1150.0,0.133851
1155.0,0.134336
1160.0,0.134357
1165.0,0.134768
1170.0,0.134528
1175.0,0.134825
1180.0,0.134891
1185.0,0.135122
1190.0,0.135057
1195.0,0.135112
1200.0,0.135045
1205.0,0.135459
1210.0,0.135509
1215.0,0.135469
1220.0,0.135338
1225.0,0.135302
1230.0,0.135137
1235.0,0.135312
1240.0,0.134682
1245.0,0.134915
1250.0,0.134645
1255.0,0.134553
1260.0,0.134684
1265.0,0.135062
1270.0,0.134455
1275.0,0.134941
1280.0,0.134688
1285.0,0.135203
1290.0,0.135326
1295.0,0.13521
1300.0,0.134364
1305.0,0.134454
1310.0,0.134745
1315.0,0.13488
1320.0,0.135266
1325.0,0.134893
1330.0,0.135367
1335.0,0.13602
1340.0,0.136111
1345.0,0.135819
1350.0,0.135769
1355.0,0.135951
1360.0,0.135552
1365.0,0.135369
1370.0,0.135299
1375.0,0.135765
1380.0,0.135121
1385.0,0.135624
1420.0,0.13594
1425.0,0.135884
1430.0,0.136398
1435.0,0.136694
1440.0,0.136513
1445.0,0.13662
1450.0,0.136952
1455.0,0.13642
1460.0,0.136701
1465.0,0.136961
1470.0,0.136498
1475.0,0.137267
1480.0,0.136526
1485.0,0.136736
1490.0,0.136568
1495.0,0.136754
1500.0,0.136716
1505.0,0.13644
1510.0,0.137224
1515.0,0.136823
1520.0,0.136951
1525.0,0.137252
1530.0,0.137377
1535.0,0.137105
1540.0,0.137276
1545.0,0.137363
1550.0,0.137924
1555.0,0.137646
1560.0,0.138043
1565.0,0.138276
1570.0,0.138048
1575.0,0.138517
1580.0,0.138397
1585.0,0.138721
1590.0,0.138967
1595.0,0.138829
1600.0,0.138567
1605.0,0.13885
1610.0,0.138733
1615.0,0.139117
1620.0,0.139088
1625.0,0.138923
1630.0,0.138957
1635.0,0.138825
1640.0,0.139462
1645.0,0.138846
1650.0,0.139276
1655.0,0.139346
1660.0,0.139766
1665.0,0.138649
1670.0,0.139736
1675.0,0.139467
1680.0,0.139413
1685.0,0.138981
1690.0,0.139379
1695.0,0.139188
1700.0,0.139457
1705.31,0.139763
1709.81,0.139718
1715.46,0.14028
1720.02,0.140098
1724.6,0.140144
1730.35,0.140279
1734.98,0.140325
1739.64,0.14063
1745.5,0.140617
1750.21,0.140629
1754.95,0.140419
1759.72,0.140424
1764.51,0.140553
1770.54,0.140466
1775.39,0.140455
1780.27,0.140513
1785.17,0.140533
1790.1,0.140632
1795.06,0.14061
1800.05,0.140685
1805.06,0.140646
1810.1,0.140587
1815.17,0.140646
1820.27,0.140747
1825.4,0.140779
1830.56,0.140777
1834.44,0.140725
1839.65,0.140807
1844.89,0.140828
1850.16,0.140767
1855.45,0.14081
1859.45,0.140793
1864.8,0.140715
1870.18,0.1408
1875.59,0.140688
1879.67,0.140736
1885.14,0.140862
1890.64,0.140925
1894.79,0.140984
1900.34,0.140945
1904.53,0.141019
1910.15,0.141067
1914.38,0.141012
1920.05,0.141169
1924.33,0.141121
1930.06,0.141065
1934.38,0.141127
1940.17,0.141265
1944.54,0.141294
1950.39,0.141269
1954.8,0.141263
1960.72,0.141374
1965.18,0.141376
1969.66,0.141409
1975.66,0.141431
1980.19,0.141458
1984.74,0.141429
1989.31,0.141514
1995.43,0.141456
2000.05,0.141432
2004.69,0.141623
2009.35,0.14182
2015.6,0.14195
2020.32,0.142018
2025.05,0.142092
2029.81,0.142147
2034.59,0.142208
2039.39,0.142199
2044.22,0.142336
2050.69,0.142409
2055.57,0.142482
2060.47,0.14252
2065.39,0.142625
2070.34,0.1427
2075.31,0.142608
2080.31,0.142774
2085.33,0.142769
2090.38,0.142809
2095.45,0.142842
2100.54,0.142939
2105.66,0.142995
2110.8,0.142984
2114.25,0.142977
2119.43,0.143076
2124.65,0.143177
2129.88,0.143069
2135.15,0.143198
2140.44,0.143281
2145.75,0.143159
2149.31,0.143137
2154.67,0.143242
2160.06,0.143225
2165.47,0.143354
2170.91,0.143336
2174.55,0.143484
2180.04,0.143596
2185.55,0.143661
2189.25,0.143664
2194.81,0.14356
2200.4,0.143666
2204.14,0.143689
2209.78,0.1437
2215.44,0.143672
2219.24,0.143714
2224.95,0.143709
2230.7,0.143674
2234.54,0.14359
2240.33,0.14365
2244.21,0.143568
2250.06,0.143578
2255.93,0.14359
2259.87,0.143407
2265.79,0.143356
2269.76,0.143175
2275.74,0.14286
2279.74,0.142744
2285.77,0.142356
2289.81,0.142055
2295.9,0.141803
2299.97,0.141688
2304.06,0.141509
2310.22,0.141377
2314.35,0.141202
2320.56,0.14092
2324.72,0.140565
2331.0,0.139623
2335.2,0.138922
2339.41,0.138597
2345.76,0.138779
2350.02,0.139489
2354.28,0.140474
2360.72,0.142206
2365.03,0.143199
2369.35,0.143866
2375.86,0.144463
2380.23,0.144717
2384.61,0.145011
2389.0,0.145019
2395.63,0.145017
2400.06,0.14506
2404.52,0.14504
2408.98,0.145059
2415.72,0.145186
2420.23,0.145091
2424.76,0.144983
2429.3,0.144878
2433.87,0.144758
2440.74,0.144442
2445.35,0.144317
2449.97,0.144063
2454.61,0.143756
2459.27,0.143471
2463.94,0.14303
2470.99,0.141908
2475.71,0.141072
2480.45,0.140221
2485.2,0.139476
2489.98,0.138892
2494.77,0.138404
2499.58,0.13819
2504.41,0.138017
2509.26,0.137577
2514.13,0.137267
2519.02,0.136633
2523.92,0.135332
2528.85,0.133624
2533.79,0.131844
2541.24,0.131233
2543.74,0.132065
2548.74,0.134758
2553.76,0.138001
2556.28,0.139473
2558.8,0.140806
2561.33,0.141857
2563.86,0.142704
2566.4,0.14346
2568.95,0.143974
2571.5,0.14435
2574.05,0.14462
2576.61,0.144817
2579.17,0.145014
2581.74,0.145151
2584.31,0.145244
2586.89,0.145454
2589.48,0.145704
2592.07,0.145896
2594.66,0.145989
2597.26,0.146053
2599.87,0.146259
2602.48,0.146399
2605.09,0.146446
2607.71,0.146454
2610.34,0.146576
2612.97,0.146685
2615.61,0.146678
2618.25,0.146716
2620.9,0.146734
2623.55,0.146811
2626.21,0.146873
2628.87,0.146837
2631.54,0.146857
2634.22,0.146888
2636.89,0.146933
2639.58,0.14695
2642.27,0.146935
2644.97,0.146978
2647.67,0.146961
2650.38,0.146889
2653.09,0.146857
2655.81,0.14696
2658.53,0.146917
2661.26,0.146825
2664.0,0.146703
2666.74,0.14655
2669.48,0.146492
2672.23,0.146465
2674.99,0.146456
2677.76,0.146341
2680.52,0.146203
2683.3,0.14617
2686.08,0.145936
2688.87,0.145705
2691.66,0.145503
2694.46,0.145113
2697.26,0.144577
2700.07,0.144142
2702.89,0.143645
2705.71,0.143075
2708.53,0.142514
2711.37,0.14183
2714.21,0.141187
2717.05,0.140619
2719.9,0.140034
2722.76,0.139422
2725.62,0.1386
2728.49,0.137924
2731.37,0.13751
2734.25,0.137174
2737.14,0.136543
2740.03,0.135808
2742.93,0.135253
2745.83,0.13488
2748.75,0.134574
2751.66,0.134197
2754.59,0.133689
2757.52,0.133153
2760.46,0.132709
2763.4,0.132209
2766.35,0.131392
2769.3,0.130316
2772.26,0.129095
2775.23,0.127764
2778.21,0.126182
2781.19,0.124567
2784.18,0.122883
2787.17,0.121196
2790.17,0.120157
2793.18,0.120136
2796.19,0.120885
2799.21,0.122044
2802.24,0.123042
2805.27,0.123684
2808.31,0.123981
2811.35,0.124192
2814.41,0.124395
2817.46,0.124515
2820.53,0.124512
2823.6,0.124472
2826.68,0.124386
2829.77,0.124382
2832.86,0.124357
2835.96,0.124208
2839.07,0.124051
2842.18,0.123866
2845.3,0.123672
2848.43,0.12353
2851.56,0.123222
2854.7,0.122996
2857.85,0.122719
2861.0,0.122667
2864.16,0.122386
2867.33,0.121985
2870.51,0.121805
2873.69,0.121699
2876.88,0.121424
2880.07,0.12109
2883.28,0.12094
2886.49,0.120733
2889.71,0.120462
2892.93,0.120284
2896.17,0.120229
2899.4,0.119858
2902.65,0.11966
2905.91,0.119599
2909.17,0.119175
2912.44,0.118852
2915.71,0.119027
2918.99,0.118617
2922.29,0.118553
2925.58,0.118613
2928.89,0.118166
2932.2,0.118056
2935.52,0.117856
2938.85,0.117717
2942.19,0.117566
2945.53,0.117221
2948.88,0.117205
2952.24,0.117462
2955.61,0.117584
2958.98,0.117965
2962.36,0.117956
2965.75,0.118235
2969.15,0.118265
2972.55,0.118597
2975.97,0.118617
2979.39,0.118935
2986.25,0.118894
2989.7,0.118901
2993.15,0.119292
2996.61,0.119252
3000.08,0.119299
3003.55,0.119481
3007.04,0.119558
3010.53,0.119815
3014.03,0.119668
3017.54,0.119788
3021.06,0.119742
3024.58,0.119888
3028.12,0.1198
3031.66,0.119944
3035.21,0.119759
3038.77,0.11975
3042.33,0.119796
3045.91,0.11973
3049.49,0.119701
3053.08,0.119388
3056.68,0.119315
3060.29,0.119177
3063.91,0.118904
3067.54,0.118873
3071.17,0.118699
3074.81,0.118716
3078.47,0.118672
3082.13,0.118405
3085.79,0.117906
3089.47,0.117488
3093.16,0.117012
3096.85,0.11641
3100.56,0.115806
3104.27,0.115393
3107.99,0.115117
3111.73,0.114928
3115.47,0.115236
3119.21,0.115864
3122.97,0.116654
3126.74,0.117447
3130.52,0.117943
3134.3,0.11798
3138.1,0.117837
3141.9,0.117532
3145.71,0.117304
3149.54,0.117317
3153.37,0.117353
3157.21,0.117506
3161.06,0.118246
3164.92,0.119186
3168.79,0.120307
3172.67,0.121054
3176.55,0.12177
3180.45,0.122165
3184.36,0.12228
3188.27,0.12254
3192.2,0.122737
3196.14,0.12285
3200.08,0.122766
3204.04,0.122728
3208.0,0.122715
3211.98,0.122577
3215.96,0.122444
3219.96,0.122376
3223.96,0.121989
3227.98,0.1217
3232.0,0.121482
3236.04,0.121236
3240.08,0.12083
3244.14,0.120478
3248.2,0.12033
3252.28,0.119877
3256.37,0.119484
3260.46,0.119023
3264.57,0.118642
3268.69,0.118098
3272.81,0.117455
3276.95,0.116643
3281.1,0.115984
3285.26,0.115167
3289.43,0.114165
3293.61,0.11295
3297.8,0.111899
3302.0,0.110583
3306.21,0.109045
3310.43,0.107249
3314.66,0.105076
3318.91,0.102573
3323.16,0.099723
3327.43,0.095915
3331.71,0.090761
3335.99,0.083578
3340.29,0.073454
3344.6,0.060707
3348.92,0.050058
3353.26,0.045124
3357.6,0.044444
3361.96,0.045984
3366.32,0.048039
3370.7,0.049524
3375.09,0.050502
3379.49,0.050772
3383.9,0.051102
3388.32,0.051673
3392.76,0.052387
3397.21,0.052821
3401.66,0.053419
3406.13,0.053814
3410.61,0.054138
3415.11,0.054621
3419.61,0.054997
3424.13,0.055015
3428.66,0.055275
3433.2,0.055154
3437.76,0.05507
3442.32,0.055015
3446.9,0.054647
3451.49,0.054109
3456.09,0.053313
3460.7,0.051602
3465.33,0.048924
3469.97,0.044203
3474.62,0.039607
3479.29,0.037268
3483.96,0.036975
3488.65,0.037913
3493.35,0.039559
3498.07,0.041481
3502.79,0.043495
3507.53,0.045631
3512.29,0.048107
3517.05,0.051233
3521.83,0.056558
3526.62,0.064523
3531.43,0.074389
3536.24,0.083672
3541.08,0.091433
3543.5,0.094499
3545.92,0.097129
3548.35,0.099525
3550.78,0.101747
3553.21,0.103609
3555.65,0.105053
3558.09,0.106385
3560.53,0.107393
3562.98,0.108118
3565.43,0.108718
3567.88,0.109076
3570.34,0.109102
3572.8,0.109289
3575.27,0.10989
3577.73,0.110984
3580.2,0.112501
3582.68,0.114154
3585.16,0.115945
3587.64,0.117528
3590.12,0.118888
3592.61,0.12028
3595.1,0.121604
3597.6,0.122761
3600.09,0.123791
3602.6,0.124684
3605.1,0.125547
3607.61,0.126281
3610.12,0.126964
3612.64,0.127545
3615.16,0.128071
3617.68,0.128532
3620.21,0.128968
3622.74,0.129318
3625.27,0.129658
3627.81,0.130054
3630.35,0.130438
3632.89,0.130778
3635.44,0.131094
3637.99,0.131334
3640.54,0.13155
3643.1,0.131751
3645.66,0.131879
3648.23,0.132169
3650.8,0.132456
3653.37,0.132618
3655.95,0.132923
3658.53,0.133154
3661.11,0.133324
3663.7,0.133549
3666.29,0.133769
3668.89,0.13396
3671.48,0.134084
3674.09,0.13421
3676.69,0.134319
3679.3,0.134305
3681.91,0.134342
3684.53,0.134539
3687.15,0.134602
3689.78,0.134707
3692.4,0.134799
3695.04,0.134834
3697.67,0.134765
3700.31,0.134622
3702.95,0.134541
3705.6,0.134565
3708.25,0.134559
3710.91,0.134465
3713.56,0.134434
3716.23,0.134397
3718.89,0.13424
3721.56,0.13412
3724.23,0.133942
3726.91,0.133706
3729.59,0.13347
3732.28,0.133289
3734.97,0.133059
3737.66,0.132593
3740.36,0.132104
3743.06,0.131662
3745.76,0.131313
3748.47,0.130923
3751.18,0.130498
3753.9,0.130084
3756.62,0.12978
3759.34,0.129521
3762.07,0.129154
3764.8,0.128624
3767.54,0.12802
3770.28,0.127376
3773.02,0.126668
3775.77,0.125826
3778.52,0.124785
3781.28,0.123549
3784.04,0.122117
3786.8,0.120435
3789.57,0.118417
3792.34,0.115817
3795.12,0.11252
3797.9,0.108554
3800.69,0.103952
3803.47,0.099094
3806.27,0.094372
3809.06,0.089906
3811.86,0.085788
3814.67,0.082079
3817.48,0.078606
3820.29,0.075353
3823.11,0.072209
3825.93,0.069208
3828.76,0.066496
3831.59,0.063909
3834.42,0.061365
3837.26,0.058963
3840.1,0.056857
3842.95,0.055032
3845.8,0.053618
3848.65,0.052643
3851.51,0.051949
3854.38,0.0514
3857.24,0.050942
3860.12,0.050637
3862.99,0.050391
3865.87,0.050219
3868.76,0.049992
3871.65,0.049668
3874.54,0.049401
3877.44,0.049251
3880.34,0.049101
3883.25,0.048901
3886.16,0.048734
3889.07,0.048659
3891.99,0.048564
3894.92,0.048331
3897.85,0.048051
3900.78,0.047795
3903.72,0.047631
3906.66,0.047356
3909.6,0.046971
3912.55,0.046668
3915.51,0.046431
3918.47,0.045988
3921.43,0.04543
3924.4,0.044845
3927.38,0.044274
3930.35,0.043657
3933.33,0.043072
3936.32,0.04259
3939.31,0.041947
3942.31,0.040629
3945.31,0.038738
3948.31,0.036573
3951.32,0.034615
3954.34,0.033018
3957.35,0.031656
3960.38,0.03052
3963.41,0.029713
3966.44,0.02915
3969.48,0.028681
3972.52,0.02842
3975.56,0.028221
3978.61,0.028049
3981.67,0.028026
3984.73,0.028138
3987.8,0.028416
3990.87,0.028781
3993.94,0.029389
3997.02,0.030214
4000.1,0.031275
4003.19,0.032525
4006.29,0.034106
4009.39,0.036115
4012.49,0.038577
4015.6,0.041525
4018.71,0.044672
4021.83,0.047577
4024.95,0.050304
4028.08,0.053014
4031.21,0.055914
4034.35,0.059097
4037.49,0.062468
4040.64,0.066298
4043.79,0.070611
4046.94,0.075126
4050.11,0.079507
4053.27,0.083652
4056.44,0.08741
4059.62,0.090687
4062.8,0.093553
4065.99,0.096062
4069.18,0.098321
4072.38,0.100391
4075.58,0.102287
4078.78,0.104237
4082.0,0.106142
4085.21,0.107912
4088.43,0.109529
4091.66,0.111035
4094.89,0.11235
4098.13,0.113533
4101.37,0.114785
4104.62,0.115984
4107.87,0.117025
4111.13,0.118151
4114.39,0.119209
4117.66,0.120206
4120.93,0.121188
4124.21,0.122055
4127.5,0.122914
4130.79,0.123894
4134.08,0.12486
4137.38,0.12574
4140.68,0.126497
4143.99,0.127226
4147.31,0.127974
4150.63,0.128669
4153.95,0.129268
4157.29,0.129828
4160.62,0.130395
4163.96,0.130941
4167.31,0.131472
4170.66,0.131892
4174.02,0.132223
4177.39,0.132616
4180.75,0.132971
4184.13,0.133238
4187.51,0.133536
4190.89,0.133894
4194.28,0.134285
4197.68,0.134531
4201.08,0.134763
4204.49,0.135055
4207.9,0.135262
4211.32,0.135479
4214.74,0.135678
4218.17,0.135899
4221.61,0.136073
4225.05,0.136196
4228.5,0.136312
4231.95,0.136505
4235.4,0.136687
4238.87,0.136881
4242.34,0.137066
4245.81,0.137238
4249.29,0.137381
4252.78,0.13747
4256.27,0.137439
4259.77,0.137305
4263.27,0.13732
4266.78,0.137558
4270.29,0.137711
4273.81,0.137931
4277.34,0.138182
4280.87,0.138228
4284.41,0.138209
4287.95,0.138214
4291.5,0.138242
4295.06,0.138229
4298.62,0.138076
4302.19,0.137922
4305.76,0.137763
4309.34,0.137566
4312.92,0.137406
4316.52,0.137255
4320.11,0.137187
4323.72,0.137232
4327.32,0.137301
4330.94,0.137245
4334.56,0.13717
4338.19,0.137181
4341.82,0.137239
4345.46,0.137259
4349.11,0.137311
4352.76,0.137465
4356.42,0.137602
4360.08,0.137841
4363.75,0.138182
4367.43,0.138559
4371.11,0.138846
4374.8,0.138939
4378.49,0.139054
4382.19,0.1391
4385.9,0.139061
4389.61,0.138986
4393.33,0.138866
4397.06,0.138667
4400.79,0.138474
4404.53,0.13835
4408.28,0.138101
4412.03,0.137926
4415.79,0.137825
4419.55,0.137598
4423.32,0.137333
4427.1,0.137034
4430.88,0.136739
4434.68,0.136363
4438.47,0.13598
4442.28,0.135717
4446.08,0.135311
4449.9,0.134783
4453.72,0.134335
4457.55,0.133887
4461.39,0.133487
4465.23,0.133024
4469.08,0.132556
4472.94,0.132123
4476.8,0.131592
4480.67,0.131043
4484.55,0.130441
4488.43,0.129803
4492.32,0.129208
4496.21,0.128619
4500.12,0.128052
4504.03,0.127627
4507.94,0.127282
4511.87,0.126986
4515.8,0.12674
4519.73,0.126582
4523.68,0.126484
4527.63,0.126332
4531.59,0.126189
4535.55,0.126074
4539.52,0.125868
4543.5,0.125886
4547.49,0.125905
4551.48,0.1258
4555.48,0.125646
4559.49,0.12554
4563.5,0.12555
4567.52,0.125488
4571.55,0.125369
4575.58,0.125237
4579.63,0.125056
4583.67,0.124891
4587.73,0.124713
4591.79,0.124464
4595.86,0.124207
4599.94,0.123824
4604.03,0.123401
4608.12,0.122991
4612.22,0.122502
4616.33,0.121881
4620.44,0.120928
4624.56,0.119625
4628.69,0.11807
4632.83,0.116368
4636.97,0.114432
4641.12,0.112051
4645.28,0.109352
4649.45,0.106537
4653.62,0.103854
4657.8,0.101445
4661.99,0.099437
4666.19,0.098045
4670.39,0.097294
4674.6,0.096883
4678.82,0.096829
4683.05,0.097173
4687.28,0.097829
4691.52,0.098912
4695.77,0.100366
4700.03,0.102321
4704.3,0.104673
4708.57,0.107403
4712.85,0.110526
4717.14,0.113802
4721.43,0.116994
4725.74,0.119947
4730.05,0.122454
4734.37,0.124433
4738.7,0.125799
4743.03,0.126797
4747.38,0.127647
4751.73,0.128469
4756.09,0.129104
4760.45,0.129599
4764.83,0.130065
4769.21,0.130528
4773.6,0.130822
4778.0,0.131043
4782.41,0.131289
4786.83,0.131473
4791.25,0.131589
4795.68,0.131615
4800.13,0.131587
4804.57,0.131623
4809.03,0.131534
4813.5,0.131428
4817.97,0.131333
4822.45,0.131295
4826.94,0.131261
4831.44,0.131224
4835.95,0.13119
4840.46,0.131182
4844.99,0.131026
4849.52,0.130881
4854.06,0.130816
4858.61,0.130825
4863.17,0.130745
4867.73,0.130597
4872.31,0.130467
4876.89,0.13039
4881.48,0.130282
4886.08,0.130181
4890.69,0.1301
4895.31,0.129953
4899.94,0.129812
4904.57,0.129686
4909.22,0.129544
4913.87,0.129443
4918.53,0.129337
4923.21,0.129257
4927.88,0.129143
4932.57,0.129039
4937.27,0.129037
4941.98,0.128981
4946.69,0.128927
4951.42,0.128885
4956.15,0.128805
4960.9,0.128793
4965.65,0.12881
4970.41,0.128826
4975.18,0.128809
4979.96,0.128813
4984.75,0.128864
4989.54,0.128894
4994.35,0.128972
4999.17,0.129051
5003.99,0.129069
5008.83,0.129083
5013.67,0.129078
5018.52,0.129157
5023.39,0.129244
5028.26,0.12928
5033.14,0.129319
5038.03,0.129307
5042.93,0.129367
5047.84,0.129411
5052.76,0.129341
5057.69,0.129234
5062.63,0.129181
5067.58,0.129229
5072.54,0.129116
5077.51,0.128809
5082.49,0.128295
5087.47,0.127356
5092.47,0.12539
5097.48,0.121831
5102.5,0.117667
5107.52,0.116871
5112.56,0.119921
5117.61,0.123433
5122.66,0.125732
5127.73,0.126762
5132.81,0.12718
5137.89,0.127317
5142.99,0.127328
5148.1,0.127227
5153.22,0.127104
5158.34,0.126964
5163.48,0.126843
5168.63,0.126652
5173.79,0.126428
5178.96,0.126309
5184.13,0.126212
5189.32,0.126001
5194.52,0.125834
5199.73,0.125582
5204.96,0.12525
5210.19,0.124973
5215.43,0.124678
5220.68,0.12437
5225.94,0.124053
5231.22,0.123769
5236.5,0.123446
5241.79,0.123178
5247.1,0.122854
5252.42,0.122383
5257.74,0.12196
5263.08,0.121607
5268.43,0.121136
5273.79,0.120638
5279.16,0.120179
5284.54,0.119724
5289.93,0.119252
5295.34,0.118766
5300.75,0.118179
5306.18,0.117598
5311.61,0.116979
5317.06,0.116255
5322.52,0.115465
5327.99,0.114674
5333.47,0.113826
5338.96,0.112917
5344.47,0.111985
5349.98,0.111076
5355.51,0.110139
5361.05,0.109196
5366.6,0.108261
5372.16,0.107301
5377.73,0.106339
5383.32,0.105315
5388.91,0.104179
5394.52,0.102981
5400.14,0.101734
5405.77,0.100497
5411.41,0.0992
5417.07,0.097715
5422.74,0.096249
5428.41,0.094659
5434.1,0.092874
5439.81,0.091063
5445.52,0.08915
5451.25,0.087142
5456.98,0.084994
5462.73,0.082761
5468.5,0.080486
5474.27,0.078132
5480.06,0.075712
5485.86,0.073114
5491.67,0.070379
5497.49,0.067549
5503.33,0.064494
5509.18,0.061068
5515.04,0.05732
5520.91,0.05327
5526.8,0.048567
5532.69,0.043248
5538.61,0.037521
5544.53,0.031364
5550.47,0.025625
5556.41,0.021413
5562.38,0.019241
5568.35,0.018735
5574.34,0.019045
5580.34,0.019457
5586.35,0.020281
5592.38,0.021996
5598.42,0.024664
5604.47,0.028137
5610.54,0.032172
5616.61,0.036209
5622.71,0.039753
5628.81,0.042609
5634.93,0.044815
5641.06,0.046406
5647.21,0.047407
5653.36,0.047731
5659.54,0.047467
5665.72,0.046552
5671.92,0.045513
5678.13,0.044557
5684.36,0.043451
5690.6,0.042425
5696.85,0.041642
5703.12,0.040777
5709.4,0.039963
5715.69,0.039141
5722.0,0.038337
5728.33,0.037608
5734.66,0.036941
5741.01,0.036284
5747.38,0.035679
5753.76,0.035109
5760.15,0.034669
5766.56,0.034419
5772.98,0.034106
5779.41,0.03386
5785.86,0.03402
5792.33,0.034288
5798.81,0.034552
5805.3,0.034779
5811.81,0.035033
5818.33,0.035261
5824.87,0.035524
5831.42,0.035704
5837.99,0.035924
5844.57,0.036178
5851.17,0.036439
5857.78,0.036669
5864.41,0.036887
5871.05,0.037031
5877.7,0.037158
5884.38,0.037224
5891.06,0.037087
5897.76,0.03706
5904.48,0.036908
5911.21,0.036605
5917.96,0.03641
5924.73,0.035987
5931.5,0.035528
5938.3,0.035104
5945.11,0.03452
5951.93,0.033988
5958.78,0.033616
5965.63,0.033189
5972.51,0.032818
5979.39,0.032285
5986.3,0.031903
5993.22,0.031562
6000.16,0.03124
6007.11,0.030932
6014.08,0.030599
6021.06,0.030125
6028.06,0.029626
6035.08,0.02909
6042.12,0.028627
6049.17,0.028256
6056.23,0.027817
6063.32,0.027203
6070.42,0.027049
6077.53,0.026841
6084.67,0.02658
6091.82,0.026416
6098.98,0.026364
6106.17,0.026336
6113.37,0.026476
6120.58,0.0266
6127.82,0.026739
6135.07,0.026952
6142.34,0.027345
6149.63,0.027656
6156.93,0.028166
6164.25,0.028875
6171.59,0.029803
6178.95,0.030881
6186.32,0.0323
6193.71,0.033925
6201.12,0.035949
6208.54,0.038397
6215.99,0.041376
6223.45,0.044681
6230.93,0.048467
6238.43,0.052577
6245.95,0.057257
6253.48,0.062296
6261.03,0.067658
6268.6,0.073089
6276.19,0.078629
6283.8,0.083757
6291.43,0.088036
6299.07,0.091553
6306.73,0.095835
6314.42,0.101731
6322.12,0.108961
6329.84,0.116459
6337.57,0.124357
6345.33,0.133648
6353.11,0.144103
6360.9,0.153143
6368.72,0.160762
6376.55,0.1676
6384.4,0.17372
6392.27,0.179129
6400.17,0.184512
6408.08,0.189609
6416.01,0.195082
6423.96,0.200937
6431.93,0.206863
6439.92,0.213419
6447.93,0.220938
6455.96,0.228498
6464.01,0.235264
6472.08,0.239717
6480.17,0.242106
6488.28,0.242711
6496.41,0.242245
6504.56,0.240741
6512.73,0.238571
6520.92,0.236239
6529.14,0.23372
6537.37,0.23081
6545.63,0.227783
6553.9,0.22447
6562.2,0.220919
6570.51,0.21718
6578.85,0.21347
6587.21,0.209455
6595.59,0.205445
6603.99,0.201283
6612.42,0.197145
6620.86,0.19304
6629.33,0.189055
6637.82,0.185394
6646.33,0.181893
6654.86,0.178438
6663.41,0.175227
6671.99,0.172165
6680.59,0.169231
6689.21,0.166305
6697.85,0.163324
6706.51,0.160438
6715.2,0.157709
6723.91,0.155049
6732.64,0.152433
6741.4,0.150015
6750.18,0.147763
6758.98,0.14564
6767.8,0.143693
6776.65,0.141947
6785.52,0.140366
6794.41,0.138837
6803.33,0.137262
6812.27,0.135713
6821.23,0.13424
6830.22,0.132837
6839.23,0.131478
6848.26,0.13013
6857.32,0.128823
6866.4,0.127538
6875.51,0.126349
6884.64,0.125186
6893.8,0.124033
6902.98,0.122915
6912.18,0.121751
6921.41,0.120587
6930.66,0.119652
6939.94,0.118865
6949.24,0.118205
6958.57,0.117699
6967.92,0.117303
6977.3,0.116978
6986.7,0.116611
6996.13,0.116195
7005.59,0.115921
7015.07,0.115613
7024.57,0.115342
7034.1,0.1152
7043.66,0.115114
7053.25,0.115022
7062.85,0.114891
7072.49,0.114785
7082.15,0.114465
7091.84,0.113768
7101.55,0.112433
7111.3,0.110019
7121.06,0.10619
7130.86,0.101543
7140.68,0.097562
7150.53,0.095177
7160.41,0.093659
7170.31,0.092034
7180.24,0.090072
7190.2,0.087948
7200.19,0.08582
7210.2,0.083887
7220.24,0.082294
7230.31,0.080877
7240.41,0.079528
7250.54,0.078328
7260.69,0.07722
7270.88,0.076243
7281.09,0.075372
7291.33,0.074512
7301.6,0.073757
7311.9,0.073199
7322.22,0.072693
7332.58,0.072224
7342.97,0.071714
7353.38,0.071263
7363.83,0.070796
7374.3,0.070284
7384.81,0.069824
7395.34,0.069309
7405.91,0.068743
7416.5,0.068136
7427.13,0.067596
7437.78,0.067192
7448.47,0.066887
7459.19,0.066512
7469.94,0.066047
7480.71,0.065745
7491.52,0.065545
7502.37,0.06535
7513.24,0.065135
7524.14,0.064878
7535.08,0.064631
7546.05,0.06445
7557.05,0.064199
7568.08,0.06389
7579.15,0.063637
7590.24,0.063501
7601.37,0.063296
7612.53,0.063076
7623.73,0.06296
7634.96,0.063041
7646.22,0.063185
7657.51,0.063402
7668.84,0.063785
7680.2,0.064142
7691.59,0.064378
7703.02,0.064829
7714.49,0.065255
7725.98,0.06558
7737.52,0.065804
7749.08,0.06596
7760.68,0.066111
7772.32,0.066166
7783.99,0.066143
7795.69,0.066114
7807.43,0.066032
7819.21,0.066102
7831.02,0.066305
7842.87,0.0666
7854.75,0.066901
7866.67,0.067113
7878.62,0.067088
7890.62,0.066939
7902.64,0.066748
7914.71,0.066709
7926.81,0.066918
7938.95,0.06728
7951.13,0.067643
7963.34,0.06798
7975.59,0.068292
7987.88,0.068517
8000.21,0.068609
8012.57,0.068599
8024.98,0.068491
8037.42,0.06827
8049.9,0.06794
8062.42,0.06766
8074.98,0.067595
8087.57,0.067742
8100.21,0.068072
8112.89,0.068606
8125.6,0.069087
8138.36,0.069382
8151.16,0.06964
8163.99,0.069931
8176.87,0.070231
8189.79,0.070513
8202.75,0.07075
8215.75,0.070882
8228.79,0.070828
8241.87,0.070677
8254.99,0.070497
8268.16,0.070296
8281.37,0.070035
8294.62,0.069808
8307.91,0.069581
8321.24,0.069354
8334.62,0.069082
8348.04,0.068938
8361.51,0.068693
8375.02,0.068237
8388.57,0.06767
8402.16,0.066938
8415.8,0.066055
8429.49,0.065295
8443.22,0.064731
8456.99,0.064264
8470.81,0.063773
8484.67,0.06322
8498.58,0.062762
8512.54,0.062437
8526.54,0.062348
8540.58,0.062437
8554.68,0.062568
8568.82,0.062571
8583.0,0.062359
8597.24,0.062148
8611.52,0.062127
8625.85,0.062624
8640.23,0.063791
8654.65,0.06556
8669.12,0.067624
8683.64,0.06975
8698.21,0.071748
8712.83,0.073546
8727.5,0.075337
8742.22,0.077378
8756.99,0.079603
8771.8,0.081712
8786.67,0.083672
8801.59,0.085377
8816.56,0.086884
8831.58,0.088227
8846.65,0.089346
8861.77,0.090166
8876.94,0.090776
8892.17,0.091464
8907.45,0.092595
8922.78,0.093919
8938.16,0.095296
8953.6,0.096483
8969.09,0.097406
8984.64,0.098203
9000.23,0.099027
9015.89,0.099801
9031.59,0.100362
9047.36,0.10058
9063.17,0.100624
9079.05,0.100546
9094.97,0.100399
9110.96,0.100194
9127.0,0.100092
9143.1,0.099998
9159.25,0.099818
9175.46,0.099283
9191.73,0.098136
9208.06,0.096026
9224.44,0.094071
9240.88,0.093015
9257.38,0.094122
9273.94,0.096876
9290.56,0.098143
9307.24,0.097836
9323.98,0.096796
9340.78,0.095614
9357.64,0.094575
9374.57,0.093845
9391.55,0.093682
9408.59,0.094948
9425.7,0.096836
9442.87,0.098137
9460.1,0.099058
9477.4,0.099709
9494.75,0.100147
9512.17,0.10037
9529.66,0.100357
9547.21,0.100195
9564.83,0.099674
9582.5,0.098823
9600.25,0.098069
9618.06,0.097601
9635.94,0.09724
9653.88,0.096727
9671.89,0.095794
9689.97,0.094291
9708.12,0.092278
9726.33,0.089856
9744.62,0.087633
9762.97,0.086057
9781.39,0.084999
9799.88,0.084066
9818.44,0.083228
9837.07,0.082344
9855.77,0.081431
9874.54,0.080804
9893.39,0.080642
9912.3,0.080963
9931.29,0.081731
9950.36,0.082686
9969.49,0.083705
9988.7,0.084556
10007.98,0.085218
10027.34,0.085533
10046.77,0.085686
10066.28,0.086116
10085.87,0.086775
10105.53,0.087806
10125.26,0.089288
10145.08,0.090747
10164.97,0.091841
10184.94,0.092449
10204.99,0.092384
10225.12,0.092068
10245.33,0.092387
10265.61,0.093829
10285.98,0.095916
10306.43,0.09768
10326.96,0.098955
10347.57,0.099926
10368.27,0.100433
10389.05,0.100462
10409.91,0.100246
10430.86,0.099976
10451.88,0.099404
10473.0,0.098382
10494.2,0.096962
10515.49,0.095432
10536.86,0.093995
10558.32,0.09295
10579.87,0.092519
10601.5,0.092581
10623.23,0.092723
10645.04,0.092811
10666.94,0.092648
10688.94,0.092282
10711.02,0.092193
10733.2,0.092708
10755.47,0.09389
10777.83,0.095628
10800.28,0.09764
10822.83,0.099807
10845.47,0.101979
10868.21,0.104004
10891.04,0.105786
10913.97,0.107232
10936.99,0.108148
10960.12,0.108546
10983.34,0.108628
11006.66,0.108436
11030.07,0.108284
11053.59,0.108421
11077.21,0.10894
11100.93,0.109893
11124.75,0.111842
11148.68,0.115225
11172.71,0.120882
11196.84,0.129593
11221.07,0.14118
11245.41,0.154124
11269.86,0.16506
11294.41,0.165137
11319.07,0.150421
11343.84,0.133105
11368.72,0.122052
11393.7,0.112698
11418.8,0.101248
11444.01,0.090196
11469.33,0.082407
11494.76,0.077333
11520.3,0.073821
11545.96,0.071808
11571.73,0.071214
11597.62,0.071814
11623.62,0.073199
11649.74,0.075276
11675.98,0.077857
11702.34,0.08045
11728.81,0.082536
11755.41,0.082413
11782.13,0.076252
11808.96,0.067544
11835.92,0.070237
11863.01,0.082695
11890.22,0.093517
11917.55,0.100273
11945.01,0.10423
11972.6,0.106863
12000.31,0.10882
12028.16,0.110541
12056.13,0.111745
12084.23,0.112381
12112.46,0.112666
12140.83,0.112608
12169.33,0.112377
12197.96,0.11192
12226.73,0.111124
12255.64,0.110179
12284.68,0.109011
12313.86,0.108066
12343.18,0.107609
12372.64,0.107624
12402.24,0.107588
12431.98,0.107333
12461.86,0.10666
12491.89,0.105683
12522.07,0.104871
12552.38,0.10437
12582.85,0.103986
12613.47,0.103354
12644.23,0.102373
12675.15,0.101157
12706.21,0.099684
12737.43,0.098197
12768.81,0.097103
12800.33,0.096448
12832.02,0.096255
12863.86,0.096146
12895.86,0.095737
12928.02,0.095589
12960.34,0.096004
12992.82,0.096828
13025.46,0.097929
13058.27,0.099407
13091.25,0.10084
13124.39,0.102084
13157.7,0.103288
13191.18,0.104529
13224.83,0.105396
13258.66,0.105897
13292.65,0.10624
13326.83,0.106233
13361.17,0.105842
13395.7,0.105472
13430.4,0.104824
13465.29,0.103615
13500.35,0.101972
13535.6,0.100024
13571.03,0.097865
13606.65,0.09557
13642.46,0.092964
13678.46,0.090013
13714.64,0.08655
13751.02,0.082575
13787.59,0.077672
13824.36,0.071594
13861.32,0.064298
13898.49,0.056185
13935.85,0.047771
13973.41,0.040498
14011.17,0.038553
14049.15,0.046636
14087.32,0.054349
14125.71,0.054698
14164.3,0.055129
14203.11,0.058507
14242.13,0.063907
14281.36,0.069818
14320.81,0.074936
14360.49,0.079725
14400.38,0.083883
14440.49,0.086965
14480.82,0.090445
14521.39,0.093829
14562.18,0.096292
14603.2,0.098118
14644.45,0.099516
14685.93,0.100566
14727.66,0.101504
14769.62,0.102145
14811.81,0.10252
14854.25,0.102718
14896.94,0.102678
14939.87,0.102404
14983.05,0.102119
15026.48,0.101431
15070.16,0.1005
15114.1,0.099734
15158.29,0.098848
15202.74,0.09779
15247.46,0.096704
15292.43,0.095761
15337.68,0.094805
15383.19,0.093761
15428.97,0.092593
15475.03,0.091505
15521.36,0.090676
15567.97,0.089611
15614.87,0.088415
15662.04,0.087168
15709.5,0.086007
15757.25,0.084887
15805.29,0.08367
15853.62,0.08258
15902.26,0.081451
15951.19,0.080121
16000.42,0.079058
16049.95,0.078187
16099.8,0.077
16149.95,0.07576
16200.42,0.074623
16251.21,0.073901
16302.31,0.073349
16353.74,0.072484
16405.49,0.071348
16457.57,0.070073
16509.98,0.069025
16562.73,0.067899
16615.82,0.066512
16669.24,0.065339
16723.02,0.064394
16777.14,0.06344
16831.61,0.062736
16886.43,0.062096
16941.62,0.061371
16997.16,0.060978
17053.08,0.060591
17109.36,0.059786
17166.01,0.059258
17223.04,0.058991
17280.45,0.059019
17338.24,0.059107
17396.43,0.058887
17455.0,0.058702
17513.97,0.058522
17573.34,0.058355
17633.11,0.058375
17693.29,0.058618
17753.89,0.058491
17814.9,0.058094
17876.33,0.057673
17938.18,0.05721
18000.47,0.056999
18063.19,0.056542
18126.35,0.05591
18189.95,0.055234
18254.0,0.054551
18318.5,0.053854
18383.46,0.053414
18448.88,0.052907
18514.77,0.052279
18581.13,0.05218
18647.97,0.051911
18715.29,0.051231
18783.1,0.050794
18851.4,0.050498
18920.2,0.050292
18989.51,0.049797
19059.32,0.049226
19129.65,0.048668
19200.5,0.04785
19271.88,0.047475
19343.79,0.047357
19416.24,0.046902
19489.23,0.046166
19562.77,0.045686
19636.88,0.045323
19711.54,0.045016
19786.78,0.04472
19862.59,0.044
19938.98,0.04337
20015.96,0.042901
20093.55,0.042645
20171.73,0.042392
20250.53,0.042014
20329.94,0.04175
20409.98,0.04129
20490.65,0.040695
20571.96,0.040312
20653.92,0.03981
20736.54,0.039462
20819.82,0.039464
20903.77,0.039216
20988.4,0.038942
21073.72,0.039198
21159.73,0.039333
21246.46,0.03915
21333.89,0.039088
21422.04,0.039182
21510.93,0.039041
21600.56,0.039192
21690.94,0.039179
21782.08,0.038881
21873.99,0.038658
21966.67,0.038966
22060.15,0.038505
22154.42,0.037653
22249.51,0.037705
22345.41,0.038571
22442.14,0.038616
22539.72,0.038222
22638.14,0.038622
22737.43,0.038609
22837.6,0.038574
22938.65,0.03881
23040.6,0.039382
23143.46,0.04025
23247.24,0.041055
23351.96,0.041714
23457.63,0.042476
23564.25,0.043658
23671.85,0.045005
23780.44,0.047029
23890.02,0.048948
24000.63,0.050298
24112.26,0.052973
24224.93,0.055727
24338.66,0.058204
24453.47,0.062694
24569.36,0.068549
24686.36,0.074017
24804.47,0.080074
24923.73,0.08912
25044.13,0.098405
25165.71,0.107631
25288.46,0.117394
25412.43,0.128231
25537.61,0.138
25664.04,0.148555
25791.72,0.156568
25920.68,0.166013
