Database of Origin,University of Winnipeg Spectrophotometer Facility
Sample Description,"RELAB plus Nicolet Melilite data. Merged @2500nm, different viewing geometries. See Master Melilites in PSF sample database for additional info."
Date Added,2016-11-08 17:15:35.865915

Data ID,RLA_MEL_07          
Sample ID,MEL108
Mineral Name,Melilite
Grain Size,<45
Viewing Geometry,"30/0,30"
Resolution,5 nm
Material Class,Sorosilicate

Wavelength
300.0,0.191828
305.0,0.209413
310.0,0.224045
315.0,0.243254
320.0,0.261002
325.0,0.281913
330.0,0.302332
335.0,0.323922
340.0,0.344829
345.0,0.365343
350.0,0.384272
355.0,0.402687
360.0,0.420062
365.0,0.435018
370.0,0.447961
375.0,0.458072
380.0,0.46811
385.0,0.476362
390.0,0.48413
395.0,0.491218
400.0,0.495947
405.0,0.501989
410.0,0.507279
415.0,0.512791
420.0,0.516722
425.0,0.520864
430.0,0.525424
435.0,0.528391
440.0,0.533715
445.0,0.539619
450.0,0.542088
455.0,0.544546
460.0,0.547136
465.0,0.549586
470.0,0.555228
475.0,0.558829
480.0,0.562022
485.0,0.564967
490.0,0.566778
495.0,0.569281
500.0,0.572146
505.0,0.576279
510.0,0.580297
515.0,0.582566
520.0,0.585526
525.0,0.587316
530.0,0.589924
535.0,0.591424
540.0,0.595325
545.0,0.598421
550.0,0.599428
555.0,0.601037
560.0,0.603215
565.0,0.604728
570.0,0.606051
575.0,0.608918
580.0,0.610538
585.0,0.610934
590.0,0.613153
595.0,0.615918
600.0,0.617024
605.0,0.618256
610.0,0.618555
615.0,0.619798
620.0,0.622386
625.0,0.621276
630.0,0.623704
635.0,0.62466
640.0,0.627528
645.0,0.6272
650.0,0.62789
655.0,0.629234
660.0,0.6316
665.0,0.631942
670.0,0.632646
675.0,0.633525
680.0,0.633145
685.0,0.633638
690.0,0.63439
695.0,0.635168
700.0,0.636711
705.0,0.636512
710.0,0.6347
715.0,0.636756
720.0,0.636886
725.0,0.638362
730.0,0.637955
735.0,0.637552
740.0,0.636962
745.0,0.637229
750.0,0.638061
755.0,0.638677
760.0,0.635334
765.0,0.637312
770.0,0.635987
775.0,0.634468
780.0,0.635268
785.0,0.634396
790.0,0.633513
795.0,0.632261
800.0,0.630773
805.0,0.629371
810.0,0.628698
815.0,0.627799
820.0,0.62681
825.0,0.62557
830.0,0.625334
835.0,0.624354
840.0,0.623617
845.0,0.621323
850.0,0.62131
855.0,0.62067
860.0,0.619734
865.0,0.617048
870.0,0.617067
875.0,0.617397
880.0,0.615218
885.0,0.616248
890.0,0.613653
895.0,0.613558
900.0,0.610867
905.0,0.609311
910.0,0.608207
915.0,0.607873
920.0,0.606078
925.0,0.603909
930.0,0.603983
935.0,0.601075
940.0,0.60028
945.0,0.599235
950.0,0.597999
955.0,0.595285
960.0,0.59613
965.0,0.59475
970.0,0.592603
975.0,0.591703
980.0,0.590447
985.0,0.589177
990.0,0.589598
995.0,0.58809
1000.0,0.585805
1005.0,0.584604
1010.0,0.583961
1015.0,0.582375
1020.0,0.580575
1025.0,0.579243
1030.0,0.577388
1035.0,0.578492
1040.0,0.576644
1045.0,0.576132
1050.0,0.573858
1055.0,0.573775
1060.0,0.572437
1065.0,0.572046
1070.0,0.570877
1075.0,0.568824
1080.0,0.567324
1085.0,0.566467
1090.0,0.564734
1095.0,0.563169
1100.0,0.561358
1105.0,0.562599
1110.0,0.559822
1115.0,0.558387
1120.0,0.5579
1125.0,0.556796
1130.0,0.553746
1135.0,0.553199
1140.0,0.552072
1145.0,0.549631
1150.0,0.548246
1155.0,0.546465
1160.0,0.54592
1165.0,0.544772
1170.0,0.540499
1175.0,0.540599
1180.0,0.537672
1185.0,0.535337
1190.0,0.534472
1195.0,0.532587
1200.0,0.531416
1205.0,0.531124
1210.0,0.52623
1215.0,0.524727
1220.0,0.523901
1225.0,0.519238
1230.0,0.517641
1235.0,0.514019
1240.0,0.511382
1245.0,0.509689
1250.0,0.507196
1255.0,0.503747
1260.0,0.500899
1265.0,0.500665
1270.0,0.498326
1275.0,0.495331
1280.0,0.492375
1285.0,0.488544
1290.0,0.486403
1295.0,0.482402
1300.0,0.481307
1305.0,0.478882
1310.0,0.477403
1315.0,0.473138
1320.0,0.47039
1325.0,0.466927
1330.0,0.464542
1335.0,0.461915
1340.0,0.456731
1345.0,0.456726
1350.0,0.452704
1355.0,0.452405
1360.0,0.446516
1365.0,0.443942
1370.0,0.441625
1375.0,0.441372
1380.0,0.436612
1385.0,0.436679
1390.0,0.434377
1395.0,0.432138
1400.0,0.429456
1405.0,0.427517
1410.0,0.425505
1415.0,0.422367
1420.0,0.418321
1425.0,0.419413
1430.0,0.418358
1435.0,0.413517
1440.0,0.413489
1445.0,0.411139
1450.0,0.407906
1455.0,0.406867
1460.0,0.403954
1465.0,0.4025
1470.0,0.400747
1475.0,0.398963
1480.0,0.396634
1485.0,0.397061
1490.0,0.395914
1495.0,0.393605
1500.0,0.391846
1505.0,0.390189
1510.0,0.389535
1515.0,0.388743
1520.0,0.386422
1525.0,0.38535
1530.0,0.385108
1535.0,0.384309
1540.0,0.383999
1545.0,0.382146
1550.0,0.381435
1555.0,0.378764
1560.0,0.381362
1565.0,0.379957
1570.0,0.377958
1575.0,0.378771
1580.0,0.379135
1585.0,0.378487
1590.0,0.377146
1595.0,0.375948
1600.0,0.37746
1605.0,0.377243
1610.0,0.375441
1615.0,0.375514
1620.0,0.377362
1625.0,0.377371
1630.0,0.375175
1635.0,0.376196
1640.0,0.376436
1645.0,0.378246
1650.0,0.377848
1655.0,0.37822
1660.0,0.378682
1665.0,0.378882
1670.0,0.379805
1675.0,0.37943
1680.0,0.379601
1685.0,0.379752
1690.0,0.381189
1695.0,0.381389
1700.0,0.381681
1705.0,0.382685
1710.0,0.381629
1715.0,0.383231
1720.0,0.383312
1725.0,0.384319
1730.0,0.384663
1735.0,0.384557
1740.0,0.385535
1745.0,0.38574
1750.0,0.386518
1755.0,0.387056
1760.0,0.38794
1765.0,0.387567
1770.0,0.388164
1775.0,0.388467
1780.0,0.389488
1785.0,0.389555
1790.0,0.389728
1795.0,0.390488
1800.0,0.391698
1805.0,0.391549
1810.0,0.392062
1815.0,0.392226
1820.0,0.391438
1825.0,0.392594
1830.0,0.392909
1835.0,0.392335
1840.0,0.392988
1845.0,0.393869
1850.0,0.393665
1855.0,0.395094
1860.0,0.394365
1865.0,0.395157
1870.0,0.392951
1875.0,0.396369
1880.0,0.397174
1885.0,0.396616
1890.0,0.396645
1895.0,0.396899
1900.0,0.396658
1905.0,0.397218
1910.0,0.398382
1915.0,0.397354
1920.0,0.398516
1925.0,0.398945
1930.0,0.399794
1935.0,0.399899
1940.0,0.40057
1945.0,0.401316
1950.0,0.402561
1955.0,0.403406
1960.0,0.404112
1965.0,0.40508
1970.0,0.404696
1975.0,0.405955
1980.0,0.406459
1985.0,0.40776
1990.0,0.409268
1995.0,0.410036
2000.0,0.410791
2005.0,0.412215
2010.0,0.412877
2015.0,0.413861
2020.0,0.414765
2025.0,0.416579
2030.0,0.417558
2035.0,0.418123
2040.0,0.420222
2045.0,0.421645
2050.0,0.423299
2055.0,0.42412
2060.0,0.424505
2065.0,0.425721
2070.0,0.427212
2075.0,0.428802
2080.0,0.430808
2085.0,0.431239
2090.0,0.433683
2095.0,0.434277
2100.0,0.436551
2105.0,0.437837
2110.0,0.438938
2115.0,0.440668
2120.0,0.442298
2125.0,0.44273
2130.0,0.444498
2135.0,0.446209
2140.0,0.447544
2145.0,0.449471
2150.0,0.450019
2155.0,0.45138
2160.0,0.453918
2165.0,0.455241
2170.0,0.456675
2175.0,0.458085
2180.0,0.459009
2185.0,0.460785
2190.0,0.462559
2195.0,0.465321
2200.0,0.46613
2205.0,0.467757
2210.0,0.470021
2215.0,0.471217
2220.0,0.471218
2225.0,0.472302
2230.0,0.474095
2235.0,0.474774
2240.0,0.477278
2245.0,0.477715
2250.0,0.479123
2255.0,0.479467
2260.0,0.480871
2265.0,0.480163
2270.0,0.482424
2275.0,0.484286
2280.0,0.485811
2285.0,0.485915
2290.0,0.488027
2295.0,0.488884
2300.0,0.489357
2305.0,0.490988
2310.0,0.490898
2315.0,0.491155
2320.0,0.492369
2325.0,0.492263
2330.0,0.492239
2335.0,0.492785
2340.0,0.493022
2345.0,0.493782
2350.0,0.493266
2355.0,0.494386
2360.0,0.49394
2365.0,0.493894
2370.0,0.493436
2375.0,0.49467
2380.0,0.494955
2385.0,0.4949
2390.0,0.495329
2395.0,0.495338
2400.0,0.49642
2405.0,0.495664
2410.0,0.496077
2415.0,0.495936
2420.0,0.495426
2425.0,0.496933
2430.0,0.495528
2435.0,0.49764
2440.0,0.496756
2445.0,0.497476
2450.0,0.497508
2455.0,0.497388
2460.0,0.498261
2465.0,0.500134
2470.0,0.498677
2475.0,0.49888
2480.0,0.49861
2485.0,0.498732
2490.0,0.500073
2495.0,0.498905
2500.0,0.499556
2502.0,0.49946
2503.2,0.499632
2504.41,0.499938
2505.62,0.499925
2506.83,0.499808
2508.05,0.500173
2509.26,0.500328
2510.48,0.500283
2511.69,0.500138
2512.91,0.500606
2514.13,0.500217
2515.35,0.500228
2516.57,0.500748
2517.79,0.500751
2519.02,0.500665
2520.24,0.500572
2521.47,0.500903
2522.69,0.500909
2523.92,0.500699
2525.15,0.500706
2526.38,0.501009
2527.61,0.501271
2528.85,0.501247
2530.08,0.50104
2531.32,0.50134
2532.55,0.501774
2533.79,0.501674
2535.03,0.501705
2536.27,0.501846
2537.51,0.501657
2538.75,0.501605
2540.0,0.501939
2541.24,0.50178
2542.49,0.50196
2543.74,0.50198
2544.99,0.501849
2546.24,0.502063
2547.49,0.502028
2548.74,0.50175
2549.99,0.501712
2551.25,0.501963
2552.5,0.502273
2553.76,0.502541
2555.02,0.502865
2556.28,0.502744
2557.54,0.502414
2558.8,0.502758
2560.07,0.502769
2561.33,0.502469
2562.6,0.502324
2563.86,0.502972
2565.13,0.50335
2566.4,0.503123
2567.67,0.503471
2568.95,0.503006
2570.22,0.502634
2571.5,0.50335
2572.77,0.503282
2574.05,0.503092
2575.33,0.503471
2576.61,0.503509
2577.89,0.50356
2579.17,0.504053
2580.46,0.504259
2581.74,0.503581
2583.03,0.503664
2584.31,0.50396
2585.6,0.503857
2586.89,0.504445
2588.19,0.504129
2589.48,0.504125
2590.77,0.50458
2592.07,0.504638
2593.36,0.504325
2594.66,0.503075
2595.96,0.503347
2597.26,0.505585
2598.56,0.50594
2599.87,0.505055
2601.17,0.504704
2602.48,0.504442
2603.78,0.504728
2605.09,0.504783
2606.4,0.504521
2607.71,0.505244
2609.03,0.505826
2610.34,0.505513
2611.66,0.505977
2612.97,0.505695
2614.29,0.505375
2615.61,0.505485
2616.93,0.505272
2618.25,0.505282
2619.57,0.505946
2620.9,0.505464
2622.22,0.505223
2623.55,0.506322
2624.88,0.506311
2626.21,0.505781
2627.54,0.505179
2628.87,0.505733
2630.21,0.506077
2631.54,0.505864
2632.88,0.50669
2634.21,0.506928
2635.55,0.506425
2636.89,0.506404
2638.24,0.506621
2639.58,0.50637
2640.92,0.506435
2642.27,0.50657
2643.62,0.506604
2644.97,0.506415
2646.32,0.506418
2647.67,0.50678
2649.02,0.507176
2650.38,0.507038
2651.73,0.506776
2653.09,0.506428
2654.45,0.506542
2655.81,0.506735
2657.17,0.506697
2658.53,0.50668
2659.89,0.506501
2661.26,0.506556
2662.63,0.506859
2664.0,0.506935
2665.36,0.506105
2666.74,0.505912
2668.11,0.5067
2669.48,0.506594
2670.86,0.50531
2672.23,0.505437
2673.61,0.506928
2674.99,0.50616
2676.37,0.505296
2677.76,0.504945
2679.14,0.504934
2680.52,0.504772
2681.91,0.504772
2683.3,0.504094
2684.69,0.503306
2686.08,0.503202
2687.47,0.502879
2688.87,0.502755
2690.26,0.501953
2691.66,0.501061
2693.06,0.500211
2694.46,0.498637
2695.86,0.497918
2697.26,0.497312
2698.66,0.495686
2700.07,0.494075
2701.48,0.492099
2702.89,0.490377
2704.3,0.488869
2705.71,0.487113
2707.12,0.485261
2708.53,0.48366
2709.95,0.482242
2711.37,0.480971
2712.79,0.480637
2714.21,0.481033
2715.63,0.480152
2717.05,0.478857
2718.48,0.47854
2719.9,0.477924
2721.33,0.47715
2722.76,0.47685
2724.19,0.476616
2725.62,0.47558
2727.06,0.475311
2728.49,0.475122
2729.93,0.473848
2731.37,0.472705
2732.81,0.471892
2734.25,0.470804
2735.69,0.469751
2737.14,0.46931
2738.58,0.468456
2740.03,0.466707
2741.48,0.465919
2742.93,0.465846
2744.38,0.465419
2745.83,0.464121
2747.29,0.462765
2748.75,0.461622
2750.2,0.460668
2751.66,0.459539
2753.13,0.458737
2754.59,0.457607
2756.05,0.455982
2757.52,0.455411
2758.99,0.455015
2760.46,0.453744
2761.93,0.452742
2763.4,0.45194
2764.87,0.451703
2766.35,0.450983
2767.82,0.449627
2769.3,0.448683
2770.78,0.447908
2772.26,0.446752
2773.75,0.445695
2775.23,0.443904
2776.72,0.442104
2778.21,0.440348
2779.7,0.437762
2781.19,0.434984
2782.68,0.432529
2784.18,0.429874
2785.67,0.426827
2787.17,0.424014
2788.67,0.421725
2790.17,0.420299
2791.67,0.418829
2793.18,0.417349
2794.68,0.416213
2796.19,0.415193
2797.7,0.41426
2799.21,0.413283
2800.72,0.411854
2802.24,0.409898
2803.75,0.407987
2805.27,0.406125
2806.79,0.404455
2808.31,0.40264
2809.83,0.401115
2811.35,0.40001
2812.88,0.399683
2814.41,0.399986
2815.93,0.400668
2817.46,0.401883
2819.0,0.403708
2820.53,0.405371
2822.07,0.406796
2823.6,0.407984
2825.14,0.408872
2826.68,0.409833
2828.22,0.41017
2829.77,0.410377
2831.31,0.410504
2832.86,0.410773
2834.41,0.411024
2835.96,0.411406
2837.51,0.411967
2839.07,0.412126
2840.62,0.412418
2842.18,0.412859
2843.74,0.413362
2845.3,0.413868
2846.86,0.414291
2848.43,0.414942
2849.99,0.41549
2851.56,0.416009
2853.13,0.41654
2854.7,0.417015
2856.27,0.417586
2857.85,0.418192
2859.42,0.418891
2861.0,0.419191
2862.58,0.419749
2864.16,0.420434
2865.75,0.420895
2867.33,0.421305
2868.92,0.421732
2870.51,0.422117
2872.1,0.422579
2873.69,0.422999
2875.28,0.423463
2876.88,0.423718
2878.48,0.424094
2880.07,0.424417
2881.68,0.42441
2883.28,0.424496
2884.88,0.424827
2886.49,0.425243
2888.1,0.425137
2889.71,0.425323
2891.32,0.425763
2892.93,0.426039
2894.55,0.426225
2896.16,0.426287
2897.78,0.426445
2899.4,0.426449
2901.03,0.426483
2902.65,0.426662
2904.28,0.426827
2905.91,0.426848
2907.54,0.427027
2909.17,0.427199
2910.8,0.427044
2912.44,0.42702
2914.07,0.427072
2915.71,0.427154
2917.35,0.427316
2918.99,0.42785
2920.64,0.427905
2922.29,0.427826
2923.93,0.427709
2925.58,0.427736
2927.24,0.427905
2928.89,0.427857
2930.55,0.427719
2932.2,0.427898
2933.86,0.428235
2935.52,0.428098
2937.19,0.428053
2938.85,0.428173
2940.52,0.428063
2942.19,0.427974
2943.86,0.428118
2945.53,0.428387
2947.21,0.428383
2948.88,0.428208
2950.56,0.42837
2952.24,0.428728
2953.92,0.428941
2955.61,0.429079
2957.29,0.429299
2958.98,0.429509
2960.67,0.429578
2962.36,0.42932
2964.06,0.429403
2965.75,0.429671
2967.45,0.429757
2969.15,0.429802
2970.85,0.42994
2972.55,0.430098
2974.26,0.430473
2975.97,0.430738
2977.68,0.430807
2979.39,0.430732
2981.1,0.430859
2982.82,0.431355
2984.53,0.431468
2986.25,0.431441
2987.97,0.431678
2989.7,0.431985
2991.42,0.432195
2993.15,0.432484
2994.88,0.432763
2996.61,0.432704
2998.34,0.433031
3000.08,0.433266
3001.82,0.433589
3003.55,0.433754
3005.3,0.43394
3007.04,0.434116
3008.78,0.434374
3010.53,0.434636
3012.28,0.435021
3014.03,0.435232
3015.79,0.435414
3017.54,0.435734
3019.3,0.43603
3021.06,0.436278
3022.82,0.436306
3024.58,0.43635
3026.35,0.436433
3028.12,0.436932
3029.89,0.437435
3031.66,0.437655
3033.43,0.437927
3035.21,0.438048
3036.99,0.438275
3038.77,0.438392
3040.55,0.438792
3042.33,0.439153
3044.12,0.439632
3045.91,0.439931
3047.7,0.439962
3049.49,0.439993
3051.29,0.43999
3053.08,0.44031
3054.88,0.44084
3056.68,0.441119
3058.49,0.441174
3060.29,0.441312
3062.1,0.441715
3063.91,0.442234
3065.72,0.44263
3067.54,0.442651
3069.35,0.442875
3071.17,0.443099
3072.99,0.443488
3074.81,0.443956
3076.64,0.44409
3078.47,0.444338
3080.29,0.444438
3082.13,0.444779
3083.96,0.445044
3085.79,0.445388
3087.63,0.44565
3089.47,0.445936
3091.31,0.445974
3093.16,0.446108
3095.01,0.44638
3096.85,0.446955
3098.71,0.447213
3100.56,0.447278
3102.41,0.447537
3104.27,0.447671
3106.13,0.447943
3107.99,0.448263
3109.86,0.448731
3111.73,0.449048
3113.59,0.449344
3115.47,0.449348
3117.34,0.449509
3119.21,0.449964
3121.09,0.450353
3122.97,0.450381
3124.86,0.450628
3126.74,0.4511
3128.63,0.45131
3130.52,0.451486
3132.41,0.451771
3134.3,0.451954
3136.2,0.452384
3138.1,0.452649
3140.0,0.452873
3141.9,0.453156
3143.81,0.453479
3145.71,0.453861
3147.62,0.454133
3149.54,0.454281
3151.45,0.454564
3153.37,0.454856
3155.29,0.455166
3157.21,0.455466
3159.13,0.455889
3161.06,0.456271
3162.99,0.45633
3164.92,0.456685
3166.85,0.457098
3168.79,0.457304
3170.72,0.457535
3172.67,0.457621
3174.61,0.457742
3176.55,0.458076
3178.5,0.45862
3180.45,0.458929
3182.4,0.459274
3184.36,0.459463
3186.32,0.45967
3188.27,0.459821
3190.24,0.460124
3192.2,0.460403
3194.17,0.460661
3196.14,0.460923
3198.11,0.461226
3200.08,0.461684
3202.06,0.46188
3204.04,0.461856
3206.02,0.461921
3208.0,0.46209
3209.99,0.462283
3211.98,0.462317
3213.97,0.462782
3215.96,0.463199
3217.96,0.463309
3219.96,0.463636
3221.96,0.464097
3223.96,0.464128
3225.97,0.46428
3227.98,0.464521
3229.99,0.464714
3232.0,0.464889
3234.02,0.465202
3236.04,0.465251
3238.06,0.465464
3240.08,0.465695
3242.11,0.465767
3244.14,0.465774
3246.17,0.466029
3248.2,0.46597
3250.24,0.46607
3252.28,0.466507
3254.32,0.467003
3256.37,0.46723
3258.41,0.467272
3260.46,0.467062
3262.51,0.467227
3264.57,0.467482
3266.63,0.467809
3268.69,0.46816
3270.75,0.468404
3272.81,0.468577
3274.88,0.468666
3276.95,0.468821
3279.02,0.469065
3281.1,0.469121
3283.18,0.469355
3285.26,0.46932
3287.34,0.469341
3289.43,0.469737
3291.51,0.470277
3293.61,0.470505
3295.7,0.470291
3297.8,0.470188
3299.9,0.470481
3302.0,0.470756
3304.1,0.470863
3306.21,0.471056
3308.32,0.471341
3310.43,0.471451
3312.55,0.471486
3314.66,0.471555
3316.79,0.471682
3318.91,0.471644
3321.03,0.471672
3323.16,0.471837
3325.29,0.472143
3327.43,0.472178
3329.57,0.472099
3331.71,0.472216
3333.85,0.472164
3335.99,0.47192
3338.14,0.471758
3340.29,0.471572
3342.45,0.471186
3344.6,0.470928
3346.76,0.470735
3348.92,0.470415
3351.09,0.470136
3353.26,0.46953
3355.43,0.469065
3357.6,0.468649
3359.78,0.468198
3361.96,0.467513
3364.14,0.466907
3366.32,0.466325
3368.51,0.465471
3370.7,0.464569
3372.89,0.463873
3375.09,0.463268
3377.29,0.462758
3379.49,0.46262
3381.69,0.462782
3383.9,0.46281
3386.11,0.46294
3388.32,0.462951
3390.54,0.462982
3392.76,0.462734
3394.98,0.462155
3397.21,0.461491
3399.43,0.460727
3401.66,0.459756
3403.9,0.458461
3406.13,0.457029
3408.37,0.455793
3410.61,0.454605
3412.86,0.453417
3415.11,0.452271
3417.36,0.451785
3419.61,0.452143
3421.87,0.453138
3424.13,0.454367
3426.39,0.455845
3428.66,0.457418
3430.93,0.458971
3433.2,0.460152
3435.48,0.461432
3437.76,0.462727
3440.04,0.463632
3442.32,0.464259
3444.61,0.464817
3446.9,0.465354
3449.19,0.466056
3451.49,0.466776
3453.79,0.467334
3456.09,0.467678
3458.4,0.468129
3460.7,0.468508
3463.02,0.468935
3465.33,0.469382
3467.65,0.469678
3469.97,0.469527
3472.29,0.469238
3474.62,0.469141
3476.95,0.469224
3479.29,0.469083
3481.62,0.468924
3483.96,0.469
3486.3,0.469282
3488.65,0.4693
3491.0,0.469162
3493.35,0.468962
3495.71,0.468566
3498.07,0.468005
3500.43,0.467733
3502.79,0.467736
3505.16,0.468298
3507.53,0.469461
3509.91,0.470859
3512.29,0.472426
3514.67,0.474037
3517.05,0.47537
3519.44,0.476668
3521.83,0.477821
3524.23,0.478571
3526.62,0.479264
3529.02,0.480028
3531.43,0.480685
3533.83,0.481405
3536.24,0.481932
3538.66,0.482259
3541.08,0.482565
3543.5,0.483051
3545.92,0.483357
3548.35,0.483688
3550.78,0.484077
3553.21,0.484349
3555.65,0.484535
3558.09,0.484831
3560.53,0.485044
3562.98,0.485423
3565.43,0.48584
3567.88,0.485995
3570.34,0.486084
3572.8,0.486287
3575.27,0.486518
3577.73,0.486838
3580.2,0.486986
3582.68,0.487313
3585.16,0.487485
3587.64,0.487561
3590.12,0.487761
3592.61,0.488084
3595.1,0.488281
3597.6,0.488498
3600.09,0.48858
3602.6,0.488584
3605.1,0.488601
3607.61,0.489024
3610.12,0.489382
3612.64,0.48941
3615.16,0.489572
3617.68,0.489703
3620.21,0.489727
3622.74,0.489823
3625.27,0.489947
3627.81,0.490191
3630.35,0.490415
3632.89,0.490556
3635.44,0.490601
3637.99,0.49057
3640.54,0.490546
3643.1,0.490749
3645.66,0.490921
3648.23,0.491073
3650.8,0.491273
3653.37,0.491476
3655.95,0.491538
3658.53,0.491744
3661.11,0.491823
3663.7,0.491934
3666.29,0.491965
3668.89,0.492095
3671.48,0.492237
3674.09,0.49244
3676.69,0.492464
3679.3,0.49254
3681.91,0.492694
3684.53,0.492781
3687.15,0.492856
3689.78,0.493001
3692.4,0.493149
3695.04,0.493283
3697.67,0.493314
3700.31,0.493545
3702.95,0.493796
3705.6,0.493979
3708.25,0.494006
3710.91,0.494178
3713.56,0.494378
3716.23,0.494526
3718.89,0.49465
3721.56,0.494747
3724.23,0.494898
3726.91,0.494984
3729.59,0.495022
3732.28,0.495294
3734.97,0.495387
3737.66,0.495545
3740.36,0.495556
3743.06,0.495659
3745.76,0.495686
3748.47,0.495883
3751.18,0.496031
3753.9,0.496058
3756.62,0.496237
3759.34,0.496399
3762.07,0.496575
3764.8,0.496774
3767.54,0.496826
3770.28,0.496871
3773.02,0.49696
3775.77,0.49717
3778.52,0.497336
3781.28,0.49757
3784.04,0.497577
3786.8,0.497549
3789.57,0.49769
3792.34,0.497825
3795.12,0.4979
3797.9,0.498004
3800.69,0.49821
3803.47,0.498372
3806.27,0.498492
3809.06,0.498558
3811.86,0.498482
3814.67,0.498568
3817.48,0.49861
3820.29,0.498685
3823.11,0.498716
3825.93,0.498864
3828.76,0.498851
3831.59,0.498809
3834.42,0.498861
3837.26,0.498978
3840.1,0.499005
3842.95,0.499071
3845.8,0.499171
3848.65,0.499288
3851.51,0.499305
3854.38,0.499357
3857.24,0.499419
3860.12,0.499546
3862.99,0.499549
3865.87,0.49958
3868.76,0.499646
3871.65,0.499825
3874.54,0.499794
3877.44,0.499894
3880.34,0.499928
3883.25,0.500042
3886.16,0.500159
3889.07,0.500197
3891.99,0.500159
3894.92,0.500211
3897.85,0.500166
3900.78,0.500369
3903.72,0.500403
3906.66,0.500472
3909.6,0.500524
3912.55,0.500637
3915.51,0.500706
3918.47,0.500789
3921.43,0.500772
3924.4,0.500699
3927.38,0.500775
3930.35,0.50081
3933.33,0.500923
3936.32,0.500999
3939.31,0.500965
3942.31,0.500927
3945.31,0.500785
3948.31,0.500744
3951.32,0.500648
3954.34,0.500579
3957.35,0.500386
3960.38,0.500238
3963.41,0.500131
3966.44,0.500121
3969.48,0.499997
3972.52,0.499994
3975.56,0.499949
3978.61,0.499894
3981.67,0.499801
3984.73,0.499952
3987.8,0.500031
3990.87,0.500231
3993.94,0.500362
3997.02,0.500482
4000.1,0.50071
4003.19,0.500937
4006.29,0.501209
4009.39,0.501701
4012.49,0.501946
4015.6,0.502225
4018.71,0.502459
4021.83,0.502603
4024.95,0.502824
4028.08,0.503096
4031.21,0.503206
4034.35,0.503326
4037.49,0.50354
4040.64,0.503657
4043.79,0.503777
4046.94,0.503987
4050.11,0.504087
4053.27,0.504228
4056.44,0.504228
4059.62,0.504339
4062.8,0.504435
4065.99,0.504511
4069.18,0.504507
4072.38,0.504624
4075.58,0.504655
4078.78,0.504748
4082.0,0.50481
4085.21,0.504924
4088.43,0.505013
4091.66,0.505161
4094.89,0.505227
4098.13,0.505289
4101.37,0.505402
4104.62,0.505489
4107.87,0.505489
4111.13,0.505575
4114.39,0.505623
4117.66,0.505709
4120.93,0.505705
4124.21,0.505736
4127.5,0.505795
4130.79,0.505971
4134.08,0.506012
4137.38,0.506105
4140.68,0.506201
4143.99,0.506236
4147.31,0.506256
4150.63,0.506329
4153.95,0.506315
4157.29,0.506394
4160.62,0.506449
4163.96,0.506597
4167.31,0.506549
4170.66,0.50657
4174.02,0.506594
4177.39,0.506663
4180.75,0.506663
4184.13,0.506728
4187.51,0.506745
4190.89,0.506766
4194.28,0.506797
4197.68,0.506869
4201.08,0.506976
4204.49,0.507083
4207.9,0.507269
4211.32,0.507678
4214.74,0.508126
4218.17,0.508401
4221.61,0.508763
4225.05,0.509121
4228.5,0.509458
4231.95,0.50973
4235.4,0.509933
4238.87,0.509982
4242.34,0.509902
4245.81,0.509596
4249.29,0.509252
4252.78,0.50888
4256.27,0.508353
4259.77,0.507926
4263.27,0.508047
4266.78,0.508642
4270.29,0.50888
4273.81,0.509093
4277.34,0.509276
4280.87,0.509348
4284.41,0.50941
4287.95,0.509434
4291.5,0.509303
4295.06,0.509345
4298.62,0.509403
4302.19,0.5093
4305.76,0.509111
4309.34,0.509086
4312.92,0.509128
4316.52,0.509004
4320.11,0.508677
4323.72,0.508611
4327.32,0.508622
4330.94,0.508598
4334.56,0.508491
4338.19,0.508567
4341.82,0.508567
4345.46,0.508567
4349.11,0.50856
4352.76,0.50858
4356.42,0.508615
4360.08,0.508663
4363.75,0.508587
4367.43,0.50866
4371.11,0.508704
4374.8,0.508801
4378.49,0.508811
4382.19,0.508808
4385.9,0.508842
4389.61,0.508914
4393.33,0.508863
4397.06,0.508859
4400.79,0.508894
4404.53,0.508845
4408.28,0.508752
4412.03,0.508801
4415.79,0.508842
4419.55,0.508866
4423.32,0.508921
4427.1,0.509014
4430.88,0.508832
4434.68,0.508766
4438.47,0.50879
4442.28,0.508883
4446.08,0.508883
4449.9,0.508938
4453.72,0.508907
4457.55,0.50887
4461.39,0.508811
4465.23,0.508835
4469.08,0.508835
4472.94,0.508921
4476.8,0.508911
4480.67,0.508839
4484.55,0.508777
4488.43,0.508787
4492.32,0.50867
4496.21,0.508677
4500.12,0.508594
4504.03,0.508553
4507.94,0.508542
4511.87,0.508553
4515.8,0.508436
4519.73,0.508425
4523.68,0.508415
4527.63,0.50835
4531.59,0.508229
4535.55,0.508184
4539.52,0.508002
4543.5,0.507844
4547.49,0.507661
4551.48,0.507609
4555.48,0.507472
4559.49,0.507379
4563.5,0.507262
4567.52,0.507089
4571.55,0.506842
4575.58,0.506683
4579.63,0.506439
4583.67,0.506167
4587.73,0.505891
4591.79,0.505678
4595.86,0.505313
4599.94,0.504958
4604.03,0.504587
4608.12,0.50429
4612.22,0.503943
4616.33,0.503523
4620.44,0.503023
4624.56,0.502555
4628.69,0.501949
4632.83,0.501446
4636.97,0.500892
4641.12,0.5002
4645.28,0.499532
4649.45,0.498909
4653.62,0.49811
4657.8,0.497318
4661.99,0.496492
4666.19,0.495669
4670.39,0.494633
4674.6,0.493638
4678.82,0.492626
4683.05,0.491679
4687.28,0.49067
4691.52,0.489606
4695.77,0.48846
4700.03,0.487392
4704.3,0.48618
4708.57,0.48501
4712.85,0.483839
4717.14,0.482655
4721.43,0.481477
4725.74,0.480293
4730.05,0.479102
4734.37,0.4779
4738.7,0.47664
4743.03,0.475493
4747.38,0.474254
4751.73,0.473046
4756.09,0.471765
4760.45,0.470543
4764.83,0.469282
4769.21,0.468043
4773.6,0.466666
4778.0,0.465406
4782.41,0.464176
4786.83,0.462961
4791.25,0.461722
4795.68,0.460451
4800.13,0.459105
4804.57,0.457965
4809.03,0.456774
4813.5,0.455548
4817.97,0.45433
4822.45,0.453162
4826.94,0.45193
4831.44,0.450763
4835.95,0.449602
4840.46,0.448539
4844.99,0.44723
4849.52,0.446056
4854.06,0.44492
4858.61,0.443825
4863.17,0.442589
4867.73,0.441343
4872.31,0.440169
4876.89,0.439029
4881.48,0.437855
4886.08,0.43676
4890.69,0.435497
4895.31,0.43414
4899.94,0.432722
4904.57,0.431472
4909.22,0.430108
4913.87,0.428624
4918.53,0.427127
4923.21,0.425519
4927.88,0.423835
4932.57,0.422179
4937.27,0.420399
4941.98,0.418578
4946.69,0.416681
4951.42,0.414791
4956.15,0.412825
4960.9,0.4109
4965.65,0.408989
4970.41,0.407061
4975.18,0.405068
4979.96,0.403264
4984.75,0.401422
4989.54,0.399697
4994.35,0.397986
4999.17,0.396381
5003.99,0.394787
5008.83,0.393255
5013.67,0.391805
5018.52,0.390463
5023.39,0.38911
5028.26,0.387801
5033.14,0.386534
5038.03,0.385291
5042.93,0.384048
5047.84,0.382898
5052.76,0.381752
5057.69,0.380685
5062.63,0.379586
5067.58,0.378591
5072.54,0.377596
5077.51,0.376594
5082.49,0.375661
5087.47,0.374818
5092.47,0.373923
5097.48,0.373076
5102.5,0.372239
5107.52,0.371502
5112.56,0.370724
5117.61,0.36995
5122.66,0.369247
5127.73,0.368658
5132.81,0.368145
5137.89,0.367708
5142.99,0.367247
5148.1,0.366861
5153.22,0.366527
5158.34,0.366331
5163.48,0.366087
5168.63,0.365894
5173.79,0.365801
5178.96,0.365811
5184.13,0.365883
5189.32,0.365976
5194.52,0.36609
5199.73,0.366293
5204.96,0.366524
5210.19,0.366696
5215.43,0.366933
5220.68,0.367171
5225.94,0.367333
5231.22,0.367574
5236.5,0.367674
5241.79,0.36765
5247.1,0.367612
5252.42,0.367622
5257.74,0.367436
5263.08,0.367161
5268.43,0.366837
5273.79,0.366496
5279.16,0.365976
5284.54,0.365401
5289.93,0.364792
5295.34,0.364079
5300.75,0.363191
5306.18,0.362406
5311.61,0.361631
5317.06,0.360771
5322.52,0.359841
5327.99,0.358997
5333.47,0.358309
5338.96,0.357779
5344.47,0.357324
5349.98,0.356956
5355.51,0.35667
5361.05,0.356488
5366.6,0.356646
5372.16,0.356997
5377.73,0.357386
5383.32,0.357954
5388.91,0.358743
5394.52,0.359583
5400.14,0.360519
5405.77,0.36169
5411.41,0.36296
5417.07,0.364348
5422.74,0.36568
5428.41,0.367164
5434.1,0.368545
5439.81,0.370163
5445.52,0.37175
5451.25,0.373317
5456.98,0.37467
5462.73,0.376116
5468.5,0.377545
5474.27,0.378829
5480.06,0.379924
5485.86,0.381105
5491.67,0.3822
5497.49,0.383477
5503.33,0.384637
5509.18,0.385856
5515.04,0.38703
5520.91,0.388321
5526.8,0.389502
5532.69,0.390686
5538.61,0.391757
5544.53,0.392797
5550.47,0.393534
5556.41,0.394123
5562.38,0.394422
5568.35,0.394818
5574.34,0.395173
5580.34,0.395703
5586.35,0.39615
5592.38,0.396863
5598.42,0.397665
5604.47,0.39845
5610.54,0.39917
5616.61,0.400024
5622.71,0.400771
5628.81,0.401552
5634.93,0.402355
5641.06,0.403264
5647.21,0.404049
5653.36,0.404624
5659.54,0.405243
5665.72,0.405825
5671.92,0.406342
5678.13,0.406954
5684.36,0.407171
5690.6,0.407399
5696.85,0.407478
5703.12,0.407478
5709.4,0.407409
5715.69,0.407244
5722.0,0.406579
5728.33,0.406063
5734.66,0.405188
5741.01,0.404321
5747.38,0.403012
5753.76,0.401573
5760.15,0.399793
5766.56,0.398388
5772.98,0.39615
5779.41,0.393613
5785.86,0.391385
5792.33,0.388962
5798.81,0.38629
5805.3,0.383618
5811.81,0.380626
5818.33,0.377875
5824.87,0.374932
5831.42,0.371478
5837.99,0.368049
5844.57,0.36495
5851.17,0.361724
5857.78,0.358536
5864.41,0.355024
5871.05,0.35165
5877.7,0.348317
5884.38,0.345412
5891.06,0.341497
5897.76,0.338632
5904.48,0.335448
5911.21,0.332187
5917.96,0.329574
5924.73,0.32684
5931.5,0.324265
5938.3,0.322044
5945.11,0.3192
5951.93,0.316604
5958.78,0.314514
5965.63,0.312452
5972.51,0.31061
5979.39,0.308517
5986.3,0.306806
5993.22,0.305263
6000.16,0.303469
6007.11,0.302089
6014.08,0.301021
6021.06,0.300023
6028.06,0.299049
6035.08,0.298408
6042.12,0.297912
6049.17,0.297826
6056.23,0.297603
6063.32,0.297217
6070.42,0.297585
6077.53,0.297999
6084.67,0.298288
6091.82,0.298784
6098.98,0.299396
6106.17,0.300078
6113.37,0.300867
6120.58,0.301669
6127.82,0.302251
6135.07,0.303049
6142.34,0.303886
6149.63,0.304726
6156.93,0.305456
6164.25,0.306269
6171.59,0.30693
6178.95,0.307625
6186.32,0.308438
6193.71,0.309044
6201.12,0.309405
6208.54,0.30998
6215.99,0.310417
6223.45,0.310751
6230.93,0.310923
6238.43,0.311178
6245.95,0.311378
6253.48,0.311567
6261.03,0.311719
6268.6,0.311825
6276.19,0.31187
6283.8,0.311915
6291.43,0.311974
6299.07,0.312063
6306.73,0.312032
6314.42,0.31198
6322.12,0.311874
6329.84,0.311822
6337.57,0.311729
6345.33,0.311739
6353.11,0.311195
6360.9,0.310521
6368.72,0.31019
6376.55,0.309629
6384.4,0.308665
6392.27,0.307663
6400.17,0.30652
6408.08,0.305446
6416.01,0.304354
6423.96,0.302251
6431.93,0.300181
6439.92,0.298498
6447.93,0.296219
6455.96,0.294046
6464.01,0.291543
6472.08,0.289216
6480.17,0.286771
6488.28,0.284351
6496.41,0.28203
6504.56,0.27919
6512.73,0.276563
6520.92,0.274938
6529.14,0.273106
6537.37,0.271453
6545.63,0.270214
6553.9,0.269336
6562.2,0.268689
6570.51,0.268358
6578.85,0.268303
6587.21,0.2683
6595.59,0.268702
6603.99,0.269208
6612.42,0.269611
6620.86,0.270217
6629.33,0.270768
6637.82,0.271464
6646.33,0.271774
6654.86,0.271798
6663.41,0.271973
6671.99,0.27207
6680.59,0.272042
6689.21,0.271997
6697.85,0.271701
6706.51,0.271639
6715.2,0.271536
6723.91,0.271212
6732.64,0.270861
6741.4,0.270713
6750.18,0.270548
6758.98,0.270369
6767.8,0.270031
6776.65,0.269849
6785.52,0.269542
6794.41,0.269308
6803.33,0.268751
6812.27,0.268293
6821.23,0.267914
6830.22,0.267539
6839.23,0.266871
6848.26,0.266354
6857.32,0.265982
6866.4,0.26549
6875.51,0.264388
6884.64,0.263369
6893.8,0.262581
6902.98,0.26162
6912.18,0.260515
6921.41,0.259134
6930.66,0.257819
6939.94,0.256525
6949.24,0.255079
6958.57,0.253774
6967.92,0.252335
6977.3,0.250648
6986.7,0.249298
6996.13,0.248055
7005.59,0.246881
7015.07,0.245855
7024.57,0.245039
7034.1,0.244368
7043.66,0.243982
7053.25,0.24381
7062.85,0.243424
7072.49,0.243348
7082.15,0.243324
7091.84,0.243273
7101.55,0.243149
7111.3,0.242963
7121.06,0.242546
7130.86,0.242047
7140.68,0.241458
7150.53,0.240931
7160.41,0.24014
7170.31,0.239327
7180.24,0.238342
7190.2,0.237313
7200.19,0.236421
7210.2,0.235519
7220.24,0.234462
7230.31,0.233467
7240.41,0.232637
7250.54,0.231973
7260.69,0.231481
7270.88,0.231374
7281.09,0.231574
7291.33,0.231949
7301.6,0.23262
7311.9,0.233791
7322.22,0.235282
7332.58,0.237082
7342.97,0.239028
7353.38,0.241031
7363.83,0.243035
7374.3,0.24508
7384.81,0.247036
7395.34,0.248871
7405.91,0.250479
7416.5,0.251928
7427.13,0.253195
7437.78,0.254352
7448.47,0.255316
7459.19,0.256122
7469.94,0.256742
7480.71,0.257186
7491.52,0.257475
7502.37,0.257668
7513.24,0.257716
7524.14,0.257647
7535.08,0.257478
7546.05,0.257248
7557.05,0.256972
7568.08,0.256597
7579.15,0.256142
7590.24,0.255643
7601.37,0.255168
7612.53,0.254693
7623.73,0.254128
7634.96,0.253491
7646.22,0.252762
7657.51,0.25199
7668.84,0.25113
7680.2,0.250128
7691.59,0.248936
7703.02,0.247604
7714.49,0.246123
7725.98,0.244591
7737.52,0.243018
7749.08,0.241352
7760.68,0.239602
7772.32,0.23775
7783.99,0.235874
7795.69,0.234025
7807.43,0.231994
7819.21,0.230031
7831.02,0.228141
7842.87,0.226275
7854.75,0.224405
7866.67,0.222494
7878.62,0.220508
7890.62,0.218535
7902.64,0.216493
7914.71,0.214324
7926.81,0.211993
7938.95,0.209618
7951.13,0.207053
7963.34,0.204457
7975.59,0.201775
7987.88,0.199041
8000.21,0.196176
8012.57,0.193298
8024.98,0.190368
8037.42,0.187366
8049.9,0.18435
8062.42,0.18133
8074.98,0.178094
8087.57,0.174885
8100.21,0.171659
8112.89,0.168443
8125.6,0.165031
8138.36,0.161575
8151.16,0.15797
8163.99,0.154455
8176.87,0.150826
8189.79,0.1472
8202.75,0.14342
8215.75,0.139585
8228.79,0.135845
8241.87,0.132199
8254.99,0.128453
8268.16,0.12469
8281.37,0.120831
8294.62,0.117026
8307.91,0.113125
8321.24,0.10929
8334.62,0.105417
8348.04,0.101722
8361.51,0.098083
8375.02,0.094513
8388.57,0.090949
8402.16,0.087572
8415.8,0.084222
8429.49,0.080968
8443.22,0.07767
8456.99,0.074544
8470.81,0.071483
8484.67,0.068529
8498.58,0.065499
8512.54,0.062631
8526.54,0.059746
8540.58,0.057019
8554.68,0.054299
8568.82,0.051758
8583.0,0.049196
8597.24,0.046879
8611.52,0.044548
8625.85,0.042421
8640.23,0.040338
8654.65,0.038479
8669.12,0.036637
8683.64,0.034994
8698.21,0.033293
8712.83,0.031885
8727.5,0.030532
8742.22,0.029355
8756.99,0.028219
8771.8,0.027334
8786.67,0.026569
8801.59,0.02616
8816.56,0.025678
8831.58,0.025402
8846.65,0.025392
8861.77,0.025609
8876.94,0.025888
8892.17,0.026642
8907.45,0.027564
8922.78,0.028721
8938.16,0.030012
8953.6,0.03171
8969.09,0.033631
8984.64,0.035831
9000.23,0.038134
9015.89,0.040737
9031.59,0.043364
9047.36,0.046098
9063.17,0.048432
9079.05,0.050584
9094.97,0.052305
9110.96,0.053569
9127.0,0.054044
9143.1,0.053941
9159.25,0.053252
9175.46,0.052385
9191.73,0.051204
9208.06,0.050033
9224.44,0.04877
9240.88,0.047702
9257.38,0.046569
9273.94,0.04563
9290.56,0.044758
9307.24,0.044132
9323.98,0.043574
9340.78,0.043288
9357.64,0.042985
9374.57,0.042903
9391.55,0.042906
9408.59,0.043123
9425.7,0.043402
9442.87,0.043915
9460.1,0.044425
9477.4,0.045027
9494.75,0.045633
9512.17,0.046359
9529.66,0.047076
9547.21,0.047878
9564.83,0.048577
9582.5,0.049341
9600.25,0.050037
9618.06,0.050825
9635.94,0.051507
9653.88,0.052278
9671.89,0.052887
9689.97,0.053462
9708.12,0.053889
9726.33,0.054333
9744.62,0.054426
9762.97,0.054323
9781.39,0.053913
9799.88,0.053362
9818.44,0.052471
9837.07,0.051297
9855.77,0.049913
9874.54,0.04846
9893.39,0.047014
9912.3,0.045829
9931.29,0.044838
9950.36,0.044259
9969.49,0.043936
9988.7,0.044053
10007.98,0.04448
10027.34,0.045368
10046.77,0.046284
10066.28,0.047268
10085.87,0.048284
10105.53,0.049462
10125.26,0.05035
10145.08,0.050987
10164.97,0.051221
10184.94,0.051286
10204.99,0.050887
10225.12,0.050219
10245.33,0.049231
10265.61,0.047995
10285.98,0.046569
10306.43,0.04513
10326.96,0.043646
10347.57,0.042376
10368.27,0.041181
10389.05,0.040334
10409.91,0.039931
10430.86,0.039987
10451.88,0.040238
10473.0,0.040923
10494.2,0.041829
10515.49,0.04291
10536.86,0.043922
10558.32,0.044913
10579.87,0.045623
10601.5,0.046266
10623.23,0.046638
10645.04,0.046928
10666.94,0.046972
10688.94,0.046945
10711.02,0.046855
10733.2,0.046704
10755.47,0.046304
10777.83,0.046029
10800.28,0.045661
10822.83,0.045292
10845.47,0.044807
10868.21,0.044407
10891.04,0.043943
10913.97,0.043612
10936.99,0.043374
10960.12,0.043244
10983.34,0.042954
11006.66,0.042758
11030.07,0.042589
11053.59,0.04249
11077.21,0.042221
11100.93,0.041925
11124.75,0.041519
11148.68,0.041312
11172.71,0.040909
11196.84,0.040458
11221.07,0.039921
11245.41,0.039501
11269.86,0.03905
11294.41,0.038596
11319.07,0.038027
11343.84,0.037456
11368.72,0.036709
11393.7,0.03611
11418.8,0.035411
11444.01,0.034867
11469.33,0.034691
11494.76,0.035211
11520.3,0.036192
11545.96,0.037628
11571.73,0.039233
11597.62,0.040803
11623.62,0.042011
11649.74,0.043178
11675.98,0.043884
11702.34,0.044538
11728.81,0.044951
11755.41,0.045179
11782.13,0.045123
11808.96,0.04502
11835.92,0.044786
11863.01,0.044631
11890.22,0.044431
11917.55,0.044283
11945.01,0.044029
11972.6,0.043691
12000.31,0.043306
12028.16,0.042886
12056.13,0.042438
12084.23,0.042025
12112.46,0.041732
12140.83,0.041649
12169.33,0.041436
12197.96,0.041309
12226.73,0.041161
12255.64,0.041133
12284.68,0.041178
12313.86,0.041219
12343.18,0.041198
12372.64,0.041477
12402.24,0.041687
12431.98,0.042118
12461.86,0.042638
12491.89,0.043299
12522.07,0.044001
12552.38,0.044913
12582.85,0.045933
12613.47,0.046955
12644.23,0.047947
12675.15,0.049186
12706.21,0.050453
12737.43,0.051803
12768.81,0.05309
12800.33,0.054647
12832.02,0.056172
12863.86,0.057628
12895.86,0.058837
12928.02,0.06
12960.34,0.060734
12992.82,0.061071
13025.46,0.061123
13058.27,0.060954
13091.25,0.060427
13124.39,0.059897
13157.7,0.059439
13191.18,0.059222
13224.83,0.059267
13258.66,0.059605
13292.65,0.059966
13326.83,0.060424
13361.17,0.060823
13395.7,0.060827
13430.4,0.060541
13465.29,0.060283
13500.35,0.059618
13535.6,0.05852
13571.03,0.056988
13606.65,0.055294
13642.46,0.053431
13678.46,0.051551
13714.64,0.049623
13751.02,0.04784
13787.59,0.046067
13824.36,0.044397
13861.32,0.042906
13898.49,0.041818
13935.85,0.040741
13973.41,0.039883
14011.17,0.039191
14049.15,0.038806
14087.32,0.038458
14125.71,0.038255
14164.3,0.037931
14203.11,0.037769
14242.13,0.037425
14281.36,0.037418
14320.81,0.03728
14360.49,0.036871
14400.38,0.036365
14440.49,0.035931
14480.82,0.035252
14521.39,0.034629
14562.18,0.034134
14603.2,0.033837
14644.45,0.033614
14685.93,0.033789
14727.66,0.033848
14769.62,0.033917
14811.81,0.034068
14854.25,0.034295
14896.94,0.034474
14939.87,0.034753
14983.05,0.035039
15026.48,0.035404
15070.16,0.035418
15114.1,0.035707
15158.29,0.035982
15202.74,0.036299
15247.46,0.036612
15292.43,0.037026
15337.68,0.037125
15383.19,0.037253
15428.97,0.037091
15475.03,0.036723
15521.36,0.036241
15567.97,0.035855
15614.87,0.035321
15662.04,0.035001
15709.5,0.034671
15757.25,0.034244
15805.29,0.033734
15853.62,0.033524
15902.26,0.033221
15951.19,0.032818
16000.42,0.032422
16049.95,0.032257
16099.8,0.032082
16149.95,0.031741
16200.42,0.031493
16251.21,0.031403
16302.31,0.031228
16353.74,0.031224
16405.49,0.030925
16457.57,0.030797
16509.98,0.030553
16562.73,0.030381
16615.82,0.030078
16669.24,0.029727
16723.02,0.029492
16777.14,0.029275
16831.61,0.029306
16886.43,0.029647
16941.62,0.029768
16997.16,0.030005
17053.08,0.030281
17109.36,0.030508
17166.01,0.030735
17223.04,0.031303
17280.45,0.031593
17338.24,0.03235
17396.43,0.032612
17455.0,0.032095
17513.97,0.031923
17573.34,0.032071
17633.11,0.032057
17693.29,0.031944
17753.89,0.031692
17814.9,0.031482
17876.33,0.03129
17938.18,0.031128
18000.47,0.030684
18063.19,0.03016
18126.35,0.029623
18189.95,0.029386
18254.0,0.029107
18318.5,0.02911
18383.46,0.029341
18448.88,0.029999
18514.77,0.030632
18581.13,0.031699
18647.97,0.033245
18715.29,0.035246
18783.1,0.037298
18851.4,0.039467
18920.2,0.04115
18989.51,0.042731
19059.32,0.043543
19129.65,0.043791
19200.5,0.044128
19271.88,0.045117
19343.79,0.046184
19416.24,0.047657
19489.23,0.049599
19562.77,0.052584
19636.88,0.055783
19711.54,0.058675
19786.78,0.061126
19862.59,0.063443
19938.98,0.064955
20015.96,0.06615
20093.55,0.066821
20171.73,0.067589
20250.53,0.067974
20329.94,0.067881
20409.98,0.067757
20490.65,0.067496
20571.96,0.066928
20653.92,0.067007
20736.54,0.066766
20819.82,0.065884
20903.77,0.064793
20988.4,0.063863
21073.72,0.06271
21159.73,0.062056
21246.46,0.061591
21333.89,0.060386
21422.04,0.058537
21510.93,0.057122
21600.56,0.055986
21690.94,0.055025
21782.08,0.053683
21873.99,0.052154
21966.67,0.050749
22060.15,0.049203
22154.42,0.04732
22249.51,0.045939
22345.41,0.044132
22442.14,0.042679
22539.72,0.041326
22638.14,0.04029
22737.43,0.039814
22837.6,0.039739
22938.65,0.039053
23040.6,0.039811
23143.46,0.040296
23247.24,0.040651
23351.96,0.04176
23457.63,0.043306
23564.25,0.045654
23671.85,0.047761
23780.44,0.047237
23890.02,0.04721
24000.63,0.048577
24112.26,0.049131
24224.93,0.049517
24338.66,0.052343
24453.47,0.051806
24569.36,0.050267
24686.36,0.050663
24804.47,0.051782
24923.73,0.05004
25044.13,0.049892
25165.71,0.05256
25288.46,0.054495
25412.43,0.051414
25537.61,0.049011
25664.04,0.051496
25791.72,0.053579
25920.68,0.054523
