Database of Origin,University of Winnipeg Spectrophotometer Facility
Sample Description,Carbonaceous chondrites - RELAB archive 7. Ungrouped chondrites and ATCCs
Other Information,PMO-5c heated to 600C  MT-TXH-022/BKR1MT022 bkr1mt022
Date Added,2018-07-23 23:45:03.552613

Data ID,RLA_MET_38_8        
Sample ID,Tagish Lake
Mineral Name,Tagish Lake
Grain Size,<125 um
Viewing Geometry,30/0;FT>2um
Material Class,C2-unique

Wavelength
305.0,0.02713
310.0,0.02584
315.0,0.02373
320.0,0.02364
325.0,0.02346
330.0,0.02281
335.0,0.02288
340.0,0.0225
345.0,0.02291
350.0,0.02336
355.0,0.02387
360.0,0.02421
365.0,0.02458
370.0,0.02516
375.0,0.02545
380.0,0.0261
385.0,0.02686
390.0,0.02786
395.0,0.02923
400.0,0.02948
405.0,0.02998
410.0,0.03074
415.0,0.0314
420.0,0.03221
425.0,0.03311
430.0,0.03388
435.0,0.03502
440.0,0.03598
445.0,0.03709
450.0,0.03804
455.0,0.03887
460.0,0.0398
465.0,0.04033
470.0,0.04094
475.0,0.04174
480.0,0.04293
485.0,0.04505
490.0,0.04739
495.0,0.05016
500.0,0.05255
505.0,0.05504
510.0,0.05726
515.0,0.05938
520.0,0.06175
525.0,0.06421
530.0,0.06708
535.0,0.07016
540.0,0.07321
545.0,0.0767
550.0,0.08028
555.0,0.08465
560.0,0.08923
565.0,0.09449
570.0,0.10011
575.0,0.10607
580.0,0.11209
585.0,0.11813
590.0,0.12423
595.0,0.13017
600.0,0.13548
605.0,0.14068
610.0,0.14542
615.0,0.14997
620.0,0.15419
625.0,0.15869
630.0,0.16305
635.0,0.16787
640.0,0.17266
645.0,0.17797
650.0,0.18352
655.0,0.18913
660.0,0.19484
665.0,0.20025
670.0,0.20649
675.0,0.21251
680.0,0.21818
685.0,0.22425
690.0,0.22989
695.0,0.23579
700.0,0.24149
705.0,0.24749
710.0,0.25279
715.0,0.25831
720.0,0.26315
725.0,0.26419
730.0,0.26784
735.0,0.27103
740.0,0.27196
745.0,0.27408
750.0,0.27616
755.0,0.27908
760.0,0.28315
765.0,0.28791
770.0,0.29235
775.0,0.29578
780.0,0.29882
785.0,0.30122
790.0,0.30292
795.0,0.30434
800.0,0.30502
805.0,0.30547
810.0,0.30545
815.0,0.30563
820.0,0.30545
825.0,0.30573
830.0,0.30576
835.0,0.3052
840.0,0.30528
845.0,0.30532
850.0,0.30555
855.0,0.30578
860.0,0.3064
865.0,0.30635
870.0,0.30602
875.0,0.3064
880.0,0.30673
885.0,0.30737
890.0,0.3083
895.0,0.30933
900.0,0.31015
905.0,0.31132
910.0,0.31264
915.0,0.31417
920.0,0.31605
925.0,0.31799
930.0,0.3202
935.0,0.32249
940.0,0.32508
945.0,0.32739
950.0,0.33059
955.0,0.33309
960.0,0.33655
965.0,0.33992
970.0,0.34325
975.0,0.34687
980.0,0.35042
985.0,0.35385
990.0,0.35765
995.0,0.36049
1000.0,0.36322
1005.0,0.36629
1010.0,0.36899
1015.0,0.37185
1020.0,0.37452
1025.0,0.37726
1030.0,0.37936
1035.0,0.38117
1040.0,0.38349
1045.0,0.3851
1050.0,0.38689
1055.0,0.38892
1060.0,0.39044
1065.0,0.39198
1070.0,0.39362
1075.0,0.39509
1080.0,0.3967
1085.0,0.3979
1090.0,0.39955
1095.0,0.40132
1100.0,0.40271
1105.0,0.40414
1110.0,0.40574
1115.0,0.4072
1120.0,0.40849
1125.0,0.40978
1130.0,0.41142
1135.0,0.41268
1140.0,0.41423
1145.0,0.41537
1150.0,0.41681
1155.0,0.41814
1160.0,0.4195
1165.0,0.42063
1170.0,0.42194
1175.0,0.42316
1180.0,0.42407
1185.0,0.42529
1190.0,0.42616
1195.0,0.42721
1200.0,0.42824
1205.0,0.42929
1210.0,0.43022
1215.0,0.43107
1220.0,0.43188
1225.0,0.43277
1230.0,0.43345
1235.0,0.43432
1240.0,0.43519
1245.0,0.43596
1250.0,0.43681
1255.0,0.43746
1260.0,0.4381
1265.0,0.43891
1270.0,0.43962
1275.0,0.44006
1280.0,0.44043
1285.0,0.44088
1290.0,0.44169
1295.0,0.44236
1300.0,0.44271
1305.0,0.44342
1310.0,0.444
1315.0,0.44461
1320.0,0.445
1325.0,0.44559
1330.0,0.44628
1335.0,0.44656
1340.0,0.44711
1345.0,0.44734
1350.0,0.44759
1355.0,0.44752
1360.0,0.44789
1365.0,0.44782
1370.0,0.44824
1375.0,0.44843
1380.0,0.44866
1385.0,0.44916
1390.0,0.44854
1395.0,0.44649
1400.0,0.44828
1405.0,0.44942
1410.0,0.44989
1415.0,0.45067
1420.0,0.45139
1425.0,0.45192
1430.0,0.45268
1435.0,0.45331
1440.0,0.45396
1445.0,0.45441
1450.0,0.45494
1455.0,0.45544
1460.0,0.456
1465.0,0.45641
1470.0,0.45687
1475.0,0.45739
1480.0,0.45786
1485.0,0.45847
1490.0,0.45895
1495.0,0.45954
1500.0,0.45996
1505.0,0.46046
1510.0,0.46097
1515.0,0.46133
1520.0,0.46189
1525.0,0.46244
1530.0,0.46282
1535.0,0.46328
1540.0,0.46362
1545.0,0.46424
1550.0,0.46465
1555.0,0.4651
1560.0,0.46557
1565.0,0.46601
1570.0,0.4664
1575.0,0.46687
1580.0,0.4673
1585.0,0.46763
1590.0,0.46807
1595.0,0.46848
1600.0,0.46889
1605.0,0.46935
1610.0,0.46979
1615.0,0.47017
1620.0,0.47053
1625.0,0.47064
1630.0,0.47086
1635.0,0.47121
1640.0,0.47173
1645.0,0.47219
1650.0,0.4726
1655.0,0.47299
1660.0,0.47343
1665.0,0.47406
1670.0,0.47455
1675.0,0.47501
1680.0,0.47553
1685.0,0.47599
1690.0,0.47653
1695.0,0.47695
1700.0,0.4779
1705.0,0.47823
1710.0,0.47884
1715.0,0.47943
1720.0,0.47973
1725.0,0.48055
1730.0,0.48089
1735.0,0.4813
1740.0,0.48192
1745.0,0.48246
1750.0,0.4831
1755.0,0.48376
1760.0,0.48442
1765.0,0.48431
1770.0,0.48535
1775.0,0.48589
1780.0,0.48626
1785.0,0.48708
1790.0,0.48754
1795.0,0.48767
1800.0,0.48812
1805.0,0.48855
1810.0,0.48878
1815.0,0.48923
1820.0,0.48937
1825.0,0.48962
1830.0,0.49014
1835.0,0.49068
1840.0,0.49083
1845.0,0.49141
1850.0,0.49176
1855.0,0.49198
1860.0,0.49187
1865.0,0.49222
1870.0,0.49205
1875.0,0.49156
1880.0,0.49078
1885.0,0.48968
1890.0,0.48826
1895.0,0.48672
1900.0,0.48561
1905.0,0.48457
1910.0,0.48396
1915.0,0.48373
1920.0,0.48423
1925.0,0.48479
1930.0,0.48463
1935.0,0.48559
1940.0,0.48661
1945.0,0.48808
1950.0,0.48817
1955.0,0.48851
1960.0,0.48935
1965.0,0.49055
1970.0,0.49097
1975.0,0.49187
1980.0,0.49244
1985.0,0.49318
1990.0,0.49379
1995.0,0.49375
2000.0,0.4939
2005.0,0.49453
2010.0,0.49507
2015.0,0.49572
2020.0,0.49624
2025.0,0.4968
2030.0,0.49739
2035.0,0.49785
2040.0,0.49835
2045.0,0.49875
2050.0,0.50132
2055.0,0.50168
2060.0,0.50195
2065.0,0.50225
2070.0,0.50263
2075.0,0.50294
2080.0,0.50326
2085.0,0.50349
2090.0,0.50381
2095.0,0.5042
2100.0,0.50438
2105.0,0.50466
2110.0,0.50489
2115.0,0.5051
2120.0,0.50529
2125.0,0.50549
2130.0,0.50555
2135.0,0.50559
2140.0,0.50555
2145.0,0.50529
2150.0,0.50515
2155.0,0.50501
2160.0,0.50498
2165.0,0.50508
2170.0,0.50521
2175.0,0.50546
2180.0,0.5057
2185.0,0.50599
2190.0,0.5062
2195.0,0.50637
2200.0,0.50641
2205.0,0.50646
2210.0,0.50641
2215.0,0.50643
2220.0,0.50635
2225.0,0.50625
2230.0,0.50595
2235.0,0.5055
2240.0,0.50468
2245.0,0.50355
2250.0,0.50171
2255.0,0.49899
2260.0,0.49557
2265.0,0.49314
2270.0,0.49208
2275.0,0.491
2280.0,0.48844
2285.0,0.49751
2290.0,0.49874
2295.0,0.49905
2300.0,0.49919
2305.0,0.49931
2310.0,0.49951
2315.0,0.49953
2320.0,0.49903
2325.0,0.49824
2330.0,0.49734
2335.0,0.49601
2340.0,0.49502
2345.0,0.49433
2350.0,0.49443
2355.0,0.4955
2360.0,0.49622
2365.0,0.49669
2370.0,0.49671
2375.0,0.49662
2380.0,0.49644
2385.0,0.49634
2390.0,0.49639
2395.0,0.4963
2400.0,0.49609
2405.0,0.49576
2410.0,0.49544
2415.0,0.49495
2420.0,0.49445
2425.0,0.49348
2430.0,0.49303
2435.0,0.49236
2440.0,0.49183
2445.0,0.49127
2450.0,0.49092
2455.0,0.49031
2460.0,0.48985
2465.0,0.48945
2470.0,0.48907
2475.0,0.48888
2480.0,0.48862
2485.0,0.48848
2490.0,0.48833
2495.0,0.488
2500.0,0.48748
2505.0,0.48722
2510.0,0.48665
2515.0,0.48633
2520.0,0.48581
2525.0,0.48555
2530.0,0.4855
2535.0,0.4851
