Database of Origin,University of Winnipeg Spectrophotometer Facility
Sample Description,"Zeolites: RELAB + Nicolet spectra, Merged at 2.5 microns; note change in viewing geometry"
Date Added,2018-07-23 23:09:47.899949

Data ID,RLA_ZEO_1_24        
Sample ID,zeo128
Mineral Name,clinoptilolite
Grain Size,<45 um
Viewing Geometry,"30/0,30"
Resolution,5/.6-129 nm

Wavelength
305.0,0.422919
310.0,0.432931
315.0,0.445508
320.0,0.461279
325.0,0.475415
330.0,0.487985
335.0,0.500114
340.0,0.513901
345.0,0.525129
350.0,0.537442
355.0,0.548393
360.0,0.558594
365.0,0.56634
370.0,0.576276
375.0,0.58773
380.0,0.601621
385.0,0.613933
390.0,0.62614
395.0,0.634943
400.0,0.648149
405.0,0.656725
410.0,0.665402
415.0,0.673929
420.0,0.681758
425.0,0.691611
430.0,0.697239
435.0,0.708254
440.0,0.711067
445.0,0.720995
450.0,0.72157
455.0,0.733508
460.0,0.733349
465.0,0.742352
470.0,0.742952
475.0,0.748323
480.0,0.74984
485.0,0.757015
490.0,0.757909
495.0,0.764206
500.0,0.766965
505.0,0.772098
510.0,0.776066
515.0,0.780652
520.0,0.785872
525.0,0.79002
530.0,0.794583
535.0,0.798638
540.0,0.801986
545.0,0.805809
550.0,0.80829
555.0,0.811597
560.0,0.813676
565.0,0.817857
570.0,0.819941
575.0,0.820267
580.0,0.822871
585.0,0.823818
590.0,0.826885
595.0,0.826403
600.0,0.827904
605.0,0.828073
610.0,0.829203
615.0,0.829236
620.0,0.830359
625.0,0.831205
630.0,0.830377
635.0,0.831627
640.0,0.831295
645.0,0.830143
650.0,0.833324
655.0,0.833946
660.0,0.836472
665.0,0.835358
670.0,0.838313
675.0,0.837899
680.0,0.839981
685.0,0.838944
690.0,0.841813
695.0,0.840407
700.0,0.843038
705.0,0.841392
710.0,0.842437
715.0,0.844206
720.0,0.844517
725.0,0.844482
730.0,0.844528
735.0,0.845279
740.0,0.8457
745.0,0.847245
750.0,0.845835
755.0,0.846896
760.0,0.845752
765.0,0.849997
770.0,0.846903
775.0,0.850508
780.0,0.845123
785.0,0.851319
790.0,0.846085
795.0,0.851577
800.0,0.847856
805.0,0.850328
810.0,0.849558
815.0,0.849629
820.0,0.850062
825.0,0.849071
830.0,0.850282
835.0,0.849383
840.0,0.850074
845.0,0.850521
850.0,0.850276
855.0,0.851987
860.0,0.848998
865.0,0.852677
870.0,0.8497
875.0,0.850885
880.0,0.850193
885.0,0.849797
890.0,0.848672
895.0,0.848964
900.0,0.850412
905.0,0.850044
910.0,0.848641
915.0,0.84824
920.0,0.85047
925.0,0.848567
930.0,0.849505
935.0,0.847937
940.0,0.848754
945.0,0.846452
950.0,0.847173
955.0,0.844998
960.0,0.84446
965.0,0.843347
970.0,0.844985
975.0,0.844479
980.0,0.847206
985.0,0.846062
990.0,0.847092
995.0,0.847225
1000.0,0.84705
1005.0,0.84642
1010.0,0.848027
1015.0,0.846616
1020.0,0.848904
1025.0,0.848077
1030.0,0.848461
1035.0,0.847135
1040.0,0.848004
1045.0,0.848319
1050.0,0.847534
1055.0,0.84941
1060.0,0.848999
1065.0,0.847919
1070.0,0.848319
1075.0,0.849032
1080.0,0.848962
1085.0,0.848334
1090.0,0.848599
1095.0,0.848528
1100.0,0.848122
1105.0,0.848753
1110.0,0.847138
1115.0,0.849104
1120.0,0.846215
1125.0,0.849007
1130.0,0.845951
1135.0,0.848484
1140.0,0.844531
1145.0,0.843049
1150.0,0.837977
1155.0,0.837751
1160.0,0.834374
1165.0,0.840334
1170.0,0.839069
1175.0,0.84106
1180.0,0.84252
1185.0,0.843786
1190.0,0.844101
1195.0,0.843629
1200.0,0.844695
1205.0,0.843578
1210.0,0.844985
1215.0,0.845832
1220.0,0.847263
1225.0,0.845988
1230.0,0.847681
1235.0,0.845623
1240.0,0.84651
1245.0,0.845336
1250.0,0.846685
1255.0,0.846301
1260.0,0.846214
1265.0,0.846053
1270.0,0.846395
1275.0,0.846015
1280.0,0.844421
1285.0,0.844941
1290.0,0.845445
1295.0,0.844794
1300.0,0.843965
1305.0,0.843055
1310.0,0.842153
1315.0,0.840274
1320.0,0.84084
1325.0,0.837005
1330.0,0.836048
1335.0,0.83152
1340.0,0.832756
1345.0,0.826163
1350.0,0.824503
1355.0,0.819811
1360.0,0.81772
1365.0,0.818446
1370.0,0.813083
1375.0,0.809253
1380.0,0.798723
1385.0,0.794246
1390.0,0.779893
1395.0,0.762621
1400.0,0.735844
1405.0,0.714908
1410.0,0.69409
1415.0,0.686589
1420.0,0.679798
1425.0,0.686579
1430.0,0.69351
1435.0,0.708155
1440.0,0.718511
1445.0,0.729766
1450.0,0.737054
1455.0,0.742003
1460.0,0.743686
1465.0,0.744704
1470.0,0.74704
1475.0,0.752248
1480.0,0.761891
1485.0,0.768095
1490.0,0.777034
1495.0,0.780134
1500.0,0.786985
1505.0,0.790364
1510.0,0.793915
1515.0,0.795166
1520.0,0.800817
1525.0,0.799571
1530.0,0.803364
1535.0,0.803429
1540.0,0.807165
1545.0,0.808
1550.0,0.809816
1555.0,0.809009
1560.0,0.812531
1565.0,0.810425
1570.0,0.812333
1575.0,0.813323
1580.0,0.815343
1585.0,0.81315
1590.0,0.815648
1595.0,0.817341
1600.0,0.818626
1605.0,0.817194
1610.0,0.817459
1615.0,0.819244
1620.0,0.819966
1625.0,0.819501
1630.0,0.819452
1635.0,0.821488
1640.0,0.819607
1645.0,0.821068
1650.0,0.821173
1655.0,0.823621
1660.0,0.821081
1665.0,0.824114
1670.0,0.82112
1675.0,0.824957
1680.0,0.822104
1685.0,0.825177
1690.0,0.822832
1695.0,0.824175
1700.0,0.821418
1705.0,0.822584
1710.0,0.821247
1715.0,0.820445
1720.0,0.819983
1725.0,0.817268
1730.0,0.817342
1735.0,0.814619
1740.0,0.814075
1745.0,0.811329
1750.0,0.81059
1755.0,0.808314
1760.0,0.807129
1765.0,0.804647
1770.0,0.802898
1775.0,0.800911
1780.0,0.799776
1785.0,0.797816
1790.0,0.795708
1795.0,0.793552
1800.0,0.792412
1805.0,0.79046
1810.0,0.789873
1815.0,0.787628
1820.0,0.786821
1825.0,0.786989
1830.0,0.785188
1835.0,0.78278
1840.0,0.78307
1845.0,0.781719
1850.0,0.777624
1855.0,0.772776
1860.0,0.76596
1865.0,0.756793
1870.0,0.740324
1875.0,0.725096
1880.0,0.695935
1885.0,0.653696
1890.0,0.600635
1895.0,0.538868
1900.0,0.482793
1905.0,0.440673
1910.0,0.416688
1915.0,0.412589
1920.0,0.425488
1925.0,0.45055
1930.0,0.476829
1935.0,0.501299
1940.0,0.520541
1945.0,0.53603
1950.0,0.547839
1955.0,0.557364
1960.0,0.565085
1965.0,0.572836
1970.0,0.580567
1975.0,0.587384
1980.0,0.595537
1985.0,0.602986
1990.0,0.611261
1995.0,0.620081
2000.0,0.629204
2005.0,0.638798
2010.0,0.648068
2015.0,0.657062
2020.0,0.665121
2025.0,0.674137
2030.0,0.681229
2035.0,0.687673
2040.0,0.69314
2045.0,0.698195
2050.0,0.702744
2055.0,0.704475
2060.0,0.708171
2065.0,0.709676
2070.0,0.710385
2075.0,0.712021
2080.0,0.713658
2085.0,0.714803
2090.0,0.716455
2095.0,0.717726
2100.0,0.719634
2105.0,0.721608
2110.0,0.723406
2115.0,0.725357
2120.0,0.726655
2125.0,0.728854
2130.0,0.730828
2135.0,0.731391
2140.0,0.732707
2145.0,0.73451
2150.0,0.735182
2155.0,0.735501
2160.0,0.73547
2165.0,0.735184
2170.0,0.734743
2175.0,0.73408
2180.0,0.732943
2185.0,0.732745
2190.0,0.732198
2195.0,0.731085
2200.0,0.731131
2205.0,0.729319
2210.0,0.728504
2215.0,0.728255
2220.0,0.727488
2225.0,0.727125
2230.0,0.724792
2235.0,0.724499
2240.0,0.723511
2245.0,0.72144
2250.0,0.719358
2255.0,0.717753
2260.0,0.715462
2265.0,0.714012
2270.0,0.711568
2275.0,0.708856
2280.0,0.705433
2285.0,0.702129
2290.0,0.699536
2295.0,0.695897
2300.0,0.69286
2305.0,0.68935
2310.0,0.684227
2315.0,0.679211
2320.0,0.6737
2325.0,0.667974
2330.0,0.662038
2335.0,0.655024
2340.0,0.648662
2345.0,0.641008
2350.0,0.63309
2355.0,0.625184
2360.0,0.61721
2365.0,0.60903
2370.0,0.601606
2375.0,0.593642
2380.0,0.586932
2385.0,0.579302
2390.0,0.573057
2395.0,0.565767
2400.0,0.558887
2405.0,0.551431
2410.0,0.543777
2415.0,0.537264
2420.0,0.53021
2425.0,0.523418
2430.0,0.516143
2435.0,0.509129
2440.0,0.502238
2445.0,0.495035
2450.0,0.487757
2455.0,0.481758
2460.0,0.473737
2465.0,0.467697
2470.0,0.461822
2475.0,0.456779
2480.0,0.456978
2485.0,0.44487
2490.0,0.439411
2495.0,0.433249
2500.0,0.427561
2505.0,0.421085
2510.0,0.41653
2515.0,0.410601
2520.0,0.405727
2525.0,0.401072
2530.0,0.396014
2535.0,0.391972
2540.0,0.389952
2545.0,0.383972
2550.0,0.381979
2555.0,0.379996
2560.0,0.378027
2565.0,0.377315
2570.0,0.373885
2575.0,0.373338
2580.0,0.37159
2581.74,0.370352
2583.03,0.369576
2584.31,0.369071
2585.6,0.368711
2586.89,0.368739
2588.19,0.368069
2589.48,0.36808
2590.77,0.36786
2592.07,0.367467
2593.36,0.366378
2594.66,0.364669
2595.96,0.364552
2597.26,0.365908
2598.56,0.365913
2599.87,0.364852
2601.17,0.363487
2602.48,0.36238
2603.78,0.362159
2605.09,0.361832
2606.4,0.361103
2607.71,0.361412
2609.03,0.360854
2610.34,0.359867
2611.66,0.359071
2612.97,0.358329
2614.29,0.357999
2615.61,0.35793
2616.93,0.356633
2618.25,0.355988
2619.57,0.35567
2620.9,0.354028
2622.22,0.353982
2623.55,0.354474
2624.88,0.353011
2626.21,0.351335
2627.54,0.350462
2628.87,0.350865
2630.21,0.349453
2631.54,0.348163
2632.88,0.348643
2634.21,0.347968
2635.55,0.346331
2636.89,0.34545
2638.24,0.344175
2639.58,0.343714
2640.92,0.342592
2642.27,0.340882
2643.62,0.339936
2644.97,0.339213
2646.32,0.337905
2647.67,0.336407
2649.02,0.335029
2650.38,0.333778
2651.73,0.332837
2653.09,0.331443
2654.45,0.330004
2655.81,0.328362
2657.17,0.326834
2658.53,0.325
2659.89,0.322616
2661.26,0.321056
2662.63,0.319276
2664.0,0.316834
2665.36,0.313743
2666.74,0.311409
2668.11,0.308939
2669.48,0.305008
2670.86,0.296975
2672.23,0.287988
2673.61,0.281784
2674.99,0.276767
2676.37,0.273587
2677.76,0.272095
2679.14,0.271894
2680.52,0.271603
2681.91,0.270689
2683.3,0.26913
2684.69,0.267321
2686.08,0.265024
2687.47,0.262097
2688.87,0.259651
2690.26,0.256966
2691.66,0.253119
2693.06,0.24935
2694.46,0.245382
2695.86,0.241603
2697.26,0.237322
2698.66,0.232716
2700.07,0.228324
2701.48,0.223598
2702.89,0.21858
2704.3,0.213598
2705.71,0.20823
2707.12,0.202503
2708.53,0.196278
2709.95,0.190334
2711.37,0.184597
2712.79,0.179044
2714.21,0.173509
2715.63,0.16745
2717.05,0.161739
2718.48,0.156691
2719.9,0.151478
2721.33,0.145806
2722.76,0.140729
2724.19,0.136188
2725.62,0.131674
2727.06,0.127215
2728.49,0.123124
2729.93,0.119483
2731.37,0.116139
2732.81,0.112646
2734.25,0.109599
2735.69,0.106718
2737.14,0.103444
2738.58,0.100039
2740.03,0.097406
2741.48,0.095313
2742.93,0.093048
2744.38,0.090714
2745.83,0.088753
2747.29,0.086921
2748.75,0.085166
2750.2,0.083664
2751.66,0.082387
2753.13,0.080667
2754.59,0.079379
2756.05,0.078451
2757.52,0.077252
2758.99,0.076584
2760.46,0.075635
2761.93,0.07477
2763.4,0.074121
2764.87,0.073475
2766.35,0.072633
2767.82,0.071708
2769.3,0.071046
2770.78,0.070474
2772.26,0.070015
2773.75,0.069732
2775.23,0.069316
2776.72,0.069207
2778.21,0.068584
2779.7,0.068042
2781.19,0.067242
2782.68,0.066681
2784.18,0.06667
2785.67,0.066673
2787.17,0.066561
2788.67,0.066173
2790.17,0.065807
2791.67,0.065742
2793.18,0.065893
2794.68,0.065839
2796.19,0.065703
2797.7,0.065587
2799.21,0.065572
2800.72,0.065936
2802.24,0.066016
2803.75,0.065648
2805.27,0.065645
2806.79,0.06604
2808.31,0.066153
2809.83,0.065856
2811.35,0.066011
2812.88,0.065985
2814.41,0.065972
2815.93,0.06654
2817.46,0.066958
2819.0,0.066888
2820.53,0.067095
2822.07,0.067136
2823.6,0.067058
2825.14,0.067183
2826.68,0.067435
2828.22,0.067736
2829.77,0.068136
2831.31,0.068285
2832.86,0.068184
2834.41,0.068269
2835.96,0.068807
2837.51,0.069141
2839.07,0.069253
2840.62,0.06941
2842.18,0.069848
2843.74,0.070157
2845.3,0.070036
2846.86,0.070128
2848.43,0.070466
2849.99,0.070652
2851.56,0.070915
2853.13,0.071144
2854.7,0.071342
2856.27,0.071363
2857.85,0.071267
2859.42,0.07174
2861.0,0.072342
2862.58,0.07265
2864.16,0.072627
2865.75,0.072666
2867.33,0.072955
2868.92,0.073195
2870.51,0.073242
2872.1,0.07346
2873.69,0.073959
2875.28,0.074045
2876.88,0.074121
2878.48,0.074242
2880.07,0.074153
2881.68,0.074049
2883.28,0.074268
2884.88,0.074778
2886.49,0.075147
2888.1,0.075155
2889.71,0.074949
2891.32,0.075289
2892.93,0.075697
2894.55,0.075864
2896.16,0.076034
2897.78,0.076328
2899.4,0.076336
2901.03,0.076516
2902.65,0.076577
2904.28,0.076394
2905.91,0.07625
2907.54,0.07642
2909.17,0.07672
2910.8,0.07712
2912.44,0.077296
2914.07,0.077432
2915.71,0.077325
2917.35,0.0774
2918.99,0.077764
2920.64,0.077854
2922.29,0.077733
2923.93,0.077794
2925.58,0.077959
2927.24,0.078196
2928.89,0.07861
2930.55,0.078484
2932.2,0.078607
2933.86,0.078774
2935.52,0.078948
2937.19,0.079134
2938.85,0.079444
2940.52,0.079544
2942.19,0.079617
2943.86,0.079845
2945.53,0.080159
2947.21,0.080245
2948.88,0.080468
2950.56,0.080803
2952.24,0.080861
2953.92,0.081004
2955.61,0.081144
2957.29,0.081331
2958.98,0.081556
2960.67,0.081653
2962.36,0.081758
2964.06,0.081957
2965.75,0.082193
2967.45,0.08247
2969.15,0.083015
2970.85,0.083344
2972.55,0.083281
2974.26,0.083559
2975.97,0.084294
2977.68,0.084932
2979.39,0.085148
2981.1,0.085249
2982.82,0.085373
2984.53,0.085647
2986.25,0.085996
2987.97,0.086161
2989.7,0.086545
2991.42,0.08721
2993.15,0.08768
2994.88,0.087943
2996.61,0.088346
2998.34,0.088492
3000.08,0.088639
3001.82,0.089102
3003.55,0.08945
3005.3,0.089766
3007.04,0.090182
3008.78,0.090531
3010.53,0.091122
3012.28,0.091586
3014.03,0.091876
3015.79,0.092315
3017.54,0.092672
3019.3,0.093057
3021.06,0.09349
3022.82,0.093821
3024.58,0.094046
3026.35,0.094284
3028.12,0.094537
3029.89,0.094995
3031.66,0.095513
3033.43,0.095674
3035.21,0.095555
3036.99,0.095718
3038.77,0.096174
3040.55,0.096497
3042.33,0.096628
3044.12,0.096738
3045.91,0.09676
3047.7,0.09672
3049.49,0.09683
3051.29,0.097155
3053.08,0.097414
3054.88,0.097393
3056.68,0.097343
3058.49,0.097184
3060.29,0.097152
3062.1,0.097387
3063.91,0.097492
3065.72,0.097328
3067.54,0.097213
3069.35,0.09722
3071.17,0.097063
3072.99,0.097092
3074.81,0.097194
3076.64,0.096919
3078.47,0.096696
3080.29,0.096856
3082.13,0.097146
3083.96,0.097173
3085.79,0.097272
3087.63,0.097493
3089.47,0.097709
3091.31,0.097782
3093.16,0.097997
3095.01,0.098492
3096.85,0.098714
3098.71,0.099092
3100.56,0.099555
3102.41,0.099882
3104.27,0.100131
3106.13,0.100339
3107.99,0.100827
3109.86,0.101319
3111.73,0.101849
3113.59,0.102399
3115.47,0.102811
3117.34,0.103349
3119.21,0.10381
3121.09,0.104318
3122.97,0.105019
3124.86,0.105566
3126.74,0.106267
3128.63,0.10705
3130.52,0.10767
3132.41,0.108304
3134.3,0.109002
3136.2,0.109552
3138.1,0.109958
3140.0,0.110779
3141.9,0.111727
3143.81,0.112342
3145.71,0.112718
3147.62,0.113575
3149.54,0.114555
3151.45,0.115129
3153.37,0.115684
3155.29,0.116325
3157.21,0.117112
3159.13,0.118013
3161.06,0.118872
3162.99,0.119818
3164.92,0.1205
3166.85,0.121373
3168.79,0.122287
3170.72,0.122766
3172.67,0.123381
3174.61,0.124419
3176.55,0.125472
3178.5,0.126277
3180.45,0.127094
3182.4,0.128079
3184.36,0.128803
3186.32,0.12945
3188.27,0.130297
3190.24,0.131247
3192.2,0.132391
3194.17,0.133462
3196.14,0.134129
3198.11,0.134945
3200.08,0.136097
3202.06,0.137011
3204.04,0.137757
3206.02,0.138733
3208.0,0.139821
3209.99,0.14085
3211.98,0.141858
3213.97,0.14287
3215.96,0.14381
3217.96,0.144988
3219.96,0.145898
3221.96,0.146654
3223.96,0.147723
3225.97,0.148711
3227.98,0.149662
3229.99,0.150771
3232.0,0.15186
3234.02,0.152917
3236.04,0.153699
3238.06,0.154506
3240.08,0.155679
3242.11,0.156921
3244.14,0.15802
3246.17,0.158866
3248.2,0.159928
3250.24,0.160883
3252.28,0.162043
3254.32,0.163035
3256.37,0.164189
3258.41,0.165497
3260.46,0.166463
3262.51,0.167558
3264.57,0.168641
3266.63,0.169596
3268.69,0.170635
3270.75,0.171765
3272.81,0.172852
3274.88,0.174118
3276.95,0.17517
3279.02,0.176016
3281.1,0.177178
3283.18,0.178562
3285.26,0.17959
3287.34,0.180485
3289.43,0.181711
3291.51,0.183038
3293.61,0.184115
3295.7,0.18509
3297.8,0.18624
3299.9,0.187492
3302.0,0.188628
3304.1,0.18975
3306.21,0.190876
3308.32,0.191962
3310.43,0.193297
3312.55,0.19462
3314.66,0.195764
3316.79,0.196853
3318.91,0.198072
3321.03,0.199179
3323.16,0.199944
3325.29,0.201203
3327.43,0.202694
3329.57,0.203951
3331.71,0.20493
3333.85,0.20595
3335.99,0.207042
3338.14,0.208227
3340.29,0.209585
3342.45,0.210765
3344.6,0.211718
3346.76,0.212924
3348.92,0.21422
3351.09,0.215332
3353.26,0.216353
3355.43,0.217487
3357.6,0.218632
3359.78,0.219753
3361.96,0.220951
3364.14,0.222194
3366.32,0.223181
3368.51,0.224129
3370.7,0.225307
3372.89,0.226466
3375.09,0.227696
3377.29,0.228837
3379.49,0.229887
3381.69,0.23109
3383.9,0.232323
3386.11,0.233628
3388.32,0.234953
3390.54,0.235987
3392.76,0.237201
3394.98,0.238594
3397.21,0.239805
3399.43,0.240808
3401.66,0.24193
3403.9,0.243051
3406.13,0.24406
3408.37,0.245214
3410.61,0.246393
3412.86,0.247487
3415.11,0.248792
3417.36,0.25032
3419.61,0.251608
3421.87,0.25294
3424.13,0.254356
3426.39,0.25583
3428.66,0.257251
3430.93,0.258719
3433.2,0.260001
3435.48,0.261247
3437.76,0.262545
3440.04,0.263882
3442.32,0.265278
3444.61,0.266481
3446.9,0.267852
3449.19,0.269159
3451.49,0.270459
3453.79,0.271818
3456.09,0.273257
3458.4,0.274605
3460.7,0.275995
3463.02,0.277232
3465.33,0.278337
3467.65,0.279339
3469.97,0.280446
3472.29,0.281563
3474.62,0.282616
3476.95,0.283715
3479.29,0.284861
3481.62,0.286081
3483.96,0.28728
3486.3,0.28815
3488.65,0.289273
3491.0,0.290592
3493.35,0.291746
3495.71,0.292867
3498.07,0.293866
3500.43,0.295005
3502.79,0.296272
3505.16,0.29774
3507.53,0.299192
3509.91,0.300634
3512.29,0.301974
3514.67,0.303167
3517.05,0.304309
3519.44,0.30574
3521.83,0.307005
3524.23,0.308145
3526.62,0.309562
3529.02,0.310964
3531.43,0.312333
3533.83,0.313518
3536.24,0.314808
3538.66,0.316112
3541.08,0.317357
3543.5,0.318498
3545.92,0.319553
3548.35,0.320925
3550.78,0.322246
3553.21,0.323202
3555.65,0.324254
3558.09,0.325368
3560.53,0.326496
3562.98,0.327627
3565.43,0.32882
3567.88,0.329867
3570.34,0.330935
3572.8,0.33204
3575.27,0.333241
3577.73,0.334387
3580.2,0.33547
3582.68,0.336591
3585.16,0.337637
3587.64,0.338543
3590.12,0.339551
3592.61,0.340683
3595.1,0.341723
3597.6,0.342731
3600.09,0.343741
3602.6,0.344694
3605.1,0.345785
3607.61,0.34698
3610.12,0.348085
3612.64,0.349011
3615.16,0.34999
3617.68,0.35103
3620.21,0.351966
3622.74,0.352846
3625.27,0.353994
3627.81,0.355127
3630.35,0.356022
3632.89,0.356818
3635.44,0.357606
3637.99,0.358535
3640.54,0.359398
3643.1,0.36026
3645.66,0.361348
3648.23,0.362332
3650.8,0.363086
3653.37,0.363924
3655.95,0.364874
3658.53,0.365983
3661.11,0.367033
3663.7,0.367854
3666.29,0.368543
3668.89,0.369302
3671.48,0.370284
3674.09,0.371225
3676.69,0.372178
3679.3,0.373084
3681.91,0.373847
3684.53,0.37461
3687.15,0.37541
3689.78,0.376258
3692.4,0.377108
3695.04,0.377944
3697.67,0.378723
3700.31,0.379592
3702.95,0.380471
3705.6,0.381278
3708.25,0.381926
3710.91,0.382651
3713.56,0.383325
3716.23,0.384102
3718.89,0.384894
3721.56,0.385517
3724.23,0.386237
3726.91,0.387077
3729.59,0.38786
3732.28,0.388597
3734.97,0.389276
3737.66,0.390051
3740.36,0.390662
3743.06,0.391301
3745.76,0.391906
3748.47,0.392516
3751.18,0.393177
3753.9,0.393907
3756.62,0.394586
3759.34,0.395284
3762.07,0.396073
3764.8,0.396753
3767.54,0.39721
3770.28,0.397706
3773.02,0.398364
3775.77,0.398957
3778.52,0.399524
3781.28,0.400171
3784.04,0.400757
3786.8,0.401411
3789.57,0.401837
3792.34,0.40241
3795.12,0.402939
3797.9,0.403588
3800.69,0.404157
3803.47,0.404536
3806.27,0.405052
3809.06,0.405706
3811.86,0.40619
3814.67,0.406656
3817.48,0.407109
3820.29,0.407719
3823.11,0.408173
3825.93,0.408623
3828.76,0.409139
3831.59,0.409644
3834.42,0.410115
3837.26,0.410524
3840.1,0.410796
3842.95,0.411176
3845.8,0.411584
3848.65,0.412068
3851.51,0.412468
3854.38,0.412955
3857.24,0.41339
3860.12,0.413753
3862.99,0.41408
3865.87,0.414356
3868.76,0.414735
3871.65,0.414957
3874.54,0.415264
3877.44,0.415611
3880.34,0.415998
3883.25,0.416252
3886.16,0.41635
3889.07,0.416519
3891.99,0.416638
3894.92,0.416938
3897.85,0.417268
3900.78,0.417535
3903.72,0.41776
3906.66,0.417962
3909.6,0.418042
3912.55,0.418111
3915.51,0.418177
3918.47,0.418344
3921.43,0.418545
3924.4,0.418576
3927.38,0.418577
3930.35,0.418676
3933.33,0.418729
3936.32,0.418917
3939.31,0.418992
3942.31,0.418956
3945.31,0.418922
3948.31,0.418867
3951.32,0.418948
3954.34,0.419105
3957.35,0.41904
3960.38,0.419071
3963.41,0.418953
3966.44,0.418822
3969.48,0.418712
3972.52,0.418715
3975.56,0.418666
3978.61,0.418485
3981.67,0.418357
3984.73,0.41825
3987.8,0.418093
3990.87,0.417954
3993.94,0.417734
3997.02,0.417614
4000.1,0.417532
4003.19,0.417202
4006.29,0.416842
4009.39,0.416779
4012.49,0.416622
4015.6,0.416265
4018.71,0.415889
4021.83,0.41568
4024.95,0.415345
4028.08,0.414944
4031.21,0.4147
4034.35,0.414497
4037.49,0.414224
4040.64,0.413714
4043.79,0.413248
4046.94,0.412827
4050.11,0.412395
4053.27,0.412084
4056.44,0.411793
4059.62,0.411259
4062.8,0.410578
4065.99,0.410243
4069.18,0.409822
4072.38,0.409322
4075.58,0.408822
4078.78,0.408244
4082.0,0.407813
4085.21,0.407414
4088.43,0.406858
4091.66,0.40629
4094.89,0.40573
4098.13,0.405227
4101.37,0.404701
4104.62,0.404276
4107.87,0.40369
4111.13,0.402963
4114.39,0.402303
4117.66,0.401673
4120.93,0.401129
4124.21,0.400581
4127.5,0.399874
4130.79,0.399343
4134.08,0.398859
4137.38,0.398203
4140.68,0.397579
4143.99,0.396826
4147.31,0.396141
4150.63,0.395561
4153.95,0.394928
4157.29,0.39424
4160.62,0.393437
4163.96,0.392725
4167.31,0.392089
4170.66,0.391484
4174.02,0.390809
4177.39,0.390018
4180.75,0.389338
4184.13,0.388773
4187.51,0.388116
4190.89,0.387401
4194.28,0.386727
4197.68,0.386091
4201.08,0.385326
4204.49,0.38462
4207.9,0.383856
4211.32,0.382979
4214.74,0.382189
4218.17,0.381553
4221.61,0.380961
4225.05,0.380336
4228.5,0.379584
4231.95,0.378972
4235.4,0.378472
4238.87,0.377893
4242.34,0.377269
4245.81,0.376711
4249.29,0.376103
4252.78,0.375428
4256.27,0.374518
4259.77,0.373217
4263.27,0.371817
4266.78,0.371113
4270.29,0.370759
4273.81,0.370521
4277.34,0.370179
4280.87,0.369568
4284.41,0.36886
4287.95,0.368234
4291.5,0.367596
4295.06,0.366998
4298.62,0.366319
4302.19,0.365632
4305.76,0.364962
4309.34,0.364306
4312.92,0.36369
4316.52,0.363134
4320.11,0.362536
4323.72,0.361921
4327.32,0.36131
4330.94,0.360663
4334.56,0.359958
4338.19,0.359254
4341.82,0.358553
4345.46,0.357926
4349.11,0.357316
4352.76,0.356732
4356.42,0.356169
4360.08,0.355447
4363.75,0.354758
4367.43,0.354028
4371.11,0.353332
4374.8,0.352691
4378.49,0.352076
4382.19,0.351446
4385.9,0.350683
4389.61,0.350048
4393.33,0.349428
4397.06,0.34886
4400.79,0.348189
4404.53,0.347499
4408.28,0.346805
4412.03,0.346182
4415.79,0.345565
4419.55,0.344974
4423.32,0.344232
4427.1,0.343664
4430.88,0.343131
4434.68,0.342482
4438.47,0.341914
4442.28,0.341281
4446.08,0.340652
4449.9,0.340089
4453.72,0.339548
4457.55,0.339045
4461.39,0.338503
4465.23,0.338011
4469.08,0.337553
4472.94,0.337022
4476.8,0.336476
4480.67,0.336049
4484.55,0.335653
4488.43,0.335293
4492.32,0.334905
4496.21,0.334458
4500.12,0.334086
4504.03,0.333816
4507.94,0.333529
4511.87,0.333167
4515.8,0.332958
4519.73,0.33276
4523.68,0.332448
4527.63,0.332204
4531.59,0.332027
4535.55,0.331757
4539.52,0.331501
4543.5,0.33132
4547.49,0.331176
4551.48,0.33109
4555.48,0.330998
4559.49,0.330838
4563.5,0.330692
4567.52,0.330563
4571.55,0.330527
4575.58,0.33054
4579.63,0.330373
4583.67,0.330129
4587.73,0.330076
4591.79,0.330084
4595.86,0.329883
4599.94,0.329773
4604.03,0.329737
4608.12,0.329721
4612.22,0.329682
4616.33,0.329684
4620.44,0.329587
4624.56,0.329529
4628.69,0.329495
4632.83,0.32944
4636.97,0.329342
4641.12,0.329292
4645.28,0.32925
4649.45,0.329244
4653.62,0.329164
4657.8,0.329119
4661.99,0.329075
4666.19,0.32903
4670.39,0.32898
4674.6,0.328931
4678.82,0.328889
4683.05,0.328774
4687.28,0.328645
4691.52,0.328583
4695.77,0.328591
4700.03,0.328502
4704.3,0.328362
4708.57,0.3283
4712.85,0.328206
4717.14,0.328174
4721.43,0.32808
4725.74,0.328046
4730.05,0.327894
4734.37,0.327834
4738.7,0.327734
4743.03,0.327543
4747.38,0.327277
4751.73,0.327203
4756.09,0.32707
4760.45,0.326887
4764.83,0.326653
4769.21,0.326399
4773.6,0.326114
4778.0,0.325929
4782.41,0.325856
4786.83,0.325581
4791.25,0.325285
4795.68,0.325088
4800.13,0.324698
4804.57,0.324406
4809.03,0.324251
4813.5,0.324052
4817.97,0.323803
4822.45,0.323515
4826.94,0.323125
4831.44,0.322783
4835.95,0.3224
4840.46,0.32193
4844.99,0.321467
4849.52,0.321055
4854.06,0.320666
4858.61,0.320273
4863.17,0.319635
4867.73,0.318949
4872.31,0.318247
4876.89,0.317478
4881.48,0.316614
4886.08,0.315737
4890.69,0.314761
4895.31,0.313699
4899.94,0.3125
4904.57,0.311244
4909.22,0.309805
4913.87,0.308232
4918.53,0.306685
4923.21,0.305204
4927.88,0.303592
4932.57,0.30192
4937.27,0.30031
4941.98,0.298629
4946.69,0.296916
4951.42,0.295096
4956.15,0.293139
4960.9,0.291079
4965.65,0.289155
4970.41,0.287208
4975.18,0.285037
4979.96,0.282717
4984.75,0.28044
4989.54,0.278353
4994.35,0.27628
4999.17,0.274097
5003.99,0.271992
5008.83,0.270048
5013.67,0.267949
5018.52,0.266025
5023.39,0.264294
5028.26,0.262558
5033.14,0.260692
5038.03,0.259004
5042.93,0.257342
5047.84,0.255685
5052.76,0.254184
5057.69,0.252689
5062.63,0.251129
5067.58,0.249692
5072.54,0.248334
5077.51,0.247146
5082.49,0.246091
5087.47,0.245008
5092.47,0.244008
5097.48,0.243079
5102.5,0.2422
5107.52,0.24144
5112.56,0.240716
5117.61,0.240036
5122.66,0.239362
5127.73,0.238708
5132.81,0.238044
5137.89,0.237468
5142.99,0.236963
5148.1,0.236631
5153.22,0.236358
5158.34,0.236047
5163.48,0.235631
5168.63,0.23527
5173.79,0.234916
5178.96,0.23468
5184.13,0.234526
5189.32,0.234359
5194.52,0.234184
5199.73,0.233974
5204.96,0.233715
5210.19,0.233484
5215.43,0.233137
5220.68,0.232828
5225.94,0.232467
5231.22,0.231902
5236.5,0.231266
5241.79,0.230548
5247.1,0.229632
5252.42,0.228758
5257.74,0.227876
5263.08,0.226885
5268.43,0.225791
5273.79,0.224637
5279.16,0.223432
5284.54,0.222291
5289.93,0.221067
5295.34,0.219826
5300.75,0.218525
5306.18,0.217156
5311.61,0.215718
5317.06,0.214332
5322.52,0.213017
5327.99,0.2116
5333.47,0.210119
5338.96,0.208691
5344.47,0.207217
5349.98,0.205668
5355.51,0.204278
5361.05,0.203213
5366.6,0.202037
5372.16,0.200904
5377.73,0.200006
5383.32,0.199229
5388.91,0.198541
5394.52,0.198026
5400.14,0.197601
5405.77,0.197183
5411.41,0.19668
5417.07,0.196262
5422.74,0.195782
5428.41,0.195445
5434.1,0.195129
5439.81,0.194675
5445.52,0.194171
5451.25,0.19365
5456.98,0.193286
5462.73,0.19292
5468.5,0.192609
5474.27,0.192346
5480.06,0.19199
5485.86,0.191763
5491.67,0.191444
5497.49,0.191014
5503.33,0.190777
5509.18,0.19064
5515.04,0.190396
5520.91,0.190112
5526.8,0.189894
5532.69,0.189797
5538.61,0.189701
5544.53,0.189546
5550.47,0.189392
5556.41,0.189238
5562.38,0.189148
5568.35,0.189136
5574.34,0.189036
5580.34,0.188913
5586.35,0.189015
5592.38,0.189145
5598.42,0.189166
5604.47,0.189149
5610.54,0.18914
5616.61,0.189234
5622.71,0.189295
5628.81,0.189327
5634.93,0.189424
5641.06,0.189405
5647.21,0.189531
5653.36,0.189842
5659.54,0.189714
5665.72,0.189641
5671.92,0.189557
5678.13,0.189556
5684.36,0.18962
5690.6,0.189533
5696.85,0.189355
5703.12,0.189366
5709.4,0.189036
5715.69,0.188682
5722.0,0.188295
5728.33,0.18767
5734.66,0.186863
5741.01,0.186045
5747.38,0.18504
5753.76,0.183904
5760.15,0.182592
5766.56,0.180896
5772.98,0.179348
5779.41,0.177859
5785.86,0.175992
5792.33,0.174087
5798.81,0.171951
5805.3,0.169717
5811.81,0.167303
5818.33,0.164715
5824.87,0.161897
5831.42,0.159109
5837.99,0.156058
5844.57,0.152857
5851.17,0.149572
5857.78,0.146121
5864.41,0.142381
5871.05,0.138615
5877.7,0.134728
5884.38,0.130567
5891.06,0.126319
5897.76,0.122138
5904.48,0.117869
5911.21,0.113626
5917.96,0.109374
5924.73,0.105157
5931.5,0.100897
5938.3,0.096547
5945.11,0.092125
5951.93,0.087846
5958.78,0.083621
5965.63,0.079507
5972.51,0.07544
5979.39,0.07157
5986.3,0.067853
5993.22,0.064325
6000.16,0.060876
6007.11,0.057624
6014.08,0.054606
6021.06,0.05178
6028.06,0.049136
6035.08,0.046705
6042.12,0.044423
6049.17,0.042397
6056.23,0.040546
6063.32,0.038893
6070.42,0.037433
6077.53,0.036174
6084.67,0.035215
6091.82,0.034423
6098.98,0.033779
6106.17,0.03346
6113.37,0.033378
6120.58,0.033541
6127.82,0.034062
6135.07,0.035027
6142.34,0.036525
6149.63,0.038519
6156.93,0.040986
6164.25,0.043824
6171.59,0.047181
6178.95,0.050762
6186.32,0.05454
6193.71,0.058714
6201.12,0.063012
6208.54,0.06709
6215.99,0.071229
6223.45,0.075118
6230.93,0.078905
6238.43,0.08265
6245.95,0.086262
6253.48,0.089677
6261.03,0.093082
6268.6,0.096317
6276.19,0.099351
6283.8,0.102258
6291.43,0.105082
6299.07,0.107681
6306.73,0.11013
6314.42,0.112316
6322.12,0.114461
6329.84,0.116388
6337.57,0.118097
6345.33,0.119572
6353.11,0.121146
6360.9,0.122562
6368.72,0.123554
6376.55,0.124483
6384.4,0.12542
6392.27,0.126168
6400.17,0.126769
6408.08,0.127288
6416.01,0.127741
6423.96,0.128447
6431.93,0.128976
6439.92,0.129319
6447.93,0.129808
6455.96,0.130175
6464.01,0.130496
6472.08,0.130727
6480.17,0.130907
6488.28,0.130973
6496.41,0.130892
6504.56,0.130884
6512.73,0.130756
6520.92,0.130386
6529.14,0.130153
6537.37,0.129861
6545.63,0.129437
6553.9,0.128958
6562.2,0.128555
6570.51,0.128062
6578.85,0.127615
6587.21,0.127301
6595.59,0.12688
6603.99,0.126514
6612.42,0.125993
6620.86,0.125404
6629.33,0.12488
6637.82,0.124192
6646.33,0.123613
6654.86,0.123117
6663.41,0.122371
6671.99,0.121648
6680.59,0.120968
6689.21,0.120235
6697.85,0.119484
6706.51,0.118678
6715.2,0.117749
6723.91,0.116752
6732.64,0.115773
6741.4,0.114907
6750.18,0.113982
6758.98,0.112894
6767.8,0.111785
6776.65,0.110635
6785.52,0.109343
6794.41,0.108079
6803.33,0.106854
6812.27,0.105626
6821.23,0.104383
6830.22,0.103129
6839.23,0.101913
6848.26,0.100625
6857.32,0.099295
6866.4,0.098008
6875.51,0.096793
6884.64,0.095563
6893.8,0.094249
6902.98,0.092955
6912.18,0.091688
6921.41,0.090408
6930.66,0.08916
6939.94,0.08788
6949.24,0.086558
6958.57,0.085228
6967.92,0.084043
6977.3,0.08302
6986.7,0.082093
6996.13,0.081057
7005.59,0.079976
7015.07,0.078901
7024.57,0.07784
7034.1,0.076801
7043.66,0.075697
7053.25,0.074566
7062.85,0.073494
7072.49,0.072355
7082.15,0.071094
7091.84,0.069861
7101.55,0.068704
7111.3,0.067506
7121.06,0.06621
7130.86,0.06491
7140.68,0.063616
7150.53,0.062347
7160.41,0.061026
7170.31,0.059685
7180.24,0.05833
7190.2,0.056882
7200.19,0.055525
7210.2,0.054174
7220.24,0.052703
7230.31,0.051203
7240.41,0.04972
7250.54,0.048327
7260.69,0.046836
7270.88,0.045289
7281.09,0.043807
7291.33,0.042308
7301.6,0.040801
7311.9,0.039327
7322.22,0.037741
7332.58,0.036211
7342.97,0.034765
7353.38,0.033315
7363.83,0.031871
7374.3,0.030503
7384.81,0.029102
7395.34,0.027707
7405.91,0.026288
7416.5,0.024993
7427.13,0.023737
7437.78,0.022415
7448.47,0.021104
7459.19,0.019958
7469.94,0.018757
7480.71,0.017608
7491.52,0.016456
7502.37,0.015337
7513.24,0.014316
7524.14,0.013316
7535.08,0.012308
7546.05,0.01146
7557.05,0.010623
7568.08,0.009929
7579.15,0.009218
7590.24,0.008498
7601.37,0.007817
7612.53,0.007299
7623.73,0.006935
7634.96,0.006587
7646.22,0.006216
7657.51,0.005996
7668.84,0.005833
7680.2,0.005841
7691.59,0.00591
7703.02,0.006184
7714.49,0.006553
7725.98,0.006991
7737.52,0.007581
7749.08,0.008409
7760.68,0.009379
7772.32,0.01051
7783.99,0.011887
7795.69,0.013619
7807.43,0.015582
7819.21,0.017734
7831.02,0.019969
7842.87,0.022672
7854.75,0.025719
7866.67,0.029036
7878.62,0.032607
7890.62,0.036585
7902.64,0.040819
7914.71,0.045247
7926.81,0.0499
7938.95,0.054711
7951.13,0.059609
7963.34,0.064585
7975.59,0.069607
7987.88,0.07448
8000.21,0.079065
8012.57,0.083376
8024.98,0.087309
8037.42,0.090699
8049.9,0.093297
8062.42,0.095061
8074.98,0.096006
8087.57,0.096137
8100.21,0.095335
8112.89,0.093781
8125.6,0.091645
8138.36,0.089007
8151.16,0.086202
8163.99,0.083375
8176.87,0.08057
8189.79,0.077914
8202.75,0.0757
8215.75,0.073803
8228.79,0.071991
8241.87,0.070465
8254.99,0.069277
8268.16,0.068223
8281.37,0.067304
8294.62,0.066569
8307.91,0.06597
8321.24,0.065485
8334.62,0.065059
8348.04,0.064674
8361.51,0.064357
8375.02,0.064072
8388.57,0.063858
8402.16,0.063637
8415.8,0.063328
8429.49,0.063146
8443.22,0.063112
8456.99,0.062996
8470.81,0.062824
8484.67,0.062792
8498.58,0.062774
8512.54,0.062724
8526.54,0.062781
8540.58,0.062798
8554.68,0.062756
8568.82,0.062687
8583.0,0.062729
8597.24,0.062886
8611.52,0.062996
8625.85,0.063023
8640.23,0.063048
8654.65,0.063287
8669.12,0.063735
8683.64,0.0642
8698.21,0.064546
8712.83,0.064805
8727.5,0.06509
8742.22,0.065517
8756.99,0.065935
8771.8,0.066416
8786.67,0.066812
8801.59,0.067209
8816.56,0.067715
8831.58,0.068366
8846.65,0.069058
8861.77,0.069696
8876.94,0.070282
8892.17,0.071013
8907.45,0.071802
8922.78,0.072502
8938.16,0.073299
8953.6,0.074054
8969.09,0.074925
8984.64,0.075851
9000.23,0.076637
9015.89,0.077299
9031.59,0.077853
9047.36,0.078351
9063.17,0.078719
9079.05,0.078901
9094.97,0.078987
9110.96,0.078974
9127.0,0.078757
9143.1,0.078345
9159.25,0.077747
9175.46,0.076993
9191.73,0.075903
9208.06,0.074721
9224.44,0.07348
9240.88,0.072117
9257.38,0.070746
9273.94,0.069521
9290.56,0.068269
9307.24,0.067014
9323.98,0.065776
9340.78,0.064545
9357.64,0.063329
9374.57,0.062221
9391.55,0.061339
9408.59,0.060471
9425.7,0.059465
9442.87,0.058673
9460.1,0.058121
9477.4,0.05759
9494.75,0.056984
9512.17,0.056331
9529.66,0.055736
9547.21,0.055342
9564.83,0.054857
9582.5,0.054494
9600.25,0.054093
9618.06,0.053514
9635.94,0.053075
9653.88,0.052771
9671.89,0.05242
9689.97,0.052002
9708.12,0.051657
9726.33,0.051326
9744.62,0.051073
9762.97,0.050864
9781.39,0.050576
9799.88,0.050324
9818.44,0.050109
9837.07,0.049999
9855.77,0.049901
9874.54,0.049798
9893.39,0.049717
9912.3,0.049613
9931.29,0.049524
9950.36,0.049631
9969.49,0.049636
9988.7,0.049659
10007.98,0.049706
10027.34,0.049668
10046.77,0.049766
10066.28,0.049796
10085.87,0.04988
10105.53,0.050168
10125.26,0.05035
10145.08,0.050482
10164.97,0.05062
10184.94,0.050952
10204.99,0.051358
10225.12,0.051674
10245.33,0.051978
10265.61,0.052219
10285.98,0.052858
10306.43,0.053805
10326.96,0.05453
10347.57,0.05533
10368.27,0.056359
10389.05,0.05742
10409.91,0.058358
10430.86,0.059515
10451.88,0.060842
10473.0,0.062182
10494.2,0.063684
10515.49,0.065258
10536.86,0.066857
10558.32,0.068502
10579.87,0.070279
10601.5,0.072143
10623.23,0.073925
10645.04,0.07583
10666.94,0.077743
10688.94,0.079476
10711.02,0.081222
10733.2,0.082842
10755.47,0.084707
10777.83,0.086479
10800.28,0.087919
10822.83,0.089476
10845.47,0.091106
10868.21,0.092559
10891.04,0.094037
10913.97,0.0956
10936.99,0.096794
10960.12,0.098011
10983.34,0.09928
11006.66,0.100177
11030.07,0.100918
11053.59,0.101785
11077.21,0.102525
11100.93,0.103066
11124.75,0.103658
11148.68,0.104232
11172.71,0.104559
11196.84,0.104673
11221.07,0.104788
11245.41,0.104912
11269.86,0.104933
11294.41,0.104901
11319.07,0.104779
11343.84,0.104495
11368.72,0.104294
11393.7,0.104084
11418.8,0.103838
11444.01,0.103804
11469.33,0.103766
11494.76,0.103583
11520.3,0.103349
11545.96,0.1033
11571.73,0.10331
11597.62,0.103337
11623.62,0.103203
11649.74,0.102705
11675.98,0.102381
11702.34,0.102167
11728.81,0.101732
11755.41,0.101143
11782.13,0.100405
11808.96,0.09963
11835.92,0.09894
11863.01,0.098055
11890.22,0.096789
11917.55,0.09539
11945.01,0.093836
11972.6,0.09202
12000.31,0.090039
12028.16,0.087803
12056.13,0.085082
12084.23,0.082005
12112.46,0.078596
12140.83,0.074948
12169.33,0.0708
12197.96,0.066369
12226.73,0.062227
12255.64,0.058171
12284.68,0.054341
12313.86,0.0509
12343.18,0.047854
12372.64,0.045187
12402.24,0.042925
12431.98,0.041311
12461.86,0.040136
12491.89,0.03955
12522.07,0.039382
12552.38,0.039298
12582.85,0.039388
12613.47,0.03968
12644.23,0.039942
12675.15,0.04011
12706.21,0.040058
12737.43,0.039989
12768.81,0.040031
12800.33,0.039935
12832.02,0.039819
12863.86,0.03999
12895.86,0.040267
12928.02,0.040494
12960.34,0.040793
12992.82,0.041096
13025.46,0.041271
13058.27,0.041295
13091.25,0.041292
13124.39,0.041094
13157.7,0.040864
13191.18,0.040657
13224.83,0.040241
13258.66,0.039644
13292.65,0.039288
13326.83,0.038976
13361.17,0.038595
13395.7,0.038299
13430.4,0.038139
13465.29,0.038074
13500.35,0.037742
13535.6,0.037513
13571.03,0.037553
13606.65,0.037467
13642.46,0.037382
13678.46,0.037325
13714.64,0.037383
13751.02,0.037312
13787.59,0.037038
13824.36,0.036909
13861.32,0.03694
13898.49,0.037178
13935.85,0.037215
13973.41,0.037081
14011.17,0.037014
14049.15,0.037058
14087.32,0.037064
14125.71,0.036896
14164.3,0.036708
14203.11,0.036535
14242.13,0.036205
14281.36,0.035894
14320.81,0.035608
14360.49,0.035232
14400.38,0.034671
14440.49,0.034401
14480.82,0.034575
14521.39,0.034339
14562.18,0.033884
14603.2,0.033612
14644.45,0.033206
14685.93,0.033052
14727.66,0.032891
14769.62,0.032879
14811.81,0.033005
14854.25,0.033192
14896.94,0.033107
14939.87,0.033107
14983.05,0.033263
15026.48,0.033332
15070.16,0.032994
15114.1,0.032601
15158.29,0.032578
15202.74,0.032416
15247.46,0.032
15292.43,0.031743
15337.68,0.031581
15383.19,0.031437
15428.97,0.030868
15475.03,0.030319
15521.36,0.029877
15567.97,0.029625
15614.87,0.029448
15662.04,0.029341
15709.5,0.029137
15757.25,0.02901
15805.29,0.02944
15853.62,0.029832
15902.26,0.030146
15951.19,0.030767
16000.42,0.031685
16049.95,0.03246
16099.8,0.033222
16149.95,0.034399
16200.42,0.035592
16251.21,0.03694
16302.31,0.038058
16353.74,0.03899
16405.49,0.039952
16457.57,0.040754
16509.98,0.041178
16562.73,0.041164
16615.82,0.041102
16669.24,0.041122
16723.02,0.041104
16777.14,0.040809
16831.61,0.040426
16886.43,0.040133
16941.62,0.040078
16997.16,0.039992
17053.08,0.039757
17109.36,0.039479
17166.01,0.039396
17223.04,0.039392
17280.45,0.03962
17338.24,0.039359
17396.43,0.03873
17455.0,0.038189
17513.97,0.037963
17573.34,0.038018
17633.11,0.037658
17693.29,0.037252
17753.89,0.037127
17814.9,0.036836
17876.33,0.036254
17938.18,0.035762
18000.47,0.035184
18063.19,0.035051
18126.35,0.03497
18189.95,0.034833
18254.0,0.03454
18318.5,0.034389
18383.46,0.034556
18448.88,0.034422
18514.77,0.035189
18581.13,0.036373
18647.97,0.038053
18715.29,0.040115
18783.1,0.041793
18851.4,0.043229
18920.2,0.044281
18989.51,0.045041
19059.32,0.045242
19129.65,0.045027
19200.5,0.044849
19271.88,0.044525
19343.79,0.044384
19416.24,0.044195
19489.23,0.044347
19562.77,0.044893
19636.88,0.045441
19711.54,0.047165
19786.78,0.050071
19862.59,0.053713
19938.98,0.057495
20015.96,0.062734
20093.55,0.069395
20171.73,0.076325
20250.53,0.083391
20329.94,0.09019
20409.98,0.097134
20490.65,0.103488
20571.96,0.108722
20653.92,0.113061
20736.54,0.116649
20819.82,0.119337
20903.77,0.120295
20988.4,0.12084
21073.72,0.120606
21159.73,0.119517
21246.46,0.118604
21333.89,0.116673
21422.04,0.114375
21510.93,0.112527
21600.56,0.111404
21690.94,0.110233
21782.08,0.108376
21873.99,0.106964
21966.67,0.106543
22060.15,0.104807
22154.42,0.102553
22249.51,0.101161
22345.41,0.100182
22442.14,0.097987
22539.72,0.095498
22638.14,0.093423
22737.43,0.090945
22837.6,0.08923
22938.65,0.08783
23040.6,0.085943
23143.46,0.083977
23247.24,0.081376
23351.96,0.079701
23457.63,0.079638
23564.25,0.079118
23671.85,0.078291
23780.44,0.078584
23890.02,0.078251
24000.63,0.077281
24112.26,0.07745
24224.93,0.077853
24338.66,0.077919
24453.47,0.078615
24569.36,0.081081
24686.36,0.082624
24804.47,0.083189
24923.73,0.083829
25044.13,0.084098
25165.71,0.084158
25288.46,0.084423
25412.43,0.085737
25537.61,0.087016
25664.04,0.084821
25791.72,0.083135
25920.68,0.084815
