Database of Origin,University of Winnipeg Spectrophotometer Facility
Sample Description,Merged RELAB + Nicolet data for hydroxides. See Master Hydroxides on HOSERLab website for additional info.
Date Added,2016-11-29 18:11:56.275993

Data ID,RLA_HYD_06          
Sample ID,OOH003
Mineral Name,Goethite
Grain Size,45-90
Viewing Geometry,"30/0,30"
Resolution,5/0.6-129
Material Class,Hydroxide

Wavelength
320.0,0.05055
325.0,0.050042
330.0,0.049926
335.0,0.048618
340.0,0.049666
345.0,0.049788
350.0,0.050678
355.0,0.051007
360.0,0.052577
365.0,0.054321
370.0,0.055546
375.0,0.057098
380.0,0.057441
385.0,0.057873
390.0,0.057747
395.0,0.057355
400.0,0.057426
405.0,0.057394
410.0,0.05768
415.0,0.057378
420.0,0.056903
425.0,0.057492
430.0,0.058305
435.0,0.058719
440.0,0.059535
445.0,0.060661
450.0,0.060869
455.0,0.060524
460.0,0.060247
465.0,0.06016
470.0,0.060148
475.0,0.060314
480.0,0.060663
485.0,0.061685
490.0,0.062446
495.0,0.063115
500.0,0.064459
505.0,0.066615
510.0,0.068707
515.0,0.071569
520.0,0.074249
525.0,0.078238
530.0,0.082571
535.0,0.087032
540.0,0.092072
545.0,0.096771
550.0,0.101913
555.0,0.105897
560.0,0.109457
565.0,0.11206
570.0,0.113854
575.0,0.11494
580.0,0.115679
585.0,0.115552
590.0,0.115433
595.0,0.115709
600.0,0.115232
605.0,0.115374
610.0,0.115016
615.0,0.114735
620.0,0.113991
625.0,0.113664
630.0,0.112789
635.0,0.112709
640.0,0.112487
645.0,0.112006
650.0,0.111758
655.0,0.111917
660.0,0.111473
665.0,0.11138
670.0,0.111325
675.0,0.111646
680.0,0.111668
685.0,0.112568
690.0,0.112971
695.0,0.113467
700.0,0.113815
705.0,0.114124
710.0,0.114149
715.0,0.115134
720.0,0.116246
725.0,0.116829
730.0,0.116769
735.0,0.11786
740.0,0.117811
745.0,0.118317
750.0,0.118595
755.0,0.119362
760.0,0.118914
765.0,0.119419
770.0,0.119058
775.0,0.11873
780.0,0.11834
785.0,0.117527
790.0,0.116438
795.0,0.115782
800.0,0.115008
805.0,0.114294
810.0,0.113775
815.0,0.112405
820.0,0.112315
825.0,0.111182
830.0,0.110702
835.0,0.110206
840.0,0.109362
845.0,0.108246
850.0,0.107781
855.0,0.106713
860.0,0.106951
865.0,0.105623
870.0,0.105654
875.0,0.105301
880.0,0.105473
885.0,0.103712
890.0,0.104144
895.0,0.104275
900.0,0.104716
905.0,0.103305
910.0,0.103159
915.0,0.10384
920.0,0.103374
925.0,0.103774
930.0,0.103584
935.0,0.10404
940.0,0.104015
945.0,0.103775
950.0,0.104075
955.0,0.103707
960.0,0.104279
965.0,0.10384
970.0,0.104704
975.0,0.104841
980.0,0.105469
985.0,0.105084
990.0,0.10556
995.0,0.105633
1000.0,0.106005
1005.0,0.105524
1010.0,0.106577
1015.0,0.106772
1020.0,0.10758
1025.0,0.108278
1030.0,0.109308
1035.0,0.109429
1040.0,0.10993
1045.0,0.110608
1050.0,0.111674
1055.0,0.111608
1060.0,0.112795
1065.0,0.113018
1070.0,0.114156
1075.0,0.115621
1080.0,0.116195
1085.0,0.117025
1090.0,0.118479
1095.0,0.119022
1100.0,0.120754
1105.0,0.121557
1110.0,0.123096
1115.0,0.123886
1120.0,0.126182
1125.0,0.127646
1130.0,0.129239
1135.0,0.130504
1140.0,0.132205
1145.0,0.133562
1150.0,0.135048
1155.0,0.136072
1160.0,0.138185
1165.0,0.13876
1170.0,0.140995
1175.0,0.141821
1180.0,0.144043
1185.0,0.144908
1190.0,0.146892
1195.0,0.147862
1200.0,0.149239
1205.0,0.150269
1210.0,0.151034
1215.0,0.15285
1220.0,0.15439
1225.0,0.154181
1230.0,0.155516
1235.0,0.155943
1240.0,0.157135
1245.0,0.157866
1250.0,0.159365
1255.0,0.159819
1260.0,0.161348
1265.0,0.161112
1270.0,0.162282
1275.0,0.162798
1280.0,0.163872
1285.0,0.163464
1290.0,0.164636
1295.0,0.164721
1300.0,0.166291
1305.0,0.166311
1310.0,0.167484
1315.0,0.167443
1320.0,0.168801
1325.0,0.168918
1330.0,0.169723
1335.0,0.170362
1340.0,0.171221
1345.0,0.1712
1350.0,0.171682
1355.0,0.171403
1360.0,0.172422
1365.0,0.173566
1370.0,0.174139
1375.0,0.173516
1380.0,0.174387
1385.0,0.176666
1390.0,0.176681
1395.0,0.175836
1400.0,0.176317
1405.0,0.177303
1410.0,0.1789
1415.0,0.178832
1420.0,0.179709
1425.0,0.180379
1430.0,0.181279
1435.0,0.181654
1440.0,0.182801
1445.0,0.182032
1450.0,0.183062
1455.0,0.184062
1460.0,0.184665
1465.0,0.184986
1470.0,0.185927
1475.0,0.186555
1480.0,0.18783
1485.0,0.188294
1490.0,0.189317
1495.0,0.189411
1500.0,0.190267
1505.0,0.190629
1510.0,0.192782
1515.0,0.193109
1520.0,0.192695
1525.0,0.194089
1530.0,0.193278
1535.0,0.19535
1540.0,0.195902
1545.0,0.196846
1550.0,0.196751
1555.0,0.197709
1560.0,0.197953
1565.0,0.199207
1570.0,0.198291
1575.0,0.199561
1580.0,0.199422
1585.0,0.200035
1590.0,0.199844
1595.0,0.201388
1600.0,0.201493
1605.0,0.201438
1610.0,0.201004
1615.0,0.201837
1620.0,0.20251
1625.0,0.201486
1630.0,0.201724
1635.0,0.202033
1640.0,0.201944
1645.0,0.202389
1650.0,0.203138
1655.0,0.202546
1660.0,0.202403
1665.0,0.204137
1670.0,0.205176
1675.0,0.20509
1680.0,0.206223
1685.0,0.20603
1690.0,0.20685
1695.0,0.207709
1700.0,0.209384
1705.0,0.209733
1710.0,0.210382
1715.0,0.210038
1720.0,0.211463
1725.0,0.211283
1730.0,0.212502
1735.0,0.211706
1740.0,0.211958
1745.0,0.211926
1750.0,0.212588
1755.0,0.211041
1760.0,0.214311
1765.0,0.212928
1770.0,0.215025
1775.0,0.214707
1780.0,0.216333
1785.0,0.215626
1790.0,0.21912
1795.0,0.219063
1800.0,0.220202
1805.0,0.22066
1810.0,0.222876
1815.0,0.22255
1820.0,0.224571
1825.0,0.226338
1830.0,0.228296
1835.0,0.227302
1840.0,0.23089
1845.0,0.232679
1850.0,0.234076
1855.0,0.235796
1860.0,0.236095
1865.0,0.237101
1870.0,0.235343
1875.0,0.239981
1880.0,0.244625
1885.0,0.239695
1890.0,0.243663
1895.0,0.243039
1900.0,0.24338
1905.0,0.244813
1910.0,0.247299
1915.0,0.244976
1920.0,0.247146
1925.0,0.246828
1930.0,0.248966
1935.0,0.247949
1940.0,0.250267
1945.0,0.25041
1950.0,0.253396
1955.0,0.251965
1960.0,0.254028
1965.0,0.254257
1970.0,0.256964
1975.0,0.256028
1980.0,0.258675
1985.0,0.256888
1990.0,0.261159
1995.0,0.260717
2000.0,0.263365
2005.0,0.264621
2010.0,0.267443
2015.0,0.267587
2020.0,0.270749
2025.0,0.270917
2030.0,0.27611
2035.0,0.278498
2040.0,0.280761
2045.0,0.281647
2050.0,0.284088
2055.0,0.283303
2060.0,0.288643
2065.0,0.288386
2070.0,0.292305
2075.0,0.290186
2080.0,0.295204
2085.0,0.295887
2090.0,0.298824
2095.0,0.299121
2100.0,0.302369
2105.0,0.303275
2110.0,0.306134
2115.0,0.306299
2120.0,0.308889
2125.0,0.307846
2130.0,0.310752
2135.0,0.311749
2140.0,0.312291
2145.0,0.311702
2150.0,0.31572
2155.0,0.315124
2160.0,0.316462
2165.0,0.315877
2170.0,0.315782
2175.0,0.315372
2180.0,0.31847
2185.0,0.316846
2190.0,0.317973
2195.0,0.316513
2200.0,0.317751
2205.0,0.317159
2210.0,0.319178
2215.0,0.316382
2220.0,0.31827
2225.0,0.313033
2230.0,0.315845
2235.0,0.3155
2240.0,0.315718
2245.0,0.310784
2250.0,0.313262
2255.0,0.312475
2260.0,0.314032
2265.0,0.306834
2270.0,0.31129
2275.0,0.309486
2280.0,0.311002
2285.0,0.306676
2290.0,0.310358
2295.0,0.308283
2300.0,0.310214
2305.0,0.309108
2310.0,0.309957
2315.0,0.306118
2320.0,0.307866
2325.0,0.304485
2330.0,0.306008
2335.0,0.299786
2340.0,0.302626
2345.0,0.299842
2350.0,0.299478
2355.0,0.298345
2360.0,0.295948
2365.0,0.292805
2370.0,0.292905
2375.0,0.287042
2380.0,0.28719
2385.0,0.276912
2390.0,0.275441
2395.0,0.268341
2400.0,0.263904
2405.0,0.25829
2410.0,0.255513
2415.0,0.25256
2420.0,0.251613
2425.0,0.249758
2430.0,0.254086
2435.0,0.252313
2440.0,0.256507
2445.0,0.25665
2450.0,0.256778
2455.0,0.259508
2460.0,0.258472
2465.0,0.259126
2470.0,0.259486
2475.0,0.256636
2480.0,0.260136
2485.0,0.258043
2490.0,0.256533
2495.0,0.254683
2500.0,0.255722
2502.0,0.255126
2503.2,0.254266
2504.41,0.254351
2505.62,0.253954
2506.83,0.253763
2508.05,0.255452
2509.26,0.257221
2510.48,0.257107
2511.69,0.257606
2512.91,0.257575
2514.13,0.255854
2515.35,0.255337
2516.57,0.255726
2517.79,0.256163
2519.02,0.255302
2520.24,0.256225
2521.47,0.25762
2522.69,0.257655
2523.92,0.257835
2525.15,0.25883
2526.38,0.260441
2527.61,0.262289
2528.85,0.262229
2530.08,0.261115
2531.32,0.260575
2532.55,0.261363
2533.79,0.261713
2535.03,0.261927
2536.27,0.262069
2537.51,0.262518
2538.75,0.262475
2540.0,0.263665
2541.24,0.264744
2542.49,0.265706
2543.74,0.266139
2544.99,0.266939
2546.24,0.267031
2547.49,0.266246
2548.74,0.266357
2549.99,0.267021
2551.25,0.266954
2552.5,0.267947
2553.76,0.269255
2555.02,0.269653
2556.28,0.269442
2557.54,0.270316
2558.8,0.271205
2560.07,0.271523
2561.33,0.271741
2562.6,0.273221
2563.86,0.273289
2565.13,0.273289
2566.4,0.274414
2567.67,0.275058
2568.95,0.274569
2570.22,0.27532
2571.5,0.27657
2572.77,0.275534
2574.05,0.275086
2575.33,0.275139
2576.61,0.274937
2577.89,0.275591
2579.17,0.275898
2580.46,0.274663
2581.74,0.27441
2583.03,0.27482
2584.31,0.274008
2585.6,0.275319
2586.89,0.274886
2588.19,0.27483
2589.48,0.275817
2590.77,0.276383
2592.07,0.275771
2593.36,0.275489
2594.66,0.274364
2595.96,0.274436
2597.26,0.275433
2598.56,0.275099
2599.87,0.275457
2601.17,0.275721
2602.48,0.275667
2603.78,0.274738
2605.09,0.27383
2606.4,0.274786
2607.71,0.27477
2609.03,0.272928
2610.34,0.272336
2611.66,0.272003
2612.97,0.270662
2614.29,0.270822
2615.61,0.27158
2616.93,0.270293
2618.25,0.269891
2619.57,0.268976
2620.9,0.268313
2622.22,0.269566
2623.55,0.269845
2624.88,0.269721
2626.21,0.268884
2627.54,0.268932
2628.87,0.267778
2630.21,0.265529
2631.54,0.266055
2632.88,0.266227
2634.21,0.264748
2635.55,0.264999
2636.89,0.265716
2638.24,0.265355
2639.58,0.26334
2640.92,0.262408
2642.27,0.261937
2643.62,0.261276
2644.97,0.260361
2646.32,0.259021
2647.67,0.258481
2649.02,0.258438
2650.38,0.257368
2651.73,0.255363
2653.09,0.254532
2654.45,0.253962
2655.81,0.252986
2657.17,0.253096
2658.53,0.252404
2659.89,0.253197
2661.26,0.253058
2662.63,0.251152
2664.0,0.249448
2665.36,0.248205
2666.74,0.246083
2668.11,0.245167
2669.48,0.245299
2670.86,0.243826
2672.23,0.244312
2673.61,0.243673
2674.99,0.242319
2676.37,0.240472
2677.76,0.239622
2679.14,0.239283
2680.52,0.238074
2681.91,0.236968
2683.3,0.234982
2684.69,0.233566
2686.08,0.232362
2687.47,0.232
2688.87,0.231006
2690.26,0.229917
2691.66,0.229008
2693.06,0.226255
2694.46,0.224013
2695.86,0.223685
2697.26,0.223124
2698.66,0.222091
2700.07,0.22069
2701.48,0.22034
2702.89,0.220192
2704.3,0.218906
2705.71,0.217273
2707.12,0.215988
2708.53,0.214236
2709.95,0.212645
2711.37,0.211461
2712.79,0.21137
2714.21,0.210101
2715.63,0.20821
2717.05,0.206399
2718.48,0.204644
2719.9,0.201901
2721.33,0.201184
2722.76,0.200049
2724.19,0.197798
2725.62,0.196572
2727.06,0.195094
2728.49,0.193445
2729.93,0.191707
2731.37,0.190515
2732.81,0.188689
2734.25,0.186131
2735.69,0.183679
2737.14,0.182327
2738.58,0.181359
2740.03,0.179879
2741.48,0.178054
2742.93,0.175878
2744.38,0.173881
2745.83,0.172357
2747.29,0.171468
2748.75,0.169954
2750.2,0.167786
2751.66,0.166146
2753.13,0.164203
2754.59,0.161164
2756.05,0.159118
2757.52,0.158924
2758.99,0.156333
2760.46,0.15344
2761.93,0.151719
2763.4,0.151362
2764.87,0.151379
2766.35,0.149441
2767.82,0.146965
2769.3,0.145197
2770.78,0.144397
2772.26,0.144465
2773.75,0.143282
2775.23,0.141578
2776.72,0.14063
2778.21,0.139229
2779.7,0.137839
2781.19,0.136659
2782.68,0.13532
2784.18,0.13494
2785.67,0.134879
2787.17,0.133387
2788.67,0.131605
2790.17,0.130458
2791.67,0.129955
2793.18,0.12972
2794.68,0.127999
2796.19,0.125844
2797.7,0.125072
2799.21,0.124722
2800.72,0.123679
2802.24,0.122208
2803.75,0.12111
2805.27,0.120136
2806.79,0.119939
2808.31,0.119046
2809.83,0.118011
2811.35,0.116748
2812.88,0.116393
2814.41,0.116498
2815.93,0.116225
2817.46,0.115057
2819.0,0.113675
2820.53,0.112861
2822.07,0.112576
2823.6,0.11182
2825.14,0.11083
2826.68,0.110461
2828.22,0.109763
2829.77,0.108633
2831.31,0.107681
2832.86,0.106829
2834.41,0.106162
2835.96,0.106523
2837.51,0.106487
2839.07,0.104966
2840.62,0.103992
2842.18,0.103713
2843.74,0.103374
2845.3,0.102504
2846.86,0.102414
2848.43,0.102474
2849.99,0.101874
2851.56,0.101302
2853.13,0.100674
2854.7,0.10051
2856.27,0.099689
2857.85,0.099539
2859.42,0.099838
2861.0,0.09903
2862.58,0.098672
2864.16,0.098346
2865.75,0.098142
2867.33,0.097373
2868.92,0.096011
2870.51,0.094933
2872.1,0.095055
2873.69,0.095306
2875.28,0.094923
2876.88,0.094649
2878.48,0.094748
2880.07,0.094241
2881.68,0.093975
2883.28,0.093584
2884.88,0.092959
2886.49,0.092977
2888.1,0.0927
2889.71,0.092518
2891.32,0.092591
2892.93,0.092545
2894.55,0.091783
2896.16,0.091894
2897.78,0.091892
2899.4,0.091418
2901.03,0.090885
2902.65,0.090576
2904.28,0.090062
2905.91,0.090162
2907.54,0.091156
2909.17,0.091197
2910.8,0.090832
2912.44,0.091009
2914.07,0.090326
2915.71,0.089663
2917.35,0.089617
2918.99,0.089404
2920.64,0.089306
2922.29,0.089144
2923.93,0.088265
2925.58,0.088008
2927.24,0.087967
2928.89,0.087305
2930.55,0.087161
2932.2,0.087242
2933.86,0.086925
2935.52,0.08632
2937.19,0.086653
2938.85,0.08697
2940.52,0.087131
2942.19,0.086824
2943.86,0.085245
2945.53,0.084717
2947.21,0.085117
2948.88,0.085501
2950.56,0.085818
2952.24,0.085692
2953.92,0.085466
2955.61,0.085461
2957.29,0.084734
2958.98,0.084005
2960.67,0.083826
2962.36,0.084122
2964.06,0.084027
2965.75,0.083514
2967.45,0.083574
2969.15,0.083245
2970.85,0.082556
2972.55,0.082097
2974.26,0.081916
2975.97,0.081831
2977.68,0.081695
2979.39,0.081106
2981.1,0.080918
2982.82,0.080983
2984.53,0.081244
2986.25,0.081412
2987.97,0.08078
2989.7,0.08006
2991.42,0.079599
2993.15,0.079839
2994.88,0.080163
2996.61,0.080366
2998.34,0.080101
3000.08,0.079391
3001.82,0.079112
3003.55,0.079128
3005.3,0.078955
3007.04,0.079026
3008.78,0.078975
3010.53,0.078729
3012.28,0.078825
3014.03,0.078297
3015.79,0.077638
3017.54,0.077423
3019.3,0.077734
3021.06,0.077671
3022.82,0.077036
3024.58,0.076843
3026.35,0.076987
3028.12,0.076976
3029.89,0.07685
3031.66,0.077065
3033.43,0.076793
3035.21,0.076371
3036.99,0.075945
3038.77,0.075324
3040.55,0.075076
3042.33,0.075305
3044.12,0.075485
3045.91,0.075659
3047.7,0.075675
3049.49,0.075301
3051.29,0.074915
3053.08,0.074452
3054.88,0.074398
3056.68,0.074734
3058.49,0.074857
3060.29,0.07402
3062.1,0.073298
3063.91,0.072927
3065.72,0.073373
3067.54,0.074275
3069.35,0.073912
3071.17,0.073342
3072.99,0.073272
3074.81,0.073009
3076.64,0.072645
3078.47,0.072386
3080.29,0.07231
3082.13,0.072572
3083.96,0.072708
3085.79,0.072923
3087.63,0.072817
3089.47,0.072521
3091.31,0.072643
3093.16,0.07271
3095.01,0.072883
3096.85,0.072887
3098.71,0.07281
3100.56,0.072668
3102.41,0.072428
3104.27,0.072355
3106.13,0.072048
3107.99,0.071987
3109.86,0.072325
3111.73,0.072258
3113.59,0.072331
3115.47,0.07245
3117.34,0.072548
3119.21,0.072552
3121.09,0.072111
3122.97,0.071726
3124.86,0.071977
3126.74,0.07202
3128.63,0.072334
3130.52,0.072907
3132.41,0.073087
3134.3,0.073181
3136.2,0.073184
3138.1,0.073089
3140.0,0.073483
3141.9,0.073599
3143.81,0.073164
3145.71,0.073446
3147.62,0.073633
3149.54,0.073321
3151.45,0.073042
3153.37,0.073585
3155.29,0.074067
3157.21,0.0743
3159.13,0.074222
3161.06,0.073998
3162.99,0.073785
3164.92,0.073828
3166.85,0.074341
3168.79,0.075048
3170.72,0.075044
3172.67,0.075155
3174.61,0.075652
3176.55,0.075815
3178.5,0.075791
3180.45,0.076178
3182.4,0.076672
3184.36,0.076774
3186.32,0.076806
3188.27,0.076758
3190.24,0.077047
3192.2,0.077568
3194.17,0.078
3196.14,0.078696
3198.11,0.078957
3200.08,0.07858
3202.06,0.078045
3204.04,0.078463
3206.02,0.079161
3208.0,0.079861
3209.99,0.079713
3211.98,0.079627
3213.97,0.080068
3215.96,0.080158
3217.96,0.080431
3219.96,0.08113
3221.96,0.081476
3223.96,0.08232
3225.97,0.082614
3227.98,0.082315
3229.99,0.082534
3232.0,0.082807
3234.02,0.082969
3236.04,0.083123
3238.06,0.083694
3240.08,0.084498
3242.11,0.084642
3244.14,0.084507
3246.17,0.08485
3248.2,0.08548
3250.24,0.085693
3252.28,0.085937
3254.32,0.086259
3256.37,0.086752
3258.41,0.087214
3260.46,0.087154
3262.51,0.087563
3264.57,0.087978
3266.63,0.087741
3268.69,0.087792
3270.75,0.088435
3272.81,0.088771
3274.88,0.089077
3276.95,0.08943
3279.02,0.089721
3281.1,0.090382
3283.18,0.090629
3285.26,0.090606
3287.34,0.090919
3289.43,0.091218
3291.51,0.091327
3293.61,0.091298
3295.7,0.091721
3297.8,0.092467
3299.9,0.092469
3302.0,0.092496
3304.1,0.093061
3306.21,0.093257
3308.32,0.093167
3310.43,0.093398
3312.55,0.093744
3314.66,0.093654
3316.79,0.094382
3318.91,0.094753
3321.03,0.095017
3323.16,0.095047
3325.29,0.094851
3327.43,0.09481
3329.57,0.095076
3331.71,0.096069
3333.85,0.096457
3335.99,0.096517
3338.14,0.096795
3340.29,0.096957
3342.45,0.097184
3344.6,0.097401
3346.76,0.097559
3348.92,0.097747
3351.09,0.097851
3353.26,0.098196
3355.43,0.098566
3357.6,0.098519
3359.78,0.098822
3361.96,0.099116
3364.14,0.099065
3366.32,0.099314
3368.51,0.099151
3370.7,0.099359
3372.89,0.099858
3375.09,0.1
3377.29,0.100321
3379.49,0.100098
3381.69,0.099837
3383.9,0.100319
3386.11,0.100676
3388.32,0.100336
3390.54,0.100394
3392.76,0.100993
3394.98,0.101367
3397.21,0.101909
3399.43,0.102262
3401.66,0.102341
3403.9,0.102737
3406.13,0.102712
3408.37,0.10284
3410.61,0.102709
3412.86,0.102742
3415.11,0.103275
3417.36,0.103442
3419.61,0.103471
3421.87,0.103897
3424.13,0.104105
3426.39,0.103879
3428.66,0.103697
3430.93,0.104011
3433.2,0.104225
3435.48,0.104479
3437.76,0.104514
3440.04,0.104174
3442.32,0.10414
3444.61,0.103794
3446.9,0.103704
3449.19,0.104222
3451.49,0.105045
3453.79,0.105187
3456.09,0.104978
3458.4,0.105169
3460.7,0.105583
3463.02,0.105605
3465.33,0.105172
3467.65,0.10568
3469.97,0.106075
3472.29,0.106222
3474.62,0.106232
3476.95,0.106488
3479.29,0.10666
3481.62,0.106863
3483.96,0.106958
3486.3,0.10671
3488.65,0.106676
3491.0,0.106595
3493.35,0.106654
3495.71,0.106551
3498.07,0.106641
3500.43,0.106849
3502.79,0.107009
3505.16,0.107321
3507.53,0.107398
3509.91,0.107591
3512.29,0.107654
3514.67,0.107742
3517.05,0.107831
3519.44,0.107982
3521.83,0.107927
3524.23,0.107539
3526.62,0.1077
3529.02,0.107823
3531.43,0.107876
3533.83,0.10827
3536.24,0.108633
3538.66,0.108852
3541.08,0.108976
3543.5,0.108943
3545.92,0.109238
3548.35,0.109872
3550.78,0.109785
3553.21,0.109353
3555.65,0.109474
3558.09,0.10978
3560.53,0.110196
3562.98,0.110246
3565.43,0.109869
3567.88,0.109607
3570.34,0.109686
3572.8,0.110033
3575.27,0.110291
3577.73,0.110525
3580.2,0.110616
3582.68,0.110561
3585.16,0.110358
3587.64,0.110555
3590.12,0.111017
3592.61,0.111044
3595.1,0.111109
3597.6,0.111626
3600.09,0.112039
3602.6,0.112071
3605.1,0.11223
3607.61,0.112571
3610.12,0.112641
3612.64,0.112824
3615.16,0.113104
3617.68,0.113108
3620.21,0.113194
3622.74,0.113388
3625.27,0.11355
3627.81,0.113719
3630.35,0.114241
3632.89,0.114369
3635.44,0.114247
3637.99,0.114404
3640.54,0.114821
3643.1,0.114945
3645.66,0.115005
3648.23,0.11491
3650.8,0.115128
3653.37,0.11585
3655.95,0.116312
3658.53,0.116408
3661.11,0.116451
3663.7,0.116446
3666.29,0.116594
3668.89,0.11699
3671.48,0.11729
3674.09,0.117422
3676.69,0.11765
3679.3,0.118152
3681.91,0.118238
3684.53,0.118309
3687.15,0.118376
3689.78,0.118132
3692.4,0.118623
3695.04,0.119079
3697.67,0.119108
3700.31,0.119144
3702.95,0.119275
3705.6,0.119458
3708.25,0.11974
3710.91,0.120478
3713.56,0.120904
3716.23,0.120763
3718.89,0.120822
3721.56,0.120806
3724.23,0.121054
3726.91,0.121115
3729.59,0.121511
3732.28,0.121928
3734.97,0.122017
3737.66,0.122512
3740.36,0.122811
3743.06,0.122828
3745.76,0.123279
3748.47,0.123689
3751.18,0.123796
3753.9,0.12393
3756.62,0.124239
3759.34,0.12459
3762.07,0.124414
3764.8,0.124589
3767.54,0.125004
3770.28,0.124934
3773.02,0.124912
3775.77,0.125096
3778.52,0.125464
3781.28,0.125784
3784.04,0.125784
3786.8,0.125738
3789.57,0.125941
3792.34,0.126335
3795.12,0.126644
3797.9,0.126893
3800.69,0.127547
3803.47,0.127923
3806.27,0.127636
3809.06,0.127344
3811.86,0.127524
3814.67,0.127949
3817.48,0.128283
3820.29,0.128659
3823.11,0.129063
3825.93,0.129065
3828.76,0.128856
3831.59,0.128833
3834.42,0.128777
3837.26,0.129
3840.1,0.129453
3842.95,0.129637
3845.8,0.129698
3848.65,0.129852
3851.51,0.129812
3854.38,0.129599
3857.24,0.129767
3860.12,0.130212
3862.99,0.130541
3865.87,0.130863
3868.76,0.130902
3871.65,0.131068
3874.54,0.131332
3877.44,0.131461
3880.34,0.131685
3883.25,0.132025
3886.16,0.132349
3889.07,0.132641
3891.99,0.132876
3894.92,0.132918
3897.85,0.132982
3900.78,0.133352
3903.72,0.133462
3906.66,0.133424
3909.6,0.1334
3912.55,0.133753
3915.51,0.134184
3918.47,0.134284
3921.43,0.134262
3924.4,0.13446
3927.38,0.134737
3930.35,0.135159
3933.33,0.135443
3936.32,0.135316
3939.31,0.135574
3942.31,0.135676
3945.31,0.135615
3948.31,0.135652
3951.32,0.135585
3954.34,0.135819
3957.35,0.136433
3960.38,0.136721
3963.41,0.136624
3966.44,0.137128
3969.48,0.137406
3972.52,0.137306
3975.56,0.137386
3978.61,0.137753
3981.67,0.137842
3984.73,0.137734
3987.8,0.137752
3990.87,0.137907
3993.94,0.137683
3997.02,0.137442
4000.1,0.13765
4003.19,0.137946
4006.29,0.138109
4009.39,0.138101
4012.49,0.137842
4015.6,0.137629
4018.71,0.137834
4021.83,0.138045
4024.95,0.138037
4028.08,0.137818
4031.21,0.137882
4034.35,0.138243
4037.49,0.138655
4040.64,0.138735
4043.79,0.138596
4046.94,0.13882
4050.11,0.139168
4053.27,0.139014
4056.44,0.139003
4059.62,0.13919
4062.8,0.139247
4065.99,0.139283
4069.18,0.139388
4072.38,0.139552
4075.58,0.139488
4078.78,0.139497
4082.0,0.139826
4085.21,0.140006
4088.43,0.140304
4091.66,0.140471
4094.89,0.140389
4098.13,0.140903
4101.37,0.141355
4104.62,0.141518
4107.87,0.141721
4111.13,0.14207
4114.39,0.142513
4117.66,0.14254
4120.93,0.142334
4124.21,0.142724
4127.5,0.143279
4130.79,0.143924
4134.08,0.144422
4137.38,0.144795
4140.68,0.144973
4143.99,0.145424
4147.31,0.145982
4150.63,0.146305
4153.95,0.146429
4157.29,0.146469
4160.62,0.146764
4163.96,0.147284
4167.31,0.147603
4170.66,0.14774
4174.02,0.147988
4177.39,0.148109
4180.75,0.148062
4184.13,0.147971
4187.51,0.148255
4190.89,0.148819
4194.28,0.148972
4197.68,0.148937
4201.08,0.14906
4204.49,0.149292
4207.9,0.149434
4211.32,0.14923
4214.74,0.149118
4218.17,0.149238
4221.61,0.149487
4225.05,0.149686
4228.5,0.149848
4231.95,0.149772
4235.4,0.150178
4238.87,0.15047
4242.34,0.150229
4245.81,0.15012
4249.29,0.150568
4252.78,0.151141
4256.27,0.151673
4259.77,0.151239
4263.27,0.150712
4266.78,0.150639
4270.29,0.150314
4273.81,0.150212
4277.34,0.15063
4280.87,0.150804
4284.41,0.150761
4287.95,0.150595
4291.5,0.150734
4295.06,0.150907
4298.62,0.151061
4302.19,0.15137
4305.76,0.15166
4309.34,0.151875
4312.92,0.152085
4316.52,0.15222
4320.11,0.152279
4323.72,0.152587
4327.32,0.152973
4330.94,0.152901
4334.56,0.152878
4338.19,0.153202
4341.82,0.153265
4345.46,0.153152
4349.11,0.152855
4352.76,0.15287
4356.42,0.153214
4360.08,0.153159
4363.75,0.153139
4367.43,0.1535
4371.11,0.153381
4374.8,0.153313
4378.49,0.153157
4382.19,0.15313
4385.9,0.15356
4389.61,0.153878
4393.33,0.153817
4397.06,0.153897
4400.79,0.153924
4404.53,0.154004
4408.28,0.15408
4412.03,0.154147
4415.79,0.154473
4419.55,0.154655
4423.32,0.154695
4427.1,0.154892
4430.88,0.154999
4434.68,0.154812
4438.47,0.154727
4442.28,0.154977
4446.08,0.155207
4449.9,0.155468
4453.72,0.155563
4457.55,0.155884
4461.39,0.156073
4465.23,0.155996
4469.08,0.15584
4472.94,0.155691
4476.8,0.155859
4480.67,0.155865
4484.55,0.15594
4488.43,0.156506
4492.32,0.15694
4496.21,0.156851
4500.12,0.156971
4504.03,0.157329
4507.94,0.157512
4511.87,0.157575
4515.8,0.157848
4519.73,0.157883
4523.68,0.157943
4527.63,0.157867
4531.59,0.157953
4535.55,0.158253
4539.52,0.15821
4543.5,0.158522
4547.49,0.158654
4551.48,0.158608
4555.48,0.158396
4559.49,0.158237
4563.5,0.158151
4567.52,0.158067
4571.55,0.158242
4575.58,0.158375
4579.63,0.158091
4583.67,0.158171
4587.73,0.157991
4591.79,0.157926
4595.86,0.158193
4599.94,0.158392
4604.03,0.158548
4608.12,0.158333
4612.22,0.158223
4616.33,0.158405
4620.44,0.158657
4624.56,0.158675
4628.69,0.158721
4632.83,0.158645
4636.97,0.158508
4641.12,0.158424
4645.28,0.158142
4649.45,0.158288
4653.62,0.158511
4657.8,0.158255
4661.99,0.157802
4666.19,0.157622
4670.39,0.157681
4674.6,0.157694
4678.82,0.157445
4683.05,0.157338
4687.28,0.157361
4691.52,0.157134
4695.77,0.156964
4700.03,0.156997
4704.3,0.157168
4708.57,0.156911
4712.85,0.156561
4717.14,0.156584
4721.43,0.156618
4725.74,0.1565
4730.05,0.156305
4734.37,0.155984
4738.7,0.155818
4743.03,0.155827
4747.38,0.155524
4751.73,0.155612
4756.09,0.155816
4760.45,0.155695
4764.83,0.155495
4769.21,0.155556
4773.6,0.155334
4778.0,0.15488
4782.41,0.154657
4786.83,0.15454
4791.25,0.154362
4795.68,0.154488
4800.13,0.154302
4804.57,0.153785
4809.03,0.153332
4813.5,0.153356
4817.97,0.153395
4822.45,0.153208
4826.94,0.152935
4831.44,0.152671
4835.95,0.15253
4840.46,0.15243
4844.99,0.152127
4849.52,0.151999
4854.06,0.152022
4858.61,0.152028
4863.17,0.151712
4867.73,0.151252
4872.31,0.151008
4876.89,0.150934
4881.48,0.150689
4886.08,0.150471
4890.69,0.150117
4895.31,0.149671
4899.94,0.149257
4904.57,0.148926
4909.22,0.148533
4913.87,0.148086
4918.53,0.147684
4923.21,0.147379
4927.88,0.14707
4932.57,0.146838
4937.27,0.146832
4941.98,0.146426
4946.69,0.146039
4951.42,0.146027
4956.15,0.145879
4960.9,0.145683
4965.65,0.145425
4970.41,0.145111
4975.18,0.145235
4979.96,0.145313
4984.75,0.145166
4989.54,0.145002
4994.35,0.14474
4999.17,0.144286
5003.99,0.144029
5008.83,0.143865
5013.67,0.143711
5018.52,0.143198
5023.39,0.142935
5028.26,0.142924
5033.14,0.142769
5038.03,0.142413
5042.93,0.142071
5047.84,0.141824
5052.76,0.141644
5057.69,0.141566
5062.63,0.141235
5067.58,0.141107
5072.54,0.141213
5077.51,0.141337
5082.49,0.141216
5087.47,0.141007
5092.47,0.140903
5097.48,0.140961
5102.5,0.141087
5107.52,0.140995
5112.56,0.141022
5117.61,0.14118
5122.66,0.141067
5127.73,0.140793
5132.81,0.140563
5137.89,0.140744
5142.99,0.140894
5148.1,0.140658
5153.22,0.1402
5158.34,0.140046
5163.48,0.139722
5168.63,0.139291
5173.79,0.139324
5178.96,0.139202
5184.13,0.139006
5189.32,0.138885
5194.52,0.138993
5199.73,0.139197
5204.96,0.139065
5210.19,0.138885
5215.43,0.13886
5220.68,0.138859
5225.94,0.138893
5231.22,0.138907
5236.5,0.139055
5241.79,0.139242
5247.1,0.139344
5252.42,0.139363
5257.74,0.13965
5263.08,0.139823
5268.43,0.139899
5273.79,0.139857
5279.16,0.139905
5284.54,0.140027
5289.93,0.13995
5295.34,0.139874
5300.75,0.140142
5306.18,0.140595
5311.61,0.140782
5317.06,0.140571
5322.52,0.140252
5327.99,0.139957
5333.47,0.139819
5338.96,0.139683
5344.47,0.13951
5349.98,0.139064
5355.51,0.13864
5361.05,0.138386
5366.6,0.138165
5372.16,0.137675
5377.73,0.137159
5383.32,0.136635
5388.91,0.136159
5394.52,0.135673
5400.14,0.135102
5405.77,0.134383
5411.41,0.1335
5417.07,0.132234
5422.74,0.131217
5428.41,0.130392
5434.1,0.129463
5439.81,0.128239
5445.52,0.126937
5451.25,0.125814
5456.98,0.124667
5462.73,0.123331
5468.5,0.12226
5474.27,0.121351
5480.06,0.120135
5485.86,0.118983
5491.67,0.118197
5497.49,0.117043
5503.33,0.116049
5509.18,0.115256
5515.04,0.114242
5520.91,0.113304
5526.8,0.112999
5532.69,0.112679
5538.61,0.112157
5544.53,0.111418
5550.47,0.110901
5556.41,0.110536
5562.38,0.110433
5568.35,0.10997
5574.34,0.109659
5580.34,0.109509
5586.35,0.109499
5592.38,0.109479
5598.42,0.109396
5604.47,0.109363
5610.54,0.109469
5616.61,0.10955
5622.71,0.109741
5628.81,0.109907
5634.93,0.110161
5641.06,0.110464
5647.21,0.110855
5653.36,0.11108
5659.54,0.111266
5665.72,0.111606
5671.92,0.11177
5678.13,0.112211
5684.36,0.11297
5690.6,0.113563
5696.85,0.114057
5703.12,0.114479
5709.4,0.114705
5715.69,0.115138
5722.0,0.115898
5728.33,0.116299
5734.66,0.116704
5741.01,0.117065
5747.38,0.11764
5753.76,0.11817
5760.15,0.11886
5766.56,0.119025
5772.98,0.11935
5779.41,0.119838
5785.86,0.120429
5792.33,0.120837
5798.81,0.120956
5805.3,0.121191
5811.81,0.121523
5818.33,0.121486
5824.87,0.121594
5831.42,0.122257
5837.99,0.122718
5844.57,0.122671
5851.17,0.122562
5857.78,0.122352
5864.41,0.122238
5871.05,0.122558
5877.7,0.122367
5884.38,0.121814
5891.06,0.121429
5897.76,0.120948
5904.48,0.120582
5911.21,0.119995
5917.96,0.119305
5924.73,0.118574
5931.5,0.11776
5938.3,0.116823
5945.11,0.115784
5951.93,0.114673
5958.78,0.113388
5965.63,0.112057
5972.51,0.110823
5979.39,0.109831
5986.3,0.108764
5993.22,0.107771
6000.16,0.106844
6007.11,0.106064
6014.08,0.105666
6021.06,0.105334
6028.06,0.105053
6035.08,0.104854
6042.12,0.105025
6049.17,0.105152
6056.23,0.105779
6063.32,0.106634
6070.42,0.107297
6077.53,0.108204
6084.67,0.109466
6091.82,0.110175
6098.98,0.111125
6106.17,0.112049
6113.37,0.11294
6120.58,0.11404
6127.82,0.115278
6135.07,0.116584
6142.34,0.117701
6149.63,0.118621
6156.93,0.119817
6164.25,0.121181
6171.59,0.122841
6178.95,0.124063
6186.32,0.125066
6193.71,0.126287
6201.12,0.127715
6208.54,0.12915
6215.99,0.130392
6223.45,0.1315
6230.93,0.133223
6238.43,0.134595
6245.95,0.135912
6253.48,0.137237
6261.03,0.138696
6268.6,0.139955
6276.19,0.141013
6283.8,0.141872
6291.43,0.143181
6299.07,0.144437
6306.73,0.145484
6314.42,0.146457
6322.12,0.147566
6329.84,0.148486
6337.57,0.149206
6345.33,0.149833
6353.11,0.151076
6360.9,0.15221
6368.72,0.152852
6376.55,0.153735
6384.4,0.154841
6392.27,0.155758
6400.17,0.156554
6408.08,0.156923
6416.01,0.157388
6423.96,0.159019
6431.93,0.160154
6439.92,0.160488
6447.93,0.161354
6455.96,0.162555
6464.01,0.164089
6472.08,0.164879
6480.17,0.165627
6488.28,0.166319
6496.41,0.167445
6504.56,0.169068
6512.73,0.169691
6520.92,0.169753
6529.14,0.170484
6537.37,0.171132
6545.63,0.171629
6553.9,0.171922
6562.2,0.172758
6570.51,0.172823
6578.85,0.172747
6587.21,0.173497
6595.59,0.173617
6603.99,0.173818
6612.42,0.174108
6620.86,0.174502
6629.33,0.174691
6637.82,0.174625
6646.33,0.174839
6654.86,0.175241
6663.41,0.175232
6671.99,0.175195
6680.59,0.175134
6689.21,0.175256
6697.85,0.175476
6706.51,0.175033
6715.2,0.17496
6723.91,0.175404
6732.64,0.175638
6741.4,0.175695
6750.18,0.175796
6758.98,0.175809
6767.8,0.175714
6776.65,0.175468
6785.52,0.175464
6794.41,0.175273
6803.33,0.175803
6812.27,0.176209
6821.23,0.176052
6830.22,0.176023
6839.23,0.176559
6848.26,0.176712
6857.32,0.176245
6866.4,0.176336
6875.51,0.177598
6884.64,0.178094
6893.8,0.178588
6902.98,0.178915
6912.18,0.178988
6921.41,0.179199
6930.66,0.179166
6939.94,0.179111
6949.24,0.179462
6958.57,0.179377
6967.92,0.179344
6977.3,0.179224
6986.7,0.17872
6996.13,0.178559
7005.59,0.178633
7015.07,0.178599
7024.57,0.178607
7034.1,0.178649
7043.66,0.178386
7053.25,0.178355
7062.85,0.178953
7072.49,0.179252
7082.15,0.179549
7091.84,0.17974
7101.55,0.179881
7111.3,0.179974
7121.06,0.180306
7130.86,0.180606
7140.68,0.180954
7150.53,0.181044
7160.41,0.181087
7170.31,0.180783
7180.24,0.180645
7190.2,0.180574
7200.19,0.180619
7210.2,0.180317
7220.24,0.179781
7230.31,0.179167
7240.41,0.178662
7250.54,0.177934
7260.69,0.177128
7270.88,0.176195
7281.09,0.175382
7291.33,0.17513
7301.6,0.174657
7311.9,0.174109
7322.22,0.173601
7332.58,0.172913
7342.97,0.172604
7353.38,0.172419
7363.83,0.171965
7374.3,0.171584
7384.81,0.17104
7395.34,0.170572
7405.91,0.170188
7416.5,0.169732
7427.13,0.169048
7437.78,0.168475
7448.47,0.168279
7459.19,0.167784
7469.94,0.166962
7480.71,0.166259
7491.52,0.166243
7502.37,0.166422
7513.24,0.165959
7524.14,0.165398
7535.08,0.165119
7546.05,0.164878
7557.05,0.1648
7568.08,0.164782
7579.15,0.164581
7590.24,0.164339
7601.37,0.164103
7612.53,0.163478
7623.73,0.162779
7634.96,0.16248
7646.22,0.162056
7657.51,0.161252
7668.84,0.160445
7680.2,0.160012
7691.59,0.159633
7703.02,0.159053
7714.49,0.158321
7725.98,0.157911
7737.52,0.157734
7749.08,0.157072
7760.68,0.15659
7772.32,0.156376
7783.99,0.155936
7795.69,0.155648
7807.43,0.155219
7819.21,0.15465
7831.02,0.154016
7842.87,0.153337
7854.75,0.152451
7866.67,0.151497
7878.62,0.150749
7890.62,0.149788
7902.64,0.148844
7914.71,0.147779
7926.81,0.146436
7938.95,0.145004
7951.13,0.143455
7963.34,0.142217
7975.59,0.141139
7987.88,0.140047
8000.21,0.139108
8012.57,0.138268
8024.98,0.137348
8037.42,0.136457
8049.9,0.13592
8062.42,0.135359
8074.98,0.134991
8087.57,0.134887
8100.21,0.134607
8112.89,0.13442
8125.6,0.134428
8138.36,0.134001
8151.16,0.133136
8163.99,0.132608
8176.87,0.132252
8189.79,0.131704
8202.75,0.131034
8215.75,0.130375
8228.79,0.129613
8241.87,0.129046
8254.99,0.128386
8268.16,0.127578
8281.37,0.126621
8294.62,0.125773
8307.91,0.124643
8321.24,0.123764
8334.62,0.123047
8348.04,0.122203
8361.51,0.121267
8375.02,0.120558
8388.57,0.119755
8402.16,0.118682
8415.8,0.117431
8429.49,0.116093
8443.22,0.11473
8456.99,0.1134
8470.81,0.112099
8484.67,0.110968
8498.58,0.109969
8512.54,0.10853
8526.54,0.107129
8540.58,0.105837
8554.68,0.104685
8568.82,0.103317
8583.0,0.101949
8597.24,0.101006
8611.52,0.100273
8625.85,0.099409
8640.23,0.098063
8654.65,0.096862
8669.12,0.095512
8683.64,0.094003
8698.21,0.093009
8712.83,0.092567
8727.5,0.091622
8742.22,0.090814
8756.99,0.090254
8771.8,0.089684
8786.67,0.088739
8801.59,0.087594
8816.56,0.086746
8831.58,0.086418
8846.65,0.08583
8861.77,0.085226
8876.94,0.084796
8892.17,0.084537
8907.45,0.08417
8922.78,0.083328
8938.16,0.08274
8953.6,0.083041
8969.09,0.083058
8984.64,0.082333
9000.23,0.08201
9015.89,0.08226
9031.59,0.081748
9047.36,0.081565
9063.17,0.0818
9079.05,0.081474
9094.97,0.080707
9110.96,0.080641
9127.0,0.080608
9143.1,0.080034
9159.25,0.079813
9175.46,0.080315
9191.73,0.080362
9208.06,0.080089
9224.44,0.07996
9240.88,0.079721
9257.38,0.079228
9273.94,0.078982
9290.56,0.078627
9307.24,0.078532
9323.98,0.078502
9340.78,0.077927
9357.64,0.07734
9374.57,0.077031
9391.55,0.07688
9408.59,0.076454
9425.7,0.076079
9442.87,0.075882
9460.1,0.075494
9477.4,0.075176
9494.75,0.074553
9512.17,0.073858
9529.66,0.073533
9547.21,0.073323
9564.83,0.073057
9582.5,0.07255
9600.25,0.072195
9618.06,0.072098
9635.94,0.071757
9653.88,0.071077
9671.89,0.070629
9689.97,0.070638
9708.12,0.070081
9726.33,0.069207
9744.62,0.068945
9762.97,0.068684
9781.39,0.067918
9799.88,0.067604
9818.44,0.06729
9837.07,0.06711
9855.77,0.067021
9874.54,0.066738
9893.39,0.066105
9912.3,0.06601
9931.29,0.065852
9950.36,0.065547
9969.49,0.065104
9988.7,0.064547
10007.98,0.064484
10027.34,0.064261
10046.77,0.063769
10066.28,0.063502
10085.87,0.063475
10105.53,0.063124
10125.26,0.062719
10145.08,0.062888
10164.97,0.062658
10184.94,0.062306
10204.99,0.062119
10225.12,0.061575
10245.33,0.061258
10265.61,0.06121
10285.98,0.060906
10306.43,0.060448
10326.96,0.060607
10347.57,0.060582
10368.27,0.059907
10389.05,0.05996
10409.91,0.059738
10430.86,0.059555
10451.88,0.059995
10473.0,0.060692
10494.2,0.060659
10515.49,0.060896
10536.86,0.061717
10558.32,0.063277
10579.87,0.065096
10601.5,0.067459
10623.23,0.070648
10645.04,0.074082
10666.94,0.07785
10688.94,0.0823
10711.02,0.086662
10733.2,0.09092
10755.47,0.09462
10777.83,0.098592
10800.28,0.102411
10822.83,0.104877
10845.47,0.107147
10868.21,0.109706
10891.04,0.111201
10913.97,0.1119
10936.99,0.111596
10960.12,0.111198
10983.34,0.110713
11006.66,0.109908
11030.07,0.108742
11053.59,0.107632
11077.21,0.106691
11100.93,0.105565
11124.75,0.104221
11148.68,0.102994
11172.71,0.10163
11196.84,0.100387
11221.07,0.099063
11245.41,0.097071
11269.86,0.095343
11294.41,0.093872
11319.07,0.092009
11343.84,0.08989
11368.72,0.088361
11393.7,0.087532
11418.8,0.085943
11444.01,0.083798
11469.33,0.082036
11494.76,0.081298
11520.3,0.080732
11545.96,0.080058
11571.73,0.079614
11597.62,0.079531
11623.62,0.079178
11649.74,0.079784
11675.98,0.081267
11702.34,0.083103
11728.81,0.085638
11755.41,0.088656
11782.13,0.092459
11808.96,0.098066
11835.92,0.104509
11863.01,0.111165
11890.22,0.118819
11917.55,0.12688
11945.01,0.135149
11972.6,0.142495
12000.31,0.148863
12028.16,0.154615
12056.13,0.160148
12084.23,0.164697
12112.46,0.167978
12140.83,0.171139
12169.33,0.17327
12197.96,0.174363
12226.73,0.174872
12255.64,0.174295
12284.68,0.173398
12313.86,0.171857
12343.18,0.170087
12372.64,0.168376
12402.24,0.165896
12431.98,0.163004
12461.86,0.159794
12491.89,0.156464
12522.07,0.153352
12552.38,0.150149
12582.85,0.146914
12613.47,0.143312
12644.23,0.139491
12675.15,0.135766
12706.21,0.131667
12737.43,0.128183
12768.81,0.125255
12800.33,0.121769
12832.02,0.118666
12863.86,0.116058
12895.86,0.113352
12928.02,0.110814
12960.34,0.108386
12992.82,0.10561
13025.46,0.103052
13058.27,0.100783
13091.25,0.099416
13124.39,0.097727
13157.7,0.096009
13191.18,0.094092
13224.83,0.09252
13258.66,0.09246
13292.65,0.090789
13326.83,0.088883
13361.17,0.087827
13395.7,0.08658
13430.4,0.084998
13465.29,0.084073
13500.35,0.083309
13535.6,0.082779
13571.03,0.081613
13606.65,0.080629
13642.46,0.079491
13678.46,0.078095
13714.64,0.076692
13751.02,0.07525
13787.59,0.074317
13824.36,0.073873
13861.32,0.072743
13898.49,0.07135
13935.85,0.070472
13973.41,0.070023
14011.17,0.068596
14049.15,0.067649
14087.32,0.066073
14125.71,0.065084
14164.3,0.064626
14203.11,0.063341
14242.13,0.061837
14281.36,0.061129
14320.81,0.059716
14360.49,0.058582
14400.38,0.058562
14440.49,0.057944
14480.82,0.056993
14521.39,0.056872
14562.18,0.057872
14603.2,0.058867
14644.45,0.059793
14685.93,0.061519
14727.66,0.064542
14769.62,0.069308
14811.81,0.07234
14854.25,0.075186
14896.94,0.079677
14939.87,0.083212
14983.05,0.08556
15026.48,0.090143
15070.16,0.095421
15114.1,0.099998
15158.29,0.10417
15202.74,0.108752
15247.46,0.113234
15292.43,0.11681
15337.68,0.119553
15383.19,0.122885
15428.97,0.12617
15475.03,0.128826
15521.36,0.132221
15567.97,0.135227
15614.87,0.136909
15662.04,0.138183
15709.5,0.139991
15757.25,0.141633
15805.29,0.142372
15853.62,0.143099
15902.26,0.144356
15951.19,0.144881
16000.42,0.144243
16049.95,0.144722
16099.8,0.145025
16149.95,0.14444
16200.42,0.14497
16251.21,0.145897
16302.31,0.146455
16353.74,0.146425
16405.49,0.145855
16457.57,0.146071
16509.98,0.146092
16562.73,0.146355
16615.82,0.147154
16669.24,0.148586
16723.02,0.150428
16777.14,0.152814
16831.61,0.15564
16886.43,0.159085
16941.62,0.162392
16997.16,0.165559
17053.08,0.1703
17109.36,0.175486
17166.01,0.18162
17223.04,0.187137
17280.45,0.193058
17338.24,0.199906
17396.43,0.206357
17455.0,0.212427
17513.97,0.218582
17573.34,0.223931
17633.11,0.229095
17693.29,0.233962
17753.89,0.238008
17814.9,0.242081
17876.33,0.246778
17938.18,0.249956
18000.47,0.252665
18063.19,0.254602
18126.35,0.25581
18189.95,0.256809
18254.0,0.257348
18318.5,0.258359
18383.46,0.260442
18448.88,0.261658
18514.77,0.261099
18581.13,0.26032
18647.97,0.260285
18715.29,0.259652
18783.1,0.259198
18851.4,0.257661
18920.2,0.254808
18989.51,0.253625
19059.32,0.252229
19129.65,0.250229
19200.5,0.249268
19271.88,0.247473
19343.79,0.248254
19416.24,0.250932
19489.23,0.252493
19562.77,0.252942
19636.88,0.256173
19711.54,0.260622
19786.78,0.264596
19862.59,0.273191
19938.98,0.285163
20015.96,0.296459
20093.55,0.307278
20171.73,0.316762
20250.53,0.323426
20329.94,0.328086
20409.98,0.332975
20490.65,0.337364
20571.96,0.342966
20653.92,0.348969
20736.54,0.352361
20819.82,0.35327
20903.77,0.355308
20988.4,0.359637
21073.72,0.363416
21159.73,0.364732
21246.46,0.36812
21333.89,0.373147
21422.04,0.374595
21510.93,0.374605
21600.56,0.372913
21690.94,0.370758
21782.08,0.369453
21873.99,0.368603
21966.67,0.372254
22060.15,0.37535
22154.42,0.365998
22249.51,0.354263
22345.41,0.345355
22442.14,0.338726
22539.72,0.334377
22638.14,0.331455
22737.43,0.326907
22837.6,0.322547
22938.65,0.323372
23040.6,0.328632
23143.46,0.329436
23247.24,0.330657
23351.96,0.3341
23457.63,0.333833
23564.25,0.33413
23671.85,0.329957
23780.44,0.324696
23890.02,0.32431
24000.63,0.325128
24112.26,0.327228
24224.93,0.328844
24338.66,0.335609
24453.47,0.342977
24569.36,0.350334
24686.36,0.363044
24804.47,0.375288
24923.73,0.389755
25044.13,0.395567
25165.71,0.397693
25288.46,0.402676
25412.43,0.395839
25537.61,0.379964
25664.04,0.369477
25791.72,0.356284
25920.68,0.345973
