Database of Origin,University of Winnipeg Spectrophotometer Facility
Sample Description,Carbonates and Oxolates - RELAB+Nicolet spectra - Newly merged spectra (merged by RELAB)
Other Information,merged at 2.55 um. Dry seived.
Date Added,2018-08-06 20:57:44.384221

Data ID,RLA_CARB_10_1       
Sample ID,CRB114
Mineral Name,Magnesite
Locality,Currant Creek/ Nevada/ USA
Grain Size,<45 um
Viewing Geometry,30/0 and 30
Resolution,1.2-129 nm
Formula,Mg(CO3)
Composition,with hunite.

Wavelength
305.0,0.61192
310.0,0.60878
315.0,0.61886
320.0,0.62486
325.0,0.63179
330.0,0.63587
335.0,0.64095
340.0,0.64729
345.0,0.64985
350.0,0.65457
355.0,0.65851
360.0,0.66251
365.0,0.67111
370.0,0.6675
375.0,0.67111
380.0,0.67406
385.0,0.67835
390.0,0.68275
395.0,0.68523
400.0,0.69114
405.0,0.69263
410.0,0.69587
415.0,0.69845
420.0,0.70229
425.0,0.70569
430.0,0.71112
435.0,0.71643
440.0,0.72322
445.0,0.72713
450.0,0.73437
455.0,0.73923
460.0,0.74573
465.0,0.75147
470.0,0.75707
475.0,0.76168
480.0,0.76781
485.0,0.77343
490.0,0.77885
495.0,0.7837
500.0,0.78911
505.0,0.7932
510.0,0.79824
515.0,0.80174
520.0,0.80591
525.0,0.80879
530.0,0.81191
535.0,0.81414
540.0,0.81725
545.0,0.81861
550.0,0.82115
555.0,0.8215
560.0,0.82449
565.0,0.8252
570.0,0.82737
575.0,0.82718
580.0,0.82955
585.0,0.82971
590.0,0.83085
595.0,0.83187
600.0,0.83265
605.0,0.83359
610.0,0.83362
615.0,0.83408
620.0,0.8346
625.0,0.83487
630.0,0.83497
635.0,0.83503
640.0,0.83541
645.0,0.83516
650.0,0.83585
655.0,0.83609
660.0,0.8362
665.0,0.83687
670.0,0.83723
675.0,0.83772
680.0,0.83783
685.0,0.83835
690.0,0.8381
695.0,0.83868
700.0,0.83874
705.0,0.83876
710.0,0.83869
715.0,0.83948
720.0,0.83946
725.0,0.839
730.0,0.8393
735.0,0.83945
740.0,0.84019
745.0,0.83981
750.0,0.84084
755.0,0.84085
760.0,0.84084
765.0,0.84166
770.0,0.84191
775.0,0.84219
780.0,0.84275
785.0,0.84264
790.0,0.84253
795.0,0.84308
800.0,0.84263
805.0,0.84399
810.0,0.84427
815.0,0.84413
820.0,0.84377
825.0,0.84385
830.0,0.84398
835.0,0.84352
840.0,0.84327
845.0,0.84372
850.0,0.84384
855.0,0.84344
860.0,0.84246
865.0,0.84342
870.0,0.8438
875.0,0.84289
880.0,0.84338
885.0,0.84269
890.0,0.84301
895.0,0.84243
900.0,0.8428
905.0,0.84215
910.0,0.84299
915.0,0.84332
920.0,0.84353
925.0,0.84295
930.0,0.84271
935.0,0.84177
940.0,0.84059
945.0,0.83609
950.0,0.83872
955.0,0.84115
960.0,0.84086
965.0,0.84126
970.0,0.84158
975.0,0.84203
980.0,0.8421
985.0,0.84217
990.0,0.84215
995.0,0.84187
1000.0,0.84105
1005.0,0.84144
1010.0,0.84099
1015.0,0.84215
1020.0,0.84144
1025.0,0.84211
1030.0,0.84319
1035.0,0.84245
1040.0,0.84162
1045.0,0.84211
1050.0,0.84183
1055.0,0.84287
1060.0,0.84204
1065.0,0.842
1070.0,0.84232
1075.0,0.84232
1080.0,0.84187
1085.0,0.84196
1090.0,0.84216
1095.0,0.84123
1100.0,0.8411
1105.0,0.84132
1110.0,0.84155
1115.0,0.84111
1120.0,0.84168
1125.0,0.84122
1130.0,0.84046
1135.0,0.84074
1140.0,0.84108
1145.0,0.83981
1150.0,0.8403
1155.0,0.84005
1160.0,0.83912
1165.0,0.83954
1170.0,0.83912
1175.0,0.83968
1180.0,0.83945
1185.0,0.83974
1190.0,0.83991
1195.0,0.84006
1200.0,0.83974
1205.0,0.83982
1210.0,0.83992
1215.0,0.84052
1220.0,0.84102
1225.0,0.8396
1230.0,0.84032
1235.0,0.84028
1240.0,0.83999
1245.0,0.83955
1250.0,0.83989
1255.0,0.83942
1260.0,0.83737
1265.0,0.8377
1270.0,0.83745
1275.0,0.83525
1280.0,0.83401
1285.0,0.83319
1290.0,0.83526
1295.0,0.83666
1300.0,0.83599
1305.0,0.83643
1310.0,0.83604
1315.0,0.83603
1320.0,0.83573
1325.0,0.83558
1330.0,0.83499
1335.0,0.83481
1340.0,0.83371
1345.0,0.83195
1350.0,0.8282
1355.0,0.82145
1360.0,0.81783
1365.0,0.81908
1370.0,0.81449
1375.0,0.80184
1380.0,0.77356
1385.0,0.67566
1390.0,0.69297
1395.0,0.7287
1400.0,0.75973
1405.0,0.77412
1410.0,0.78367
1415.0,0.79015
1420.0,0.79239
1425.0,0.79486
1430.0,0.79716
1435.0,0.79898
1440.0,0.80072
1445.0,0.802
1450.0,0.80294
1455.0,0.80369
1460.0,0.8037
1465.0,0.80549
1470.0,0.80627
1475.0,0.8078
1480.0,0.8088
1485.0,0.81031
1490.0,0.8121
1495.0,0.81289
1500.0,0.81395
1505.0,0.81448
1510.0,0.81557
1515.0,0.81692
1520.0,0.81651
1525.0,0.81787
1530.0,0.81791
1535.0,0.8186
1540.0,0.81951
1545.0,0.82022
1550.0,0.82064
1555.0,0.82176
1560.0,0.82169
1565.0,0.82187
1570.0,0.82202
1575.0,0.82232
1580.0,0.82265
1585.0,0.82247
1590.0,0.82341
1595.0,0.8233
1600.0,0.82347
1605.0,0.82279
1610.0,0.82327
1615.0,0.82334
1620.0,0.82415
1625.0,0.82336
1630.0,0.82317
1635.0,0.82247
1640.0,0.82234
1645.0,0.82329
1650.0,0.82345
1655.0,0.82369
1660.0,0.82286
1665.0,0.82273
1670.0,0.82224
1675.0,0.82262
1680.0,0.82251
1685.0,0.82123
1690.0,0.8213
1695.0,0.82048
1700.0,0.8224
1705.0,0.82104
1710.0,0.82032
1715.0,0.82038
1720.0,0.81903
1725.0,0.81867
1730.0,0.81798
1735.0,0.81716
1740.0,0.81742
1745.0,0.81622
1750.0,0.81603
1755.0,0.81598
1760.0,0.81616
1765.0,0.81315
1770.0,0.8136
1775.0,0.8133
1780.0,0.81236
1785.0,0.8123
1790.0,0.81175
1795.0,0.81033
1800.0,0.81057
1805.0,0.81017
1810.0,0.80872
1815.0,0.80852
1820.0,0.80832
1825.0,0.80746
1830.0,0.80696
1835.0,0.80667
1840.0,0.80626
1845.0,0.80513
1850.0,0.80318
1855.0,0.8011
1860.0,0.7987
1865.0,0.79496
1870.0,0.78633
1875.0,0.77275
1880.0,0.75502
1885.0,0.74021
1890.0,0.72845
1895.0,0.71596
1900.0,0.70314
1905.0,0.69295
1910.0,0.68589
1915.0,0.68339
1920.0,0.6823
1925.0,0.68532
1930.0,0.68643
1935.0,0.69057
1940.0,0.69546
1945.0,0.69863
1950.0,0.70077
1955.0,0.70241
1960.0,0.705
1965.0,0.70746
1970.0,0.70864
1975.0,0.71082
1980.0,0.71362
1985.0,0.71675
1990.0,0.71946
1995.0,0.72157
2000.0,0.72517
2005.0,0.72944
2010.0,0.73356
2015.0,0.7374
2020.0,0.7398
2025.0,0.7424
2030.0,0.74362
2035.0,0.74606
2040.0,0.74831
2045.0,0.74993
2050.0,0.75287
2055.0,0.75619
2060.0,0.75687
2065.0,0.75826
2070.0,0.75877
2075.0,0.75818
2080.0,0.75376
2085.0,0.74982
2090.0,0.74458
2095.0,0.74185
2100.0,0.74467
2105.0,0.74842
2110.0,0.75034
2115.0,0.75131
2120.0,0.74758
2125.0,0.74622
2130.0,0.7471
2135.0,0.75031
2140.0,0.75069
2145.0,0.75357
2150.0,0.75529
2155.0,0.7569
2160.0,0.75643
2165.0,0.75493
2170.0,0.7551
2175.0,0.75299
2180.0,0.75046
2185.0,0.74679
2190.0,0.74602
2195.0,0.74738
2200.0,0.74456
2205.0,0.74473
2210.0,0.74239
2215.0,0.73955
2220.0,0.7364
2225.0,0.73043
2230.0,0.72359
2235.0,0.71794
2240.0,0.71108
2245.0,0.70547
2250.0,0.69768
2255.0,0.69252
2260.0,0.68621
2265.0,0.67725
2270.0,0.66915
2275.0,0.66498
2280.0,0.66005
2285.0,0.65299
2290.0,0.64201
2295.0,0.63253
2300.0,0.62435
2305.0,0.61226
2310.0,0.59376
2315.0,0.56971
2320.0,0.55271
2325.0,0.54928
2330.0,0.55958
2335.0,0.56361
2340.0,0.56741
2345.0,0.58918
2350.0,0.62023
2355.0,0.63673
2360.0,0.6451
2365.0,0.64374
2370.0,0.63753
2375.0,0.62541
2380.0,0.61227
2385.0,0.6097
2390.0,0.60942
2395.0,0.60777
2400.0,0.6027
2405.0,0.60323
2410.0,0.60596
2415.0,0.60328
2420.0,0.59952
2425.0,0.58824
2430.0,0.58338
2435.0,0.58184
2440.0,0.58121
2445.0,0.58013
2450.0,0.57584
2455.0,0.57498
2460.0,0.57337
2465.0,0.5727
2470.0,0.56741
2475.0,0.56136
2480.0,0.55477
2485.0,0.54762
2490.0,0.53974
2495.0,0.53285
2500.0,0.52471
2505.0,0.5215
2510.0,0.5215
2515.0,0.52208
2520.0,0.524
2525.0,0.52832
2530.0,0.53257
2535.0,0.53583
2540.0,0.53775
2545.0,0.53522
2550.0,0.53388
2551.9,0.53361
2553.1,0.53332
2554.4,0.53313
2555.7,0.53298
2556.9,0.53293
2558.2,0.53279
2559.4,0.53271
2560.7,0.53254
2562.0,0.5322
2563.2,0.53165
2564.5,0.5314
2565.8,0.53112
2567.1,0.53105
2568.3,0.53109
2569.6,0.53125
2570.9,0.53117
2572.1,0.53162
2573.4,0.53223
2574.7,0.53261
2576.0,0.53323
2577.3,0.5339
2578.5,0.53419
2579.8,0.53479
2581.1,0.53553
2582.4,0.53636
2583.7,0.53728
2585.0,0.53772
2586.3,0.53818
2587.5,0.53898
2588.8,0.53932
2590.1,0.53958
2591.4,0.53972
2592.7,0.54014
2594.0,0.54078
2595.3,0.5408
2596.6,0.53993
2597.9,0.53974
2599.2,0.53973
2600.5,0.53996
2601.8,0.54002
2603.1,0.54015
2604.4,0.5403
2605.7,0.54032
2607.1,0.53972
2608.4,0.53969
2609.7,0.53969
2611.0,0.53958
2612.3,0.53937
2613.6,0.53935
2614.9,0.53909
2616.3,0.53924
2617.6,0.53868
2618.9,0.53827
2620.2,0.53805
2621.6,0.53714
2622.9,0.53617
2624.2,0.53564
2625.5,0.53503
2626.9,0.53435
2628.2,0.53311
2629.5,0.53263
2630.9,0.53149
2632.2,0.52997
2633.5,0.5288
2634.9,0.52747
2636.2,0.52585
2637.6,0.52435
2638.9,0.52246
2640.2,0.52052
2641.6,0.51825
2642.9,0.51581
2644.3,0.51301
2645.6,0.51013
2647.0,0.50666
2648.3,0.5034
2649.7,0.50006
2651.0,0.49704
2652.4,0.49396
2653.8,0.49101
2655.1,0.48819
2656.5,0.48541
2657.8,0.48242
2659.2,0.4796
2660.6,0.47605
2661.9,0.47226
2663.3,0.46801
2664.7,0.46346
2666.0,0.45714
2667.4,0.44913
2668.8,0.43962
2670.1,0.42865
2671.5,0.41162
2672.9,0.39431
2674.3,0.37413
2675.7,0.34841
2677.0,0.31513
2678.4,0.28239
2679.8,0.25458
2681.2,0.23354
2682.6,0.21652
2684.0,0.20062
2685.4,0.18386
2686.8,0.16558
2688.1,0.14454
2689.5,0.12291
2690.9,0.10104
2692.3,0.0817
2693.7,0.06439
2695.1,0.05033
2696.5,0.03963
2697.9,0.03195
2699.3,0.02588
2700.8,0.02167
2702.1,0.01862
2703.6,0.01728
2705.0,0.01691
2706.4,0.01719
2707.8,0.01744
2709.2,0.01822
2710.6,0.01936
2712.1,0.02127
2713.5,0.02358
2714.9,0.02659
2716.3,0.02991
2717.7,0.03356
2719.2,0.03709
2720.6,0.04079
2722.0,0.0442
2723.4,0.04701
2724.9,0.0494
2726.3,0.05147
2727.7,0.053
2729.2,0.05424
2730.6,0.05507
2732.1,0.05576
2733.5,0.05628
2734.9,0.05691
2736.4,0.05761
2737.8,0.05862
2739.3,0.05995
2740.7,0.06187
2742.2,0.06443
2743.6,0.06764
2745.1,0.07158
2746.5,0.07632
2748.0,0.08166
2749.4,0.08746
2750.9,0.09355
2752.4,0.09981
2753.8,0.10586
2755.3,0.11181
2756.7,0.11771
2758.2,0.12289
2759.7,0.12773
2761.1,0.13212
2762.6,0.1361
2764.1,0.13968
2765.6,0.14278
2767.0,0.14551
2768.5,0.14804
2770.0,0.15029
2771.5,0.15227
2773.0,0.15389
2774.4,0.1553
2775.9,0.15663
2777.4,0.15776
2778.9,0.15872
2780.4,0.15964
2781.9,0.16044
2783.4,0.16119
2784.9,0.1618
2786.4,0.16238
2787.9,0.16287
2789.4,0.16311
2790.9,0.16324
2792.4,0.16341
2793.9,0.16353
2795.4,0.16356
2796.9,0.16353
2798.4,0.16347
2799.9,0.16335
2801.4,0.16321
2802.9,0.16301
2804.4,0.16272
2806.0,0.16234
2807.5,0.16205
2809.0,0.16193
2810.5,0.1619
2812.1,0.16193
2813.6,0.16198
2815.1,0.162
2816.6,0.16196
2818.2,0.16195
2819.7,0.16188
2821.2,0.16175
2822.8,0.16167
2824.3,0.1616
2825.9,0.16154
2827.4,0.16141
2828.9,0.16126
2830.5,0.16117
2832.0,0.16106
2833.6,0.16089
2835.1,0.16071
2836.7,0.16049
2838.2,0.16028
2839.8,0.16008
2841.3,0.15992
2842.9,0.1598
2844.4,0.15965
2846.0,0.15945
2847.6,0.15927
2849.1,0.15903
2850.7,0.1588
2852.3,0.15861
2853.8,0.15843
2855.4,0.15817
2857.0,0.15797
2858.6,0.15781
2860.1,0.15768
2861.7,0.15752
2863.3,0.1574
2864.9,0.15728
2866.5,0.15713
2868.1,0.15701
2869.6,0.15693
2871.2,0.15682
2872.8,0.15677
2874.4,0.15677
2876.0,0.15682
2877.6,0.15688
2879.2,0.15695
2880.8,0.157
2882.4,0.15704
2884.0,0.15714
2885.6,0.1573
2887.2,0.15743
2888.8,0.15751
2890.4,0.15759
2892.0,0.15771
2893.6,0.15782
2895.3,0.15793
2896.9,0.158
2898.5,0.15805
2900.1,0.15808
2901.8,0.15811
2903.4,0.15813
2905.0,0.15821
2906.6,0.15823
2908.3,0.1582
2909.9,0.15817
2911.5,0.15823
2913.2,0.15828
2914.8,0.15834
2916.4,0.15845
2918.1,0.15863
2919.7,0.15884
2921.4,0.15899
2923.0,0.15911
2924.7,0.15931
2926.3,0.15947
2928.0,0.15965
2929.6,0.15985
2931.3,0.16012
2932.9,0.16032
2934.6,0.16051
2936.3,0.16075
2937.9,0.16095
2939.6,0.16101
2941.3,0.16116
2942.9,0.16144
2944.6,0.16169
2946.3,0.16191
2947.9,0.16216
2949.6,0.16249
2951.3,0.16293
2953.0,0.16336
2954.7,0.16375
2956.3,0.16414
2958.0,0.16457
2959.7,0.16502
2961.4,0.16547
2963.1,0.1659
2964.8,0.16632
2966.5,0.16666
2968.2,0.16701
2969.9,0.16746
2971.6,0.16798
2973.3,0.16847
2975.0,0.16893
2976.7,0.1694
2978.4,0.16991
2980.1,0.17037
2981.8,0.17081
2983.6,0.17124
2985.3,0.1717
2987.0,0.17226
2988.7,0.17279
2990.4,0.17322
2992.2,0.17371
2993.9,0.17421
2995.6,0.17468
2997.4,0.1752
2999.1,0.17577
3000.8,0.17629
3002.6,0.17677
3004.3,0.17725
3006.1,0.17775
3007.8,0.17824
3009.5,0.17879
3011.3,0.1793
3013.0,0.17979
3014.8,0.18029
3016.5,0.18082
3018.3,0.18134
3020.1,0.18184
3021.8,0.1823
3023.6,0.18272
3025.3,0.18318
3027.1,0.18378
3028.9,0.18434
3030.6,0.18485
3032.4,0.18536
3034.2,0.18585
3036.0,0.1863
3037.7,0.18672
3039.5,0.18718
3041.3,0.18769
3043.1,0.18815
3044.9,0.18857
3046.7,0.18892
3048.5,0.18926
3050.3,0.18965
3052.1,0.19004
3053.8,0.19031
3055.6,0.1906
3057.4,0.19091
3059.3,0.19131
3061.1,0.19171
3062.9,0.19205
3064.7,0.19236
3066.5,0.19269
3068.3,0.19298
3070.1,0.19323
3071.9,0.1935
3073.8,0.19379
3075.6,0.19407
3077.4,0.19435
3079.2,0.19456
3081.1,0.19483
3082.9,0.19512
3084.7,0.19539
3086.6,0.19562
3088.4,0.19584
3090.2,0.19609
3092.1,0.1963
3093.9,0.19656
3095.8,0.19698
3097.6,0.19741
3099.5,0.1978
3101.3,0.19812
3103.2,0.1985
3105.1,0.19894
3106.9,0.1994
3108.8,0.19984
3110.6,0.20028
3112.5,0.20073
3114.4,0.20122
3116.2,0.20171
3118.1,0.20224
3120.0,0.20271
3121.9,0.20315
3123.8,0.20361
3125.6,0.20417
3127.5,0.20474
3129.4,0.20531
3131.3,0.20592
3133.2,0.20656
3135.1,0.20719
3137.0,0.20786
3138.9,0.20857
3140.8,0.2093
3142.7,0.21002
3144.6,0.21077
3146.5,0.21154
3148.4,0.21236
3150.3,0.21314
3152.2,0.21392
3154.1,0.21468
3156.1,0.21548
3158.0,0.21624
3159.9,0.21698
3161.8,0.21771
3163.8,0.21844
3165.7,0.21915
3167.6,0.21987
3169.6,0.22059
3171.5,0.22122
3173.5,0.22193
3175.4,0.22272
3177.3,0.2234
3179.3,0.22407
3181.2,0.22474
3183.2,0.22539
3185.1,0.226
3187.1,0.22668
3189.1,0.2274
3191.0,0.22808
3193.0,0.22865
3195.0,0.22924
3196.9,0.2299
3198.9,0.23055
3200.9,0.23115
3202.9,0.23169
3204.8,0.23215
3206.8,0.23273
3208.8,0.23332
3210.8,0.23403
3212.8,0.23477
3214.8,0.23535
3216.8,0.23585
3218.8,0.23647
3220.8,0.23711
3222.8,0.23764
3224.8,0.23812
3226.8,0.23863
3228.8,0.23913
3230.8,0.23964
3232.8,0.24012
3234.8,0.24052
3236.8,0.24096
3238.9,0.24147
3240.9,0.24193
3242.9,0.24238
3244.9,0.24288
3247.0,0.2433
3249.0,0.2437
3251.1,0.24419
3253.1,0.24454
3255.1,0.24455
3257.2,0.24422
3259.2,0.24352
3261.3,0.24267
3263.3,0.24196
3265.4,0.24148
3267.4,0.24126
3269.5,0.24124
3271.6,0.24132
3273.6,0.24144
3275.7,0.24175
3277.8,0.24234
3279.8,0.24319
3281.9,0.24407
3284.0,0.24482
3286.1,0.24552
3288.2,0.24627
3290.2,0.24711
3292.3,0.24782
3294.4,0.24839
3296.5,0.24897
3298.6,0.24956
3300.7,0.25008
3302.8,0.25055
3304.9,0.25093
3307.0,0.25127
3309.1,0.25164
3311.3,0.25199
3313.4,0.25234
3315.5,0.25263
3317.6,0.25289
3319.7,0.25318
3321.9,0.25345
3324.0,0.25365
3326.1,0.25368
3328.3,0.25359
3330.4,0.25343
3332.5,0.25324
3334.7,0.25299
3336.8,0.2528
3339.0,0.25274
3341.1,0.25263
3343.3,0.25263
3345.4,0.25277
3347.6,0.25291
3349.8,0.25297
3351.9,0.25297
3354.1,0.25289
3356.3,0.25269
3358.4,0.2524
3360.6,0.25202
3362.8,0.25162
3365.0,0.25122
3367.2,0.25079
3369.4,0.25043
3371.5,0.25013
3373.7,0.24996
3375.9,0.24998
3378.1,0.25013
3380.3,0.25034
3382.5,0.25065
3384.7,0.25102
3386.9,0.25137
3389.2,0.25173
3391.4,0.25192
3393.6,0.25181
3395.8,0.25142
3398.1,0.25077
3400.3,0.24989
3402.5,0.24876
3404.7,0.24751
3407.0,0.24625
3409.2,0.24509
3411.5,0.24422
3413.7,0.24383
3416.0,0.24404
3418.2,0.24479
3420.5,0.24601
3422.7,0.24762
3425.0,0.24945
3427.3,0.25133
3429.5,0.25314
3431.8,0.25478
3434.1,0.25638
3436.3,0.25792
3438.6,0.25931
3440.9,0.2606
3443.2,0.26188
3445.5,0.26326
3447.8,0.2646
3450.1,0.26583
3452.4,0.26695
3454.6,0.268
3456.9,0.26899
3459.3,0.26988
3461.6,0.27067
3463.9,0.27138
3466.2,0.2721
3468.5,0.27288
3470.8,0.27376
3473.2,0.27471
3475.5,0.27582
3477.8,0.27714
3480.1,0.2786
3482.5,0.28051
3484.8,0.28276
3487.2,0.28509
3489.5,0.2874
3491.9,0.28962
3494.2,0.29169
3496.6,0.29351
3498.9,0.29526
3501.3,0.29706
3503.7,0.29904
3506.0,0.30137
3508.4,0.30402
3510.8,0.30684
3513.2,0.30981
3515.5,0.31288
3517.9,0.31588
3520.3,0.31876
3522.7,0.32149
3525.1,0.3242
3527.5,0.32692
3529.9,0.32971
3532.3,0.3326
3534.7,0.33541
3537.1,0.33807
3539.5,0.34059
3541.9,0.343
3544.4,0.34531
3546.8,0.34749
3549.2,0.34955
3551.7,0.35149
3554.1,0.35334
3556.5,0.35503
3559.0,0.3565
3561.4,0.35787
3563.9,0.35906
3566.3,0.36008
3568.8,0.3609
3571.2,0.36155
3573.7,0.36214
3576.1,0.36285
3578.6,0.36377
3581.1,0.36498
3583.6,0.36648
3586.0,0.36825
3588.5,0.37009
3591.0,0.37181
3593.5,0.37324
3596.0,0.37439
3598.5,0.37526
3601.0,0.37597
3603.5,0.37665
3606.0,0.37756
3608.5,0.3787
3611.0,0.37996
3613.5,0.38118
3616.1,0.38231
3618.6,0.38331
3621.1,0.38428
3623.6,0.3853
3626.2,0.38641
3628.7,0.38742
3631.3,0.38838
3633.8,0.38926
3636.3,0.39004
3638.9,0.3907
3641.4,0.39132
3644.0,0.39198
3646.6,0.39261
3649.1,0.39315
3651.7,0.39365
3654.3,0.39413
3656.9,0.39454
3659.4,0.39484
3662.0,0.39503
3664.6,0.395
3667.2,0.39486
3669.8,0.39471
3672.4,0.39448
3675.0,0.39408
3677.6,0.39365
3680.2,0.39346
3682.8,0.39358
3685.4,0.39388
3688.1,0.39436
3690.7,0.39496
3693.3,0.39559
3695.9,0.39618
3698.6,0.39676
3701.2,0.39733
3703.9,0.39786
3706.5,0.39825
3709.2,0.39847
3711.8,0.39843
3714.5,0.39818
3717.1,0.39789
3719.8,0.39743
3722.5,0.39669
3725.2,0.39595
3727.8,0.39547
3730.5,0.39506
3733.2,0.39434
3735.9,0.39338
3738.6,0.39223
3741.3,0.39109
3744.0,0.39002
3746.7,0.38893
3749.4,0.38776
3752.1,0.38653
3754.8,0.38521
3757.6,0.38386
3760.3,0.38242
3763.0,0.38086
3765.7,0.3792
3768.5,0.37743
3771.2,0.3755
3774.0,0.37351
3776.7,0.37145
3779.5,0.3694
3782.2,0.36737
3785.0,0.36547
3787.7,0.3637
3790.5,0.36205
3793.3,0.36054
3796.1,0.35919
3798.8,0.35794
3801.6,0.35685
3804.4,0.35581
3807.2,0.35485
3810.0,0.35392
3812.8,0.35297
3815.6,0.35192
3818.4,0.35082
3821.2,0.3496
3824.1,0.34833
3826.9,0.34699
3829.7,0.3456
3832.5,0.34409
3835.4,0.34247
3838.2,0.34074
3841.1,0.33893
3843.9,0.33704
3846.8,0.33519
3849.6,0.33349
3852.5,0.33203
3855.3,0.33073
3858.2,0.32951
3861.1,0.32827
3863.9,0.32701
3866.8,0.3257
3869.7,0.3245
3872.6,0.32338
3875.5,0.32232
3878.4,0.32119
3881.3,0.31992
3884.2,0.31839
3887.1,0.31665
3890.0,0.31469
3893.0,0.31258
3895.9,0.31028
3898.8,0.3079
3901.7,0.30551
3904.7,0.30312
3907.6,0.30069
3910.6,0.29826
3913.5,0.29578
3916.5,0.29321
3919.4,0.29054
3922.4,0.28781
3925.4,0.28489
3928.4,0.28187
3931.3,0.27881
3934.3,0.27596
3937.3,0.27354
3940.3,0.27167
3943.3,0.27031
3946.3,0.26952
3949.3,0.26929
3952.3,0.26975
3955.3,0.27106
3958.3,0.27331
3961.4,0.27651
3964.4,0.28072
3967.4,0.28586
3970.5,0.29176
3973.5,0.2982
3976.6,0.30499
3979.6,0.31186
3982.6,0.31878
3985.7,0.32563
3988.8,0.33234
3991.9,0.33882
3994.9,0.34503
3998.0,0.35094
4001.1,0.3566
4004.2,0.36203
4007.3,0.36734
4010.4,0.37258
4013.5,0.37785
4016.6,0.3831
4019.7,0.38832
4022.8,0.3934
4025.9,0.39841
4029.1,0.40315
4032.2,0.40751
4035.3,0.41147
4038.5,0.41514
4041.6,0.41847
4044.8,0.42148
4047.9,0.42413
4051.1,0.42654
4054.3,0.4287
4057.4,0.43065
4060.6,0.43234
4063.8,0.43388
4067.0,0.43519
4070.2,0.43632
4073.4,0.43729
4076.6,0.43819
4079.8,0.43898
4083.0,0.43969
4086.2,0.44022
4089.4,0.44071
4092.7,0.44111
4095.9,0.4415
4099.1,0.44182
4102.4,0.44211
4105.6,0.4423
4108.9,0.44248
4112.1,0.44261
4115.4,0.44276
4118.7,0.44283
4122.0,0.44294
4125.2,0.44301
4128.5,0.44309
4131.8,0.44311
4135.1,0.44311
4138.4,0.44308
4141.7,0.44308
4145.0,0.44302
4148.3,0.44299
4151.6,0.4429
4155.0,0.44281
4158.3,0.44267
4161.6,0.44255
4165.0,0.44232
4168.3,0.44212
4171.7,0.44187
4175.0,0.4416
4178.4,0.44129
4181.8,0.441
4185.2,0.44068
4188.5,0.44036
4191.9,0.43997
4195.3,0.4396
4198.7,0.43917
4202.1,0.43875
4205.5,0.43819
4208.9,0.43757
4212.4,0.4369
4215.8,0.43633
4219.2,0.43574
4222.6,0.43523
4226.1,0.43468
4229.5,0.43423
4233.0,0.43372
4236.5,0.43336
4239.9,0.43302
4243.4,0.43285
4246.9,0.43268
4250.3,0.43282
4253.8,0.43318
4257.3,0.43344
4260.8,0.43285
4264.3,0.43197
4267.8,0.43145
4271.3,0.43125
4274.9,0.43108
4278.4,0.43101
4281.9,0.43082
4285.5,0.43062
4289.0,0.43034
4292.6,0.43012
4296.1,0.42985
4299.7,0.42964
4303.3,0.4294
4306.8,0.42927
4310.4,0.42916
4314.0,0.42909
4317.6,0.42892
4321.2,0.42883
4324.8,0.42876
4328.4,0.42872
4332.0,0.4286
4335.6,0.4285
4339.3,0.42827
4342.9,0.42804
4346.5,0.42775
4350.2,0.42752
4353.8,0.42719
4357.5,0.42691
4361.1,0.42657
4364.8,0.42625
4368.5,0.42588
4372.2,0.42557
4375.9,0.42522
4379.6,0.4249
4383.3,0.42455
4387.0,0.42425
4390.7,0.42389
4394.4,0.42354
4398.1,0.42315
4401.9,0.42286
4405.6,0.42255
4409.4,0.42229
4413.1,0.42196
4416.9,0.42169
4420.6,0.42135
4424.4,0.42103
4428.2,0.42067
4432.0,0.42038
4435.8,0.42
4439.6,0.41964
4443.4,0.41925
4447.2,0.4189
4451.0,0.41849
4454.8,0.41809
4458.6,0.41762
4462.5,0.41716
4466.3,0.41662
4470.2,0.41615
4474.0,0.41563
4477.9,0.41513
4481.8,0.4146
4485.6,0.41413
4489.5,0.4136
4493.4,0.41312
4497.3,0.41261
4501.2,0.41216
4505.1,0.41162
4509.0,0.41114
4513.0,0.41057
4516.9,0.40997
4520.8,0.40927
4524.8,0.4086
4528.7,0.40781
4532.7,0.40702
4536.7,0.40616
4540.6,0.40531
4544.6,0.4044
4548.6,0.40356
4552.6,0.4027
4556.6,0.4019
4560.6,0.40102
4564.6,0.40024
4568.6,0.39947
4572.7,0.39884
4576.7,0.39826
4580.8,0.39775
4584.8,0.39721
4588.9,0.39683
4592.9,0.39651
4597.0,0.39634
4601.1,0.39623
4605.2,0.3963
4609.3,0.39636
4613.4,0.39656
4617.5,0.39678
4621.6,0.39703
4625.7,0.39719
4629.8,0.39735
4634.0,0.39742
4638.1,0.39751
4642.3,0.39753
4646.4,0.39753
4650.6,0.39742
4654.8,0.39731
4659.0,0.39713
4663.1,0.39701
4667.3,0.39679
4671.5,0.39663
4675.8,0.39639
4680.0,0.39617
4684.2,0.3958
4688.4,0.39542
4692.7,0.39496
4696.9,0.39447
4701.2,0.39377
4705.5,0.39307
4709.7,0.39225
4714.0,0.39143
4718.3,0.3905
4722.6,0.38956
4726.9,0.3885
4731.2,0.38746
4735.5,0.38634
4739.9,0.3853
4744.2,0.38425
4748.5,0.38331
4752.9,0.38242
4757.3,0.38165
4761.6,0.38092
4766.0,0.3804
4770.4,0.37991
4774.8,0.3796
4779.2,0.37934
4783.6,0.37916
4788.0,0.379
4792.4,0.37899
4796.9,0.37887
4801.3,0.3788
4805.8,0.37865
4810.2,0.37856
4814.7,0.37838
4819.1,0.37821
4823.6,0.37787
4828.1,0.37755
4832.6,0.37715
4837.1,0.37674
4841.6,0.3762
4846.2,0.37566
4850.7,0.37497
4855.3,0.37428
4859.8,0.3735
4864.4,0.37275
4868.9,0.37185
4873.5,0.37101
4878.1,0.37007
4882.7,0.36917
4887.3,0.36819
4891.9,0.36727
4896.5,0.3663
4901.1,0.36544
4905.8,0.36455
4910.4,0.36383
4915.1,0.36308
4919.7,0.36242
4924.4,0.36176
4929.1,0.36127
4933.8,0.36077
4938.5,0.36039
4943.2,0.35996
4947.9,0.35963
4952.6,0.35918
4957.4,0.35873
4962.1,0.35807
4966.9,0.35738
4971.6,0.3565
4976.4,0.35553
4981.2,0.35442
4986.0,0.35327
4990.8,0.35191
4995.6,0.35052
5000.4,0.34895
5005.2,0.34741
5010.0,0.34581
5014.9,0.34427
5019.8,0.34268
5024.6,0.34119
5029.5,0.33965
5034.4,0.33825
5039.3,0.33682
5044.2,0.33551
5049.1,0.33424
5054.0,0.33319
5058.9,0.33231
5063.9,0.33182
5068.8,0.33145
5073.8,0.33122
5078.8,0.33082
5083.7,0.33029
5088.7,0.32952
5093.7,0.32883
5098.7,0.32815
5103.7,0.32761
5108.8,0.32696
5113.8,0.32628
5118.9,0.3254
5123.9,0.32449
5129.0,0.32342
5134.1,0.32237
5139.1,0.32122
5144.3,0.32007
5149.4,0.31875
5154.5,0.31745
5159.6,0.31604
5164.7,0.31467
5169.9,0.31316
5175.0,0.31169
5180.2,0.3101
5185.4,0.30853
5190.6,0.30685
5195.8,0.3052
5201.0,0.30337
5206.2,0.30151
5211.5,0.29959
5216.7,0.29761
5222.0,0.29549
5227.2,0.29344
5232.5,0.29129
5237.8,0.28924
5243.1,0.28716
5248.4,0.28532
5253.7,0.28345
5259.0,0.28171
5264.4,0.27994
5269.7,0.27822
5275.1,0.2764
5280.5,0.27462
5285.8,0.27273
5291.2,0.27091
5296.6,0.26887
5302.0,0.26687
5307.5,0.26476
5312.9,0.26264
5318.4,0.26045
5323.8,0.25824
5329.3,0.25586
5334.8,0.25347
5340.3,0.25088
5345.8,0.24824
5351.3,0.24532
5356.8,0.24229
5362.4,0.2392
5367.9,0.23616
5373.5,0.23299
5379.0,0.22978
5384.6,0.22644
5390.2,0.22304
5395.8,0.21951
5401.5,0.21591
5407.1,0.21217
5412.7,0.20841
5418.4,0.20464
5424.1,0.20075
5429.7,0.19687
5435.4,0.19331
5441.1,0.1898
5446.8,0.18654
5452.6,0.18354
5458.3,0.18103
5464.1,0.17888
5469.8,0.17712
5475.6,0.1759
5481.4,0.17518
5487.2,0.17479
5493.0,0.17474
5498.8,0.1747
5504.7,0.17453
5510.5,0.17382
5516.4,0.17254
5522.3,0.17052
5528.1,0.16805
5534.0,0.16543
5540.0,0.16314
5545.9,0.16152
5551.8,0.16072
5557.8,0.16062
5563.7,0.16133
5569.7,0.16282
5575.7,0.16515
5581.7,0.16799
5587.7,0.17075
5593.7,0.17319
5599.8,0.17546
5605.8,0.17729
5611.9,0.17867
5618.0,0.17949
5624.1,0.17983
5630.2,0.17971
5636.3,0.17944
5642.4,0.17882
5648.6,0.17799
5654.7,0.1771
5660.9,0.1763
5667.1,0.17545
5673.3,0.17472
5679.5,0.17379
5685.7,0.17299
5692.0,0.17221
5698.2,0.17153
5704.5,0.17088
5710.8,0.17029
5717.1,0.16945
5723.4,0.16868
5729.7,0.16774
5736.1,0.16687
5742.4,0.16592
5748.8,0.16499
5755.1,0.16385
5761.5,0.16296
5768.0,0.16179
5774.4,0.16061
5780.8,0.15952
5787.3,0.15848
5793.7,0.15726
5800.2,0.15602
5806.7,0.15448
5813.2,0.15306
5819.7,0.15144
5826.3,0.14958
5832.8,0.14749
5839.4,0.14545
5846.0,0.14329
5852.6,0.14121
5859.2,0.13909
5865.8,0.13706
5872.5,0.13517
5879.1,0.13359
5885.8,0.1316
5892.5,0.12997
5899.2,0.12808
5905.9,0.1262
5912.6,0.12449
5919.4,0.1228
5926.2,0.12113
5932.9,0.11965
5939.7,0.11773
5946.5,0.1158
5953.4,0.11382
5960.2,0.11192
5967.1,0.10993
5974.0,0.10784
5980.8,0.10576
5987.8,0.10378
5994.7,0.10154
6001.6,0.09941
6008.6,0.09724
6015.5,0.09503
6022.5,0.09264
6029.5,0.09048
6036.5,0.08838
6043.6,0.08661
6050.6,0.08449
6057.7,0.08254
6064.8,0.08098
6071.9,0.07955
6079.0,0.07799
6086.1,0.07672
6093.3,0.07552
6100.5,0.07448
6107.6,0.07348
6114.9,0.07256
6122.1,0.07157
6129.3,0.07087
6136.5,0.07018
6143.8,0.06969
6151.1,0.06923
6158.4,0.06893
6165.7,0.06888
6173.1,0.06942
6180.4,0.07013
6187.8,0.07093
6195.2,0.07159
6202.6,0.0725
6210.0,0.07339
6217.5,0.07414
6225.0,0.07449
6232.4,0.07454
6239.9,0.07425
6247.5,0.07387
6255.0,0.0732
6262.5,0.07247
6270.1,0.07149
6277.7,0.07016
6285.3,0.06815
6293.0,0.066
6300.6,0.0638
6308.3,0.06172
6315.9,0.05956
6323.6,0.05741
6331.4,0.05512
6339.1,0.05296
6346.9,0.05039
6354.6,0.04793
6362.4,0.04553
6370.3,0.04304
6378.1,0.04053
6385.9,0.03841
6393.8,0.03644
6401.7,0.03495
6409.6,0.03373
6417.6,0.03273
6425.5,0.03208
6433.5,0.03176
6441.5,0.03156
6449.5,0.03171
6457.5,0.03206
6465.6,0.03261
6473.6,0.03306
6481.7,0.03341
6489.8,0.03358
6498.0,0.03368
6506.1,0.03366
6514.3,0.03365
6522.5,0.03349
6530.7,0.03323
6539.0,0.03286
6547.2,0.03246
6555.5,0.03188
6563.8,0.0313
6572.1,0.03065
6580.4,0.03009
6588.8,0.02964
6597.2,0.02937
6605.6,0.02936
6614.0,0.02976
6622.5,0.03056
6630.9,0.03192
6639.4,0.03407
6647.9,0.037
6656.5,0.04005
6665.0,0.04282
6673.6,0.04459
6682.2,0.04541
6690.8,0.04526
6699.5,0.04441
6708.1,0.04266
6716.8,0.04056
6725.5,0.0384
6734.3,0.03606
6743.0,0.03343
6751.8,0.03124
6760.6,0.02996
6769.4,0.02942
6778.3,0.02892
6787.1,0.02838
6796.0,0.02789
6805.0,0.02774
6813.9,0.02789
6822.9,0.02845
6831.9,0.0293
6840.9,0.02993
6849.9,0.02972
6859.0,0.02897
6868.0,0.02839
6877.2,0.02863
6886.3,0.02943
6895.5,0.03073
6904.6,0.0324
6913.8,0.03441
6923.1,0.03669
6932.3,0.03933
6941.6,0.04226
6950.9,0.04518
6960.2,0.04813
6969.6,0.0509
6979.0,0.05327
6988.4,0.05536
6997.8,0.05704
7007.3,0.05806
7016.8,0.0584
7026.3,0.05818
7035.8,0.05791
7045.4,0.05788
7054.9,0.05819
7064.5,0.05865
7074.2,0.05913
7083.9,0.0595
7093.5,0.05979
7103.3,0.06002
7113.0,0.06021
7122.8,0.0604
7132.6,0.06078
7142.4,0.06144
7152.2,0.06253
7162.1,0.06396
7172.0,0.06567
7182.0,0.06745
7191.9,0.06925
7201.9,0.07118
7211.9,0.07335
7222.0,0.07565
7232.0,0.07811
7242.1,0.08053
7252.3,0.08281
7262.4,0.08484
7272.6,0.08676
7282.8,0.08843
7293.1,0.08993
7303.3,0.09135
7313.6,0.09269
7324.0,0.0938
7334.3,0.09491
7344.7,0.09585
7355.1,0.09668
7365.6,0.09738
7376.1,0.09809
7386.6,0.09879
7397.1,0.09964
7407.7,0.10052
7418.3,0.10148
7428.9,0.10242
7439.6,0.10346
7450.2,0.1045
7461.0,0.1056
7471.7,0.10661
7482.5,0.10762
7493.3,0.1086
7504.2,0.10969
7515.0,0.11075
7525.9,0.11183
7536.9,0.1129
7547.9,0.11402
7558.9,0.11511
7569.9,0.11629
7581.0,0.11753
7592.0,0.11884
7603.2,0.12006
7614.4,0.12128
7625.5,0.1223
7636.8,0.12326
7648.0,0.12407
7659.3,0.1248
7670.7,0.12536
7682.0,0.12577
7693.4,0.1259
7704.9,0.12595
7716.3,0.12593
7727.8,0.12596
7739.4,0.12585
7750.9,0.12559
7762.5,0.12514
7774.2,0.12462
7785.8,0.12397
7797.5,0.12332
7809.3,0.12254
7821.1,0.12177
7832.9,0.12092
7844.7,0.12002
7856.6,0.11899
7868.5,0.11792
7880.5,0.1168
7892.5,0.11568
7904.5,0.11447
7916.6,0.11316
7928.7,0.11171
7940.8,0.11023
7953.0,0.10869
7965.2,0.10717
7977.5,0.10555
7989.8,0.10382
8002.1,0.10205
8014.5,0.10038
8026.9,0.09886
8039.3,0.09758
8051.8,0.09647
8064.3,0.09552
8076.9,0.09464
8089.5,0.09377
8102.1,0.09278
8114.8,0.09155
8127.5,0.09
8140.3,0.08822
8153.1,0.08641
8165.9,0.08481
8178.8,0.08362
8191.7,0.08283
8204.7,0.0821
8217.7,0.08129
8230.7,0.08037
8243.8,0.07939
8256.9,0.07835
8270.1,0.0773
8283.3,0.07627
8296.6,0.07537
8309.9,0.07466
8323.2,0.07405
8336.6,0.07342
8350.0,0.07277
8363.5,0.07207
8377.0,0.07132
8390.5,0.07055
8404.2,0.06972
8417.8,0.0689
8431.5,0.06823
8445.2,0.06772
8459.0,0.06726
8472.8,0.06673
8486.7,0.06616
8500.6,0.06557
8514.5,0.06494
8528.5,0.06427
8542.6,0.06353
8556.7,0.06274
8570.8,0.06197
8585.0,0.06114
8599.3,0.06025
8613.5,0.05937
8627.9,0.05843
8642.3,0.05751
8656.7,0.0566
8671.2,0.05562
8685.7,0.05458
8700.3,0.05352
8714.9,0.05242
8729.5,0.05129
8744.3,0.05005
8759.0,0.04886
8773.9,0.04771
8788.7,0.04651
8803.7,0.04536
8818.6,0.04435
8833.7,0.04333
8848.7,0.04233
8863.8,0.04146
8879.0,0.04073
8894.3,0.03998
8909.5,0.03926
8924.9,0.03853
8940.3,0.03774
8955.7,0.03685
8971.2,0.0359
8986.8,0.03508
9002.3,0.03455
9018.0,0.03396
9033.7,0.03311
9049.5,0.03209
9065.3,0.03089
9081.2,0.02949
9097.1,0.02792
9113.1,0.02624
9129.1,0.02454
9145.2,0.02286
9161.4,0.02142
9177.6,0.02023
9193.9,0.01928
9210.2,0.01855
9226.6,0.01808
9243.0,0.01775
9259.6,0.01753
9276.1,0.0174
9292.7,0.01732
9309.4,0.01733
9326.2,0.0175
9343.0,0.01773
9359.8,0.01802
9376.8,0.01849
9393.8,0.01915
9410.8,0.0199
9427.9,0.0207
9445.1,0.02158
9462.3,0.02241
9479.6,0.02319
9497.0,0.02394
9514.4,0.02449
9531.9,0.02486
9549.4,0.02501
9567.0,0.02503
9584.7,0.02493
9602.5,0.02478
9620.3,0.02456
9638.2,0.02438
9656.1,0.02424
9674.2,0.02409
9692.2,0.02399
9710.4,0.02394
9728.6,0.02383
9746.9,0.02375
9765.2,0.02366
9783.7,0.02359
9802.2,0.02347
9820.7,0.02333
9839.4,0.02315
9858.1,0.02305
9876.8,0.02297
9895.7,0.0229
9914.6,0.02289
9933.6,0.02294
9952.7,0.02302
9971.8,0.02312
9991.0,0.02316
10010.3,0.02323
10029.7,0.02338
10049.1,0.02354
10068.6,0.02368
10088.2,0.02384
10107.9,0.02401
10127.6,0.02411
10147.5,0.02415
10167.3,0.02431
10187.3,0.02442
10207.4,0.02445
10227.5,0.02448
10247.7,0.02449
10268.0,0.02446
10288.4,0.0245
10308.8,0.02448
10329.4,0.02454
10350.0,0.02475
10370.7,0.02499
10391.5,0.02523
10412.3,0.02565
10433.3,0.02623
10454.3,0.02691
10475.5,0.0277
10496.7,0.0288
10517.9,0.03014
10539.3,0.0317
10560.8,0.03348
10582.3,0.03551
10604.0,0.03775
10625.7,0.04026
10647.5,0.04303
10669.4,0.0459
10691.4,0.04886
10713.5,0.05183
10735.7,0.05465
10758.0,0.05724
10780.3,0.05942
10802.8,0.06114
10825.4,0.06237
10848.0,0.06308
10870.8,0.06352
10893.6,0.06373
10916.5,0.06362
10939.5,0.06337
10962.7,0.06311
10985.9,0.06279
11009.2,0.06249
11032.7,0.06215
11056.2,0.0617
11079.8,0.06107
11103.5,0.05998
11127.4,0.05802
11151.3,0.05428
11175.3,0.04763
11199.5,0.04009
11223.7,0.03908
11248.0,0.04438
11272.5,0.04816
11297.0,0.04936
11321.7,0.0488
11346.5,0.04705
11371.4,0.04476
11396.4,0.04316
11421.5,0.04194
11446.7,0.03893
11472.0,0.03512
11497.5,0.03575
11523.0,0.04107
11548.7,0.04665
11574.4,0.05104
11600.3,0.05457
11626.3,0.05676
11652.5,0.05659
11678.7,0.05519
11705.1,0.05665
11731.6,0.05907
11758.2,0.0595
11784.9,0.05911
11811.7,0.05992
11838.7,0.06213
11865.8,0.06352
11893.0,0.06423
11920.3,0.06478
11947.8,0.06522
11975.4,0.06552
12003.1,0.06573
12031.0,0.06586
12059.0,0.06586
12087.1,0.06567
12115.3,0.06536
12143.7,0.06498
12172.2,0.06448
12200.8,0.06385
12229.6,0.06314
12258.5,0.06231
12287.6,0.06142
12316.8,0.0604
12346.1,0.05942
12375.5,0.05831
12405.1,0.05707
12434.9,0.05583
12464.8,0.05455
12494.8,0.05339
12525.0,0.05233
12555.3,0.05124
12585.8,0.05015
12616.4,0.049
12647.2,0.04792
12678.1,0.0469
12709.2,0.04582
12740.4,0.0446
12771.8,0.04343
12803.3,0.04222
12835.0,0.04099
12866.9,0.03976
12898.9,0.03857
12931.1,0.03724
12963.4,0.03595
12995.9,0.03464
13028.5,0.03319
13061.3,0.03155
13094.3,0.02972
13127.5,0.02784
13160.8,0.02581
13194.3,0.02354
13227.9,0.02126
13261.8,0.0193
13295.8,0.01822
13330.0,0.018
13364.3,0.0183
13398.8,0.01866
13433.6,0.01893
13468.5,0.01918
13503.5,0.01948
13538.8,0.01961
13574.2,0.01948
13609.9,0.01908
13645.7,0.01848
13681.7,0.01761
13717.9,0.01682
13754.3,0.01618
13790.8,0.01539
13827.6,0.01449
13864.6,0.01379
13901.8,0.01335
13939.1,0.0131
13976.7,0.0129
14014.5,0.01291
14052.5,0.0131
14090.7,0.0133
14129.0,0.01325
14167.6,0.01296
14206.5,0.01258
14245.5,0.0123
14284.7,0.01202
14324.2,0.01176
14363.9,0.01146
14403.8,0.01112
14443.9,0.0108
14484.3,0.01073
14524.8,0.01062
14565.6,0.01054
14606.7,0.01069
14647.9,0.01094
14689.4,0.01105
14731.2,0.01111
14773.1,0.01123
14815.3,0.01164
14857.8,0.0121
14900.5,0.01248
14943.4,0.01281
14986.6,0.01316
15030.0,0.01331
15073.7,0.01401
15117.7,0.01469
15161.9,0.01486
15206.3,0.01486
15251.1,0.01511
15296.0,0.01572
15341.3,0.01616
15386.8,0.01634
15432.6,0.01654
15478.7,0.01676
15525.0,0.01654
15571.7,0.01664
15618.6,0.01728
15665.8,0.01733
15713.2,0.01716
15761.0,0.01708
15809.0,0.01684
15857.4,0.01653
15906.0,0.0163
15955.0,0.01624
16004.2,0.016
16053.8,0.01585
16103.6,0.01612
16153.8,0.01642
16204.3,0.0166
16255.1,0.01665
16306.2,0.01657
16357.6,0.01645
16409.4,0.01669
16461.5,0.01692
16513.9,0.0168
16566.7,0.01648
16619.8,0.01621
16673.2,0.01602
16727.0,0.01575
16781.1,0.01552
16835.6,0.0153
16890.4,0.01482
16945.6,0.01456
17001.2,0.01456
17057.1,0.01461
17113.4,0.01478
17170.1,0.01504
17227.2,0.01487
17284.6,0.01477
17342.4,0.0148
17400.6,0.01482
17459.2,0.01469
17518.2,0.01493
17577.5,0.01524
17637.3,0.0149
17697.5,0.01466
17758.1,0.01451
17819.2,0.01424
17880.6,0.01378
17942.5,0.0136
18004.8,0.01374
18067.5,0.01369
18130.7,0.0132
18194.3,0.01246
18258.4,0.0122
18322.9,0.01202
18387.9,0.0117
18453.3,0.01131
18519.2,0.01088
18585.6,0.01055
18652.4,0.01007
18719.8,0.00956
18787.6,0.00938
18855.9,0.00933
18924.8,0.00921
18994.1,0.00934
19063.9,0.00947
19134.3,0.00985
19205.1,0.01053
19276.5,0.0116
19348.4,0.01311
19420.9,0.01493
19493.9,0.01696
19567.5,0.01895
19641.6,0.02078
19716.3,0.02239
19791.5,0.02397
19867.3,0.02585
19943.8,0.02787
20020.8,0.02956
20098.4,0.03104
20176.6,0.03227
20255.4,0.03356
20334.8,0.03484
20414.9,0.036
20495.6,0.0371
20576.9,0.03758
20658.9,0.03789
20741.5,0.0387
20824.8,0.03916
20908.8,0.03957
20993.4,0.03949
21078.8,0.03958
21164.8,0.04015
21251.6,0.04025
21339.0,0.04006
21427.2,0.04008
21516.1,0.04019
21605.8,0.04008
21696.2,0.04016
21787.3,0.04047
21879.3,0.04034
21972.0,0.04019
22065.5,0.03982
22159.7,0.03894
22254.8,0.03762
22350.8,0.03699
22447.5,0.03692
22545.1,0.03747
22643.6,0.03831
22742.9,0.03805
22843.1,0.03824
22944.2,0.03947
23046.2,0.0389
23149.0,0.03776
23252.8,0.03624
23357.6,0.03496
23463.3,0.03402
23569.9,0.03321
23677.5,0.03133
23786.1,0.02964
23895.8,0.02933
24006.4,0.02949
24118.0,0.02845
24230.7,0.02739
24344.5,0.02815
24459.4,0.02872
24575.3,0.02987
24692.3,0.03209
24810.4,0.03246
24929.7,0.03366
25050.2,0.03632
