Database of Origin,University of Winnipeg Spectrophotometer Facility
Sample Description,"Zeolites: RELAB + Nicolet spectra, Merged at 2.5 microns; note change in viewing geometry"
Date Added,2018-07-23 23:09:47.581712

Data ID,RLA_ZEO_1_15        
Sample ID,zeo119
Mineral Name,laumontite
Grain Size,<45 um
Viewing Geometry,"30/0,30"
Resolution,5/.6-129 nm

Wavelength
305.0,0.573128
310.0,0.579776
315.0,0.586652
320.0,0.598586
325.0,0.60499
330.0,0.615454
335.0,0.618616
340.0,0.630591
345.0,0.631394
350.0,0.642396
355.0,0.65092
360.0,0.652317
365.0,0.658223
370.0,0.664754
375.0,0.674074
380.0,0.677032
385.0,0.683203
390.0,0.689437
395.0,0.694802
400.0,0.696009
405.0,0.699228
410.0,0.70363
415.0,0.707838
420.0,0.71159
425.0,0.717091
430.0,0.720687
435.0,0.725485
440.0,0.728511
445.0,0.73274
450.0,0.736573
455.0,0.740203
460.0,0.741347
465.0,0.7452
470.0,0.746786
475.0,0.750485
480.0,0.751965
485.0,0.755163
490.0,0.757197
495.0,0.75951
500.0,0.763474
505.0,0.765179
510.0,0.767095
515.0,0.771921
520.0,0.771128
525.0,0.775062
530.0,0.775791
535.0,0.779653
540.0,0.78057
545.0,0.784038
550.0,0.784003
555.0,0.786651
560.0,0.788077
565.0,0.790685
570.0,0.791071
575.0,0.793031
580.0,0.793715
585.0,0.795723
590.0,0.795793
595.0,0.79706
600.0,0.796984
605.0,0.797711
610.0,0.798584
615.0,0.799719
620.0,0.799803
625.0,0.800306
630.0,0.800276
635.0,0.801513
640.0,0.801546
645.0,0.802349
650.0,0.802125
655.0,0.801528
660.0,0.802201
665.0,0.802079
670.0,0.802112
675.0,0.802134
680.0,0.802911
685.0,0.802602
690.0,0.803466
695.0,0.803093
700.0,0.803341
705.0,0.803043
710.0,0.803789
715.0,0.803539
720.0,0.803768
725.0,0.804203
730.0,0.804857
735.0,0.805067
740.0,0.803928
745.0,0.804745
750.0,0.804843
755.0,0.805013
760.0,0.803812
765.0,0.805938
770.0,0.806977
775.0,0.805665
780.0,0.806589
785.0,0.805142
790.0,0.805722
795.0,0.806431
800.0,0.80703
805.0,0.806626
810.0,0.806007
815.0,0.805465
820.0,0.805818
825.0,0.805954
830.0,0.80601
835.0,0.805157
840.0,0.806575
845.0,0.804029
850.0,0.80497
855.0,0.803393
860.0,0.805047
865.0,0.805178
870.0,0.804937
875.0,0.80403
880.0,0.803872
885.0,0.805084
890.0,0.805106
895.0,0.804688
900.0,0.804767
905.0,0.804009
910.0,0.804539
915.0,0.804308
920.0,0.803902
925.0,0.804871
930.0,0.803697
935.0,0.804333
940.0,0.803212
945.0,0.803574
950.0,0.802076
955.0,0.801596
960.0,0.80024
965.0,0.799379
970.0,0.798778
975.0,0.79936
980.0,0.798739
985.0,0.799912
990.0,0.80048
995.0,0.800725
1000.0,0.800774
1005.0,0.802002
1010.0,0.802142
1015.0,0.802658
1020.0,0.802619
1025.0,0.803267
1030.0,0.802421
1035.0,0.803924
1040.0,0.804062
1045.0,0.804056
1050.0,0.804054
1055.0,0.803574
1060.0,0.80456
1065.0,0.803976
1070.0,0.804465
1075.0,0.804213
1080.0,0.804234
1085.0,0.8042
1090.0,0.804219
1095.0,0.804058
1100.0,0.804173
1105.0,0.803789
1110.0,0.803679
1115.0,0.803506
1120.0,0.803578
1125.0,0.802634
1130.0,0.801996
1135.0,0.801948
1140.0,0.799595
1145.0,0.798164
1150.0,0.795031
1155.0,0.791018
1160.0,0.788727
1165.0,0.788555
1170.0,0.788959
1175.0,0.790892
1180.0,0.792434
1185.0,0.793882
1190.0,0.79429
1195.0,0.795123
1200.0,0.795142
1205.0,0.793982
1210.0,0.792822
1215.0,0.792915
1220.0,0.793236
1225.0,0.792912
1230.0,0.792359
1235.0,0.793472
1240.0,0.794771
1245.0,0.793432
1250.0,0.793815
1255.0,0.796069
1260.0,0.794581
1265.0,0.79328
1270.0,0.79151
1275.0,0.793823
1280.0,0.791143
1285.0,0.79
1290.0,0.791405
1295.0,0.789939
1300.0,0.789267
1305.0,0.788245
1310.0,0.786677
1315.0,0.786377
1320.0,0.782954
1325.0,0.781389
1330.0,0.779518
1335.0,0.778469
1340.0,0.774335
1345.0,0.772369
1350.0,0.768768
1355.0,0.76791
1360.0,0.766992
1365.0,0.761102
1370.0,0.75723
1375.0,0.753776
1380.0,0.751052
1385.0,0.741177
1390.0,0.732889
1395.0,0.724565
1400.0,0.709645
1405.0,0.689098
1410.0,0.666342
1415.0,0.649132
1420.0,0.636336
1425.0,0.629245
1430.0,0.628171
1435.0,0.633799
1440.0,0.64098
1445.0,0.648677
1450.0,0.659117
1455.0,0.668229
1460.0,0.67279
1465.0,0.671604
1470.0,0.67323
1475.0,0.678948
1480.0,0.687591
1485.0,0.694212
1490.0,0.702639
1495.0,0.710412
1500.0,0.713941
1505.0,0.717778
1510.0,0.724882
1515.0,0.726989
1520.0,0.72825
1525.0,0.732424
1530.0,0.734246
1535.0,0.734838
1540.0,0.736391
1545.0,0.741364
1550.0,0.741076
1555.0,0.743645
1560.0,0.742935
1565.0,0.743609
1570.0,0.741463
1575.0,0.744588
1580.0,0.74401
1585.0,0.74497
1590.0,0.743499
1595.0,0.747871
1600.0,0.74478
1605.0,0.744438
1610.0,0.746494
1615.0,0.749747
1620.0,0.749393
1625.0,0.7478
1630.0,0.747609
1635.0,0.746772
1640.0,0.749984
1645.0,0.748586
1650.0,0.749594
1655.0,0.752545
1660.0,0.751704
1665.0,0.750821
1670.0,0.75163
1675.0,0.752602
1680.0,0.753078
1685.0,0.752648
1690.0,0.752618
1695.0,0.751668
1700.0,0.751624
1705.0,0.750694
1710.0,0.749706
1715.0,0.748531
1720.0,0.74675
1725.0,0.744497
1730.0,0.742242
1735.0,0.739808
1740.0,0.737491
1745.0,0.735345
1750.0,0.733677
1755.0,0.732844
1760.0,0.731704
1765.0,0.730586
1770.0,0.729252
1775.0,0.728788
1780.0,0.727989
1785.0,0.727344
1790.0,0.726188
1795.0,0.725986
1800.0,0.725602
1805.0,0.724149
1810.0,0.723838
1815.0,0.723566
1820.0,0.723865
1825.0,0.721489
1830.0,0.722063
1835.0,0.721095
1840.0,0.717342
1845.0,0.713792
1850.0,0.70992
1855.0,0.704807
1860.0,0.697273
1865.0,0.691197
1870.0,0.682006
1875.0,0.657471
1880.0,0.636415
1885.0,0.612999
1890.0,0.577316
1895.0,0.529404
1900.0,0.476624
1905.0,0.419128
1910.0,0.377731
1915.0,0.356079
1920.0,0.349189
1925.0,0.355576
1930.0,0.372581
1935.0,0.393559
1940.0,0.413937
1945.0,0.43097
1950.0,0.445042
1955.0,0.456559
1960.0,0.466549
1965.0,0.475665
1970.0,0.484599
1975.0,0.493595
1980.0,0.502241
1985.0,0.512049
1990.0,0.521262
1995.0,0.531304
2000.0,0.542063
2005.0,0.552812
2010.0,0.563416
2015.0,0.574228
2020.0,0.584084
2025.0,0.593292
2030.0,0.600323
2035.0,0.607629
2040.0,0.613879
2045.0,0.619702
2050.0,0.623928
2055.0,0.62801
2060.0,0.631597
2065.0,0.634272
2070.0,0.63612
2075.0,0.638247
2080.0,0.640659
2085.0,0.643097
2090.0,0.645261
2095.0,0.647192
2100.0,0.649474
2105.0,0.651566
2110.0,0.653817
2115.0,0.655283
2120.0,0.65778
2125.0,0.65927
2130.0,0.66051
2135.0,0.661689
2140.0,0.662391
2145.0,0.662966
2150.0,0.664002
2155.0,0.663678
2160.0,0.664551
2165.0,0.665197
2170.0,0.66485
2175.0,0.665198
2180.0,0.665376
2185.0,0.665483
2190.0,0.665366
2195.0,0.664568
2200.0,0.664243
2205.0,0.664072
2210.0,0.664461
2215.0,0.663724
2220.0,0.663715
2225.0,0.662946
2230.0,0.662806
2235.0,0.661198
2240.0,0.660443
2245.0,0.660369
2250.0,0.659475
2255.0,0.6587
2260.0,0.657754
2265.0,0.656713
2270.0,0.654018
2275.0,0.653043
2280.0,0.650968
2285.0,0.648392
2290.0,0.6449
2295.0,0.642333
2300.0,0.639159
2305.0,0.635738
2310.0,0.630771
2315.0,0.625459
2320.0,0.620015
2325.0,0.614022
2330.0,0.607951
2335.0,0.601096
2340.0,0.593596
2345.0,0.585578
2350.0,0.576382
2355.0,0.566876
2360.0,0.556653
2365.0,0.545089
2370.0,0.53428
2375.0,0.522516
2380.0,0.510038
2385.0,0.496992
2390.0,0.484754
2395.0,0.472854
2400.0,0.460399
2405.0,0.448441
2410.0,0.436764
2415.0,0.427721
2420.0,0.417298
2425.0,0.408101
2430.0,0.400951
2435.0,0.394713
2440.0,0.388294
2445.0,0.383471
2450.0,0.378802
2455.0,0.374251
2460.0,0.370754
2465.0,0.367257
2470.0,0.36372
2475.0,0.359789
2480.0,0.351351
2485.0,0.35158
2490.0,0.347553
2495.0,0.344326
2500.0,0.340904
2505.0,0.337513
2510.0,0.333989
2515.0,0.330848
2520.0,0.327222
2525.0,0.323695
2530.0,0.321249
2535.0,0.317155
2540.0,0.314089
2545.0,0.312414
2550.0,0.311195
2555.0,0.309881
2560.0,0.308029
2565.0,0.306813
2570.0,0.305108
2575.0,0.304625
2580.0,0.30293
2581.74,0.302759
2583.03,0.302802
2584.31,0.30196
2585.6,0.301917
2586.89,0.302151
2588.19,0.301485
2589.48,0.300726
2590.77,0.300377
2592.07,0.300349
2593.36,0.29995
2594.66,0.299236
2595.96,0.298819
2597.26,0.299272
2598.56,0.299194
2599.87,0.298109
2601.17,0.297616
2602.48,0.297495
2603.78,0.296951
2605.09,0.296026
2606.4,0.295581
2607.71,0.296192
2609.03,0.295654
2610.34,0.294637
2611.66,0.294702
2612.97,0.294484
2614.29,0.293476
2615.61,0.292547
2616.93,0.291816
2618.25,0.291496
2619.57,0.291509
2620.9,0.291129
2622.22,0.290994
2623.55,0.290717
2624.88,0.289843
2626.21,0.288398
2627.54,0.287394
2628.87,0.287432
2630.21,0.286763
2631.54,0.285627
2632.88,0.285234
2634.21,0.284523
2635.55,0.283555
2636.89,0.282743
2638.24,0.281867
2639.58,0.281066
2640.92,0.280407
2642.27,0.279505
2643.62,0.278458
2644.97,0.277493
2646.32,0.276529
2647.67,0.275493
2649.02,0.274204
2650.38,0.273293
2651.73,0.272413
2653.09,0.271107
2654.45,0.269898
2655.81,0.268634
2657.17,0.267374
2658.53,0.26606
2659.89,0.26471
2661.26,0.263734
2662.63,0.262547
2664.0,0.260897
2665.36,0.259174
2666.74,0.25744
2668.11,0.25588
2669.48,0.254149
2670.86,0.251597
2672.23,0.249672
2673.61,0.24835
2674.99,0.24608
2676.37,0.24376
2677.76,0.241796
2679.14,0.239889
2680.52,0.237826
2681.91,0.235837
2683.3,0.23338
2684.69,0.230877
2686.08,0.228735
2687.47,0.226132
2688.87,0.22324
2690.26,0.22066
2691.66,0.217829
2693.06,0.214309
2694.46,0.211252
2695.86,0.208646
2697.26,0.205443
2698.66,0.202182
2700.07,0.199
2701.48,0.195669
2702.89,0.192076
2704.3,0.188245
2705.71,0.184517
2707.12,0.180695
2708.53,0.176502
2709.95,0.172404
2711.37,0.168222
2712.79,0.163863
2714.21,0.159431
2715.63,0.155201
2717.05,0.151336
2718.48,0.147101
2719.9,0.142712
2721.33,0.137921
2722.76,0.133183
2724.19,0.129178
2725.62,0.125051
2727.06,0.120828
2728.49,0.116459
2729.93,0.112655
2731.37,0.109251
2732.81,0.105744
2734.25,0.102114
2735.69,0.098959
2737.14,0.096065
2738.58,0.092735
2740.03,0.089434
2741.48,0.086563
2742.93,0.083988
2744.38,0.081596
2745.83,0.078988
2747.29,0.076657
2748.75,0.074507
2750.2,0.072418
2751.66,0.070417
2753.13,0.068422
2754.59,0.066547
2756.05,0.065239
2757.52,0.06393
2758.99,0.06234
2760.46,0.060952
2761.93,0.059659
2763.4,0.05842
2764.87,0.057391
2766.35,0.056386
2767.82,0.055449
2769.3,0.05465
2770.78,0.053853
2772.26,0.053084
2773.75,0.052335
2775.23,0.05165
2776.72,0.050863
2778.21,0.050115
2779.7,0.049741
2781.19,0.049401
2782.68,0.048826
2784.18,0.048132
2785.67,0.047597
2787.17,0.047236
2788.67,0.046884
2790.17,0.046734
2791.67,0.046352
2793.18,0.045901
2794.68,0.046015
2796.19,0.045834
2797.7,0.045565
2799.21,0.04545
2800.72,0.045156
2802.24,0.044776
2803.75,0.04448
2805.27,0.04408
2806.79,0.043811
2808.31,0.043566
2809.83,0.043341
2811.35,0.04341
2812.88,0.043267
2814.41,0.04311
2815.93,0.043105
2817.46,0.043199
2819.0,0.04301
2820.53,0.042664
2822.07,0.042736
2823.6,0.042957
2825.14,0.043118
2826.68,0.043321
2828.22,0.043299
2829.77,0.043347
2831.31,0.043643
2832.86,0.043822
2834.41,0.043849
2835.96,0.04407
2837.51,0.044409
2839.07,0.044585
2840.62,0.044758
2842.18,0.045013
2843.74,0.045339
2845.3,0.045565
2846.86,0.045718
2848.43,0.046027
2849.99,0.046256
2851.56,0.046151
2853.13,0.04607
2854.7,0.045997
2856.27,0.046229
2857.85,0.046931
2859.42,0.047412
2861.0,0.047578
2862.58,0.047806
2864.16,0.047906
2865.75,0.047999
2867.33,0.047861
2868.92,0.047861
2870.51,0.047871
2872.1,0.048073
2873.69,0.048298
2875.28,0.04856
2876.88,0.048602
2878.48,0.048515
2880.07,0.048588
2881.68,0.048741
2883.28,0.048962
2884.88,0.048916
2886.49,0.048902
2888.1,0.049265
2889.71,0.049366
2891.32,0.049386
2892.93,0.049386
2894.55,0.049549
2896.16,0.049703
2897.78,0.049808
2899.4,0.049956
2901.03,0.049911
2902.65,0.049879
2904.28,0.049595
2905.91,0.049584
2907.54,0.049947
2909.17,0.050228
2910.8,0.050368
2912.44,0.050378
2914.07,0.050223
2915.71,0.05031
2917.35,0.050477
2918.99,0.050414
2920.64,0.050437
2922.29,0.050721
2923.93,0.050989
2925.58,0.050894
2927.24,0.050972
2928.89,0.05117
2930.55,0.051313
2932.2,0.051467
2933.86,0.051574
2935.52,0.051604
2937.19,0.051629
2938.85,0.051796
2940.52,0.051805
2942.19,0.051891
2943.86,0.052027
2945.53,0.051845
2947.21,0.051991
2948.88,0.052551
2950.56,0.052627
2952.24,0.052398
2953.92,0.052469
2955.61,0.052931
2957.29,0.053408
2958.98,0.053712
2960.67,0.053866
2962.36,0.054029
2964.06,0.054479
2965.75,0.054792
2967.45,0.054856
2969.15,0.054988
2970.85,0.055109
2972.55,0.055562
2974.26,0.056003
2975.97,0.05617
2977.68,0.056355
2979.39,0.056767
2981.1,0.057154
2982.82,0.057508
2984.53,0.057862
2986.25,0.058144
2987.97,0.058471
2989.7,0.058823
2991.42,0.059252
2993.15,0.059672
2994.88,0.059943
2996.61,0.060435
2998.34,0.060827
3000.08,0.061066
3001.82,0.061382
3003.55,0.061598
3005.3,0.06192
3007.04,0.062422
3008.78,0.062518
3010.53,0.062616
3012.28,0.062759
3014.03,0.062827
3015.79,0.063065
3017.54,0.063332
3019.3,0.063377
3021.06,0.063448
3022.82,0.063686
3024.58,0.063694
3026.35,0.063372
3028.12,0.063277
3029.89,0.063319
3031.66,0.063229
3033.43,0.06337
3035.21,0.063271
3036.99,0.063193
3038.77,0.06345
3040.55,0.063362
3042.33,0.063345
3044.12,0.063428
3045.91,0.063581
3047.7,0.063955
3049.49,0.064131
3051.29,0.064272
3053.08,0.064837
3054.88,0.065244
3056.68,0.065457
3058.49,0.065749
3060.29,0.066015
3062.1,0.066382
3063.91,0.066696
3065.72,0.066851
3067.54,0.066972
3069.35,0.067178
3071.17,0.067274
3072.99,0.067615
3074.81,0.068097
3076.64,0.068465
3078.47,0.068806
3080.29,0.06916
3082.13,0.069401
3083.96,0.069666
3085.79,0.070045
3087.63,0.070376
3089.47,0.070567
3091.31,0.070994
3093.16,0.071517
3095.01,0.072057
3096.85,0.072479
3098.71,0.072693
3100.56,0.073065
3102.41,0.073497
3104.27,0.073939
3106.13,0.074421
3107.99,0.074828
3109.86,0.075287
3111.73,0.075674
3113.59,0.076265
3115.47,0.076944
3117.34,0.07738
3119.21,0.077714
3121.09,0.07822
3122.97,0.078778
3124.86,0.079264
3126.74,0.079985
3128.63,0.080707
3130.52,0.081382
3132.41,0.081787
3134.3,0.082217
3136.2,0.082905
3138.1,0.08351
3140.0,0.083958
3141.9,0.084616
3143.81,0.085374
3145.71,0.085915
3147.62,0.086415
3149.54,0.087151
3151.45,0.087748
3153.37,0.088344
3155.29,0.089088
3157.21,0.089834
3159.13,0.090537
3161.06,0.091034
3162.99,0.091421
3164.92,0.092092
3166.85,0.092746
3168.79,0.093378
3170.72,0.094095
3172.67,0.094926
3174.61,0.095612
3176.55,0.096275
3178.5,0.096969
3180.45,0.097682
3182.4,0.098449
3184.36,0.099287
3186.32,0.100033
3188.27,0.100564
3190.24,0.10125
3192.2,0.102048
3194.17,0.102712
3196.14,0.103368
3198.11,0.103945
3200.08,0.10483
3202.06,0.105915
3204.04,0.106857
3206.02,0.107578
3208.0,0.108169
3209.99,0.108821
3211.98,0.109596
3213.97,0.11041
3215.96,0.111215
3217.96,0.112082
3219.96,0.113122
3221.96,0.114069
3223.96,0.114828
3225.97,0.115562
3227.98,0.116182
3229.99,0.116835
3232.0,0.117594
3234.02,0.118589
3236.04,0.119567
3238.06,0.120448
3240.08,0.121263
3242.11,0.122018
3244.14,0.122999
3246.17,0.124073
3248.2,0.124717
3250.24,0.125629
3252.28,0.126614
3254.32,0.127521
3256.37,0.128493
3258.41,0.129322
3260.46,0.130015
3262.51,0.130874
3264.57,0.131972
3266.63,0.132932
3268.69,0.133926
3270.75,0.134872
3272.81,0.135735
3274.88,0.136517
3276.95,0.137389
3279.02,0.138489
3281.1,0.139584
3283.18,0.140385
3285.26,0.141346
3287.34,0.142297
3289.43,0.143227
3291.51,0.14419
3293.61,0.145229
3295.7,0.146222
3297.8,0.147174
3299.9,0.14828
3302.0,0.1494
3304.1,0.150282
3306.21,0.151133
3308.32,0.152181
3310.43,0.153128
3312.55,0.154281
3314.66,0.15548
3316.79,0.156406
3318.91,0.157485
3321.03,0.158537
3323.16,0.159554
3325.29,0.160668
3327.43,0.16166
3329.57,0.162587
3331.71,0.163589
3333.85,0.164536
3335.99,0.165656
3338.14,0.166749
3340.29,0.167802
3342.45,0.168907
3344.6,0.170158
3346.76,0.171131
3348.92,0.172075
3351.09,0.173307
3353.26,0.174542
3355.43,0.175633
3357.6,0.176711
3359.78,0.177705
3361.96,0.178949
3364.14,0.180128
3366.32,0.18125
3368.51,0.182233
3370.7,0.183124
3372.89,0.184404
3375.09,0.185631
3377.29,0.186684
3379.49,0.187837
3381.69,0.189078
3383.9,0.190353
3386.11,0.191475
3388.32,0.192706
3390.54,0.193887
3392.76,0.19492
3394.98,0.195884
3397.21,0.196902
3399.43,0.198057
3401.66,0.199263
3403.9,0.200564
3406.13,0.201942
3408.37,0.203295
3410.61,0.204424
3412.86,0.205502
3415.11,0.206788
3417.36,0.208129
3419.61,0.209353
3421.87,0.210553
3424.13,0.211882
3426.39,0.213159
3428.66,0.214254
3430.93,0.215158
3433.2,0.216149
3435.48,0.217191
3437.76,0.218299
3440.04,0.219434
3442.32,0.22068
3444.61,0.221836
3446.9,0.222804
3449.19,0.223914
3451.49,0.22523
3453.79,0.226413
3456.09,0.227434
3458.4,0.228606
3460.7,0.229755
3463.02,0.231004
3465.33,0.232033
3467.65,0.233149
3469.97,0.234387
3472.29,0.23548
3474.62,0.236689
3476.95,0.237872
3479.29,0.239038
3481.62,0.240171
3483.96,0.241411
3486.3,0.24253
3488.65,0.243597
3491.0,0.244746
3493.35,0.246057
3495.71,0.247331
3498.07,0.248396
3500.43,0.249587
3502.79,0.251129
3505.16,0.252543
3507.53,0.25393
3509.91,0.255204
3512.29,0.256229
3514.67,0.257226
3517.05,0.258204
3519.44,0.259154
3521.83,0.260183
3524.23,0.261204
3526.62,0.262347
3529.02,0.263519
3531.43,0.264607
3533.83,0.265688
3536.24,0.266775
3538.66,0.267863
3541.08,0.268933
3543.5,0.270072
3545.92,0.271215
3548.35,0.272453
3550.78,0.273569
3553.21,0.274644
3555.65,0.275794
3558.09,0.276804
3560.53,0.277883
3562.98,0.278943
3565.43,0.279987
3567.88,0.281174
3570.34,0.282409
3572.8,0.283575
3575.27,0.284565
3577.73,0.285529
3580.2,0.286602
3582.68,0.28769
3585.16,0.288829
3587.64,0.289974
3590.12,0.290981
3592.61,0.292032
3595.1,0.293235
3597.6,0.294237
3600.09,0.295287
3602.6,0.296264
3605.1,0.297242
3607.61,0.298294
3610.12,0.299473
3612.64,0.300634
3615.16,0.301679
3617.68,0.302636
3620.21,0.303713
3622.74,0.304761
3625.27,0.305668
3627.81,0.306525
3630.35,0.307623
3632.89,0.308731
3635.44,0.30972
3637.99,0.310688
3640.54,0.311717
3643.1,0.312697
3645.66,0.313737
3648.23,0.314733
3650.8,0.315773
3653.37,0.316758
3655.95,0.317662
3658.53,0.318629
3661.11,0.319544
3663.7,0.320491
3666.29,0.321545
3668.89,0.322505
3671.48,0.323314
3674.09,0.324234
3676.69,0.325148
3679.3,0.326012
3681.91,0.327033
3684.53,0.32816
3687.15,0.329165
3689.78,0.329992
3692.4,0.330696
3695.04,0.33153
3697.67,0.332424
3700.31,0.333391
3702.95,0.334411
3705.6,0.335338
3708.25,0.336179
3710.91,0.336943
3713.56,0.337827
3716.23,0.338604
3718.89,0.339549
3721.56,0.340475
3724.23,0.341134
3726.91,0.341872
3729.59,0.342704
3732.28,0.343588
3734.97,0.344492
3737.66,0.345221
3740.36,0.346
3743.06,0.346937
3745.76,0.347799
3748.47,0.348646
3751.18,0.34948
3753.9,0.350175
3756.62,0.350851
3759.34,0.351553
3762.07,0.352399
3764.8,0.35316
3767.54,0.353828
3770.28,0.35468
3773.02,0.355537
3775.77,0.356406
3778.52,0.357009
3781.28,0.357655
3784.04,0.358506
3786.8,0.359401
3789.57,0.360112
3792.34,0.360672
3795.12,0.36129
3797.9,0.361995
3800.69,0.362622
3803.47,0.363398
3806.27,0.363922
3809.06,0.364423
3811.86,0.365154
3814.67,0.365835
3817.48,0.366427
3820.29,0.36692
3823.11,0.36741
3825.93,0.368071
3828.76,0.368714
3831.59,0.369259
3834.42,0.369791
3837.26,0.370326
3840.1,0.370814
3842.95,0.371258
3845.8,0.371969
3848.65,0.372578
3851.51,0.373123
3854.38,0.37365
3857.24,0.374085
3860.12,0.374387
3862.99,0.374904
3865.87,0.375452
3868.76,0.375926
3871.65,0.376494
3874.54,0.376976
3877.44,0.377242
3880.34,0.377647
3883.25,0.378071
3886.16,0.37828
3889.07,0.378617
3891.99,0.379026
3894.92,0.379441
3897.85,0.379747
3900.78,0.379969
3903.72,0.380325
3906.66,0.380519
3909.6,0.380689
3912.55,0.380983
3915.51,0.38134
3918.47,0.381644
3921.43,0.3819
3924.4,0.382129
3927.38,0.382278
3930.35,0.382313
3933.33,0.382431
3936.32,0.382478
3939.31,0.382619
3942.31,0.382832
3945.31,0.383006
3948.31,0.383126
3951.32,0.383124
3954.34,0.383189
3957.35,0.383141
3960.38,0.383202
3963.41,0.383302
3966.44,0.383385
3969.48,0.383423
3972.52,0.383433
3975.56,0.383453
3978.61,0.383614
3981.67,0.383483
3984.73,0.38338
3987.8,0.383365
3990.87,0.383355
3993.94,0.383292
3997.02,0.3832
4000.1,0.383039
4003.19,0.382968
4006.29,0.382815
4009.39,0.382651
4012.49,0.382518
4015.6,0.382298
4018.71,0.382064
4021.83,0.381915
4024.95,0.381767
4028.08,0.381569
4031.21,0.381416
4034.35,0.381117
4037.49,0.380851
4040.64,0.380639
4043.79,0.380212
4046.94,0.379943
4050.11,0.379571
4053.27,0.379174
4056.44,0.378866
4059.62,0.378446
4062.8,0.378077
4065.99,0.377527
4069.18,0.377041
4072.38,0.376509
4075.58,0.37608
4078.78,0.375637
4082.0,0.375195
4085.21,0.374692
4088.43,0.374022
4091.66,0.373411
4094.89,0.372886
4098.13,0.372215
4101.37,0.371625
4104.62,0.371168
4107.87,0.370545
4111.13,0.369836
4114.39,0.369204
4117.66,0.368605
4120.93,0.368126
4124.21,0.367586
4127.5,0.366917
4130.79,0.366287
4134.08,0.365636
4137.38,0.36498
4140.68,0.364302
4143.99,0.363521
4147.31,0.362809
4150.63,0.362184
4153.95,0.361558
4157.29,0.360921
4160.62,0.360232
4163.96,0.359542
4167.31,0.358831
4170.66,0.358062
4174.02,0.357436
4177.39,0.356723
4180.75,0.356105
4184.13,0.355378
4187.51,0.354534
4190.89,0.3538
4194.28,0.353067
4197.68,0.352225
4201.08,0.351409
4204.49,0.35061
4207.9,0.349719
4211.32,0.348849
4214.74,0.348188
4218.17,0.347648
4221.61,0.346895
4225.05,0.346189
4228.5,0.345417
4231.95,0.344653
4235.4,0.344006
4238.87,0.343378
4242.34,0.342598
4245.81,0.341843
4249.29,0.340971
4252.78,0.340099
4256.27,0.339104
4259.77,0.337622
4263.27,0.336007
4266.78,0.335129
4270.29,0.334582
4273.81,0.333758
4277.34,0.332909
4280.87,0.331992
4284.41,0.330989
4287.95,0.33006
4291.5,0.32915
4295.06,0.328283
4298.62,0.327293
4302.19,0.326261
4305.76,0.325153
4309.34,0.324204
4312.92,0.323325
4316.52,0.322344
4320.11,0.32131
4323.72,0.320244
4327.32,0.319255
4330.94,0.318313
4334.56,0.317315
4338.19,0.316302
4341.82,0.315341
4345.46,0.314443
4349.11,0.313574
4352.76,0.312622
4356.42,0.311609
4360.08,0.31069
4363.75,0.309811
4367.43,0.308816
4371.11,0.307743
4374.8,0.306891
4378.49,0.306082
4382.19,0.30519
4385.9,0.304213
4389.61,0.303314
4393.33,0.302475
4397.06,0.301555
4400.79,0.300641
4404.53,0.299827
4408.28,0.298943
4412.03,0.298063
4415.79,0.297267
4419.55,0.296489
4423.32,0.295589
4427.1,0.294697
4430.88,0.293939
4434.68,0.293205
4438.47,0.292429
4442.28,0.29167
4446.08,0.290929
4449.9,0.290122
4453.72,0.289318
4457.55,0.288577
4461.39,0.287926
4465.23,0.28717
4469.08,0.286367
4472.94,0.285751
4476.8,0.285133
4480.67,0.284508
4484.55,0.283887
4488.43,0.283253
4492.32,0.282694
4496.21,0.282384
4500.12,0.281988
4504.03,0.281434
4507.94,0.280982
4511.87,0.280636
4515.8,0.280224
4519.73,0.279797
4523.68,0.279413
4527.63,0.279028
4531.59,0.278736
4535.55,0.278613
4539.52,0.278319
4543.5,0.27802
4547.49,0.277732
4551.48,0.277581
4555.48,0.277473
4559.49,0.277297
4563.5,0.277152
4567.52,0.277131
4571.55,0.276973
4575.58,0.276765
4579.63,0.276684
4583.67,0.276687
4587.73,0.276631
4591.79,0.276566
4595.86,0.276566
4599.94,0.276594
4604.03,0.276546
4608.12,0.276614
4612.22,0.276669
4616.33,0.276623
4620.44,0.276631
4624.56,0.276679
4628.69,0.276682
4632.83,0.276807
4636.97,0.276968
4641.12,0.277013
4645.28,0.277081
4649.45,0.277285
4653.62,0.277393
4657.8,0.277533
4661.99,0.277576
4666.19,0.277749
4670.39,0.277973
4674.6,0.278275
4678.82,0.278594
4683.05,0.278772
4687.28,0.278968
4691.52,0.279086
4695.77,0.279271
4700.03,0.27956
4704.3,0.279744
4708.57,0.279932
4712.85,0.280129
4717.14,0.280374
4721.43,0.280699
4725.74,0.280922
4730.05,0.281136
4734.37,0.281442
4738.7,0.281678
4743.03,0.281902
4747.38,0.282204
4751.73,0.282563
4756.09,0.282686
4760.45,0.28293
4764.83,0.28339
4769.21,0.283704
4773.6,0.283964
4778.0,0.284274
4782.41,0.284434
4786.83,0.284686
4791.25,0.285062
4795.68,0.285434
4800.13,0.285786
4804.57,0.286218
4809.03,0.28657
4813.5,0.286881
4817.97,0.287193
4822.45,0.287635
4826.94,0.288098
4831.44,0.288467
4835.95,0.288731
4840.46,0.289082
4844.99,0.289497
4849.52,0.289911
4854.06,0.290192
4858.61,0.290459
4863.17,0.290868
4867.73,0.291223
4872.31,0.291408
4876.89,0.291605
4881.48,0.291713
4886.08,0.291918
4890.69,0.292089
4895.31,0.29222
4899.94,0.292413
4904.57,0.292493
4909.22,0.292433
4913.87,0.292524
4918.53,0.292549
4923.21,0.292561
4927.88,0.29238
4932.57,0.29221
4937.27,0.292145
4941.98,0.292047
4946.69,0.291918
4951.42,0.291748
4956.15,0.291549
4960.9,0.291441
4965.65,0.291341
4970.41,0.2911
4975.18,0.290863
4979.96,0.290604
4984.75,0.290371
4989.54,0.29005
4994.35,0.28965
4999.17,0.289346
5003.99,0.288961
5008.83,0.288529
5013.67,0.288015
5018.52,0.287499
5023.39,0.287143
5028.26,0.28673
5033.14,0.286161
5038.03,0.28567
5042.93,0.285055
5047.84,0.284381
5052.76,0.283919
5057.69,0.283449
5062.63,0.2829
5067.58,0.282299
5072.54,0.281673
5077.51,0.281002
5082.49,0.280246
5087.47,0.27955
5092.47,0.278947
5097.48,0.278377
5102.5,0.277687
5107.52,0.276971
5112.56,0.276423
5117.61,0.275785
5122.66,0.275116
5127.73,0.274551
5132.81,0.273984
5137.89,0.273463
5142.99,0.272843
5148.1,0.272154
5153.22,0.271556
5158.34,0.270906
5163.48,0.270115
5168.63,0.269381
5173.79,0.268668
5178.96,0.267883
5184.13,0.267009
5189.32,0.266064
5194.52,0.265118
5199.73,0.264273
5204.96,0.263512
5210.19,0.26292
5215.43,0.262209
5220.68,0.261827
5225.94,0.261573
5231.22,0.261228
5236.5,0.260904
5241.79,0.260759
5247.1,0.260771
5252.42,0.260746
5257.74,0.260674
5263.08,0.260512
5268.43,0.260311
5273.79,0.260213
5279.16,0.260033
5284.54,0.259907
5289.93,0.259724
5295.34,0.259404
5300.75,0.259181
5306.18,0.259031
5311.61,0.258779
5317.06,0.258513
5322.52,0.258056
5327.99,0.257609
5333.47,0.257239
5338.96,0.256797
5344.47,0.256217
5349.98,0.255626
5355.51,0.255113
5361.05,0.254584
5366.6,0.25376
5372.16,0.253011
5377.73,0.252278
5383.32,0.251433
5388.91,0.250529
5394.52,0.249713
5400.14,0.248732
5405.77,0.247743
5411.41,0.246813
5417.07,0.245858
5422.74,0.244705
5428.41,0.243874
5434.1,0.243073
5439.81,0.241987
5445.52,0.240871
5451.25,0.239817
5456.98,0.238856
5462.73,0.237894
5468.5,0.236985
5474.27,0.236118
5480.06,0.235091
5485.86,0.234282
5491.67,0.233471
5497.49,0.232634
5503.33,0.231817
5509.18,0.230998
5515.04,0.230167
5520.91,0.229381
5526.8,0.228534
5532.69,0.227773
5538.61,0.226987
5544.53,0.226149
5550.47,0.225288
5556.41,0.224394
5562.38,0.22363
5568.35,0.222826
5574.34,0.221856
5580.34,0.220967
5586.35,0.220183
5592.38,0.219367
5598.42,0.21839
5604.47,0.217468
5610.54,0.216493
5616.61,0.215543
5622.71,0.214566
5628.81,0.213563
5634.93,0.212538
5641.06,0.211485
5647.21,0.210546
5653.36,0.209777
5659.54,0.208646
5665.72,0.207788
5671.92,0.20677
5678.13,0.20577
5684.36,0.205006
5690.6,0.204163
5696.85,0.20319
5703.12,0.202336
5709.4,0.201266
5715.69,0.200406
5722.0,0.199459
5728.33,0.198369
5734.66,0.197274
5741.01,0.195925
5747.38,0.194337
5753.76,0.192787
5760.15,0.191222
5766.56,0.189224
5772.98,0.187343
5779.41,0.185481
5785.86,0.183192
5792.33,0.180853
5798.81,0.178363
5805.3,0.175822
5811.81,0.17304
5818.33,0.17003
5824.87,0.166759
5831.42,0.163581
5837.99,0.160105
5844.57,0.156367
5851.17,0.152319
5857.78,0.148109
5864.41,0.143629
5871.05,0.139016
5877.7,0.134163
5884.38,0.129048
5891.06,0.123734
5897.76,0.118381
5904.48,0.112861
5911.21,0.107196
5917.96,0.101365
5924.73,0.095522
5931.5,0.089763
5938.3,0.084109
5945.11,0.078313
5951.93,0.072962
5958.78,0.067909
5965.63,0.063176
5972.51,0.059031
5979.39,0.055516
5986.3,0.052585
5993.22,0.050451
6000.16,0.049005
6007.11,0.048067
6014.08,0.047316
6021.06,0.046535
6028.06,0.045809
6035.08,0.045196
6042.12,0.044507
6049.17,0.043759
6056.23,0.043012
6063.32,0.042397
6070.42,0.041819
6077.53,0.041478
6084.67,0.041463
6091.82,0.041729
6098.98,0.042374
6106.17,0.043392
6113.37,0.04465
6120.58,0.046364
6127.82,0.048642
6135.07,0.051115
6142.34,0.053818
6149.63,0.056855
6156.93,0.060196
6164.25,0.063799
6171.59,0.067625
6178.95,0.071363
6186.32,0.075195
6193.71,0.0794
6201.12,0.083458
6208.54,0.087116
6215.99,0.090791
6223.45,0.094205
6230.93,0.097479
6238.43,0.100609
6245.95,0.103732
6253.48,0.106628
6261.03,0.109347
6268.6,0.111954
6276.19,0.114577
6283.8,0.11713
6291.43,0.119546
6299.07,0.121797
6306.73,0.124041
6314.42,0.126197
6322.12,0.128317
6329.84,0.130331
6337.57,0.132281
6345.33,0.133917
6353.11,0.135696
6360.9,0.137384
6368.72,0.138791
6376.55,0.140042
6384.4,0.141233
6392.27,0.142388
6400.17,0.143594
6408.08,0.144526
6416.01,0.145279
6423.96,0.1464
6431.93,0.147275
6439.92,0.147942
6447.93,0.148739
6455.96,0.149267
6464.01,0.149797
6472.08,0.150106
6480.17,0.150588
6488.28,0.151103
6496.41,0.151437
6504.56,0.151872
6512.73,0.152209
6520.92,0.152126
6529.14,0.152307
6537.37,0.152502
6545.63,0.152495
6553.9,0.152424
6562.2,0.152472
6570.51,0.15238
6578.85,0.152314
6587.21,0.152352
6595.59,0.152095
6603.99,0.151887
6612.42,0.151714
6620.86,0.151477
6629.33,0.151151
6637.82,0.150718
6646.33,0.150606
6654.86,0.150535
6663.41,0.150025
6671.99,0.149438
6680.59,0.148952
6689.21,0.148594
6697.85,0.148259
6706.51,0.14785
6715.2,0.147432
6723.91,0.14702
6732.64,0.146559
6741.4,0.146008
6750.18,0.145463
6758.98,0.145019
6767.8,0.144463
6776.65,0.143792
6785.52,0.143247
6794.41,0.142586
6803.33,0.142011
6812.27,0.141468
6821.23,0.140803
6830.22,0.140054
6839.23,0.139434
6848.26,0.138685
6857.32,0.137839
6866.4,0.137035
6875.51,0.136467
6884.64,0.135735
6893.8,0.134881
6902.98,0.134107
6912.18,0.133274
6921.41,0.132537
6930.66,0.131811
6939.94,0.131075
6949.24,0.130254
6958.57,0.129515
6967.92,0.128814
6977.3,0.128136
6986.7,0.127369
6996.13,0.126611
7005.59,0.126025
7015.07,0.125476
7024.57,0.124644
7034.1,0.123875
7043.66,0.123154
7053.25,0.122352
7062.85,0.121607
7072.49,0.120817
7082.15,0.119928
7091.84,0.118956
7101.55,0.118067
7111.3,0.117218
7121.06,0.116218
7130.86,0.115152
7140.68,0.114085
7150.53,0.11299
7160.41,0.111887
7170.31,0.110718
7180.24,0.109591
7190.2,0.108473
7200.19,0.107266
7210.2,0.10598
7220.24,0.104707
7230.31,0.103493
7240.41,0.102202
7250.54,0.10088
7260.69,0.099556
7270.88,0.098195
7281.09,0.096803
7291.33,0.095424
7301.6,0.094138
7311.9,0.092843
7322.22,0.091402
7332.58,0.089891
7342.97,0.08844
7353.38,0.086977
7363.83,0.085497
7374.3,0.083958
7384.81,0.082295
7395.34,0.080696
7405.91,0.079187
7416.5,0.077657
7427.13,0.076066
7437.78,0.074444
7448.47,0.072806
7459.19,0.071152
7469.94,0.069377
7480.71,0.067731
7491.52,0.066086
7502.37,0.064384
7513.24,0.062648
7524.14,0.060819
7535.08,0.059026
7546.05,0.057273
7557.05,0.055401
7568.08,0.053546
7579.15,0.051793
7590.24,0.050089
7601.37,0.048399
7612.53,0.04669
7623.73,0.044917
7634.96,0.043146
7646.22,0.041412
7657.51,0.039729
7668.84,0.038066
7680.2,0.036387
7691.59,0.034667
7703.02,0.03317
7714.49,0.031664
7725.98,0.03013
7737.52,0.028713
7749.08,0.027333
7760.68,0.02604
7772.32,0.024846
7783.99,0.023592
7795.69,0.022548
7807.43,0.02162
7819.21,0.020774
7831.02,0.020031
7842.87,0.019415
7854.75,0.018884
7866.67,0.018493
7878.62,0.018398
7890.62,0.01848
7902.64,0.018747
7914.71,0.019305
7926.81,0.020046
7938.95,0.021025
7951.13,0.022344
7963.34,0.023987
7975.59,0.025874
7987.88,0.028112
8000.21,0.0306
8012.57,0.03342
8024.98,0.036506
8037.42,0.039819
8049.9,0.043145
8062.42,0.046542
8074.98,0.050064
8087.57,0.053383
8100.21,0.056559
8112.89,0.059549
8125.6,0.062109
8138.36,0.064435
8151.16,0.066435
8163.99,0.067947
8176.87,0.069269
8189.79,0.070368
8202.75,0.071069
8215.75,0.071612
8228.79,0.071899
8241.87,0.071966
8254.99,0.072004
8268.16,0.071768
8281.37,0.071338
8294.62,0.070809
8307.91,0.070291
8321.24,0.069778
8334.62,0.069107
8348.04,0.068459
8361.51,0.068007
8375.02,0.067587
8388.57,0.067329
8402.16,0.067256
8415.8,0.067203
8429.49,0.067258
8443.22,0.067427
8456.99,0.06765
8470.81,0.067969
8484.67,0.068429
8498.58,0.068967
8512.54,0.069485
8526.54,0.070245
8540.58,0.071065
8554.68,0.071723
8568.82,0.072376
8583.0,0.072962
8597.24,0.073555
8611.52,0.074104
8625.85,0.074717
8640.23,0.075291
8654.65,0.07577
8669.12,0.076273
8683.64,0.076589
8698.21,0.076635
8712.83,0.076569
8727.5,0.076411
8742.22,0.076162
8756.99,0.075803
8771.8,0.075134
8786.67,0.0743
8801.59,0.073368
8816.56,0.072396
8831.58,0.071514
8846.65,0.070708
8861.77,0.069801
8876.94,0.068814
8892.17,0.068065
8907.45,0.067301
8922.78,0.066666
8938.16,0.066508
8953.6,0.06663
8969.09,0.067088
8984.64,0.067977
9000.23,0.069205
9015.89,0.07077
9031.59,0.072622
9047.36,0.074702
9063.17,0.077087
9079.05,0.079699
9094.97,0.081995
9110.96,0.084139
9127.0,0.086076
9143.1,0.087523
9159.25,0.088738
9175.46,0.089686
9191.73,0.090131
9208.06,0.090389
9224.44,0.090409
9240.88,0.090098
9257.38,0.089728
9273.94,0.089492
9290.56,0.089241
9307.24,0.088846
9323.98,0.088489
9340.78,0.088218
9357.64,0.087895
9374.57,0.087404
9391.55,0.086869
9408.59,0.086422
9425.7,0.086017
9442.87,0.085741
9460.1,0.085701
9477.4,0.08604
9494.75,0.086487
9512.17,0.086882
9529.66,0.087025
9547.21,0.08689
9564.83,0.086621
9582.5,0.086065
9600.25,0.085234
9618.06,0.084379
9635.94,0.083774
9653.88,0.083516
9671.89,0.083467
9689.97,0.083357
9708.12,0.083174
9726.33,0.082978
9744.62,0.082624
9762.97,0.082058
9781.39,0.081403
9799.88,0.080692
9818.44,0.080166
9837.07,0.079737
9855.77,0.07942
9874.54,0.079234
9893.39,0.079169
9912.3,0.079122
9931.29,0.079008
9950.36,0.079001
9969.49,0.079305
9988.7,0.079915
10007.98,0.080566
10027.34,0.081202
10046.77,0.081927
10066.28,0.082315
10085.87,0.082423
10105.53,0.082453
10125.26,0.082226
10145.08,0.082088
10164.97,0.081832
10184.94,0.081402
10204.99,0.081023
10225.12,0.080873
10245.33,0.080848
10265.61,0.080895
10285.98,0.080863
10306.43,0.080852
10326.96,0.080912
10347.57,0.081111
10368.27,0.081044
10389.05,0.08072
10409.91,0.080516
10430.86,0.080524
10451.88,0.080584
10473.0,0.080508
10494.2,0.080411
10515.49,0.080259
10536.86,0.080117
10558.32,0.079936
10579.87,0.079785
10601.5,0.079644
10623.23,0.079401
10645.04,0.079197
10666.94,0.079209
10688.94,0.079458
10711.02,0.079734
10733.2,0.080249
10755.47,0.080993
10777.83,0.081794
10800.28,0.082782
10822.83,0.084116
10845.47,0.085523
10868.21,0.08708
10891.04,0.088799
10913.97,0.090585
10936.99,0.092555
10960.12,0.094323
10983.34,0.096007
11006.66,0.097848
11030.07,0.099572
11053.59,0.101182
11077.21,0.102868
11100.93,0.104468
11124.75,0.105805
11148.68,0.107017
11172.71,0.108158
11196.84,0.109155
11221.07,0.109955
11245.41,0.110655
11269.86,0.111261
11294.41,0.111857
11319.07,0.112259
11343.84,0.112449
11368.72,0.11271
11393.7,0.113085
11418.8,0.113238
11444.01,0.11323
11469.33,0.113185
11494.76,0.113068
11520.3,0.113004
11545.96,0.112788
11571.73,0.112477
11597.62,0.112146
11623.62,0.11195
11649.74,0.111758
11675.98,0.111241
11702.34,0.11058
11728.81,0.10991
11755.41,0.109231
11782.13,0.108668
11808.96,0.107877
11835.92,0.106855
11863.01,0.105847
11890.22,0.104676
11917.55,0.103257
11945.01,0.102011
11972.6,0.100563
12000.31,0.098911
12028.16,0.096833
12056.13,0.094426
12084.23,0.091864
12112.46,0.088962
12140.83,0.085704
12169.33,0.08232
12197.96,0.078833
12226.73,0.075293
12255.64,0.071944
12284.68,0.068796
12313.86,0.066163
12343.18,0.064091
12372.64,0.06242
12402.24,0.060847
12431.98,0.059559
12461.86,0.058714
12491.89,0.058156
12522.07,0.057632
12552.38,0.05736
12582.85,0.057059
12613.47,0.056695
12644.23,0.056599
12675.15,0.056765
12706.21,0.056961
12737.43,0.056918
12768.81,0.056737
12800.33,0.056529
12832.02,0.056513
12863.86,0.05668
12895.86,0.056601
12928.02,0.056491
12960.34,0.056793
12992.82,0.057009
13025.46,0.057089
13058.27,0.057303
13091.25,0.057325
13124.39,0.057182
13157.7,0.056792
13191.18,0.056245
13224.83,0.055195
13258.66,0.055054
13292.65,0.055443
13326.83,0.055227
13361.17,0.054954
13395.7,0.05468
13430.4,0.054517
13465.29,0.054398
13500.35,0.054345
13535.6,0.054189
13571.03,0.054134
13606.65,0.05389
13642.46,0.053529
13678.46,0.053438
13714.64,0.053323
13751.02,0.05317
13787.59,0.053122
13824.36,0.052954
13861.32,0.052723
13898.49,0.052607
13935.85,0.052456
13973.41,0.052356
14011.17,0.052438
14049.15,0.052559
14087.32,0.052484
14125.71,0.052428
14164.3,0.0523
14203.11,0.052057
14242.13,0.051891
14281.36,0.05167
14320.81,0.051349
14360.49,0.051296
14400.38,0.050934
14440.49,0.050499
14480.82,0.050324
14521.39,0.050321
14562.18,0.050266
14603.2,0.049755
14644.45,0.049464
14685.93,0.049138
14727.66,0.048904
14769.62,0.048794
14811.81,0.048673
14854.25,0.04847
14896.94,0.048369
14939.87,0.048268
14983.05,0.048035
15026.48,0.047776
15070.16,0.047434
15114.1,0.046906
15158.29,0.046681
15202.74,0.046523
15247.46,0.045972
15292.43,0.045538
15337.68,0.045145
15383.19,0.04467
15428.97,0.044359
15475.03,0.044015
15521.36,0.043279
15567.97,0.042709
15614.87,0.042488
15662.04,0.042149
15709.5,0.041815
15757.25,0.041649
15805.29,0.041548
15853.62,0.041354
15902.26,0.041452
15951.19,0.042038
16000.42,0.042703
16049.95,0.043354
16099.8,0.044211
16149.95,0.045229
16200.42,0.0467
16251.21,0.048353
16302.31,0.050055
16353.74,0.051931
16405.49,0.053713
16457.57,0.055742
16509.98,0.057782
16562.73,0.059591
16615.82,0.061025
16669.24,0.062654
16723.02,0.064349
16777.14,0.065673
16831.61,0.066711
16886.43,0.067484
16941.62,0.068113
16997.16,0.069002
17053.08,0.069876
17109.36,0.07055
17166.01,0.071246
17223.04,0.071755
17280.45,0.071803
17338.24,0.07165
17396.43,0.071687
17455.0,0.071562
17513.97,0.071665
17573.34,0.072115
17633.11,0.072539
17693.29,0.07277
17753.89,0.072831
17814.9,0.072924
17876.33,0.072753
17938.18,0.072172
18000.47,0.071851
18063.19,0.071522
18126.35,0.070901
18189.95,0.070627
18254.0,0.069984
18318.5,0.069196
18383.46,0.069175
18448.88,0.06911
18514.77,0.068909
18581.13,0.068741
18647.97,0.068524
18715.29,0.068509
18783.1,0.068754
18851.4,0.069437
18920.2,0.06968
18989.51,0.069592
19059.32,0.069951
19129.65,0.07011
19200.5,0.06997
19271.88,0.069608
19343.79,0.069676
19416.24,0.070283
19489.23,0.07055
19562.77,0.070421
19636.88,0.071
19711.54,0.071796
19786.78,0.072371
19862.59,0.073715
19938.98,0.076069
20015.96,0.078333
20093.55,0.080093
20171.73,0.082656
20250.53,0.084937
20329.94,0.086749
20409.98,0.088681
20490.65,0.090301
20571.96,0.092077
20653.92,0.094303
20736.54,0.096587
20819.82,0.09839
20903.77,0.099454
20988.4,0.101239
21073.72,0.10329
21159.73,0.104957
21246.46,0.106418
21333.89,0.109214
21422.04,0.111646
21510.93,0.114584
21600.56,0.118453
21690.94,0.121579
21782.08,0.123843
21873.99,0.126393
21966.67,0.128816
22060.15,0.131125
22154.42,0.133477
22249.51,0.135456
22345.41,0.136213
22442.14,0.136007
22539.72,0.135153
22638.14,0.132852
22737.43,0.130409
22837.6,0.128714
22938.65,0.126558
23040.6,0.124106
23143.46,0.121122
23247.24,0.118913
23351.96,0.11672
23457.63,0.114386
23564.25,0.113241
23671.85,0.112004
23780.44,0.109111
23890.02,0.106844
24000.63,0.105953
24112.26,0.104764
24224.93,0.104438
24338.66,0.105011
24453.47,0.106
24569.36,0.105787
24686.36,0.106345
24804.47,0.108445
24923.73,0.111148
25044.13,0.110145
25165.71,0.109399
25288.46,0.111288
25412.43,0.110701
25537.61,0.109158
25664.04,0.112213
25791.72,0.112818
25920.68,0.112065
