Database of Origin,University of Winnipeg Spectrophotometer Facility
Sample Description,"RELAB + Nicolet merged data for spinels. Merged @2500nm, different viewing geometries. See Master Spinels in the PSF database for additional information."
Date Added,2016-11-08 17:54:00.379121

Data ID,RLA_SPI_09          
Sample ID,SPI118
Mineral Name,Spinel
Grain Size,<45
Viewing Geometry,"30/0,30/30"
Resolution,5/1.2-129
Composition,"Fe,Zn"
Material Class,Oxide

Wavelength
300.0,0.109074
305.0,0.115665
310.0,0.122601
315.0,0.125944
320.0,0.129082
325.0,0.130422
330.0,0.134656
335.0,0.137953
340.0,0.141735
345.0,0.147426
350.0,0.152874
355.0,0.160705
360.0,0.171256
365.0,0.181534
370.0,0.188454
375.0,0.189576
380.0,0.196528
385.0,0.198946
390.0,0.203694
395.0,0.21146
400.0,0.220859
405.0,0.230146
410.0,0.241923
415.0,0.255518
420.0,0.269791
425.0,0.285487
430.0,0.299948
435.0,0.313786
440.0,0.326596
445.0,0.336125
450.0,0.342051
455.0,0.341207
460.0,0.336672
465.0,0.339017
470.0,0.345181
475.0,0.351866
480.0,0.360938
485.0,0.370291
490.0,0.378351
495.0,0.385464
500.0,0.39227
505.0,0.397551
510.0,0.401526
515.0,0.410223
520.0,0.413686
525.0,0.416518
530.0,0.419725
535.0,0.422183
540.0,0.425042
545.0,0.427494
550.0,0.428607
555.0,0.430737
560.0,0.435668
565.0,0.439226
570.0,0.441871
575.0,0.443326
580.0,0.444858
585.0,0.445406
590.0,0.44603
595.0,0.447973
600.0,0.44895
605.0,0.448396
610.0,0.447172
615.0,0.445299
620.0,0.443292
625.0,0.44056
630.0,0.437947
635.0,0.435976
640.0,0.433844
645.0,0.432062
650.0,0.430419
655.0,0.428443
660.0,0.428148
665.0,0.427449
670.0,0.427612
675.0,0.427948
680.0,0.429372
685.0,0.431408
690.0,0.434212
695.0,0.437505
700.0,0.440461
705.0,0.443865
710.0,0.444702
715.0,0.446784
720.0,0.449993
725.0,0.453013
730.0,0.457012
735.0,0.460112
740.0,0.462824
745.0,0.465107
750.0,0.467244
755.0,0.469492
760.0,0.47134
765.0,0.473224
770.0,0.474105
775.0,0.476486
780.0,0.477158
785.0,0.478923
790.0,0.479158
795.0,0.479939
800.0,0.481151
805.0,0.482376
810.0,0.482994
815.0,0.482971
820.0,0.483859
825.0,0.484735
830.0,0.485451
835.0,0.485642
840.0,0.486141
845.0,0.486378
850.0,0.486502
855.0,0.487315
860.0,0.486812
865.0,0.487467
870.0,0.486071
875.0,0.486686
880.0,0.486898
885.0,0.486756
890.0,0.486467
895.0,0.486659
900.0,0.485061
905.0,0.485925
910.0,0.485875
915.0,0.484785
920.0,0.485318
925.0,0.486261
930.0,0.48675
935.0,0.488053
940.0,0.488625
945.0,0.490204
950.0,0.492294
955.0,0.494488
960.0,0.497225
965.0,0.50048
970.0,0.503538
975.0,0.507302
980.0,0.511632
985.0,0.516575
990.0,0.520573
995.0,0.524535
1000.0,0.528228
1005.0,0.533507
1010.0,0.538224
1015.0,0.542495
1020.0,0.546613
1025.0,0.551394
1030.0,0.555956
1035.0,0.559933
1040.0,0.563412
1045.0,0.566986
1050.0,0.571629
1055.0,0.574445
1060.0,0.57876
1065.0,0.582241
1070.0,0.58447
1075.0,0.588058
1080.0,0.591168
1085.0,0.593687
1090.0,0.596626
1095.0,0.598335
1100.0,0.601357
1105.0,0.603415
1110.0,0.605974
1115.0,0.607892
1120.0,0.610378
1125.0,0.612141
1130.0,0.613999
1135.0,0.615246
1140.0,0.616697
1145.0,0.617685
1150.0,0.61982
1155.0,0.619983
1160.0,0.621641
1165.0,0.622545
1170.0,0.623788
1175.0,0.624735
1180.0,0.625455
1185.0,0.626142
1190.0,0.627324
1195.0,0.627819
1200.0,0.626261
1205.0,0.625879
1210.0,0.626703
1215.0,0.626999
1220.0,0.626079
1225.0,0.628407
1230.0,0.627861
1235.0,0.628117
1240.0,0.627167
1245.0,0.626983
1250.0,0.62687
1255.0,0.626961
1260.0,0.626621
1265.0,0.626569
1270.0,0.625371
1275.0,0.624371
1280.0,0.622999
1285.0,0.622811
1290.0,0.622074
1295.0,0.620689
1300.0,0.618995
1305.0,0.618021
1310.0,0.615507
1315.0,0.614047
1320.0,0.612359
1325.0,0.610889
1330.0,0.608704
1335.0,0.607037
1340.0,0.604457
1345.0,0.601007
1350.0,0.598668
1355.0,0.596278
1360.0,0.594357
1365.0,0.590154
1370.0,0.58761
1375.0,0.581946
1380.0,0.579291
1385.0,0.574014
1390.0,0.569772
1395.0,0.566801
1400.0,0.561856
1405.0,0.556122
1410.0,0.550746
1415.0,0.545153
1420.0,0.53906
1425.0,0.533143
1430.0,0.527998
1435.0,0.521337
1440.0,0.515579
1445.0,0.509751
1450.0,0.502797
1455.0,0.495952
1460.0,0.489056
1465.0,0.481984
1470.0,0.47532
1475.0,0.468111
1480.0,0.461013
1485.0,0.454539
1490.0,0.446849
1495.0,0.440085
1500.0,0.432996
1505.0,0.425516
1510.0,0.418307
1515.0,0.411196
1520.0,0.403941
1525.0,0.396864
1530.0,0.389821
1535.0,0.383182
1540.0,0.376377
1545.0,0.369222
1550.0,0.362391
1555.0,0.355082
1560.0,0.347606
1565.0,0.341227
1570.0,0.334667
1575.0,0.328072
1580.0,0.321359
1585.0,0.316019
1590.0,0.309704
1595.0,0.303783
1600.0,0.298059
1605.0,0.29171
1610.0,0.285867
1615.0,0.280257
1620.0,0.274401
1625.0,0.269146
1630.0,0.263325
1635.0,0.258193
1640.0,0.252676
1645.0,0.247973
1650.0,0.242883
1655.0,0.238178
1660.0,0.232888
1665.0,0.228136
1670.0,0.223622
1675.0,0.219251
1680.0,0.214828
1685.0,0.211068
1690.0,0.207169
1695.0,0.202927
1700.0,0.200288
1705.0,0.195243
1710.0,0.191774
1715.0,0.188254
1720.0,0.184629
1725.0,0.181357
1730.0,0.178112
1735.0,0.174811
1740.0,0.171732
1745.0,0.168452
1750.0,0.165614
1755.0,0.162393
1760.0,0.159843
1765.0,0.157101
1770.0,0.154725
1775.0,0.152215
1780.0,0.149933
1785.0,0.147638
1790.0,0.145294
1795.0,0.14325
1800.0,0.14145
1805.0,0.139637
1810.0,0.137826
1815.0,0.135753
1820.0,0.134046
1825.0,0.132413
1830.0,0.131158
1835.0,0.129641
1840.0,0.128268
1845.0,0.126966
1850.0,0.125678
1855.0,0.124266
1860.0,0.123295
1865.0,0.122248
1870.0,0.121248
1875.0,0.120343
1880.0,0.119218
1885.0,0.118164
1890.0,0.117422
1895.0,0.116417
1900.0,0.115855
1905.0,0.115071
1910.0,0.114324
1915.0,0.113724
1920.0,0.112974
1925.0,0.112394
1930.0,0.111846
1935.0,0.111225
1940.0,0.110613
1945.0,0.110021
1950.0,0.109541
1955.0,0.109114
1960.0,0.108581
1965.0,0.108139
1970.0,0.107704
1975.0,0.107284
1980.0,0.107006
1985.0,0.106499
1990.0,0.106152
1995.0,0.106052
2000.0,0.105766
2005.0,0.105391
2010.0,0.105229
2015.0,0.10494
2020.0,0.104733
2025.0,0.104369
2030.0,0.10418
2035.0,0.10389
2040.0,0.103725
2045.0,0.103454
2050.0,0.103284
2055.0,0.103392
2060.0,0.103311
2065.0,0.103057
2070.0,0.103189
2075.0,0.103077
2080.0,0.103096
2085.0,0.103279
2090.0,0.103495
2095.0,0.103622
2100.0,0.103704
2105.0,0.103909
2110.0,0.104043
2115.0,0.104197
2120.0,0.104549
2125.0,0.10458
2130.0,0.105003
2135.0,0.10523
2140.0,0.105534
2145.0,0.105885
2150.0,0.106288
2155.0,0.106979
2160.0,0.107044
2165.0,0.107517
2170.0,0.107984
2175.0,0.108496
2180.0,0.109076
2185.0,0.109766
2190.0,0.110092
2195.0,0.11088
2200.0,0.111406
2205.0,0.111955
2210.0,0.112806
2215.0,0.113354
2220.0,0.114242
2225.0,0.114732
2230.0,0.115289
2235.0,0.115921
2240.0,0.116732
2245.0,0.117335
2250.0,0.118216
2255.0,0.118884
2260.0,0.119609
2265.0,0.120307
2270.0,0.120749
2275.0,0.121237
2280.0,0.121784
2285.0,0.122688
2290.0,0.122894
2295.0,0.123527
2300.0,0.124255
2305.0,0.124424
2310.0,0.124961
2315.0,0.125334
2320.0,0.125351
2325.0,0.125702
2330.0,0.125982
2335.0,0.126593
2340.0,0.12638
2345.0,0.126724
2350.0,0.127176
2355.0,0.127087
2360.0,0.127223
2365.0,0.127311
2370.0,0.127129
2375.0,0.127411
2380.0,0.127553
2385.0,0.127552
2390.0,0.127538
2395.0,0.127786
2400.0,0.127675
2405.0,0.127276
2410.0,0.126783
2415.0,0.127207
2420.0,0.127262
2425.0,0.127216
2430.0,0.127125
2435.0,0.126839
2440.0,0.126798
2445.0,0.12648
2450.0,0.126342
2455.0,0.126138
2460.0,0.125916
2465.0,0.125667
2470.0,0.125389
2475.0,0.12557
2480.0,0.125397
2485.0,0.125144
2490.0,0.125219
2495.0,0.125235
2500.0,0.125085
2502.0,0.124898
2503.2,0.124708
2504.41,0.125154
2505.62,0.125256
2506.83,0.125235
2508.05,0.12521
2509.26,0.125142
2510.48,0.124959
2511.69,0.124883
2512.91,0.12508
2514.13,0.125452
2515.35,0.125152
2516.57,0.124844
2517.79,0.124481
2519.02,0.124813
2520.24,0.124928
2521.47,0.124522
2522.69,0.124422
2523.92,0.124964
2525.15,0.125063
2526.38,0.124896
2527.61,0.124698
2528.85,0.124767
2530.08,0.12491
2531.32,0.125141
2532.55,0.125078
2533.79,0.124757
2535.03,0.124744
2536.27,0.124807
2537.51,0.12478
2538.75,0.124628
2540.0,0.124206
2541.24,0.124292
2542.49,0.124773
2543.74,0.124906
2544.99,0.124942
2546.24,0.124962
2547.49,0.124795
2548.74,0.124707
2549.99,0.124581
2551.25,0.124597
2552.5,0.12497
2553.76,0.124918
2555.02,0.124774
2556.28,0.12472
2557.54,0.124847
2558.8,0.124838
2560.07,0.124612
2561.33,0.124661
2562.6,0.12476
2563.86,0.124315
2565.13,0.124278
2566.4,0.124365
2567.67,0.124337
2568.95,0.124205
2570.22,0.123956
2571.5,0.124316
2572.77,0.124563
2574.05,0.12426
2575.33,0.124513
2576.61,0.124623
2577.89,0.124205
2579.17,0.124383
2580.46,0.124171
2581.74,0.124348
2583.03,0.124573
2584.31,0.124332
2585.6,0.124155
2586.89,0.124417
2588.19,0.124423
2589.48,0.12442
2590.77,0.124453
2592.07,0.124566
2593.36,0.124388
2594.66,0.124405
2595.96,0.124455
2597.26,0.124327
2598.56,0.124426
2599.87,0.124461
2601.17,0.124221
2602.48,0.124144
2603.78,0.124282
2605.09,0.124229
2606.4,0.123968
2607.71,0.124006
2609.03,0.123897
2610.34,0.123833
2611.66,0.123907
2612.97,0.124013
2614.29,0.124056
2615.61,0.124004
2616.93,0.123679
2618.25,0.123426
2619.57,0.123219
2620.9,0.123156
2622.22,0.123282
2623.55,0.12338
2624.88,0.123323
2626.21,0.123324
2627.54,0.122929
2628.87,0.122974
2630.21,0.123034
2631.54,0.122921
2632.88,0.123075
2634.21,0.12299
2635.55,0.122443
2636.89,0.122538
2638.24,0.12267
2639.58,0.122608
2640.92,0.122316
2642.27,0.122301
2643.62,0.12244
2644.97,0.122379
2646.32,0.122488
2647.67,0.122385
2649.02,0.122207
2650.38,0.122078
2651.73,0.122137
2653.09,0.122269
2654.45,0.12218
2655.81,0.1222
2657.17,0.122013
2658.53,0.121919
2659.89,0.121696
2661.26,0.121724
2662.63,0.121713
2664.0,0.121794
2665.36,0.121621
2666.74,0.121564
2668.11,0.121672
2669.48,0.121689
2670.86,0.121396
2672.23,0.121073
2673.61,0.121313
2674.99,0.121544
2676.37,0.121368
2677.76,0.121164
2679.14,0.121038
2680.52,0.121062
2681.91,0.121057
2683.3,0.121116
2684.69,0.12094
2686.08,0.120927
2687.47,0.120784
2688.87,0.120704
2690.26,0.120643
2691.66,0.120417
2693.06,0.120268
2694.46,0.119947
2695.86,0.119768
2697.26,0.119872
2698.66,0.119724
2700.07,0.119739
2701.48,0.119564
2702.89,0.11894
2704.3,0.118753
2705.71,0.119054
2707.12,0.119049
2708.53,0.119264
2709.95,0.119281
2711.37,0.119025
2712.79,0.118873
2714.21,0.119182
2715.63,0.119162
2717.05,0.118956
2718.48,0.119001
2719.9,0.118977
2721.33,0.118531
2722.76,0.118136
2724.19,0.118068
2725.62,0.117889
2727.06,0.117953
2728.49,0.117937
2729.93,0.117749
2731.37,0.117586
2732.81,0.117542
2734.25,0.117694
2735.69,0.11755
2737.14,0.117327
2738.58,0.117431
2740.03,0.117264
2741.48,0.116852
2742.93,0.116714
2744.38,0.116665
2745.83,0.116953
2747.29,0.117116
2748.75,0.117049
2750.2,0.11698
2751.66,0.117036
2753.13,0.116984
2754.59,0.116985
2756.05,0.116524
2757.52,0.116234
2758.99,0.116507
2760.46,0.116697
2761.93,0.116651
2763.4,0.116788
2764.87,0.116969
2766.35,0.11721
2767.82,0.117317
2769.3,0.117763
2770.78,0.117975
2772.26,0.117931
2773.75,0.118244
2775.23,0.118603
2776.72,0.118698
2778.21,0.118885
2779.7,0.118995
2781.19,0.119256
2782.68,0.119475
2784.18,0.119579
2785.67,0.119795
2787.17,0.120203
2788.67,0.120412
2790.17,0.120525
2791.67,0.120847
2793.18,0.121169
2794.68,0.121088
2796.19,0.121043
2797.7,0.121309
2799.21,0.121926
2800.72,0.122062
2802.24,0.121931
2803.75,0.121964
2805.27,0.122434
2806.79,0.122669
2808.31,0.122742
2809.83,0.122704
2811.35,0.122954
2812.88,0.123412
2814.41,0.123714
2815.93,0.123808
2817.46,0.123985
2819.0,0.124139
2820.53,0.124339
2822.07,0.124412
2823.6,0.124786
2825.14,0.1251
2826.68,0.125232
2828.22,0.125595
2829.77,0.125836
2831.31,0.125913
2832.86,0.126107
2834.41,0.126205
2835.96,0.12646
2837.51,0.126805
2839.07,0.127199
2840.62,0.12743
2842.18,0.127696
2843.74,0.128082
2845.3,0.128467
2846.86,0.128776
2848.43,0.129146
2849.99,0.12946
2851.56,0.129558
2853.13,0.129646
2854.7,0.130214
2856.27,0.130671
2857.85,0.130968
2859.42,0.131067
2861.0,0.131151
2862.58,0.131415
2864.16,0.13179
2865.75,0.132138
2867.33,0.132596
2868.92,0.132879
2870.51,0.133262
2872.1,0.133645
2873.69,0.134108
2875.28,0.134461
2876.88,0.134777
2878.48,0.135085
2880.07,0.135452
2881.68,0.135909
2883.28,0.136631
2884.88,0.137039
2886.49,0.137193
2888.1,0.137233
2889.71,0.137745
2891.32,0.138258
2892.93,0.138493
2894.55,0.138781
2896.16,0.13921
2897.78,0.139644
2899.4,0.140081
2901.03,0.140533
2902.65,0.141017
2904.28,0.141152
2905.91,0.141298
2907.54,0.141698
2909.17,0.142229
2910.8,0.142882
2912.44,0.143499
2914.07,0.143827
2915.71,0.144229
2917.35,0.144685
2918.99,0.144986
2920.64,0.145212
2922.29,0.145598
2923.93,0.146019
2925.58,0.146614
2927.24,0.147083
2928.89,0.1475
2930.55,0.148077
2932.2,0.148756
2933.86,0.149128
2935.52,0.149464
2937.19,0.149715
2938.85,0.150187
2940.52,0.150881
2942.19,0.151564
2943.86,0.151711
2945.53,0.152078
2947.21,0.152799
2948.88,0.153552
2950.56,0.154039
2952.24,0.154212
2953.92,0.154457
2955.61,0.155002
2957.29,0.155504
2958.98,0.156069
2960.67,0.156487
2962.36,0.156859
2964.06,0.157442
2965.75,0.157911
2967.45,0.158445
2969.15,0.159182
2970.85,0.15959
2972.55,0.159742
2974.26,0.160106
2975.97,0.160805
2977.68,0.161318
2979.39,0.161719
2981.1,0.16224
2982.82,0.162865
2984.53,0.16345
2986.25,0.163957
2987.97,0.164397
2989.7,0.164932
2991.42,0.165327
2993.15,0.165852
2994.88,0.166642
2996.61,0.167387
2998.34,0.167801
3000.08,0.168187
3001.82,0.16877
3003.55,0.169273
3005.3,0.169784
3007.04,0.170411
3008.78,0.170937
3010.53,0.17147
3012.28,0.17206
3014.03,0.17266
3015.79,0.173337
3017.54,0.174115
3019.3,0.174583
3021.06,0.175046
3022.82,0.175684
3024.58,0.176569
3026.35,0.177264
3028.12,0.177484
3029.89,0.177698
3031.66,0.178189
3033.43,0.17888
3035.21,0.179637
3036.99,0.180091
3038.77,0.180725
3040.55,0.181267
3042.33,0.18177
3044.12,0.182289
3045.91,0.182954
3047.7,0.183617
3049.49,0.184267
3051.29,0.184917
3053.08,0.185529
3054.88,0.186125
3056.68,0.1866
3058.49,0.187169
3060.29,0.187687
3062.1,0.188277
3063.91,0.188954
3065.72,0.18964
3067.54,0.190314
3069.35,0.190848
3071.17,0.191593
3072.99,0.192355
3074.81,0.192961
3076.64,0.193556
3078.47,0.194291
3080.29,0.195028
3082.13,0.195656
3083.96,0.1961
3085.79,0.196825
3087.63,0.197527
3089.47,0.198169
3091.31,0.198801
3093.16,0.199435
3095.01,0.199934
3096.85,0.200592
3098.71,0.201386
3100.56,0.20208
3102.41,0.202727
3104.27,0.203432
3106.13,0.203865
3107.99,0.20447
3109.86,0.20518
3111.73,0.205952
3113.59,0.206535
3115.47,0.207124
3117.34,0.208005
3119.21,0.208748
3121.09,0.209293
3122.97,0.209935
3124.86,0.210516
3126.74,0.211204
3128.63,0.212053
3130.52,0.212832
3132.41,0.213526
3134.3,0.214275
3136.2,0.215076
3138.1,0.215722
3140.0,0.216305
3141.9,0.217077
3143.81,0.217787
3145.71,0.218524
3147.62,0.219339
3149.54,0.220152
3151.45,0.220711
3153.37,0.221422
3155.29,0.222248
3157.21,0.223079
3159.13,0.223754
3161.06,0.224421
3162.99,0.225285
3164.92,0.226183
3166.85,0.226963
3168.79,0.227795
3170.72,0.228518
3172.67,0.229301
3174.61,0.230108
3176.55,0.230858
3178.5,0.231633
3180.45,0.232573
3182.4,0.233162
3184.36,0.233902
3186.32,0.23489
3188.27,0.235701
3190.24,0.236401
3192.2,0.237064
3194.17,0.237859
3196.14,0.238636
3198.11,0.239482
3200.08,0.240369
3202.06,0.241226
3204.04,0.242051
3206.02,0.243003
3208.0,0.244057
3209.99,0.244985
3211.98,0.24567
3213.97,0.246276
3215.96,0.247191
3217.96,0.248175
3219.96,0.249024
3221.96,0.25
3223.96,0.250876
3225.97,0.251759
3227.98,0.252642
3229.99,0.25352
3232.0,0.254455
3234.02,0.255306
3236.04,0.256114
3238.06,0.256939
3240.08,0.25793
3242.11,0.258873
3244.14,0.259786
3246.17,0.260722
3248.2,0.261852
3250.24,0.262716
3252.28,0.263422
3254.32,0.264145
3256.37,0.265033
3258.41,0.266083
3260.46,0.267041
3262.51,0.267802
3264.57,0.268642
3266.63,0.269645
3268.69,0.270487
3270.75,0.271483
3272.81,0.272469
3274.88,0.27348
3276.95,0.274516
3279.02,0.275204
3281.1,0.276034
3283.18,0.277049
3285.26,0.278177
3287.34,0.279
3289.43,0.279828
3291.51,0.28066
3293.61,0.281553
3295.7,0.282474
3297.8,0.283373
3299.9,0.284209
3302.0,0.285327
3304.1,0.286488
3306.21,0.287388
3308.32,0.288097
3310.43,0.288821
3312.55,0.289717
3314.66,0.290643
3316.79,0.291662
3318.91,0.292805
3321.03,0.293712
3323.16,0.294598
3325.29,0.295328
3327.43,0.296146
3329.57,0.296965
3331.71,0.297802
3333.85,0.298727
3335.99,0.299597
3338.14,0.300547
3340.29,0.301525
3342.45,0.302444
3344.6,0.303143
3346.76,0.304022
3348.92,0.304862
3351.09,0.305608
3353.26,0.306528
3355.43,0.307373
3357.6,0.308008
3359.78,0.308754
3361.96,0.30944
3364.14,0.31008
3366.32,0.310938
3368.51,0.311837
3370.7,0.312624
3372.89,0.313436
3375.09,0.314319
3377.29,0.315195
3379.49,0.316116
3381.69,0.316903
3383.9,0.317727
3386.11,0.318562
3388.32,0.319527
3390.54,0.32047
3392.76,0.321351
3394.98,0.322207
3397.21,0.322873
3399.43,0.323493
3401.66,0.324279
3403.9,0.325025
3406.13,0.325746
3408.37,0.326453
3410.61,0.327115
3412.86,0.327969
3415.11,0.328868
3417.36,0.32982
3419.61,0.33083
3421.87,0.33171
3424.13,0.332686
3426.39,0.333746
3428.66,0.334757
3430.93,0.335746
3433.2,0.336726
3435.48,0.337627
3437.76,0.338411
3440.04,0.339354
3442.32,0.34034
3444.61,0.341267
3446.9,0.3421
3449.19,0.343011
3451.49,0.343872
3453.79,0.344624
3456.09,0.34532
3458.4,0.346321
3460.7,0.34734
3463.02,0.348098
3465.33,0.348829
3467.65,0.349551
3469.97,0.350287
3472.29,0.351127
3474.62,0.351871
3476.95,0.352652
3479.29,0.353445
3481.62,0.354261
3483.96,0.35501
3486.3,0.35587
3488.65,0.356786
3491.0,0.357543
3493.35,0.358341
3495.71,0.359069
3498.07,0.359687
3500.43,0.360451
3502.79,0.361394
3505.16,0.362357
3507.53,0.363392
3509.91,0.364387
3512.29,0.365414
3514.67,0.366311
3517.05,0.367147
3519.44,0.368006
3521.83,0.368896
3524.23,0.369759
3526.62,0.370567
3529.02,0.371406
3531.43,0.372277
3533.83,0.373063
3536.24,0.37384
3538.66,0.374723
3541.08,0.375486
3543.5,0.376214
3545.92,0.377095
3548.35,0.377943
3550.78,0.378582
3553.21,0.379298
3555.65,0.380115
3558.09,0.380947
3560.53,0.381772
3562.98,0.382549
3565.43,0.383186
3567.88,0.383964
3570.34,0.384764
3572.8,0.385393
3575.27,0.386208
3577.73,0.387084
3580.2,0.38777
3582.68,0.388362
3585.16,0.388949
3587.64,0.389732
3590.12,0.39042
3592.61,0.391154
3595.1,0.391872
3597.6,0.392602
3600.09,0.393311
3602.6,0.394092
3605.1,0.394803
3607.61,0.395525
3610.12,0.396275
3612.64,0.397035
3615.16,0.39774
3617.68,0.398362
3620.21,0.399068
3622.74,0.39982
3625.27,0.400472
3627.81,0.401023
3630.35,0.401733
3632.89,0.4024
3635.44,0.403002
3637.99,0.403798
3640.54,0.404466
3643.1,0.405169
3645.66,0.40582
3648.23,0.406427
3650.8,0.407041
3653.37,0.407746
3655.95,0.408355
3658.53,0.408992
3661.11,0.409628
3663.7,0.410332
3666.29,0.410974
3668.89,0.411638
3671.48,0.412298
3674.09,0.412918
3676.69,0.41344
3679.3,0.414213
3681.91,0.414872
3684.53,0.415405
3687.15,0.416069
3689.78,0.416724
3692.4,0.4173
3695.04,0.417932
3697.67,0.418595
3700.31,0.419162
3702.95,0.419699
3705.6,0.420341
3708.25,0.42094
3710.91,0.421538
3713.56,0.422137
3716.23,0.422752
3718.89,0.42332
3721.56,0.423817
3724.23,0.424295
3726.91,0.424885
3729.59,0.425535
3732.28,0.426069
3734.97,0.426668
3737.66,0.427279
3740.36,0.427826
3743.06,0.428289
3745.76,0.428811
3748.47,0.429482
3751.18,0.430126
3753.9,0.43068
3756.62,0.43109
3759.34,0.431516
3762.07,0.431989
3764.8,0.432577
3767.54,0.433062
3770.28,0.433662
3773.02,0.434224
3775.77,0.434672
3778.52,0.435238
3781.28,0.435871
3784.04,0.436402
3786.8,0.436875
3789.57,0.437294
3792.34,0.437844
3795.12,0.438323
3797.9,0.438756
3800.69,0.439289
3803.47,0.439812
3806.27,0.440308
3809.06,0.440671
3811.86,0.441054
3814.67,0.441646
3817.48,0.442174
3820.29,0.442631
3823.11,0.442959
3825.93,0.44332
3828.76,0.443831
3831.59,0.444336
3834.42,0.444731
3837.26,0.445203
3840.1,0.445641
3842.95,0.446049
3845.8,0.44646
3848.65,0.446989
3851.51,0.447415
3854.38,0.447795
3857.24,0.448182
3860.12,0.448699
3862.99,0.44907
3865.87,0.449493
3868.76,0.449912
3871.65,0.450334
3874.54,0.450723
3877.44,0.451079
3880.34,0.451625
3883.25,0.452127
3886.16,0.452461
3889.07,0.452738
3891.99,0.45315
3894.92,0.453538
3897.85,0.453847
3900.78,0.45416
3903.72,0.454461
3906.66,0.454874
3909.6,0.455344
3912.55,0.4557
3915.51,0.455998
3918.47,0.456393
3921.43,0.456656
3924.4,0.456935
3927.38,0.457331
3930.35,0.457607
3933.33,0.457763
3936.32,0.458169
3939.31,0.458603
3942.31,0.458947
3945.31,0.459237
3948.31,0.459502
3951.32,0.459698
3954.34,0.459902
3957.35,0.460125
3960.38,0.460266
3963.41,0.460476
3966.44,0.460856
3969.48,0.46115
3972.52,0.461424
3975.56,0.461642
3978.61,0.461923
3981.67,0.462132
3984.73,0.462494
3987.8,0.462653
3990.87,0.462738
3993.94,0.462977
3997.02,0.463353
4000.1,0.463527
4003.19,0.463737
4006.29,0.463952
4009.39,0.464095
4012.49,0.464289
4015.6,0.46456
4018.71,0.464784
4021.83,0.465
4024.95,0.465232
4028.08,0.465611
4031.21,0.465828
4034.35,0.465887
4037.49,0.466046
4040.64,0.466401
4043.79,0.466598
4046.94,0.46677
4050.11,0.466893
4053.27,0.467214
4056.44,0.467409
4059.62,0.467478
4062.8,0.467608
4065.99,0.46785
4069.18,0.468062
4072.38,0.468192
4075.58,0.468253
4078.78,0.468465
4082.0,0.468659
4085.21,0.468921
4088.43,0.469065
4091.66,0.469285
4094.89,0.469337
4098.13,0.469476
4101.37,0.469652
4104.62,0.469809
4107.87,0.469852
4111.13,0.469886
4114.39,0.470126
4117.66,0.470392
4120.93,0.470459
4124.21,0.470593
4127.5,0.470773
4130.79,0.47092
4134.08,0.470998
4137.38,0.47116
4140.68,0.471163
4143.99,0.471229
4147.31,0.471359
4150.63,0.471511
4153.95,0.471526
4157.29,0.471577
4160.62,0.471631
4163.96,0.471763
4167.31,0.471894
4170.66,0.471992
4174.02,0.471957
4177.39,0.472067
4180.75,0.472105
4184.13,0.47206
4187.51,0.472067
4190.89,0.472223
4194.28,0.47227
4197.68,0.472315
4201.08,0.472306
4204.49,0.472397
4207.9,0.472427
4211.32,0.472372
4214.74,0.472297
4218.17,0.47219
4221.61,0.472077
4225.05,0.472144
4228.5,0.472098
4231.95,0.472065
4235.4,0.47196
4238.87,0.471933
4242.34,0.472077
4245.81,0.472254
4249.29,0.472265
4252.78,0.472358
4256.27,0.472427
4259.77,0.472392
4263.27,0.472262
4266.78,0.472216
4270.29,0.472146
4273.81,0.472119
4277.34,0.472136
4280.87,0.472256
4284.41,0.472324
4287.95,0.472364
4291.5,0.472361
4295.06,0.472524
4298.62,0.472771
4302.19,0.47291
4305.76,0.472879
4309.34,0.473011
4312.92,0.47321
4316.52,0.473372
4320.11,0.473349
4323.72,0.473471
4327.32,0.473707
4330.94,0.473918
4334.56,0.473927
4338.19,0.473973
4341.82,0.474008
4345.46,0.473986
4349.11,0.474041
4352.76,0.474079
4356.42,0.474031
4360.08,0.474151
4363.75,0.474142
4367.43,0.473991
4371.11,0.473884
4374.8,0.473872
4378.49,0.473662
4382.19,0.473586
4385.9,0.473519
4389.61,0.47349
4393.33,0.473332
4397.06,0.473248
4400.79,0.47319
4404.53,0.473151
4408.28,0.473063
4412.03,0.473071
4415.79,0.472917
4419.55,0.472802
4423.32,0.472747
4427.1,0.472678
4430.88,0.472496
4434.68,0.472406
4438.47,0.472337
4442.28,0.472313
4446.08,0.472214
4449.9,0.472146
4453.72,0.472078
4457.55,0.472053
4461.39,0.471857
4465.23,0.471689
4469.08,0.47164
4472.94,0.471729
4476.8,0.471741
4480.67,0.471845
4484.55,0.471913
4488.43,0.471994
4492.32,0.47206
4496.21,0.472127
4500.12,0.472237
4504.03,0.472375
4507.94,0.472451
4511.87,0.472721
4515.8,0.472948
4519.73,0.473235
4523.68,0.47327
4527.63,0.473447
4531.59,0.473589
4535.55,0.473684
4539.52,0.473758
4543.5,0.473799
4547.49,0.473848
4551.48,0.473972
4555.48,0.473955
4559.49,0.473936
4563.5,0.473823
4567.52,0.473888
4571.55,0.473865
4575.58,0.473909
4579.63,0.473947
4583.67,0.473993
4587.73,0.473903
4591.79,0.473813
4595.86,0.473668
4599.94,0.473542
4604.03,0.473397
4608.12,0.473315
4612.22,0.473151
4616.33,0.472979
4620.44,0.472692
4624.56,0.472467
4628.69,0.472253
4632.83,0.472054
4636.97,0.471845
4641.12,0.471614
4645.28,0.47137
4649.45,0.471101
4653.62,0.470715
4657.8,0.470444
4661.99,0.470089
4666.19,0.469825
4670.39,0.469539
4674.6,0.469246
4678.82,0.468948
4683.05,0.468731
4687.28,0.468459
4691.52,0.468464
4695.77,0.468496
4700.03,0.468523
4704.3,0.468533
4708.57,0.468597
4712.85,0.468566
4717.14,0.468646
4721.43,0.468545
4725.74,0.46841
4730.05,0.468311
4734.37,0.468217
4738.7,0.468008
4743.03,0.467859
4747.38,0.467638
4751.73,0.467423
4756.09,0.467231
4760.45,0.467088
4764.83,0.466839
4769.21,0.466592
4773.6,0.466357
4778.0,0.466116
4782.41,0.465814
4786.83,0.465518
4791.25,0.465137
4795.68,0.464909
4800.13,0.46462
4804.57,0.464398
4809.03,0.464085
4813.5,0.463713
4817.97,0.463317
4822.45,0.463108
4826.94,0.462828
4831.44,0.462555
4835.95,0.462217
4840.46,0.461876
4844.99,0.461403
4849.52,0.460982
4854.06,0.460559
4858.61,0.460227
4863.17,0.459689
4867.73,0.459117
4872.31,0.458453
4876.89,0.457707
4881.48,0.456975
4886.08,0.456233
4890.69,0.455172
4895.31,0.454008
4899.94,0.452623
4904.57,0.451218
4909.22,0.449657
4913.87,0.44811
4918.53,0.446611
4923.21,0.445234
4927.88,0.444051
4932.57,0.443205
4937.27,0.442444
4941.98,0.441803
4946.69,0.441095
4951.42,0.440425
4956.15,0.439619
4960.9,0.438611
4965.65,0.43736
4970.41,0.435999
4975.18,0.434538
4979.96,0.433086
4984.75,0.43166
4989.54,0.430514
4994.35,0.429519
4999.17,0.428767
5003.99,0.428056
5008.83,0.427564
5013.67,0.427158
5018.52,0.426873
5023.39,0.426653
5028.26,0.426597
5033.14,0.426573
5038.03,0.426596
5042.93,0.426508
5047.84,0.42635
5052.76,0.426221
5057.69,0.426229
5062.63,0.426144
5067.58,0.426173
5072.54,0.42622
5077.51,0.426415
5082.49,0.426739
5087.47,0.427175
5092.47,0.427672
5097.48,0.428278
5102.5,0.428686
5107.52,0.429049
5112.56,0.429217
5117.61,0.429299
5122.66,0.429082
5127.73,0.42895
5132.81,0.428853
5137.89,0.428816
5142.99,0.428646
5148.1,0.428661
5153.22,0.428656
5158.34,0.428778
5163.48,0.428826
5168.63,0.428783
5173.79,0.428689
5178.96,0.42873
5184.13,0.428619
5189.32,0.428493
5194.52,0.428449
5199.73,0.428327
5204.96,0.427835
5210.19,0.427239
5215.43,0.426326
5220.68,0.425157
5225.94,0.423729
5231.22,0.422129
5236.5,0.420238
5241.79,0.418119
5247.1,0.415971
5252.42,0.413884
5257.74,0.411756
5263.08,0.409788
5268.43,0.407878
5273.79,0.406074
5279.16,0.404317
5284.54,0.402719
5289.93,0.401062
5295.34,0.399569
5300.75,0.398368
5306.18,0.397362
5311.61,0.396488
5317.06,0.395686
5322.52,0.39487
5327.99,0.394176
5333.47,0.393516
5338.96,0.392957
5344.47,0.392371
5349.98,0.391818
5355.51,0.391484
5361.05,0.39184
5366.6,0.392467
5372.16,0.393415
5377.73,0.394661
5383.32,0.3964
5388.91,0.398429
5394.52,0.40072
5400.14,0.403095
5405.77,0.405486
5411.41,0.407692
5417.07,0.409621
5422.74,0.410974
5428.41,0.412307
5434.1,0.413571
5439.81,0.414447
5445.52,0.414815
5451.25,0.415076
5456.98,0.414976
5462.73,0.414705
5468.5,0.414036
5474.27,0.413407
5480.06,0.412668
5485.86,0.411851
5491.67,0.411031
5497.49,0.410151
5503.33,0.409158
5509.18,0.408167
5515.04,0.407025
5520.91,0.405896
5526.8,0.40466
5532.69,0.403551
5538.61,0.402482
5544.53,0.40148
5550.47,0.400476
5556.41,0.399518
5562.38,0.398692
5568.35,0.398097
5574.34,0.397575
5580.34,0.397047
5586.35,0.396591
5592.38,0.396655
5598.42,0.396804
5604.47,0.396989
5610.54,0.397201
5616.61,0.397579
5622.71,0.397995
5628.81,0.398676
5634.93,0.399327
5641.06,0.400037
5647.21,0.400953
5653.36,0.40231
5659.54,0.4035
5665.72,0.404701
5671.92,0.405721
5678.13,0.406404
5684.36,0.407026
5690.6,0.407617
5696.85,0.407764
5703.12,0.407928
5709.4,0.407726
5715.69,0.407186
5722.0,0.406818
5728.33,0.406476
5734.66,0.405716
5741.01,0.4049
5747.38,0.403797
5753.76,0.402636
5760.15,0.401375
5766.56,0.400004
5772.98,0.397964
5779.41,0.396723
5785.86,0.395225
5792.33,0.393652
5798.81,0.392029
5805.3,0.390547
5811.81,0.389078
5818.33,0.38773
5824.87,0.386053
5831.42,0.384698
5837.99,0.383495
5844.57,0.381977
5851.17,0.380015
5857.78,0.37789
5864.41,0.375409
5871.05,0.372958
5877.7,0.370493
5884.38,0.367751
5891.06,0.364968
5897.76,0.363095
5904.48,0.360391
5911.21,0.358539
5917.96,0.356505
5924.73,0.354325
5931.5,0.35246
5938.3,0.350777
5945.11,0.349027
5951.93,0.348351
5958.78,0.347663
5965.63,0.347042
5972.51,0.34649
5979.39,0.346136
5986.3,0.345904
5993.22,0.345633
6000.16,0.345493
6007.11,0.345619
6014.08,0.345486
6021.06,0.345288
6028.06,0.345192
6035.08,0.345143
6042.12,0.34505
6049.17,0.344753
6056.23,0.344356
6063.32,0.344886
6070.42,0.345216
6077.53,0.345155
6084.67,0.345285
6091.82,0.34542
6098.98,0.345327
6106.17,0.345088
6113.37,0.344658
6120.58,0.344124
6127.82,0.343873
6135.07,0.343484
6142.34,0.342661
6149.63,0.341691
6156.93,0.340623
6164.25,0.33942
6171.59,0.338198
6178.95,0.337142
6186.32,0.335971
6193.71,0.334861
6201.12,0.334376
6208.54,0.334028
6215.99,0.333732
6223.45,0.333736
6230.93,0.333804
6238.43,0.333992
6245.95,0.334297
6253.48,0.334691
6261.03,0.335185
6268.6,0.335813
6276.19,0.336396
6283.8,0.337076
6291.43,0.337791
6299.07,0.338532
6306.73,0.339185
6314.42,0.339924
6322.12,0.340657
6329.84,0.341397
6337.57,0.342071
6345.33,0.342506
6353.11,0.342979
6360.9,0.343795
6368.72,0.344349
6376.55,0.344807
6384.4,0.345414
6392.27,0.345943
6400.17,0.346385
6408.08,0.346674
6416.01,0.346438
6423.96,0.346252
6431.93,0.346625
6439.92,0.346662
6447.93,0.346343
6455.96,0.346037
6464.01,0.345504
6472.08,0.344936
6480.17,0.343919
6488.28,0.34279
6496.41,0.341399
6504.56,0.340205
6512.73,0.339244
6520.92,0.337943
6529.14,0.336028
6537.37,0.334694
6545.63,0.333405
6553.9,0.332183
6562.2,0.331225
6570.51,0.330662
6578.85,0.329874
6587.21,0.329457
6595.59,0.329269
6603.99,0.329023
6612.42,0.32867
6620.86,0.328188
6629.33,0.327636
6637.82,0.326908
6646.33,0.326077
6654.86,0.325871
6663.41,0.325218
6671.99,0.324068
6680.59,0.32267
6689.21,0.321315
6697.85,0.319962
6706.51,0.318704
6715.2,0.317164
6723.91,0.315828
6732.64,0.314626
6741.4,0.313357
6750.18,0.312081
6758.98,0.310923
6767.8,0.309747
6776.65,0.308715
6785.52,0.307707
6794.41,0.306749
6803.33,0.306059
6812.27,0.306052
6821.23,0.305857
6830.22,0.305579
6839.23,0.305243
6848.26,0.305094
6857.32,0.304638
6866.4,0.30392
6875.51,0.303026
6884.64,0.302497
6893.8,0.301599
6902.98,0.300453
6912.18,0.298963
6921.41,0.297336
6930.66,0.295572
6939.94,0.293622
6949.24,0.291393
6958.57,0.289085
6967.92,0.286292
6977.3,0.28385
6986.7,0.281416
6996.13,0.278788
7005.59,0.276176
7015.07,0.27391
7024.57,0.271838
7034.1,0.270018
7043.66,0.268437
7053.25,0.267135
7062.85,0.266229
7072.49,0.265926
7082.15,0.265808
7091.84,0.265852
7101.55,0.265855
7111.3,0.266146
7121.06,0.266518
7130.86,0.267018
7140.68,0.267633
7150.53,0.268421
7160.41,0.269122
7170.31,0.270025
7180.24,0.270936
7190.2,0.27197
7200.19,0.272769
7210.2,0.273403
7220.24,0.27382
7230.31,0.274228
7240.41,0.274394
7250.54,0.274443
7260.69,0.274266
7270.88,0.274086
7281.09,0.273792
7291.33,0.273518
7301.6,0.273211
7311.9,0.272948
7322.22,0.272564
7332.58,0.2722
7342.97,0.27172
7353.38,0.271272
7363.83,0.270801
7374.3,0.270317
7384.81,0.26962
7395.34,0.268959
7405.91,0.268152
7416.5,0.267287
7427.13,0.266375
7437.78,0.265518
7448.47,0.264613
7459.19,0.263823
7469.94,0.262918
7480.71,0.262156
7491.52,0.261545
7502.37,0.261084
7513.24,0.260452
7524.14,0.259733
7535.08,0.258936
7546.05,0.25815
7557.05,0.257069
7568.08,0.255838
7579.15,0.254427
7590.24,0.252958
7601.37,0.251426
7612.53,0.249888
7623.73,0.248137
7634.96,0.246497
7646.22,0.244816
7657.51,0.242971
7668.84,0.240807
7680.2,0.238557
7691.59,0.236057
7703.02,0.233484
7714.49,0.230721
7725.98,0.227907
7737.52,0.224977
7749.08,0.222192
7760.68,0.219373
7772.32,0.216687
7783.99,0.21413
7795.69,0.211962
7807.43,0.210109
7819.21,0.208814
7831.02,0.207737
7842.87,0.207116
7854.75,0.206563
7866.67,0.206321
7878.62,0.206117
7890.62,0.206104
7902.64,0.206208
7914.71,0.206392
7926.81,0.206442
7938.95,0.206533
7951.13,0.206492
7963.34,0.206492
7975.59,0.20627
7987.88,0.205889
8000.21,0.205273
8012.57,0.20461
8024.98,0.203676
8037.42,0.202799
8049.9,0.201667
8062.42,0.200493
8074.98,0.199161
8087.57,0.197893
8100.21,0.196509
8112.89,0.195192
8125.6,0.193774
8138.36,0.192461
8151.16,0.191009
8163.99,0.1894
8176.87,0.18744
8189.79,0.18529
8202.75,0.182674
8215.75,0.179956
8228.79,0.177067
8241.87,0.174153
8254.99,0.171136
8268.16,0.168342
8281.37,0.165471
8294.62,0.16283
8307.91,0.160331
8321.24,0.158085
8334.62,0.155949
8348.04,0.154017
8361.51,0.152064
8375.02,0.150424
8388.57,0.148713
8402.16,0.147136
8415.8,0.145521
8429.49,0.144135
8443.22,0.142423
8456.99,0.140798
8470.81,0.139128
8484.67,0.137492
8498.58,0.135508
8512.54,0.133477
8526.54,0.131188
8540.58,0.128763
8554.68,0.125951
8568.82,0.122981
8583.0,0.119523
8597.24,0.1157
8611.52,0.111547
8625.85,0.10808
8640.23,0.105646
8654.65,0.104568
8669.12,0.10397
8683.64,0.103501
8698.21,0.102709
8712.83,0.101963
8727.5,0.101105
8742.22,0.100511
8756.99,0.099883
8771.8,0.099388
8786.67,0.098648
8801.59,0.098142
8816.56,0.097612
8831.58,0.097277
8846.65,0.096814
8861.77,0.096573
8876.94,0.096166
8892.17,0.095869
8907.45,0.095232
8922.78,0.094773
8938.16,0.094252
8953.6,0.093712
8969.09,0.092976
8984.64,0.092472
9000.23,0.091824
9015.89,0.091423
9031.59,0.090956
9047.36,0.090506
9063.17,0.089873
9079.05,0.089542
9094.97,0.08891
9110.96,0.088382
9127.0,0.087703
9143.1,0.087168
9159.25,0.086696
9175.46,0.086463
9191.73,0.086158
9208.06,0.085996
9224.44,0.085788
9240.88,0.085748
9257.38,0.085363
9273.94,0.085046
9290.56,0.084299
9307.24,0.083442
9323.98,0.082131
9340.78,0.080454
9357.64,0.078181
9374.57,0.075582
9391.55,0.072376
9408.59,0.069335
9425.7,0.066201
9442.87,0.06339
9460.1,0.060838
9477.4,0.058709
9494.75,0.056836
9512.17,0.05528
9529.66,0.053537
9547.21,0.052243
9564.83,0.050907
9582.5,0.049593
9600.25,0.048139
9618.06,0.047079
9635.94,0.04606
9653.88,0.045421
9671.89,0.044639
9689.97,0.044065
9708.12,0.04343
9726.33,0.042827
9744.62,0.042003
9762.97,0.041332
9781.39,0.040517
9799.88,0.039959
9818.44,0.039091
9837.07,0.038349
9855.77,0.037362
9874.54,0.036502
9893.39,0.03551
9912.3,0.034639
9931.29,0.033633
9950.36,0.032887
9969.49,0.032195
9988.7,0.031716
10007.98,0.030957
10027.34,0.030521
10046.77,0.030102
10066.28,0.029765
10085.87,0.029156
10105.53,0.028786
10125.26,0.028337
10145.08,0.027987
10164.97,0.027607
10184.94,0.027327
10204.99,0.026837
10225.12,0.026503
10245.33,0.02607
10265.61,0.025831
10285.98,0.025294
10306.43,0.024902
10326.96,0.02439
10347.57,0.023982
10368.27,0.023448
10389.05,0.02325
10409.91,0.02291
10430.86,0.022598
10451.88,0.022155
10473.0,0.02192
10494.2,0.02164
10515.49,0.021592
10536.86,0.021376
10558.32,0.021413
10579.87,0.02113
10601.5,0.020937
10623.23,0.020709
10645.04,0.02078
10666.94,0.02053
10688.94,0.020532
10711.02,0.020573
10733.2,0.020848
10755.47,0.021012
10777.83,0.021373
10800.28,0.021814
10822.83,0.022556
10845.47,0.023104
10868.21,0.023988
10891.04,0.024815
10913.97,0.026008
10936.99,0.027187
10960.12,0.028659
10983.34,0.030048
11006.66,0.031703
11030.07,0.033309
11053.59,0.035146
11077.21,0.036903
11100.93,0.038888
11124.75,0.040869
11148.68,0.043066
11172.71,0.045347
11196.84,0.047853
11221.07,0.050386
11245.41,0.0534
11269.86,0.056594
11294.41,0.060248
11319.07,0.064016
11343.84,0.068039
11368.72,0.071828
11393.7,0.075663
11418.8,0.079156
11444.01,0.082578
11469.33,0.085967
11494.76,0.089532
11520.3,0.093087
11545.96,0.09694
11571.73,0.100675
11597.62,0.104389
11623.62,0.107868
11649.74,0.110671
11675.98,0.11209
11702.34,0.112434
11728.81,0.111326
11755.41,0.108793
11782.13,0.105036
11808.96,0.101045
11835.92,0.09753
11863.01,0.094975
11890.22,0.093187
11917.55,0.092434
11945.01,0.091961
11972.6,0.091512
12000.31,0.09111
12028.16,0.090992
12056.13,0.091159
12084.23,0.091953
12112.46,0.093299
12140.83,0.095419
12169.33,0.098028
12197.96,0.101349
12226.73,0.104667
12255.64,0.10797
12284.68,0.110986
12313.86,0.113679
12343.18,0.116087
12372.64,0.118581
12402.24,0.120671
12431.98,0.122636
12461.86,0.124311
12491.89,0.126013
12522.07,0.12762
12552.38,0.129228
12582.85,0.130393
12613.47,0.131568
12644.23,0.132714
12675.15,0.133992
12706.21,0.135284
12737.43,0.13681
12768.81,0.138167
12800.33,0.139249
12832.02,0.140076
12863.86,0.141002
12895.86,0.141684
12928.02,0.142146
12960.34,0.142621
12992.82,0.143345
13025.46,0.14404
13058.27,0.14513
13091.25,0.146028
13124.39,0.146832
13157.7,0.147765
13191.18,0.148959
13224.83,0.149945
13258.66,0.151147
13292.65,0.152295
13326.83,0.153305
13361.17,0.154221
13395.7,0.15525
13430.4,0.156175
13465.29,0.157102
13500.35,0.157702
13535.6,0.158385
13571.03,0.15905
13606.65,0.159624
13642.46,0.159843
13678.46,0.160247
13714.64,0.160415
13751.02,0.160607
13787.59,0.16093
13824.36,0.161196
13861.32,0.161198
13898.49,0.161186
13935.85,0.161103
13973.41,0.161237
14011.17,0.161264
14049.15,0.16121
14087.32,0.160786
14125.71,0.160161
14164.3,0.159464
14203.11,0.15907
14242.13,0.158521
14281.36,0.157914
14320.81,0.156956
14360.49,0.156242
14400.38,0.155648
14440.49,0.154998
14480.82,0.154137
14521.39,0.153636
14562.18,0.15305
14603.2,0.152557
14644.45,0.151999
14685.93,0.151459
14727.66,0.150765
14769.62,0.150222
14811.81,0.149665
14854.25,0.149257
14896.94,0.148635
14939.87,0.148259
14983.05,0.147615
15026.48,0.146568
15070.16,0.145164
15114.1,0.143401
15158.29,0.141177
15202.74,0.138885
15247.46,0.136371
15292.43,0.133533
15337.68,0.12972
15383.19,0.125097
15428.97,0.118857
15475.03,0.111363
15521.36,0.102844
15567.97,0.094249
15614.87,0.08612
15662.04,0.079073
15709.5,0.072933
15757.25,0.067848
15805.29,0.062938
15853.62,0.058488
15902.26,0.054061
15951.19,0.049792
16000.42,0.045596
16049.95,0.041775
16099.8,0.037542
16149.95,0.033674
16200.42,0.030185
16251.21,0.027447
16302.31,0.025647
16353.74,0.026303
16405.49,0.030485
16457.57,0.039515
16509.98,0.051945
16562.73,0.066322
16615.82,0.080338
16669.24,0.093065
16723.02,0.103799
16777.14,0.112731
16831.61,0.120365
16886.43,0.126532
16941.62,0.130753
16997.16,0.134523
17053.08,0.137616
17109.36,0.140498
17166.01,0.142593
17223.04,0.144342
17280.45,0.145598
17338.24,0.146568
17396.43,0.147259
17455.0,0.14783
17513.97,0.147714
17573.34,0.148061
17633.11,0.147929
17693.29,0.1479
17753.89,0.148018
17814.9,0.147967
17876.33,0.147517
17938.18,0.146689
18000.47,0.145175
18063.19,0.142761
18126.35,0.138284
18189.95,0.130713
18254.0,0.1184
18318.5,0.103083
18383.46,0.086929
18448.88,0.072782
18514.77,0.060898
18581.13,0.052627
18647.97,0.051692
18715.29,0.063728
18783.1,0.085002
18851.4,0.106785
18920.2,0.122842
18989.51,0.134075
19059.32,0.141391
19129.65,0.14583
19200.5,0.148825
19271.88,0.151338
19343.79,0.153189
19416.24,0.155315
19489.23,0.156996
19562.77,0.158673
19636.88,0.160291
19711.54,0.162092
19786.78,0.163832
19862.59,0.166232
19938.98,0.168068
20015.96,0.170106
20093.55,0.170919
20171.73,0.170797
20250.53,0.170197
20329.94,0.170354
20409.98,0.170891
20490.65,0.172285
20571.96,0.174257
20653.92,0.176151
20736.54,0.176636
20819.82,0.177199
20903.77,0.176362
20988.4,0.173767
21073.72,0.16798
21159.73,0.160441
21246.46,0.151938
21333.89,0.14409
21422.04,0.137258
21510.93,0.132109
21600.56,0.126848
21690.94,0.123
21782.08,0.119712
21873.99,0.117607
21966.67,0.11529
22060.15,0.113464
22154.42,0.111002
22249.51,0.109206
22345.41,0.107373
22442.14,0.106486
22539.72,0.105475
22638.14,0.104928
22737.43,0.103765
22837.6,0.103241
22938.65,0.102255
23040.6,0.101654
23143.46,0.100049
23247.24,0.10009
23351.96,0.099622
23457.63,0.099608
23564.25,0.099223
23671.85,0.099684
23780.44,0.098881
23890.02,0.09854
24000.63,0.098157
24112.26,0.097865
24224.93,0.095711
24338.66,0.095959
24453.47,0.095668
24569.36,0.097323
24686.36,0.094412
24804.47,0.093983
24923.73,0.093355
25044.13,0.097271
25165.71,0.098977
25288.46,0.105108
25412.43,0.107331
25537.61,0.102045
25664.04,0.095031
25791.72,0.099722
25920.68,0.100462
