Database of Origin,University of Winnipeg Spectrophotometer Facility
Sample Description,16.12. Meteorites - Ureilites 16.12.3. Pierre Hudon (JSC) samples (b) RELAB + Nicolet FTIR merged spectra from RELAB
Other Information,bkr3ph021
Date Added,2018-07-23 23:49:07.648599

Data ID,RLA_MET2_10_3       
Sample ID,ALH82130
Mineral Name,ureilite
Grain Size,<75 um
Viewing Geometry,30/0/30
Resolution,5/0.8-121 nm

Wavelength
305.0,0.05251
310.0,0.05063
315.0,0.0536
320.0,0.0532
325.0,0.05301
330.0,0.05418
335.0,0.05312
340.0,0.0536
345.0,0.05338
350.0,0.05307
355.0,0.05401
360.0,0.05443
365.0,0.05477
370.0,0.05544
375.0,0.05664
380.0,0.05799
385.0,0.05959
390.0,0.06099
395.0,0.0626
400.0,0.06462
405.0,0.06593
410.0,0.06748
415.0,0.06912
420.0,0.07063
425.0,0.07285
430.0,0.07473
435.0,0.07715
440.0,0.07901
445.0,0.08114
450.0,0.08277
455.0,0.08425
460.0,0.08518
465.0,0.08624
470.0,0.08705
475.0,0.08789
480.0,0.08906
485.0,0.09007
490.0,0.09154
495.0,0.09295
500.0,0.09473
505.0,0.09653
510.0,0.09835
515.0,0.10054
520.0,0.10216
525.0,0.10447
530.0,0.10624
535.0,0.1083
540.0,0.11002
545.0,0.11182
550.0,0.11331
555.0,0.11475
560.0,0.11582
565.0,0.11706
570.0,0.11781
575.0,0.11883
580.0,0.11957
585.0,0.1201
590.0,0.12073
595.0,0.1211
600.0,0.12176
605.0,0.12208
610.0,0.12256
615.0,0.1227
620.0,0.12309
625.0,0.12338
630.0,0.12336
635.0,0.12373
640.0,0.12354
645.0,0.12393
650.0,0.12373
655.0,0.1239
660.0,0.124
665.0,0.12399
670.0,0.12386
675.0,0.12395
680.0,0.12392
685.0,0.12374
690.0,0.12391
695.0,0.1237
700.0,0.12383
705.0,0.12352
710.0,0.12364
715.0,0.12357
720.0,0.12335
725.0,0.12326
730.0,0.12305
735.0,0.12307
740.0,0.12299
745.0,0.12281
750.0,0.12272
755.0,0.12248
760.0,0.12266
765.0,0.12241
770.0,0.12261
775.0,0.1222
780.0,0.12246
785.0,0.12201
790.0,0.12196
795.0,0.12223
800.0,0.12178
805.0,0.1217
810.0,0.12144
815.0,0.12127
820.0,0.12124
825.0,0.12097
830.0,0.12097
835.0,0.12059
840.0,0.12053
845.0,0.12016
850.0,0.12
855.0,0.11982
860.0,0.11959
865.0,0.11935
870.0,0.11921
875.0,0.11907
880.0,0.11887
885.0,0.11868
890.0,0.11855
895.0,0.11831
900.0,0.11812
905.0,0.11797
910.0,0.11787
915.0,0.11771
920.0,0.11766
925.0,0.11752
930.0,0.11737
935.0,0.11728
940.0,0.11717
945.0,0.1171
950.0,0.11717
955.0,0.11722
960.0,0.11722
965.0,0.1173
970.0,0.1173
975.0,0.11738
980.0,0.11756
985.0,0.1176
990.0,0.11773
995.0,0.11778
1000.0,0.11768
1005.0,0.11761
1010.0,0.11772
1015.0,0.11774
1020.0,0.11776
1025.0,0.11779
1030.0,0.11783
1035.0,0.11793
1040.0,0.11788
1045.0,0.11794
1050.0,0.1179
1055.0,0.11786
1060.0,0.11777
1065.0,0.11783
1070.0,0.11779
1075.0,0.11782
1080.0,0.11776
1085.0,0.11775
1090.0,0.11767
1095.0,0.11766
1100.0,0.11767
1105.0,0.11773
1110.0,0.11762
1115.0,0.11768
1120.0,0.1176
1125.0,0.11756
1130.0,0.11753
1135.0,0.11765
1140.0,0.1176
1145.0,0.11769
1150.0,0.11772
1155.0,0.11773
1160.0,0.11773
1165.0,0.11767
1170.0,0.11763
1175.0,0.11763
1180.0,0.11766
1185.0,0.11761
1190.0,0.11758
1195.0,0.11754
1200.0,0.1175
1205.0,0.11748
1210.0,0.11748
1215.0,0.11758
1220.0,0.11747
1225.0,0.11743
1230.0,0.11734
1235.0,0.11725
1240.0,0.1171
1245.0,0.11707
1250.0,0.11698
1255.0,0.11692
1260.0,0.11687
1265.0,0.11684
1270.0,0.11679
1275.0,0.11673
1280.0,0.11664
1285.0,0.11662
1290.0,0.11664
1295.0,0.11669
1300.0,0.11666
1305.0,0.11665
1310.0,0.11667
1315.0,0.11667
1320.0,0.11665
1325.0,0.11665
1330.0,0.11661
1335.0,0.11661
1340.0,0.1166
1345.0,0.11639
1350.0,0.11625
1355.0,0.11635
1360.0,0.11633
1365.0,0.11631
1370.0,0.11633
1375.0,0.11651
1380.0,0.11643
1385.0,0.11638
1390.0,0.11625
1395.0,0.11621
1400.0,0.11609
1405.0,0.1159
1410.0,0.11583
1415.0,0.11588
1420.0,0.11597
1425.0,0.11593
1430.0,0.11602
1435.0,0.11607
1440.0,0.11599
1445.0,0.11596
1450.0,0.11587
1455.0,0.11583
1460.0,0.1157
1465.0,0.11574
1470.0,0.11563
1475.0,0.11563
1480.0,0.11563
1485.0,0.11573
1490.0,0.11568
1495.0,0.11569
1500.0,0.11571
1505.0,0.1157
1510.0,0.11567
1515.0,0.11572
1520.0,0.11572
1525.0,0.11563
1530.0,0.11565
1535.0,0.11552
1540.0,0.11534
1545.0,0.11534
1550.0,0.11525
1555.0,0.1151
1560.0,0.11514
1565.0,0.11526
1570.0,0.11525
1575.0,0.11528
1580.0,0.11534
1585.0,0.1153
1590.0,0.11529
1595.0,0.11519
1600.0,0.11522
1605.0,0.11507
1610.0,0.11507
1615.0,0.11504
1620.0,0.11503
1625.0,0.11492
1630.0,0.11486
1635.0,0.11479
1640.0,0.11474
1645.0,0.11474
1650.0,0.11473
1655.0,0.11473
1660.0,0.11471
1665.0,0.11471
1670.0,0.11485
1675.0,0.11485
1680.0,0.1149
1685.0,0.11489
1690.0,0.11484
1695.0,0.11477
1700.0,0.11487
1705.0,0.11482
1710.0,0.11474
1715.0,0.11467
1720.0,0.11461
1725.0,0.11457
1730.0,0.11455
1735.0,0.11452
1740.0,0.11447
1745.0,0.11445
1750.0,0.11445
1755.0,0.11426
1760.0,0.11423
1765.0,0.11429
1770.0,0.11414
1775.0,0.11416
1780.0,0.11416
1785.0,0.11407
1790.0,0.11399
1795.0,0.11407
1800.0,0.114
1805.0,0.11395
1810.0,0.11392
1815.0,0.11396
1820.0,0.11384
1825.0,0.11373
1830.0,0.11377
1835.0,0.11392
1840.0,0.11397
1845.0,0.11407
1850.0,0.11428
1855.0,0.11427
1860.0,0.11396
1865.0,0.11403
1870.0,0.11413
1875.0,0.11404
1880.0,0.11399
1885.0,0.11419
1890.0,0.11386
1895.0,0.1137
1900.0,0.11376
1905.0,0.11378
1910.0,0.11372
1915.0,0.11388
1920.0,0.11389
1925.0,0.11379
1930.0,0.11368
1935.0,0.11373
1940.0,0.11355
1945.0,0.11338
1950.0,0.11339
1955.0,0.11325
1960.0,0.11326
1965.0,0.1133
1970.0,0.11328
1975.0,0.11316
1980.0,0.11331
1985.0,0.11315
1990.0,0.1131
1995.0,0.11317
2000.0,0.11318
2005.0,0.11302
2010.0,0.11302
2015.0,0.11303
2020.0,0.11304
2025.0,0.11294
2030.0,0.11292
2035.0,0.11283
2040.0,0.11276
2045.0,0.11262
2050.0,0.11263
2055.0,0.11272
2060.0,0.11272
2065.0,0.11276
2070.0,0.11268
2075.0,0.11265
2080.0,0.11261
2085.0,0.11263
2090.0,0.11264
2095.0,0.11279
2100.0,0.11287
2105.0,0.1129
2110.0,0.11283
2115.0,0.11282
2120.0,0.1128
2125.0,0.11268
2130.0,0.11261
2135.0,0.11257
2140.0,0.11246
2145.0,0.11241
2150.0,0.11252
2155.0,0.11259
2160.0,0.11269
2165.0,0.11284
2170.0,0.11287
2175.0,0.11283
2180.0,0.11289
2185.0,0.11299
2190.0,0.11297
2195.0,0.11304
2200.0,0.11307
2205.0,0.11297
2210.0,0.11297
2215.0,0.1129
2220.0,0.11279
2225.0,0.11267
2230.0,0.11267
2235.0,0.11255
2240.0,0.1125
2245.0,0.1126
2250.0,0.11269
2255.0,0.11267
2260.0,0.11257
2265.0,0.1126
2270.0,0.11249
2275.0,0.11237
2280.0,0.11244
2285.0,0.1126
2290.0,0.11267
2295.0,0.11262
2300.0,0.11273
2305.0,0.11265
2310.0,0.11262
2315.0,0.11259
2320.0,0.11265
2325.0,0.11258
2330.0,0.11257
2335.0,0.11251
2340.0,0.11241
2345.0,0.11233
2350.0,0.11229
2355.0,0.11226
2360.0,0.11211
2365.0,0.11205
2370.0,0.11205
2375.0,0.11208
2380.0,0.11205
2385.0,0.11218
2390.0,0.11224
2395.0,0.11227
2400.0,0.11219
2405.0,0.11223
2410.0,0.11213
2415.0,0.11209
2420.0,0.11211
2425.0,0.11211
2430.0,0.11216
2435.0,0.11208
2440.0,0.11194
2445.0,0.11175
2450.0,0.11163
2455.0,0.11139
2460.0,0.11136
2465.0,0.11131
2470.0,0.1114
2475.0,0.11132
2480.0,0.11121
2485.0,0.11105
2490.0,0.11107
2495.0,0.1108
2500.0,0.1108
2505.0,0.11066
2510.0,0.11072
2515.0,0.11051
2520.0,0.1104
2525.0,0.11016
2530.0,0.11033
2535.0,0.11003
2540.0,0.10999
2545.0,0.11029
2550.0,0.10985
2551.9,0.1099
2553.1,0.10994
2554.4,0.10993
2555.7,0.10993
2556.9,0.10984
2558.2,0.10986
2559.4,0.10995
2560.7,0.1101
2562.0,0.11014
2563.2,0.11007
2564.5,0.11004
2565.8,0.10989
2567.1,0.10978
2568.3,0.10991
2569.6,0.10999
2570.9,0.10992
2572.1,0.10996
2573.4,0.11002
2574.7,0.10987
2576.0,0.10993
2577.3,0.11001
2578.5,0.10992
2579.8,0.10984
2581.1,0.10991
2582.4,0.10993
2583.7,0.10996
2585.0,0.10995
2586.3,0.10996
2587.5,0.10996
2588.8,0.10994
2590.1,0.10991
2591.4,0.10987
2592.7,0.1099
2594.0,0.1101
2595.3,0.11022
2596.6,0.10998
2597.9,0.1099
2599.2,0.10992
2600.5,0.10993
2601.8,0.10996
2603.1,0.11006
2604.4,0.11016
2605.8,0.11012
2607.1,0.11
2608.4,0.10991
2609.7,0.10985
2611.0,0.10977
2612.3,0.10983
2613.6,0.10989
2614.9,0.10986
2616.3,0.10997
2617.6,0.10995
2618.9,0.10985
2620.2,0.11002
2621.6,0.10999
2622.9,0.1099
2624.2,0.10991
2625.5,0.10993
2626.9,0.10992
2628.2,0.10978
2629.5,0.10991
2630.9,0.11003
2632.2,0.10982
2633.5,0.10979
2634.9,0.10982
2636.2,0.10978
2637.6,0.1098
2638.9,0.10983
2640.2,0.10982
2641.6,0.10981
2642.9,0.1098
2644.3,0.10981
2645.6,0.10985
2647.0,0.10972
2648.3,0.10971
2649.7,0.10976
2651.0,0.10979
2652.4,0.1098
2653.8,0.10974
2655.1,0.10971
2656.5,0.10975
2657.8,0.10977
2659.2,0.10984
2660.6,0.10981
2661.9,0.10969
2663.3,0.10971
2664.7,0.10998
2666.0,0.11002
2667.4,0.10992
2668.8,0.10984
2670.1,0.10997
2671.5,0.10989
2672.9,0.10964
2674.3,0.10959
2675.7,0.10962
2677.0,0.10972
2678.4,0.10966
2679.8,0.1096
2681.2,0.1095
2682.6,0.10951
2684.0,0.10942
2685.4,0.1093
2686.8,0.10936
2688.1,0.10931
2689.5,0.10923
2690.9,0.10925
2692.3,0.10935
2693.7,0.10945
2695.1,0.1093
2696.5,0.10918
2697.9,0.10917
2699.3,0.10906
2700.8,0.10906
2702.1,0.10904
2703.6,0.10894
2705.0,0.10888
2706.4,0.10887
2707.8,0.10891
2709.2,0.10896
2710.6,0.10897
2712.1,0.10878
2713.5,0.1085
2714.9,0.10852
2716.3,0.10856
2717.7,0.10845
2719.2,0.10849
2720.6,0.10864
2722.0,0.10835
2723.4,0.10831
2724.9,0.10832
2726.3,0.108
2727.7,0.1078
2729.2,0.10779
2730.6,0.10773
2732.1,0.10757
2733.5,0.10746
2734.9,0.10751
2736.4,0.10743
2737.8,0.10737
2739.3,0.10733
2740.7,0.10718
2742.2,0.10699
2743.6,0.10674
2745.1,0.10655
2746.5,0.10645
2748.0,0.10634
2749.4,0.10616
2750.9,0.10602
2752.4,0.10589
2753.8,0.10588
2755.3,0.10591
2756.7,0.10553
2758.2,0.10521
2759.7,0.10506
2761.1,0.10493
2762.6,0.10487
2764.1,0.10465
2765.6,0.10428
2767.0,0.10409
2768.5,0.10398
2770.0,0.10377
2771.5,0.10363
2773.0,0.10343
2774.4,0.1033
2775.9,0.10318
2777.4,0.10293
2778.9,0.10272
2780.4,0.10257
2781.9,0.10244
2783.4,0.10224
2784.9,0.10205
2786.4,0.10196
2787.9,0.10177
2789.4,0.10152
2790.9,0.1013
2792.4,0.10115
2793.9,0.10108
2795.4,0.10091
2796.9,0.10072
2798.4,0.1005
2799.9,0.1004
2801.4,0.10032
2802.9,0.1002
2804.4,0.09997
2806.0,0.09975
2807.5,0.09959
2809.0,0.09945
2810.5,0.09933
2812.1,0.09915
2813.6,0.09906
2815.1,0.09894
2816.6,0.09879
2818.2,0.09865
2819.7,0.09849
2821.2,0.09833
2822.8,0.09827
2824.3,0.09816
2825.9,0.09798
2827.4,0.09783
2828.9,0.09776
2830.5,0.09766
2832.0,0.09751
2833.6,0.09742
2835.1,0.09739
2836.7,0.09729
2838.2,0.09711
2839.8,0.09696
2841.3,0.09693
2842.9,0.09685
2844.4,0.09671
2846.0,0.09658
2847.6,0.09646
2849.1,0.09638
2850.7,0.09633
2852.3,0.09625
2853.8,0.09611
2855.4,0.09603
2857.0,0.09598
2858.6,0.09581
2860.1,0.09571
2861.7,0.09566
2863.3,0.0956
2864.9,0.0955
2866.5,0.09541
2868.1,0.09529
2869.6,0.09524
2871.2,0.0952
2872.8,0.09504
2874.4,0.09499
2876.0,0.09505
2877.6,0.09504
2879.2,0.09495
2880.8,0.09483
2882.4,0.09479
2884.0,0.09477
2885.6,0.09469
2887.2,0.09465
2888.8,0.09463
2890.4,0.09452
2892.0,0.09444
2893.6,0.0944
2895.3,0.09438
2896.9,0.09432
2898.5,0.09427
2900.1,0.09428
2901.8,0.09425
2903.4,0.09414
2905.0,0.09406
2906.6,0.09401
2908.3,0.09396
2909.9,0.09392
2911.5,0.09386
2913.2,0.09381
2914.8,0.09379
2916.4,0.09372
2918.1,0.09366
2919.7,0.09361
2921.4,0.0936
2923.0,0.09359
2924.7,0.09356
2926.3,0.09357
2928.0,0.09352
2929.6,0.09342
2931.3,0.09331
2932.9,0.09327
2934.6,0.09327
2936.3,0.09327
2937.9,0.09329
2939.6,0.09324
2941.3,0.09317
2942.9,0.09321
2944.6,0.09327
2946.3,0.09325
2947.9,0.0932
2949.6,0.09322
2951.3,0.09331
2953.0,0.09332
2954.7,0.09333
2956.3,0.09331
2958.0,0.09329
2959.7,0.09336
2961.4,0.09339
2963.1,0.09339
2964.8,0.09336
2966.5,0.09332
2968.2,0.09325
2969.9,0.09329
2971.6,0.09331
2973.3,0.09332
2975.0,0.09337
2976.7,0.09342
2978.4,0.09345
2980.1,0.09341
2981.9,0.09339
2983.6,0.0934
2985.3,0.09341
2987.0,0.09341
2988.7,0.09341
2990.4,0.09344
2992.2,0.09346
2993.9,0.09345
2995.6,0.09346
2997.4,0.09356
2999.1,0.09361
3000.8,0.09358
3002.6,0.09356
3004.3,0.09356
3006.1,0.0935
3007.8,0.09348
3009.5,0.0935
3011.3,0.09351
3013.0,0.09349
3014.8,0.09353
3016.5,0.09356
3018.3,0.09355
3020.1,0.09355
3021.8,0.09357
3023.6,0.09361
3025.3,0.09357
3027.1,0.09358
3028.9,0.09369
3030.6,0.09368
3032.4,0.09361
3034.2,0.0936
3036.0,0.09363
3037.7,0.09363
3039.5,0.09369
3041.3,0.09371
3043.1,0.09373
3044.9,0.09374
3046.7,0.09369
3048.5,0.09365
3050.3,0.09366
3052.1,0.09366
3053.8,0.09366
3055.6,0.09367
3057.4,0.09366
3059.3,0.09369
3061.1,0.09379
3062.9,0.09384
3064.7,0.09382
3066.5,0.09377
3068.3,0.09373
3070.1,0.0937
3071.9,0.09374
3073.8,0.09379
3075.6,0.09376
3077.4,0.09372
3079.2,0.0937
3081.1,0.09377
3082.9,0.09384
3084.7,0.09384
3086.6,0.09381
3088.4,0.09379
3090.2,0.09382
3092.1,0.09384
3093.9,0.09389
3095.8,0.09391
3097.6,0.0939
3099.5,0.09391
3101.3,0.09387
3103.2,0.09392
3105.1,0.09396
3106.9,0.09402
3108.8,0.09408
3110.6,0.09408
3112.5,0.0941
3114.4,0.09418
3116.2,0.09422
3118.1,0.09423
3120.0,0.09423
3121.9,0.09425
3123.8,0.09428
3125.6,0.09431
3127.5,0.09438
3129.4,0.09438
3131.3,0.09442
3133.2,0.09447
3135.1,0.09453
3137.0,0.09459
3138.9,0.09463
3140.8,0.09464
3142.7,0.09471
3144.6,0.0948
3146.5,0.09483
3148.4,0.09487
3150.3,0.09493
3152.2,0.09495
3154.1,0.09499
3156.1,0.09506
3158.0,0.09518
3159.9,0.09527
3161.8,0.09529
3163.8,0.09532
3165.7,0.09538
3167.6,0.09545
3169.6,0.09549
3171.5,0.09553
3173.5,0.09562
3175.4,0.09571
3177.3,0.09577
3179.3,0.09587
3181.2,0.09596
3183.2,0.09598
3185.1,0.09606
3187.1,0.09614
3189.1,0.09622
3191.0,0.09629
3193.0,0.09632
3195.0,0.09638
3196.9,0.09652
3198.9,0.09663
3200.9,0.09667
3202.9,0.09674
3204.8,0.09676
3206.8,0.09682
3208.8,0.09688
3210.8,0.09696
3212.8,0.09706
3214.8,0.09713
3216.8,0.0972
3218.8,0.0973
3220.8,0.09736
3222.8,0.09746
3224.8,0.09758
3226.8,0.09761
3228.8,0.09769
3230.8,0.09778
3232.8,0.09784
3234.8,0.09789
3236.8,0.09793
3238.9,0.09801
3240.9,0.09806
3242.9,0.09809
3244.9,0.09819
3247.0,0.09831
3249.0,0.09835
3251.1,0.09845
3253.1,0.09857
3255.1,0.09866
3257.2,0.09872
3259.2,0.09876
3261.3,0.09882
3263.3,0.09885
3265.4,0.09889
3267.4,0.09896
3269.5,0.09908
3271.6,0.09914
3273.6,0.09918
3275.7,0.09927
3277.8,0.09934
3279.8,0.09945
3281.9,0.0995
3284.0,0.09952
3286.1,0.09953
3288.2,0.09954
3290.2,0.09962
3292.3,0.09976
3294.4,0.09984
3296.5,0.09985
3298.6,0.09992
3300.7,0.1
3302.8,0.10007
3304.9,0.10014
3307.0,0.10019
3309.1,0.10024
3311.3,0.10031
3313.4,0.10039
3315.5,0.10042
3317.6,0.10048
3319.7,0.10049
3321.9,0.10047
3324.0,0.10057
3326.1,0.10066
3328.3,0.10071
3330.4,0.10075
3332.5,0.1008
3334.7,0.10082
3336.8,0.10089
3339.0,0.10098
3341.1,0.10102
3343.3,0.10104
3345.4,0.10107
3347.6,0.10111
3349.8,0.10117
3351.9,0.10123
3354.1,0.10127
3356.3,0.1013
3358.4,0.10134
3360.6,0.10141
3362.8,0.1015
3365.0,0.10152
3367.2,0.10151
3369.4,0.10157
3371.5,0.10158
3373.7,0.10158
3375.9,0.10168
3378.1,0.10175
3380.3,0.10174
3382.5,0.10177
3384.7,0.10178
3386.9,0.10182
3389.2,0.10187
3391.4,0.10191
3393.6,0.10193
3395.8,0.10192
3398.1,0.10191
3400.3,0.10195
3402.5,0.10198
3404.7,0.10199
3407.0,0.102
3409.2,0.10196
3411.5,0.10192
3413.7,0.10195
3416.0,0.10202
3418.2,0.10209
3420.5,0.10216
3422.7,0.10221
3425.0,0.10229
3427.3,0.10238
3429.5,0.10246
3431.8,0.10251
3434.1,0.1026
3436.3,0.10265
3438.6,0.10269
3440.9,0.10278
3443.2,0.10287
3445.5,0.10294
3447.8,0.10298
3450.1,0.10298
3452.4,0.10303
3454.6,0.10308
3456.9,0.1031
3459.3,0.10315
3461.6,0.10322
3463.9,0.10327
3466.2,0.10329
3468.5,0.10331
3470.8,0.10332
3473.2,0.10334
3475.5,0.10332
3477.8,0.10329
3480.1,0.10333
3482.5,0.10341
3484.8,0.10347
3487.2,0.10352
3489.5,0.10353
3491.9,0.10348
3494.2,0.10345
3496.6,0.1034
3498.9,0.10339
3501.3,0.10346
3503.7,0.1035
3506.0,0.10358
3508.4,0.10367
3510.8,0.10374
3513.2,0.10378
3515.5,0.10381
3517.9,0.10388
3520.3,0.10398
3522.7,0.10402
3525.1,0.10406
3527.5,0.10411
3529.9,0.10414
3532.3,0.10418
3534.7,0.10421
3537.1,0.10426
3539.5,0.1043
3541.9,0.1043
3544.4,0.10433
3546.8,0.1044
3549.2,0.10446
3551.7,0.10448
3554.1,0.10448
3556.5,0.10446
3559.0,0.10446
3561.4,0.10455
3563.9,0.10459
3566.3,0.10459
3568.8,0.1046
3571.2,0.10464
3573.7,0.10466
3576.1,0.10467
3578.6,0.10474
3581.1,0.10478
3583.6,0.10477
3586.0,0.10479
3588.5,0.1048
3591.0,0.1048
3593.5,0.10484
3596.0,0.1049
3598.5,0.10495
3601.0,0.10496
3603.5,0.10495
3606.0,0.10497
3608.5,0.10501
3611.0,0.10503
3613.5,0.10505
3616.1,0.10505
3618.6,0.1051
3621.1,0.10515
3623.6,0.10516
3626.2,0.10517
3628.7,0.10519
3631.3,0.10521
3633.8,0.10522
3636.3,0.10523
3638.9,0.10528
3641.4,0.1053
3644.0,0.10532
3646.6,0.10532
3649.1,0.10533
3651.7,0.10538
3654.3,0.10543
3656.9,0.10544
3659.4,0.10547
3662.0,0.10548
3664.6,0.10549
3667.2,0.10553
3669.8,0.10553
3672.4,0.10554
3675.0,0.10559
3677.6,0.10564
3680.2,0.10565
3682.8,0.10566
3685.4,0.10568
3688.1,0.10568
3690.7,0.10568
3693.3,0.1057
3695.9,0.10572
3698.6,0.10572
3701.2,0.10575
3703.9,0.10581
3706.5,0.10583
3709.2,0.10585
3711.8,0.10586
3714.5,0.10586
3717.1,0.10589
3719.8,0.10594
3722.5,0.10592
3725.2,0.10592
3727.8,0.10591
3730.5,0.10593
3733.2,0.10597
3735.9,0.10595
3738.6,0.10594
3741.3,0.106
3744.0,0.10606
3746.7,0.10604
3749.4,0.10603
3752.1,0.10611
3754.8,0.10613
3757.6,0.10609
3760.3,0.10613
3763.0,0.10615
3765.7,0.10614
3768.5,0.10616
3771.2,0.10619
3774.0,0.10623
3776.7,0.10626
3779.5,0.10624
3782.2,0.1062
3785.0,0.10622
3787.7,0.10624
3790.5,0.10626
3793.3,0.10628
3796.1,0.10627
3798.8,0.1063
3801.6,0.10632
3804.4,0.10631
3807.2,0.10631
3810.0,0.10633
3812.8,0.10632
3815.6,0.10632
3818.4,0.10636
3821.2,0.10636
3824.1,0.10637
3826.9,0.10641
3829.7,0.10643
3832.5,0.10643
3835.4,0.10646
3838.2,0.10647
3841.1,0.10645
3843.9,0.10646
3846.8,0.10648
3849.6,0.10651
3852.5,0.10654
3855.3,0.10653
3858.2,0.10654
3861.1,0.10653
3863.9,0.10656
3866.8,0.10661
3869.7,0.10658
3872.6,0.10657
3875.5,0.1066
3878.4,0.1066
3881.3,0.10658
3884.2,0.10659
3887.1,0.10663
3890.0,0.10664
3893.0,0.10663
3895.9,0.10661
3898.8,0.10662
3901.7,0.10664
3904.7,0.10666
3907.6,0.10668
3910.6,0.10666
3913.5,0.10663
3916.5,0.10665
3919.4,0.10672
3922.4,0.10671
3925.4,0.10667
3928.4,0.10667
3931.3,0.1067
3934.3,0.1067
3937.3,0.10669
3940.3,0.10671
3943.3,0.1067
3946.3,0.10668
3949.3,0.10669
3952.3,0.10672
3955.3,0.10675
3958.3,0.10673
3961.4,0.10672
3964.4,0.10674
3967.4,0.10672
3970.5,0.10669
3973.5,0.10672
3976.6,0.10676
3979.6,0.10676
3982.6,0.10673
3985.7,0.10673
3988.8,0.10673
3991.9,0.10673
3994.9,0.10676
3998.0,0.10677
4001.1,0.10676
4004.2,0.10675
4007.3,0.10673
4010.4,0.10674
4013.5,0.10676
4016.6,0.10673
4019.7,0.10674
4022.8,0.10676
4025.9,0.10676
4029.1,0.10674
4032.2,0.10676
4035.3,0.10676
4038.5,0.10676
4041.6,0.10678
4044.8,0.10677
4047.9,0.10675
4051.1,0.10676
4054.3,0.10676
4057.4,0.10676
4060.6,0.10678
4063.8,0.10679
4067.0,0.10679
4070.2,0.10678
4073.4,0.10678
4076.6,0.1068
4079.8,0.1068
4083.0,0.10678
4086.2,0.10674
4089.4,0.10673
4092.7,0.10673
4095.9,0.10675
4099.1,0.10678
4102.4,0.10675
4105.6,0.10672
4108.9,0.10675
4112.1,0.10677
4115.4,0.10671
4118.7,0.10668
4122.0,0.10672
4125.2,0.10673
4128.5,0.10673
4131.8,0.10673
4135.1,0.10671
4138.4,0.10668
4141.7,0.10665
4145.0,0.10663
4148.3,0.10665
4151.6,0.10665
4155.0,0.10663
4158.3,0.10664
4161.6,0.10666
4165.0,0.10662
4168.3,0.1066
4171.7,0.1066
4175.0,0.1066
4178.4,0.1066
4181.8,0.1066
4185.2,0.10655
4188.5,0.1065
4191.9,0.10652
4195.3,0.10655
4198.7,0.10656
4202.1,0.1066
4205.5,0.10664
4208.9,0.10666
4212.4,0.10668
4215.8,0.10673
4219.2,0.10673
4222.6,0.10676
4226.1,0.1068
4229.5,0.10682
4233.0,0.10684
4236.5,0.10684
4239.9,0.1068
4243.4,0.10674
4246.9,0.10667
4250.3,0.10662
4253.8,0.10654
4257.3,0.10651
4260.8,0.10657
4264.3,0.1066
4267.8,0.1066
4271.3,0.10662
4274.9,0.10661
4278.4,0.10657
4281.9,0.10654
4285.5,0.10653
4289.0,0.10652
4292.6,0.10648
4296.1,0.1064
4299.7,0.1064
4303.3,0.10641
4306.8,0.10638
4310.4,0.10631
4314.0,0.10625
4317.6,0.10621
4321.2,0.1062
4324.8,0.10615
4328.4,0.10611
4332.0,0.10611
4335.6,0.10612
4339.3,0.10609
4342.9,0.10609
4346.5,0.10607
4350.2,0.10605
4353.8,0.10603
4357.5,0.10605
4361.1,0.10606
4364.8,0.10601
4368.5,0.10598
4372.2,0.10596
4375.9,0.10595
4379.6,0.10594
4383.3,0.10592
4387.0,0.10592
4390.7,0.1059
4394.4,0.10589
4398.1,0.10589
4401.9,0.10588
4405.6,0.10587
4409.4,0.10586
4413.1,0.10585
4416.9,0.10585
4420.6,0.10583
4424.4,0.10582
4428.2,0.10581
4432.0,0.10583
4435.8,0.10581
4439.6,0.10581
4443.4,0.1058
4447.2,0.10575
4451.0,0.10573
4454.8,0.10576
4458.6,0.10577
4462.5,0.10572
4466.3,0.10565
4470.2,0.10567
4474.0,0.10568
4477.9,0.10564
4481.8,0.10561
4485.6,0.10561
4489.5,0.10558
4493.4,0.10556
4497.3,0.10555
4501.2,0.10553
4505.1,0.10551
4509.0,0.10549
4513.0,0.10546
4516.9,0.10545
4520.9,0.10541
4524.8,0.10535
4528.7,0.10531
4532.7,0.1053
4536.7,0.10525
4540.6,0.10517
4544.6,0.10513
4548.6,0.10513
4552.6,0.10511
4556.6,0.10509
4560.6,0.10503
4564.6,0.10499
4568.6,0.10498
4572.7,0.10492
4576.7,0.10484
4580.8,0.10476
4584.8,0.10471
4588.9,0.10471
4592.9,0.10466
4597.0,0.10462
4601.1,0.10456
4605.2,0.10449
4609.3,0.10444
4613.4,0.10438
4617.5,0.10432
4621.6,0.10428
4625.7,0.1042
4629.8,0.10411
4634.0,0.10406
4638.1,0.10398
4642.3,0.10391
4646.4,0.10389
4650.6,0.10387
4654.8,0.10375
4659.0,0.10369
4663.1,0.10371
4667.3,0.10368
4671.5,0.10361
4675.8,0.10357
4680.0,0.10356
4684.2,0.10352
4688.4,0.10349
4692.7,0.10344
4696.9,0.10339
4701.2,0.10336
4705.5,0.10332
4709.7,0.10328
4714.0,0.10323
4718.3,0.10314
4722.6,0.10307
4726.9,0.10302
4731.2,0.10297
4735.5,0.10291
4739.9,0.10282
4744.2,0.10273
4748.5,0.10263
4752.9,0.10253
4757.3,0.10247
4761.6,0.10238
4766.0,0.10226
4770.4,0.10219
4774.8,0.10215
4779.2,0.10209
4783.6,0.10204
4788.0,0.10195
4792.4,0.10186
4796.9,0.10182
4801.3,0.10174
4805.8,0.10162
4810.2,0.10152
4814.7,0.10148
4819.1,0.10141
4823.6,0.1013
4828.1,0.10122
4832.6,0.10114
4837.1,0.10103
4841.6,0.10096
4846.2,0.10088
4850.7,0.10073
4855.3,0.10059
4859.8,0.10048
4864.4,0.10035
4868.9,0.10017
4873.5,0.10003
4878.1,0.09992
4882.7,0.0998
4887.3,0.09969
4891.9,0.09958
4896.5,0.09946
4901.1,0.09935
4905.8,0.09925
4910.4,0.09916
4915.1,0.09906
4919.7,0.09895
4924.4,0.09889
4929.1,0.09887
4933.8,0.09885
4938.5,0.09892
4943.2,0.09901
4947.9,0.09908
4952.6,0.0991
4957.4,0.09915
4962.1,0.09921
4966.9,0.0992
4971.6,0.09919
4976.4,0.0992
4981.2,0.09916
4986.0,0.09913
4990.8,0.09911
4995.6,0.09907
5000.4,0.09899
5005.2,0.09892
5010.0,0.09883
5014.9,0.09878
5019.8,0.09876
5024.6,0.09871
5029.5,0.09858
5034.4,0.09846
5039.3,0.09839
5044.2,0.09828
5049.1,0.09814
5054.0,0.09804
5058.9,0.09794
5063.9,0.09786
5068.8,0.09772
5073.8,0.09756
5078.8,0.09743
5083.7,0.0973
5088.7,0.09717
5093.7,0.09707
5098.7,0.09699
5103.7,0.09689
5108.8,0.09678
5113.8,0.0967
5118.9,0.09662
5123.9,0.09652
5129.0,0.09645
5134.1,0.0964
5139.1,0.09634
5144.3,0.0963
5149.4,0.09625
5154.5,0.09622
5159.6,0.09622
5164.7,0.0962
5169.9,0.09616
5175.0,0.09616
5180.2,0.09617
5185.4,0.09621
5190.6,0.09623
5195.8,0.09628
5201.0,0.09632
5206.2,0.09635
5211.5,0.09648
5216.7,0.09659
5222.0,0.09662
5227.2,0.09671
5232.5,0.09677
5237.8,0.09686
5243.1,0.09695
5248.4,0.097
5253.7,0.09703
5259.0,0.09706
5264.4,0.09707
5269.7,0.09712
5275.1,0.09717
5280.5,0.09719
5285.8,0.09717
5291.2,0.09715
5296.6,0.09714
5302.0,0.09714
5307.5,0.09713
5312.9,0.09714
5318.4,0.09714
5323.8,0.09714
5329.3,0.09708
5334.8,0.09697
5340.3,0.09688
5345.8,0.09685
5351.3,0.09679
5356.8,0.09664
5362.4,0.09646
5367.9,0.09636
5373.5,0.09629
5379.0,0.09618
5384.6,0.09606
5390.2,0.09596
5395.8,0.09584
5401.5,0.0957
5407.1,0.09558
5412.7,0.09545
5418.4,0.09538
5424.1,0.09531
5429.7,0.09512
5435.4,0.09502
5441.1,0.09501
5446.9,0.09497
5452.6,0.09495
5458.3,0.09502
5464.1,0.09507
5469.8,0.09503
5475.6,0.09502
5481.4,0.09504
5487.2,0.09503
5493.0,0.09504
5498.8,0.09502
5504.7,0.09503
5510.5,0.09505
5516.4,0.09505
5522.3,0.09504
5528.1,0.09502
5534.0,0.09493
5540.0,0.09481
5545.9,0.09469
5551.8,0.09453
5557.8,0.09425
5563.7,0.09389
5569.7,0.09349
5575.7,0.09311
5581.7,0.09265
5587.7,0.09221
5593.7,0.09184
5599.8,0.09161
5605.8,0.09143
5611.9,0.09134
5618.0,0.09132
5624.1,0.09131
5630.2,0.09135
5636.3,0.09151
5642.4,0.0917
5648.6,0.09177
5654.7,0.09188
5660.9,0.09201
5667.1,0.09214
5673.3,0.09236
5679.5,0.09251
5685.7,0.09261
5692.0,0.09273
5698.2,0.09275
5704.5,0.09285
5710.8,0.09297
5717.1,0.09295
5723.4,0.09295
5729.7,0.09293
5736.0,0.09291
5742.4,0.09288
5748.8,0.09288
5755.1,0.09274
5761.5,0.09274
5768.0,0.09271
5774.4,0.09246
5780.8,0.09225
5787.3,0.09206
5793.7,0.09192
5800.2,0.09182
5806.7,0.0917
5813.2,0.09161
5819.8,0.09156
5826.3,0.09139
5832.8,0.09117
5839.4,0.09093
5846.0,0.0907
5852.6,0.09056
5859.2,0.09048
5865.8,0.09039
5872.5,0.09031
5879.1,0.09039
5885.8,0.09018
5892.5,0.08999
5899.2,0.08983
5905.9,0.08953
5912.6,0.08932
5919.4,0.08909
5926.2,0.08883
5932.9,0.0887
5939.7,0.08833
5946.5,0.08785
5953.4,0.08752
5960.2,0.0872
5967.1,0.08689
5974.0,0.08646
5980.8,0.08613
5987.8,0.08596
5994.7,0.08573
6001.6,0.08554
6008.6,0.08555
6015.5,0.08572
6022.5,0.08583
6029.5,0.08598
6036.5,0.08625
6043.6,0.08666
6050.6,0.08698
6057.7,0.08687
6064.8,0.08692
6071.9,0.08713
6079.0,0.08714
6086.1,0.08708
6093.3,0.08713
6100.5,0.08721
6107.6,0.08731
6114.9,0.0874
6122.1,0.08727
6129.3,0.08715
6136.5,0.0871
6143.8,0.08704
6151.1,0.08695
6158.4,0.08691
6165.7,0.08684
6173.1,0.08673
6180.4,0.08671
6187.8,0.08661
6195.2,0.08638
6202.6,0.08626
6210.0,0.08618
6217.5,0.08607
6225.0,0.08593
6232.4,0.08584
6239.9,0.08574
6247.5,0.08566
6255.0,0.08554
6262.5,0.08542
6270.1,0.08533
6277.7,0.08525
6285.3,0.08518
6292.9,0.08516
6300.6,0.08519
6308.3,0.08527
6315.9,0.08533
6323.6,0.0854
6331.4,0.0855
6339.1,0.08566
6346.9,0.08575
6354.6,0.08571
6362.4,0.08577
6370.3,0.08588
6378.1,0.08589
6385.9,0.08592
6393.8,0.086
6401.7,0.08614
6409.6,0.08637
6417.6,0.08639
6425.5,0.0862
6433.5,0.08614
6441.5,0.08605
6449.5,0.08601
6457.5,0.08596
6465.6,0.08594
6473.6,0.08594
6481.7,0.08594
6489.8,0.08596
6498.0,0.08582
6506.1,0.08553
6514.3,0.08542
6522.5,0.08538
6530.7,0.08522
6538.9,0.0851
6547.2,0.08503
6555.5,0.08493
6563.8,0.08482
6572.1,0.08473
6580.4,0.0845
6588.8,0.08429
6597.2,0.08409
6605.6,0.08386
6614.0,0.08368
6622.5,0.08356
6630.9,0.0836
6639.4,0.0835
6647.9,0.08316
6656.5,0.08296
6665.0,0.08289
6673.6,0.08283
6682.2,0.08278
6690.8,0.08266
6699.5,0.08258
6708.1,0.08256
6716.8,0.08251
6725.5,0.08237
6734.3,0.08222
6743.0,0.08211
6751.8,0.08202
6760.6,0.08191
6769.4,0.08186
6778.3,0.08181
6787.1,0.08177
6796.0,0.08159
6805.0,0.08139
6813.9,0.08131
6822.9,0.08128
6831.9,0.08117
6840.9,0.08108
6849.9,0.08101
6859.0,0.08099
6868.0,0.0808
6877.2,0.08051
6886.3,0.08033
6895.5,0.08018
6904.6,0.08
6913.8,0.07974
6923.1,0.07953
6932.3,0.07934
6941.6,0.07913
6950.9,0.07901
6960.2,0.07883
6969.6,0.07852
6979.0,0.07829
6988.4,0.07809
6997.8,0.07784
7007.3,0.07759
7016.8,0.07737
7026.3,0.07719
7035.8,0.07708
7045.4,0.07702
7054.9,0.07683
7064.5,0.07663
7074.2,0.07644
7083.9,0.07631
7093.5,0.07613
7103.3,0.07592
7113.0,0.07572
7122.8,0.07549
7132.6,0.07524
7142.4,0.07507
7152.2,0.07484
7162.1,0.07461
7172.0,0.07442
7182.0,0.07416
7191.9,0.07397
7201.9,0.07385
7211.9,0.07367
7222.0,0.07346
7232.0,0.07326
7242.1,0.07307
7252.3,0.07291
7262.4,0.07276
7272.6,0.07259
7282.8,0.0724
7293.1,0.07212
7303.3,0.07184
7313.6,0.07156
7324.0,0.07137
7334.3,0.07118
7344.7,0.07094
7355.1,0.07069
7365.6,0.07047
7376.1,0.07022
7386.6,0.06997
7397.1,0.06972
7407.7,0.06948
7418.3,0.06925
7428.9,0.06901
7439.6,0.06874
7450.3,0.06847
7461.0,0.06824
7471.7,0.06805
7482.5,0.06783
7493.3,0.06762
7504.2,0.06742
7515.0,0.06723
7525.9,0.06699
7536.9,0.06681
7547.9,0.06662
7558.9,0.06647
7569.9,0.06632
7581.0,0.06618
7592.0,0.06601
7603.2,0.06586
7614.4,0.06563
7625.5,0.06542
7636.8,0.06525
7648.0,0.06508
7659.3,0.06485
7670.7,0.0646
7682.0,0.06435
7693.4,0.06417
7704.9,0.06394
7716.3,0.06369
7727.8,0.0634
7739.4,0.06315
7750.9,0.06291
7762.5,0.06268
7774.2,0.06243
7785.8,0.06222
7797.5,0.06198
7809.3,0.06172
7821.1,0.06141
7832.9,0.06118
7844.7,0.06091
7856.6,0.0606
7868.5,0.06033
7880.5,0.06005
7892.5,0.0597
7904.5,0.05937
7916.6,0.05904
7928.7,0.05875
7940.8,0.05846
7953.0,0.05812
7965.2,0.05773
7977.5,0.05737
7989.8,0.05697
8002.1,0.05659
8014.5,0.05622
8026.9,0.05586
8039.3,0.05546
8051.8,0.05507
8064.3,0.05466
8076.9,0.05428
8089.5,0.05383
8102.1,0.0534
8114.8,0.05295
8127.5,0.0525
8140.3,0.05204
8153.1,0.05164
8165.9,0.05125
8178.8,0.05088
8191.7,0.05049
8204.7,0.05017
8217.7,0.04985
8230.7,0.04955
8243.8,0.0492
8257.0,0.04886
8270.1,0.04854
8283.3,0.04823
8296.6,0.04791
8309.9,0.04761
8323.2,0.0473
8336.6,0.04701
8350.0,0.04673
8363.5,0.04647
8377.0,0.0462
8390.5,0.04598
8404.2,0.04576
8417.8,0.04557
8431.5,0.04539
8445.2,0.04532
8459.0,0.04524
8472.8,0.04513
8486.7,0.04511
8500.6,0.04514
8514.5,0.04519
8528.5,0.04534
8542.6,0.04556
8556.7,0.04579
8570.8,0.04607
8585.0,0.04652
8599.3,0.04698
8613.5,0.04737
8627.9,0.04776
8642.3,0.04817
8656.7,0.04833
8671.2,0.04821
8685.7,0.04774
8700.3,0.04717
8714.9,0.04693
8729.6,0.04738
8744.3,0.04866
8759.0,0.05068
8773.9,0.05274
8788.7,0.05454
8803.7,0.05593
8818.6,0.05685
8833.7,0.05727
8848.7,0.05741
8863.8,0.05751
8879.0,0.05763
8894.3,0.05775
8909.5,0.05798
8924.9,0.05831
8940.3,0.05872
8955.7,0.05915
8971.2,0.05943
8986.8,0.05952
9002.3,0.05949
9018.0,0.05933
9033.7,0.0591
9049.5,0.0588
9065.3,0.0585
9081.2,0.0583
9097.1,0.05826
9113.1,0.05826
9129.1,0.05839
9145.2,0.05863
9161.4,0.05897
9177.6,0.05939
9193.9,0.05993
9210.2,0.06046
9226.6,0.06105
9243.0,0.06169
9259.5,0.06235
9276.1,0.06292
9292.7,0.06337
9309.4,0.0637
9326.2,0.06383
9343.0,0.06386
9359.8,0.06383
9376.8,0.06368
9393.7,0.06364
9410.8,0.06365
9427.9,0.0636
9445.1,0.06347
9462.3,0.06324
9479.6,0.06297
9497.0,0.06276
9514.4,0.06254
9531.9,0.06229
9549.4,0.06201
9567.1,0.0617
9584.7,0.06116
9602.5,0.06056
9620.3,0.05991
9638.2,0.05925
9656.1,0.05856
9674.2,0.05798
9692.2,0.05753
9710.4,0.05727
9728.6,0.05715
9746.9,0.05704
9765.2,0.057
9783.7,0.05704
9802.2,0.0572
9820.7,0.05755
9839.4,0.05792
9858.1,0.0583
9876.8,0.05867
9895.7,0.05897
9914.6,0.05924
9933.6,0.05944
9952.7,0.05955
9971.8,0.05965
9991.0,0.05974
10010.3,0.05982
10029.7,0.05981
10049.1,0.0598
10068.6,0.05997
10088.2,0.06032
10107.9,0.0606
10127.6,0.06056
10147.4,0.06023
10167.3,0.05986
10187.3,0.05992
10207.4,0.06061
10227.5,0.06164
10247.7,0.06279
10268.0,0.06407
10288.4,0.06541
10308.8,0.06667
10329.4,0.06775
10350.0,0.06844
10370.7,0.06892
10391.5,0.07023
10412.3,0.07272
10433.3,0.0751
10454.3,0.07644
10475.5,0.07702
10496.7,0.07724
10517.9,0.0773
10539.3,0.07724
10560.8,0.07693
10582.3,0.07641
10604.0,0.07584
10625.7,0.07525
10647.5,0.07476
10669.4,0.07432
10691.4,0.07391
10713.5,0.07357
10735.7,0.07318
10758.0,0.07273
10780.3,0.07235
10802.8,0.07184
10825.4,0.07128
10848.0,0.07073
10870.8,0.07
10893.6,0.06909
10916.5,0.06826
10939.5,0.06762
10962.7,0.06706
10985.9,0.06664
11009.2,0.06637
11032.7,0.06629
11056.2,0.06623
11079.8,0.06623
11103.5,0.06622
11127.3,0.06621
11151.3,0.06617
11175.3,0.0661
11199.5,0.06618
11223.7,0.06628
11248.0,0.06648
11272.5,0.06686
11297.1,0.06738
11321.7,0.06797
11346.5,0.06851
11371.4,0.0689
11396.4,0.06902
11421.5,0.06866
11446.7,0.0677
11472.0,0.06622
11497.5,0.06446
11523.0,0.06292
11548.7,0.06169
11574.4,0.06066
11600.3,0.05978
11626.3,0.05904
11652.5,0.05833
11678.7,0.05759
11705.1,0.05674
11731.6,0.05586
11758.2,0.05482
11784.9,0.05373
11811.7,0.05298
11838.7,0.05263
11865.8,0.05285
11893.0,0.05363
11920.3,0.05469
11947.8,0.05601
11975.4,0.05738
12003.1,0.0585
12031.0,0.05954
12059.0,0.0606
12087.1,0.06162
12115.3,0.06259
12143.7,0.0634
12172.2,0.06413
12200.8,0.06462
12229.6,0.06515
12258.5,0.06575
12287.6,0.06619
12316.8,0.06665
12346.1,0.06722
12375.5,0.06778
12405.2,0.06817
12434.9,0.06838
12464.8,0.06853
12494.8,0.06859
12525.0,0.06854
12555.3,0.06847
12585.8,0.06843
12616.4,0.06834
12647.2,0.06824
12678.1,0.06821
12709.2,0.06816
12740.4,0.06802
12771.8,0.06789
12803.3,0.06766
12835.0,0.06737
12866.9,0.06705
12898.9,0.06665
12931.1,0.06616
12963.4,0.06562
12995.9,0.06506
13028.5,0.06445
13061.3,0.06385
13094.3,0.06323
13127.5,0.06239
13160.8,0.06144
13194.3,0.06041
13228.0,0.05947
13261.8,0.05841
13295.8,0.05713
13330.0,0.05589
13364.3,0.05475
13398.9,0.05354
13433.6,0.05209
13468.5,0.05055
13503.5,0.04921
13538.8,0.04801
13574.2,0.04711
13609.9,0.04649
13645.7,0.04601
13681.7,0.04564
13717.9,0.04517
13754.3,0.04461
13790.8,0.04415
13827.6,0.04391
13864.6,0.0441
13901.8,0.04437
13939.1,0.04453
13976.7,0.04464
14014.5,0.04469
14052.5,0.04436
14090.7,0.04379
14129.0,0.04329
14167.7,0.04263
14206.5,0.0418
14245.5,0.04111
14284.7,0.04017
14324.2,0.03925
14363.9,0.03831
14403.8,0.03719
14443.9,0.03644
14484.2,0.03588
14524.8,0.03521
14565.6,0.03444
14606.7,0.03382
14647.9,0.03315
14689.4,0.0325
14731.2,0.03238
14773.1,0.03247
14815.3,0.03246
14857.8,0.03227
14900.5,0.03223
14943.4,0.03208
14986.6,0.0317
15030.0,0.03111
15073.7,0.03073
15117.7,0.03042
15161.9,0.03032
15206.3,0.03058
15251.1,0.03072
15296.1,0.03079
15341.3,0.03143
15386.8,0.03236
15432.6,0.03311
15478.7,0.03376
15525.0,0.03465
15571.7,0.03572
15618.6,0.03672
15665.8,0.03751
15713.2,0.03817
15761.0,0.03881
15809.0,0.03961
15857.4,0.04019
15906.0,0.04065
15955.0,0.04137
16004.2,0.0419
16053.8,0.04232
16103.6,0.04319
16153.8,0.04417
16204.3,0.04451
16255.1,0.04479
16306.2,0.04534
16357.6,0.04578
16409.4,0.04624
16461.5,0.04655
16513.9,0.04668
16566.7,0.04681
16619.8,0.04713
16673.2,0.04712
16727.0,0.04756
16781.1,0.04791
16835.6,0.04808
16890.5,0.04829
16945.7,0.04872
17001.2,0.04923
17057.2,0.04946
17113.4,0.04994
17170.1,0.05074
17227.2,0.05133
17284.6,0.052
17342.4,0.05288
17400.6,0.05385
17459.2,0.05458
17518.2,0.05515
17577.5,0.05536
17637.3,0.05529
17697.5,0.05487
17758.1,0.05429
17819.2,0.05384
17880.6,0.0544
17942.5,0.05579
18004.8,0.05745
18067.5,0.05933
18130.7,0.06109
18194.3,0.06241
18258.4,0.06411
18322.9,0.06537
18387.9,0.06642
18453.3,0.06748
18519.2,0.06849
18585.6,0.06968
18652.4,0.07122
18719.8,0.07268
18787.6,0.07421
18855.9,0.07578
18924.8,0.07703
18994.1,0.07741
19063.9,0.07758
19134.3,0.07753
19205.1,0.07735
19276.5,0.07709
19348.4,0.0762
19420.9,0.07522
19493.9,0.0748
19567.5,0.07471
19641.6,0.07461
19716.3,0.07399
19791.5,0.07247
19867.4,0.07016
19943.8,0.06752
20020.8,0.06436
20098.4,0.06109
20176.6,0.05865
20255.4,0.05662
20334.8,0.05421
20414.9,0.05196
20495.6,0.05048
20576.9,0.05027
20658.9,0.05114
20741.5,0.05262
20824.8,0.05437
20908.8,0.05581
20993.4,0.0562
21078.8,0.05556
21164.8,0.05476
21251.6,0.05396
21339.0,0.05346
21427.2,0.05279
21516.1,0.05217
21605.8,0.05317
21696.2,0.05472
21787.3,0.05574
21879.3,0.05691
21972.0,0.05817
22065.5,0.05975
22159.8,0.06208
22254.9,0.0636
22350.8,0.06429
22447.5,0.06521
22545.1,0.06657
22643.6,0.06865
22742.9,0.0709
22843.1,0.07339
22944.2,0.07554
23046.2,0.07874
23149.0,0.08151
23252.8,0.08321
23357.6,0.08504
23463.3,0.08632
23569.9,0.08646
23677.6,0.08699
23786.2,0.08814
23895.8,0.08779
24006.4,0.08685
24118.1,0.08479
24230.8,0.08349
24344.5,0.08064
24459.4,0.07734
24575.3,0.07772
24692.3,0.08005
24810.4,0.08271
24929.7,0.08044
25050.2,0.07531
