Database of Origin,University of Winnipeg Spectrophotometer Facility
Sample Description,"Zeolites: RELAB + Nicolet spectra, Merged at 2.5 microns; note change in viewing geometry"
Date Added,2018-07-23 23:09:47.704890

Data ID,RLA_ZEO_1_18        
Sample ID,zeo122
Mineral Name,stilbite
Grain Size,<45 um
Viewing Geometry,"30/0,30"
Resolution,5/.6-129 nm

Wavelength
305.0,0.667004
310.0,0.670708
315.0,0.679451
320.0,0.683295
325.0,0.690536
330.0,0.695664
335.0,0.699073
340.0,0.703441
345.0,0.707377
350.0,0.710249
355.0,0.713682
360.0,0.716996
365.0,0.721076
370.0,0.725388
375.0,0.727249
380.0,0.730768
385.0,0.732831
390.0,0.737707
395.0,0.739095
400.0,0.741258
405.0,0.742858
410.0,0.745279
415.0,0.746658
420.0,0.748959
425.0,0.751886
430.0,0.754513
435.0,0.756951
440.0,0.758802
445.0,0.761918
450.0,0.762198
455.0,0.766895
460.0,0.766159
465.0,0.769142
470.0,0.772149
475.0,0.771928
480.0,0.772677
485.0,0.775553
490.0,0.776073
495.0,0.777908
500.0,0.779144
505.0,0.781227
510.0,0.781773
515.0,0.783126
520.0,0.784876
525.0,0.785826
530.0,0.787303
535.0,0.788715
540.0,0.789308
545.0,0.790503
550.0,0.791249
555.0,0.792148
560.0,0.793162
565.0,0.794729
570.0,0.795445
575.0,0.796115
580.0,0.797033
585.0,0.796668
590.0,0.798356
595.0,0.796609
600.0,0.798026
605.0,0.797482
610.0,0.797567
615.0,0.798552
620.0,0.798418
625.0,0.797547
630.0,0.797855
635.0,0.799355
640.0,0.798171
645.0,0.797795
650.0,0.798238
655.0,0.798144
660.0,0.798702
665.0,0.797812
670.0,0.798408
675.0,0.798308
680.0,0.800106
685.0,0.799043
690.0,0.799279
695.0,0.797923
700.0,0.800745
705.0,0.799507
710.0,0.798503
715.0,0.800127
720.0,0.800102
725.0,0.799199
730.0,0.79864
735.0,0.7991
740.0,0.798439
745.0,0.799823
750.0,0.799243
755.0,0.799036
760.0,0.800034
765.0,0.799651
770.0,0.799712
775.0,0.799757
780.0,0.799192
785.0,0.800535
790.0,0.798629
795.0,0.800697
800.0,0.800012
805.0,0.799554
810.0,0.800325
815.0,0.799667
820.0,0.7998
825.0,0.79915
830.0,0.799825
835.0,0.799951
840.0,0.800356
845.0,0.799846
850.0,0.799871
855.0,0.80033
860.0,0.798829
865.0,0.80037
870.0,0.799657
875.0,0.80018
880.0,0.799556
885.0,0.799266
890.0,0.799711
895.0,0.799597
900.0,0.801581
905.0,0.800654
910.0,0.800058
915.0,0.799809
920.0,0.800519
925.0,0.799461
930.0,0.800083
935.0,0.798685
940.0,0.799353
945.0,0.799444
950.0,0.798615
955.0,0.796562
960.0,0.794617
965.0,0.794564
970.0,0.795133
975.0,0.793687
980.0,0.795545
985.0,0.795219
990.0,0.795422
995.0,0.797588
1000.0,0.796899
1005.0,0.797049
1010.0,0.797789
1015.0,0.798873
1020.0,0.799256
1025.0,0.799847
1030.0,0.799881
1035.0,0.798951
1040.0,0.800679
1045.0,0.800219
1050.0,0.800663
1055.0,0.800706
1060.0,0.800655
1065.0,0.800483
1070.0,0.801663
1075.0,0.801254
1080.0,0.801112
1085.0,0.801531
1090.0,0.800661
1095.0,0.799981
1100.0,0.800408
1105.0,0.801056
1110.0,0.80036
1115.0,0.799883
1120.0,0.799057
1125.0,0.798661
1130.0,0.797996
1135.0,0.797561
1140.0,0.795854
1145.0,0.793145
1150.0,0.789038
1155.0,0.7855
1160.0,0.780872
1165.0,0.781133
1170.0,0.782395
1175.0,0.784134
1180.0,0.78501
1185.0,0.787357
1190.0,0.787779
1195.0,0.787783
1200.0,0.788411
1205.0,0.788382
1210.0,0.78925
1215.0,0.789686
1220.0,0.790191
1225.0,0.790968
1230.0,0.792185
1235.0,0.790047
1240.0,0.79043
1245.0,0.791845
1250.0,0.790174
1255.0,0.790563
1260.0,0.791351
1265.0,0.791433
1270.0,0.791356
1275.0,0.791522
1280.0,0.790568
1285.0,0.791568
1290.0,0.790049
1295.0,0.788592
1300.0,0.788399
1305.0,0.787669
1310.0,0.785569
1315.0,0.783978
1320.0,0.783303
1325.0,0.781115
1330.0,0.779697
1335.0,0.775064
1340.0,0.776027
1345.0,0.769632
1350.0,0.76763
1355.0,0.764296
1360.0,0.761241
1365.0,0.756531
1370.0,0.753832
1375.0,0.749367
1380.0,0.744166
1385.0,0.73731
1390.0,0.727619
1395.0,0.71429
1400.0,0.695802
1405.0,0.673611
1410.0,0.64924
1415.0,0.628924
1420.0,0.612434
1425.0,0.604817
1430.0,0.603355
1435.0,0.608783
1440.0,0.616997
1445.0,0.628705
1450.0,0.640297
1455.0,0.648543
1460.0,0.653011
1465.0,0.654641
1470.0,0.65432
1475.0,0.658812
1480.0,0.668892
1485.0,0.678264
1490.0,0.687097
1495.0,0.693568
1500.0,0.701135
1505.0,0.705724
1510.0,0.71035
1515.0,0.713792
1520.0,0.718438
1525.0,0.720642
1530.0,0.723613
1535.0,0.724512
1540.0,0.727003
1545.0,0.726905
1550.0,0.728481
1555.0,0.729015
1560.0,0.730768
1565.0,0.730492
1570.0,0.731465
1575.0,0.731098
1580.0,0.732388
1585.0,0.732022
1590.0,0.732218
1595.0,0.734084
1600.0,0.733304
1605.0,0.733046
1610.0,0.731282
1615.0,0.733729
1620.0,0.734357
1625.0,0.734868
1630.0,0.734328
1635.0,0.734845
1640.0,0.735628
1645.0,0.735273
1650.0,0.735699
1655.0,0.737151
1660.0,0.737084
1665.0,0.738879
1670.0,0.73806
1675.0,0.738902
1680.0,0.738343
1685.0,0.740176
1690.0,0.738109
1695.0,0.738783
1700.0,0.73862
1705.0,0.737459
1710.0,0.736718
1715.0,0.734839
1720.0,0.73391
1725.0,0.73006
1730.0,0.728452
1735.0,0.725129
1740.0,0.723579
1745.0,0.721072
1750.0,0.719829
1755.0,0.719332
1760.0,0.718099
1765.0,0.716917
1770.0,0.716735
1775.0,0.715928
1780.0,0.715804
1785.0,0.715249
1790.0,0.71462
1795.0,0.713946
1800.0,0.713175
1805.0,0.712724
1810.0,0.713375
1815.0,0.712058
1820.0,0.712352
1825.0,0.710853
1830.0,0.711298
1835.0,0.709039
1840.0,0.707529
1845.0,0.704798
1850.0,0.700822
1855.0,0.695803
1860.0,0.68831
1865.0,0.679948
1870.0,0.669478
1875.0,0.651434
1880.0,0.629601
1885.0,0.601971
1890.0,0.565756
1895.0,0.516912
1900.0,0.462736
1905.0,0.404114
1910.0,0.358621
1915.0,0.332552
1920.0,0.323752
1925.0,0.330259
1930.0,0.346865
1935.0,0.367539
1940.0,0.387431
1945.0,0.404761
1950.0,0.419478
1955.0,0.43175
1960.0,0.442165
1965.0,0.450647
1970.0,0.458612
1975.0,0.466043
1980.0,0.474148
1985.0,0.481919
1990.0,0.491032
1995.0,0.500389
2000.0,0.510867
2005.0,0.521191
2010.0,0.532259
2015.0,0.542543
2020.0,0.553222
2025.0,0.562618
2030.0,0.571311
2035.0,0.579146
2040.0,0.585212
2045.0,0.591329
2050.0,0.595332
2055.0,0.599596
2060.0,0.603778
2065.0,0.606404
2070.0,0.609165
2075.0,0.611235
2080.0,0.614118
2085.0,0.616109
2090.0,0.619243
2095.0,0.620887
2100.0,0.623039
2105.0,0.62612
2110.0,0.627433
2115.0,0.630191
2120.0,0.632919
2125.0,0.63486
2130.0,0.637212
2135.0,0.638377
2140.0,0.639367
2145.0,0.641712
2150.0,0.642813
2155.0,0.643719
2160.0,0.644433
2165.0,0.644679
2170.0,0.645232
2175.0,0.645828
2180.0,0.646878
2185.0,0.647463
2190.0,0.647915
2195.0,0.64841
2200.0,0.649112
2205.0,0.648762
2210.0,0.648885
2215.0,0.648728
2220.0,0.649481
2225.0,0.649879
2230.0,0.64932
2235.0,0.648932
2240.0,0.648707
2245.0,0.647927
2250.0,0.647338
2255.0,0.646899
2260.0,0.645223
2265.0,0.644285
2270.0,0.642912
2275.0,0.641323
2280.0,0.638854
2285.0,0.636007
2290.0,0.634006
2295.0,0.630932
2300.0,0.627647
2305.0,0.623297
2310.0,0.618541
2315.0,0.612961
2320.0,0.608283
2325.0,0.602113
2330.0,0.595868
2335.0,0.588662
2340.0,0.581435
2345.0,0.572727
2350.0,0.562631
2355.0,0.552794
2360.0,0.542019
2365.0,0.53102
2370.0,0.518952
2375.0,0.506526
2380.0,0.494096
2385.0,0.480698
2390.0,0.467159
2395.0,0.454084
2400.0,0.441327
2405.0,0.428452
2410.0,0.417256
2415.0,0.40526
2420.0,0.395186
2425.0,0.38604
2430.0,0.378525
2435.0,0.371382
2440.0,0.365269
2445.0,0.359917
2450.0,0.354394
2455.0,0.349959
2460.0,0.345159
2465.0,0.341232
2470.0,0.3383
2475.0,0.334462
2480.0,0.334509
2485.0,0.325979
2490.0,0.322512
2495.0,0.318691
2500.0,0.314558
2505.0,0.311306
2510.0,0.30771
2515.0,0.303871
2520.0,0.300744
2525.0,0.297539
2530.0,0.294497
2535.0,0.291594
2540.0,0.289121
2545.0,0.286813
2550.0,0.283665
2555.0,0.281416
2560.0,0.279463
2565.0,0.276241
2570.0,0.274436
2575.0,0.27209
2580.0,0.270089
2581.74,0.269556
2583.03,0.268692
2584.31,0.268725
2585.6,0.26894
2586.89,0.268685
2588.19,0.26825
2589.48,0.267594
2590.77,0.267234
2592.07,0.266982
2593.36,0.266575
2594.66,0.266043
2595.96,0.265978
2597.26,0.266636
2598.56,0.266593
2599.87,0.266034
2601.17,0.265339
2602.48,0.264826
2603.78,0.264213
2605.09,0.263492
2606.4,0.262973
2607.71,0.263324
2609.03,0.263436
2610.34,0.262852
2611.66,0.262272
2612.97,0.26201
2614.29,0.261283
2615.61,0.260501
2616.93,0.259723
2618.25,0.259608
2619.57,0.259729
2620.9,0.258563
2622.22,0.25793
2623.55,0.257455
2624.88,0.256659
2626.21,0.255812
2627.54,0.255149
2628.87,0.255204
2630.21,0.254552
2631.54,0.253662
2632.88,0.253325
2634.21,0.25251
2635.55,0.251537
2636.89,0.25081
2638.24,0.249868
2639.58,0.248804
2640.92,0.248045
2642.27,0.247137
2643.62,0.246169
2644.97,0.245284
2646.32,0.244479
2647.67,0.243777
2649.02,0.242774
2650.38,0.241379
2651.73,0.240214
2653.09,0.239038
2654.45,0.238048
2655.81,0.23689
2657.17,0.235695
2658.53,0.234672
2659.89,0.233014
2661.26,0.231221
2662.63,0.229829
2664.0,0.228373
2665.36,0.226451
2666.74,0.225028
2668.11,0.223883
2669.48,0.222548
2670.86,0.220308
2672.23,0.218609
2673.61,0.217291
2674.99,0.214769
2676.37,0.212396
2677.76,0.210311
2679.14,0.20867
2680.52,0.206812
2681.91,0.204839
2683.3,0.202308
2684.69,0.199556
2686.08,0.197291
2687.47,0.195081
2688.87,0.192888
2690.26,0.190223
2691.66,0.187065
2693.06,0.183868
2694.46,0.180827
2695.86,0.178258
2697.26,0.175294
2698.66,0.171916
2700.07,0.16884
2701.48,0.165226
2702.89,0.1613
2704.3,0.157958
2705.71,0.154541
2707.12,0.150814
2708.53,0.146534
2709.95,0.142216
2711.37,0.138364
2712.79,0.134583
2714.21,0.130753
2715.63,0.126538
2717.05,0.122304
2718.48,0.11808
2719.9,0.113733
2721.33,0.109495
2722.76,0.105214
2724.19,0.101349
2725.62,0.097666
2727.06,0.093918
2728.49,0.090404
2729.93,0.0869
2731.37,0.083313
2732.81,0.07987
2734.25,0.077054
2735.69,0.074531
2737.14,0.071942
2738.58,0.069029
2740.03,0.06617
2741.48,0.064153
2742.93,0.061986
2744.38,0.059526
2745.83,0.057607
2747.29,0.055656
2748.75,0.053595
2750.2,0.0521
2751.66,0.050394
2753.13,0.048677
2754.59,0.047422
2756.05,0.046253
2757.52,0.04517
2758.99,0.044046
2760.46,0.043016
2761.93,0.042196
2763.4,0.041144
2764.87,0.040134
2766.35,0.039584
2767.82,0.039018
2769.3,0.038537
2770.78,0.038184
2772.26,0.037756
2773.75,0.037291
2775.23,0.036598
2776.72,0.036467
2778.21,0.036317
2779.7,0.035692
2781.19,0.03507
2782.68,0.035057
2784.18,0.035004
2785.67,0.034677
2787.17,0.034227
2788.67,0.034125
2790.17,0.034213
2791.67,0.034046
2793.18,0.033675
2794.68,0.033481
2796.19,0.033366
2797.7,0.033284
2799.21,0.03298
2800.72,0.032595
2802.24,0.03236
2803.75,0.032457
2805.27,0.032841
2806.79,0.032743
2808.31,0.032696
2809.83,0.032598
2811.35,0.032232
2812.88,0.032159
2814.41,0.032156
2815.93,0.03203
2817.46,0.032256
2819.0,0.032148
2820.53,0.031763
2822.07,0.03181
2823.6,0.03207
2825.14,0.03239
2826.68,0.032563
2828.22,0.032409
2829.77,0.03232
2831.31,0.032267
2832.86,0.032241
2834.41,0.032306
2835.96,0.032414
2837.51,0.032523
2839.07,0.032324
2840.62,0.032135
2842.18,0.032253
2843.74,0.032285
2845.3,0.032109
2846.86,0.032236
2848.43,0.032285
2849.99,0.032156
2851.56,0.032137
2853.13,0.032149
2854.7,0.032167
2856.27,0.032426
2857.85,0.032851
2859.42,0.033002
2861.0,0.032893
2862.58,0.033192
2864.16,0.033283
2865.75,0.033039
2867.33,0.032948
2868.92,0.03301
2870.51,0.033123
2872.1,0.033175
2873.69,0.03317
2875.28,0.033427
2876.88,0.033521
2878.48,0.033355
2880.07,0.033552
2881.68,0.033644
2883.28,0.033856
2884.88,0.033797
2886.49,0.033595
2888.1,0.033728
2889.71,0.034009
2891.32,0.034027
2892.93,0.033924
2894.55,0.03415
2896.16,0.034269
2897.78,0.034086
2899.4,0.033887
2901.03,0.034045
2902.65,0.034355
2904.28,0.034301
2905.91,0.034279
2907.54,0.03454
2909.17,0.034813
2910.8,0.034942
2912.44,0.03489
2914.07,0.034697
2915.71,0.034497
2917.35,0.034554
2918.99,0.03474
2920.64,0.034929
2922.29,0.035256
2923.93,0.03545
2925.58,0.035364
2927.24,0.035273
2928.89,0.035393
2930.55,0.035486
2932.2,0.035592
2933.86,0.035703
2935.52,0.035709
2937.19,0.035641
2938.85,0.035806
2940.52,0.035957
2942.19,0.035835
2943.86,0.035963
2945.53,0.036293
2947.21,0.036441
2948.88,0.036483
2950.56,0.036505
2952.24,0.036661
2953.92,0.036837
2955.61,0.036971
2957.29,0.037056
2958.98,0.037244
2960.67,0.037385
2962.36,0.03764
2964.06,0.037653
2965.75,0.037738
2967.45,0.037981
2969.15,0.038029
2970.85,0.038022
2972.55,0.03823
2974.26,0.038568
2975.97,0.038685
2977.68,0.038864
2979.39,0.039116
2981.1,0.039195
2982.82,0.039178
2984.53,0.03926
2986.25,0.039624
2987.97,0.039817
2989.7,0.03975
2991.42,0.03975
2993.15,0.03999
2994.88,0.040356
2996.61,0.040575
2998.34,0.040539
3000.08,0.04068
3001.82,0.04104
3003.55,0.041256
3005.3,0.041522
3007.04,0.041832
3008.78,0.041939
3010.53,0.042134
3012.28,0.042224
3014.03,0.042239
3015.79,0.042422
3017.54,0.04272
3019.3,0.042782
3021.06,0.042795
3022.82,0.043017
3024.58,0.043156
3026.35,0.043282
3028.12,0.0434
3029.89,0.043545
3031.66,0.04375
3033.43,0.043966
3035.21,0.044048
3036.99,0.044198
3038.77,0.044322
3040.55,0.044367
3042.33,0.044334
3044.12,0.044277
3045.91,0.044326
3047.7,0.044338
3049.49,0.044499
3051.29,0.044554
3053.08,0.044545
3054.88,0.044617
3056.68,0.04483
3058.49,0.044828
3060.29,0.044641
3062.1,0.044646
3063.91,0.044572
3065.72,0.044545
3067.54,0.044673
3069.35,0.044769
3071.17,0.044979
3072.99,0.045064
3074.81,0.045134
3076.64,0.045147
3078.47,0.045202
3080.29,0.045058
3082.13,0.045042
3083.96,0.045294
3085.79,0.04553
3087.63,0.045629
3089.47,0.045624
3091.31,0.045854
3093.16,0.046241
3095.01,0.046355
3096.85,0.046398
3098.71,0.046744
3100.56,0.047071
3102.41,0.047117
3104.27,0.047111
3106.13,0.047491
3107.99,0.047956
3109.86,0.048207
3111.73,0.048471
3113.59,0.048728
3115.47,0.049041
3117.34,0.049357
3119.21,0.049652
3121.09,0.049918
3122.97,0.050321
3124.86,0.050762
3126.74,0.051023
3128.63,0.051135
3130.52,0.051517
3132.41,0.052011
3134.3,0.05231
3136.2,0.052579
3138.1,0.052868
3140.0,0.053371
3141.9,0.053952
3143.81,0.054367
3145.71,0.054542
3147.62,0.054838
3149.54,0.055324
3151.45,0.05581
3153.37,0.056228
3155.29,0.056598
3157.21,0.056896
3159.13,0.057377
3161.06,0.057909
3162.99,0.058254
3164.92,0.058551
3166.85,0.059082
3168.79,0.05955
3170.72,0.059939
3172.67,0.060342
3174.61,0.060783
3176.55,0.061374
3178.5,0.061995
3180.45,0.062422
3182.4,0.062791
3184.36,0.063383
3186.32,0.063992
3188.27,0.064441
3190.24,0.064865
3192.2,0.065392
3194.17,0.066032
3196.14,0.066651
3198.11,0.067198
3200.08,0.067793
3202.06,0.068331
3204.04,0.068622
3206.02,0.069083
3208.0,0.06968
3209.99,0.07022
3211.98,0.070734
3213.97,0.071373
3215.96,0.072144
3217.96,0.072789
3219.96,0.073185
3221.96,0.073662
3223.96,0.074474
3225.97,0.075175
3227.98,0.075808
3229.99,0.076453
3232.0,0.077045
3234.02,0.077612
3236.04,0.078163
3238.06,0.078764
3240.08,0.079353
3242.11,0.080079
3244.14,0.080782
3246.17,0.081452
3248.2,0.082039
3250.24,0.082581
3252.28,0.083247
3254.32,0.084055
3256.37,0.084721
3258.41,0.085503
3260.46,0.086279
3262.51,0.087011
3264.57,0.087844
3266.63,0.088647
3268.69,0.089203
3270.75,0.089738
3272.81,0.090435
3274.88,0.091333
3276.95,0.092109
3279.02,0.092758
3281.1,0.093554
3283.18,0.094327
3285.26,0.094976
3287.34,0.095769
3289.43,0.096661
3291.51,0.097554
3293.61,0.098321
3295.7,0.099006
3297.8,0.09973
3299.9,0.100529
3302.0,0.101389
3304.1,0.102251
3306.21,0.103017
3308.32,0.103878
3310.43,0.104768
3312.55,0.105538
3314.66,0.106212
3316.79,0.107017
3318.91,0.10794
3321.03,0.108753
3323.16,0.109514
3325.29,0.110434
3327.43,0.111392
3329.57,0.112213
3331.71,0.112965
3333.85,0.113781
3335.99,0.114723
3338.14,0.115627
3340.29,0.116466
3342.45,0.117335
3344.6,0.118292
3346.76,0.119342
3348.92,0.1203
3351.09,0.121342
3353.26,0.122235
3355.43,0.123113
3357.6,0.124128
3359.78,0.125051
3361.96,0.125903
3364.14,0.126839
3366.32,0.127831
3368.51,0.128791
3370.7,0.129706
3372.89,0.130618
3375.09,0.13151
3377.29,0.132473
3379.49,0.133567
3381.69,0.134669
3383.9,0.135768
3386.11,0.1367
3388.32,0.137572
3390.54,0.138589
3392.76,0.1395
3394.98,0.140528
3397.21,0.141628
3399.43,0.14254
3401.66,0.143368
3403.9,0.144401
3406.13,0.14556
3408.37,0.146573
3410.61,0.147581
3412.86,0.148626
3415.11,0.149702
3417.36,0.150853
3419.61,0.151961
3421.87,0.153083
3424.13,0.15417
3426.39,0.155266
3428.66,0.156314
3430.93,0.15722
3433.2,0.158194
3435.48,0.159314
3437.76,0.160417
3440.04,0.161362
3442.32,0.162331
3444.61,0.163325
3446.9,0.164257
3449.19,0.165193
3451.49,0.166168
3453.79,0.167292
3456.09,0.168388
3458.4,0.169406
3460.7,0.170453
3463.02,0.17147
3465.33,0.172565
3467.65,0.173663
3469.97,0.174542
3472.29,0.175484
3474.62,0.176623
3476.95,0.177773
3479.29,0.17885
3481.62,0.179826
3483.96,0.180904
3486.3,0.182106
3488.65,0.183081
3491.0,0.183997
3493.35,0.185056
3495.71,0.186193
3498.07,0.187385
3500.43,0.188534
3502.79,0.189708
3505.16,0.190942
3507.53,0.192114
3509.91,0.193198
3512.29,0.194119
3514.67,0.195005
3517.05,0.195958
3519.44,0.197052
3521.83,0.197997
3524.23,0.199087
3526.62,0.200153
3529.02,0.201072
3531.43,0.201993
3533.83,0.203063
3536.24,0.204081
3538.66,0.205122
3541.08,0.20615
3543.5,0.207162
3545.92,0.20836
3548.35,0.209469
3550.78,0.210374
3553.21,0.211301
3555.65,0.212306
3558.09,0.213366
3560.53,0.214425
3562.98,0.215496
3565.43,0.216488
3567.88,0.217313
3570.34,0.218349
3572.8,0.219433
3575.27,0.220364
3577.73,0.221607
3580.2,0.222683
3582.68,0.223451
3585.16,0.224374
3587.64,0.225331
3590.12,0.226327
3592.61,0.227373
3595.1,0.228341
3597.6,0.229274
3600.09,0.230271
3602.6,0.231236
3605.1,0.232094
3607.61,0.233083
3610.12,0.23411
3612.64,0.235061
3615.16,0.236003
3617.68,0.236962
3620.21,0.237786
3622.74,0.238787
3625.27,0.239818
3627.81,0.240902
3630.35,0.241901
3632.89,0.24282
3635.44,0.243707
3637.99,0.244556
3640.54,0.245428
3643.1,0.246449
3645.66,0.247375
3648.23,0.248321
3650.8,0.249231
3653.37,0.25013
3655.95,0.250999
3658.53,0.251866
3661.11,0.252831
3663.7,0.253789
3666.29,0.254587
3668.89,0.255254
3671.48,0.256025
3674.09,0.256949
3676.69,0.257843
3679.3,0.258656
3681.91,0.259561
3684.53,0.260482
3687.15,0.261317
3689.78,0.262164
3692.4,0.263083
3695.04,0.263871
3697.67,0.264786
3700.31,0.265657
3702.95,0.26642
3705.6,0.26717
3708.25,0.267975
3710.91,0.268707
3713.56,0.269435
3716.23,0.270229
3718.89,0.270961
3721.56,0.271822
3724.23,0.27271
3726.91,0.273491
3729.59,0.274201
3732.28,0.274943
3734.97,0.275688
3737.66,0.276428
3740.36,0.277148
3743.06,0.27794
3745.76,0.278739
3748.47,0.279419
3751.18,0.280205
3753.9,0.280953
3756.62,0.281714
3759.34,0.282342
3762.07,0.282983
3764.8,0.283754
3767.54,0.284587
3770.28,0.285246
3773.02,0.285794
3775.77,0.286473
3778.52,0.287172
3781.28,0.287849
3784.04,0.288461
3786.8,0.289195
3789.57,0.289881
3792.34,0.29051
3795.12,0.29118
3797.9,0.291883
3800.69,0.292549
3803.47,0.293106
3806.27,0.293737
3809.06,0.294366
3811.86,0.294942
3814.67,0.295479
3817.48,0.29598
3820.29,0.296546
3823.11,0.297089
3825.93,0.297712
3828.76,0.298319
3831.59,0.298871
3834.42,0.299461
3837.26,0.30006
3840.1,0.300636
3842.95,0.301178
3845.8,0.301767
3848.65,0.302316
3851.51,0.302817
3854.38,0.303283
3857.24,0.303829
3860.12,0.304424
3862.99,0.304968
3865.87,0.305325
3868.76,0.305749
3871.65,0.30621
3874.54,0.306631
3877.44,0.307128
3880.34,0.307557
3883.25,0.307917
3886.16,0.308274
3889.07,0.308561
3891.99,0.308956
3894.92,0.309411
3897.85,0.309764
3900.78,0.310156
3903.72,0.310586
3906.66,0.310981
3909.6,0.311254
3912.55,0.311511
3915.51,0.31173
3918.47,0.311988
3921.43,0.31228
3924.4,0.312533
3927.38,0.312809
3930.35,0.31307
3933.33,0.313278
3936.32,0.313491
3939.31,0.313686
3942.31,0.31398
3945.31,0.314222
3948.31,0.314369
3951.32,0.314386
3954.34,0.314586
3957.35,0.314721
3960.38,0.314851
3963.41,0.314999
3966.44,0.315171
3969.48,0.315291
3972.52,0.315378
3975.56,0.315435
3978.61,0.315522
3981.67,0.315651
3984.73,0.315767
3987.8,0.315867
3990.87,0.31592
3993.94,0.315907
3997.02,0.315938
4000.1,0.315947
4003.19,0.315979
4006.29,0.315964
4009.39,0.31598
4012.49,0.31599
4015.6,0.315914
4018.71,0.315813
4021.83,0.315763
4024.95,0.315693
4028.08,0.315583
4031.21,0.315526
4034.35,0.31542
4037.49,0.315297
4040.64,0.315072
4043.79,0.314819
4046.94,0.314671
4050.11,0.314556
4053.27,0.314334
4056.44,0.314019
4059.62,0.313731
4062.8,0.313513
4065.99,0.313232
4069.18,0.312929
4072.38,0.312723
4075.58,0.312425
4078.78,0.312132
4082.0,0.311799
4085.21,0.311356
4088.43,0.310981
4091.66,0.310682
4094.89,0.310279
4098.13,0.3099
4101.37,0.30952
4104.62,0.309169
4107.87,0.308795
4111.13,0.308384
4114.39,0.30801
4117.66,0.30762
4120.93,0.307197
4124.21,0.306811
4127.5,0.30632
4130.79,0.305858
4134.08,0.305402
4137.38,0.304906
4140.68,0.304331
4143.99,0.303838
4147.31,0.303361
4150.63,0.302874
4153.95,0.302383
4157.29,0.301917
4160.62,0.301367
4163.96,0.30075
4167.31,0.300207
4170.66,0.299727
4174.02,0.299164
4177.39,0.298602
4180.75,0.298042
4184.13,0.297552
4187.51,0.297002
4190.89,0.296364
4194.28,0.295753
4197.68,0.29518
4201.08,0.294528
4204.49,0.293898
4207.9,0.293318
4211.32,0.29279
4214.74,0.292242
4218.17,0.291781
4221.61,0.291287
4225.05,0.290759
4228.5,0.290269
4231.95,0.289681
4235.4,0.289134
4238.87,0.288714
4242.34,0.288149
4245.81,0.287495
4249.29,0.286739
4252.78,0.285969
4256.27,0.285022
4259.77,0.283815
4263.27,0.282841
4266.78,0.28222
4270.29,0.281511
4273.81,0.28092
4277.34,0.280434
4280.87,0.279801
4284.41,0.27917
4287.95,0.278399
4291.5,0.277511
4295.06,0.276727
4298.62,0.275909
4302.19,0.275148
4305.76,0.274348
4309.34,0.273513
4312.92,0.272643
4316.52,0.271783
4320.11,0.270908
4323.72,0.270172
4327.32,0.269315
4330.94,0.268469
4334.56,0.267636
4338.19,0.266864
4341.82,0.266122
4345.46,0.265357
4349.11,0.264579
4352.76,0.26377
4356.42,0.262957
4360.08,0.262266
4363.75,0.261551
4367.43,0.2608
4371.11,0.259968
4374.8,0.259189
4378.49,0.258519
4382.19,0.257836
4385.9,0.257082
4389.61,0.256338
4393.33,0.255534
4397.06,0.254841
4400.79,0.254184
4404.53,0.253569
4408.28,0.252871
4412.03,0.252225
4415.79,0.251595
4419.55,0.25094
4423.32,0.250289
4427.1,0.249705
4430.88,0.249078
4434.68,0.248467
4438.47,0.247775
4442.28,0.24714
4446.08,0.246658
4449.9,0.246222
4453.72,0.245729
4457.55,0.245248
4461.39,0.244747
4465.23,0.244214
4469.08,0.243652
4472.94,0.24319
4476.8,0.242715
4480.67,0.242243
4484.55,0.241819
4488.43,0.241447
4492.32,0.241147
4496.21,0.240747
4500.12,0.240346
4504.03,0.239962
4507.94,0.239533
4511.87,0.239201
4515.8,0.238993
4519.73,0.238678
4523.68,0.238367
4527.63,0.238181
4531.59,0.237895
4535.55,0.237546
4539.52,0.237279
4543.5,0.23704
4547.49,0.236788
4551.48,0.236575
4555.48,0.236413
4559.49,0.236249
4563.5,0.236134
4567.52,0.236025
4571.55,0.235936
4575.58,0.235863
4579.63,0.235688
4583.67,0.235508
4587.73,0.235338
4591.79,0.235182
4595.86,0.23518
4599.94,0.235166
4604.03,0.235191
4608.12,0.235204
4612.22,0.235082
4616.33,0.235103
4620.44,0.235132
4624.56,0.235171
4628.69,0.235201
4632.83,0.235184
4636.97,0.235225
4641.12,0.235441
4645.28,0.235496
4649.45,0.235517
4653.62,0.2356
4657.8,0.235694
4661.99,0.235843
4666.19,0.235963
4670.39,0.236058
4674.6,0.23628
4678.82,0.236457
4683.05,0.236576
4687.28,0.236746
4691.52,0.236936
4695.77,0.237121
4700.03,0.237252
4704.3,0.237445
4708.57,0.237649
4712.85,0.237855
4717.14,0.238207
4721.43,0.238481
4725.74,0.238762
4730.05,0.238923
4734.37,0.239104
4738.7,0.239368
4743.03,0.239649
4747.38,0.239972
4751.73,0.240371
4756.09,0.240595
4760.45,0.240821
4764.83,0.241128
4769.21,0.241387
4773.6,0.241556
4778.0,0.241797
4782.41,0.242118
4786.83,0.242524
4791.25,0.242896
4795.68,0.243123
4800.13,0.243255
4804.57,0.243563
4809.03,0.243882
4813.5,0.244232
4817.97,0.244524
4822.45,0.244782
4826.94,0.24507
4831.44,0.245376
4835.95,0.245615
4840.46,0.245885
4844.99,0.246148
4849.52,0.246487
4854.06,0.246662
4858.61,0.246835
4863.17,0.247054
4867.73,0.247252
4872.31,0.24747
4876.89,0.247681
4881.48,0.247684
4886.08,0.247699
4890.69,0.247864
4895.31,0.248069
4899.94,0.248214
4904.57,0.248322
4909.22,0.248344
4913.87,0.248347
4918.53,0.248332
4923.21,0.248273
4927.88,0.248167
4932.57,0.248145
4937.27,0.248132
4941.98,0.248057
4946.69,0.247905
4951.42,0.247742
4956.15,0.247548
4960.9,0.247368
4965.65,0.247146
4970.41,0.246922
4975.18,0.246756
4979.96,0.246528
4984.75,0.246188
4989.54,0.245792
4994.35,0.245441
4999.17,0.24512
5003.99,0.244767
5008.83,0.244467
5013.67,0.24408
5018.52,0.243631
5023.39,0.243091
5028.26,0.242665
5033.14,0.242248
5038.03,0.241772
5042.93,0.241196
5047.84,0.240709
5052.76,0.240275
5057.69,0.239774
5062.63,0.23931
5067.58,0.238773
5072.54,0.238181
5077.51,0.237546
5082.49,0.236955
5087.47,0.236435
5092.47,0.235877
5097.48,0.235356
5102.5,0.234751
5107.52,0.234124
5112.56,0.233664
5117.61,0.233149
5122.66,0.232564
5127.73,0.231982
5132.81,0.231327
5137.89,0.230791
5142.99,0.23031
5148.1,0.229775
5153.22,0.229231
5158.34,0.22874
5163.48,0.228216
5168.63,0.227729
5173.79,0.227179
5178.96,0.226675
5184.13,0.226235
5189.32,0.225832
5194.52,0.225384
5199.73,0.224989
5204.96,0.2246
5210.19,0.224235
5215.43,0.223697
5220.68,0.223357
5225.94,0.223091
5231.22,0.222667
5236.5,0.222237
5241.79,0.221907
5247.1,0.22163
5252.42,0.221341
5257.74,0.220984
5263.08,0.220732
5268.43,0.220458
5273.79,0.220088
5279.16,0.219729
5284.54,0.219407
5289.93,0.219163
5295.34,0.218856
5300.75,0.218529
5306.18,0.218266
5311.61,0.217939
5317.06,0.217611
5322.52,0.217235
5327.99,0.216909
5333.47,0.216556
5338.96,0.216123
5344.47,0.215674
5349.98,0.215217
5355.51,0.214806
5361.05,0.214481
5366.6,0.213977
5372.16,0.213426
5377.73,0.212851
5383.32,0.212325
5388.91,0.211785
5394.52,0.211211
5400.14,0.210635
5405.77,0.210099
5411.41,0.209448
5417.07,0.208832
5422.74,0.208024
5428.41,0.20737
5434.1,0.206743
5439.81,0.205926
5445.52,0.205158
5451.25,0.204396
5456.98,0.203646
5462.73,0.202871
5468.5,0.202026
5474.27,0.201296
5480.06,0.200536
5485.86,0.19974
5491.67,0.198909
5497.49,0.198127
5503.33,0.197337
5509.18,0.19661
5515.04,0.195891
5520.91,0.195059
5526.8,0.194247
5532.69,0.193509
5538.61,0.19275
5544.53,0.191932
5550.47,0.191126
5556.41,0.190425
5562.38,0.189802
5568.35,0.189048
5574.34,0.188263
5580.34,0.187505
5586.35,0.186892
5592.38,0.186302
5598.42,0.185581
5604.47,0.18494
5610.54,0.184313
5616.61,0.183532
5622.71,0.182811
5628.81,0.182129
5634.93,0.181425
5641.06,0.18069
5647.21,0.179934
5653.36,0.179337
5659.54,0.178567
5665.72,0.177925
5671.92,0.177131
5678.13,0.176274
5684.36,0.175506
5690.6,0.174685
5696.85,0.173793
5703.12,0.17297
5709.4,0.171947
5715.69,0.171041
5722.0,0.170163
5728.33,0.169057
5734.66,0.167814
5741.01,0.166554
5747.38,0.165098
5753.76,0.163588
5760.15,0.162082
5766.56,0.160192
5772.98,0.158373
5779.41,0.156681
5785.86,0.154624
5792.33,0.152492
5798.81,0.150225
5805.3,0.147886
5811.81,0.145339
5818.33,0.142655
5824.87,0.139835
5831.42,0.137149
5837.99,0.134139
5844.57,0.130855
5851.17,0.127428
5857.78,0.123938
5864.41,0.120311
5871.05,0.116567
5877.7,0.112556
5884.38,0.10843
5891.06,0.104249
5897.76,0.100018
5904.48,0.095701
5911.21,0.091416
5917.96,0.087044
5924.73,0.082696
5931.5,0.078387
5938.3,0.074132
5945.11,0.069936
5951.93,0.065989
5958.78,0.062105
5965.63,0.058425
5972.51,0.054901
5979.39,0.051571
5986.3,0.048458
5993.22,0.045611
6000.16,0.042916
6007.11,0.040499
6014.08,0.038321
6021.06,0.036436
6028.06,0.03474
6035.08,0.033239
6042.12,0.032
6049.17,0.03095
6056.23,0.029892
6063.32,0.029233
6070.42,0.028858
6077.53,0.028562
6084.67,0.028403
6091.82,0.028469
6098.98,0.028717
6106.17,0.029098
6113.37,0.029704
6120.58,0.030718
6127.82,0.032
6135.07,0.033506
6142.34,0.035336
6149.63,0.037482
6156.93,0.039977
6164.25,0.042725
6171.59,0.045739
6178.95,0.04878
6186.32,0.051875
6193.71,0.055291
6201.12,0.058792
6208.54,0.061992
6215.99,0.065225
6223.45,0.068387
6230.93,0.071409
6238.43,0.074328
6245.95,0.077261
6253.48,0.080066
6261.03,0.082786
6268.6,0.085351
6276.19,0.087915
6283.8,0.090464
6291.43,0.09287
6299.07,0.095167
6306.73,0.097454
6314.42,0.09962
6322.12,0.10175
6329.84,0.1037
6337.57,0.105558
6345.33,0.107177
6353.11,0.108983
6360.9,0.110644
6368.72,0.111903
6376.55,0.113118
6384.4,0.114422
6392.27,0.115585
6400.17,0.116661
6408.08,0.117637
6416.01,0.118498
6423.96,0.119517
6431.93,0.120449
6439.92,0.121129
6447.93,0.121841
6455.96,0.122404
6464.01,0.122884
6472.08,0.123308
6480.17,0.123748
6488.28,0.124085
6496.41,0.1244
6504.56,0.12482
6512.73,0.125273
6520.92,0.125454
6529.14,0.12566
6537.37,0.125856
6545.63,0.125908
6553.9,0.125965
6562.2,0.126077
6570.51,0.126065
6578.85,0.12598
6587.21,0.126009
6595.59,0.125965
6603.99,0.125925
6612.42,0.125833
6620.86,0.125692
6629.33,0.125548
6637.82,0.125255
6646.33,0.12512
6654.86,0.125161
6663.41,0.124897
6671.99,0.124651
6680.59,0.124457
6689.21,0.12422
6697.85,0.123971
6706.51,0.123613
6715.2,0.123249
6723.91,0.122918
6732.64,0.12261
6741.4,0.122225
6750.18,0.121809
6758.98,0.121431
6767.8,0.12101
6776.65,0.120474
6785.52,0.120021
6794.41,0.11951
6803.33,0.119024
6812.27,0.118521
6821.23,0.117957
6830.22,0.117346
6839.23,0.116777
6848.26,0.116197
6857.32,0.115596
6866.4,0.114936
6875.51,0.114346
6884.64,0.113786
6893.8,0.113139
6902.98,0.112436
6912.18,0.111701
6921.41,0.11101
6930.66,0.110405
6939.94,0.109772
6949.24,0.109042
6958.57,0.108295
6967.92,0.107512
6977.3,0.106787
6986.7,0.105999
6996.13,0.105231
7005.59,0.104498
7015.07,0.10381
7024.57,0.103085
7034.1,0.102369
7043.66,0.101634
7053.25,0.100843
7062.85,0.100071
7072.49,0.09933
7082.15,0.098563
7091.84,0.097683
7101.55,0.096751
7111.3,0.095872
7121.06,0.09498
7130.86,0.094083
7140.68,0.0932
7150.53,0.092211
7160.41,0.091135
7170.31,0.090157
7180.24,0.089108
7190.2,0.088035
7200.19,0.087017
7210.2,0.085877
7220.24,0.08466
7230.31,0.083564
7240.41,0.082392
7250.54,0.081193
7260.69,0.079956
7270.88,0.078694
7281.09,0.077429
7291.33,0.07619
7301.6,0.074916
7311.9,0.073515
7322.22,0.072158
7332.58,0.070821
7342.97,0.069363
7353.38,0.067973
7363.83,0.066559
7374.3,0.065157
7384.81,0.063756
7395.34,0.062298
7405.91,0.06079
7416.5,0.059299
7427.13,0.057757
7437.78,0.056185
7448.47,0.054618
7459.19,0.053051
7469.94,0.05146
7480.71,0.049858
7491.52,0.048261
7502.37,0.046646
7513.24,0.045003
7524.14,0.043318
7535.08,0.041616
7546.05,0.039992
7557.05,0.038392
7568.08,0.036726
7579.15,0.035057
7590.24,0.033448
7601.37,0.031852
7612.53,0.030212
7623.73,0.028532
7634.96,0.026966
7646.22,0.025454
7657.51,0.023983
7668.84,0.022517
7680.2,0.021091
7691.59,0.019714
7703.02,0.018397
7714.49,0.017069
7725.98,0.01578
7737.52,0.014591
7749.08,0.01355
7760.68,0.012458
7772.32,0.011461
7783.99,0.010587
7795.69,0.00973
7807.43,0.008949
7819.21,0.008372
7831.02,0.00784
7842.87,0.00737
7854.75,0.007079
7866.67,0.006924
7878.62,0.006877
7890.62,0.007011
7902.64,0.00732
7914.71,0.007802
7926.81,0.008559
7938.95,0.009523
7951.13,0.010726
7963.34,0.012279
7975.59,0.01403
7987.88,0.015984
8000.21,0.018235
8012.57,0.020783
8024.98,0.023475
8037.42,0.02634
8049.9,0.029415
8062.42,0.032547
8074.98,0.03557
8087.57,0.038627
8100.21,0.041514
8112.89,0.044229
8125.6,0.046617
8138.36,0.048604
8151.16,0.050354
8163.99,0.051845
8176.87,0.053
8189.79,0.053998
8202.75,0.054816
8215.75,0.055306
8228.79,0.055521
8241.87,0.055576
8254.99,0.055446
8268.16,0.055175
8281.37,0.054661
8294.62,0.053999
8307.91,0.053332
8321.24,0.052586
8334.62,0.05167
8348.04,0.050782
8361.51,0.049979
8375.02,0.049098
8388.57,0.048229
8402.16,0.047477
8415.8,0.046718
8429.49,0.045961
8443.22,0.045352
8456.99,0.044794
8470.81,0.044244
8484.67,0.043868
8498.58,0.043409
8512.54,0.042987
8526.54,0.042649
8540.58,0.042307
8554.68,0.042003
8568.82,0.041827
8583.0,0.04164
8597.24,0.041425
8611.52,0.041201
8625.85,0.041032
8640.23,0.040928
8654.65,0.040762
8669.12,0.040585
8683.64,0.040453
8698.21,0.040309
8712.83,0.040257
8727.5,0.040114
8742.22,0.040059
8756.99,0.040008
8771.8,0.039931
8786.67,0.039865
8801.59,0.039805
8816.56,0.0398
8831.58,0.039889
8846.65,0.039934
8861.77,0.039988
8876.94,0.040179
8892.17,0.040415
8907.45,0.040597
8922.78,0.040804
8938.16,0.041184
8953.6,0.041591
8969.09,0.04203
8984.64,0.042519
9000.23,0.043015
9015.89,0.043534
9031.59,0.044204
9047.36,0.044784
9063.17,0.045402
9079.05,0.046264
9094.97,0.047063
9110.96,0.047698
9127.0,0.048399
9143.1,0.049291
9159.25,0.050132
9175.46,0.050838
9191.73,0.05143
9208.06,0.052078
9224.44,0.052809
9240.88,0.053466
9257.38,0.054178
9273.94,0.054806
9290.56,0.05532
9307.24,0.055796
9323.98,0.056077
9340.78,0.056375
9357.64,0.056583
9374.57,0.056656
9391.55,0.056509
9408.59,0.056307
9425.7,0.056109
9442.87,0.055899
9460.1,0.055438
9477.4,0.054829
9494.75,0.054273
9512.17,0.053836
9529.66,0.05345
9547.21,0.05294
9564.83,0.05245
9582.5,0.051982
9600.25,0.051383
9618.06,0.050832
9635.94,0.050318
9653.88,0.04988
9671.89,0.049411
9689.97,0.048943
9708.12,0.048598
9726.33,0.048179
9744.62,0.047877
9762.97,0.047783
9781.39,0.047565
9799.88,0.04737
9818.44,0.047125
9837.07,0.04684
9855.77,0.046765
9874.54,0.046721
9893.39,0.046547
9912.3,0.046346
9931.29,0.046364
9950.36,0.046369
9969.49,0.046167
9988.7,0.046023
10007.98,0.045764
10027.34,0.045573
10046.77,0.045341
10066.28,0.045096
10085.87,0.04496
10105.53,0.044839
10125.26,0.044743
10145.08,0.044592
10164.97,0.044286
10184.94,0.043991
10204.99,0.043797
10225.12,0.043642
10245.33,0.043476
10265.61,0.043243
10285.98,0.043059
10306.43,0.04304
10326.96,0.043019
10347.57,0.042995
10368.27,0.042961
10389.05,0.04299
10409.91,0.043031
10430.86,0.043276
10451.88,0.043499
10473.0,0.043593
10494.2,0.043888
10515.49,0.044261
10536.86,0.044495
10558.32,0.044806
10579.87,0.045276
10601.5,0.045875
10623.23,0.046544
10645.04,0.04716
10666.94,0.047853
10688.94,0.048666
10711.02,0.0495
10733.2,0.050516
10755.47,0.051657
10777.83,0.052875
10800.28,0.054301
10822.83,0.055857
10845.47,0.057449
10868.21,0.059141
10891.04,0.060945
10913.97,0.062781
10936.99,0.064769
10960.12,0.066957
10983.34,0.069133
11006.66,0.071204
11030.07,0.073347
11053.59,0.075486
11077.21,0.077541
11100.93,0.079454
11124.75,0.081186
11148.68,0.082822
11172.71,0.084351
11196.84,0.08568
11221.07,0.086841
11245.41,0.088071
11269.86,0.089248
11294.41,0.090098
11319.07,0.090836
11343.84,0.091448
11368.72,0.091959
11393.7,0.092485
11418.8,0.092952
11444.01,0.093393
11469.33,0.093727
11494.76,0.093921
11520.3,0.093902
11545.96,0.0939
11571.73,0.093936
11597.62,0.093897
11623.62,0.093924
11649.74,0.093734
11675.98,0.093488
11702.34,0.093241
11728.81,0.092823
11755.41,0.092369
11782.13,0.091859
11808.96,0.09129
11835.92,0.090647
11863.01,0.089828
11890.22,0.088856
11917.55,0.087757
11945.01,0.086549
11972.6,0.085254
12000.31,0.083825
12028.16,0.082147
12056.13,0.080198
12084.23,0.078003
12112.46,0.075452
12140.83,0.072533
12169.33,0.069436
12197.96,0.066127
12226.73,0.0626
12255.64,0.05931
12284.68,0.056213
12313.86,0.053398
12343.18,0.051041
12372.64,0.049054
12402.24,0.047524
12431.98,0.046256
12461.86,0.045101
12491.89,0.044234
12522.07,0.043448
12552.38,0.042826
12582.85,0.04223
12613.47,0.041598
12644.23,0.041033
12675.15,0.040611
12706.21,0.040237
12737.43,0.039889
12768.81,0.039462
12800.33,0.039007
12832.02,0.038678
12863.86,0.038321
12895.86,0.037959
12928.02,0.037669
12960.34,0.037291
12992.82,0.036861
13025.46,0.036481
13058.27,0.036113
13091.25,0.035696
13124.39,0.035288
13157.7,0.034897
13191.18,0.034438
13224.83,0.034117
13258.66,0.033902
13292.65,0.033502
13326.83,0.033042
13361.17,0.032553
13395.7,0.032217
13430.4,0.032001
13465.29,0.031584
13500.35,0.031172
13535.6,0.030975
13571.03,0.030654
13606.65,0.030326
13642.46,0.030205
13678.46,0.030048
13714.64,0.029808
13751.02,0.029557
13787.59,0.029459
13824.36,0.029408
13861.32,0.02933
13898.49,0.0292
13935.85,0.029105
13973.41,0.029024
14011.17,0.028869
14049.15,0.028746
14087.32,0.02879
14125.71,0.028775
14164.3,0.028502
14203.11,0.028404
14242.13,0.028674
14281.36,0.0287
14320.81,0.028586
14360.49,0.028558
14400.38,0.028534
14440.49,0.028519
14480.82,0.028316
14521.39,0.028149
14562.18,0.028055
14603.2,0.027972
14644.45,0.027744
14685.93,0.027744
14727.66,0.027645
14769.62,0.027428
14811.81,0.027489
14854.25,0.027701
14896.94,0.027853
14939.87,0.027605
14983.05,0.027497
15026.48,0.027608
15070.16,0.027456
15114.1,0.027274
15158.29,0.027211
15202.74,0.027176
15247.46,0.027007
15292.43,0.026737
15337.68,0.026473
15383.19,0.02634
15428.97,0.026213
15475.03,0.025866
15521.36,0.025594
15567.97,0.025416
15614.87,0.025167
15662.04,0.024983
15709.5,0.024957
15757.25,0.024724
15805.29,0.024654
15853.62,0.024731
15902.26,0.024777
15951.19,0.024856
16000.42,0.02514
16049.95,0.025403
16099.8,0.025451
16149.95,0.025714
16200.42,0.026463
16251.21,0.027492
16302.31,0.028278
16353.74,0.029087
16405.49,0.030028
16457.57,0.031327
16509.98,0.032918
16562.73,0.03423
16615.82,0.035087
16669.24,0.035909
16723.02,0.03685
16777.14,0.037585
16831.61,0.03795
16886.43,0.038284
16941.62,0.038734
16997.16,0.038966
17053.08,0.039036
17109.36,0.039317
17166.01,0.039344
17223.04,0.03935
17280.45,0.039281
17338.24,0.039098
17396.43,0.038899
17455.0,0.038856
17513.97,0.038757
17573.34,0.038557
17633.11,0.038593
17693.29,0.038349
17753.89,0.03799
17814.9,0.038082
17876.33,0.038014
17938.18,0.037892
18000.47,0.037468
18063.19,0.037111
18126.35,0.036931
18189.95,0.036862
18254.0,0.036819
18318.5,0.036848
18383.46,0.036892
18448.88,0.036621
18514.77,0.036271
18581.13,0.036286
18647.97,0.036416
18715.29,0.036141
18783.1,0.03612
18851.4,0.036397
18920.2,0.036473
18989.51,0.036343
19059.32,0.036091
19129.65,0.035655
19200.5,0.035418
19271.88,0.036149
19343.79,0.036901
19416.24,0.037222
19489.23,0.03736
19562.77,0.037329
19636.88,0.037539
19711.54,0.038227
19786.78,0.039422
19862.59,0.040096
19938.98,0.040564
20015.96,0.041241
20093.55,0.041724
20171.73,0.042608
20250.53,0.043825
20329.94,0.044744
20409.98,0.045593
20490.65,0.046771
20571.96,0.047496
20653.92,0.048684
20736.54,0.050204
20819.82,0.051446
20903.77,0.051967
20988.4,0.052404
21073.72,0.053491
21159.73,0.054672
21246.46,0.055051
21333.89,0.054768
21422.04,0.054992
21510.93,0.055921
21600.56,0.056684
21690.94,0.057271
21782.08,0.057549
21873.99,0.057393
21966.67,0.057509
22060.15,0.05805
22154.42,0.058175
22249.51,0.058263
22345.41,0.058708
22442.14,0.058513
22539.72,0.058154
22638.14,0.058017
22737.43,0.057538
22837.6,0.055633
22938.65,0.054388
23040.6,0.053729
23143.46,0.052619
23247.24,0.051798
23351.96,0.050939
23457.63,0.050236
23564.25,0.048511
23671.85,0.04786
23780.44,0.048968
23890.02,0.047909
24000.63,0.046879
24112.26,0.047361
24224.93,0.047909
24338.66,0.048285
24453.47,0.046962
24569.36,0.046249
24686.36,0.047727
24804.47,0.048836
24923.73,0.049065
25044.13,0.050502
25165.71,0.05147
25288.46,0.052384
25412.43,0.052168
25537.61,0.052467
25664.04,0.052353
25791.72,0.049234
25920.68,0.05015
