Database of Origin,University of Winnipeg Spectrophotometer Facility
Sample Description,8. Sulfates: RELAB + Nicolet spectra / Spectra all made consistently merged: Jan. / 10 / 2005
Date Added,2016-07-15 22:05:54.971554

Data ID,RPN_SUL_25          
Sample ID,SPT110
Mineral Name,Rhomboclase
Grain Size,<45
Viewing Geometry,30 / 0 | 30
Resolution,5 / 1.3-129
Material Class,Sulfate

Wavelength
305.0,0.041309
310.0,0.037724
315.0,0.035386
320.0,0.036515
325.0,0.037624
330.0,0.038529
335.0,0.040646
340.0,0.044382
345.0,0.051402
350.0,0.059881
355.0,0.075685
360.0,0.094541
365.0,0.118985
370.0,0.145553
375.0,0.170407
380.0,0.19589
385.0,0.213316
390.0,0.228156
395.0,0.242529
400.0,0.256072
405.0,0.26202
410.0,0.265579
415.0,0.268866
420.0,0.270631
425.0,0.273266
430.0,0.274968
435.0,0.281771
440.0,0.284043
445.0,0.28634
450.0,0.287753
455.0,0.28991
460.0,0.291073
465.0,0.293635
470.0,0.29488
475.0,0.296594
480.0,0.298061
485.0,0.300145
490.0,0.301561
495.0,0.303652
500.0,0.304494
505.0,0.305869
510.0,0.306602
515.0,0.308801
520.0,0.30918
525.0,0.311166
530.0,0.311032
535.0,0.313041
540.0,0.313542
545.0,0.314708
550.0,0.314993
555.0,0.316513
560.0,0.3167
565.0,0.317189
570.0,0.318551
575.0,0.318742
580.0,0.31923
585.0,0.319934
590.0,0.320019
595.0,0.319873
600.0,0.320429
605.0,0.32114
610.0,0.321547
615.0,0.321386
620.0,0.321057
625.0,0.321825
630.0,0.321363
635.0,0.32152
640.0,0.322183
645.0,0.322416
650.0,0.322089
655.0,0.322939
660.0,0.322401
665.0,0.323007
670.0,0.322672
675.0,0.323628
680.0,0.323437
685.0,0.324134
690.0,0.323156
695.0,0.324134
700.0,0.323288
705.0,0.323853
710.0,0.323372
715.0,0.323315
720.0,0.323301
725.0,0.322217
730.0,0.320532
735.0,0.32111
740.0,0.32029
745.0,0.319564
750.0,0.319764
755.0,0.319239
760.0,0.31905
765.0,0.317916
770.0,0.318032
775.0,0.31723
780.0,0.316644
785.0,0.315584
790.0,0.315369
795.0,0.314294
800.0,0.314721
805.0,0.313544
810.0,0.312337
815.0,0.312299
820.0,0.309717
825.0,0.31023
830.0,0.307058
835.0,0.308195
840.0,0.306606
845.0,0.306013
850.0,0.304937
855.0,0.303191
860.0,0.301528
865.0,0.30323
870.0,0.301416
875.0,0.298385
880.0,0.300678
885.0,0.298077
890.0,0.295764
895.0,0.297431
900.0,0.296043
905.0,0.297339
910.0,0.295967
915.0,0.294422
920.0,0.294524
925.0,0.29409
930.0,0.294007
935.0,0.293396
940.0,0.294001
945.0,0.293634
950.0,0.294699
955.0,0.29356
960.0,0.293729
965.0,0.294144
970.0,0.294262
975.0,0.294967
980.0,0.296221
985.0,0.296873
990.0,0.297199
995.0,0.297363
1000.0,0.297828
1005.0,0.298417
1010.0,0.299344
1015.0,0.300514
1020.0,0.301081
1025.0,0.301114
1030.0,0.300614
1035.0,0.302021
1040.0,0.302535
1045.0,0.302896
1050.0,0.304669
1055.0,0.304101
1060.0,0.304899
1065.0,0.30594
1070.0,0.30762
1075.0,0.307489
1080.0,0.307054
1085.0,0.308233
1090.0,0.308356
1095.0,0.30968
1100.0,0.308835
1105.0,0.311531
1110.0,0.311061
1115.0,0.311492
1120.0,0.311124
1125.0,0.311725
1130.0,0.311856
1135.0,0.312197
1140.0,0.312257
1145.0,0.312337
1150.0,0.3125
1155.0,0.312186
1160.0,0.312767
1165.0,0.312247
1170.0,0.312922
1175.0,0.311754
1180.0,0.312768
1185.0,0.312101
1190.0,0.312944
1195.0,0.313636
1200.0,0.313019
1205.0,0.315142
1210.0,0.314007
1215.0,0.315515
1220.0,0.315551
1225.0,0.315053
1230.0,0.315382
1235.0,0.315591
1240.0,0.315438
1245.0,0.315538
1250.0,0.316103
1255.0,0.316107
1260.0,0.316172
1265.0,0.317466
1270.0,0.316554
1275.0,0.316557
1280.0,0.316597
1285.0,0.316329
1290.0,0.31636
1295.0,0.316782
1300.0,0.317008
1305.0,0.317566
1310.0,0.317318
1315.0,0.318213
1320.0,0.318018
1325.0,0.318424
1330.0,0.318585
1335.0,0.318897
1340.0,0.318409
1345.0,0.31816
1350.0,0.318284
1355.0,0.317777
1360.0,0.317277
1365.0,0.31915
1370.0,0.31915
1375.0,0.319816
1380.0,0.318266
1385.0,0.321482
1390.0,0.322001
1395.0,0.320621
1400.0,0.320973
1405.0,0.321309
1410.0,0.322449
1415.0,0.322172
1420.0,0.322893
1425.0,0.32294
1430.0,0.323928
1435.0,0.323437
1440.0,0.323396
1445.0,0.323667
1450.0,0.325044
1455.0,0.32593
1460.0,0.324106
1465.0,0.324833
1470.0,0.323772
1475.0,0.323875
1480.0,0.32455
1485.0,0.323374
1490.0,0.323758
1495.0,0.323931
1500.0,0.323314
1505.0,0.322631
1510.0,0.322164
1515.0,0.322187
1520.0,0.322583
1525.0,0.321206
1530.0,0.321592
1535.0,0.322535
1540.0,0.3227
1545.0,0.323202
1550.0,0.323401
1555.0,0.322959
1560.0,0.323776
1565.0,0.323312
1570.0,0.324333
1575.0,0.323523
1580.0,0.322935
1585.0,0.323464
1590.0,0.32284
1595.0,0.324374
1600.0,0.324191
1605.0,0.324369
1610.0,0.323211
1615.0,0.323142
1620.0,0.323105
1625.0,0.32331
1630.0,0.323476
1635.0,0.323073
1640.0,0.323304
1645.0,0.32474
1650.0,0.323711
1655.0,0.323707
1660.0,0.322972
1665.0,0.320903
1670.0,0.320221
1675.0,0.321065
1680.0,0.320639
1685.0,0.32087
1690.0,0.320473
1695.0,0.321553
1700.0,0.321002
1705.0,0.321734
1710.0,0.32115
1715.0,0.321926
1720.0,0.321585
1725.0,0.321387
1730.0,0.321349
1735.0,0.321414
1740.0,0.320306
1745.0,0.320355
1750.0,0.321041
1755.0,0.320816
1760.0,0.320153
1765.0,0.320955
1770.0,0.32089
1775.0,0.319947
1780.0,0.320442
1785.0,0.320457
1790.0,0.319957
1795.0,0.319701
1800.0,0.319787
1805.0,0.319367
1810.0,0.318407
1815.0,0.318708
1820.0,0.318365
1825.0,0.318803
1830.0,0.318062
1835.0,0.317522
1840.0,0.317648
1845.0,0.318509
1850.0,0.318106
1855.0,0.318032
1860.0,0.318118
1865.0,0.31804
1870.0,0.314627
1875.0,0.31932
1880.0,0.319265
1885.0,0.316508
1890.0,0.315372
1895.0,0.315347
1900.0,0.312976
1905.0,0.313545
1910.0,0.313494
1915.0,0.311516
1920.0,0.310256
1925.0,0.308886
1930.0,0.308276
1935.0,0.306467
1940.0,0.305697
1945.0,0.305241
1950.0,0.302046
1955.0,0.301421
1960.0,0.298327
1965.0,0.296713
1970.0,0.295186
1975.0,0.293698
1980.0,0.291324
1985.0,0.290032
1990.0,0.288652
1995.0,0.287543
2000.0,0.286703
2005.0,0.286925
2010.0,0.286866
2015.0,0.286544
2020.0,0.286549
2025.0,0.285017
2030.0,0.284789
2035.0,0.284184
2040.0,0.283903
2045.0,0.281751
2050.0,0.282379
2055.0,0.280376
2060.0,0.280047
2065.0,0.278835
2070.0,0.278769
2075.0,0.277318
2080.0,0.277212
2085.0,0.276427
2090.0,0.276411
2095.0,0.275196
2100.0,0.275914
2105.0,0.275555
2110.0,0.277279
2115.0,0.278244
2120.0,0.279287
2125.0,0.28167
2130.0,0.282651
2135.0,0.284502
2140.0,0.286586
2145.0,0.286804
2150.0,0.289353
2155.0,0.291083
2160.0,0.290828
2165.0,0.292419
2170.0,0.292258
2175.0,0.29359
2180.0,0.293318
2185.0,0.293843
2190.0,0.293962
2195.0,0.294369
2200.0,0.294574
2205.0,0.295065
2210.0,0.294988
2215.0,0.294358
2220.0,0.294951
2225.0,0.293911
2230.0,0.294773
2235.0,0.292827
2240.0,0.292908
2245.0,0.293091
2250.0,0.293042
2255.0,0.292925
2260.0,0.294437
2265.0,0.29453
2270.0,0.292314
2275.0,0.292874
2280.0,0.292181
2285.0,0.292427
2290.0,0.292304
2295.0,0.290845
2300.0,0.291368
2305.0,0.29054
2310.0,0.290182
2315.0,0.288334
2320.0,0.288229
2325.0,0.2865
2330.0,0.286402
2335.0,0.285059
2340.0,0.28483
2345.0,0.283527
2350.0,0.282056
2355.0,0.280483
2360.0,0.279034
2365.0,0.279283
2370.0,0.276737
2375.0,0.276214
2380.0,0.274687
2385.0,0.272764
2390.0,0.271112
2395.0,0.268824
2400.0,0.265041
2405.0,0.264665
2410.0,0.263299
2415.0,0.263732
2420.0,0.264834
2425.0,0.26408
2430.0,0.265169
2435.0,0.263462
2440.0,0.262453
2445.0,0.261196
2450.0,0.260592
2455.0,0.259752
2460.0,0.260432
2465.0,0.257119
2470.0,0.256772
2475.0,0.256482
2480.0,0.255222
2485.0,0.253946
2490.0,0.253119
2495.0,0.251624
2500.0,0.248827
2505.0,0.247975
2510.0,0.246569
2515.0,0.244263
2520.0,0.241195
2525.0,0.241928
2530.0,0.239975
2535.0,0.24053
2540.0,0.239035
2545.0,0.236061
2550.0,0.234898
2555.0,0.233806
2560.0,0.233793
2565.13,0.232906
2570.22,0.229738
2575.33,0.231558
2580.46,0.23108
2581.74,0.229552
2583.03,0.228758
2584.31,0.228334
2585.6,0.229496
2586.89,0.228558
2588.19,0.2287
2589.48,0.228627
2590.77,0.229816
2592.07,0.229728
2593.36,0.228172
2594.66,0.226681
2595.96,0.226205
2597.26,0.226577
2598.56,0.226781
2599.87,0.226611
2601.17,0.225113
2602.48,0.225097
2603.78,0.226831
2605.09,0.226451
2606.4,0.225585
2607.71,0.224589
2609.03,0.224744
2610.34,0.225229
2611.66,0.225791
2612.97,0.224966
2614.29,0.223797
2615.61,0.2242
2616.93,0.222596
2618.25,0.222987
2619.57,0.224047
2620.9,0.222027
2622.22,0.222023
2623.55,0.223468
2624.88,0.224179
2626.21,0.223488
2627.54,0.22334
2628.87,0.224258
2630.21,0.223189
2631.54,0.223447
2632.88,0.22412
2634.21,0.223555
2635.55,0.223958
2636.89,0.224634
2638.24,0.224015
2639.58,0.223642
2640.92,0.223598
2642.27,0.223823
2643.62,0.22435
2644.97,0.224399
2646.32,0.224166
2647.67,0.225453
2649.02,0.225809
2650.38,0.224923
2651.73,0.224021
2653.09,0.223616
2654.45,0.223965
2655.81,0.223517
2657.17,0.223094
2658.53,0.223009
2659.89,0.222864
2661.26,0.223492
2662.63,0.224298
2664.0,0.224065
2665.36,0.223083
2666.74,0.221937
2668.11,0.221957
2669.48,0.221809
2670.86,0.221102
2672.23,0.222067
2673.61,0.223399
2674.99,0.222803
2676.37,0.22168
2677.76,0.221721
2679.14,0.220699
2680.52,0.220097
2681.91,0.221036
2683.3,0.220509
2684.69,0.21958
2686.08,0.219074
2687.47,0.219877
2688.87,0.219552
2690.26,0.219452
2691.66,0.219595
2693.06,0.218568
2694.46,0.217495
2695.86,0.216847
2697.26,0.216612
2698.66,0.217502
2700.07,0.217136
2701.48,0.215528
2702.89,0.213799
2704.3,0.213424
2705.71,0.213661
2707.12,0.21319
2708.53,0.212802
2709.95,0.212454
2711.37,0.210656
2712.79,0.211704
2714.21,0.211088
2715.63,0.210065
2717.05,0.210301
2718.48,0.209452
2719.9,0.207747
2721.33,0.205692
2722.76,0.204825
2724.19,0.203859
2725.62,0.203146
2727.06,0.202478
2728.49,0.201769
2729.93,0.200633
2731.37,0.199015
2732.81,0.199034
2734.25,0.198684
2735.69,0.197319
2737.14,0.196287
2738.58,0.194554
2740.03,0.191322
2741.48,0.190113
2742.93,0.190038
2744.38,0.189241
2745.83,0.188996
2747.29,0.187963
2748.75,0.186241
2750.2,0.184841
2751.66,0.183235
2753.13,0.181062
2754.59,0.178344
2756.05,0.176604
2757.52,0.17696
2758.99,0.176293
2760.46,0.174809
2761.93,0.17357
2763.4,0.172413
2764.87,0.170633
2766.35,0.168586
2767.82,0.167451
2769.3,0.16571
2770.78,0.164249
2772.26,0.162512
2773.75,0.160043
2775.23,0.158119
2776.72,0.156867
2778.21,0.155485
2779.7,0.153627
2781.19,0.151874
2782.68,0.15083
2784.18,0.148867
2785.67,0.14717
2787.17,0.145265
2788.67,0.143724
2790.17,0.142
2791.67,0.140355
2793.18,0.138784
2794.68,0.136944
2796.19,0.135318
2797.7,0.133173
2799.21,0.130806
2800.72,0.128871
2802.24,0.127293
2803.75,0.125117
2805.27,0.123354
2806.79,0.122233
2808.31,0.120969
2809.83,0.118812
2811.35,0.116834
2812.88,0.115733
2814.41,0.113862
2815.93,0.111922
2817.46,0.1108
2819.0,0.109352
2820.53,0.106982
2822.07,0.105485
2823.6,0.103449
2825.14,0.101175
2826.68,0.099996
2828.22,0.099271
2829.77,0.096747
2831.31,0.095754
2832.86,0.094955
2834.41,0.093133
2835.96,0.090961
2837.51,0.089694
2839.07,0.088595
2840.62,0.086251
2842.18,0.084367
2843.74,0.083679
2845.3,0.082214
2846.86,0.081066
2848.43,0.079507
2849.99,0.076992
2851.56,0.075509
2853.13,0.074543
2854.7,0.07372
2856.27,0.072337
2857.85,0.071655
2859.42,0.070853
2861.0,0.069161
2862.58,0.067679
2864.16,0.066572
2865.75,0.065363
2867.33,0.064603
2868.92,0.063546
2870.51,0.061461
2872.1,0.06037
2873.69,0.059349
2875.28,0.058069
2876.88,0.057406
2878.48,0.056552
2880.07,0.055245
2881.68,0.05425
2883.28,0.053908
2884.88,0.052747
2886.49,0.05231
2888.1,0.051469
2889.71,0.050857
2891.32,0.050561
2892.93,0.048954
2894.55,0.046744
2896.16,0.046576
2897.78,0.047104
2899.4,0.046762
2901.03,0.045891
2902.65,0.044605
2904.28,0.043913
2905.91,0.043406
2907.54,0.043066
2909.17,0.041598
2910.8,0.0409
2912.44,0.041425
2914.07,0.041199
2915.71,0.040083
2917.35,0.039434
2918.99,0.03858
2920.64,0.038061
2922.29,0.038541
2923.93,0.039056
2925.58,0.038663
2927.24,0.03838
2928.89,0.037976
2930.55,0.0373
2932.2,0.037178
2933.86,0.036994
2935.52,0.036753
2937.19,0.037339
2938.85,0.037486
2940.52,0.036831
2942.19,0.036354
2943.86,0.036078
2945.53,0.034994
2947.21,0.033895
2948.88,0.034238
2950.56,0.034175
2952.24,0.03373
2953.92,0.033766
2955.61,0.033684
2957.29,0.033508
2958.98,0.033288
2960.67,0.033168
2962.36,0.033012
2964.06,0.032566
2965.75,0.031999
2967.45,0.032078
2969.15,0.032211
2970.85,0.032024
2972.55,0.031636
2974.26,0.031608
2975.97,0.031155
2977.68,0.031024
2979.39,0.031291
2981.1,0.031392
2982.82,0.031325
2984.53,0.031059
2986.25,0.031279
2987.97,0.031175
2989.7,0.031273
2991.42,0.031381
2993.15,0.030541
2994.88,0.030042
2996.61,0.030222
2998.34,0.03017
3000.08,0.029989
3001.82,0.030494
3003.55,0.030415
3005.3,0.029572
3007.04,0.029368
3008.78,0.029728
3010.53,0.029228
3012.28,0.028845
3014.03,0.029357
3015.79,0.029729
3017.54,0.030053
3019.3,0.030529
3021.06,0.029955
3022.82,0.029171
3024.58,0.029107
3026.35,0.029628
3028.12,0.029719
3029.89,0.029077
3031.66,0.028689
3033.43,0.028663
3035.21,0.028932
3036.99,0.030002
3038.77,0.030205
3040.55,0.029479
3042.33,0.029078
3044.12,0.029201
3045.91,0.028994
3047.7,0.028943
3049.49,0.029119
3051.29,0.029393
3053.08,0.029418
3054.88,0.029224
3056.68,0.029344
3058.49,0.02936
3060.29,0.029217
3062.1,0.028961
3063.91,0.029349
3065.72,0.029286
3067.54,0.029266
3069.35,0.029824
3071.17,0.029922
3072.99,0.029426
3074.81,0.029632
3076.64,0.030311
3078.47,0.030803
3080.29,0.030735
3082.13,0.030066
3083.96,0.02986
3085.79,0.030907
3087.63,0.031375
3089.47,0.030813
3091.31,0.030877
3093.16,0.031832
3095.01,0.032137
3096.85,0.031983
3098.71,0.031891
3100.56,0.031627
3102.41,0.032305
3104.27,0.032406
3106.13,0.032173
3107.99,0.032525
3109.86,0.032898
3111.73,0.032442
3113.59,0.032336
3115.47,0.033123
3117.34,0.033758
3119.21,0.033898
3121.09,0.034137
3122.97,0.034527
3124.86,0.034687
3126.74,0.034777
3128.63,0.035219
3130.52,0.035466
3132.41,0.035441
3134.3,0.035698
3136.2,0.036135
3138.1,0.036664
3140.0,0.036875
3141.9,0.036963
3143.81,0.037348
3145.71,0.037869
3147.62,0.038093
3149.54,0.03811
3151.45,0.038296
3153.37,0.038213
3155.29,0.037881
3157.21,0.03788
3159.13,0.038154
3161.06,0.038551
3162.99,0.039208
3164.92,0.039157
3166.85,0.03921
3168.79,0.039892
3170.72,0.039731
3172.67,0.039474
3174.61,0.040373
3176.55,0.040789
3178.5,0.040581
3180.45,0.040906
3182.4,0.041592
3184.36,0.041417
3186.32,0.041278
3188.27,0.042031
3190.24,0.042031
3192.2,0.042247
3194.17,0.042928
3196.14,0.04322
3198.11,0.04343
3200.08,0.042872
3202.06,0.042788
3204.04,0.043231
3206.02,0.043253
3208.0,0.043269
3209.99,0.043618
3211.98,0.044372
3213.97,0.044707
3215.96,0.044463
3217.96,0.044515
3219.96,0.044326
3221.96,0.044938
3223.96,0.046105
3225.97,0.046477
3227.98,0.046728
3229.99,0.046937
3232.0,0.047148
3234.02,0.047139
3236.04,0.04712
3238.06,0.047622
3240.08,0.047987
3242.11,0.048083
3244.14,0.048126
3246.17,0.048514
3248.2,0.048684
3250.24,0.04831
3252.28,0.048934
3254.32,0.049328
3256.37,0.049139
3258.41,0.049426
3260.46,0.049421
3262.51,0.049784
3264.57,0.050324
3266.63,0.050428
3268.69,0.05055
3270.75,0.05105
3272.81,0.05148
3274.88,0.05141
3276.95,0.051973
3279.02,0.052561
3281.1,0.052581
3283.18,0.052489
3285.26,0.053409
3287.34,0.054457
3289.43,0.055037
3291.51,0.055144
3293.61,0.054554
3295.7,0.054763
3297.8,0.055499
3299.9,0.055899
3302.0,0.056064
3304.1,0.056045
3306.21,0.056566
3308.32,0.056572
3310.43,0.056749
3312.55,0.057195
3314.66,0.058111
3316.79,0.058717
3318.91,0.058776
3321.03,0.059493
3323.16,0.06019
3325.29,0.059864
3327.43,0.059636
3329.57,0.060064
3331.71,0.060977
3333.85,0.06142
3335.99,0.061366
3338.14,0.061469
3340.29,0.062218
3342.45,0.062848
3344.6,0.062736
3346.76,0.063035
3348.92,0.063279
3351.09,0.064034
3353.26,0.065593
3355.43,0.066033
3357.6,0.065813
3359.78,0.065897
3361.96,0.066042
3364.14,0.066093
3366.32,0.066669
3368.51,0.066957
3370.7,0.067188
3372.89,0.067711
3375.09,0.068469
3377.29,0.06897
3379.49,0.069537
3381.69,0.070277
3383.9,0.070061
3386.11,0.069954
3388.32,0.070335
3390.54,0.070653
3392.76,0.071331
3394.98,0.071721
3397.21,0.071946
3399.43,0.072464
3401.66,0.072968
3403.9,0.073059
3406.13,0.073447
3408.37,0.073912
3410.61,0.074401
3412.86,0.075261
3415.11,0.075476
3417.36,0.0759
3419.61,0.076974
3421.87,0.07757
3424.13,0.077673
3426.39,0.077849
3428.66,0.077924
3430.93,0.077853
3433.2,0.078438
3435.48,0.079603
3437.76,0.080254
3440.04,0.080349
3442.32,0.080668
3444.61,0.08088
3446.9,0.081011
3449.19,0.08126
3451.49,0.081959
3453.79,0.082186
3456.09,0.082047
3458.4,0.082912
3460.7,0.083646
3463.02,0.083661
3465.33,0.084041
3467.65,0.084223
3469.97,0.084153
3472.29,0.084687
3474.62,0.085631
3476.95,0.08596
3479.29,0.086321
3481.62,0.086978
3483.96,0.086993
3486.3,0.086972
3488.65,0.087333
3491.0,0.087523
3493.35,0.087933
3495.71,0.088558
3498.07,0.089
3500.43,0.088786
3502.79,0.088791
3505.16,0.089481
3507.53,0.090386
3509.91,0.090842
3512.29,0.091156
3514.67,0.091456
3517.05,0.09125
3519.44,0.091548
3521.83,0.092167
3524.23,0.092778
3526.62,0.093418
3529.02,0.093627
3531.43,0.093681
3533.83,0.094141
3536.24,0.094621
3538.66,0.094875
3541.08,0.094944
3543.5,0.094985
3545.92,0.095343
3548.35,0.096034
3550.78,0.096845
3553.21,0.097188
3555.65,0.097039
3558.09,0.097533
3560.53,0.09823
3562.98,0.098609
3565.43,0.098807
3567.88,0.099036
3570.34,0.099159
3572.8,0.099003
3575.27,0.099557
3577.73,0.100354
3580.2,0.100745
3582.68,0.101455
3585.16,0.101768
3587.64,0.101882
3590.12,0.101771
3592.61,0.101991
3595.1,0.102411
3597.6,0.102889
3600.09,0.103023
3602.6,0.103136
3605.1,0.103702
3607.61,0.104112
3610.12,0.104144
3612.64,0.104623
3615.16,0.105255
3617.68,0.105473
3620.21,0.105664
3622.74,0.106217
3625.27,0.106784
3627.81,0.106897
3630.35,0.107089
3632.89,0.107867
3635.44,0.108167
3637.99,0.108208
3640.54,0.108671
3643.1,0.109158
3645.66,0.109625
3648.23,0.109918
3650.8,0.110363
3653.37,0.110733
3655.95,0.110874
3658.53,0.111465
3661.11,0.112004
3663.7,0.112221
3666.29,0.112643
3668.89,0.113295
3671.48,0.11366
3674.09,0.113865
3676.69,0.11353
3679.3,0.113541
3681.91,0.114255
3684.53,0.11495
3687.15,0.115295
3689.78,0.115641
3692.4,0.116509
3695.04,0.117071
3697.67,0.116854
3700.31,0.116928
3702.95,0.117467
3705.6,0.11792
3708.25,0.118002
3710.91,0.118006
3713.56,0.1184
3716.23,0.119253
3718.89,0.119254
3721.56,0.119549
3724.23,0.120127
3726.91,0.120342
3729.59,0.120665
3732.28,0.121382
3734.97,0.121911
3737.66,0.122089
3740.36,0.12228
3743.06,0.122519
3745.76,0.122761
3748.47,0.123131
3751.18,0.123308
3753.9,0.123621
3756.62,0.123771
3759.34,0.124241
3762.07,0.124701
3764.8,0.125011
3767.54,0.12502
3770.28,0.124839
3773.02,0.125201
3775.77,0.126083
3778.52,0.126491
3781.28,0.126392
3784.04,0.126626
3786.8,0.127362
3789.57,0.127547
3792.34,0.127919
3795.12,0.128262
3797.9,0.128344
3800.69,0.129055
3803.47,0.129514
3806.27,0.129435
3809.06,0.129661
3811.86,0.129451
3814.67,0.129811
3817.48,0.130531
3820.29,0.130586
3823.11,0.130875
3825.93,0.13108
3828.76,0.131038
3831.59,0.131362
3834.42,0.131571
3837.26,0.131825
3840.1,0.132497
3842.95,0.13276
3845.8,0.132937
3848.65,0.13287
3851.51,0.132954
3854.38,0.133433
3857.24,0.133731
3860.12,0.133807
3862.99,0.133814
3865.87,0.134442
3868.76,0.134753
3871.65,0.134856
3874.54,0.135127
3877.44,0.135242
3880.34,0.135479
3883.25,0.136116
3886.16,0.136073
3889.07,0.135717
3891.99,0.135937
3894.92,0.136271
3897.85,0.136475
3900.78,0.136497
3903.72,0.136378
3906.66,0.136495
3909.6,0.136811
3912.55,0.137226
3915.51,0.137253
3918.47,0.137347
3921.43,0.137679
3924.4,0.138069
3927.38,0.138402
3930.35,0.13863
3933.33,0.138426
3936.32,0.138396
3939.31,0.1385
3942.31,0.138898
3945.31,0.139247
3948.31,0.13935
3951.32,0.139545
3954.34,0.139421
3957.35,0.139201
3960.38,0.139145
3963.41,0.139255
3966.44,0.139459
3969.48,0.139807
3972.52,0.140333
3975.56,0.140758
3978.61,0.140724
3981.67,0.140481
3984.73,0.140537
3987.8,0.14057
3990.87,0.140261
3993.94,0.140333
3997.02,0.140734
4000.1,0.14084
4003.19,0.140794
4006.29,0.140672
4009.39,0.140678
4012.49,0.140791
4015.6,0.140941
4018.71,0.140828
4021.83,0.140601
4024.95,0.140709
4028.08,0.141263
4031.21,0.141183
4034.35,0.140542
4037.49,0.140289
4040.64,0.140332
4043.79,0.140626
4046.94,0.140466
4050.11,0.140407
4053.27,0.140398
4056.44,0.140356
4059.62,0.140361
4062.8,0.140111
4065.99,0.140442
4069.18,0.140884
4072.38,0.140708
4075.58,0.140349
4078.78,0.140263
4082.0,0.140145
4085.21,0.139892
4088.43,0.140022
4091.66,0.139826
4094.89,0.139352
4098.13,0.139438
4101.37,0.139685
4104.62,0.139661
4107.87,0.139203
4111.13,0.13924
4114.39,0.139231
4117.66,0.139271
4120.93,0.139362
4124.21,0.139196
4127.5,0.139076
4130.79,0.139153
4134.08,0.139025
4137.38,0.138893
4140.68,0.139094
4143.99,0.139252
4147.31,0.139146
4150.63,0.138931
4153.95,0.138697
4157.29,0.138704
4160.62,0.138696
4163.96,0.138656
4167.31,0.138478
4170.66,0.138551
4174.02,0.138663
4177.39,0.138664
4180.75,0.138489
4184.13,0.138583
4187.51,0.13852
4190.89,0.138369
4194.28,0.138127
4197.68,0.137819
4201.08,0.137775
4204.49,0.137544
4207.9,0.136598
4211.32,0.136102
4214.74,0.136066
4218.17,0.135736
4221.61,0.135348
4225.05,0.135104
4228.5,0.13519
4231.95,0.135387
4235.4,0.135379
4238.87,0.135481
4242.34,0.135541
4245.81,0.135484
4249.29,0.13607
4252.78,0.136579
4256.27,0.136601
4259.77,0.136568
4263.27,0.135782
4266.78,0.135314
4270.29,0.13531
4273.81,0.135567
4277.34,0.135417
4280.87,0.135095
4284.41,0.135151
4287.95,0.135032
4291.5,0.134586
4295.06,0.134576
4298.62,0.134677
4302.19,0.134805
4305.76,0.134424
4309.34,0.134348
4312.92,0.134785
4316.52,0.134857
4320.11,0.134571
4323.72,0.134591
4327.32,0.134699
4330.94,0.134659
4334.56,0.134463
4338.19,0.134576
4341.82,0.134676
4345.46,0.135089
4349.11,0.135501
4352.76,0.135598
4356.42,0.13545
4360.08,0.135061
4363.75,0.135392
4367.43,0.135941
4371.11,0.136099
4374.8,0.136172
4378.49,0.136293
4382.19,0.136355
4385.9,0.136342
4389.61,0.136221
4393.33,0.136007
4397.06,0.136116
4400.79,0.136334
4404.53,0.136316
4408.28,0.136226
4412.03,0.136408
4415.79,0.136317
4419.55,0.136052
4423.32,0.136162
4427.1,0.136347
4430.88,0.136303
4434.68,0.135565
4438.47,0.135098
4442.28,0.135114
4446.08,0.135042
4449.9,0.134998
4453.72,0.134995
4457.55,0.134789
4461.39,0.134366
4465.23,0.134131
4469.08,0.133786
4472.94,0.133248
4476.8,0.133028
4480.67,0.132905
4484.55,0.132449
4488.43,0.132197
4492.32,0.13224
4496.21,0.13225
4500.12,0.132012
4504.03,0.131797
4507.94,0.131448
4511.87,0.131239
4515.8,0.131207
4519.73,0.13129
4523.68,0.131343
4527.63,0.130842
4531.59,0.13077
4535.55,0.131153
4539.52,0.130751
4543.5,0.130347
4547.49,0.130642
4551.48,0.130746
4555.48,0.13038
4559.49,0.13002
4563.5,0.129973
4567.52,0.130333
4571.55,0.130435
4575.58,0.130344
4579.63,0.129981
4583.67,0.129445
4587.73,0.129287
4591.79,0.129614
4595.86,0.129876
4599.94,0.130024
4604.03,0.129963
4608.12,0.130175
4612.22,0.130467
4616.33,0.131019
4620.44,0.131278
4624.56,0.130932
4628.69,0.131048
4632.83,0.131304
4636.97,0.131226
4641.12,0.131064
4645.28,0.131001
4649.45,0.131329
4653.62,0.131399
4657.8,0.131193
4661.99,0.131122
4666.19,0.131279
4670.39,0.131349
4674.6,0.131137
4678.82,0.130706
4683.05,0.130775
4687.28,0.130947
4691.52,0.131138
4695.77,0.131174
4700.03,0.130986
4704.3,0.131049
4708.57,0.131061
4712.85,0.13098
4717.14,0.130881
4721.43,0.130758
4725.74,0.131044
4730.05,0.131331
4734.37,0.131473
4738.7,0.131571
4743.03,0.131695
4747.38,0.131453
4751.73,0.131296
4756.09,0.131062
4760.45,0.130903
4764.83,0.130824
4769.21,0.130626
4773.6,0.130059
4778.0,0.129843
4782.41,0.129555
4786.83,0.129381
4791.25,0.129129
4795.68,0.128749
4800.13,0.128427
4804.57,0.128328
4809.03,0.128235
4813.5,0.128302
4817.97,0.128556
4822.45,0.12883
4826.94,0.129056
4831.44,0.129472
4835.95,0.129857
4840.46,0.130208
4844.99,0.130628
4849.52,0.131235
4854.06,0.131459
4858.61,0.131466
4863.17,0.131786
4867.73,0.131956
4872.31,0.132215
4876.89,0.132373
4881.48,0.132404
4886.08,0.132553
4890.69,0.132481
4895.31,0.132488
4899.94,0.132325
4904.57,0.132301
4909.22,0.132285
4913.87,0.132412
4918.53,0.13244
4923.21,0.132357
4927.88,0.132583
4932.57,0.132516
4937.27,0.132415
4941.98,0.132668
4946.69,0.132796
4951.42,0.133382
4956.15,0.133747
4960.9,0.133741
4965.65,0.134022
4970.41,0.1347
4975.18,0.135078
4979.96,0.135472
4984.75,0.13566
4989.54,0.135823
4994.35,0.136102
4999.17,0.136222
5003.99,0.136216
5008.83,0.136674
5013.67,0.136816
5018.52,0.136699
5023.39,0.13717
5028.26,0.137629
5033.14,0.137802
5038.03,0.137931
5042.93,0.138206
5047.84,0.138473
5052.76,0.138823
5057.69,0.139189
5062.63,0.139351
5067.58,0.139645
5072.54,0.139805
5077.51,0.139919
5082.49,0.140184
5087.47,0.140611
5092.47,0.141018
5097.48,0.141304
5102.5,0.141462
5107.52,0.1414
5112.56,0.141537
5117.61,0.142102
5122.66,0.142588
5127.73,0.142705
5132.81,0.142894
5137.89,0.143215
5142.99,0.143351
5148.1,0.143357
5153.22,0.143502
5158.34,0.143911
5163.48,0.143909
5168.63,0.14411
5173.79,0.144748
5178.96,0.144907
5184.13,0.144768
5189.32,0.145064
5194.52,0.14504
5199.73,0.145082
5204.96,0.145114
5210.19,0.145515
5215.43,0.145627
5220.68,0.145299
5225.94,0.145046
5231.22,0.14532
5236.5,0.145472
5241.79,0.145833
5247.1,0.146008
5252.42,0.145623
5257.74,0.145401
5263.08,0.145597
5268.43,0.145468
5273.79,0.145185
5279.16,0.144913
5284.54,0.144935
5289.93,0.144602
5295.34,0.144058
5300.75,0.143903
5306.18,0.144162
5311.61,0.143937
5317.06,0.143497
5322.52,0.143004
5327.99,0.142657
5333.47,0.142543
5338.96,0.142356
5344.47,0.142203
5349.98,0.141871
5355.51,0.141198
5361.05,0.140952
5366.6,0.140594
5372.16,0.13998
5377.73,0.139757
5383.32,0.13963
5388.91,0.138834
5394.52,0.138235
5400.14,0.138121
5405.77,0.137814
5411.41,0.137254
5417.07,0.136827
5422.74,0.135887
5428.41,0.135374
5434.1,0.135156
5439.81,0.134555
5445.52,0.134167
5451.25,0.133877
5456.98,0.133286
5462.73,0.132434
5468.5,0.132008
5474.27,0.131913
5480.06,0.131017
5485.86,0.130589
5491.67,0.130437
5497.49,0.129726
5503.33,0.128898
5509.18,0.128412
5515.04,0.127916
5520.91,0.127335
5526.8,0.126959
5532.69,0.126477
5538.61,0.125672
5544.53,0.124981
5550.47,0.124036
5556.41,0.123121
5562.38,0.122325
5568.35,0.121395
5574.34,0.12063
5580.34,0.119713
5586.35,0.119302
5592.38,0.119135
5598.42,0.118371
5604.47,0.117164
5610.54,0.116014
5616.61,0.115617
5622.71,0.115005
5628.81,0.114116
5634.93,0.112721
5641.06,0.111398
5647.21,0.110576
5653.36,0.110173
5659.54,0.109405
5665.72,0.10854
5671.92,0.107994
5678.13,0.107086
5684.36,0.106143
5690.6,0.105526
5696.85,0.104877
5703.12,0.104367
5709.4,0.103396
5715.69,0.102505
5722.0,0.10184
5728.33,0.101677
5734.66,0.101272
5741.01,0.10095
5747.38,0.100268
5753.76,0.099504
5760.15,0.099054
5766.56,0.097982
5772.98,0.097629
5779.41,0.097878
5785.86,0.097167
5792.33,0.096333
5798.81,0.095862
5805.3,0.095272
5811.81,0.094584
5818.33,0.094033
5824.87,0.093324
5831.42,0.092913
5837.99,0.09273
5844.57,0.092605
5851.17,0.092053
5857.78,0.091487
5864.41,0.090763
5871.05,0.089982
5877.7,0.089509
5884.38,0.088673
5891.06,0.088361
5897.76,0.088218
5904.48,0.087703
5911.21,0.087434
5917.96,0.08689
5924.73,0.086255
5931.5,0.085683
5938.3,0.084733
5945.11,0.084132
5951.93,0.084228
5958.78,0.083686
5965.63,0.082939
5972.51,0.081843
5979.39,0.081116
5986.3,0.080373
5993.22,0.079358
6000.16,0.078279
6007.11,0.077271
6014.08,0.076134
6021.06,0.075044
6028.06,0.074038
6035.08,0.07309
6042.12,0.072034
6049.17,0.070751
6056.23,0.070334
6063.32,0.06998
6070.42,0.069153
6077.53,0.068867
6084.67,0.069078
6091.82,0.069573
6098.98,0.070117
6106.17,0.071174
6113.37,0.071931
6120.58,0.072913
6127.82,0.074296
6135.07,0.074907
6142.34,0.075521
6149.63,0.076702
6156.93,0.07725
6164.25,0.0775
6171.59,0.078077
6178.95,0.078712
6186.32,0.079095
6193.71,0.079174
6201.12,0.079875
6208.54,0.080617
6215.99,0.081178
6223.45,0.081756
6230.93,0.082867
6238.43,0.083674
6245.95,0.084638
6253.48,0.085975
6261.03,0.087334
6268.6,0.088542
6276.19,0.089904
6283.8,0.091019
6291.43,0.092404
6299.07,0.093879
6306.73,0.095392
6314.42,0.096496
6322.12,0.097328
6329.84,0.098375
6337.57,0.098905
6345.33,0.098695
6353.11,0.099364
6360.9,0.100199
6368.72,0.10062
6376.55,0.100883
6384.4,0.101224
6392.27,0.101198
6400.17,0.101416
6408.08,0.101507
6416.01,0.101026
6423.96,0.101461
6431.93,0.101589
6439.92,0.101192
6447.93,0.101046
6455.96,0.100642
6464.01,0.10037
6472.08,0.099824
6480.17,0.099096
6488.28,0.098437
6496.41,0.097077
6504.56,0.096001
6512.73,0.095758
6520.92,0.094517
6529.14,0.09292
6537.37,0.091875
6545.63,0.090452
6553.9,0.089074
6562.2,0.087714
6570.51,0.085945
6578.85,0.084038
6587.21,0.082922
6595.59,0.081682
6603.99,0.080303
6612.42,0.079145
6620.86,0.077873
6629.33,0.076502
6637.82,0.075096
6646.33,0.073653
6654.86,0.072747
6663.41,0.072014
6671.99,0.071111
6680.59,0.070339
6689.21,0.070164
6697.85,0.070114
6706.51,0.070044
6715.2,0.07041
6723.91,0.071366
6732.64,0.072364
6741.4,0.073204
6750.18,0.074269
6758.98,0.07546
6767.8,0.076413
6776.65,0.077203
6785.52,0.078323
6794.41,0.079606
6803.33,0.081331
6812.27,0.083077
6821.23,0.084506
6830.22,0.085597
6839.23,0.087251
6848.26,0.088891
6857.32,0.090005
6866.4,0.090995
6875.51,0.092724
6884.64,0.093989
6893.8,0.095043
6902.98,0.096126
6912.18,0.096845
6921.41,0.097281
6930.66,0.09792
6939.94,0.09836
6949.24,0.098717
6958.57,0.098828
6967.92,0.098798
6977.3,0.098775
6986.7,0.099067
6996.13,0.099399
7005.59,0.099527
7015.07,0.099315
7024.57,0.098793
7034.1,0.098705
7043.66,0.098818
7053.25,0.098808
7062.85,0.098887
7072.49,0.098766
7082.15,0.098631
7091.84,0.09848
7101.55,0.098446
7111.3,0.098101
7121.06,0.097685
7130.86,0.097287
7140.68,0.097001
7150.53,0.096561
7160.41,0.096065
7170.31,0.09556
7180.24,0.094951
7190.2,0.094259
7200.19,0.093727
7210.2,0.093081
7220.24,0.092556
7230.31,0.092058
7240.41,0.091478
7250.54,0.091051
7260.69,0.090367
7270.88,0.089567
7281.09,0.089
7291.33,0.088671
7301.6,0.088114
7311.9,0.087042
7322.22,0.086388
7332.58,0.086009
7342.97,0.085503
7353.38,0.084967
7363.83,0.0844
7374.3,0.083863
7384.81,0.083251
7395.34,0.082867
7405.91,0.08227
7416.5,0.081418
7427.13,0.080855
7437.78,0.080211
7448.47,0.079543
7459.19,0.078544
7469.94,0.07741
7480.71,0.076569
7491.52,0.076034
7502.37,0.075128
7513.24,0.074243
7524.14,0.073473
7535.08,0.072665
7546.05,0.071582
7557.05,0.070152
7568.08,0.06916
7579.15,0.068319
7590.24,0.067545
7601.37,0.06651
7612.53,0.065738
7623.73,0.065109
7634.96,0.064401
7646.22,0.063793
7657.51,0.062812
7668.84,0.061939
7680.2,0.061547
7691.59,0.060737
7703.02,0.05993
7714.49,0.05901
7725.98,0.058081
7737.52,0.057233
7749.08,0.056593
7760.68,0.056306
7772.32,0.055655
7783.99,0.054898
7795.69,0.054505
7807.43,0.053733
7819.21,0.053102
7831.02,0.052567
7842.87,0.052039
7854.75,0.051498
7866.67,0.050904
7878.62,0.050494
7890.62,0.050371
7902.64,0.049652
7914.71,0.049171
7926.81,0.049332
7938.95,0.04954
7951.13,0.049332
7963.34,0.049345
7975.59,0.049548
7987.88,0.049685
8000.21,0.050333
8012.57,0.051036
8024.98,0.051337
8037.42,0.051552
8049.9,0.052176
8062.42,0.053126
8074.98,0.053915
8087.57,0.055031
8100.21,0.055703
8112.89,0.056049
8125.6,0.056798
8138.36,0.05744
8151.16,0.057866
8163.99,0.058323
8176.87,0.058524
8189.79,0.058687
8202.75,0.058471
8215.75,0.058245
8228.79,0.05827
8241.87,0.058228
8254.99,0.058068
8268.16,0.057693
8281.37,0.057068
8294.62,0.056381
8307.91,0.055197
8321.24,0.054384
8334.62,0.053696
8348.04,0.052839
8361.51,0.051969
8375.02,0.051146
8388.57,0.050307
8402.16,0.050216
8415.8,0.049945
8429.49,0.049525
8443.22,0.049315
8456.99,0.048926
8470.81,0.048402
8484.67,0.048087
8498.58,0.047576
8512.54,0.047366
8526.54,0.047358
8540.58,0.047122
8554.68,0.046851
8568.82,0.046652
8583.0,0.046465
8597.24,0.046498
8611.52,0.045972
8625.85,0.045822
8640.23,0.046092
8654.65,0.046064
8669.12,0.045845
8683.64,0.046341
8698.21,0.046895
8712.83,0.046532
8727.5,0.045996
8742.22,0.046138
8756.99,0.046403
8771.8,0.046765
8786.67,0.046608
8801.59,0.04642
8816.56,0.046189
8831.58,0.045529
8846.65,0.045493
8861.77,0.045869
8876.94,0.045776
8892.17,0.045572
8907.45,0.045234
8922.78,0.044907
8938.16,0.044607
8953.6,0.044597
8969.09,0.044507
8984.64,0.044863
9000.23,0.044907
9015.89,0.044964
9031.59,0.045155
9047.36,0.045096
9063.17,0.045537
9079.05,0.045766
9094.97,0.045869
9110.96,0.046222
9127.0,0.046072
9143.1,0.045962
9159.25,0.045665
9175.46,0.04498
9191.73,0.044819
9208.06,0.045139
9224.44,0.044667
9240.88,0.044122
9257.38,0.043744
9273.94,0.043598
9290.56,0.043813
9307.24,0.043877
9323.98,0.043599
9340.78,0.043537
9357.64,0.044015
9374.57,0.043984
9391.55,0.044049
9408.59,0.044679
9425.7,0.044906
9442.87,0.04415
9460.1,0.043959
9477.4,0.044506
9494.75,0.044549
9512.17,0.044324
9529.66,0.044248
9547.21,0.044611
9564.83,0.045401
9582.5,0.046355
9600.25,0.046858
9618.06,0.047183
9635.94,0.047032
9653.88,0.046828
9671.89,0.046948
9689.97,0.046985
9708.12,0.046647
9726.33,0.04659
9744.62,0.046518
9762.97,0.045235
9781.39,0.043565
9799.88,0.042213
9818.44,0.041404
9837.07,0.042589
9855.77,0.04473
9874.54,0.047256
9893.39,0.049782
9912.3,0.052428
9931.29,0.054907
9950.36,0.057611
9969.49,0.060023
9988.7,0.062311
10007.98,0.064245
10027.34,0.065613
10046.77,0.066874
10066.28,0.068285
10085.87,0.069575
10105.53,0.070695
10125.26,0.072478
10145.08,0.073786
10164.97,0.074308
10184.94,0.075107
10204.99,0.075757
10225.12,0.076216
10245.33,0.077073
10265.61,0.077561
10285.98,0.077869
10306.43,0.078048
10326.96,0.078053
10347.57,0.078457
10368.27,0.079193
10389.05,0.079497
10409.91,0.079751
10430.86,0.080003
10451.88,0.080311
10473.0,0.080275
10494.2,0.080694
10515.49,0.081272
10536.86,0.081494
10558.32,0.081482
10579.87,0.081909
10601.5,0.082352
10623.23,0.082205
10645.04,0.082002
10666.94,0.082246
10688.94,0.082731
10711.02,0.08284
10733.2,0.083167
10755.47,0.083116
10777.83,0.082919
10800.28,0.083555
10822.83,0.08394
10845.47,0.083693
10868.21,0.08304
10891.04,0.082742
10913.97,0.082368
10936.99,0.082234
10960.12,0.082425
10983.34,0.082179
11006.66,0.081535
11030.07,0.081241
11053.59,0.081349
11077.21,0.081065
11100.93,0.080683
11124.75,0.080573
11148.68,0.080092
11172.71,0.078914
11196.84,0.078328
11221.07,0.077867
11245.41,0.076624
11269.86,0.075737
11294.41,0.075474
11319.07,0.074501
11343.84,0.073676
11368.72,0.072566
11393.7,0.071451
11418.8,0.070292
11444.01,0.068933
11469.33,0.067782
11494.76,0.066511
11520.3,0.064731
11545.96,0.063628
11571.73,0.061896
11597.62,0.059726
11623.62,0.058179
11649.74,0.056535
11675.98,0.054991
11702.34,0.053448
11728.81,0.051714
11755.41,0.05055
11782.13,0.04912
11808.96,0.047041
11835.92,0.045884
11863.01,0.045191
11890.22,0.044873
11917.55,0.044229
11945.01,0.043941
11972.6,0.043485
12000.31,0.043032
12028.16,0.042945
12056.13,0.042909
12084.23,0.043093
12112.46,0.043934
12140.83,0.044605
12169.33,0.045201
12197.96,0.045903
12226.73,0.046432
12255.64,0.047496
12284.68,0.048204
12313.86,0.048665
12343.18,0.049588
12372.64,0.050609
12402.24,0.051827
12431.98,0.053141
12461.86,0.054403
12491.89,0.055497
12522.07,0.056695
12552.38,0.057532
12582.85,0.058157
12613.47,0.059055
12644.23,0.060636
12675.15,0.061555
12706.21,0.061784
12737.43,0.062123
12768.81,0.062921
12800.33,0.063748
12832.02,0.064498
12863.86,0.065116
12895.86,0.065543
12928.02,0.066019
12960.34,0.066724
12992.82,0.067186
13025.46,0.067207
13058.27,0.067382
13091.25,0.067655
13124.39,0.068439
13157.7,0.068411
13191.18,0.067797
13224.83,0.067679
13258.66,0.067939
13292.65,0.068019
13326.83,0.068283
13361.17,0.068992
13395.7,0.069462
13430.4,0.069955
13465.29,0.069719
13500.35,0.069865
13535.6,0.070125
13571.03,0.07052
13606.65,0.07054
13642.46,0.070943
13678.46,0.071443
13714.64,0.07068
13751.02,0.069562
13787.59,0.06924
13824.36,0.069346
13861.32,0.06986
13898.49,0.070034
13935.85,0.069284
13973.41,0.068038
14011.17,0.067877
14049.15,0.067067
14087.32,0.066537
14125.71,0.067209
14164.3,0.066155
14203.11,0.065058
14242.13,0.065133
14281.36,0.064532
14320.81,0.063855
14360.49,0.063298
14400.38,0.061877
14440.49,0.060579
14480.82,0.059099
14521.39,0.0578
14562.18,0.056976
14603.2,0.055588
14644.45,0.052852
14685.93,0.05086
14727.66,0.049438
14769.62,0.046495
14811.81,0.04327
14854.25,0.040257
14896.94,0.037071
14939.87,0.034415
14983.05,0.033439
15026.48,0.033918
15070.16,0.035185
15114.1,0.036962
15158.29,0.03878
15202.74,0.040276
15247.46,0.042138
15292.43,0.043675
15337.68,0.044316
15383.19,0.045741
15428.97,0.047007
15475.03,0.047781
15521.36,0.048049
15567.97,0.047665
15614.87,0.047
15662.04,0.046106
15709.5,0.045093
15757.25,0.043613
15805.29,0.041429
15853.62,0.038919
15902.26,0.036597
15951.19,0.035455
16000.42,0.035306
16049.95,0.036792
16099.8,0.038786
16149.95,0.039933
16200.42,0.04119
16251.21,0.04214
16302.31,0.041834
16353.74,0.040776
16405.49,0.040156
16457.57,0.039488
16509.98,0.037924
16562.73,0.036923
16615.82,0.037402
16669.24,0.039155
16723.02,0.040075
16777.14,0.039777
16831.61,0.039562
16886.43,0.039163
16941.62,0.039342
16997.16,0.040222
17053.08,0.041415
17109.36,0.041756
17166.01,0.041079
17223.04,0.040717
17280.45,0.041337
17338.24,0.040586
17396.43,0.039734
17455.0,0.040244
17513.97,0.039954
17573.34,0.039549
17633.11,0.040032
17693.29,0.039739
17753.89,0.039235
17814.9,0.03919
17876.33,0.038637
17938.18,0.037829
18000.47,0.037032
18063.19,0.036686
18126.35,0.037546
18189.95,0.038298
18254.0,0.038736
18318.5,0.039138
18383.46,0.038675
18448.88,0.038143
18514.77,0.037242
18581.13,0.038632
18647.97,0.040468
18715.29,0.040452
18783.1,0.041243
18851.4,0.041333
18920.2,0.041226
18989.51,0.041098
19059.32,0.040891
19129.65,0.040832
19200.5,0.042202
19271.88,0.043766
19343.79,0.043536
19416.24,0.042968
19489.23,0.042999
19562.77,0.045052
19636.88,0.047216
19711.54,0.046836
19786.78,0.047811
19862.59,0.049787
19938.98,0.050279
20015.96,0.050668
20093.55,0.050187
20171.73,0.050016
20250.53,0.050934
20329.94,0.05161
20409.98,0.052078
20490.65,0.052198
20571.96,0.051928
20653.92,0.052263
20736.54,0.052845
20819.82,0.053705
20903.77,0.056158
20988.4,0.058088
21073.72,0.057007
21159.73,0.055232
21246.46,0.053093
21333.89,0.052135
21422.04,0.053316
21510.93,0.055039
21600.56,0.05503
21690.94,0.05535
21782.08,0.056611
21873.99,0.05747
21966.67,0.056198
22060.15,0.05495
22154.42,0.055887
22249.51,0.05512
22345.41,0.055628
22442.14,0.054904
22539.72,0.053312
22638.14,0.052499
22737.43,0.050885
22837.6,0.049695
22938.65,0.04758
23040.6,0.043277
23143.46,0.040417
23247.24,0.042859
23351.96,0.042729
23457.63,0.043702
23564.25,0.047296
23671.85,0.047203
23780.44,0.041654
23890.02,0.042791
24000.63,0.047813
24112.26,0.049936
24224.93,0.051189
24338.66,0.052546
24453.47,0.05545
24569.36,0.052659
24686.36,0.052443
24804.47,0.059402
24923.73,0.063973
25044.13,0.060621
25165.71,0.050965
25288.46,0.048874
25412.43,0.053256
25537.61,0.053468
25664.04,0.056076
25791.72,0.058182
25920.68,0.053419
