Database of Origin,University of Winnipeg Spectrophotometer Facility
Sample Description,8. Sulfates: RELAB + Nicolet spectra / Spectra all made consistently merged: Jan. / 10 / 2005
Date Added,2016-07-15 22:05:54.707165

Data ID,RPN_SUL_05          
Sample ID,SPT101
Mineral Name,Mascagnite
Grain Size,<45
Viewing Geometry,30 / 0 | 30
Resolution,5 / 1.3-129
Material Class,Sulfate

Wavelength
305.0,0.119828
310.0,0.120568
315.0,0.123241
320.0,0.128472
325.0,0.135965
330.0,0.145738
335.0,0.158003
340.0,0.174775
345.0,0.19326
350.0,0.216063
355.0,0.242912
360.0,0.273232
365.0,0.305704
370.0,0.340039
375.0,0.376462
380.0,0.412767
385.0,0.450089
390.0,0.481496
395.0,0.51214
400.0,0.536356
405.0,0.554027
410.0,0.573152
415.0,0.590867
420.0,0.605067
425.0,0.615571
430.0,0.623472
435.0,0.629798
440.0,0.635529
445.0,0.640036
450.0,0.642903
455.0,0.648328
460.0,0.649444
465.0,0.654998
470.0,0.660439
475.0,0.669326
480.0,0.677754
485.0,0.687397
490.0,0.693253
495.0,0.704275
500.0,0.711181
505.0,0.720832
510.0,0.724366
515.0,0.733371
520.0,0.738091
525.0,0.74443
530.0,0.7465
535.0,0.751809
540.0,0.756304
545.0,0.761464
550.0,0.766069
555.0,0.770156
560.0,0.773329
565.0,0.778719
570.0,0.779999
575.0,0.782606
580.0,0.788148
585.0,0.792511
590.0,0.796042
595.0,0.799083
600.0,0.802711
605.0,0.804465
610.0,0.807988
615.0,0.811983
620.0,0.814378
625.0,0.820111
630.0,0.821194
635.0,0.823526
640.0,0.82742
645.0,0.829991
650.0,0.833005
655.0,0.838161
660.0,0.839156
665.0,0.843851
670.0,0.845278
675.0,0.849837
680.0,0.851369
685.0,0.852088
690.0,0.856513
695.0,0.855666
700.0,0.861037
705.0,0.860445
710.0,0.865152
715.0,0.864237
720.0,0.869053
725.0,0.870843
730.0,0.868775
735.0,0.87276
740.0,0.872877
745.0,0.875553
750.0,0.876625
755.0,0.878136
760.0,0.878843
765.0,0.879266
770.0,0.881343
775.0,0.881882
780.0,0.881684
785.0,0.883664
790.0,0.885222
795.0,0.885583
800.0,0.885479
805.0,0.886368
810.0,0.886531
815.0,0.887179
820.0,0.887955
825.0,0.888331
830.0,0.889161
835.0,0.889857
840.0,0.89026
845.0,0.891803
850.0,0.892978
855.0,0.893122
860.0,0.894547
865.0,0.896055
870.0,0.89658
875.0,0.897588
880.0,0.897187
885.0,0.898961
890.0,0.894139
895.0,0.897965
900.0,0.898929
905.0,0.897788
910.0,0.89673
915.0,0.900241
920.0,0.898306
925.0,0.901608
930.0,0.901389
935.0,0.905773
940.0,0.904685
945.0,0.905138
950.0,0.908709
955.0,0.910334
960.0,0.909263
965.0,0.912265
970.0,0.91079
975.0,0.912166
980.0,0.913019
985.0,0.91487
990.0,0.912996
995.0,0.913831
1000.0,0.91423
1005.0,0.912253
1010.0,0.913685
1015.0,0.9162
1020.0,0.910916
1025.0,0.911572
1030.0,0.911293
1035.0,0.90929
1040.0,0.908566
1045.0,0.90363
1050.0,0.901386
1055.0,0.898987
1060.0,0.902533
1065.0,0.900965
1070.0,0.900201
1075.0,0.902828
1080.0,0.906278
1085.0,0.907236
1090.0,0.908442
1095.0,0.910633
1100.0,0.911653
1105.0,0.914865
1110.0,0.914243
1115.0,0.917499
1120.0,0.91685
1125.0,0.919249
1130.0,0.919075
1135.0,0.919903
1140.0,0.920822
1145.0,0.921813
1150.0,0.92006
1155.0,0.923472
1160.0,0.920658
1165.0,0.920173
1170.0,0.917881
1175.0,0.920234
1180.0,0.916396
1185.0,0.915729
1190.0,0.914343
1195.0,0.91269
1200.0,0.910564
1205.0,0.905443
1210.0,0.897337
1215.0,0.894629
1220.0,0.88378
1225.0,0.87863
1230.0,0.869491
1235.0,0.86882
1240.0,0.86129
1245.0,0.859407
1250.0,0.855151
1255.0,0.849043
1260.0,0.844091
1265.0,0.843432
1270.0,0.841868
1275.0,0.840113
1280.0,0.841991
1285.0,0.838667
1290.0,0.841058
1295.0,0.840707
1300.0,0.843932
1305.0,0.844068
1310.0,0.845481
1315.0,0.846867
1320.0,0.84712
1325.0,0.851353
1330.0,0.852657
1335.0,0.856088
1340.0,0.857143
1345.0,0.856574
1350.0,0.860262
1355.0,0.857404
1360.0,0.862425
1365.0,0.86249
1370.0,0.859729
1375.0,0.864604
1380.0,0.865989
1385.0,0.865214
1390.0,0.868619
1395.0,0.866173
1400.0,0.864796
1405.0,0.865663
1410.0,0.865152
1415.0,0.865418
1420.0,0.862173
1425.0,0.861258
1430.0,0.85821
1435.0,0.855087
1440.0,0.849874
1445.0,0.845663
1450.0,0.83675
1455.0,0.833858
1460.0,0.827362
1465.0,0.821309
1470.0,0.812211
1475.0,0.803595
1480.0,0.798367
1485.0,0.786595
1490.0,0.778392
1495.0,0.768018
1500.0,0.757344
1505.0,0.745409
1510.0,0.737572
1515.0,0.723112
1520.0,0.709872
1525.0,0.6964
1530.0,0.679575
1535.0,0.665348
1540.0,0.64845
1545.0,0.630562
1550.0,0.621109
1555.0,0.604549
1560.0,0.596009
1565.0,0.581701
1570.0,0.578021
1575.0,0.575801
1580.0,0.580421
1585.0,0.588013
1590.0,0.595064
1595.0,0.600376
1600.0,0.608387
1605.0,0.618754
1610.0,0.621222
1615.0,0.632554
1620.0,0.636587
1625.0,0.640428
1630.0,0.642306
1635.0,0.646481
1640.0,0.647446
1645.0,0.648923
1650.0,0.653411
1655.0,0.658356
1660.0,0.662489
1665.0,0.667788
1670.0,0.674276
1675.0,0.679831
1680.0,0.685503
1685.0,0.687685
1690.0,0.695206
1695.0,0.698387
1700.0,0.704166
1705.0,0.705365
1710.0,0.708555
1715.0,0.709972
1720.0,0.715335
1725.0,0.717326
1730.0,0.719893
1735.0,0.71947
1740.0,0.722606
1745.0,0.72442
1750.0,0.723467
1755.0,0.724955
1760.0,0.725697
1765.0,0.723391
1770.0,0.723206
1775.0,0.722516
1780.0,0.720673
1785.0,0.720187
1790.0,0.719424
1795.0,0.718108
1800.0,0.716312
1805.0,0.715613
1810.0,0.71383
1815.0,0.713022
1820.0,0.711661
1825.0,0.70889
1830.0,0.708294
1835.0,0.7057
1840.0,0.703866
1845.0,0.699418
1850.0,0.69888
1855.0,0.693012
1860.0,0.689979
1865.0,0.687401
1870.0,0.683422
1875.0,0.677014
1880.0,0.671791
1885.0,0.663205
1890.0,0.658753
1895.0,0.651957
1900.0,0.643734
1905.0,0.635285
1910.0,0.626299
1915.0,0.618852
1920.0,0.608712
1925.0,0.600368
1930.0,0.590333
1935.0,0.580634
1940.0,0.56906
1945.0,0.556905
1950.0,0.546305
1955.0,0.532344
1960.0,0.517063
1965.0,0.500061
1970.0,0.483067
1975.0,0.466033
1980.0,0.445593
1985.0,0.424122
1990.0,0.400813
1995.0,0.376656
2000.0,0.351555
2005.0,0.330585
2010.0,0.313019
2015.0,0.299906
2020.0,0.291288
2025.0,0.284956
2030.0,0.279187
2035.0,0.274871
2040.0,0.270924
2045.0,0.267154
2050.0,0.265955
2055.0,0.263523
2060.0,0.263392
2065.0,0.263148
2070.0,0.260791
2075.0,0.257171
2080.0,0.252022
2085.0,0.245713
2090.0,0.238581
2095.0,0.227832
2100.0,0.222844
2105.0,0.21518
2110.0,0.206002
2115.0,0.197598
2120.0,0.189532
2125.0,0.183144
2130.0,0.17844
2135.0,0.17618
2140.0,0.175139
2145.0,0.175462
2150.0,0.176828
2155.0,0.179385
2160.0,0.182782
2165.0,0.188016
2170.0,0.194094
2175.0,0.201288
2180.0,0.210176
2185.0,0.219532
2190.0,0.2289
2195.0,0.238472
2200.0,0.248694
2205.0,0.258079
2210.0,0.266981
2215.0,0.274318
2220.0,0.28313
2225.0,0.291523
2230.0,0.29887
2235.0,0.306235
2240.0,0.31404
2245.0,0.321275
2250.0,0.328623
2255.0,0.336291
2260.0,0.344333
2265.0,0.352709
2270.0,0.359738
2275.0,0.367092
2280.0,0.373978
2285.0,0.38027
2290.0,0.387995
2295.0,0.393697
2300.0,0.400016
2305.0,0.405973
2310.0,0.410681
2315.0,0.415929
2320.0,0.420411
2325.0,0.425584
2330.0,0.4312
2335.0,0.437152
2340.0,0.444055
2345.0,0.45
2350.0,0.457214
2355.0,0.463381
2360.0,0.470079
2365.0,0.476068
2370.0,0.482452
2375.0,0.486835
2380.0,0.492151
2385.0,0.498259
2390.0,0.502916
2395.0,0.509978
2400.0,0.515734
2405.0,0.521797
2410.0,0.526919
2415.0,0.531792
2420.0,0.537385
2425.0,0.542559
2430.0,0.54479
2435.0,0.55015
2440.0,0.552204
2445.0,0.554431
2450.0,0.556174
2455.0,0.555987
2460.0,0.556831
2465.0,0.556377
2470.0,0.555224
2475.0,0.552287
2480.0,0.552542
2485.0,0.549292
2490.0,0.548512
2495.0,0.544898
2500.0,0.541089
2505.0,0.537512
2510.0,0.533273
2515.0,0.53003
2520.0,0.528784
2525.0,0.523639
2530.0,0.521156
2535.0,0.517513
2540.0,0.512086
2545.0,0.508007
2550.0,0.503782
2555.0,0.498167
2560.0,0.495359
2565.13,0.491135
2570.22,0.486252
2575.33,0.483178
2580.46,0.479408
2581.74,0.477776
2583.03,0.4769
2584.31,0.475454
2585.6,0.474965
2586.89,0.475262
2588.19,0.473408
2589.48,0.472133
2590.77,0.471095
2592.07,0.469813
2593.36,0.468321
2594.66,0.464935
2595.96,0.463849
2597.26,0.466793
2598.56,0.466692
2599.87,0.463654
2601.17,0.46101
2602.48,0.459205
2603.78,0.458324
2605.09,0.45676
2606.4,0.455733
2607.71,0.456376
2609.03,0.455944
2610.34,0.453832
2611.66,0.452013
2612.97,0.450498
2614.29,0.449142
2615.61,0.448597
2616.93,0.447036
2618.25,0.445806
2619.57,0.445704
2620.9,0.443024
2622.22,0.442105
2623.55,0.442382
2624.88,0.440507
2626.21,0.438698
2627.54,0.436813
2628.87,0.436167
2630.21,0.434254
2631.54,0.432029
2632.88,0.432318
2634.21,0.430944
2635.55,0.428915
2636.89,0.42806
2638.24,0.426243
2639.58,0.424661
2640.92,0.423597
2642.27,0.422154
2643.62,0.420953
2644.97,0.419435
2646.32,0.417608
2647.67,0.416528
2649.02,0.415308
2650.38,0.413681
2651.73,0.411874
2653.09,0.409904
2654.45,0.408748
2655.81,0.40755
2657.17,0.40576
2658.53,0.40475
2659.89,0.402982
2661.26,0.401108
2662.63,0.399463
2664.0,0.397934
2665.36,0.395274
2666.74,0.393519
2668.11,0.393286
2669.48,0.39249
2670.86,0.388763
2672.23,0.386778
2673.61,0.387478
2674.99,0.384749
2676.37,0.381431
2677.76,0.3793
2679.14,0.378735
2680.52,0.377453
2681.91,0.375918
2683.3,0.37308
2684.69,0.37067
2686.08,0.368835
2687.47,0.366773
2688.87,0.365012
2690.26,0.363152
2691.66,0.361072
2693.06,0.358723
2694.46,0.355829
2695.86,0.354303
2697.26,0.353109
2698.66,0.350928
2700.07,0.34813
2701.48,0.345936
2702.89,0.343975
2704.3,0.342052
2705.71,0.339465
2707.12,0.33725
2708.53,0.335031
2709.95,0.33265
2711.37,0.33016
2712.79,0.328355
2714.21,0.326965
2715.63,0.324454
2717.05,0.321599
2718.48,0.319092
2719.9,0.316665
2721.33,0.313793
2722.76,0.312193
2724.19,0.309759
2725.62,0.306558
2727.06,0.305301
2728.49,0.303377
2729.93,0.300374
2731.37,0.297767
2732.81,0.295386
2734.25,0.29274
2735.69,0.290194
2737.14,0.288222
2738.58,0.285842
2740.03,0.2827
2741.48,0.280569
2742.93,0.278873
2744.38,0.276623
2745.83,0.273611
2747.29,0.270908
2748.75,0.268782
2750.2,0.26682
2751.66,0.264613
2753.13,0.261934
2754.59,0.259132
2756.05,0.256338
2757.52,0.254923
2758.99,0.253671
2760.46,0.251141
2761.93,0.248387
2763.4,0.246097
2764.87,0.24414
2766.35,0.242247
2767.82,0.240447
2769.3,0.23837
2770.78,0.236033
2772.26,0.233751
2773.75,0.232001
2775.23,0.229933
2776.72,0.22776
2778.21,0.225455
2779.7,0.223484
2781.19,0.22149
2782.68,0.21969
2784.18,0.217849
2785.67,0.215723
2787.17,0.213432
2788.67,0.211496
2790.17,0.209986
2791.67,0.207879
2793.18,0.205484
2794.68,0.203593
2796.19,0.201889
2797.7,0.200164
2799.21,0.198517
2800.72,0.196718
2802.24,0.194462
2803.75,0.192583
2805.27,0.190959
2806.79,0.189033
2808.31,0.186967
2809.83,0.185475
2811.35,0.183847
2812.88,0.181691
2814.41,0.179723
2815.93,0.177797
2817.46,0.176177
2819.0,0.174646
2820.53,0.17277
2822.07,0.171114
2823.6,0.16915
2825.14,0.167123
2826.68,0.165354
2828.22,0.163601
2829.77,0.16211
2831.31,0.160423
2832.86,0.158513
2834.41,0.156866
2835.96,0.155032
2837.51,0.153097
2839.07,0.151488
2840.62,0.150032
2842.18,0.148569
2843.74,0.146838
2845.3,0.144772
2846.86,0.14304
2848.43,0.141286
2849.99,0.13971
2851.56,0.138339
2853.13,0.136481
2854.7,0.134691
2856.27,0.1334
2857.85,0.13202
2859.42,0.130445
2861.0,0.128724
2862.58,0.127262
2864.16,0.12572
2865.75,0.124116
2867.33,0.122742
2868.92,0.12107
2870.51,0.119214
2872.1,0.117909
2873.69,0.11625
2875.28,0.114572
2876.88,0.113137
2878.48,0.111554
2880.07,0.109888
2881.68,0.108363
2883.28,0.106694
2884.88,0.105129
2886.49,0.10383
2888.1,0.10238
2889.71,0.100646
2891.32,0.099095
2892.93,0.097505
2894.55,0.095877
2896.16,0.094748
2897.78,0.093283
2899.4,0.091763
2901.03,0.090269
2902.65,0.088737
2904.28,0.08734
2905.91,0.085882
2907.54,0.084273
2909.17,0.08253
2910.8,0.080914
2912.44,0.079363
2914.07,0.077949
2915.71,0.076715
2917.35,0.07517
2918.99,0.07335
2920.64,0.071718
2922.29,0.070362
2923.93,0.068852
2925.58,0.067424
2927.24,0.066235
2928.89,0.064786
2930.55,0.062982
2932.2,0.06134
2933.86,0.059951
2935.52,0.058621
2937.19,0.057367
2938.85,0.05598
2940.52,0.054261
2942.19,0.052692
2943.86,0.051422
2945.53,0.050007
2947.21,0.04848
2948.88,0.047013
2950.56,0.045628
2952.24,0.044386
2953.92,0.043164
2955.61,0.041578
2957.29,0.040191
2958.98,0.039201
2960.67,0.037914
2962.36,0.036498
2964.06,0.035317
2965.75,0.034047
2967.45,0.032614
2969.15,0.031447
2970.85,0.030237
2972.55,0.028959
2974.26,0.028092
2975.97,0.027108
2977.68,0.026046
2979.39,0.024752
2981.1,0.023648
2982.82,0.022868
2984.53,0.022114
2986.25,0.021491
2987.97,0.020672
2989.7,0.01959
2991.42,0.018985
2993.15,0.01851
2994.88,0.017624
2996.61,0.016807
2998.34,0.016027
3000.08,0.015387
3001.82,0.015132
3003.55,0.014649
3005.3,0.014046
3007.04,0.013883
3008.78,0.0134
3010.53,0.012946
3012.28,0.012718
3014.03,0.012622
3015.79,0.012557
3017.54,0.012257
3019.3,0.011994
3021.06,0.012002
3022.82,0.011964
3024.58,0.011585
3026.35,0.011741
3028.12,0.01173
3029.89,0.011048
3031.66,0.010903
3033.43,0.011212
3035.21,0.011461
3036.99,0.011812
3038.77,0.011654
3040.55,0.011397
3042.33,0.011458
3044.12,0.011528
3045.91,0.011806
3047.7,0.011901
3049.49,0.011879
3051.29,0.011884
3053.08,0.011948
3054.88,0.01194
3056.68,0.011935
3058.49,0.012152
3060.29,0.012357
3062.1,0.012425
3063.91,0.012753
3065.72,0.012829
3067.54,0.012772
3069.35,0.01263
3071.17,0.012862
3072.99,0.013142
3074.81,0.013118
3076.64,0.01304
3078.47,0.013172
3080.29,0.013517
3082.13,0.01362
3083.96,0.013826
3085.79,0.014068
3087.63,0.014217
3089.47,0.014372
3091.31,0.014418
3093.16,0.014519
3095.01,0.01474
3096.85,0.014803
3098.71,0.014689
3100.56,0.014787
3102.41,0.014872
3104.27,0.014822
3106.13,0.014888
3107.99,0.015132
3109.86,0.015322
3111.73,0.015514
3113.59,0.015673
3115.47,0.015673
3117.34,0.015454
3119.21,0.015652
3121.09,0.015939
3122.97,0.016188
3124.86,0.016293
3126.74,0.016077
3128.63,0.01593
3130.52,0.016093
3132.41,0.016374
3134.3,0.01666
3136.2,0.016664
3138.1,0.016678
3140.0,0.016907
3141.9,0.016898
3143.81,0.016917
3145.71,0.016888
3147.62,0.017072
3149.54,0.017232
3151.45,0.017373
3153.37,0.017352
3155.29,0.01728
3157.21,0.017452
3159.13,0.017643
3161.06,0.017573
3162.99,0.017446
3164.92,0.017733
3166.85,0.018063
3168.79,0.018153
3170.72,0.017901
3172.67,0.017736
3174.61,0.017946
3176.55,0.018125
3178.5,0.018153
3180.45,0.018144
3182.4,0.018189
3184.36,0.018376
3186.32,0.018431
3188.27,0.01835
3190.24,0.018321
3192.2,0.018348
3194.17,0.018344
3196.14,0.018358
3198.11,0.018409
3200.08,0.018563
3202.06,0.01869
3204.04,0.018715
3206.02,0.018669
3208.0,0.01839
3209.99,0.018282
3211.98,0.01853
3213.97,0.018695
3215.96,0.018704
3217.96,0.018744
3219.96,0.018659
3221.96,0.018657
3223.96,0.018595
3225.97,0.018673
3227.98,0.018614
3229.99,0.018608
3232.0,0.018828
3234.02,0.018806
3236.04,0.018647
3238.06,0.018775
3240.08,0.019051
3242.11,0.019119
3244.14,0.018917
3246.17,0.018534
3248.2,0.018393
3250.24,0.018564
3252.28,0.018683
3254.32,0.018844
3256.37,0.019008
3258.41,0.019001
3260.46,0.019031
3262.51,0.019121
3264.57,0.019239
3266.63,0.019322
3268.69,0.019295
3270.75,0.019197
3272.81,0.019327
3274.88,0.019477
3276.95,0.019639
3279.02,0.019705
3281.1,0.019595
3283.18,0.019618
3285.26,0.019773
3287.34,0.019876
3289.43,0.019972
3291.51,0.020044
3293.61,0.020037
3295.7,0.020214
3297.8,0.020263
3299.9,0.020328
3302.0,0.020569
3304.1,0.020783
3306.21,0.020852
3308.32,0.02085
3310.43,0.020847
3312.55,0.020739
3314.66,0.02086
3316.79,0.021245
3318.91,0.021542
3321.03,0.021662
3323.16,0.021568
3325.29,0.02168
3327.43,0.021702
3329.57,0.0218
3331.71,0.022059
3333.85,0.022167
3335.99,0.022329
3338.14,0.022512
3340.29,0.022538
3342.45,0.022291
3344.6,0.022496
3346.76,0.022768
3348.92,0.022958
3351.09,0.023301
3353.26,0.023377
3355.43,0.023501
3357.6,0.023676
3359.78,0.023801
3361.96,0.023818
3364.14,0.023761
3366.32,0.023958
3368.51,0.024156
3370.7,0.024278
3372.89,0.02445
3375.09,0.024726
3377.29,0.024809
3379.49,0.024862
3381.69,0.024964
3383.9,0.025024
3386.11,0.025274
3388.32,0.025501
3390.54,0.0256
3392.76,0.025767
3394.98,0.025954
3397.21,0.026096
3399.43,0.026117
3401.66,0.026189
3403.9,0.026444
3406.13,0.026629
3408.37,0.026782
3410.61,0.026855
3412.86,0.027083
3415.11,0.027375
3417.36,0.02736
3419.61,0.027413
3421.87,0.027554
3424.13,0.027728
3426.39,0.027822
3428.66,0.027885
3430.93,0.027863
3433.2,0.027807
3435.48,0.028118
3437.76,0.028269
3440.04,0.028127
3442.32,0.028275
3444.61,0.028431
3446.9,0.028463
3449.19,0.028518
3451.49,0.028534
3453.79,0.028598
3456.09,0.028777
3458.4,0.028789
3460.7,0.028788
3463.02,0.028974
3465.33,0.029053
3467.65,0.029044
3469.97,0.029107
3472.29,0.029209
3474.62,0.029266
3476.95,0.029215
3479.29,0.02927
3481.62,0.029385
3483.96,0.029552
3486.3,0.029681
3488.65,0.029793
3491.0,0.029827
3493.35,0.029882
3495.71,0.030032
3498.07,0.030102
3500.43,0.030188
3502.79,0.030365
3505.16,0.03048
3507.53,0.030483
3509.91,0.030582
3512.29,0.030893
3514.67,0.031113
3517.05,0.031224
3519.44,0.031309
3521.83,0.031388
3524.23,0.031547
3526.62,0.031743
3529.02,0.032029
3531.43,0.0323
3533.83,0.03244
3536.24,0.032591
3538.66,0.032933
3541.08,0.033284
3543.5,0.033554
3545.92,0.033898
3548.35,0.03422
3550.78,0.034549
3553.21,0.034867
3555.65,0.035283
3558.09,0.035465
3560.53,0.035798
3562.98,0.03632
3565.43,0.036887
3567.88,0.037246
3570.34,0.037516
3572.8,0.037952
3575.27,0.038405
3577.73,0.038942
3580.2,0.039411
3582.68,0.040018
3585.16,0.040708
3587.64,0.041405
3590.12,0.041874
3592.61,0.0423
3595.1,0.042957
3597.6,0.043525
3600.09,0.044059
3602.6,0.044636
3605.1,0.045274
3607.61,0.045898
3610.12,0.046499
3612.64,0.047116
3615.16,0.047781
3617.68,0.048535
3620.21,0.049211
3622.74,0.049912
3625.27,0.050532
3627.81,0.051101
3630.35,0.051695
3632.89,0.052358
3635.44,0.05308
3637.99,0.053792
3640.54,0.054471
3643.1,0.055294
3645.66,0.056089
3648.23,0.056585
3650.8,0.057129
3653.37,0.057901
3655.95,0.058822
3658.53,0.059544
3661.11,0.06016
3663.7,0.060999
3666.29,0.061787
3668.89,0.062471
3671.48,0.063202
3674.09,0.063952
3676.69,0.064721
3679.3,0.065559
3681.91,0.066445
3684.53,0.067366
3687.15,0.068209
3689.78,0.068952
3692.4,0.069603
3695.04,0.070313
3697.67,0.071133
3700.31,0.071898
3702.95,0.07265
3705.6,0.073402
3708.25,0.074355
3710.91,0.075356
3713.56,0.076197
3716.23,0.076877
3718.89,0.077578
3721.56,0.078443
3724.23,0.0793
3726.91,0.080114
3729.59,0.080908
3732.28,0.081892
3734.97,0.082846
3737.66,0.083625
3740.36,0.08434
3743.06,0.08512
3745.76,0.086042
3748.47,0.087068
3751.18,0.087922
3753.9,0.088733
3756.62,0.089649
3759.34,0.09053
3762.07,0.091459
3764.8,0.092447
3767.54,0.09329
3770.28,0.093978
3773.02,0.094903
3775.77,0.095828
3778.52,0.096721
3781.28,0.097726
3784.04,0.098665
3786.8,0.099576
3789.57,0.100535
3792.34,0.101431
3795.12,0.10226
3797.9,0.103128
3800.69,0.104168
3803.47,0.105292
3806.27,0.106318
3809.06,0.107128
3811.86,0.108057
3814.67,0.109223
3817.48,0.110344
3820.29,0.111274
3823.11,0.112163
3825.93,0.113246
3828.76,0.114406
3831.59,0.115428
3834.42,0.116414
3837.26,0.117409
3840.1,0.118538
3842.95,0.119691
3845.8,0.120749
3848.65,0.121671
3851.51,0.122736
3854.38,0.123834
3857.24,0.125008
3860.12,0.126055
3862.99,0.127027
3865.87,0.128065
3868.76,0.129198
3871.65,0.130288
3874.54,0.13139
3877.44,0.132534
3880.34,0.133642
3883.25,0.134835
3886.16,0.136099
3889.07,0.137096
3891.99,0.13813
3894.92,0.139256
3897.85,0.140295
3900.78,0.141385
3903.72,0.142511
3906.66,0.143561
3909.6,0.144696
3912.55,0.145951
3915.51,0.147151
3918.47,0.148191
3921.43,0.149286
3924.4,0.150407
3927.38,0.151618
3930.35,0.152743
3933.33,0.153819
3936.32,0.154988
3939.31,0.156171
3942.31,0.157217
3945.31,0.158248
3948.31,0.1594
3951.32,0.160542
3954.34,0.161829
3957.35,0.163069
3960.38,0.164277
3963.41,0.165475
3966.44,0.16664
3969.48,0.167772
3972.52,0.168897
3975.56,0.170173
3978.61,0.171413
3981.67,0.172489
3984.73,0.173594
3987.8,0.174807
3990.87,0.175979
3993.94,0.177181
3997.02,0.178306
4000.1,0.17954
4003.19,0.180882
4006.29,0.182106
4009.39,0.183283
4012.49,0.184519
4015.6,0.185718
4018.71,0.186868
4021.83,0.188064
4024.95,0.189305
4028.08,0.190613
4031.21,0.19193
4034.35,0.193191
4037.49,0.194411
4040.64,0.195646
4043.79,0.196881
4046.94,0.198123
4050.11,0.199278
4053.27,0.200392
4056.44,0.201545
4059.62,0.202801
4062.8,0.204087
4065.99,0.205236
4069.18,0.20624
4072.38,0.207289
4075.58,0.208433
4078.78,0.20955
4082.0,0.210627
4085.21,0.21176
4088.43,0.212849
4091.66,0.213864
4094.89,0.214841
4098.13,0.215869
4101.37,0.216953
4104.62,0.217977
4107.87,0.218956
4111.13,0.219746
4114.39,0.220575
4117.66,0.221621
4120.93,0.222606
4124.21,0.223493
4127.5,0.224354
4130.79,0.22523
4134.08,0.226145
4137.38,0.227073
4140.68,0.227915
4143.99,0.228872
4147.31,0.229799
4150.63,0.23061
4153.95,0.231466
4157.29,0.232373
4160.62,0.233326
4163.96,0.234248
4167.31,0.235101
4170.66,0.235899
4174.02,0.236645
4177.39,0.237484
4180.75,0.238263
4184.13,0.238983
4187.51,0.239697
4190.89,0.240571
4194.28,0.241358
4197.68,0.242049
4201.08,0.242801
4204.49,0.243499
4207.9,0.244106
4211.32,0.244741
4214.74,0.245248
4218.17,0.245801
4221.61,0.246337
4225.05,0.246802
4228.5,0.247411
4231.95,0.247942
4235.4,0.248325
4238.87,0.24893
4242.34,0.24957
4245.81,0.250131
4249.29,0.25055
4252.78,0.250931
4256.27,0.251255
4259.77,0.251418
4263.27,0.251566
4266.78,0.251746
4270.29,0.251894
4273.81,0.252138
4277.34,0.252535
4280.87,0.252986
4284.41,0.253337
4287.95,0.25357
4291.5,0.253803
4295.06,0.254041
4298.62,0.254187
4302.19,0.254283
4305.76,0.254315
4309.34,0.254455
4312.92,0.254648
4316.52,0.254725
4320.11,0.254774
4323.72,0.254843
4327.32,0.254852
4330.94,0.254802
4334.56,0.254732
4338.19,0.254712
4341.82,0.254671
4345.46,0.25461
4349.11,0.254474
4352.76,0.254318
4356.42,0.254178
4360.08,0.254009
4363.75,0.253878
4367.43,0.253803
4371.11,0.253517
4374.8,0.253256
4378.49,0.253055
4382.19,0.252833
4385.9,0.252367
4389.61,0.251916
4393.33,0.251552
4397.06,0.251219
4400.79,0.250722
4404.53,0.250224
4408.28,0.24984
4412.03,0.249322
4415.79,0.248652
4419.55,0.248039
4423.32,0.247436
4427.1,0.246802
4430.88,0.246225
4434.68,0.24562
4438.47,0.245044
4442.28,0.244407
4446.08,0.243587
4449.9,0.24277
4453.72,0.242017
4457.55,0.241274
4461.39,0.240465
4465.23,0.23967
4469.08,0.238902
4472.94,0.238149
4476.8,0.237271
4480.67,0.236396
4484.55,0.235492
4488.43,0.234483
4492.32,0.233571
4496.21,0.232781
4500.12,0.231894
4504.03,0.231123
4507.94,0.230266
4511.87,0.229355
4515.8,0.228566
4519.73,0.227814
4523.68,0.22697
4527.63,0.226223
4531.59,0.22549
4535.55,0.224887
4539.52,0.22433
4543.5,0.223752
4547.49,0.22318
4551.48,0.222669
4555.48,0.222131
4559.49,0.221665
4563.5,0.221119
4567.52,0.220464
4571.55,0.21981
4575.58,0.219302
4579.63,0.21869
4583.67,0.217957
4587.73,0.217261
4591.79,0.216685
4595.86,0.21602
4599.94,0.2154
4604.03,0.214707
4608.12,0.213935
4612.22,0.213149
4616.33,0.212323
4620.44,0.21157
4624.56,0.210878
4628.69,0.210119
4632.83,0.209313
4636.97,0.208666
4641.12,0.208078
4645.28,0.207458
4649.45,0.206845
4653.62,0.206207
4657.8,0.205551
4661.99,0.204818
4666.19,0.204129
4670.39,0.203461
4674.6,0.20276
4678.82,0.201843
4683.05,0.200868
4687.28,0.199868
4691.52,0.198759
4695.77,0.19757
4700.03,0.196161
4704.3,0.194591
4708.57,0.192964
4712.85,0.191207
4717.14,0.189312
4721.43,0.187341
4725.74,0.1854
4730.05,0.183443
4734.37,0.181453
4738.7,0.179546
4743.03,0.177655
4747.38,0.175827
4751.73,0.174319
4756.09,0.172874
4760.45,0.171551
4764.83,0.170341
4769.21,0.16918
4773.6,0.168048
4778.0,0.16696
4782.41,0.165935
4786.83,0.16487
4791.25,0.163829
4795.68,0.162811
4800.13,0.161749
4804.57,0.16059
4809.03,0.159394
4813.5,0.158225
4817.97,0.157049
4822.45,0.155851
4826.94,0.154533
4831.44,0.15315
4835.95,0.151858
4840.46,0.150658
4844.99,0.14931
4849.52,0.147975
4854.06,0.146679
4858.61,0.145466
4863.17,0.144292
4867.73,0.143116
4872.31,0.142081
4876.89,0.14131
4881.48,0.140686
4886.08,0.140214
4890.69,0.140008
4895.31,0.140048
4899.94,0.140211
4904.57,0.140714
4909.22,0.141444
4913.87,0.142347
4918.53,0.143416
4923.21,0.144494
4927.88,0.145605
4932.57,0.146811
4937.27,0.148005
4941.98,0.149053
4946.69,0.150129
4951.42,0.151109
4956.15,0.151942
4960.9,0.152823
4965.65,0.153637
4970.41,0.154354
4975.18,0.15498
4979.96,0.155579
4984.75,0.156169
4989.54,0.156644
4994.35,0.156926
4999.17,0.157298
5003.99,0.157754
5008.83,0.158206
5013.67,0.158483
5018.52,0.158785
5023.39,0.159028
5028.26,0.159229
5033.14,0.159407
5038.03,0.159544
5042.93,0.159705
5047.84,0.159976
5052.76,0.160129
5057.69,0.160204
5062.63,0.16031
5067.58,0.160453
5072.54,0.160412
5077.51,0.16042
5082.49,0.160496
5087.47,0.160585
5092.47,0.160611
5097.48,0.160587
5102.5,0.160594
5107.52,0.160513
5112.56,0.160489
5117.61,0.160493
5122.66,0.160429
5127.73,0.160327
5132.81,0.160067
5137.89,0.159849
5142.99,0.159704
5148.1,0.159544
5153.22,0.159424
5158.34,0.159303
5163.48,0.159097
5168.63,0.158905
5173.79,0.15872
5178.96,0.158504
5184.13,0.158314
5189.32,0.158119
5194.52,0.157822
5199.73,0.157639
5204.96,0.157347
5210.19,0.156876
5215.43,0.156348
5220.68,0.156058
5225.94,0.155671
5231.22,0.155268
5236.5,0.15487
5241.79,0.154357
5247.1,0.153928
5252.42,0.153585
5257.74,0.153148
5263.08,0.152577
5268.43,0.152006
5273.79,0.151398
5279.16,0.15068
5284.54,0.150116
5289.93,0.149578
5295.34,0.149001
5300.75,0.148329
5306.18,0.147489
5311.61,0.14677
5317.06,0.146161
5322.52,0.145527
5327.99,0.1447
5333.47,0.1439
5338.96,0.143157
5344.47,0.142363
5349.98,0.141533
5355.51,0.140732
5361.05,0.139996
5366.6,0.139121
5372.16,0.1382
5377.73,0.137358
5383.32,0.13656
5388.91,0.135728
5394.52,0.134898
5400.14,0.134035
5405.77,0.133165
5411.41,0.13232
5417.07,0.131438
5422.74,0.130491
5428.41,0.129591
5434.1,0.128759
5439.81,0.127855
5445.52,0.126943
5451.25,0.126075
5456.98,0.125222
5462.73,0.124357
5468.5,0.123479
5474.27,0.122619
5480.06,0.121754
5485.86,0.121013
5491.67,0.120211
5497.49,0.119368
5503.33,0.118502
5509.18,0.117643
5515.04,0.116864
5520.91,0.116076
5526.8,0.115326
5532.69,0.11461
5538.61,0.113884
5544.53,0.113165
5550.47,0.112448
5556.41,0.11183
5562.38,0.111183
5568.35,0.110518
5574.34,0.109846
5580.34,0.109154
5586.35,0.108698
5592.38,0.108329
5598.42,0.107712
5604.47,0.10704
5610.54,0.106468
5616.61,0.105973
5622.71,0.105516
5628.81,0.10522
5634.93,0.104863
5641.06,0.104371
5647.21,0.104023
5653.36,0.10368
5659.54,0.103288
5665.72,0.103029
5671.92,0.102776
5678.13,0.102526
5684.36,0.102202
5690.6,0.101883
5696.85,0.10158
5703.12,0.101439
5709.4,0.101373
5715.69,0.10122
5722.0,0.101025
5728.33,0.100867
5734.66,0.100689
5741.01,0.100578
5747.38,0.100463
5753.76,0.100299
5760.15,0.100157
5766.56,0.099803
5772.98,0.099566
5779.41,0.099399
5785.86,0.099202
5792.33,0.099061
5798.81,0.098918
5805.3,0.098777
5811.81,0.098543
5818.33,0.098287
5824.87,0.098086
5831.42,0.097962
5837.99,0.097656
5844.57,0.097455
5851.17,0.097342
5857.78,0.097174
5864.41,0.097042
5871.05,0.097003
5877.7,0.096872
5884.38,0.096818
5891.06,0.097006
5897.76,0.096939
5904.48,0.097124
5911.21,0.097281
5917.96,0.097317
5924.73,0.09752
5931.5,0.097578
5938.3,0.097608
5945.11,0.097926
5951.93,0.098157
5958.78,0.09838
5965.63,0.098796
5972.51,0.099234
5979.39,0.099871
5986.3,0.1003
5993.22,0.100805
6000.16,0.101573
6007.11,0.10221
6014.08,0.10283
6021.06,0.103629
6028.06,0.104252
6035.08,0.104825
6042.12,0.10538
6049.17,0.105844
6056.23,0.106556
6063.32,0.107105
6070.42,0.107286
6077.53,0.107646
6084.67,0.107963
6091.82,0.108114
6098.98,0.108169
6106.17,0.108243
6113.37,0.10835
6120.58,0.10862
6127.82,0.108701
6135.07,0.108639
6142.34,0.108498
6149.63,0.10839
6156.93,0.108357
6164.25,0.108268
6171.59,0.108171
6178.95,0.107926
6186.32,0.107573
6193.71,0.107326
6201.12,0.107024
6208.54,0.106595
6215.99,0.106173
6223.45,0.1057
6230.93,0.105048
6238.43,0.104249
6245.95,0.103244
6253.48,0.102274
6261.03,0.101407
6268.6,0.100637
6276.19,0.099739
6283.8,0.098802
6291.43,0.097804
6299.07,0.096953
6306.73,0.096354
6314.42,0.095887
6322.12,0.095522
6329.84,0.095303
6337.57,0.094875
6345.33,0.094336
6353.11,0.093578
6360.9,0.092613
6368.72,0.091598
6376.55,0.09055
6384.4,0.089338
6392.27,0.088
6400.17,0.08668
6408.08,0.08539
6416.01,0.083956
6423.96,0.08234
6431.93,0.080597
6439.92,0.078957
6447.93,0.077168
6455.96,0.075401
6464.01,0.073478
6472.08,0.071439
6480.17,0.069386
6488.28,0.0674
6496.41,0.065375
6504.56,0.063091
6512.73,0.060736
6520.92,0.058684
6529.14,0.056502
6537.37,0.054302
6545.63,0.052023
6553.9,0.049735
6562.2,0.047477
6570.51,0.045425
6578.85,0.043182
6587.21,0.040781
6595.59,0.038616
6603.99,0.036564
6612.42,0.034461
6620.86,0.032416
6629.33,0.030364
6637.82,0.028474
6646.33,0.026462
6654.86,0.02464
6663.41,0.023009
6671.99,0.021332
6680.59,0.019704
6689.21,0.018294
6697.85,0.016948
6706.51,0.015837
6715.2,0.014822
6723.91,0.013926
6732.64,0.013169
6741.4,0.01252
6750.18,0.012037
6758.98,0.01194
6767.8,0.011972
6776.65,0.012062
6785.52,0.012304
6794.41,0.012813
6803.33,0.013451
6812.27,0.014102
6821.23,0.014887
6830.22,0.015826
6839.23,0.016808
6848.26,0.017841
6857.32,0.018855
6866.4,0.019962
6875.51,0.021152
6884.64,0.022143
6893.8,0.023017
6902.98,0.023976
6912.18,0.024924
6921.41,0.025805
6930.66,0.026704
6939.94,0.027635
6949.24,0.028476
6958.57,0.029218
6967.92,0.030007
6977.3,0.030788
6986.7,0.031412
6996.13,0.032036
7005.59,0.032645
7015.07,0.033246
7024.57,0.033683
7034.1,0.034024
7043.66,0.034361
7053.25,0.034618
7062.85,0.034685
7072.49,0.034716
7082.15,0.034719
7091.84,0.034637
7101.55,0.03454
7111.3,0.034444
7121.06,0.034394
7130.86,0.034365
7140.68,0.034374
7150.53,0.034478
7160.41,0.03456
7170.31,0.034827
7180.24,0.035303
7190.2,0.03591
7200.19,0.036664
7210.2,0.037528
7220.24,0.038523
7230.31,0.039661
7240.41,0.040853
7250.54,0.042042
7260.69,0.043387
7270.88,0.044836
7281.09,0.046382
7291.33,0.048074
7301.6,0.049689
7311.9,0.051379
7322.22,0.053239
7332.58,0.055058
7342.97,0.056892
7353.38,0.058853
7363.83,0.060919
7374.3,0.062972
7384.81,0.065086
7395.34,0.067197
7405.91,0.069265
7416.5,0.07138
7427.13,0.073516
7437.78,0.075691
7448.47,0.077944
7459.19,0.08022
7469.94,0.082477
7480.71,0.084716
7491.52,0.086959
7502.37,0.089144
7513.24,0.091325
7524.14,0.093441
7535.08,0.095544
7546.05,0.097678
7557.05,0.099759
7568.08,0.101694
7579.15,0.103622
7590.24,0.105499
7601.37,0.1073
7612.53,0.109053
7623.73,0.110705
7634.96,0.112222
7646.22,0.113662
7657.51,0.114975
7668.84,0.116226
7680.2,0.1174
7691.59,0.118536
7703.02,0.119486
7714.49,0.120181
7725.98,0.120757
7737.52,0.1213
7749.08,0.121694
7760.68,0.121902
7772.32,0.121849
7783.99,0.121738
7795.69,0.121503
7807.43,0.12104
7819.21,0.120403
7831.02,0.119693
7842.87,0.118732
7854.75,0.1176
7866.67,0.116369
7878.62,0.115015
7890.62,0.113547
7902.64,0.111938
7914.71,0.110177
7926.81,0.108311
7938.95,0.106326
7951.13,0.104093
7963.34,0.10155
7975.59,0.098836
7987.88,0.09591
8000.21,0.092908
8012.57,0.089921
8024.98,0.086915
8037.42,0.083564
8049.9,0.079971
8062.42,0.076425
8074.98,0.072884
8087.57,0.06939
8100.21,0.066111
8112.89,0.062997
8125.6,0.060028
8138.36,0.057225
8151.16,0.054596
8163.99,0.052056
8176.87,0.049567
8189.79,0.046987
8202.75,0.044371
8215.75,0.041827
8228.79,0.039267
8241.87,0.036677
8254.99,0.034081
8268.16,0.031603
8281.37,0.02928
8294.62,0.027065
8307.91,0.025001
8321.24,0.023028
8334.62,0.021064
8348.04,0.019394
8361.51,0.018044
8375.02,0.016791
8388.57,0.015707
8402.16,0.014879
8415.8,0.014192
8429.49,0.013668
8443.22,0.013508
8456.99,0.013685
8470.81,0.014078
8484.67,0.014652
8498.58,0.015553
8512.54,0.016946
8526.54,0.018661
8540.58,0.020717
8554.68,0.023089
8568.82,0.025828
8583.0,0.028831
8597.24,0.032065
8611.52,0.035549
8625.85,0.039069
8640.23,0.042501
8654.65,0.045757
8669.12,0.0489
8683.64,0.051982
8698.21,0.054802
8712.83,0.057195
8727.5,0.059121
8742.22,0.060829
8756.99,0.062447
8771.8,0.063864
8786.67,0.06493
8801.59,0.065852
8816.56,0.066499
8831.58,0.067036
8846.65,0.067492
8861.77,0.067684
8876.94,0.06764
8892.17,0.067501
8907.45,0.067436
8922.78,0.067287
8938.16,0.067041
8953.6,0.066896
8969.09,0.066744
8984.64,0.066513
9000.23,0.066349
9015.89,0.066173
9031.59,0.06607
9047.36,0.06593
9063.17,0.065936
9079.05,0.065781
9094.97,0.065535
9110.96,0.065285
9127.0,0.065037
9143.1,0.064673
9159.25,0.06414
9175.46,0.063577
9191.73,0.062728
9208.06,0.061806
9224.44,0.060866
9240.88,0.059887
9257.38,0.058784
9273.94,0.057719
9290.56,0.056588
9307.24,0.055313
9323.98,0.054108
9340.78,0.052949
9357.64,0.051926
9374.57,0.051079
9391.55,0.05029
9408.59,0.049727
9425.7,0.049127
9442.87,0.04844
9460.1,0.048075
9477.4,0.048017
9494.75,0.048191
9512.17,0.048427
9529.66,0.048735
9547.21,0.048974
9564.83,0.049282
9582.5,0.04971
9600.25,0.050196
9618.06,0.050927
9635.94,0.051861
9653.88,0.052726
9671.89,0.053646
9689.97,0.05463
9708.12,0.055681
9726.33,0.05674
9744.62,0.057815
9762.97,0.059088
9781.39,0.06048
9799.88,0.061916
9818.44,0.063461
9837.07,0.064975
9855.77,0.066198
9874.54,0.06747
9893.39,0.068967
9912.3,0.070498
9931.29,0.07213
9950.36,0.073931
9969.49,0.075772
9988.7,0.077727
10007.98,0.079825
10027.34,0.081945
10046.77,0.084108
10066.28,0.086325
10085.87,0.088712
10105.53,0.091139
10125.26,0.093576
10145.08,0.096135
10164.97,0.098613
10184.94,0.100975
10204.99,0.103085
10225.12,0.104629
10245.33,0.104713
10265.61,0.102547
10285.98,0.101408
10306.43,0.105401
10326.96,0.112402
10347.57,0.118546
10368.27,0.123276
10389.05,0.127118
10409.91,0.130465
10430.86,0.133348
10451.88,0.135854
10473.0,0.138425
10494.2,0.141753
10515.49,0.145222
10536.86,0.148511
10558.32,0.151488
10579.87,0.154268
10601.5,0.157058
10623.23,0.159699
10645.04,0.1623
10666.94,0.164759
10688.94,0.166904
10711.02,0.169313
10733.2,0.171734
10755.47,0.173952
10777.83,0.176061
10800.28,0.178146
10822.83,0.180004
10845.47,0.181722
10868.21,0.183517
10891.04,0.185243
10913.97,0.186683
10936.99,0.188159
10960.12,0.189494
10983.34,0.190837
11006.66,0.192124
11030.07,0.193417
11053.59,0.194576
11077.21,0.195633
11100.93,0.196686
11124.75,0.197551
11148.68,0.198592
11172.71,0.199671
11196.84,0.200589
11221.07,0.201574
11245.41,0.202513
11269.86,0.203324
11294.41,0.204145
11319.07,0.205024
11343.84,0.205682
11368.72,0.206499
11393.7,0.207324
11418.8,0.207961
11444.01,0.208453
11469.33,0.209183
11494.76,0.210107
11520.3,0.210913
11545.96,0.211763
11571.73,0.212768
11597.62,0.21367
11623.62,0.214475
11649.74,0.215457
11675.98,0.2164
11702.34,0.217123
11728.81,0.218042
11755.41,0.219118
11782.13,0.219959
11808.96,0.220527
11835.92,0.221249
11863.01,0.221849
11890.22,0.222254
11917.55,0.222628
11945.01,0.223174
11972.6,0.223603
12000.31,0.223835
12028.16,0.224025
12056.13,0.224259
12084.23,0.224408
12112.46,0.224543
12140.83,0.224659
12169.33,0.224879
12197.96,0.224807
12226.73,0.224729
12255.64,0.224738
12284.68,0.224524
12313.86,0.224109
12343.18,0.223973
12372.64,0.223828
12402.24,0.223525
12431.98,0.2232
12461.86,0.222985
12491.89,0.222427
12522.07,0.221898
12552.38,0.221594
12582.85,0.221205
12613.47,0.220617
12644.23,0.220154
12675.15,0.219738
12706.21,0.219359
12737.43,0.218834
12768.81,0.218294
12800.33,0.217675
12832.02,0.217298
12863.86,0.216869
12895.86,0.216376
12928.02,0.215778
12960.34,0.215255
12992.82,0.214726
13025.46,0.214131
13058.27,0.21342
13091.25,0.212652
13124.39,0.211974
13157.7,0.211307
13191.18,0.210316
13224.83,0.209299
13258.66,0.208294
13292.65,0.207244
13326.83,0.206247
13361.17,0.205324
13395.7,0.204143
13430.4,0.203007
13465.29,0.201842
13500.35,0.200574
13535.6,0.199178
13571.03,0.197736
13606.65,0.195916
13642.46,0.194328
13678.46,0.192896
13714.64,0.191263
13751.02,0.189397
13787.59,0.187618
13824.36,0.185736
13861.32,0.18383
13898.49,0.181878
13935.85,0.179926
13973.41,0.177778
14011.17,0.175379
14049.15,0.172993
14087.32,0.170757
14125.71,0.168518
14164.3,0.166202
14203.11,0.164011
14242.13,0.161798
14281.36,0.159367
14320.81,0.157317
14360.49,0.155223
14400.38,0.152827
14440.49,0.150765
14480.82,0.148872
14521.39,0.146797
14562.18,0.144365
14603.2,0.141891
14644.45,0.139376
14685.93,0.136605
14727.66,0.133643
14769.62,0.130835
14811.81,0.127979
14854.25,0.125272
14896.94,0.122891
14939.87,0.120612
14983.05,0.118197
15026.48,0.115674
15070.16,0.113006
15114.1,0.109924
15158.29,0.106648
15202.74,0.103194
15247.46,0.099637
15292.43,0.095652
15337.68,0.091199
15383.19,0.086308
15428.97,0.081175
15475.03,0.075131
15521.36,0.067967
15567.97,0.060242
15614.87,0.052033
15662.04,0.043398
15709.5,0.034888
15757.25,0.027118
15805.29,0.021744
15853.62,0.020356
15902.26,0.023255
15951.19,0.029451
16000.42,0.03703
16049.95,0.043086
16099.8,0.045919
16149.95,0.046344
16200.42,0.045819
16251.21,0.045489
16302.31,0.045659
16353.74,0.045156
16405.49,0.044313
16457.57,0.044348
16509.98,0.045876
16562.73,0.048801
16615.82,0.052232
16669.24,0.055886
16723.02,0.059534
16777.14,0.063115
16831.61,0.066915
16886.43,0.070911
16941.62,0.074474
16997.16,0.077478
17053.08,0.080344
17109.36,0.083173
17166.01,0.08598
17223.04,0.088078
17280.45,0.089911
17338.24,0.091713
17396.43,0.093508
17455.0,0.095086
17513.97,0.096219
17573.34,0.097376
17633.11,0.098414
17693.29,0.099322
17753.89,0.09975
17814.9,0.100338
17876.33,0.101239
17938.18,0.101942
18000.47,0.102391
18063.19,0.102675
18126.35,0.102819
18189.95,0.103335
18254.0,0.104147
18318.5,0.104604
18383.46,0.104994
18448.88,0.105265
18514.77,0.10543
18581.13,0.105664
18647.97,0.105557
18715.29,0.105837
18783.1,0.106107
18851.4,0.106129
18920.2,0.105848
18989.51,0.105727
19059.32,0.105354
19129.65,0.105206
19200.5,0.105152
19271.88,0.10505
19343.79,0.104648
19416.24,0.103488
19489.23,0.10283
19562.77,0.102625
19636.88,0.101899
19711.54,0.101322
19786.78,0.100925
19862.59,0.100575
19938.98,0.100106
20015.96,0.099313
20093.55,0.098821
20171.73,0.097935
20250.53,0.096795
20329.94,0.095901
20409.98,0.095076
20490.65,0.093612
20571.96,0.091908
20653.92,0.090846
20736.54,0.090156
20819.82,0.089323
20903.77,0.087707
20988.4,0.085889
21073.72,0.08432
21159.73,0.083586
21246.46,0.083204
21333.89,0.082144
21422.04,0.080833
21510.93,0.079584
21600.56,0.078583
21690.94,0.077632
21782.08,0.076523
21873.99,0.075213
21966.67,0.073698
22060.15,0.073491
22154.42,0.073695
22249.51,0.073441
22345.41,0.072883
22442.14,0.072193
22539.72,0.070796
22638.14,0.069316
22737.43,0.068495
22837.6,0.067046
22938.65,0.065059
23040.6,0.063893
23143.46,0.06265
23247.24,0.060726
23351.96,0.058821
23457.63,0.058127
23564.25,0.05656
23671.85,0.055043
23780.44,0.054184
23890.02,0.053149
24000.63,0.051826
24112.26,0.050524
24224.93,0.049467
24338.66,0.04989
24453.47,0.04936
24569.36,0.046637
24686.36,0.044564
24804.47,0.045211
24923.73,0.044612
25044.13,0.043658
25165.71,0.04246
25288.46,0.038518
25412.43,0.034991
25537.61,0.036842
25664.04,0.036159
25791.72,0.034034
25920.68,0.032872
