Database of Origin,University of Winnipeg Spectrophotometer Facility
Sample Description,8. Sulfates: RELAB + Nicolet spectra / Spectra all made consistently merged: Jan. / 10 / 2005
Date Added,2016-07-15 22:05:55.491319

Data ID,RPN_SUL_47          
Sample ID,SPT132
Mineral Name,Anhydrite+coquimbite
Grain Size,<45
Viewing Geometry,30 / 0 | 30
Resolution,5 / 1.3-129
Material Class,Sulfate

Wavelength
305.0,0.067678
310.0,0.064392
315.0,0.065746
320.0,0.06866
325.0,0.073722
330.0,0.081931
335.0,0.092912
340.0,0.108517
345.0,0.127924
350.0,0.153024
355.0,0.184789
360.0,0.218068
365.0,0.254997
370.0,0.292227
375.0,0.328156
380.0,0.361226
385.0,0.390083
390.0,0.416719
395.0,0.443039
400.0,0.466507
405.0,0.481818
410.0,0.494656
415.0,0.50725
420.0,0.513675
425.0,0.515701
430.0,0.51108
435.0,0.522886
440.0,0.53664
445.0,0.548451
450.0,0.554898
455.0,0.561431
460.0,0.566744
465.0,0.573223
470.0,0.580515
475.0,0.589723
480.0,0.600955
485.0,0.611334
490.0,0.622755
495.0,0.634803
500.0,0.644208
505.0,0.654112
510.0,0.662628
515.0,0.67044
520.0,0.676488
525.0,0.682625
530.0,0.684899
535.0,0.690667
540.0,0.692937
545.0,0.696598
550.0,0.699687
555.0,0.703278
560.0,0.705466
565.0,0.709507
570.0,0.712991
575.0,0.71568
580.0,0.717676
585.0,0.722423
590.0,0.723703
595.0,0.72778
600.0,0.729478
605.0,0.732922
610.0,0.735389
615.0,0.737188
620.0,0.740941
625.0,0.741939
630.0,0.744021
635.0,0.747513
640.0,0.748602
645.0,0.751283
650.0,0.752548
655.0,0.754921
660.0,0.756614
665.0,0.758214
670.0,0.759865
675.0,0.76153
680.0,0.760956
685.0,0.762972
690.0,0.76257
695.0,0.764293
700.0,0.763736
705.0,0.76419
710.0,0.764096
715.0,0.763086
720.0,0.762083
725.0,0.762601
730.0,0.760173
735.0,0.761334
740.0,0.757878
745.0,0.75818
750.0,0.757097
755.0,0.757004
760.0,0.755575
765.0,0.75432
770.0,0.753242
775.0,0.752107
780.0,0.750104
785.0,0.749253
790.0,0.748574
795.0,0.745861
800.0,0.74692
805.0,0.743291
810.0,0.743552
815.0,0.741682
820.0,0.742186
825.0,0.742252
830.0,0.740727
835.0,0.74127
840.0,0.735899
845.0,0.736367
850.0,0.737314
855.0,0.737386
860.0,0.734331
865.0,0.736274
870.0,0.732774
875.0,0.73726
880.0,0.734163
885.0,0.733489
890.0,0.733691
895.0,0.736771
900.0,0.73657
905.0,0.736645
910.0,0.7344
915.0,0.737838
920.0,0.739347
925.0,0.739435
930.0,0.739139
935.0,0.74192
940.0,0.741844
945.0,0.744271
950.0,0.744296
955.0,0.745442
960.0,0.746054
965.0,0.746892
970.0,0.747858
975.0,0.748692
980.0,0.752011
985.0,0.751016
990.0,0.75251
995.0,0.752958
1000.0,0.752937
1005.0,0.752765
1010.0,0.753694
1015.0,0.754482
1020.0,0.755199
1025.0,0.755635
1030.0,0.75533
1035.0,0.757582
1040.0,0.755583
1045.0,0.754503
1050.0,0.757129
1055.0,0.758903
1060.0,0.758542
1065.0,0.757826
1070.0,0.756727
1075.0,0.757304
1080.0,0.758573
1085.0,0.75816
1090.0,0.759582
1095.0,0.758785
1100.0,0.758381
1105.0,0.759058
1110.0,0.759546
1115.0,0.759953
1120.0,0.759923
1125.0,0.759211
1130.0,0.758117
1135.0,0.75905
1140.0,0.759586
1145.0,0.758975
1150.0,0.758555
1155.0,0.758311
1160.0,0.758161
1165.0,0.758825
1170.0,0.758423
1175.0,0.758681
1180.0,0.759717
1185.0,0.759204
1190.0,0.758963
1195.0,0.759764
1200.0,0.75857
1205.0,0.758835
1210.0,0.75834
1215.0,0.760501
1220.0,0.759016
1225.0,0.758791
1230.0,0.75905
1235.0,0.758772
1240.0,0.75903
1245.0,0.758856
1250.0,0.758142
1255.0,0.758396
1260.0,0.760503
1265.0,0.75824
1270.0,0.759503
1275.0,0.758448
1280.0,0.7581
1285.0,0.757289
1290.0,0.757791
1295.0,0.758541
1300.0,0.758234
1305.0,0.757132
1310.0,0.757525
1315.0,0.757425
1320.0,0.756898
1325.0,0.757362
1330.0,0.756929
1335.0,0.756127
1340.0,0.754183
1345.0,0.752839
1350.0,0.753567
1355.0,0.751432
1360.0,0.751505
1365.0,0.750291
1370.0,0.750797
1375.0,0.750355
1380.0,0.746185
1385.0,0.744973
1390.0,0.7425
1395.0,0.73768
1400.0,0.731681
1405.0,0.724848
1410.0,0.721095
1415.0,0.7198
1420.0,0.719397
1425.0,0.719817
1430.0,0.718241
1435.0,0.718512
1440.0,0.717234
1445.0,0.71733
1450.0,0.715315
1455.0,0.711625
1460.0,0.712854
1465.0,0.711748
1470.0,0.712164
1475.0,0.711936
1480.0,0.711665
1485.0,0.712539
1490.0,0.71187
1495.0,0.71234
1500.0,0.713003
1505.0,0.711519
1510.0,0.713512
1515.0,0.712354
1520.0,0.712241
1525.0,0.710925
1530.0,0.71161
1535.0,0.709787
1540.0,0.71027
1545.0,0.709648
1550.0,0.709406
1555.0,0.70859
1560.0,0.708393
1565.0,0.708414
1570.0,0.706069
1575.0,0.705094
1580.0,0.705151
1585.0,0.704849
1590.0,0.701965
1595.0,0.702165
1600.0,0.701969
1605.0,0.701414
1610.0,0.699547
1615.0,0.699629
1620.0,0.697545
1625.0,0.69775
1630.0,0.694446
1635.0,0.693593
1640.0,0.692351
1645.0,0.691486
1650.0,0.690977
1655.0,0.689862
1660.0,0.687738
1665.0,0.688124
1670.0,0.686885
1675.0,0.68532
1680.0,0.68514
1685.0,0.68314
1690.0,0.680325
1695.0,0.679321
1700.0,0.67799
1705.0,0.676339
1710.0,0.674707
1715.0,0.673509
1720.0,0.673938
1725.0,0.6728
1730.0,0.671415
1735.0,0.669742
1740.0,0.66937
1745.0,0.66685
1750.0,0.667256
1755.0,0.666782
1760.0,0.665779
1765.0,0.664918
1770.0,0.664197
1775.0,0.663089
1780.0,0.662277
1785.0,0.662107
1790.0,0.660896
1795.0,0.660867
1800.0,0.66145
1805.0,0.660398
1810.0,0.660154
1815.0,0.660029
1820.0,0.659284
1825.0,0.659629
1830.0,0.658062
1835.0,0.658296
1840.0,0.657478
1845.0,0.656968
1850.0,0.656477
1855.0,0.65527
1860.0,0.653625
1865.0,0.652914
1870.0,0.649366
1875.0,0.645992
1880.0,0.641268
1885.0,0.632802
1890.0,0.621492
1895.0,0.601612
1900.0,0.583563
1905.0,0.571883
1910.0,0.56723
1915.0,0.566669
1920.0,0.566862
1925.0,0.564217
1930.0,0.56167
1935.0,0.558475
1940.0,0.556819
1945.0,0.554987
1950.0,0.554394
1955.0,0.554619
1960.0,0.556089
1965.0,0.556228
1970.0,0.558052
1975.0,0.558868
1980.0,0.560374
1985.0,0.563675
1990.0,0.564783
1995.0,0.567366
2000.0,0.569468
2005.0,0.571247
2010.0,0.57314
2015.0,0.575134
2020.0,0.576536
2025.0,0.578505
2030.0,0.579706
2035.0,0.581752
2040.0,0.582565
2045.0,0.583363
2050.0,0.584987
2055.0,0.585674
2060.0,0.586384
2065.0,0.587089
2070.0,0.587775
2075.0,0.588322
2080.0,0.589721
2085.0,0.590373
2090.0,0.591232
2095.0,0.591107
2100.0,0.592255
2105.0,0.592408
2110.0,0.59325
2115.0,0.594324
2120.0,0.595746
2125.0,0.596804
2130.0,0.596543
2135.0,0.597296
2140.0,0.599044
2145.0,0.599089
2150.0,0.599995
2155.0,0.599969
2160.0,0.599751
2165.0,0.599337
2170.0,0.59834
2175.0,0.598517
2180.0,0.597899
2185.0,0.597098
2190.0,0.597174
2195.0,0.594481
2200.0,0.593799
2205.0,0.591035
2210.0,0.589308
2215.0,0.588035
2220.0,0.58721
2225.0,0.587918
2230.0,0.588067
2235.0,0.587231
2240.0,0.586662
2245.0,0.586587
2250.0,0.585869
2255.0,0.586258
2260.0,0.585573
2265.0,0.585181
2270.0,0.584738
2275.0,0.585299
2280.0,0.583872
2285.0,0.584342
2290.0,0.583541
2295.0,0.582977
2300.0,0.581463
2305.0,0.582027
2310.0,0.580495
2315.0,0.578467
2320.0,0.57651
2325.0,0.574189
2330.0,0.572531
2335.0,0.570888
2340.0,0.569077
2345.0,0.566239
2350.0,0.563965
2355.0,0.560563
2360.0,0.556749
2365.0,0.553397
2370.0,0.55103
2375.0,0.548173
2380.0,0.544001
2385.0,0.540439
2390.0,0.537097
2395.0,0.533456
2400.0,0.528775
2405.0,0.525345
2410.0,0.520837
2415.0,0.515658
2420.0,0.513244
2425.0,0.508611
2430.0,0.504758
2435.0,0.500265
2440.0,0.496254
2445.0,0.491774
2450.0,0.487787
2455.0,0.483629
2460.0,0.479002
2465.0,0.475507
2470.0,0.471761
2475.0,0.469451
2480.0,0.465734
2485.0,0.463208
2490.0,0.460474
2495.0,0.4572
2500.0,0.454297
2505.0,0.4524
2510.0,0.449265
2515.0,0.446766
2520.0,0.44498
2525.0,0.442761
2530.0,0.440015
2535.0,0.437748
2540.0,0.436817
2545.0,0.43428
2550.0,0.433423
2555.0,0.433123
2560.0,0.430217
2565.13,0.429563
2570.22,0.425696
2575.33,0.426958
2580.46,0.424412
2581.74,0.424928
2583.03,0.425708
2584.31,0.425698
2585.6,0.425182
2586.89,0.423094
2588.19,0.423836
2589.48,0.424839
2590.77,0.423607
2592.07,0.422229
2593.36,0.421593
2594.66,0.421183
2595.96,0.423591
2597.26,0.423511
2598.56,0.420655
2599.87,0.419446
2601.17,0.420274
2602.48,0.420474
2603.78,0.421775
2605.09,0.421157
2606.4,0.419138
2607.71,0.418789
2609.03,0.41927
2610.34,0.418903
2611.66,0.418445
2612.97,0.41698
2614.29,0.416041
2615.61,0.415129
2616.93,0.415522
2618.25,0.416326
2619.57,0.415363
2620.9,0.41505
2622.22,0.415626
2623.55,0.413943
2624.88,0.413013
2626.21,0.411614
2627.54,0.41263
2628.87,0.412393
2630.21,0.410018
2631.54,0.411109
2632.88,0.41223
2634.21,0.411147
2635.55,0.410352
2636.89,0.40963
2638.24,0.410007
2639.58,0.409613
2640.92,0.408995
2642.27,0.408532
2643.62,0.407854
2644.97,0.406189
2646.32,0.40501
2647.67,0.403734
2649.02,0.402167
2650.38,0.401407
2651.73,0.401015
2653.09,0.400984
2654.45,0.400456
2655.81,0.398593
2657.17,0.39688
2658.53,0.393847
2659.89,0.392132
2661.26,0.391122
2662.63,0.389306
2664.0,0.38657
2665.36,0.383961
2666.74,0.381351
2668.11,0.377781
2669.48,0.371332
2670.86,0.363653
2672.23,0.354921
2673.61,0.346747
2674.99,0.340291
2676.37,0.335834
2677.76,0.330844
2679.14,0.326463
2680.52,0.323153
2681.91,0.320651
2683.3,0.317036
2684.69,0.313171
2686.08,0.309166
2687.47,0.305557
2688.87,0.301295
2690.26,0.296623
2691.66,0.292208
2693.06,0.287982
2694.46,0.283837
2695.86,0.278819
2697.26,0.27486
2698.66,0.271751
2700.07,0.268022
2701.48,0.263365
2702.89,0.259206
2704.3,0.255077
2705.71,0.251167
2707.12,0.247818
2708.53,0.244085
2709.95,0.239671
2711.37,0.235884
2712.79,0.232392
2714.21,0.22779
2715.63,0.223635
2717.05,0.219441
2718.48,0.216474
2719.9,0.213618
2721.33,0.209752
2722.76,0.207215
2724.19,0.205037
2725.62,0.201966
2727.06,0.199747
2728.49,0.197705
2729.93,0.195
2731.37,0.193702
2732.81,0.192969
2734.25,0.190878
2735.69,0.188874
2737.14,0.186733
2738.58,0.184687
2740.03,0.183731
2741.48,0.18267
2742.93,0.18215
2744.38,0.181978
2745.83,0.180141
2747.29,0.178364
2748.75,0.177194
2750.2,0.177328
2751.66,0.176148
2753.13,0.174605
2754.59,0.173067
2756.05,0.172675
2757.52,0.171907
2758.99,0.170201
2760.46,0.169597
2761.93,0.16755
2763.4,0.165344
2764.87,0.165651
2766.35,0.16526
2767.82,0.163923
2769.3,0.162735
2770.78,0.160696
2772.26,0.159622
2773.75,0.15898
2775.23,0.158231
2776.72,0.156219
2778.21,0.15396
2779.7,0.15342
2781.19,0.152916
2782.68,0.151313
2784.18,0.149196
2785.67,0.147859
2787.17,0.146983
2788.67,0.145724
2790.17,0.144183
2791.67,0.142014
2793.18,0.139087
2794.68,0.137105
2796.19,0.134625
2797.7,0.133839
2799.21,0.133936
2800.72,0.13353
2802.24,0.132238
2803.75,0.129957
2805.27,0.127939
2806.79,0.125989
2808.31,0.124503
2809.83,0.122856
2811.35,0.121497
2812.88,0.121226
2814.41,0.119633
2815.93,0.117796
2817.46,0.116211
2819.0,0.115706
2820.53,0.115388
2822.07,0.113548
2823.6,0.112103
2825.14,0.112419
2826.68,0.1121
2828.22,0.11048
2829.77,0.108461
2831.31,0.107737
2832.86,0.107472
2834.41,0.10613
2835.96,0.105219
2837.51,0.104721
2839.07,0.10464
2840.62,0.104014
2842.18,0.102795
2843.74,0.101845
2845.3,0.100923
2846.86,0.100332
2848.43,0.099792
2849.99,0.099589
2851.56,0.098734
2853.13,0.097403
2854.7,0.096701
2856.27,0.096058
2857.85,0.095259
2859.42,0.094194
2861.0,0.094201
2862.58,0.094269
2864.16,0.093688
2865.75,0.093241
2867.33,0.092728
2868.92,0.092025
2870.51,0.091063
2872.1,0.090865
2873.69,0.090343
2875.28,0.089137
2876.88,0.088253
2878.48,0.087924
2880.07,0.087759
2881.68,0.087599
2883.28,0.086921
2884.88,0.085627
2886.49,0.084833
2888.1,0.084408
2889.71,0.083339
2891.32,0.083436
2892.93,0.083788
2894.55,0.082521
2896.16,0.081547
2897.78,0.080674
2899.4,0.080867
2901.03,0.0813
2902.65,0.080115
2904.28,0.079208
2905.91,0.078619
2907.54,0.077742
2909.17,0.077133
2910.8,0.076131
2912.44,0.074944
2914.07,0.074687
2915.71,0.074122
2917.35,0.07396
2918.99,0.073347
2920.64,0.07335
2922.29,0.073904
2923.93,0.074046
2925.58,0.073443
2927.24,0.071764
2928.89,0.071313
2930.55,0.071547
2932.2,0.070395
2933.86,0.070313
2935.52,0.07127
2937.19,0.070564
2938.85,0.069938
2940.52,0.070105
2942.19,0.06982
2943.86,0.069424
2945.53,0.070019
2947.21,0.070504
2948.88,0.069325
2950.56,0.06842
2952.24,0.06865
2953.92,0.069239
2955.61,0.069891
2957.29,0.068913
2958.98,0.068485
2960.67,0.069085
2962.36,0.068199
2964.06,0.067528
2965.75,0.067818
2967.45,0.068508
2969.15,0.0681
2970.85,0.068171
2972.55,0.068443
2974.26,0.067636
2975.97,0.066933
2977.68,0.067201
2979.39,0.067018
2981.1,0.066334
2982.82,0.065328
2984.53,0.06537
2986.25,0.066288
2987.97,0.067114
2989.7,0.067639
2991.42,0.067431
2993.15,0.066504
2994.88,0.066044
2996.61,0.066425
2998.34,0.066618
3000.08,0.065982
3001.82,0.065448
3003.55,0.065448
3005.3,0.064792
3007.04,0.064373
3008.78,0.06538
3010.53,0.065929
3012.28,0.065517
3014.03,0.065422
3015.79,0.065573
3017.54,0.065568
3019.3,0.065213
3021.06,0.06464
3022.82,0.064282
3024.58,0.064073
3026.35,0.064097
3028.12,0.063974
3029.89,0.064325
3031.66,0.063694
3033.43,0.063705
3035.21,0.064369
3036.99,0.064497
3038.77,0.064008
3040.55,0.062996
3042.33,0.063027
3044.12,0.063367
3045.91,0.063186
3047.7,0.063131
3049.49,0.062851
3051.29,0.063104
3053.08,0.063136
3054.88,0.062822
3056.68,0.062578
3058.49,0.062704
3060.29,0.062347
3062.1,0.061933
3063.91,0.062105
3065.72,0.063356
3067.54,0.063328
3069.35,0.062751
3071.17,0.06258
3072.99,0.062611
3074.81,0.062702
3076.64,0.063016
3078.47,0.063305
3080.29,0.062432
3082.13,0.061378
3083.96,0.062114
3085.79,0.062168
3087.63,0.062128
3089.47,0.062879
3091.31,0.06341
3093.16,0.06303
3095.01,0.062693
3096.85,0.062777
3098.71,0.063047
3100.56,0.063161
3102.41,0.063355
3104.27,0.063513
3106.13,0.063321
3107.99,0.062876
3109.86,0.062272
3111.73,0.062297
3113.59,0.062583
3115.47,0.062324
3117.34,0.06287
3119.21,0.062629
3121.09,0.061942
3122.97,0.062341
3124.86,0.062323
3126.74,0.062102
3128.63,0.061842
3130.52,0.062332
3132.41,0.063113
3134.3,0.062848
3136.2,0.062575
3138.1,0.062871
3140.0,0.063364
3141.9,0.06356
3143.81,0.063091
3145.71,0.062963
3147.62,0.062787
3149.54,0.063433
3151.45,0.063434
3153.37,0.063649
3155.29,0.064101
3157.21,0.064494
3159.13,0.064267
3161.06,0.064229
3162.99,0.064345
3164.92,0.063692
3166.85,0.063488
3168.79,0.063905
3170.72,0.063894
3172.67,0.064276
3174.61,0.064532
3176.55,0.064427
3178.5,0.064532
3180.45,0.064651
3182.4,0.0647
3184.36,0.064482
3186.32,0.064219
3188.27,0.064804
3190.24,0.064449
3192.2,0.064345
3194.17,0.065256
3196.14,0.065671
3198.11,0.065424
3200.08,0.06505
3202.06,0.064857
3204.04,0.064972
3206.02,0.065376
3208.0,0.065838
3209.99,0.06602
3211.98,0.065688
3213.97,0.065329
3215.96,0.065315
3217.96,0.065831
3219.96,0.066188
3221.96,0.06586
3223.96,0.066236
3225.97,0.066443
3227.98,0.065884
3229.99,0.066282
3232.0,0.066993
3234.02,0.067796
3236.04,0.067554
3238.06,0.067004
3240.08,0.067065
3242.11,0.067682
3244.14,0.067575
3246.17,0.067444
3248.2,0.067428
3250.24,0.067738
3252.28,0.067426
3254.32,0.067155
3256.37,0.067359
3258.41,0.068091
3260.46,0.069075
3262.51,0.068902
3264.57,0.068
3266.63,0.067903
3268.69,0.069124
3270.75,0.069498
3272.81,0.069112
3274.88,0.06954
3276.95,0.069736
3279.02,0.070036
3281.1,0.070169
3283.18,0.069676
3285.26,0.069776
3287.34,0.070536
3289.43,0.071466
3291.51,0.071806
3293.61,0.072119
3295.7,0.07171
3297.8,0.071651
3299.9,0.072765
3302.0,0.07354
3304.1,0.073608
3306.21,0.073615
3308.32,0.07363
3310.43,0.074131
3312.55,0.074541
3314.66,0.074597
3316.79,0.074918
3318.91,0.075034
3321.03,0.074753
3323.16,0.075195
3325.29,0.075727
3327.43,0.075855
3329.57,0.076153
3331.71,0.076275
3333.85,0.076782
3335.99,0.077814
3338.14,0.078194
3340.29,0.077915
3342.45,0.078179
3344.6,0.078308
3346.76,0.078645
3348.92,0.078833
3351.09,0.07994
3353.26,0.080616
3355.43,0.080779
3357.6,0.080811
3359.78,0.080959
3361.96,0.080694
3364.14,0.080725
3366.32,0.082279
3368.51,0.083822
3370.7,0.084417
3372.89,0.084331
3375.09,0.084328
3377.29,0.084822
3379.49,0.085429
3381.69,0.085933
3383.9,0.085927
3386.11,0.08623
3388.32,0.086861
3390.54,0.087127
3392.76,0.087472
3394.98,0.087716
3397.21,0.088267
3399.43,0.089018
3401.66,0.089515
3403.9,0.089928
3406.13,0.09032
3408.37,0.091059
3410.61,0.09179
3412.86,0.091875
3415.11,0.091899
3417.36,0.092223
3419.61,0.092966
3421.87,0.093492
3424.13,0.093652
3426.39,0.094276
3428.66,0.09517
3430.93,0.095291
3433.2,0.095523
3435.48,0.09613
3437.76,0.096578
3440.04,0.097047
3442.32,0.097356
3444.61,0.097774
3446.9,0.098644
3449.19,0.099401
3451.49,0.100132
3453.79,0.100999
3456.09,0.101249
3458.4,0.1007
3460.7,0.100779
3463.02,0.101967
3465.33,0.102634
3467.65,0.102519
3469.97,0.102957
3472.29,0.103974
3474.62,0.104467
3476.95,0.105059
3479.29,0.106044
3481.62,0.106765
3483.96,0.106907
3486.3,0.107557
3488.65,0.108639
3491.0,0.109279
3493.35,0.109369
3495.71,0.109732
3498.07,0.110464
3500.43,0.110795
3502.79,0.11094
3505.16,0.111765
3507.53,0.112815
3509.91,0.11323
3512.29,0.113688
3514.67,0.114336
3517.05,0.114953
3519.44,0.115479
3521.83,0.115841
3524.23,0.116252
3526.62,0.117309
3529.02,0.118167
3531.43,0.118258
3533.83,0.119018
3536.24,0.119529
3538.66,0.119761
3541.08,0.12054
3543.5,0.121082
3545.92,0.121733
3548.35,0.122558
3550.78,0.123245
3553.21,0.123632
3555.65,0.123724
3558.09,0.124543
3560.53,0.125679
3562.98,0.125949
3565.43,0.126285
3567.88,0.126824
3570.34,0.127317
3572.8,0.128199
3575.27,0.129157
3577.73,0.129413
3580.2,0.129601
3582.68,0.130192
3585.16,0.131081
3587.64,0.132219
3590.12,0.132748
3592.61,0.133042
3595.1,0.133354
3597.6,0.13392
3600.09,0.134718
3602.6,0.135378
3605.1,0.136251
3607.61,0.136852
3610.12,0.137553
3612.64,0.137947
3615.16,0.137726
3617.68,0.138686
3620.21,0.139977
3622.74,0.140517
3625.27,0.140843
3627.81,0.141524
3630.35,0.142629
3632.89,0.143466
3635.44,0.143907
3637.99,0.144304
3640.54,0.144638
3643.1,0.145192
3645.66,0.145982
3648.23,0.147038
3650.8,0.147544
3653.37,0.147803
3655.95,0.148407
3658.53,0.149012
3661.11,0.149477
3663.7,0.150415
3666.29,0.151091
3668.89,0.151418
3671.48,0.152164
3674.09,0.152939
3676.69,0.153186
3679.3,0.153388
3681.91,0.153909
3684.53,0.154766
3687.15,0.15552
3689.78,0.156005
3692.4,0.157079
3695.04,0.15794
3697.67,0.158246
3700.31,0.158659
3702.95,0.159813
3705.6,0.160383
3708.25,0.160288
3710.91,0.160822
3713.56,0.161214
3716.23,0.161075
3718.89,0.161887
3721.56,0.163288
3724.23,0.16405
3726.91,0.163843
3729.59,0.163789
3732.28,0.164549
3734.97,0.165393
3737.66,0.166083
3740.36,0.166592
3743.06,0.166801
3745.76,0.167393
3748.47,0.168114
3751.18,0.168895
3753.9,0.169003
3756.62,0.16902
3759.34,0.169819
3762.07,0.17045
3764.8,0.17068
3767.54,0.170686
3770.28,0.171027
3773.02,0.171728
3775.77,0.172112
3778.52,0.172483
3781.28,0.17265
3784.04,0.172754
3786.8,0.173234
3789.57,0.17414
3792.34,0.174843
3795.12,0.17495
3797.9,0.175026
3800.69,0.17502
3803.47,0.175066
3806.27,0.175264
3809.06,0.176137
3811.86,0.176591
3814.67,0.176564
3817.48,0.176845
3820.29,0.176939
3823.11,0.176802
3825.93,0.177163
3828.76,0.177238
3831.59,0.177354
3834.42,0.177471
3837.26,0.177791
3840.1,0.177947
3842.95,0.178235
3845.8,0.178524
3848.65,0.178394
3851.51,0.178362
3854.38,0.178547
3857.24,0.178735
3860.12,0.179045
3862.99,0.179049
3865.87,0.17925
3868.76,0.179129
3871.65,0.179151
3874.54,0.179626
3877.44,0.179216
3880.34,0.179289
3883.25,0.179726
3886.16,0.179936
3889.07,0.18036
3891.99,0.180201
3894.92,0.180088
3897.85,0.180356
3900.78,0.180375
3903.72,0.180073
3906.66,0.180193
3909.6,0.180069
3912.55,0.180036
3915.51,0.180335
3918.47,0.180342
3921.43,0.180164
3924.4,0.180258
3927.38,0.180064
3930.35,0.18007
3933.33,0.180095
3936.32,0.180058
3939.31,0.18024
3942.31,0.180166
3945.31,0.180059
3948.31,0.180092
3951.32,0.179879
3954.34,0.179503
3957.35,0.179471
3960.38,0.179501
3963.41,0.179379
3966.44,0.179428
3969.48,0.179495
3972.52,0.179289
3975.56,0.179541
3978.61,0.179911
3981.67,0.180139
3984.73,0.180091
3987.8,0.179946
3990.87,0.1797
3993.94,0.179779
3997.02,0.180243
4000.1,0.180181
4003.19,0.180093
4006.29,0.180308
4009.39,0.180733
4012.49,0.181192
4015.6,0.181527
4018.71,0.181671
4021.83,0.181717
4024.95,0.181852
4028.08,0.182312
4031.21,0.182576
4034.35,0.182597
4037.49,0.182797
4040.64,0.183372
4043.79,0.183629
4046.94,0.18381
4050.11,0.184286
4053.27,0.184633
4056.44,0.185011
4059.62,0.18584
4062.8,0.186179
4065.99,0.186294
4069.18,0.18684
4072.38,0.187193
4075.58,0.187231
4078.78,0.187741
4082.0,0.188231
4085.21,0.188195
4088.43,0.188618
4091.66,0.189088
4094.89,0.189409
4098.13,0.189994
4101.37,0.190166
4104.62,0.19029
4107.87,0.190781
4111.13,0.19163
4114.39,0.191879
4117.66,0.191835
4120.93,0.192292
4124.21,0.192728
4127.5,0.192693
4130.79,0.193154
4134.08,0.193759
4137.38,0.194103
4140.68,0.194265
4143.99,0.194249
4147.31,0.194263
4150.63,0.194681
4153.95,0.195225
4157.29,0.195466
4160.62,0.195886
4163.96,0.196401
4167.31,0.196611
4170.66,0.196965
4174.02,0.197693
4177.39,0.198291
4180.75,0.198065
4184.13,0.198199
4187.51,0.198637
4190.89,0.199154
4194.28,0.199319
4197.68,0.199379
4201.08,0.199624
4204.49,0.200018
4207.9,0.200874
4211.32,0.201224
4214.74,0.201055
4218.17,0.200925
4221.61,0.201425
4225.05,0.201872
4228.5,0.201935
4231.95,0.20247
4235.4,0.20294
4238.87,0.203622
4242.34,0.204224
4245.81,0.204427
4249.29,0.204443
4252.78,0.205004
4256.27,0.205759
4259.77,0.205845
4263.27,0.205836
4266.78,0.206257
4270.29,0.206844
4273.81,0.20739
4277.34,0.207425
4280.87,0.207642
4284.41,0.208632
4287.95,0.208978
4291.5,0.208934
4295.06,0.209497
4298.62,0.21014
4302.19,0.210811
4305.76,0.211423
4309.34,0.211696
4312.92,0.211634
4316.52,0.212024
4320.11,0.212687
4323.72,0.213041
4327.32,0.213327
4330.94,0.213839
4334.56,0.214001
4338.19,0.214361
4341.82,0.214886
4345.46,0.215302
4349.11,0.215698
4352.76,0.216093
4356.42,0.216622
4360.08,0.217097
4363.75,0.217428
4367.43,0.217933
4371.11,0.218502
4374.8,0.219109
4378.49,0.219267
4382.19,0.219265
4385.9,0.21933
4389.61,0.220077
4393.33,0.221128
4397.06,0.221746
4400.79,0.221978
4404.53,0.222018
4408.28,0.222191
4412.03,0.222678
4415.79,0.223197
4419.55,0.223434
4423.32,0.223812
4427.1,0.224127
4430.88,0.224096
4434.68,0.224611
4438.47,0.225198
4442.28,0.225631
4446.08,0.22587
4449.9,0.226316
4453.72,0.226465
4457.55,0.226573
4461.39,0.22682
4465.23,0.227244
4469.08,0.227703
4472.94,0.228184
4476.8,0.228543
4480.67,0.228835
4484.55,0.22922
4488.43,0.229752
4492.32,0.230547
4496.21,0.231374
4500.12,0.231994
4504.03,0.232459
4507.94,0.232702
4511.87,0.233065
4515.8,0.233834
4519.73,0.234568
4523.68,0.234772
4527.63,0.235238
4531.59,0.235518
4535.55,0.236042
4539.52,0.236594
4543.5,0.237263
4547.49,0.237387
4551.48,0.237752
4555.48,0.238171
4559.49,0.238629
4563.5,0.23917
4567.52,0.239797
4571.55,0.240178
4575.58,0.240438
4579.63,0.24131
4583.67,0.241766
4587.73,0.24188
4591.79,0.241915
4595.86,0.24172
4599.94,0.242173
4604.03,0.2427
4608.12,0.242699
4612.22,0.242686
4616.33,0.24294
4620.44,0.243517
4624.56,0.243766
4628.69,0.243881
4632.83,0.244108
4636.97,0.243935
4641.12,0.244001
4645.28,0.244153
4649.45,0.244022
4653.62,0.243666
4657.8,0.243385
4661.99,0.243268
4666.19,0.243089
4670.39,0.242968
4674.6,0.243361
4678.82,0.243469
4683.05,0.243436
4687.28,0.24383
4691.52,0.244266
4695.77,0.244048
4700.03,0.244319
4704.3,0.244971
4708.57,0.246278
4712.85,0.247427
4717.14,0.248781
4721.43,0.250438
4725.74,0.251573
4730.05,0.252544
4734.37,0.253398
4738.7,0.254081
4743.03,0.254616
4747.38,0.254974
4751.73,0.255581
4756.09,0.255808
4760.45,0.256179
4764.83,0.256557
4769.21,0.256954
4773.6,0.257277
4778.0,0.257391
4782.41,0.257206
4786.83,0.257387
4791.25,0.257625
4795.68,0.257719
4800.13,0.257705
4804.57,0.257432
4809.03,0.257075
4813.5,0.256464
4817.97,0.255906
4822.45,0.255506
4826.94,0.255306
4831.44,0.254925
4835.95,0.254078
4840.46,0.253484
4844.99,0.252762
4849.52,0.251835
4854.06,0.250906
4858.61,0.250203
4863.17,0.249133
4867.73,0.248342
4872.31,0.247283
4876.89,0.245775
4881.48,0.244152
4886.08,0.24275
4890.69,0.24176
4895.31,0.240843
4899.94,0.239572
4904.57,0.238475
4909.22,0.23715
4913.87,0.23575
4918.53,0.234565
4923.21,0.233021
4927.88,0.231516
4932.57,0.230061
4937.27,0.228531
4941.98,0.227677
4946.69,0.22685
4951.42,0.225829
4956.15,0.225142
4960.9,0.224264
4965.65,0.223215
4970.41,0.222664
4975.18,0.222145
4979.96,0.221686
4984.75,0.221231
4989.54,0.220671
4994.35,0.219977
4999.17,0.219912
5003.99,0.219657
5008.83,0.219401
5013.67,0.219561
5018.52,0.219527
5023.39,0.219191
5028.26,0.219326
5033.14,0.219394
5038.03,0.219775
5042.93,0.220308
5047.84,0.220348
5052.76,0.220408
5057.69,0.220439
5062.63,0.220486
5067.58,0.221008
5072.54,0.221422
5077.51,0.22167
5082.49,0.222138
5087.47,0.222833
5092.47,0.223401
5097.48,0.22402
5102.5,0.224074
5107.52,0.22434
5112.56,0.22489
5117.61,0.22522
5122.66,0.225356
5127.73,0.225727
5132.81,0.22586
5137.89,0.225859
5142.99,0.225939
5148.1,0.226309
5153.22,0.226372
5158.34,0.22609
5163.48,0.225909
5168.63,0.225349
5173.79,0.224746
5178.96,0.224408
5184.13,0.22368
5189.32,0.222699
5194.52,0.221454
5199.73,0.220418
5204.96,0.219198
5210.19,0.217649
5215.43,0.215523
5220.68,0.213499
5225.94,0.211386
5231.22,0.208754
5236.5,0.206126
5241.79,0.203818
5247.1,0.201423
5252.42,0.198951
5257.74,0.196192
5263.08,0.193818
5268.43,0.1914
5273.79,0.189176
5279.16,0.186788
5284.54,0.184345
5289.93,0.181966
5295.34,0.180133
5300.75,0.178805
5306.18,0.177512
5311.61,0.175967
5317.06,0.174541
5322.52,0.17353
5327.99,0.173101
5333.47,0.17273
5338.96,0.172442
5344.47,0.172427
5349.98,0.172868
5355.51,0.173473
5361.05,0.174136
5366.6,0.175104
5372.16,0.176573
5377.73,0.178085
5383.32,0.179813
5388.91,0.181679
5394.52,0.183418
5400.14,0.184875
5405.77,0.186721
5411.41,0.188463
5417.07,0.189757
5422.74,0.191137
5428.41,0.192871
5434.1,0.194145
5439.81,0.195263
5445.52,0.196207
5451.25,0.197117
5456.98,0.197674
5462.73,0.198242
5468.5,0.198935
5474.27,0.199415
5480.06,0.199442
5485.86,0.199724
5491.67,0.19961
5497.49,0.199492
5503.33,0.199205
5509.18,0.198902
5515.04,0.198365
5520.91,0.19786
5526.8,0.197733
5532.69,0.197595
5538.61,0.197006
5544.53,0.196411
5550.47,0.195437
5556.41,0.194627
5562.38,0.193798
5568.35,0.193238
5574.34,0.192466
5580.34,0.191785
5586.35,0.19141
5592.38,0.190785
5598.42,0.189934
5604.47,0.189252
5610.54,0.188271
5616.61,0.18737
5622.71,0.186492
5628.81,0.185912
5634.93,0.185005
5641.06,0.183847
5647.21,0.182949
5653.36,0.182329
5659.54,0.181381
5665.72,0.180611
5671.92,0.179568
5678.13,0.178601
5684.36,0.177205
5690.6,0.176038
5696.85,0.174889
5703.12,0.173885
5709.4,0.172392
5715.69,0.170932
5722.0,0.169827
5728.33,0.168873
5734.66,0.167292
5741.01,0.165933
5747.38,0.163828
5753.76,0.161842
5760.15,0.160349
5766.56,0.158569
5772.98,0.156292
5779.41,0.1544
5785.86,0.152244
5792.33,0.149829
5798.81,0.147569
5805.3,0.145448
5811.81,0.14307
5818.33,0.141279
5824.87,0.139004
5831.42,0.136517
5837.99,0.133872
5844.57,0.131583
5851.17,0.129538
5857.78,0.127707
5864.41,0.125503
5871.05,0.123206
5877.7,0.120678
5884.38,0.118535
5891.06,0.115872
5897.76,0.113457
5904.48,0.111163
5911.21,0.109064
5917.96,0.106913
5924.73,0.104781
5931.5,0.101994
5938.3,0.099504
5945.11,0.097457
5951.93,0.095613
5958.78,0.093757
5965.63,0.092182
5972.51,0.090371
5979.39,0.088756
5986.3,0.087058
5993.22,0.085696
6000.16,0.084521
6007.11,0.083401
6014.08,0.081953
6021.06,0.080661
6028.06,0.079374
6035.08,0.078354
6042.12,0.077247
6049.17,0.076326
6056.23,0.07538
6063.32,0.074927
6070.42,0.074422
6077.53,0.073646
6084.67,0.073128
6091.82,0.072984
6098.98,0.07277
6106.17,0.072605
6113.37,0.072583
6120.58,0.072532
6127.82,0.072079
6135.07,0.072259
6142.34,0.072896
6149.63,0.073614
6156.93,0.074265
6164.25,0.075085
6171.59,0.075912
6178.95,0.076938
6186.32,0.078491
6193.71,0.080734
6201.12,0.082652
6208.54,0.084362
6215.99,0.08641
6223.45,0.088421
6230.93,0.090441
6238.43,0.092552
6245.95,0.094643
6253.48,0.096682
6261.03,0.098708
6268.6,0.100395
6276.19,0.102009
6283.8,0.103828
6291.43,0.105483
6299.07,0.10688
6306.73,0.10809
6314.42,0.109454
6322.12,0.110982
6329.84,0.112418
6337.57,0.113104
6345.33,0.114026
6353.11,0.115211
6360.9,0.115825
6368.72,0.116337
6376.55,0.116829
6384.4,0.117399
6392.27,0.117991
6400.17,0.118414
6408.08,0.118773
6416.01,0.119419
6423.96,0.119604
6431.93,0.119248
6439.92,0.119381
6447.93,0.11948
6455.96,0.118965
6464.01,0.118443
6472.08,0.118517
6480.17,0.118488
6488.28,0.117778
6496.41,0.117178
6504.56,0.116905
6512.73,0.116452
6520.92,0.115984
6529.14,0.11551
6537.37,0.114671
6545.63,0.114482
6553.9,0.113973
6562.2,0.113148
6570.51,0.112766
6578.85,0.11237
6587.21,0.111648
6595.59,0.110768
6603.99,0.110228
6612.42,0.109663
6620.86,0.109206
6629.33,0.10869
6637.82,0.108558
6646.33,0.108674
6654.86,0.107848
6663.41,0.107169
6671.99,0.106573
6680.59,0.105646
6689.21,0.104819
6697.85,0.104169
6706.51,0.103775
6715.2,0.103287
6723.91,0.102634
6732.64,0.101971
6741.4,0.101163
6750.18,0.100294
6758.98,0.099738
6767.8,0.099217
6776.65,0.09836
6785.52,0.097414
6794.41,0.096808
6803.33,0.096159
6812.27,0.095385
6821.23,0.094358
6830.22,0.093525
6839.23,0.092624
6848.26,0.091746
6857.32,0.090619
6866.4,0.089763
6875.51,0.088753
6884.64,0.087896
6893.8,0.087025
6902.98,0.085917
6912.18,0.084983
6921.41,0.084152
6930.66,0.082959
6939.94,0.081744
6949.24,0.080604
6958.57,0.079257
6967.92,0.077956
6977.3,0.077065
6986.7,0.076403
6996.13,0.075553
7005.59,0.074324
7015.07,0.073271
7024.57,0.072443
7034.1,0.072005
7043.66,0.071258
7053.25,0.070294
7062.85,0.069202
7072.49,0.068338
7082.15,0.067413
7091.84,0.066782
7101.55,0.065912
7111.3,0.064776
7121.06,0.063859
7130.86,0.063048
7140.68,0.062008
7150.53,0.06089
7160.41,0.05981
7170.31,0.058996
7180.24,0.057889
7190.2,0.056862
7200.19,0.055724
7210.2,0.054666
7220.24,0.053665
7230.31,0.052757
7240.41,0.051725
7250.54,0.050664
7260.69,0.049499
7270.88,0.048759
7281.09,0.047546
7291.33,0.046176
7301.6,0.045339
7311.9,0.044516
7322.22,0.043265
7332.58,0.042335
7342.97,0.041371
7353.38,0.040545
7363.83,0.039679
7374.3,0.038873
7384.81,0.03814
7395.34,0.037237
7405.91,0.036521
7416.5,0.036289
7427.13,0.036043
7437.78,0.03558
7448.47,0.034821
7459.19,0.034242
7469.94,0.033813
7480.71,0.033492
7491.52,0.033438
7502.37,0.033655
7513.24,0.033632
7524.14,0.033657
7535.08,0.033541
7546.05,0.034062
7557.05,0.03444
7568.08,0.03448
7579.15,0.035301
7590.24,0.036715
7601.37,0.037335
7612.53,0.038466
7623.73,0.040148
7634.96,0.041781
7646.22,0.043144
7657.51,0.044855
7668.84,0.047014
7680.2,0.049133
7691.59,0.051504
7703.02,0.05419
7714.49,0.056397
7725.98,0.058988
7737.52,0.062201
7749.08,0.065695
7760.68,0.068568
7772.32,0.071196
7783.99,0.074351
7795.69,0.077356
7807.43,0.080045
7819.21,0.082808
7831.02,0.085375
7842.87,0.087535
7854.75,0.089582
7866.67,0.091355
7878.62,0.092365
7890.62,0.093109
7902.64,0.093885
7914.71,0.094071
7926.81,0.09341
7938.95,0.092528
7951.13,0.09078
7963.34,0.08872
7975.59,0.086583
7987.88,0.08411
8000.21,0.081532
8012.57,0.07937
8024.98,0.076971
8037.42,0.074852
8049.9,0.073062
8062.42,0.071601
8074.98,0.070569
8087.57,0.069527
8100.21,0.068159
8112.89,0.066645
8125.6,0.065538
8138.36,0.065093
8151.16,0.064246
8163.99,0.063744
8176.87,0.063306
8189.79,0.062458
8202.75,0.061745
8215.75,0.061644
8228.79,0.061306
8241.87,0.060833
8254.99,0.060547
8268.16,0.060313
8281.37,0.060092
8294.62,0.059386
8307.91,0.058546
8321.24,0.05802
8334.62,0.057276
8348.04,0.05689
8361.51,0.056542
8375.02,0.055808
8388.57,0.05579
8402.16,0.056185
8415.8,0.055763
8429.49,0.055526
8443.22,0.055656
8456.99,0.05572
8470.81,0.055508
8484.67,0.055178
8498.58,0.054994
8512.54,0.055022
8526.54,0.05478
8540.58,0.054629
8554.68,0.054254
8568.82,0.053579
8583.0,0.053416
8597.24,0.053494
8611.52,0.0532
8625.85,0.052976
8640.23,0.052991
8654.65,0.053038
8669.12,0.053121
8683.64,0.053536
8698.21,0.054163
8712.83,0.054699
8727.5,0.054882
8742.22,0.054941
8756.99,0.055293
8771.8,0.055506
8786.67,0.055918
8801.59,0.056763
8816.56,0.056752
8831.58,0.057045
8846.65,0.057492
8861.77,0.057763
8876.94,0.058145
8892.17,0.05841
8907.45,0.058324
8922.78,0.058351
8938.16,0.058704
8953.6,0.05892
8969.09,0.058728
8984.64,0.058712
9000.23,0.058401
9015.89,0.057933
9031.59,0.05767
9047.36,0.057531
9063.17,0.056858
9079.05,0.056008
9094.97,0.055527
9110.96,0.055434
9127.0,0.054841
9143.1,0.053811
9159.25,0.052813
9175.46,0.052363
9191.73,0.052209
9208.06,0.052226
9224.44,0.05226
9240.88,0.051903
9257.38,0.051362
9273.94,0.051275
9290.56,0.051201
9307.24,0.050588
9323.98,0.050046
9340.78,0.049334
9357.64,0.048434
9374.57,0.047924
9391.55,0.047906
9408.59,0.047918
9425.7,0.047503
9442.87,0.047326
9460.1,0.04727
9477.4,0.047448
9494.75,0.047593
9512.17,0.04724
9529.66,0.046838
9547.21,0.047279
9564.83,0.047954
9582.5,0.048668
9600.25,0.04943
9618.06,0.050124
9635.94,0.050296
9653.88,0.050851
9671.89,0.05204
9689.97,0.053981
9708.12,0.055254
9726.33,0.056414
9744.62,0.058207
9762.97,0.059697
9781.39,0.060147
9799.88,0.060802
9818.44,0.062029
9837.07,0.062584
9855.77,0.062808
9874.54,0.063038
9893.39,0.06396
9912.3,0.065918
9931.29,0.067732
9950.36,0.069245
9969.49,0.071293
9988.7,0.07298
10007.98,0.073687
10027.34,0.074717
10046.77,0.075743
10066.28,0.077043
10085.87,0.078247
10105.53,0.078675
10125.26,0.078938
10145.08,0.079681
10164.97,0.080701
10184.94,0.080872
10204.99,0.080783
10225.12,0.081467
10245.33,0.081949
10265.61,0.081377
10285.98,0.080805
10306.43,0.080881
10326.96,0.080625
10347.57,0.07999
10368.27,0.079451
10389.05,0.078934
10409.91,0.078458
10430.86,0.078147
10451.88,0.077465
10473.0,0.07661
10494.2,0.075782
10515.49,0.074999
10536.86,0.074565
10558.32,0.074394
10579.87,0.074148
10601.5,0.074209
10623.23,0.074234
10645.04,0.073836
10666.94,0.073304
10688.94,0.073056
10711.02,0.073083
10733.2,0.073586
10755.47,0.073785
10777.83,0.073985
10800.28,0.073944
10822.83,0.073989
10845.47,0.073862
10868.21,0.074016
10891.04,0.074354
10913.97,0.074481
10936.99,0.074826
10960.12,0.074773
10983.34,0.074441
11006.66,0.074132
11030.07,0.073874
11053.59,0.073327
11077.21,0.073209
11100.93,0.073637
11124.75,0.073566
11148.68,0.073078
11172.71,0.072534
11196.84,0.0722
11221.07,0.071684
11245.41,0.071217
11269.86,0.070833
11294.41,0.070685
11319.07,0.070568
11343.84,0.07017
11368.72,0.070756
11393.7,0.071139
11418.8,0.070549
11444.01,0.069787
11469.33,0.069489
11494.76,0.068895
11520.3,0.067966
11545.96,0.067419
11571.73,0.067221
11597.62,0.06705
11623.62,0.066734
11649.74,0.065876
11675.98,0.065314
11702.34,0.064762
11728.81,0.063816
11755.41,0.062691
11782.13,0.061672
11808.96,0.060251
11835.92,0.058398
11863.01,0.056444
11890.22,0.054971
11917.55,0.05352
11945.01,0.051948
11972.6,0.050266
12000.31,0.04884
12028.16,0.047702
12056.13,0.04596
12084.23,0.044154
12112.46,0.042969
12140.83,0.041861
12169.33,0.041266
12197.96,0.040154
12226.73,0.039337
12255.64,0.038495
12284.68,0.037713
12313.86,0.03709
12343.18,0.036368
12372.64,0.035466
12402.24,0.035343
12431.98,0.035862
12461.86,0.035335
12491.89,0.035504
12522.07,0.036302
12552.38,0.03692
12582.85,0.037852
12613.47,0.039293
12644.23,0.040023
12675.15,0.040499
12706.21,0.042011
12737.43,0.043368
12768.81,0.044589
12800.33,0.046314
12832.02,0.048126
12863.86,0.049587
12895.86,0.051036
12928.02,0.053148
12960.34,0.055073
12992.82,0.056646
13025.46,0.057674
13058.27,0.058092
13091.25,0.058954
13124.39,0.059365
13157.7,0.059297
13191.18,0.059525
13224.83,0.059458
13258.66,0.059621
13292.65,0.059864
13326.83,0.05972
13361.17,0.060447
13395.7,0.06096
13430.4,0.060542
13465.29,0.060236
13500.35,0.059742
13535.6,0.058938
13571.03,0.058663
13606.65,0.058997
13642.46,0.059117
13678.46,0.059177
13714.64,0.058632
13751.02,0.058035
13787.59,0.057931
13824.36,0.05797
13861.32,0.057634
13898.49,0.05732
13935.85,0.05692
13973.41,0.056662
14011.17,0.056288
14049.15,0.055616
14087.32,0.055279
14125.71,0.054644
14164.3,0.05355
14203.11,0.05342
14242.13,0.053151
14281.36,0.05197
14320.81,0.050994
14360.49,0.050466
14400.38,0.050023
14440.49,0.049988
14480.82,0.050298
14521.39,0.050501
14562.18,0.049483
14603.2,0.048389
14644.45,0.047435
14685.93,0.04643
14727.66,0.045345
14769.62,0.044598
14811.81,0.044912
14854.25,0.045683
14896.94,0.046041
14939.87,0.046419
14983.05,0.046126
15026.48,0.046423
15070.16,0.04669
15114.1,0.046157
15158.29,0.046082
15202.74,0.045443
15247.46,0.044106
15292.43,0.043901
15337.68,0.044078
15383.19,0.043057
15428.97,0.041561
15475.03,0.040862
15521.36,0.040224
15567.97,0.039034
15614.87,0.038059
15662.04,0.037244
15709.5,0.0366
15757.25,0.036233
15805.29,0.035837
15853.62,0.034476
15902.26,0.033489
15951.19,0.032793
16000.42,0.032123
16049.95,0.031673
16099.8,0.030809
16149.95,0.030159
16200.42,0.029674
16251.21,0.028901
16302.31,0.028125
16353.74,0.028813
16405.49,0.029217
16457.57,0.029675
16509.98,0.029534
16562.73,0.029276
16615.82,0.028803
16669.24,0.028769
16723.02,0.028264
16777.14,0.027333
16831.61,0.027375
16886.43,0.028391
16941.62,0.028958
16997.16,0.028414
17053.08,0.027953
17109.36,0.027369
17166.01,0.027095
17223.04,0.027244
17280.45,0.027382
17338.24,0.027086
17396.43,0.027144
17455.0,0.026727
17513.97,0.026129
17573.34,0.026409
17633.11,0.026278
17693.29,0.02674
17753.89,0.026678
17814.9,0.025712
17876.33,0.026083
17938.18,0.027165
18000.47,0.026906
18063.19,0.025714
18126.35,0.02571
18189.95,0.025819
18254.0,0.025882
18318.5,0.026014
18383.46,0.026264
18448.88,0.026519
18514.77,0.026218
18581.13,0.02613
18647.97,0.025555
18715.29,0.025273
18783.1,0.025108
18851.4,0.025392
18920.2,0.025421
18989.51,0.025205
19059.32,0.025656
19129.65,0.026547
19200.5,0.026644
19271.88,0.027512
19343.79,0.029096
19416.24,0.030093
19489.23,0.030876
19562.77,0.033005
19636.88,0.033767
19711.54,0.033943
19786.78,0.036057
19862.59,0.037218
19938.98,0.039228
20015.96,0.041089
20093.55,0.043254
20171.73,0.04493
20250.53,0.046631
20329.94,0.048501
20409.98,0.049845
20490.65,0.051302
20571.96,0.052502
20653.92,0.052142
20736.54,0.051282
20819.82,0.0509
20903.77,0.049374
20988.4,0.049173
21073.72,0.051634
21159.73,0.050447
21246.46,0.049079
21333.89,0.048873
21422.04,0.048217
21510.93,0.047095
21600.56,0.045863
21690.94,0.046867
21782.08,0.046511
21873.99,0.045353
21966.67,0.045862
22060.15,0.046953
22154.42,0.046036
22249.51,0.044081
22345.41,0.044583
22442.14,0.044285
22539.72,0.043363
22638.14,0.042266
22737.43,0.044709
22837.6,0.043378
22938.65,0.041959
23040.6,0.04423
23143.46,0.044947
23247.24,0.046671
23351.96,0.047699
23457.63,0.046233
23564.25,0.045552
23671.85,0.042455
23780.44,0.040893
23890.02,0.042772
24000.63,0.047773
24112.26,0.046886
24224.93,0.046537
24338.66,0.048099
24453.47,0.047889
24569.36,0.046059
24686.36,0.044436
24804.47,0.049625
24923.73,0.057963
25044.13,0.056703
25165.71,0.052146
25288.46,0.048489
25412.43,0.049687
25537.61,0.045674
25664.04,0.04723
25791.72,0.054266
25920.68,0.060729
