Database of Origin,University of Winnipeg Spectrophotometer Facility
Sample Description,8. Sulfates: RELAB + Nicolet spectra / Spectra all made consistently merged: Jan. / 10 / 2005
Date Added,2016-07-15 22:05:54.891915

Data ID,RPN_SUL_19          
Sample ID,SPT106
Mineral Name,ferrous sulfate (syn)
Grain Size,<45
Viewing Geometry,30 / 0 | 30
Resolution,5 / 1.3-129
Material Class,Sulfate

Wavelength
305.0,0.271353
310.0,0.276041
315.0,0.282255
320.0,0.293317
325.0,0.308772
330.0,0.328644
335.0,0.347978
340.0,0.375107
345.0,0.405056
350.0,0.437681
355.0,0.473579
360.0,0.511979
365.0,0.551809
370.0,0.590685
375.0,0.626449
380.0,0.66225
385.0,0.697296
390.0,0.728178
395.0,0.757927
400.0,0.788879
405.0,0.803033
410.0,0.819918
415.0,0.83557
420.0,0.847182
425.0,0.851428
430.0,0.85839
435.0,0.863765
440.0,0.864498
445.0,0.867006
450.0,0.868753
455.0,0.871795
460.0,0.876283
465.0,0.883589
470.0,0.88419
475.0,0.888601
480.0,0.89127
485.0,0.895589
490.0,0.895099
495.0,0.897943
500.0,0.897386
505.0,0.902296
510.0,0.902068
515.0,0.904905
520.0,0.908751
525.0,0.911621
530.0,0.913656
535.0,0.916125
540.0,0.917837
545.0,0.920228
550.0,0.922181
555.0,0.927509
560.0,0.926148
565.0,0.928396
570.0,0.927778
575.0,0.926397
580.0,0.928841
585.0,0.927964
590.0,0.926114
595.0,0.924863
600.0,0.921434
605.0,0.920662
610.0,0.917514
615.0,0.915459
620.0,0.909058
625.0,0.907187
630.0,0.903904
635.0,0.899218
640.0,0.89221
645.0,0.888748
650.0,0.887329
655.0,0.880784
660.0,0.87881
665.0,0.872439
670.0,0.86984
675.0,0.8655
680.0,0.860432
685.0,0.857212
690.0,0.852217
695.0,0.849622
700.0,0.846892
705.0,0.844355
710.0,0.840307
715.0,0.837292
720.0,0.8323
725.0,0.837232
730.0,0.830446
735.0,0.830649
740.0,0.824574
745.0,0.822834
750.0,0.820896
755.0,0.816031
760.0,0.810155
765.0,0.805604
770.0,0.799687
775.0,0.794553
780.0,0.786391
785.0,0.78096
790.0,0.77491
795.0,0.766653
800.0,0.760792
805.0,0.753255
810.0,0.746882
815.0,0.738479
820.0,0.733098
825.0,0.724054
830.0,0.718979
835.0,0.709388
840.0,0.70453
845.0,0.697483
850.0,0.691528
855.0,0.684941
860.0,0.68148
865.0,0.677617
870.0,0.670792
875.0,0.666692
880.0,0.665273
885.0,0.660076
890.0,0.656519
895.0,0.655776
900.0,0.64978
905.0,0.648703
910.0,0.64596
915.0,0.6431
920.0,0.643794
925.0,0.643984
930.0,0.643687
935.0,0.642449
940.0,0.64215
945.0,0.642416
950.0,0.641948
955.0,0.643133
960.0,0.644498
965.0,0.646898
970.0,0.646736
975.0,0.648537
980.0,0.650878
985.0,0.652061
990.0,0.654841
995.0,0.656041
1000.0,0.65616
1005.0,0.65867
1010.0,0.660495
1015.0,0.663009
1020.0,0.663972
1025.0,0.667418
1030.0,0.667206
1035.0,0.66908
1040.0,0.669055
1045.0,0.671012
1050.0,0.670733
1055.0,0.672767
1060.0,0.673945
1065.0,0.673999
1070.0,0.67434
1075.0,0.673932
1080.0,0.674853
1085.0,0.676124
1090.0,0.676223
1095.0,0.67484
1100.0,0.674105
1105.0,0.672596
1110.0,0.673287
1115.0,0.673645
1120.0,0.675201
1125.0,0.673196
1130.0,0.675943
1135.0,0.674385
1140.0,0.675009
1145.0,0.674554
1150.0,0.675795
1155.0,0.674017
1160.0,0.673825
1165.0,0.676769
1170.0,0.676125
1175.0,0.675542
1180.0,0.675327
1185.0,0.678476
1190.0,0.676882
1195.0,0.676744
1200.0,0.678682
1205.0,0.679387
1210.0,0.678858
1215.0,0.678752
1220.0,0.680241
1225.0,0.682648
1230.0,0.680954
1235.0,0.685559
1240.0,0.687606
1245.0,0.686327
1250.0,0.687123
1255.0,0.691035
1260.0,0.693114
1265.0,0.696423
1270.0,0.696774
1275.0,0.697842
1280.0,0.703052
1285.0,0.703623
1290.0,0.705188
1295.0,0.711544
1300.0,0.711675
1305.0,0.717463
1310.0,0.720164
1315.0,0.722541
1320.0,0.727378
1325.0,0.730154
1330.0,0.733409
1335.0,0.736684
1340.0,0.740678
1345.0,0.743831
1350.0,0.743927
1355.0,0.748965
1360.0,0.74829
1365.0,0.752212
1370.0,0.753661
1375.0,0.755984
1380.0,0.760035
1385.0,0.762343
1390.0,0.763491
1395.0,0.766359
1400.0,0.76851
1405.0,0.770907
1410.0,0.770668
1415.0,0.773553
1420.0,0.772736
1425.0,0.771331
1430.0,0.770797
1435.0,0.767295
1440.0,0.762692
1445.0,0.752851
1450.0,0.743854
1455.0,0.736693
1460.0,0.723587
1465.0,0.711677
1470.0,0.698329
1475.0,0.685294
1480.0,0.67298
1485.0,0.662547
1490.0,0.649709
1495.0,0.643595
1500.0,0.635185
1505.0,0.629648
1510.0,0.624466
1515.0,0.620561
1520.0,0.620531
1525.0,0.616446
1530.0,0.614371
1535.0,0.611919
1540.0,0.611156
1545.0,0.611517
1550.0,0.608067
1555.0,0.607654
1560.0,0.602999
1565.0,0.599463
1570.0,0.597801
1575.0,0.596158
1580.0,0.596277
1585.0,0.595303
1590.0,0.594654
1595.0,0.595449
1600.0,0.596793
1605.0,0.595457
1610.0,0.59637
1615.0,0.598697
1620.0,0.598664
1625.0,0.59998
1630.0,0.601493
1635.0,0.602341
1640.0,0.603106
1645.0,0.604866
1650.0,0.608317
1655.0,0.610347
1660.0,0.611808
1665.0,0.613904
1670.0,0.616652
1675.0,0.619812
1680.0,0.621838
1685.0,0.623995
1690.0,0.626704
1695.0,0.630968
1700.0,0.634677
1705.0,0.638077
1710.0,0.642653
1715.0,0.646698
1720.0,0.650423
1725.0,0.654863
1730.0,0.656873
1735.0,0.660795
1740.0,0.663083
1745.0,0.66411
1750.0,0.666903
1755.0,0.668333
1760.0,0.670162
1765.0,0.671403
1770.0,0.671073
1775.0,0.673526
1780.0,0.673836
1785.0,0.675838
1790.0,0.678945
1795.0,0.680528
1800.0,0.683058
1805.0,0.685686
1810.0,0.689797
1815.0,0.692694
1820.0,0.696222
1825.0,0.697253
1830.0,0.699169
1835.0,0.700082
1840.0,0.70127
1845.0,0.702133
1850.0,0.701666
1855.0,0.701344
1860.0,0.703072
1865.0,0.700105
1870.0,0.695473
1875.0,0.691311
1880.0,0.685239
1885.0,0.675181
1890.0,0.668385
1895.0,0.65894
1900.0,0.645137
1905.0,0.630138
1910.0,0.614309
1915.0,0.596161
1920.0,0.579981
1925.0,0.556519
1930.0,0.540837
1935.0,0.521198
1940.0,0.5023
1945.0,0.481607
1950.0,0.463875
1955.0,0.445494
1960.0,0.425699
1965.0,0.40848
1970.0,0.394727
1975.0,0.382545
1980.0,0.373249
1985.0,0.365297
1990.0,0.359821
1995.0,0.355142
2000.0,0.351566
2005.0,0.347509
2010.0,0.343487
2015.0,0.33959
2020.0,0.335426
2025.0,0.330827
2030.0,0.326948
2035.0,0.324202
2040.0,0.322294
2045.0,0.322293
2050.0,0.32267
2055.0,0.324232
2060.0,0.32765
2065.0,0.330745
2070.0,0.334099
2075.0,0.337441
2080.0,0.339875
2085.0,0.341741
2090.0,0.342104
2095.0,0.34207
2100.0,0.340059
2105.0,0.33824
2110.0,0.335976
2115.0,0.332109
2120.0,0.329337
2125.0,0.325921
2130.0,0.322856
2135.0,0.31924
2140.0,0.317682
2145.0,0.315621
2150.0,0.314585
2155.0,0.313569
2160.0,0.312792
2165.0,0.313893
2170.0,0.315768
2175.0,0.319632
2180.0,0.325386
2185.0,0.334315
2190.0,0.343271
2195.0,0.353014
2200.0,0.362635
2205.0,0.371098
2210.0,0.378577
2215.0,0.384582
2220.0,0.391249
2225.0,0.397795
2230.0,0.404699
2235.0,0.412818
2240.0,0.422478
2245.0,0.432029
2250.0,0.441975
2255.0,0.452284
2260.0,0.463343
2265.0,0.473581
2270.0,0.48346
2275.0,0.491008
2280.0,0.49559
2285.0,0.498511
2290.0,0.498147
2295.0,0.496554
2300.0,0.494607
2305.0,0.492453
2310.0,0.490719
2315.0,0.488032
2320.0,0.485567
2325.0,0.482716
2330.0,0.480322
2335.0,0.475564
2340.0,0.470991
2345.0,0.465292
2350.0,0.458841
2355.0,0.453796
2360.0,0.446856
2365.0,0.440012
2370.0,0.433567
2375.0,0.427459
2380.0,0.420188
2385.0,0.413405
2390.0,0.406747
2395.0,0.399162
2400.0,0.392966
2405.0,0.386927
2410.0,0.381346
2415.0,0.376585
2420.0,0.372715
2425.0,0.368567
2430.0,0.366316
2435.0,0.366163
2440.0,0.367928
2445.0,0.371272
2450.0,0.375243
2455.0,0.380372
2460.0,0.385947
2465.0,0.390382
2470.0,0.394547
2475.0,0.395451
2480.0,0.396284
2485.0,0.397213
2490.0,0.396678
2495.0,0.39445
2500.0,0.390868
2505.0,0.389253
2510.0,0.386421
2515.0,0.383839
2520.0,0.381481
2525.0,0.380042
2530.0,0.377592
2535.0,0.377046
2540.0,0.376503
2545.0,0.375842
2550.0,0.37523
2555.0,0.374115
2560.0,0.372397
2565.13,0.372381
2570.22,0.371154
2575.33,0.369643
2580.46,0.368406
2581.74,0.367428
2583.03,0.36782
2584.31,0.367071
2585.6,0.367367
2586.89,0.36709
2588.19,0.366273
2589.48,0.365916
2590.77,0.366387
2592.07,0.366298
2593.36,0.365059
2594.66,0.362957
2595.96,0.363868
2597.26,0.364904
2598.56,0.36429
2599.87,0.363963
2601.17,0.363684
2602.48,0.362507
2603.78,0.361342
2605.09,0.361057
2606.4,0.361418
2607.71,0.360985
2609.03,0.361039
2610.34,0.3605
2611.66,0.360153
2612.97,0.360537
2614.29,0.360664
2615.61,0.359784
2616.93,0.357862
2618.25,0.358123
2619.57,0.357621
2620.9,0.356424
2622.22,0.357035
2623.55,0.357358
2624.88,0.356668
2626.21,0.355094
2627.54,0.353541
2628.87,0.352973
2630.21,0.352516
2631.54,0.352751
2632.88,0.35286
2634.21,0.352268
2635.55,0.352098
2636.89,0.351983
2638.24,0.351577
2639.58,0.35077
2640.92,0.349414
2642.27,0.348709
2643.62,0.348537
2644.97,0.348051
2646.32,0.346758
2647.67,0.345655
2649.02,0.346062
2650.38,0.346177
2651.73,0.345428
2653.09,0.344612
2654.45,0.344122
2655.81,0.343253
2657.17,0.342873
2658.53,0.342609
2659.89,0.342106
2661.26,0.340184
2662.63,0.339046
2664.0,0.338204
2665.36,0.337573
2666.74,0.338038
2668.11,0.338128
2669.48,0.33654
2670.86,0.334432
2672.23,0.334358
2673.61,0.33331
2674.99,0.332488
2676.37,0.331482
2677.76,0.330374
2679.14,0.329414
2680.52,0.327814
2681.91,0.32735
2683.3,0.326522
2684.69,0.325926
2686.08,0.324974
2687.47,0.323222
2688.87,0.321858
2690.26,0.320682
2691.66,0.319755
2693.06,0.317676
2694.46,0.315664
2695.86,0.314562
2697.26,0.31372
2698.66,0.312841
2700.07,0.311049
2701.48,0.30946
2702.89,0.30831
2704.3,0.306777
2705.71,0.3053
2707.12,0.30362
2708.53,0.301527
2709.95,0.299525
2711.37,0.297525
2712.79,0.297179
2714.21,0.296641
2715.63,0.294355
2717.05,0.29178
2718.48,0.290137
2719.9,0.288675
2721.33,0.286942
2722.76,0.2851
2724.19,0.282017
2725.62,0.279365
2727.06,0.277498
2728.49,0.275524
2729.93,0.273428
2731.37,0.271071
2732.81,0.268695
2734.25,0.266298
2735.69,0.263482
2737.14,0.260804
2738.58,0.25816
2740.03,0.255191
2741.48,0.252238
2742.93,0.249427
2744.38,0.246468
2745.83,0.243783
2747.29,0.241173
2748.75,0.238305
2750.2,0.235138
2751.66,0.231294
2753.13,0.228445
2754.59,0.225783
2756.05,0.222403
2757.52,0.219543
2758.99,0.215688
2760.46,0.212059
2761.93,0.208741
2763.4,0.205157
2764.87,0.202294
2766.35,0.20001
2767.82,0.19718
2769.3,0.193699
2770.78,0.190236
2772.26,0.187179
2773.75,0.183722
2775.23,0.179962
2776.72,0.17698
2778.21,0.174576
2779.7,0.172327
2781.19,0.169966
2782.68,0.167142
2784.18,0.163116
2785.67,0.159337
2787.17,0.156651
2788.67,0.154281
2790.17,0.151958
2791.67,0.149708
2793.18,0.147037
2794.68,0.144366
2796.19,0.142006
2797.7,0.139384
2799.21,0.136151
2800.72,0.133796
2802.24,0.131847
2803.75,0.129464
2805.27,0.126957
2806.79,0.12482
2808.31,0.122614
2809.83,0.12053
2811.35,0.119071
2812.88,0.117221
2814.41,0.114782
2815.93,0.112772
2817.46,0.110789
2819.0,0.108569
2820.53,0.10739
2822.07,0.105533
2823.6,0.103548
2825.14,0.10193
2826.68,0.099951
2828.22,0.098113
2829.77,0.096451
2831.31,0.095089
2832.86,0.093949
2834.41,0.092315
2835.96,0.090594
2837.51,0.089012
2839.07,0.087705
2840.62,0.086253
2842.18,0.085127
2843.74,0.08467
2845.3,0.083563
2846.86,0.081658
2848.43,0.07963
2849.99,0.078883
2851.56,0.078072
2853.13,0.076757
2854.7,0.075911
2856.27,0.074473
2857.85,0.073154
2859.42,0.072693
2861.0,0.072071
2862.58,0.07107
2864.16,0.070247
2865.75,0.069202
2867.33,0.06797
2868.92,0.066871
2870.51,0.065825
2872.1,0.065004
2873.69,0.064227
2875.28,0.063825
2876.88,0.06318
2878.48,0.06201
2880.07,0.060999
2881.68,0.060078
2883.28,0.059477
2884.88,0.059271
2886.49,0.058219
2888.1,0.057173
2889.71,0.056989
2891.32,0.056536
2892.93,0.055606
2894.55,0.054803
2896.16,0.054133
2897.78,0.053295
2899.4,0.052529
2901.03,0.052037
2902.65,0.051366
2904.28,0.050537
2905.91,0.049784
2907.54,0.04914
2909.17,0.049236
2910.8,0.049117
2912.44,0.048584
2914.07,0.047919
2915.71,0.046957
2917.35,0.046365
2918.99,0.045977
2920.64,0.045619
2922.29,0.044786
2923.93,0.044125
2925.58,0.043685
2927.24,0.0428
2928.89,0.042106
2930.55,0.041748
2932.2,0.041252
2933.86,0.040536
2935.52,0.039625
2937.19,0.038983
2938.85,0.038236
2940.52,0.037823
2942.19,0.03767
2943.86,0.037584
2945.53,0.037129
2947.21,0.036248
2948.88,0.035783
2950.56,0.035261
2952.24,0.034456
2953.92,0.033893
2955.61,0.033371
2957.29,0.032759
2958.98,0.03215
2960.67,0.031399
2962.36,0.030976
2964.06,0.030618
2965.75,0.029836
2967.45,0.029174
2969.15,0.028657
2970.85,0.0282
2972.55,0.027833
2974.26,0.027275
2975.97,0.026038
2977.68,0.025265
2979.39,0.02547
2981.1,0.025525
2982.82,0.025221
2984.53,0.02432
2986.25,0.02341
2987.97,0.022983
2989.7,0.022333
2991.42,0.021401
2993.15,0.02108
2994.88,0.021418
2996.61,0.021329
2998.34,0.020575
3000.08,0.019805
3001.82,0.019487
3003.55,0.019064
3005.3,0.018628
3007.04,0.018116
3008.78,0.017669
3010.53,0.017857
3012.28,0.017745
3014.03,0.017354
3015.79,0.017075
3017.54,0.016471
3019.3,0.016177
3021.06,0.015669
3022.82,0.015475
3024.58,0.015821
3026.35,0.015946
3028.12,0.015451
3029.89,0.014597
3031.66,0.014462
3033.43,0.014736
3035.21,0.014819
3036.99,0.014778
3038.77,0.014739
3040.55,0.014506
3042.33,0.01437
3044.12,0.014413
3045.91,0.014495
3047.7,0.014183
3049.49,0.014235
3051.29,0.014511
3053.08,0.014482
3054.88,0.014084
3056.68,0.014149
3058.49,0.014634
3060.29,0.014668
3062.1,0.014529
3063.91,0.01473
3065.72,0.015039
3067.54,0.015101
3069.35,0.014802
3071.17,0.014653
3072.99,0.014909
3074.81,0.015305
3076.64,0.015778
3078.47,0.015682
3080.29,0.015549
3082.13,0.01568
3083.96,0.015573
3085.79,0.015856
3087.63,0.016447
3089.47,0.016606
3091.31,0.016457
3093.16,0.016695
3095.01,0.016935
3096.85,0.016666
3098.71,0.016706
3100.56,0.01697
3102.41,0.016891
3104.27,0.016949
3106.13,0.017076
3107.99,0.017207
3109.86,0.016916
3111.73,0.017048
3113.59,0.017037
3115.47,0.017302
3117.34,0.017586
3119.21,0.017429
3121.09,0.017639
3122.97,0.017843
3124.86,0.017726
3126.74,0.017797
3128.63,0.017834
3130.52,0.017963
3132.41,0.018234
3134.3,0.018373
3136.2,0.018637
3138.1,0.018863
3140.0,0.019024
3141.9,0.019297
3143.81,0.019527
3145.71,0.019586
3147.62,0.019743
3149.54,0.019491
3151.45,0.01922
3153.37,0.01954
3155.29,0.019668
3157.21,0.020002
3159.13,0.020318
3161.06,0.020339
3162.99,0.020526
3164.92,0.020535
3166.85,0.020505
3168.79,0.020661
3170.72,0.02081
3172.67,0.021126
3174.61,0.021563
3176.55,0.021755
3178.5,0.021675
3180.45,0.021286
3182.4,0.021284
3184.36,0.021596
3186.32,0.022013
3188.27,0.022076
3190.24,0.02205
3192.2,0.022036
3194.17,0.021731
3196.14,0.02163
3198.11,0.021944
3200.08,0.022458
3202.06,0.022483
3204.04,0.022142
3206.02,0.022134
3208.0,0.022591
3209.99,0.022639
3211.98,0.022476
3213.97,0.022263
3215.96,0.02221
3217.96,0.022597
3219.96,0.022688
3221.96,0.022401
3223.96,0.02227
3225.97,0.022544
3227.98,0.022797
3229.99,0.022738
3232.0,0.022427
3234.02,0.022335
3236.04,0.022302
3238.06,0.022307
3240.08,0.022838
3242.11,0.022851
3244.14,0.022574
3246.17,0.022646
3248.2,0.022722
3250.24,0.022442
3252.28,0.022521
3254.32,0.022749
3256.37,0.022767
3258.41,0.022923
3260.46,0.023091
3262.51,0.023266
3264.57,0.023423
3266.63,0.023483
3268.69,0.023616
3270.75,0.02376
3272.81,0.023897
3274.88,0.023972
3276.95,0.024068
3279.02,0.024538
3281.1,0.024935
3283.18,0.024951
3285.26,0.024836
3287.34,0.024518
3289.43,0.024544
3291.51,0.024783
3293.61,0.024954
3295.7,0.025049
3297.8,0.025423
3299.9,0.025728
3302.0,0.025823
3304.1,0.026147
3306.21,0.026366
3308.32,0.026367
3310.43,0.026513
3312.55,0.026745
3314.66,0.026986
3316.79,0.027348
3318.91,0.027655
3321.03,0.027962
3323.16,0.028192
3325.29,0.028267
3327.43,0.028506
3329.57,0.028885
3331.71,0.029228
3333.85,0.029267
3335.99,0.029452
3338.14,0.029811
3340.29,0.030146
3342.45,0.030484
3344.6,0.030561
3346.76,0.030554
3348.92,0.031015
3351.09,0.031438
3353.26,0.031883
3355.43,0.032354
3357.6,0.032729
3359.78,0.032963
3361.96,0.033235
3364.14,0.033407
3366.32,0.033589
3368.51,0.033811
3370.7,0.03424
3372.89,0.035124
3375.09,0.03558
3377.29,0.035473
3379.49,0.035721
3381.69,0.036156
3383.9,0.036655
3386.11,0.03685
3388.32,0.036841
3390.54,0.037336
3392.76,0.03778
3394.98,0.037853
3397.21,0.038152
3399.43,0.03865
3401.66,0.038862
3403.9,0.038992
3406.13,0.039213
3408.37,0.039545
3410.61,0.039579
3412.86,0.039661
3415.11,0.040073
3417.36,0.040421
3419.61,0.040416
3421.87,0.040445
3424.13,0.04054
3426.39,0.040491
3428.66,0.0405
3430.93,0.041017
3433.2,0.041329
3435.48,0.041251
3437.76,0.041398
3440.04,0.041406
3442.32,0.041286
3444.61,0.041321
3446.9,0.041727
3449.19,0.041819
3451.49,0.041891
3453.79,0.042109
3456.09,0.04204
3458.4,0.041934
3460.7,0.042198
3463.02,0.042417
3465.33,0.04239
3467.65,0.042448
3469.97,0.042653
3472.29,0.04282
3474.62,0.042921
3476.95,0.043207
3479.29,0.043553
3481.62,0.043656
3483.96,0.043489
3486.3,0.043292
3488.65,0.04315
3491.0,0.043538
3493.35,0.043901
3495.71,0.043935
3498.07,0.044364
3500.43,0.044513
3502.79,0.044364
3505.16,0.044518
3507.53,0.044789
3509.91,0.045159
3512.29,0.045648
3514.67,0.045906
3517.05,0.045856
3519.44,0.046315
3521.83,0.046901
3524.23,0.047261
3526.62,0.047939
3529.02,0.048941
3531.43,0.049583
3533.83,0.049975
3536.24,0.050564
3538.66,0.05122
3541.08,0.051867
3543.5,0.052678
3545.92,0.053289
3548.35,0.053954
3550.78,0.054794
3553.21,0.055808
3555.65,0.056669
3558.09,0.057602
3560.53,0.058422
3562.98,0.059092
3565.43,0.060043
3567.88,0.060915
3570.34,0.061741
3572.8,0.062624
3575.27,0.063478
3577.73,0.064604
3580.2,0.065603
3582.68,0.066475
3585.16,0.067373
3587.64,0.068281
3590.12,0.069494
3592.61,0.070536
3595.1,0.071389
3597.6,0.07253
3600.09,0.073774
3602.6,0.074569
3605.1,0.075578
3607.61,0.076648
3610.12,0.077732
3612.64,0.078818
3615.16,0.079978
3617.68,0.080928
3620.21,0.081917
3622.74,0.083069
3625.27,0.084034
3627.81,0.085156
3630.35,0.086162
3632.89,0.087209
3635.44,0.088576
3637.99,0.089691
3640.54,0.090602
3643.1,0.091414
3645.66,0.092409
3648.23,0.093625
3650.8,0.094966
3653.37,0.09617
3655.95,0.09719
3658.53,0.098086
3661.11,0.099186
3663.7,0.100437
3666.29,0.101474
3668.89,0.102628
3671.48,0.103536
3674.09,0.10471
3676.69,0.106125
3679.3,0.107296
3681.91,0.108455
3684.53,0.109501
3687.15,0.110446
3689.78,0.11143
3692.4,0.112568
3695.04,0.113765
3697.67,0.114833
3700.31,0.115964
3702.95,0.117164
3705.6,0.118208
3708.25,0.119175
3710.91,0.120305
3713.56,0.121562
3716.23,0.122632
3718.89,0.123917
3721.56,0.124968
3724.23,0.125842
3726.91,0.127043
3729.59,0.128326
3732.28,0.129378
3734.97,0.130328
3737.66,0.131316
3740.36,0.13236
3743.06,0.133498
3745.76,0.13464
3748.47,0.135852
3751.18,0.13688
3753.9,0.137804
3756.62,0.138857
3759.34,0.140318
3762.07,0.141485
3764.8,0.14249
3767.54,0.14377
3770.28,0.14487
3773.02,0.145772
3775.77,0.146769
3778.52,0.14798
3781.28,0.149423
3784.04,0.150761
3786.8,0.151616
3789.57,0.152272
3792.34,0.153386
3795.12,0.154758
3797.9,0.156064
3800.69,0.157338
3803.47,0.158292
3806.27,0.159411
3809.06,0.16061
3811.86,0.161472
3814.67,0.162572
3817.48,0.163827
3820.29,0.164887
3823.11,0.16592
3825.93,0.167054
3828.76,0.167949
3831.59,0.169192
3834.42,0.170493
3837.26,0.171684
3840.1,0.172806
3842.95,0.173666
3845.8,0.174641
3848.65,0.175896
3851.51,0.176854
3854.38,0.177674
3857.24,0.178828
3860.12,0.180021
3862.99,0.18102
3865.87,0.181996
3868.76,0.182983
3871.65,0.184025
3874.54,0.184972
3877.44,0.185961
3880.34,0.187171
3883.25,0.188075
3886.16,0.188999
3889.07,0.190047
3891.99,0.190942
3894.92,0.191841
3897.85,0.192674
3900.78,0.193392
3903.72,0.194488
3906.66,0.195534
3909.6,0.196523
3912.55,0.197572
3915.51,0.19845
3918.47,0.199282
3921.43,0.200286
3924.4,0.201201
3927.38,0.202178
3930.35,0.202942
3933.33,0.203669
3936.32,0.204604
3939.31,0.205431
3942.31,0.206023
3945.31,0.20675
3948.31,0.207815
3951.32,0.208593
3954.34,0.209327
3957.35,0.210089
3960.38,0.211002
3963.41,0.211881
3966.44,0.212497
3969.48,0.21318
3972.52,0.214008
3975.56,0.214846
3978.61,0.215508
3981.67,0.216181
3984.73,0.217022
3987.8,0.217674
3990.87,0.218172
3993.94,0.218817
3997.02,0.219606
4000.1,0.220397
4003.19,0.221059
4006.29,0.22185
4009.39,0.222452
4012.49,0.222965
4015.6,0.223767
4018.71,0.224732
4021.83,0.225608
4024.95,0.225889
4028.08,0.226134
4031.21,0.226679
4034.35,0.227222
4037.49,0.227913
4040.64,0.228717
4043.79,0.229208
4046.94,0.229694
4050.11,0.230142
4053.27,0.230453
4056.44,0.230984
4059.62,0.231423
4062.8,0.231905
4065.99,0.232611
4069.18,0.233203
4072.38,0.233543
4075.58,0.23362
4078.78,0.23373
4082.0,0.234149
4085.21,0.23472
4088.43,0.234951
4091.66,0.235173
4094.89,0.235553
4098.13,0.235851
4101.37,0.236162
4104.62,0.236671
4107.87,0.236955
4111.13,0.237089
4114.39,0.237476
4117.66,0.238066
4120.93,0.238021
4124.21,0.237874
4127.5,0.238158
4130.79,0.238658
4134.08,0.239086
4137.38,0.239233
4140.68,0.239244
4143.99,0.239571
4147.31,0.239845
4150.63,0.239888
4153.95,0.239936
4157.29,0.240149
4160.62,0.240473
4163.96,0.240552
4167.31,0.240469
4170.66,0.240586
4174.02,0.240747
4177.39,0.240796
4180.75,0.240885
4184.13,0.240885
4187.51,0.240685
4190.89,0.240629
4194.28,0.240651
4197.68,0.240771
4201.08,0.240548
4204.49,0.240331
4207.9,0.240197
4211.32,0.240216
4214.74,0.240128
4218.17,0.239927
4221.61,0.239867
4225.05,0.239596
4228.5,0.239278
4231.95,0.239288
4235.4,0.238906
4238.87,0.238638
4242.34,0.238327
4245.81,0.237914
4249.29,0.237713
4252.78,0.237521
4256.27,0.237263
4259.77,0.23688
4263.27,0.236203
4266.78,0.235904
4270.29,0.23566
4273.81,0.235286
4277.34,0.234856
4280.87,0.234492
4284.41,0.234049
4287.95,0.233519
4291.5,0.23307
4295.06,0.232799
4298.62,0.232221
4302.19,0.2317
4305.76,0.2313
4309.34,0.231079
4312.92,0.230679
4316.52,0.230002
4320.11,0.229414
4323.72,0.22896
4327.32,0.228558
4330.94,0.227996
4334.56,0.227393
4338.19,0.226949
4341.82,0.22637
4345.46,0.225814
4349.11,0.225515
4352.76,0.225128
4356.42,0.224457
4360.08,0.223819
4363.75,0.223496
4367.43,0.223048
4371.11,0.222686
4374.8,0.222402
4378.49,0.221778
4382.19,0.221059
4385.9,0.220572
4389.61,0.220086
4393.33,0.219749
4397.06,0.219382
4400.79,0.21892
4404.53,0.218389
4408.28,0.217937
4412.03,0.21752
4415.79,0.216933
4419.55,0.21654
4423.32,0.216132
4427.1,0.215604
4430.88,0.215088
4434.68,0.21456
4438.47,0.213954
4442.28,0.213606
4446.08,0.213154
4449.9,0.212734
4453.72,0.212338
4457.55,0.212115
4461.39,0.211596
4465.23,0.210983
4469.08,0.210438
4472.94,0.21006
4476.8,0.209731
4480.67,0.209292
4484.55,0.208796
4488.43,0.208304
4492.32,0.20776
4496.21,0.207453
4500.12,0.207079
4504.03,0.206442
4507.94,0.205988
4511.87,0.205605
4515.8,0.205107
4519.73,0.20459
4523.68,0.204199
4527.63,0.203957
4531.59,0.20335
4535.55,0.20282
4539.52,0.202329
4543.5,0.201708
4547.49,0.20124
4551.48,0.201151
4555.48,0.200808
4559.49,0.200182
4563.5,0.199557
4567.52,0.199001
4571.55,0.198497
4575.58,0.198086
4579.63,0.197605
4583.67,0.197142
4587.73,0.196902
4591.79,0.196489
4595.86,0.196036
4599.94,0.195729
4604.03,0.195232
4608.12,0.194616
4612.22,0.194183
4616.33,0.19398
4620.44,0.193654
4624.56,0.193107
4628.69,0.192387
4632.83,0.191965
4636.97,0.191734
4641.12,0.191368
4645.28,0.191174
4649.45,0.19067
4653.62,0.189912
4657.8,0.1894
4661.99,0.188917
4666.19,0.188444
4670.39,0.187955
4674.6,0.187309
4678.82,0.186732
4683.05,0.186327
4687.28,0.185853
4691.52,0.185385
4695.77,0.184666
4700.03,0.184054
4704.3,0.183441
4708.57,0.182826
4712.85,0.182292
4717.14,0.181658
4721.43,0.180803
4725.74,0.180105
4730.05,0.179536
4734.37,0.179208
4738.7,0.178884
4743.03,0.178369
4747.38,0.177698
4751.73,0.177289
4756.09,0.176927
4760.45,0.176488
4764.83,0.176135
4769.21,0.175755
4773.6,0.175121
4778.0,0.174543
4782.41,0.174091
4786.83,0.173829
4791.25,0.173581
4795.68,0.173193
4800.13,0.17268
4804.57,0.172231
4809.03,0.171704
4813.5,0.171203
4817.97,0.170779
4822.45,0.170379
4826.94,0.17011
4831.44,0.169846
4835.95,0.169377
4840.46,0.16881
4844.99,0.168395
4849.52,0.168152
4854.06,0.167839
4858.61,0.167592
4863.17,0.16704
4867.73,0.166626
4872.31,0.166434
4876.89,0.166207
4881.48,0.165928
4886.08,0.165951
4890.69,0.166034
4895.31,0.166235
4899.94,0.166772
4904.57,0.167617
4909.22,0.168213
4913.87,0.168851
4918.53,0.169515
4923.21,0.17026
4927.88,0.170879
4932.57,0.171483
4937.27,0.172093
4941.98,0.172851
4946.69,0.173365
4951.42,0.173884
4956.15,0.174465
4960.9,0.174963
4965.65,0.175337
4970.41,0.175903
4975.18,0.176417
4979.96,0.176877
4984.75,0.17727
4989.54,0.177675
4994.35,0.178079
4999.17,0.178499
5003.99,0.178806
5008.83,0.17903
5013.67,0.179288
5018.52,0.17979
5023.39,0.180202
5028.26,0.180455
5033.14,0.180776
5038.03,0.181228
5042.93,0.18156
5047.84,0.181828
5052.76,0.181982
5057.69,0.182416
5062.63,0.182824
5067.58,0.183145
5072.54,0.183289
5077.51,0.183443
5082.49,0.183654
5087.47,0.183837
5092.47,0.183981
5097.48,0.184085
5102.5,0.184183
5107.52,0.184424
5112.56,0.184737
5117.61,0.184921
5122.66,0.184996
5127.73,0.185077
5132.81,0.185229
5137.89,0.185476
5142.99,0.185611
5148.1,0.185647
5153.22,0.185641
5158.34,0.185604
5163.48,0.18531
5168.63,0.185173
5173.79,0.185197
5178.96,0.185191
5184.13,0.18506
5189.32,0.184883
5194.52,0.18456
5199.73,0.184367
5204.96,0.184102
5210.19,0.18386
5215.43,0.183544
5220.68,0.183241
5225.94,0.182894
5231.22,0.182617
5236.5,0.182041
5241.79,0.181487
5247.1,0.180935
5252.42,0.180395
5257.74,0.180106
5263.08,0.17959
5268.43,0.178748
5273.79,0.178043
5279.16,0.177377
5284.54,0.176779
5289.93,0.176119
5295.34,0.1753
5300.75,0.174456
5306.18,0.173759
5311.61,0.172834
5317.06,0.172053
5322.52,0.171344
5327.99,0.170379
5333.47,0.169393
5338.96,0.168609
5344.47,0.167555
5349.98,0.166494
5355.51,0.16549
5361.05,0.164535
5366.6,0.163501
5372.16,0.162475
5377.73,0.161439
5383.32,0.160462
5388.91,0.159375
5394.52,0.158375
5400.14,0.157215
5405.77,0.156236
5411.41,0.155197
5417.07,0.154186
5422.74,0.153257
5428.41,0.152445
5434.1,0.151424
5439.81,0.150178
5445.52,0.148958
5451.25,0.148039
5456.98,0.147251
5462.73,0.146281
5468.5,0.145318
5474.27,0.144478
5480.06,0.143472
5485.86,0.142516
5491.67,0.141754
5497.49,0.140949
5503.33,0.140071
5509.18,0.139046
5515.04,0.138083
5520.91,0.137405
5526.8,0.136692
5532.69,0.135975
5538.61,0.135199
5544.53,0.13453
5550.47,0.133892
5556.41,0.133153
5562.38,0.132353
5568.35,0.131662
5574.34,0.131056
5580.34,0.130516
5586.35,0.129705
5592.38,0.129177
5598.42,0.12863
5604.47,0.127976
5610.54,0.127307
5616.61,0.126778
5622.71,0.126095
5628.81,0.125473
5634.93,0.125046
5641.06,0.124656
5647.21,0.124111
5653.36,0.123563
5659.54,0.122835
5665.72,0.122267
5671.92,0.121654
5678.13,0.12104
5684.36,0.120494
5690.6,0.120107
5696.85,0.11963
5703.12,0.119149
5709.4,0.118554
5715.69,0.117904
5722.0,0.11712
5728.33,0.116458
5734.66,0.115722
5741.01,0.114918
5747.38,0.114072
5753.76,0.11331
5760.15,0.112624
5766.56,0.111545
5772.98,0.110218
5779.41,0.109029
5785.86,0.107931
5792.33,0.106935
5798.81,0.105649
5805.3,0.104256
5811.81,0.102962
5818.33,0.101546
5824.87,0.100036
5831.42,0.098547
5837.99,0.097059
5844.57,0.095542
5851.17,0.094003
5857.78,0.092382
5864.41,0.090758
5871.05,0.089405
5877.7,0.087984
5884.38,0.086586
5891.06,0.085509
5897.76,0.084707
5904.48,0.083622
5911.21,0.08251
5917.96,0.081682
5924.73,0.081147
5931.5,0.080517
5938.3,0.080006
5945.11,0.079676
5951.93,0.079482
5958.78,0.079218
5965.63,0.079145
5972.51,0.07921
5979.39,0.079363
5986.3,0.07957
5993.22,0.079846
6000.16,0.080195
6007.11,0.080376
6014.08,0.080526
6021.06,0.080994
6028.06,0.081608
6035.08,0.082029
6042.12,0.082188
6049.17,0.082462
6056.23,0.083082
6063.32,0.083618
6070.42,0.083992
6077.53,0.084497
6084.67,0.085238
6091.82,0.085933
6098.98,0.086551
6106.17,0.087295
6113.37,0.087977
6120.58,0.088686
6127.82,0.089446
6135.07,0.090165
6142.34,0.090714
6149.63,0.091306
6156.93,0.091953
6164.25,0.092577
6171.59,0.093336
6178.95,0.094085
6186.32,0.094584
6193.71,0.095077
6201.12,0.095562
6208.54,0.095933
6215.99,0.09626
6223.45,0.096458
6230.93,0.096741
6238.43,0.096937
6245.95,0.097103
6253.48,0.09751
6261.03,0.097705
6268.6,0.097589
6276.19,0.097679
6283.8,0.09781
6291.43,0.097771
6299.07,0.097894
6306.73,0.09789
6314.42,0.097537
6322.12,0.097086
6329.84,0.096773
6337.57,0.09638
6345.33,0.096088
6353.11,0.095769
6360.9,0.095275
6368.72,0.094834
6376.55,0.094189
6384.4,0.093525
6392.27,0.092975
6400.17,0.092247
6408.08,0.091488
6416.01,0.090533
6423.96,0.08935
6431.93,0.088544
6439.92,0.08768
6447.93,0.086617
6455.96,0.085493
6464.01,0.084078
6472.08,0.082746
6480.17,0.081367
6488.28,0.07987
6496.41,0.078285
6504.56,0.076654
6512.73,0.075124
6520.92,0.073503
6529.14,0.071628
6537.37,0.06999
6545.63,0.068053
6553.9,0.066062
6562.2,0.064115
6570.51,0.062171
6578.85,0.059941
6587.21,0.057812
6595.59,0.05578
6603.99,0.053554
6612.42,0.051183
6620.86,0.048825
6629.33,0.046542
6637.82,0.044387
6646.33,0.041927
6654.86,0.039316
6663.41,0.037047
6671.99,0.034798
6680.59,0.032463
6689.21,0.030247
6697.85,0.028063
6706.51,0.026131
6715.2,0.024378
6723.91,0.022677
6732.64,0.021129
6741.4,0.019971
6750.18,0.018987
6758.98,0.018258
6767.8,0.017767
6776.65,0.017406
6785.52,0.016884
6794.41,0.016764
6803.33,0.016886
6812.27,0.017065
6821.23,0.017318
6830.22,0.017721
6839.23,0.017878
6848.26,0.018237
6857.32,0.018622
6866.4,0.018762
6875.51,0.019039
6884.64,0.019538
6893.8,0.019844
6902.98,0.020086
6912.18,0.020505
6921.41,0.021097
6930.66,0.02165
6939.94,0.022389
6949.24,0.023181
6958.57,0.023821
6967.92,0.024533
6977.3,0.025263
6986.7,0.025725
6996.13,0.026426
7005.59,0.027374
7015.07,0.028033
7024.57,0.028537
7034.1,0.0292
7043.66,0.029839
7053.25,0.030296
7062.85,0.030976
7072.49,0.031905
7082.15,0.032532
7091.84,0.033181
7101.55,0.033969
7111.3,0.034933
7121.06,0.035819
7130.86,0.036762
7140.68,0.037818
7150.53,0.038964
7160.41,0.040296
7170.31,0.041789
7180.24,0.04333
7190.2,0.044885
7200.19,0.046655
7210.2,0.04846
7220.24,0.050311
7230.31,0.052129
7240.41,0.05402
7250.54,0.055839
7260.69,0.057676
7270.88,0.059737
7281.09,0.061535
7291.33,0.063365
7301.6,0.06535
7311.9,0.06726
7322.22,0.068929
7332.58,0.070544
7342.97,0.072337
7353.38,0.074091
7363.83,0.075656
7374.3,0.077044
7384.81,0.078303
7395.34,0.079634
7405.91,0.080889
7416.5,0.081973
7427.13,0.082707
7437.78,0.083593
7448.47,0.084447
7459.19,0.085186
7469.94,0.085917
7480.71,0.086464
7491.52,0.086878
7502.37,0.087153
7513.24,0.087355
7524.14,0.087412
7535.08,0.087329
7546.05,0.087318
7557.05,0.087087
7568.08,0.08647
7579.15,0.086092
7590.24,0.085793
7601.37,0.085158
7612.53,0.084328
7623.73,0.08335
7634.96,0.082353
7646.22,0.081401
7657.51,0.080338
7668.84,0.078998
7680.2,0.077635
7691.59,0.076234
7703.02,0.074582
7714.49,0.072857
7725.98,0.071251
7737.52,0.069514
7749.08,0.067479
7760.68,0.065246
7772.32,0.063258
7783.99,0.061276
7795.69,0.05915
7807.43,0.056936
7819.21,0.054586
7831.02,0.052115
7842.87,0.04975
7854.75,0.047526
7866.67,0.045213
7878.62,0.043003
7890.62,0.040789
7902.64,0.038724
7914.71,0.036683
7926.81,0.034609
7938.95,0.03253
7951.13,0.030647
7963.34,0.028917
7975.59,0.027409
7987.88,0.025965
8000.21,0.024603
8012.57,0.023462
8024.98,0.022272
8037.42,0.021156
8049.9,0.020319
8062.42,0.019527
8074.98,0.01896
8087.57,0.018632
8100.21,0.018316
8112.89,0.018215
8125.6,0.0183
8138.36,0.018381
8151.16,0.018359
8163.99,0.018521
8176.87,0.018812
8189.79,0.019157
8202.75,0.019652
8215.75,0.020282
8228.79,0.020628
8241.87,0.021014
8254.99,0.021439
8268.16,0.02202
8281.37,0.022853
8294.62,0.023395
8307.91,0.023833
8321.24,0.024543
8334.62,0.02525
8348.04,0.025858
8361.51,0.026386
8375.02,0.027207
8388.57,0.028093
8402.16,0.028848
8415.8,0.029669
8429.49,0.030445
8443.22,0.031426
8456.99,0.032488
8470.81,0.033837
8484.67,0.0352
8498.58,0.036437
8512.54,0.037679
8526.54,0.03882
8540.58,0.040079
8554.68,0.041609
8568.82,0.042888
8583.0,0.043912
8597.24,0.045101
8611.52,0.046069
8625.85,0.046957
8640.23,0.047887
8654.65,0.048736
8669.12,0.049211
8683.64,0.049518
8698.21,0.049876
8712.83,0.050158
8727.5,0.050195
8742.22,0.05016
8756.99,0.050233
8771.8,0.050081
8786.67,0.049814
8801.59,0.049732
8816.56,0.049864
8831.58,0.049903
8846.65,0.04987
8861.77,0.049993
8876.94,0.050339
8892.17,0.050361
8907.45,0.050442
8922.78,0.05081
8938.16,0.051166
8953.6,0.051472
8969.09,0.051656
8984.64,0.052152
9000.23,0.052345
9015.89,0.052489
9031.59,0.05265
9047.36,0.052465
9063.17,0.052299
9079.05,0.052332
9094.97,0.052401
9110.96,0.052213
9127.0,0.051841
9143.1,0.051737
9159.25,0.051865
9175.46,0.052056
9191.73,0.051951
9208.06,0.051821
9224.44,0.05204
9240.88,0.052187
9257.38,0.051881
9273.94,0.051517
9290.56,0.051613
9307.24,0.051613
9323.98,0.051455
9340.78,0.051298
9357.64,0.051084
9374.57,0.050806
9391.55,0.050598
9408.59,0.050445
9425.7,0.050119
9442.87,0.050294
9460.1,0.050246
9477.4,0.04964
9494.75,0.049679
9512.17,0.049874
9529.66,0.050036
9547.21,0.050395
9564.83,0.050707
9582.5,0.051059
9600.25,0.051029
9618.06,0.05138
9635.94,0.051899
9653.88,0.052074
9671.89,0.052243
9689.97,0.052509
9708.12,0.052816
9726.33,0.053399
9744.62,0.05411
9762.97,0.054897
9781.39,0.05546
9799.88,0.056138
9818.44,0.056794
9837.07,0.057607
9855.77,0.058301
9874.54,0.058588
9893.39,0.058951
9912.3,0.059392
9931.29,0.059653
9950.36,0.059692
9969.49,0.059823
9988.7,0.059704
10007.98,0.059391
10027.34,0.059174
10046.77,0.059021
10066.28,0.058891
10085.87,0.058857
10105.53,0.058862
10125.26,0.058549
10145.08,0.057774
10164.97,0.05664
10184.94,0.054399
10204.99,0.053057
10225.12,0.055379
10245.33,0.058641
10265.61,0.060511
10285.98,0.062444
10306.43,0.064097
10326.96,0.065136
10347.57,0.066082
10368.27,0.067008
10389.05,0.068133
10409.91,0.069606
10430.86,0.070794
10451.88,0.071808
10473.0,0.073285
10494.2,0.074726
10515.49,0.075948
10536.86,0.077143
10558.32,0.078481
10579.87,0.079903
10601.5,0.081437
10623.23,0.082988
10645.04,0.084655
10666.94,0.086298
10688.94,0.087631
10711.02,0.089106
10733.2,0.090682
10755.47,0.09207
10777.83,0.093418
10800.28,0.094899
10822.83,0.096375
10845.47,0.097513
10868.21,0.098246
10891.04,0.099216
10913.97,0.100324
10936.99,0.10149
10960.12,0.102654
10983.34,0.103687
11006.66,0.104485
11030.07,0.105115
11053.59,0.105673
11077.21,0.106325
11100.93,0.106677
11124.75,0.10686
11148.68,0.106886
11172.71,0.107263
11196.84,0.107773
11221.07,0.108124
11245.41,0.108222
11269.86,0.108118
11294.41,0.107862
11319.07,0.10766
11343.84,0.107839
11368.72,0.107689
11393.7,0.107231
11418.8,0.107076
11444.01,0.107033
11469.33,0.106876
11494.76,0.106313
11520.3,0.106063
11545.96,0.105725
11571.73,0.105536
11597.62,0.10518
11623.62,0.104628
11649.74,0.104176
11675.98,0.103658
11702.34,0.103157
11728.81,0.103078
11755.41,0.102682
11782.13,0.101758
11808.96,0.100994
11835.92,0.100958
11863.01,0.10074
11890.22,0.100243
11917.55,0.099508
11945.01,0.098842
11972.6,0.098245
12000.31,0.09759
12028.16,0.09719
12056.13,0.096688
12084.23,0.096233
12112.46,0.095648
12140.83,0.094983
12169.33,0.094142
12197.96,0.09343
12226.73,0.093151
12255.64,0.092669
12284.68,0.092313
12313.86,0.092116
12343.18,0.091386
12372.64,0.09049
12402.24,0.090014
12431.98,0.089458
12461.86,0.088664
12491.89,0.088218
12522.07,0.088111
12552.38,0.087815
12582.85,0.087064
12613.47,0.086155
12644.23,0.085492
12675.15,0.084985
12706.21,0.084134
12737.43,0.083589
12768.81,0.083361
12800.33,0.082488
12832.02,0.081564
12863.86,0.081113
12895.86,0.080547
12928.02,0.079751
12960.34,0.07902
12992.82,0.078523
13025.46,0.07845
13058.27,0.077879
13091.25,0.076568
13124.39,0.075393
13157.7,0.074672
13191.18,0.074311
13224.83,0.073651
13258.66,0.072923
13292.65,0.072189
13326.83,0.071259
13361.17,0.07063
13395.7,0.070245
13430.4,0.069693
13465.29,0.06896
13500.35,0.06824
13535.6,0.06731
13571.03,0.066688
13606.65,0.06654
13642.46,0.065809
13678.46,0.065108
13714.64,0.064628
13751.02,0.064102
13787.59,0.063796
13824.36,0.063356
13861.32,0.062306
13898.49,0.061531
13935.85,0.061054
13973.41,0.060739
14011.17,0.060109
14049.15,0.05984
14087.32,0.059686
14125.71,0.058454
14164.3,0.057598
14203.11,0.057066
14242.13,0.056292
14281.36,0.055472
14320.81,0.054225
14360.49,0.05291
14400.38,0.052199
14440.49,0.051552
14480.82,0.050815
14521.39,0.049735
14562.18,0.048061
14603.2,0.046728
14644.45,0.045394
14685.93,0.043612
14727.66,0.04211
14769.62,0.040874
14811.81,0.039624
14854.25,0.037785
14896.94,0.035823
14939.87,0.034165
14983.05,0.032998
15026.48,0.032114
15070.16,0.03157
15114.1,0.031138
15158.29,0.03034
15202.74,0.02995
15247.46,0.030029
15292.43,0.030384
15337.68,0.030747
15383.19,0.030854
15428.97,0.030632
15475.03,0.030813
15521.36,0.031044
15567.97,0.031281
15614.87,0.031919
15662.04,0.032462
15709.5,0.03227
15757.25,0.032633
15805.29,0.033388
15853.62,0.033861
15902.26,0.035112
15951.19,0.036401
16000.42,0.03715
16049.95,0.038454
16099.8,0.039634
16149.95,0.040627
16200.42,0.041488
16251.21,0.042459
16302.31,0.043407
16353.74,0.044828
16405.49,0.046117
16457.57,0.046724
16509.98,0.048005
16562.73,0.049144
16615.82,0.049456
16669.24,0.049709
16723.02,0.050536
16777.14,0.051456
16831.61,0.052002
16886.43,0.052956
16941.62,0.053926
16997.16,0.055334
17053.08,0.056675
17109.36,0.057836
17166.01,0.0596
17223.04,0.061342
17280.45,0.062862
17338.24,0.063874
17396.43,0.064287
17455.0,0.064756
17513.97,0.065221
17573.34,0.065291
17633.11,0.065621
17693.29,0.06624
17753.89,0.066403
17814.9,0.066307
17876.33,0.06647
17938.18,0.066454
18000.47,0.06608
18063.19,0.066543
18126.35,0.066793
18189.95,0.0665
18254.0,0.066061
18318.5,0.066279
18383.46,0.066769
18448.88,0.06618
18514.77,0.066267
18581.13,0.067191
18647.97,0.068341
18715.29,0.068141
18783.1,0.067168
18851.4,0.0677
18920.2,0.068274
18989.51,0.06866
19059.32,0.067905
19129.65,0.067387
19200.5,0.067324
19271.88,0.067049
19343.79,0.066465
19416.24,0.066322
19489.23,0.065878
19562.77,0.064897
19636.88,0.064715
19711.54,0.064456
19786.78,0.064123
19862.59,0.064017
19938.98,0.064096
20015.96,0.064015
20093.55,0.064199
20171.73,0.06294
20250.53,0.061159
20329.94,0.05984
20409.98,0.059256
20490.65,0.059964
20571.96,0.060627
20653.92,0.060579
20736.54,0.059799
20819.82,0.059724
20903.77,0.059664
20988.4,0.058053
21073.72,0.057347
21159.73,0.058004
21246.46,0.058155
21333.89,0.058304
21422.04,0.059048
21510.93,0.059841
21600.56,0.05953
21690.94,0.058407
21782.08,0.058447
21873.99,0.059203
21966.67,0.058644
22060.15,0.058147
22154.42,0.057204
22249.51,0.057879
22345.41,0.059705
22442.14,0.059632
22539.72,0.058461
22638.14,0.057572
22737.43,0.056722
22837.6,0.055842
22938.65,0.056209
23040.6,0.057354
23143.46,0.057206
23247.24,0.055804
23351.96,0.054083
23457.63,0.054362
23564.25,0.054315
23671.85,0.054623
23780.44,0.053928
23890.02,0.051623
24000.63,0.053338
24112.26,0.053563
24224.93,0.051714
24338.66,0.051476
24453.47,0.050386
24569.36,0.050942
24686.36,0.047989
24804.47,0.044186
24923.73,0.04422
25044.13,0.042929
25165.71,0.039418
25288.46,0.041147
25412.43,0.046289
25537.61,0.048396
25664.04,0.045961
25791.72,0.0474
25920.68,0.042731
