Database of Origin,University of Winnipeg Spectrophotometer Facility
Sample Description,8. Sulfates: RELAB + Nicolet spectra / Spectra all made consistently merged: Jan. / 10 / 2005
Date Added,2016-07-15 22:05:55.736189

Data ID,RPN_SUL_57          
Sample ID,SPT143
Mineral Name,Hexahydrite
Grain Size,<45
Viewing Geometry,30 / 0 | 30
Resolution,5 / 1.3-129
Material Class,Sulfate

Wavelength
305.0,0.644191
310.0,0.651357
315.0,0.657148
320.0,0.659122
325.0,0.668409
330.0,0.669338
335.0,0.671907
340.0,0.683077
345.0,0.683873
350.0,0.691404
355.0,0.6981
360.0,0.69806
365.0,0.712032
370.0,0.709933
375.0,0.71958
380.0,0.726493
385.0,0.729653
390.0,0.741305
395.0,0.743129
400.0,0.739702
405.0,0.744826
410.0,0.746443
415.0,0.747698
420.0,0.754991
425.0,0.756687
430.0,0.76643
435.0,0.768609
440.0,0.777429
445.0,0.781319
450.0,0.78865
455.0,0.79239
460.0,0.798646
465.0,0.802203
470.0,0.80611
475.0,0.809715
480.0,0.813225
485.0,0.816691
490.0,0.818152
495.0,0.82092
500.0,0.82312
505.0,0.824302
510.0,0.828014
515.0,0.830111
520.0,0.831139
525.0,0.83274
530.0,0.834897
535.0,0.837671
540.0,0.83801
545.0,0.841485
550.0,0.842485
555.0,0.844111
560.0,0.844639
565.0,0.84698
570.0,0.846254
575.0,0.846282
580.0,0.846599
585.0,0.847018
590.0,0.845703
595.0,0.845997
600.0,0.845357
605.0,0.844157
610.0,0.845299
615.0,0.846327
620.0,0.846599
625.0,0.847396
630.0,0.84837
635.0,0.849225
640.0,0.84682
645.0,0.846938
650.0,0.844547
655.0,0.843182
660.0,0.838619
665.0,0.837283
670.0,0.835135
675.0,0.836512
680.0,0.83767
685.0,0.840765
690.0,0.841925
695.0,0.845639
700.0,0.846793
705.0,0.851899
710.0,0.852297
715.0,0.857926
720.0,0.862012
725.0,0.861743
730.0,0.863336
735.0,0.863827
740.0,0.864845
745.0,0.865357
750.0,0.86427
755.0,0.865768
760.0,0.865886
765.0,0.865296
770.0,0.864396
775.0,0.864291
780.0,0.863955
785.0,0.863397
790.0,0.86015
795.0,0.860267
800.0,0.861527
805.0,0.860057
810.0,0.85939
815.0,0.85941
820.0,0.859538
825.0,0.859572
830.0,0.859967
835.0,0.860871
840.0,0.859387
845.0,0.860428
850.0,0.861296
855.0,0.862829
860.0,0.864687
865.0,0.867058
870.0,0.867746
875.0,0.870493
880.0,0.871569
885.0,0.874202
890.0,0.874259
895.0,0.876626
900.0,0.876323
905.0,0.877622
910.0,0.878448
915.0,0.878042
920.0,0.878657
925.0,0.87826
930.0,0.880069
935.0,0.878419
940.0,0.879613
945.0,0.878138
950.0,0.879438
955.0,0.877088
960.0,0.876815
965.0,0.876254
970.0,0.875027
975.0,0.873561
980.0,0.873185
985.0,0.873497
990.0,0.875052
995.0,0.874604
1000.0,0.875824
1005.0,0.873551
1010.0,0.876101
1015.0,0.879512
1020.0,0.878068
1025.0,0.880301
1030.0,0.881707
1035.0,0.882043
1040.0,0.881595
1045.0,0.883746
1050.0,0.883402
1055.0,0.883019
1060.0,0.884931
1065.0,0.885255
1070.0,0.884389
1075.0,0.886131
1080.0,0.88577
1085.0,0.885903
1090.0,0.885854
1095.0,0.885999
1100.0,0.885848
1105.0,0.885161
1110.0,0.884926
1115.0,0.88451
1120.0,0.884541
1125.0,0.884451
1130.0,0.884437
1135.0,0.884019
1140.0,0.88305
1145.0,0.881809
1150.0,0.880804
1155.0,0.879154
1160.0,0.875785
1165.0,0.873887
1170.0,0.870655
1175.0,0.868928
1180.0,0.867915
1185.0,0.867491
1190.0,0.867009
1195.0,0.86697
1200.0,0.867348
1205.0,0.866776
1210.0,0.866572
1215.0,0.866438
1220.0,0.866956
1225.0,0.866851
1230.0,0.867604
1235.0,0.868463
1240.0,0.869453
1245.0,0.870044
1250.0,0.870036
1255.0,0.869648
1260.0,0.870784
1265.0,0.872176
1270.0,0.872176
1275.0,0.873505
1280.0,0.87145
1285.0,0.872497
1290.0,0.871351
1295.0,0.871028
1300.0,0.870519
1305.0,0.866987
1310.0,0.866835
1315.0,0.864165
1320.0,0.862416
1325.0,0.856792
1330.0,0.854977
1335.0,0.852347
1340.0,0.847858
1345.0,0.843611
1350.0,0.840925
1355.0,0.838917
1360.0,0.835496
1365.0,0.831022
1370.0,0.829523
1375.0,0.825237
1380.0,0.821874
1385.0,0.818566
1390.0,0.811007
1395.0,0.809668
1400.0,0.798115
1405.0,0.785854
1410.0,0.764557
1415.0,0.746044
1420.0,0.72477
1425.0,0.704558
1430.0,0.680447
1435.0,0.652906
1440.0,0.638696
1445.0,0.644382
1450.0,0.656723
1455.0,0.66002
1460.0,0.66209
1465.0,0.661706
1470.0,0.66222
1475.0,0.665495
1480.0,0.671748
1485.0,0.676851
1490.0,0.679851
1495.0,0.688714
1500.0,0.695175
1505.0,0.70445
1510.0,0.709214
1515.0,0.715388
1520.0,0.717939
1525.0,0.720498
1530.0,0.720037
1535.0,0.721607
1540.0,0.722138
1545.0,0.723441
1550.0,0.725145
1555.0,0.725216
1560.0,0.729531
1565.0,0.729089
1570.0,0.733668
1575.0,0.732987
1580.0,0.735518
1585.0,0.738215
1590.0,0.74042
1595.0,0.741048
1600.0,0.745689
1605.0,0.746983
1610.0,0.75185
1615.0,0.756246
1620.0,0.7595
1625.0,0.764305
1630.0,0.764531
1635.0,0.768749
1640.0,0.771014
1645.0,0.776177
1650.0,0.780344
1655.0,0.783189
1660.0,0.784323
1665.0,0.786923
1670.0,0.788189
1675.0,0.789971
1680.0,0.791234
1685.0,0.790965
1690.0,0.791369
1695.0,0.792014
1700.0,0.791391
1705.0,0.790547
1710.0,0.789397
1715.0,0.789343
1720.0,0.788426
1725.0,0.787803
1730.0,0.787673
1735.0,0.787837
1740.0,0.788009
1745.0,0.788021
1750.0,0.788079
1755.0,0.787121
1760.0,0.788022
1765.0,0.786779
1770.0,0.787588
1775.0,0.787261
1780.0,0.786637
1785.0,0.786305
1790.0,0.786112
1795.0,0.785168
1800.0,0.78641
1805.0,0.786014
1810.0,0.787071
1815.0,0.787517
1820.0,0.787603
1825.0,0.78781
1830.0,0.787097
1835.0,0.784511
1840.0,0.782673
1845.0,0.778875
1850.0,0.773464
1855.0,0.767488
1860.0,0.763031
1865.0,0.751368
1870.0,0.736701
1875.0,0.720316
1880.0,0.699871
1885.0,0.679973
1890.0,0.652531
1895.0,0.616518
1900.0,0.588615
1905.0,0.547915
1910.0,0.507629
1915.0,0.472881
1920.0,0.435784
1925.0,0.394843
1930.0,0.364143
1935.0,0.336792
1940.0,0.319593
1945.0,0.320115
1950.0,0.332568
1955.0,0.343086
1960.0,0.344666
1965.0,0.343825
1970.0,0.343566
1975.0,0.34542
1980.0,0.350647
1985.0,0.358334
1990.0,0.368722
1995.0,0.383099
2000.0,0.399763
2005.0,0.416817
2010.0,0.431987
2015.0,0.447567
2020.0,0.462417
2025.0,0.478167
2030.0,0.492149
2035.0,0.505998
2040.0,0.517257
2045.0,0.528854
2050.0,0.538234
2055.0,0.548082
2060.0,0.555765
2065.0,0.563869
2070.0,0.570348
2075.0,0.576656
2080.0,0.584278
2085.0,0.589008
2090.0,0.593642
2095.0,0.596882
2100.0,0.597964
2105.0,0.601089
2110.0,0.600894
2115.0,0.6029
2120.0,0.603924
2125.0,0.605509
2130.0,0.607535
2135.0,0.609663
2140.0,0.611204
2145.0,0.611678
2150.0,0.61289
2155.0,0.614365
2160.0,0.615502
2165.0,0.617635
2170.0,0.61715
2175.0,0.619152
2180.0,0.618581
2185.0,0.620347
2190.0,0.621448
2195.0,0.623487
2200.0,0.624235
2205.0,0.625752
2210.0,0.624527
2215.0,0.626454
2220.0,0.626018
2225.0,0.626834
2230.0,0.626882
2235.0,0.626379
2240.0,0.627734
2245.0,0.626618
2250.0,0.62705
2255.0,0.623022
2260.0,0.621064
2265.0,0.618099
2270.0,0.615923
2275.0,0.611057
2280.0,0.608476
2285.0,0.6035
2290.0,0.598385
2295.0,0.592722
2300.0,0.586048
2305.0,0.576846
2310.0,0.567007
2315.0,0.556017
2320.0,0.543355
2325.0,0.529351
2330.0,0.514058
2335.0,0.500594
2340.0,0.483886
2345.0,0.468863
2350.0,0.45344
2355.0,0.441606
2360.0,0.430109
2365.0,0.420166
2370.0,0.410758
2375.0,0.402153
2380.0,0.393255
2385.0,0.38311
2390.0,0.375244
2395.0,0.365238
2400.0,0.356049
2405.0,0.349894
2410.0,0.343729
2415.0,0.338242
2420.0,0.334756
2425.0,0.330975
2430.0,0.330401
2435.0,0.330605
2440.0,0.33044
2445.0,0.330777
2450.0,0.329932
2455.0,0.329576
2460.0,0.327229
2465.0,0.324952
2470.0,0.323477
2475.0,0.320331
2480.0,0.317842
2485.0,0.315111
2490.0,0.312118
2495.0,0.3082
2500.0,0.305507
2505.0,0.302283
2510.0,0.298587
2515.0,0.2973
2520.0,0.29588
2525.0,0.29522
2530.0,0.294463
2535.0,0.293879
2540.0,0.292457
2545.0,0.291714
2550.0,0.292258
2555.0,0.292239
2560.0,0.291256
2565.13,0.291678
2570.22,0.290535
2575.33,0.28979
2580.46,0.289954
2581.74,0.289558
2583.03,0.289398
2584.31,0.289058
2585.6,0.289609
2586.89,0.28873
2588.19,0.287933
2589.48,0.287658
2590.77,0.287698
2592.07,0.287642
2593.36,0.287903
2594.66,0.286921
2595.96,0.287265
2597.26,0.287512
2598.56,0.286888
2599.87,0.286765
2601.17,0.286133
2602.48,0.2858
2603.78,0.285785
2605.09,0.285051
2606.4,0.28458
2607.71,0.284095
2609.03,0.283555
2610.34,0.28304
2611.66,0.282241
2612.97,0.281975
2614.29,0.282329
2615.61,0.282013
2616.93,0.280614
2618.25,0.280005
2619.57,0.279291
2620.9,0.278613
2622.22,0.279015
2623.55,0.278352
2624.88,0.277163
2626.21,0.275957
2627.54,0.275728
2628.87,0.275224
2630.21,0.273642
2631.54,0.273396
2632.88,0.273281
2634.21,0.27228
2635.55,0.271772
2636.89,0.270576
2638.24,0.26882
2639.58,0.267849
2640.92,0.266894
2642.27,0.265646
2643.62,0.265123
2644.97,0.264204
2646.32,0.263061
2647.67,0.261673
2649.02,0.260452
2650.38,0.259092
2651.73,0.257515
2653.09,0.256096
2654.45,0.255154
2655.81,0.253352
2657.17,0.252563
2658.53,0.251544
2659.89,0.249719
2661.26,0.247893
2662.63,0.246633
2664.0,0.244271
2665.36,0.241959
2666.74,0.241211
2668.11,0.240804
2669.48,0.23926
2670.86,0.236792
2672.23,0.235477
2673.61,0.233525
2674.99,0.231716
2676.37,0.230135
2677.76,0.227783
2679.14,0.225413
2680.52,0.223313
2681.91,0.22134
2683.3,0.219171
2684.69,0.217147
2686.08,0.215245
2687.47,0.213132
2688.87,0.210936
2690.26,0.208177
2691.66,0.204779
2693.06,0.201819
2694.46,0.198949
2695.86,0.196263
2697.26,0.193968
2698.66,0.191248
2700.07,0.188143
2701.48,0.185056
2702.89,0.182119
2704.3,0.178855
2705.71,0.175479
2707.12,0.172364
2708.53,0.168672
2709.95,0.165518
2711.37,0.162337
2712.79,0.15883
2714.21,0.155349
2715.63,0.15176
2717.05,0.148535
2718.48,0.144971
2719.9,0.140418
2721.33,0.136154
2722.76,0.132551
2724.19,0.128914
2725.62,0.124736
2727.06,0.120348
2728.49,0.116489
2729.93,0.113053
2731.37,0.108984
2732.81,0.105033
2734.25,0.100942
2735.69,0.096573
2737.14,0.092708
2738.58,0.089248
2740.03,0.085278
2741.48,0.081206
2742.93,0.077418
2744.38,0.073728
2745.83,0.07027
2747.29,0.067063
2748.75,0.063689
2750.2,0.060346
2751.66,0.057873
2753.13,0.055531
2754.59,0.052572
2756.05,0.049789
2757.52,0.047652
2758.99,0.04534
2760.46,0.043057
2761.93,0.04108
2763.4,0.039876
2764.87,0.038584
2766.35,0.036909
2767.82,0.035329
2769.3,0.033775
2770.78,0.032131
2772.26,0.030653
2773.75,0.029785
2775.23,0.029036
2776.72,0.028052
2778.21,0.02705
2779.7,0.026462
2781.19,0.025876
2782.68,0.025365
2784.18,0.024882
2785.67,0.024338
2787.17,0.023468
2788.67,0.022804
2790.17,0.022417
2791.67,0.02238
2793.18,0.022069
2794.68,0.021821
2796.19,0.021581
2797.7,0.021147
2799.21,0.020738
2800.72,0.020572
2802.24,0.020169
2803.75,0.019864
2805.27,0.019515
2806.79,0.019592
2808.31,0.019289
2809.83,0.018971
2811.35,0.018981
2812.88,0.019226
2814.41,0.019076
2815.93,0.018627
2817.46,0.018451
2819.0,0.018394
2820.53,0.018346
2822.07,0.018125
2823.6,0.017888
2825.14,0.017737
2826.68,0.017358
2828.22,0.017248
2829.77,0.017293
2831.31,0.017228
2832.86,0.017293
2834.41,0.017058
2835.96,0.017232
2837.51,0.017363
2839.07,0.017305
2840.62,0.017391
2842.18,0.017341
2843.74,0.016906
2845.3,0.01657
2846.86,0.016663
2848.43,0.017001
2849.99,0.017214
2851.56,0.017174
2853.13,0.016987
2854.7,0.016953
2856.27,0.016961
2857.85,0.01692
2859.42,0.016991
2861.0,0.01686
2862.58,0.016751
2864.16,0.016573
2865.75,0.016849
2867.33,0.01696
2868.92,0.016634
2870.51,0.016923
2872.1,0.017416
2873.69,0.017111
2875.28,0.016894
2876.88,0.017026
2878.48,0.017196
2880.07,0.017274
2881.68,0.017479
2883.28,0.017659
2884.88,0.01758
2886.49,0.017535
2888.1,0.017318
2889.71,0.017133
2891.32,0.017556
2892.93,0.017696
2894.55,0.017591
2896.16,0.017791
2897.78,0.018108
2899.4,0.018163
2901.03,0.018163
2902.65,0.018116
2904.28,0.018379
2905.91,0.018877
2907.54,0.018717
2909.17,0.018436
2910.8,0.018888
2912.44,0.019113
2914.07,0.019041
2915.71,0.018887
2917.35,0.018821
2918.99,0.019345
2920.64,0.019633
2922.29,0.019487
2923.93,0.01955
2925.58,0.019713
2927.24,0.019614
2928.89,0.019527
2930.55,0.019478
2932.2,0.019576
2933.86,0.019669
2935.52,0.019755
2937.19,0.020022
2938.85,0.020266
2940.52,0.020192
2942.19,0.020366
2943.86,0.020743
2945.53,0.020913
2947.21,0.021282
2948.88,0.021191
2950.56,0.020987
2952.24,0.021308
2953.92,0.02149
2955.61,0.021605
2957.29,0.021906
2958.98,0.022076
2960.67,0.021834
2962.36,0.022096
2964.06,0.02237
2965.75,0.022489
2967.45,0.022715
2969.15,0.022989
2970.85,0.023155
2972.55,0.023345
2974.26,0.023387
2975.97,0.023609
2977.68,0.023994
2979.39,0.02377
2981.1,0.023828
2982.82,0.024179
2984.53,0.024685
2986.25,0.024909
2987.97,0.025033
2989.7,0.025308
2991.42,0.025458
2993.15,0.02557
2994.88,0.025498
2996.61,0.025645
2998.34,0.025805
3000.08,0.025825
3001.82,0.026176
3003.55,0.026714
3005.3,0.02683
3007.04,0.026822
3008.78,0.026904
3010.53,0.027059
3012.28,0.027223
3014.03,0.027222
3015.79,0.027209
3017.54,0.027558
3019.3,0.027761
3021.06,0.027839
3022.82,0.0281
3024.58,0.028322
3026.35,0.028797
3028.12,0.029108
3029.89,0.028786
3031.66,0.028776
3033.43,0.028935
3035.21,0.029641
3036.99,0.030255
3038.77,0.030198
3040.55,0.030307
3042.33,0.030424
3044.12,0.030617
3045.91,0.031093
3047.7,0.031268
3049.49,0.031097
3051.29,0.031274
3053.08,0.031758
3054.88,0.031867
3056.68,0.031923
3058.49,0.031877
3060.29,0.032155
3062.1,0.03235
3063.91,0.032723
3065.72,0.03283
3067.54,0.032709
3069.35,0.03293
3071.17,0.032894
3072.99,0.033154
3074.81,0.033669
3076.64,0.034034
3078.47,0.034309
3080.29,0.034627
3082.13,0.035033
3083.96,0.0353
3085.79,0.035292
3087.63,0.035357
3089.47,0.035746
3091.31,0.036196
3093.16,0.036516
3095.01,0.036717
3096.85,0.036979
3098.71,0.037538
3100.56,0.038023
3102.41,0.038609
3104.27,0.039313
3106.13,0.039781
3107.99,0.03971
3109.86,0.039896
3111.73,0.040412
3113.59,0.040707
3115.47,0.041189
3117.34,0.041758
3119.21,0.042011
3121.09,0.042568
3122.97,0.043233
3124.86,0.043455
3126.74,0.043887
3128.63,0.04433
3130.52,0.044422
3132.41,0.044734
3134.3,0.045482
3136.2,0.046305
3138.1,0.046696
3140.0,0.046864
3141.9,0.047151
3143.81,0.047531
3145.71,0.047958
3147.62,0.048708
3149.54,0.049329
3151.45,0.049955
3153.37,0.050294
3155.29,0.050828
3157.21,0.051456
3159.13,0.05198
3161.06,0.052453
3162.99,0.052979
3164.92,0.053577
3166.85,0.054189
3168.79,0.054958
3170.72,0.055625
3172.67,0.055744
3174.61,0.056203
3176.55,0.056886
3178.5,0.057619
3180.45,0.05841
3182.4,0.058904
3184.36,0.059806
3186.32,0.060557
3188.27,0.06113
3190.24,0.061645
3192.2,0.061941
3194.17,0.062504
3196.14,0.063448
3198.11,0.06432
3200.08,0.065013
3202.06,0.065435
3204.04,0.066231
3206.02,0.066708
3208.0,0.067089
3209.99,0.067983
3211.98,0.068709
3213.97,0.069087
3215.96,0.06983
3217.96,0.070619
3219.96,0.071314
3221.96,0.07198
3223.96,0.072569
3225.97,0.073208
3227.98,0.073887
3229.99,0.074787
3232.0,0.075643
3234.02,0.076137
3236.04,0.076778
3238.06,0.077505
3240.08,0.078225
3242.11,0.079051
3244.14,0.079908
3246.17,0.08051
3248.2,0.081315
3250.24,0.082018
3252.28,0.082635
3254.32,0.083304
3256.37,0.084116
3258.41,0.084871
3260.46,0.085431
3262.51,0.085914
3264.57,0.086616
3266.63,0.087474
3268.69,0.088401
3270.75,0.089065
3272.81,0.089948
3274.88,0.090828
3276.95,0.091371
3279.02,0.092288
3281.1,0.093334
3283.18,0.094159
3285.26,0.094898
3287.34,0.095541
3289.43,0.096195
3291.51,0.097095
3293.61,0.097995
3295.7,0.098759
3297.8,0.099372
3299.9,0.10007
3302.0,0.101074
3304.1,0.101982
3306.21,0.102718
3308.32,0.103748
3310.43,0.104819
3312.55,0.10552
3314.66,0.106153
3316.79,0.106946
3318.91,0.107574
3321.03,0.108356
3323.16,0.109702
3325.29,0.110759
3327.43,0.11139
3329.57,0.112173
3331.71,0.113122
3333.85,0.114014
3335.99,0.114955
3338.14,0.116004
3340.29,0.116904
3342.45,0.117859
3344.6,0.118757
3346.76,0.119641
3348.92,0.120605
3351.09,0.121505
3353.26,0.122259
3355.43,0.123121
3357.6,0.124299
3359.78,0.125125
3361.96,0.125919
3364.14,0.127076
3366.32,0.128086
3368.51,0.128864
3370.7,0.129636
3372.89,0.13049
3375.09,0.131544
3377.29,0.132737
3379.49,0.133775
3381.69,0.134679
3383.9,0.135564
3386.11,0.136533
3388.32,0.137319
3390.54,0.138069
3392.76,0.139086
3394.98,0.140158
3397.21,0.141042
3399.43,0.14178
3401.66,0.142866
3403.9,0.143826
3406.13,0.144727
3408.37,0.145756
3410.61,0.146597
3412.86,0.147471
3415.11,0.148523
3417.36,0.149513
3419.61,0.150401
3421.87,0.151557
3424.13,0.152417
3426.39,0.15331
3428.66,0.154441
3430.93,0.155488
3433.2,0.156375
3435.48,0.157327
3437.76,0.158322
3440.04,0.159535
3442.32,0.16063
3444.61,0.161504
3446.9,0.162554
3449.19,0.163737
3451.49,0.164808
3453.79,0.165851
3456.09,0.16645
3458.4,0.167124
3460.7,0.16823
3463.02,0.169468
3465.33,0.17041
3467.65,0.171343
3469.97,0.172281
3472.29,0.173216
3474.62,0.174099
3476.95,0.174887
3479.29,0.175835
3481.62,0.177073
3483.96,0.178108
3486.3,0.17903
3488.65,0.180056
3491.0,0.180965
3493.35,0.181727
3495.71,0.182533
3498.07,0.18354
3500.43,0.184318
3502.79,0.185346
3505.16,0.186724
3507.53,0.187926
3509.91,0.188885
3512.29,0.189898
3514.67,0.190754
3517.05,0.191541
3519.44,0.192608
3521.83,0.193689
3524.23,0.194613
3526.62,0.195561
3529.02,0.196384
3531.43,0.197062
3533.83,0.19798
3536.24,0.199004
3538.66,0.200021
3541.08,0.20111
3543.5,0.201944
3545.92,0.202727
3548.35,0.203589
3550.78,0.204384
3553.21,0.205462
3555.65,0.206546
3558.09,0.207403
3560.53,0.208261
3562.98,0.209108
3565.43,0.209883
3567.88,0.2108
3570.34,0.211535
3572.8,0.212125
3575.27,0.212988
3577.73,0.214085
3580.2,0.215062
3582.68,0.215837
3585.16,0.216657
3587.64,0.217535
3590.12,0.21861
3592.61,0.219715
3595.1,0.220704
3597.6,0.221557
3600.09,0.222284
3602.6,0.223101
3605.1,0.223955
3607.61,0.22485
3610.12,0.225928
3612.64,0.226981
3615.16,0.227855
3617.68,0.228742
3620.21,0.229614
3622.74,0.230379
3625.27,0.231172
3627.81,0.232118
3630.35,0.233142
3632.89,0.233975
3635.44,0.234713
3637.99,0.235439
3640.54,0.236278
3643.1,0.237472
3645.66,0.238476
3648.23,0.239367
3650.8,0.240254
3653.37,0.241156
3655.95,0.242093
3658.53,0.243113
3661.11,0.243925
3663.7,0.244789
3666.29,0.245366
3668.89,0.245913
3671.48,0.246744
3674.09,0.247879
3676.69,0.248853
3679.3,0.249722
3681.91,0.250604
3684.53,0.251391
3687.15,0.252172
3689.78,0.253091
3692.4,0.253848
3695.04,0.254618
3697.67,0.255505
3700.31,0.2562
3702.95,0.256878
3705.6,0.257608
3708.25,0.258499
3710.91,0.259383
3713.56,0.260058
3716.23,0.260686
3718.89,0.26145
3721.56,0.262219
3724.23,0.263026
3726.91,0.263629
3729.59,0.264223
3732.28,0.264978
3734.97,0.265623
3737.66,0.266315
3740.36,0.267264
3743.06,0.267999
3745.76,0.268629
3748.47,0.269453
3751.18,0.270044
3753.9,0.27071
3756.62,0.271484
3759.34,0.272165
3762.07,0.272819
3764.8,0.273496
3767.54,0.27419
3770.28,0.27488
3773.02,0.275355
3775.77,0.275825
3778.52,0.276538
3781.28,0.277362
3784.04,0.278062
3786.8,0.278486
3789.57,0.278969
3792.34,0.279375
3795.12,0.279995
3797.9,0.280632
3800.69,0.281176
3803.47,0.281817
3806.27,0.282281
3809.06,0.282861
3811.86,0.283581
3814.67,0.284159
3817.48,0.284598
3820.29,0.285009
3823.11,0.285395
3825.93,0.285839
3828.76,0.286458
3831.59,0.287038
3834.42,0.287456
3837.26,0.287874
3840.1,0.288277
3842.95,0.288858
3845.8,0.28925
3848.65,0.289462
3851.51,0.2898
3854.38,0.29049
3857.24,0.291086
3860.12,0.291425
3862.99,0.291586
3865.87,0.291899
3868.76,0.292275
3871.65,0.292572
3874.54,0.292827
3877.44,0.29295
3880.34,0.293237
3883.25,0.293589
3886.16,0.293704
3889.07,0.293976
3891.99,0.293994
3894.92,0.294132
3897.85,0.294383
3900.78,0.294456
3903.72,0.294393
3906.66,0.29441
3909.6,0.294638
3912.55,0.29491
3915.51,0.294811
3918.47,0.29482
3921.43,0.29487
3924.4,0.294819
3927.38,0.294845
3930.35,0.29479
3933.33,0.294585
3936.32,0.294575
3939.31,0.294589
3942.31,0.294369
3945.31,0.294273
3948.31,0.294371
3951.32,0.294306
3954.34,0.294048
3957.35,0.293814
3960.38,0.293713
3963.41,0.293369
3966.44,0.293339
3969.48,0.293209
3972.52,0.292852
3975.56,0.292548
3978.61,0.292228
3981.67,0.291997
3984.73,0.291758
3987.8,0.291464
3990.87,0.291256
3993.94,0.290784
3997.02,0.290216
4000.1,0.289807
4003.19,0.289495
4006.29,0.289135
4009.39,0.288627
4012.49,0.288101
4015.6,0.287588
4018.71,0.286865
4021.83,0.286281
4024.95,0.285649
4028.08,0.28488
4031.21,0.284188
4034.35,0.283546
4037.49,0.2828
4040.64,0.282126
4043.79,0.281556
4046.94,0.280912
4050.11,0.279896
4053.27,0.278901
4056.44,0.277985
4059.62,0.277131
4062.8,0.276199
4065.99,0.275519
4069.18,0.274697
4072.38,0.273714
4075.58,0.272655
4078.78,0.27178
4082.0,0.270794
4085.21,0.269938
4088.43,0.26899
4091.66,0.268
4094.89,0.267012
4098.13,0.26612
4101.37,0.26521
4104.62,0.264448
4107.87,0.263655
4111.13,0.262713
4114.39,0.261595
4117.66,0.260742
4120.93,0.259968
4124.21,0.259162
4127.5,0.258381
4130.79,0.257676
4134.08,0.256845
4137.38,0.255946
4140.68,0.255252
4143.99,0.254547
4147.31,0.253619
4150.63,0.252978
4153.95,0.252487
4157.29,0.252027
4160.62,0.251345
4163.96,0.250503
4167.31,0.249842
4170.66,0.24929
4174.02,0.248626
4177.39,0.247998
4180.75,0.247434
4184.13,0.24669
4187.51,0.246036
4190.89,0.245632
4194.28,0.244922
4197.68,0.244083
4201.08,0.243359
4204.49,0.242719
4207.9,0.24212
4211.32,0.241336
4214.74,0.240608
4218.17,0.239833
4221.61,0.239128
4225.05,0.238583
4228.5,0.238018
4231.95,0.237273
4235.4,0.236484
4238.87,0.235957
4242.34,0.235337
4245.81,0.234543
4249.29,0.233626
4252.78,0.232871
4256.27,0.231926
4259.77,0.230892
4263.27,0.230159
4266.78,0.22966
4270.29,0.229165
4273.81,0.228743
4277.34,0.228395
4280.87,0.227848
4284.41,0.227169
4287.95,0.226481
4291.5,0.225911
4295.06,0.225471
4298.62,0.224703
4302.19,0.223946
4305.76,0.223484
4309.34,0.222861
4312.92,0.222166
4316.52,0.221688
4320.11,0.221079
4323.72,0.220475
4327.32,0.219974
4330.94,0.219326
4334.56,0.218685
4338.19,0.218124
4341.82,0.217608
4345.46,0.21712
4349.11,0.216533
4352.76,0.216292
4356.42,0.216031
4360.08,0.215402
4363.75,0.214713
4367.43,0.214236
4371.11,0.213888
4374.8,0.213679
4378.49,0.213489
4382.19,0.213174
4385.9,0.212627
4389.61,0.212244
4393.33,0.211961
4397.06,0.211565
4400.79,0.211193
4404.53,0.210774
4408.28,0.210453
4412.03,0.210335
4415.79,0.210088
4419.55,0.209578
4423.32,0.20907
4427.1,0.208794
4430.88,0.208667
4434.68,0.208462
4438.47,0.208295
4442.28,0.20823
4446.08,0.208095
4449.9,0.20786
4453.72,0.207811
4457.55,0.207848
4461.39,0.207884
4465.23,0.207962
4469.08,0.207907
4472.94,0.207961
4476.8,0.207957
4480.67,0.208003
4484.55,0.208113
4488.43,0.208195
4492.32,0.20844
4496.21,0.208794
4500.12,0.208849
4504.03,0.208929
4507.94,0.209065
4511.87,0.209227
4515.8,0.209353
4519.73,0.209305
4523.68,0.209267
4527.63,0.209615
4531.59,0.20993
4535.55,0.20995
4539.52,0.210061
4543.5,0.210348
4547.49,0.210318
4551.48,0.210224
4555.48,0.210157
4559.49,0.21017
4563.5,0.209988
4567.52,0.209774
4571.55,0.209597
4575.58,0.209477
4579.63,0.209364
4583.67,0.209278
4587.73,0.209171
4591.79,0.209116
4595.86,0.209207
4599.94,0.209331
4604.03,0.209428
4608.12,0.209536
4612.22,0.209629
4616.33,0.209751
4620.44,0.209739
4624.56,0.209937
4628.69,0.210097
4632.83,0.210349
4636.97,0.210546
4641.12,0.210696
4645.28,0.211035
4649.45,0.211482
4653.62,0.211762
4657.8,0.212062
4661.99,0.212588
4666.19,0.213191
4670.39,0.213772
4674.6,0.214431
4678.82,0.214962
4683.05,0.215668
4687.28,0.21628
4691.52,0.216786
4695.77,0.217465
4700.03,0.21817
4704.3,0.218654
4708.57,0.219298
4712.85,0.220046
4717.14,0.220563
4721.43,0.220978
4725.74,0.221289
4730.05,0.221384
4734.37,0.221752
4738.7,0.222238
4743.03,0.222533
4747.38,0.222887
4751.73,0.223395
4756.09,0.223853
4760.45,0.224287
4764.83,0.22464
4769.21,0.225064
4773.6,0.225481
4778.0,0.225833
4782.41,0.226342
4786.83,0.227241
4791.25,0.22813
4795.68,0.229211
4800.13,0.230319
4804.57,0.231269
4809.03,0.232209
4813.5,0.233254
4817.97,0.234487
4822.45,0.235732
4826.94,0.236752
4831.44,0.23796
4835.95,0.239281
4840.46,0.240524
4844.99,0.241891
4849.52,0.243267
4854.06,0.244431
4858.61,0.245729
4863.17,0.246821
4867.73,0.247873
4872.31,0.248925
4876.89,0.25
4881.48,0.25096
4886.08,0.251959
4890.69,0.252695
4895.31,0.253319
4899.94,0.253966
4904.57,0.254873
4909.22,0.255555
4913.87,0.256066
4918.53,0.256731
4923.21,0.257588
4927.88,0.258063
4932.57,0.258466
4937.27,0.258968
4941.98,0.259584
4946.69,0.26016
4951.42,0.260721
4956.15,0.261216
4960.9,0.261696
4965.65,0.262235
4970.41,0.262818
4975.18,0.26323
4979.96,0.263634
4984.75,0.263992
4989.54,0.264419
4994.35,0.264774
4999.17,0.265095
5003.99,0.265078
5008.83,0.265223
5013.67,0.2656
5018.52,0.266039
5023.39,0.266626
5028.26,0.267344
5033.14,0.267927
5038.03,0.268611
5042.93,0.269129
5047.84,0.269635
5052.76,0.270062
5057.69,0.270683
5062.63,0.271356
5067.58,0.271999
5072.54,0.272311
5077.51,0.272666
5082.49,0.273099
5087.47,0.273727
5092.47,0.274257
5097.48,0.274495
5102.5,0.27479
5107.52,0.275329
5112.56,0.27564
5117.61,0.275793
5122.66,0.275948
5127.73,0.276405
5132.81,0.276588
5137.89,0.276605
5142.99,0.276683
5148.1,0.276894
5153.22,0.277018
5158.34,0.277242
5163.48,0.277314
5168.63,0.277328
5173.79,0.277199
5178.96,0.277221
5184.13,0.27716
5189.32,0.277012
5194.52,0.276934
5199.73,0.276937
5204.96,0.276816
5210.19,0.276777
5215.43,0.276507
5220.68,0.276442
5225.94,0.276181
5231.22,0.275991
5236.5,0.27573
5241.79,0.27548
5247.1,0.27541
5252.42,0.275204
5257.74,0.274839
5263.08,0.274562
5268.43,0.274253
5273.79,0.273994
5279.16,0.2736
5284.54,0.273364
5289.93,0.273039
5295.34,0.272647
5300.75,0.272282
5306.18,0.271851
5311.61,0.271217
5317.06,0.270784
5322.52,0.270179
5327.99,0.269718
5333.47,0.269251
5338.96,0.268779
5344.47,0.268321
5349.98,0.267763
5355.51,0.267003
5361.05,0.266333
5366.6,0.265559
5372.16,0.265012
5377.73,0.26442
5383.32,0.263747
5388.91,0.262922
5394.52,0.262322
5400.14,0.261533
5405.77,0.260827
5411.41,0.260226
5417.07,0.259552
5422.74,0.258443
5428.41,0.257672
5434.1,0.256886
5439.81,0.256278
5445.52,0.255468
5451.25,0.254573
5456.98,0.253648
5462.73,0.252613
5468.5,0.251622
5474.27,0.250913
5480.06,0.24993
5485.86,0.249046
5491.67,0.247979
5497.49,0.247011
5503.33,0.245985
5509.18,0.245145
5515.04,0.244079
5520.91,0.242996
5526.8,0.241768
5532.69,0.240606
5538.61,0.239325
5544.53,0.238103
5550.47,0.236697
5556.41,0.235332
5562.38,0.23381
5568.35,0.232407
5574.34,0.230907
5580.34,0.229392
5586.35,0.227828
5592.38,0.226267
5598.42,0.224413
5604.47,0.222622
5610.54,0.220849
5616.61,0.219081
5622.71,0.217074
5628.81,0.215221
5634.93,0.213351
5641.06,0.211419
5647.21,0.209301
5653.36,0.207521
5659.54,0.205455
5665.72,0.203643
5671.92,0.201717
5678.13,0.199658
5684.36,0.197325
5690.6,0.195195
5696.85,0.193019
5703.12,0.190795
5709.4,0.188234
5715.69,0.186057
5722.0,0.183742
5728.33,0.18121
5734.66,0.178428
5741.01,0.175826
5747.38,0.17294
5753.76,0.169954
5760.15,0.166695
5766.56,0.163568
5772.98,0.160168
5779.41,0.156959
5785.86,0.153354
5792.33,0.149769
5798.81,0.14618
5805.3,0.142406
5811.81,0.138396
5818.33,0.134706
5824.87,0.130564
5831.42,0.126323
5837.99,0.122008
5844.57,0.117779
5851.17,0.11312
5857.78,0.108456
5864.41,0.103715
5871.05,0.098863
5877.7,0.09398
5884.38,0.089041
5891.06,0.083636
5897.76,0.078852
5904.48,0.073822
5911.21,0.068985
5917.96,0.064111
5924.73,0.059255
5931.5,0.054569
5938.3,0.050297
5945.11,0.046038
5951.93,0.042502
5958.78,0.039102
5965.63,0.036185
5972.51,0.033781
5979.39,0.031717
5986.3,0.029949
5993.22,0.028581
6000.16,0.027437
6007.11,0.026625
6014.08,0.025843
6021.06,0.025157
6028.06,0.024622
6035.08,0.024124
6042.12,0.023599
6049.17,0.023161
6056.23,0.02272
6063.32,0.022285
6070.42,0.021863
6077.53,0.021541
6084.67,0.021258
6091.82,0.021117
6098.98,0.021222
6106.17,0.021499
6113.37,0.021793
6120.58,0.022456
6127.82,0.023371
6135.07,0.024497
6142.34,0.025799
6149.63,0.027231
6156.93,0.028735
6164.25,0.030563
6171.59,0.032781
6178.95,0.034792
6186.32,0.036802
6193.71,0.039187
6201.12,0.041583
6208.54,0.04378
6215.99,0.046046
6223.45,0.048439
6230.93,0.051123
6238.43,0.053773
6245.95,0.056551
6253.48,0.059408
6261.03,0.062195
6268.6,0.064834
6276.19,0.067537
6283.8,0.07009
6291.43,0.072467
6299.07,0.07456
6306.73,0.076658
6314.42,0.078669
6322.12,0.08053
6329.84,0.082138
6337.57,0.083639
6345.33,0.084969
6353.11,0.086436
6360.9,0.087844
6368.72,0.088898
6376.55,0.090004
6384.4,0.091045
6392.27,0.091794
6400.17,0.092623
6408.08,0.093357
6416.01,0.094182
6423.96,0.095224
6431.93,0.09602
6439.92,0.096411
6447.93,0.097047
6455.96,0.097631
6464.01,0.098266
6472.08,0.09881
6480.17,0.099229
6488.28,0.099613
6496.41,0.100112
6504.56,0.100765
6512.73,0.101183
6520.92,0.101402
6529.14,0.101857
6537.37,0.102202
6545.63,0.102546
6553.9,0.10289
6562.2,0.103295
6570.51,0.103585
6578.85,0.103811
6587.21,0.103955
6595.59,0.104173
6603.99,0.104485
6612.42,0.104705
6620.86,0.1048
6629.33,0.104927
6637.82,0.104959
6646.33,0.105115
6654.86,0.10532
6663.41,0.105306
6671.99,0.105215
6680.59,0.105309
6689.21,0.105554
6697.85,0.105584
6706.51,0.105433
6715.2,0.105386
6723.91,0.105303
6732.64,0.105197
6741.4,0.105005
6750.18,0.104738
6758.98,0.104621
6767.8,0.104326
6776.65,0.103857
6785.52,0.10362
6794.41,0.103209
6803.33,0.102818
6812.27,0.10235
6821.23,0.101732
6830.22,0.101239
6839.23,0.10085
6848.26,0.100415
6857.32,0.099975
6866.4,0.099328
6875.51,0.098901
6884.64,0.098539
6893.8,0.097907
6902.98,0.097297
6912.18,0.096743
6921.41,0.096192
6930.66,0.095587
6939.94,0.094879
6949.24,0.094183
6958.57,0.093497
6967.92,0.092758
6977.3,0.092041
6986.7,0.09132
6996.13,0.090533
7005.59,0.0897
7015.07,0.088883
7024.57,0.088129
7034.1,0.087227
7043.66,0.086346
7053.25,0.085585
7062.85,0.08464
7072.49,0.083576
7082.15,0.082475
7091.84,0.081586
7101.55,0.080749
7111.3,0.07967
7121.06,0.078638
7130.86,0.077594
7140.68,0.076393
7150.53,0.07531
7160.41,0.074335
7170.31,0.0732
7180.24,0.072018
7190.2,0.070898
7200.19,0.069786
7210.2,0.068547
7220.24,0.067207
7230.31,0.06604
7240.41,0.064724
7250.54,0.063483
7260.69,0.062235
7270.88,0.060886
7281.09,0.059546
7291.33,0.058201
7301.6,0.057003
7311.9,0.055699
7322.22,0.054238
7332.58,0.052808
7342.97,0.051468
7353.38,0.050256
7363.83,0.048827
7374.3,0.04738
7384.81,0.045968
7395.34,0.044732
7405.91,0.043455
7416.5,0.042173
7427.13,0.040778
7437.78,0.039447
7448.47,0.03828
7459.19,0.036955
7469.94,0.035567
7480.71,0.034346
7491.52,0.033171
7502.37,0.031994
7513.24,0.030708
7524.14,0.029472
7535.08,0.028292
7546.05,0.027207
7557.05,0.02612
7568.08,0.025099
7579.15,0.024049
7590.24,0.02314
7601.37,0.022131
7612.53,0.02127
7623.73,0.020656
7634.96,0.020035
7646.22,0.019332
7657.51,0.018756
7668.84,0.018273
7680.2,0.017847
7691.59,0.017433
7703.02,0.017251
7714.49,0.017177
7725.98,0.017091
7737.52,0.017074
7749.08,0.017102
7760.68,0.01701
7772.32,0.017103
7783.99,0.017204
7795.69,0.017251
7807.43,0.017403
7819.21,0.017637
7831.02,0.017744
7842.87,0.017787
7854.75,0.017919
7866.67,0.018107
7878.62,0.017988
7890.62,0.017929
7902.64,0.01787
7914.71,0.017886
7926.81,0.018052
7938.95,0.018165
7951.13,0.018154
7963.34,0.01829
7975.59,0.018378
7987.88,0.018353
8000.21,0.018394
8012.57,0.01859
8024.98,0.018673
8037.42,0.018567
8049.9,0.018628
8062.42,0.018912
8074.98,0.019193
8087.57,0.019336
8100.21,0.019372
8112.89,0.019629
8125.6,0.019775
8138.36,0.019961
8151.16,0.020332
8163.99,0.020699
8176.87,0.020992
8189.79,0.021357
8202.75,0.021784
8215.75,0.022286
8228.79,0.022802
8241.87,0.023357
8254.99,0.023973
8268.16,0.024633
8281.37,0.025429
8294.62,0.026289
8307.91,0.027119
8321.24,0.02821
8334.62,0.029189
8348.04,0.030147
8361.51,0.031348
8375.02,0.032578
8388.57,0.033633
8402.16,0.03457
8415.8,0.035501
8429.49,0.035982
8443.22,0.036378
8456.99,0.036869
8470.81,0.037169
8484.67,0.037282
8498.58,0.0371
8512.54,0.036956
8526.54,0.036872
8540.58,0.036851
8554.68,0.036588
8568.82,0.036302
8583.0,0.036084
8597.24,0.035527
8611.52,0.034955
8625.85,0.034524
8640.23,0.034157
8654.65,0.033799
8669.12,0.033607
8683.64,0.03321
8698.21,0.032894
8712.83,0.032953
8727.5,0.0328
8742.22,0.032577
8756.99,0.032369
8771.8,0.032056
8786.67,0.031924
8801.59,0.031966
8816.56,0.031925
8831.58,0.03184
8846.65,0.03179
8861.77,0.031768
8876.94,0.031951
8892.17,0.032155
8907.45,0.031931
8922.78,0.032009
8938.16,0.032155
8953.6,0.032067
8969.09,0.031795
8984.64,0.031876
9000.23,0.03212
9015.89,0.032138
9031.59,0.032324
9047.36,0.03248
9063.17,0.032374
9079.05,0.03247
9094.97,0.032521
9110.96,0.032473
9127.0,0.032535
9143.1,0.032517
9159.25,0.032494
9175.46,0.032772
9191.73,0.033069
9208.06,0.033237
9224.44,0.033439
9240.88,0.033739
9257.38,0.034029
9273.94,0.034438
9290.56,0.035016
9307.24,0.035623
9323.98,0.036261
9340.78,0.036861
9357.64,0.03747
9374.57,0.038189
9391.55,0.039287
9408.59,0.040329
9425.7,0.041252
9442.87,0.042131
9460.1,0.042874
9477.4,0.043906
9494.75,0.044971
9512.17,0.045797
9529.66,0.046545
9547.21,0.047169
9564.83,0.047525
9582.5,0.047864
9600.25,0.04804
9618.06,0.048031
9635.94,0.047984
9653.88,0.047931
9671.89,0.047925
9689.97,0.047749
9708.12,0.047637
9726.33,0.047595
9744.62,0.047399
9762.97,0.047354
9781.39,0.047619
9799.88,0.047613
9818.44,0.047387
9837.07,0.047468
9855.77,0.047707
9874.54,0.047939
9893.39,0.04836
9912.3,0.048737
9931.29,0.049011
9950.36,0.04926
9969.49,0.049194
9988.7,0.048298
10007.98,0.047102
10027.34,0.047611
10046.77,0.050167
10066.28,0.053175
10085.87,0.05603
10105.53,0.058882
10125.26,0.061423
10145.08,0.063815
10164.97,0.066048
10184.94,0.068141
10204.99,0.070173
10225.12,0.072239
10245.33,0.074141
10265.61,0.076057
10285.98,0.078054
10306.43,0.079774
10326.96,0.081132
10347.57,0.082255
10368.27,0.08346
10389.05,0.084507
10409.91,0.085213
10430.86,0.08578
10451.88,0.086133
10473.0,0.086253
10494.2,0.08648
10515.49,0.086575
10536.86,0.086241
10558.32,0.086132
10579.87,0.08609
10601.5,0.085884
10623.23,0.085343
10645.04,0.084857
10666.94,0.084533
10688.94,0.083938
10711.02,0.083381
10733.2,0.082772
10755.47,0.082297
10777.83,0.081546
10800.28,0.080378
10822.83,0.079627
10845.47,0.079293
10868.21,0.078556
10891.04,0.077601
10913.97,0.076863
10936.99,0.076065
10960.12,0.075163
10983.34,0.074355
11006.66,0.073657
11030.07,0.072691
11053.59,0.071802
11077.21,0.071096
11100.93,0.070522
11124.75,0.0698
11148.68,0.068922
11172.71,0.068114
11196.84,0.067287
11221.07,0.066414
11245.41,0.06549
11269.86,0.064845
11294.41,0.064234
11319.07,0.063449
11343.84,0.062569
11368.72,0.061865
11393.7,0.060904
11418.8,0.059822
11444.01,0.059224
11469.33,0.058741
11494.76,0.058181
11520.3,0.057558
11545.96,0.056805
11571.73,0.056245
11597.62,0.055414
11623.62,0.054435
11649.74,0.053668
11675.98,0.052997
11702.34,0.052221
11728.81,0.05124
11755.41,0.050296
11782.13,0.049635
11808.96,0.048851
11835.92,0.048037
11863.01,0.047201
11890.22,0.046505
11917.55,0.045846
11945.01,0.045178
11972.6,0.044306
12000.31,0.043512
12028.16,0.042757
12056.13,0.041848
12084.23,0.04136
12112.46,0.040765
12140.83,0.04001
12169.33,0.039389
12197.96,0.038706
12226.73,0.037865
12255.64,0.037478
12284.68,0.036802
12313.86,0.03612
12343.18,0.035364
12372.64,0.034489
12402.24,0.033779
12431.98,0.033115
12461.86,0.032623
12491.89,0.032104
12522.07,0.03123
12552.38,0.030453
12582.85,0.029991
12613.47,0.029436
12644.23,0.02897
12675.15,0.028463
12706.21,0.028083
12737.43,0.027654
12768.81,0.02689
12800.33,0.026237
12832.02,0.025789
12863.86,0.025389
12895.86,0.024912
12928.02,0.024558
12960.34,0.024202
12992.82,0.023479
13025.46,0.022662
13058.27,0.022272
13091.25,0.022175
13124.39,0.022101
13157.7,0.021745
13191.18,0.021289
13224.83,0.020938
13258.66,0.020434
13292.65,0.020108
13326.83,0.02004
13361.17,0.019886
13395.7,0.019516
13430.4,0.019407
13465.29,0.019023
13500.35,0.018528
13535.6,0.018274
13571.03,0.01821
13606.65,0.0181
13642.46,0.017903
13678.46,0.017908
13714.64,0.01767
13751.02,0.017251
13787.59,0.016943
13824.36,0.016614
13861.32,0.016581
13898.49,0.016663
13935.85,0.016674
13973.41,0.016583
14011.17,0.016238
14049.15,0.01598
14087.32,0.01592
14125.71,0.015444
14164.3,0.014874
14203.11,0.014819
14242.13,0.014798
14281.36,0.014795
14320.81,0.014679
14360.49,0.014606
14400.38,0.01471
14440.49,0.015117
14480.82,0.015238
14521.39,0.014872
14562.18,0.014577
14603.2,0.014707
14644.45,0.015347
14685.93,0.015368
14727.66,0.015204
14769.62,0.015497
14811.81,0.015806
14854.25,0.016411
14896.94,0.016725
14939.87,0.016694
14983.05,0.017247
15026.48,0.017639
15070.16,0.017755
15114.1,0.017986
15158.29,0.018288
15202.74,0.018897
15247.46,0.019621
15292.43,0.02007
15337.68,0.020378
15383.19,0.020227
15428.97,0.020304
15475.03,0.020923
15521.36,0.021407
15567.97,0.021789
15614.87,0.022146
15662.04,0.022626
15709.5,0.023044
15757.25,0.023262
15805.29,0.023656
15853.62,0.024003
15902.26,0.02412
15951.19,0.024391
16000.42,0.024839
16049.95,0.025155
16099.8,0.025498
16149.95,0.026107
16200.42,0.026298
16251.21,0.026367
16302.31,0.026426
16353.74,0.026556
16405.49,0.026606
16457.57,0.026662
16509.98,0.02672
16562.73,0.026601
16615.82,0.026218
16669.24,0.026015
16723.02,0.026036
16777.14,0.025863
16831.61,0.025361
16886.43,0.024826
16941.62,0.024844
16997.16,0.024908
17053.08,0.024647
17109.36,0.024693
17166.01,0.024819
17223.04,0.024926
17280.45,0.024701
17338.24,0.024641
17396.43,0.024949
17455.0,0.02514
17513.97,0.024939
17573.34,0.025099
17633.11,0.025496
17693.29,0.025481
17753.89,0.025236
17814.9,0.0246
17876.33,0.024377
17938.18,0.024482
18000.47,0.024275
18063.19,0.024405
18126.35,0.02463
18189.95,0.024637
18254.0,0.025038
18318.5,0.025111
18383.46,0.025163
18448.88,0.025788
18514.77,0.025686
18581.13,0.025824
18647.97,0.026354
18715.29,0.026392
18783.1,0.025883
18851.4,0.025434
18920.2,0.025292
18989.51,0.025387
19059.32,0.025153
19129.65,0.025242
19200.5,0.025248
19271.88,0.024765
19343.79,0.024667
19416.24,0.024917
19489.23,0.02443
19562.77,0.024642
19636.88,0.024967
19711.54,0.024515
19786.78,0.024461
19862.59,0.025259
19938.98,0.025244
20015.96,0.025612
20093.55,0.026273
20171.73,0.025761
20250.53,0.025522
20329.94,0.025716
20409.98,0.025495
20490.65,0.025694
20571.96,0.025721
20653.92,0.025632
20736.54,0.025765
20819.82,0.026165
20903.77,0.025883
20988.4,0.026111
21073.72,0.025744
21159.73,0.02526
21246.46,0.024588
21333.89,0.024611
21422.04,0.025635
21510.93,0.026225
21600.56,0.025718
21690.94,0.026101
21782.08,0.026064
21873.99,0.026016
21966.67,0.025935
22060.15,0.0251
22154.42,0.025593
22249.51,0.026526
22345.41,0.025631
22442.14,0.025951
22539.72,0.026683
22638.14,0.02718
22737.43,0.027241
22837.6,0.026992
22938.65,0.027096
23040.6,0.027717
23143.46,0.028194
23247.24,0.027255
23351.96,0.025772
23457.63,0.026203
23564.25,0.027188
23671.85,0.028136
23780.44,0.029481
23890.02,0.028156
24000.63,0.027973
24112.26,0.029832
24224.93,0.031006
24338.66,0.030164
24453.47,0.028768
24569.36,0.030782
24686.36,0.031312
24804.47,0.031314
24923.73,0.032648
25044.13,0.033446
25165.71,0.034875
25288.46,0.035218
25412.43,0.032691
25537.61,0.032356
25664.04,0.031652
25791.72,0.03088
25920.68,0.035683
