Database of Origin,University of Winnipeg Spectrophotometer Facility
Sample Description,8. Sulfates: RELAB + Nicolet spectra / Spectra all made consistently merged: Jan. / 10 / 2005
Date Added,2016-07-15 22:05:55.345666

Data ID,RPN_SUL_41          
Sample ID,SPT126
Mineral Name,Coquimbite
Grain Size,<45
Viewing Geometry,30 / 0 | 30
Resolution,5 / 1.3-129
Material Class,Sulfate

Wavelength
305.0,0.045708
310.0,0.034586
315.0,0.02955
320.0,0.02642
325.0,0.024544
330.0,0.0233
335.0,0.023402
340.0,0.02488
345.0,0.027611
350.0,0.033167
355.0,0.042189
360.0,0.056404
365.0,0.07768
370.0,0.10953
375.0,0.152007
380.0,0.206988
385.0,0.271598
390.0,0.339103
395.0,0.423255
400.0,0.511192
405.0,0.575145
410.0,0.612257
415.0,0.62499
420.0,0.617978
425.0,0.581694
430.0,0.597625
435.0,0.671802
440.0,0.754445
445.0,0.785999
450.0,0.797556
455.0,0.800331
460.0,0.801942
465.0,0.804158
470.0,0.806281
475.0,0.807038
480.0,0.806669
485.0,0.803487
490.0,0.80346
495.0,0.80335
500.0,0.800368
505.0,0.796389
510.0,0.79262
515.0,0.790766
520.0,0.786707
525.0,0.780636
530.0,0.776717
535.0,0.775767
540.0,0.773074
545.0,0.771072
550.0,0.769619
555.0,0.768937
560.0,0.770701
565.0,0.772552
570.0,0.775126
575.0,0.776231
580.0,0.777551
585.0,0.783183
590.0,0.787277
595.0,0.791991
600.0,0.796445
605.0,0.802599
610.0,0.809897
615.0,0.816217
620.0,0.823147
625.0,0.828321
630.0,0.834606
635.0,0.840396
640.0,0.843537
645.0,0.844783
650.0,0.846944
655.0,0.848223
660.0,0.849387
665.0,0.850807
670.0,0.850341
675.0,0.847644
680.0,0.846113
685.0,0.845486
690.0,0.843703
695.0,0.839896
700.0,0.833358
705.0,0.830547
710.0,0.827006
715.0,0.822985
720.0,0.815834
725.0,0.812378
730.0,0.807561
735.0,0.804786
740.0,0.799858
745.0,0.798334
750.0,0.794483
755.0,0.791618
760.0,0.789849
765.0,0.787129
770.0,0.786976
775.0,0.78709
780.0,0.787638
785.0,0.787373
790.0,0.787937
795.0,0.788919
800.0,0.7913
805.0,0.793728
810.0,0.798492
815.0,0.799617
820.0,0.804404
825.0,0.807139
830.0,0.809489
835.0,0.813897
840.0,0.819238
845.0,0.824983
850.0,0.82928
855.0,0.828278
860.0,0.827963
865.0,0.837042
870.0,0.835961
875.0,0.845949
880.0,0.848206
885.0,0.855553
890.0,0.857546
895.0,0.860133
900.0,0.860778
905.0,0.865704
910.0,0.870053
915.0,0.870785
920.0,0.874335
925.0,0.874355
930.0,0.872877
935.0,0.877545
940.0,0.879492
945.0,0.878466
950.0,0.881805
955.0,0.885062
960.0,0.882074
965.0,0.882666
970.0,0.882614
975.0,0.885758
980.0,0.885777
985.0,0.885837
990.0,0.885177
995.0,0.884515
1000.0,0.885031
1005.0,0.886809
1010.0,0.885891
1015.0,0.885115
1020.0,0.885016
1025.0,0.883765
1030.0,0.8859
1035.0,0.88696
1040.0,0.886204
1045.0,0.887574
1050.0,0.888528
1055.0,0.887498
1060.0,0.888282
1065.0,0.890673
1070.0,0.886712
1075.0,0.889082
1080.0,0.88771
1085.0,0.887964
1090.0,0.887217
1095.0,0.886634
1100.0,0.888197
1105.0,0.887294
1110.0,0.885259
1115.0,0.884221
1120.0,0.88488
1125.0,0.886249
1130.0,0.884155
1135.0,0.883938
1140.0,0.883011
1145.0,0.881882
1150.0,0.876641
1155.0,0.870665
1160.0,0.867722
1165.0,0.871325
1170.0,0.872572
1175.0,0.87292
1180.0,0.871701
1185.0,0.868221
1190.0,0.86597
1195.0,0.862942
1200.0,0.861721
1205.0,0.859002
1210.0,0.856576
1215.0,0.853621
1220.0,0.852521
1225.0,0.852306
1230.0,0.850426
1235.0,0.84865
1240.0,0.84816
1245.0,0.848102
1250.0,0.844337
1255.0,0.84376
1260.0,0.842527
1265.0,0.841601
1270.0,0.840731
1275.0,0.839887
1280.0,0.839083
1285.0,0.836439
1290.0,0.83673
1295.0,0.835588
1300.0,0.833453
1305.0,0.831595
1310.0,0.829872
1315.0,0.827307
1320.0,0.826629
1325.0,0.824036
1330.0,0.819802
1335.0,0.81777
1340.0,0.812966
1345.0,0.80891
1350.0,0.804919
1355.0,0.803201
1360.0,0.801392
1365.0,0.79632
1370.0,0.794521
1375.0,0.791253
1380.0,0.788805
1385.0,0.783633
1390.0,0.778861
1395.0,0.768529
1400.0,0.75087
1405.0,0.729244
1410.0,0.712161
1415.0,0.713418
1420.0,0.726865
1425.0,0.727834
1430.0,0.72431
1435.0,0.717221
1440.0,0.708196
1445.0,0.697559
1450.0,0.684067
1455.0,0.665854
1460.0,0.651757
1465.0,0.636576
1470.0,0.620535
1475.0,0.607504
1480.0,0.598704
1485.0,0.593174
1490.0,0.593255
1495.0,0.590945
1500.0,0.589888
1505.0,0.590012
1510.0,0.585868
1515.0,0.582216
1520.0,0.582286
1525.0,0.580037
1530.0,0.577519
1535.0,0.573875
1540.0,0.572064
1545.0,0.568622
1550.0,0.564853
1555.0,0.562259
1560.0,0.559018
1565.0,0.556113
1570.0,0.554474
1575.0,0.550949
1580.0,0.54803
1585.0,0.545257
1590.0,0.54251
1595.0,0.540217
1600.0,0.535106
1605.0,0.535389
1610.0,0.532174
1615.0,0.530381
1620.0,0.526558
1625.0,0.52429
1630.0,0.521466
1635.0,0.517131
1640.0,0.515116
1645.0,0.515098
1650.0,0.511453
1655.0,0.509388
1660.0,0.506343
1665.0,0.502237
1670.0,0.498584
1675.0,0.495379
1680.0,0.49344
1685.0,0.492284
1690.0,0.489077
1695.0,0.485421
1700.0,0.48239
1705.0,0.478089
1710.0,0.476947
1715.0,0.474917
1720.0,0.472532
1725.0,0.470466
1730.0,0.468291
1735.0,0.466864
1740.0,0.464535
1745.0,0.46238
1750.0,0.461383
1755.0,0.460536
1760.0,0.459922
1765.0,0.458827
1770.0,0.458784
1775.0,0.457385
1780.0,0.456639
1785.0,0.456164
1790.0,0.455102
1795.0,0.455106
1800.0,0.454977
1805.0,0.455097
1810.0,0.455123
1815.0,0.454237
1820.0,0.454973
1825.0,0.454404
1830.0,0.455594
1835.0,0.455193
1840.0,0.454541
1845.0,0.454372
1850.0,0.453762
1855.0,0.453459
1860.0,0.452538
1865.0,0.452148
1870.0,0.451868
1875.0,0.448437
1880.0,0.445841
1885.0,0.443652
1890.0,0.438824
1895.0,0.429904
1900.0,0.415773
1905.0,0.393102
1910.0,0.380795
1915.0,0.385389
1920.0,0.391096
1925.0,0.390074
1930.0,0.386973
1935.0,0.381205
1940.0,0.374988
1945.0,0.366317
1950.0,0.357272
1955.0,0.346432
1960.0,0.33517
1965.0,0.324842
1970.0,0.317293
1975.0,0.312039
1980.0,0.310063
1985.0,0.310221
1990.0,0.31189
1995.0,0.313071
2000.0,0.313755
2005.0,0.314806
2010.0,0.316549
2015.0,0.317597
2020.0,0.318892
2025.0,0.319792
2030.0,0.321569
2035.0,0.322039
2040.0,0.322982
2045.0,0.324267
2050.0,0.325199
2055.0,0.327112
2060.0,0.32757
2065.0,0.327799
2070.0,0.329417
2075.0,0.331555
2080.0,0.332048
2085.0,0.333675
2090.0,0.335339
2095.0,0.337181
2100.0,0.338974
2105.0,0.340497
2110.0,0.343034
2115.0,0.345692
2120.0,0.34846
2125.0,0.349716
2130.0,0.35368
2135.0,0.3571
2140.0,0.35941
2145.0,0.362002
2150.0,0.365887
2155.0,0.367769
2160.0,0.371115
2165.0,0.374457
2170.0,0.377488
2175.0,0.378495
2180.0,0.382069
2185.0,0.384217
2190.0,0.385062
2195.0,0.388167
2200.0,0.390468
2205.0,0.392008
2210.0,0.393748
2215.0,0.395486
2220.0,0.397871
2225.0,0.399355
2230.0,0.399279
2235.0,0.401566
2240.0,0.403952
2245.0,0.404006
2250.0,0.404912
2255.0,0.407789
2260.0,0.406596
2265.0,0.408101
2270.0,0.409348
2275.0,0.407158
2280.0,0.408221
2285.0,0.40789
2290.0,0.406417
2295.0,0.403314
2300.0,0.402232
2305.0,0.399448
2310.0,0.397733
2315.0,0.392592
2320.0,0.390758
2325.0,0.387205
2330.0,0.384188
2335.0,0.380679
2340.0,0.37793
2345.0,0.372743
2350.0,0.367454
2355.0,0.364816
2360.0,0.359723
2365.0,0.353843
2370.0,0.34931
2375.0,0.345087
2380.0,0.338436
2385.0,0.330895
2390.0,0.326073
2395.0,0.320047
2400.0,0.31264
2405.0,0.306438
2410.0,0.301488
2415.0,0.297044
2420.0,0.29103
2425.0,0.286088
2430.0,0.282692
2435.0,0.277663
2440.0,0.2741
2445.0,0.270884
2450.0,0.267904
2455.0,0.263653
2460.0,0.261668
2465.0,0.259166
2470.0,0.255712
2475.0,0.252679
2480.0,0.249094
2485.0,0.246551
2490.0,0.245326
2495.0,0.243665
2500.0,0.24109
2505.0,0.239921
2510.0,0.238756
2515.0,0.237928
2520.0,0.237526
2525.0,0.236724
2530.0,0.236027
2535.0,0.234735
2540.0,0.234543
2545.0,0.232477
2550.0,0.231134
2555.0,0.22965
2560.0,0.232074
2565.13,0.230447
2570.22,0.230104
2575.33,0.231308
2580.46,0.231872
2581.74,0.231841
2583.03,0.233283
2584.31,0.233438
2585.6,0.232916
2586.89,0.232706
2588.19,0.233367
2589.48,0.232997
2590.77,0.233676
2592.07,0.233704
2593.36,0.234219
2594.66,0.23381
2595.96,0.233493
2597.26,0.23404
2598.56,0.233725
2599.87,0.23447
2601.17,0.234826
2602.48,0.23401
2603.78,0.234179
2605.09,0.233607
2606.4,0.233608
2607.71,0.233345
2609.03,0.233506
2610.34,0.233808
2611.66,0.233661
2612.97,0.233934
2614.29,0.233153
2615.61,0.234293
2616.93,0.235474
2618.25,0.234853
2619.57,0.234451
2620.9,0.233377
2622.22,0.23281
2623.55,0.232019
2624.88,0.231672
2626.21,0.232701
2627.54,0.233199
2628.87,0.231831
2630.21,0.23117
2631.54,0.23149
2632.88,0.23322
2634.21,0.232993
2635.55,0.231686
2636.89,0.231046
2638.24,0.231629
2639.58,0.232197
2640.92,0.231612
2642.27,0.230163
2643.62,0.230273
2644.97,0.230829
2646.32,0.230262
2647.67,0.228396
2649.02,0.227622
2650.38,0.227407
2651.73,0.226933
2653.09,0.226481
2654.45,0.22718
2655.81,0.226006
2657.17,0.225683
2658.53,0.225003
2659.89,0.223794
2661.26,0.222912
2662.63,0.222101
2664.0,0.220892
2665.36,0.220368
2666.74,0.221178
2668.11,0.220524
2669.48,0.219337
2670.86,0.219141
2672.23,0.218658
2673.61,0.217807
2674.99,0.215864
2676.37,0.213865
2677.76,0.21309
2679.14,0.212378
2680.52,0.212411
2681.91,0.212316
2683.3,0.210986
2684.69,0.20848
2686.08,0.207058
2687.47,0.206727
2688.87,0.205671
2690.26,0.204798
2691.66,0.203521
2693.06,0.202548
2694.46,0.202253
2695.86,0.201834
2697.26,0.199962
2698.66,0.197942
2700.07,0.197751
2701.48,0.196527
2702.89,0.193875
2704.3,0.192515
2705.71,0.190856
2707.12,0.188897
2708.53,0.187705
2709.95,0.185223
2711.37,0.183024
2712.79,0.180502
2714.21,0.178529
2715.63,0.178443
2717.05,0.177398
2718.48,0.174579
2719.9,0.172299
2721.33,0.170926
2722.76,0.170325
2724.19,0.168447
2725.62,0.165245
2727.06,0.163805
2728.49,0.16279
2729.93,0.161247
2731.37,0.159408
2732.81,0.15828
2734.25,0.156875
2735.69,0.155281
2737.14,0.152985
2738.58,0.150238
2740.03,0.147826
2741.48,0.146399
2742.93,0.144283
2744.38,0.141572
2745.83,0.138672
2747.29,0.136631
2748.75,0.134153
2750.2,0.131738
2751.66,0.129573
2753.13,0.127458
2754.59,0.125008
2756.05,0.122595
2757.52,0.119793
2758.99,0.117818
2760.46,0.115759
2761.93,0.113877
2763.4,0.109919
2764.87,0.107119
2766.35,0.105496
2767.82,0.102537
2769.3,0.099576
2770.78,0.097088
2772.26,0.094663
2773.75,0.092852
2775.23,0.091818
2776.72,0.089952
2778.21,0.086184
2779.7,0.083598
2781.19,0.082721
2782.68,0.08147
2784.18,0.079346
2785.67,0.077532
2787.17,0.075449
2788.67,0.073481
2790.17,0.071984
2791.67,0.070491
2793.18,0.06893
2794.68,0.066961
2796.19,0.065215
2797.7,0.063834
2799.21,0.062166
2800.72,0.060545
2802.24,0.06043
2803.75,0.058666
2805.27,0.056871
2806.79,0.056378
2808.31,0.054552
2809.83,0.05307
2811.35,0.052447
2812.88,0.051621
2814.41,0.050597
2815.93,0.049939
2817.46,0.048814
2819.0,0.046878
2820.53,0.045172
2822.07,0.044529
2823.6,0.043572
2825.14,0.042432
2826.68,0.041128
2828.22,0.04037
2829.77,0.039457
2831.31,0.038032
2832.86,0.036193
2834.41,0.035494
2835.96,0.034463
2837.51,0.033224
2839.07,0.032667
2840.62,0.032244
2842.18,0.031017
2843.74,0.030416
2845.3,0.02936
2846.86,0.029056
2848.43,0.028175
2849.99,0.026327
2851.56,0.025068
2853.13,0.02474
2854.7,0.024296
2856.27,0.02336
2857.85,0.023265
2859.42,0.023357
2861.0,0.023034
2862.58,0.021663
2864.16,0.021035
2865.75,0.020958
2867.33,0.019875
2868.92,0.019788
2870.51,0.018749
2872.1,0.017522
2873.69,0.017787
2875.28,0.017274
2876.88,0.016664
2878.48,0.016398
2880.07,0.016004
2881.68,0.015919
2883.28,0.015537
2884.88,0.015112
2886.49,0.015113
2888.1,0.015266
2889.71,0.014735
2891.32,0.013621
2892.93,0.013422
2894.55,0.014127
2896.16,0.013575
2897.78,0.012821
2899.4,0.013215
2901.03,0.013656
2902.65,0.012984
2904.28,0.013035
2905.91,0.012902
2907.54,0.012813
2909.17,0.013008
2910.8,0.012917
2912.44,0.012421
2914.07,0.012598
2915.71,0.013672
2917.35,0.013004
2918.99,0.012297
2920.64,0.012629
2922.29,0.013369
2923.93,0.014346
2925.58,0.013658
2927.24,0.012345
2928.89,0.011629
2930.55,0.012178
2932.2,0.012975
2933.86,0.01329
2935.52,0.013158
2937.19,0.012396
2938.85,0.011506
2940.52,0.010775
2942.19,0.011646
2943.86,0.012863
2945.53,0.012931
2947.21,0.012791
2948.88,0.012494
2950.56,0.012667
2952.24,0.011998
2953.92,0.011873
2955.61,0.01209
2957.29,0.012382
2958.98,0.012165
2960.67,0.011526
2962.36,0.011933
2964.06,0.012084
2965.75,0.011239
2967.45,0.011001
2969.15,0.011045
2970.85,0.01054
2972.55,0.010986
2974.26,0.01164
2975.97,0.011944
2977.68,0.01124
2979.39,0.011267
2981.1,0.011834
2982.82,0.01152
2984.53,0.011556
2986.25,0.01204
2987.97,0.012418
2989.7,0.012748
2991.42,0.012005
2993.15,0.011562
2994.88,0.011228
2996.61,0.011294
2998.34,0.01195
3000.08,0.012537
3001.82,0.012329
3003.55,0.011511
3005.3,0.011682
3007.04,0.011394
3008.78,0.011483
3010.53,0.011146
3012.28,0.012106
3014.03,0.012325
3015.79,0.011842
3017.54,0.011791
3019.3,0.012591
3021.06,0.012634
3022.82,0.01218
3024.58,0.01187
3026.35,0.011908
3028.12,0.011771
3029.89,0.011639
3031.66,0.012189
3033.43,0.012617
3035.21,0.012152
3036.99,0.012313
3038.77,0.013057
3040.55,0.012979
3042.33,0.012976
3044.12,0.013313
3045.91,0.013
3047.7,0.012699
3049.49,0.012624
3051.29,0.012717
3053.08,0.012702
3054.88,0.012556
3056.68,0.012497
3058.49,0.012253
3060.29,0.012163
3062.1,0.012145
3063.91,0.012352
3065.72,0.013332
3067.54,0.013461
3069.35,0.012476
3071.17,0.011867
3072.99,0.011523
3074.81,0.011605
3076.64,0.011832
3078.47,0.012219
3080.29,0.012954
3082.13,0.013334
3083.96,0.013452
3085.79,0.01333
3087.63,0.013488
3089.47,0.012779
3091.31,0.011742
3093.16,0.011573
3095.01,0.012107
3096.85,0.012363
3098.71,0.012277
3100.56,0.011915
3102.41,0.011738
3104.27,0.012534
3106.13,0.012652
3107.99,0.012149
3109.86,0.012149
3111.73,0.012887
3113.59,0.01279
3115.47,0.012944
3117.34,0.013414
3119.21,0.0134
3121.09,0.012965
3122.97,0.012636
3124.86,0.012901
3126.74,0.01312
3128.63,0.013518
3130.52,0.01376
3132.41,0.013247
3134.3,0.013116
3136.2,0.013734
3138.1,0.013599
3140.0,0.013509
3141.9,0.013306
3143.81,0.012736
3145.71,0.012798
3147.62,0.013394
3149.54,0.013902
3151.45,0.013574
3153.37,0.013066
3155.29,0.013457
3157.21,0.014391
3159.13,0.014394
3161.06,0.013603
3162.99,0.013397
3164.92,0.013232
3166.85,0.013848
3168.79,0.014729
3170.72,0.01454
3172.67,0.014404
3174.61,0.013961
3176.55,0.014047
3178.5,0.014489
3180.45,0.014177
3182.4,0.013415
3184.36,0.013084
3186.32,0.013181
3188.27,0.012747
3190.24,0.013101
3192.2,0.013396
3194.17,0.013242
3196.14,0.013664
3198.11,0.013555
3200.08,0.013226
3202.06,0.013572
3204.04,0.013774
3206.02,0.01385
3208.0,0.01388
3209.99,0.013811
3211.98,0.013677
3213.97,0.013846
3215.96,0.01387
3217.96,0.013666
3219.96,0.01403
3221.96,0.014329
3223.96,0.014218
3225.97,0.013623
3227.98,0.013501
3229.99,0.013926
3232.0,0.014405
3234.02,0.014377
3236.04,0.013805
3238.06,0.013718
3240.08,0.01331
3242.11,0.013248
3244.14,0.01343
3246.17,0.0134
3248.2,0.013183
3250.24,0.013335
3252.28,0.014089
3254.32,0.014015
3256.37,0.013267
3258.41,0.013204
3260.46,0.013875
3262.51,0.014254
3264.57,0.013871
3266.63,0.013177
3268.69,0.01299
3270.75,0.013531
3272.81,0.014086
3274.88,0.014038
3276.95,0.01424
3279.02,0.013831
3281.1,0.013774
3283.18,0.013733
3285.26,0.013618
3287.34,0.014029
3289.43,0.014444
3291.51,0.014227
3293.61,0.014085
3295.7,0.013986
3297.8,0.013586
3299.9,0.013804
3302.0,0.014125
3304.1,0.014231
3306.21,0.014147
3308.32,0.013914
3310.43,0.013907
3312.55,0.013962
3314.66,0.013952
3316.79,0.014174
3318.91,0.014233
3321.03,0.013718
3323.16,0.013186
3325.29,0.013531
3327.43,0.013923
3329.57,0.014138
3331.71,0.013525
3333.85,0.013481
3335.99,0.013858
3338.14,0.013764
3340.29,0.014178
3342.45,0.014349
3344.6,0.01334
3346.76,0.013178
3348.92,0.013878
3351.09,0.014068
3353.26,0.014101
3355.43,0.014646
3357.6,0.014769
3359.78,0.014685
3361.96,0.014825
3364.14,0.01465
3366.32,0.014097
3368.51,0.01419
3370.7,0.014208
3372.89,0.01427
3375.09,0.014629
3377.29,0.014531
3379.49,0.01464
3381.69,0.015174
3383.9,0.01521
3386.11,0.014585
3388.32,0.01457
3390.54,0.014804
3392.76,0.015305
3394.98,0.015379
3397.21,0.01511
3399.43,0.01507
3401.66,0.014858
3403.9,0.014358
3406.13,0.014556
3408.37,0.015401
3410.61,0.015807
3412.86,0.015446
3415.11,0.015009
3417.36,0.014992
3419.61,0.015304
3421.87,0.015463
3424.13,0.015641
3426.39,0.015404
3428.66,0.015014
3430.93,0.014886
3433.2,0.01511
3435.48,0.015199
3437.76,0.015341
3440.04,0.015255
3442.32,0.015275
3444.61,0.0154
3446.9,0.015327
3449.19,0.015092
3451.49,0.015312
3453.79,0.015799
3456.09,0.015947
3458.4,0.015589
3460.7,0.015959
3463.02,0.01634
3465.33,0.016029
3467.65,0.016153
3469.97,0.01633
3472.29,0.016651
3474.62,0.016791
3476.95,0.016454
3479.29,0.016248
3481.62,0.016109
3483.96,0.01649
3486.3,0.017232
3488.65,0.016667
3491.0,0.015964
3493.35,0.016108
3495.71,0.016375
3498.07,0.016896
3500.43,0.017476
3502.79,0.017655
3505.16,0.017357
3507.53,0.017215
3509.91,0.017272
3512.29,0.016952
3514.67,0.016755
3517.05,0.016536
3519.44,0.017074
3521.83,0.017947
3524.23,0.017682
3526.62,0.016832
3529.02,0.016643
3531.43,0.017155
3533.83,0.017677
3536.24,0.017689
3538.66,0.017491
3541.08,0.017871
3543.5,0.0184
3545.92,0.018256
3548.35,0.018007
3550.78,0.01813
3553.21,0.017862
3555.65,0.017806
3558.09,0.018083
3560.53,0.01797
3562.98,0.017927
3565.43,0.018096
3567.88,0.017975
3570.34,0.018083
3572.8,0.01843
3575.27,0.018572
3577.73,0.018672
3580.2,0.01878
3582.68,0.018808
3585.16,0.018468
3587.64,0.018275
3590.12,0.018664
3592.61,0.019097
3595.1,0.019159
3597.6,0.019425
3600.09,0.020135
3602.6,0.020183
3605.1,0.019864
3607.61,0.019942
3610.12,0.020123
3612.64,0.02044
3615.16,0.02018
3617.68,0.019954
3620.21,0.019904
3622.74,0.019611
3625.27,0.019661
3627.81,0.020158
3630.35,0.020373
3632.89,0.020019
3635.44,0.020155
3637.99,0.020482
3640.54,0.020538
3643.1,0.021171
3645.66,0.021651
3648.23,0.021181
3650.8,0.021242
3653.37,0.021594
3655.95,0.021835
3658.53,0.021914
3661.11,0.021326
3663.7,0.021123
3666.29,0.021284
3668.89,0.021588
3671.48,0.021854
3674.09,0.021816
3676.69,0.021792
3679.3,0.021869
3681.91,0.021979
3684.53,0.022359
3687.15,0.022668
3689.78,0.022822
3692.4,0.02292
3695.04,0.022384
3697.67,0.022243
3700.31,0.022405
3702.95,0.022544
3705.6,0.022491
3708.25,0.022726
3710.91,0.023193
3713.56,0.023141
3716.23,0.022996
3718.89,0.023067
3721.56,0.023603
3724.23,0.023657
3726.91,0.023307
3729.59,0.023289
3732.28,0.023893
3734.97,0.024264
3737.66,0.024329
3740.36,0.024324
3743.06,0.024362
3745.76,0.024519
3748.47,0.0249
3751.18,0.024991
3753.9,0.024627
3756.62,0.025136
3759.34,0.025412
3762.07,0.025163
3764.8,0.025123
3767.54,0.025273
3770.28,0.024919
3773.02,0.024905
3775.77,0.025366
3778.52,0.025901
3781.28,0.02608
3784.04,0.02599
3786.8,0.026128
3789.57,0.026271
3792.34,0.026263
3795.12,0.026327
3797.9,0.026597
3800.69,0.026483
3803.47,0.026107
3806.27,0.026356
3809.06,0.026737
3811.86,0.026959
3814.67,0.027063
3817.48,0.027045
3820.29,0.027268
3823.11,0.027414
3825.93,0.02713
3828.76,0.027586
3831.59,0.027684
3834.42,0.027524
3837.26,0.027725
3840.1,0.02796
3842.95,0.028344
3845.8,0.028314
3848.65,0.028287
3851.51,0.028351
3854.38,0.028288
3857.24,0.028493
3860.12,0.028767
3862.99,0.028926
3865.87,0.028779
3868.76,0.028668
3871.65,0.028831
3874.54,0.028946
3877.44,0.029121
3880.34,0.029378
3883.25,0.029766
3886.16,0.029509
3889.07,0.029151
3891.99,0.029291
3894.92,0.029796
3897.85,0.029931
3900.78,0.030101
3903.72,0.030306
3906.66,0.030534
3909.6,0.030077
3912.55,0.029641
3915.51,0.029687
3918.47,0.029845
3921.43,0.029869
3924.4,0.030024
3927.38,0.030472
3930.35,0.030507
3933.33,0.030284
3936.32,0.030695
3939.31,0.030836
3942.31,0.030508
3945.31,0.030368
3948.31,0.030434
3951.32,0.030821
3954.34,0.031116
3957.35,0.030904
3960.38,0.030784
3963.41,0.03064
3966.44,0.03036
3969.48,0.030348
3972.52,0.030391
3975.56,0.030735
3978.61,0.031063
3981.67,0.031327
3984.73,0.031425
3987.8,0.031267
3990.87,0.031171
3993.94,0.03092
3997.02,0.030795
4000.1,0.030942
4003.19,0.031107
4006.29,0.031221
4009.39,0.031255
4012.49,0.031573
4015.6,0.031974
4018.71,0.032283
4021.83,0.032122
4024.95,0.031737
4028.08,0.031788
4031.21,0.032
4034.35,0.031926
4037.49,0.032124
4040.64,0.032228
4043.79,0.032448
4046.94,0.032762
4050.11,0.032979
4053.27,0.032965
4056.44,0.032782
4059.62,0.032722
4062.8,0.032888
4065.99,0.033285
4069.18,0.0337
4072.38,0.033751
4075.58,0.033743
4078.78,0.034032
4082.0,0.034304
4085.21,0.034151
4088.43,0.034076
4091.66,0.034378
4094.89,0.034545
4098.13,0.034501
4101.37,0.034654
4104.62,0.034874
4107.87,0.035054
4111.13,0.034743
4114.39,0.034838
4117.66,0.035285
4120.93,0.035609
4124.21,0.03578
4127.5,0.03568
4130.79,0.035658
4134.08,0.03623
4137.38,0.036769
4140.68,0.036646
4143.99,0.03675
4147.31,0.03705
4150.63,0.0371
4153.95,0.036942
4157.29,0.037001
4160.62,0.03733
4163.96,0.037704
4167.31,0.038034
4170.66,0.038164
4174.02,0.038258
4177.39,0.038609
4180.75,0.039049
4184.13,0.039456
4187.51,0.039942
4190.89,0.040168
4194.28,0.040345
4197.68,0.040767
4201.08,0.041116
4204.49,0.040948
4207.9,0.041126
4211.32,0.041967
4214.74,0.042574
4218.17,0.042912
4221.61,0.04267
4225.05,0.042891
4228.5,0.043217
4231.95,0.043874
4235.4,0.044407
4238.87,0.044285
4242.34,0.044592
4245.81,0.045063
4249.29,0.045332
4252.78,0.045287
4256.27,0.045399
4259.77,0.045783
4263.27,0.046141
4266.78,0.04681
4270.29,0.047285
4273.81,0.047328
4277.34,0.047323
4280.87,0.047577
4284.41,0.047809
4287.95,0.048205
4291.5,0.048651
4295.06,0.049287
4298.62,0.049232
4302.19,0.048882
4305.76,0.049483
4309.34,0.050238
4312.92,0.050403
4316.52,0.050341
4320.11,0.050666
4323.72,0.051363
4327.32,0.051687
4330.94,0.051413
4334.56,0.051758
4338.19,0.052162
4341.82,0.052556
4345.46,0.052995
4349.11,0.052983
4352.76,0.053196
4356.42,0.053651
4360.08,0.054268
4363.75,0.054705
4367.43,0.055039
4371.11,0.055375
4374.8,0.055767
4378.49,0.056304
4382.19,0.056709
4385.9,0.05686
4389.61,0.057122
4393.33,0.057533
4397.06,0.057954
4400.79,0.058427
4404.53,0.058888
4408.28,0.059317
4412.03,0.059652
4415.79,0.05991
4419.55,0.060407
4423.32,0.060776
4427.1,0.06101
4430.88,0.061299
4434.68,0.061916
4438.47,0.062388
4442.28,0.062857
4446.08,0.063174
4449.9,0.063626
4453.72,0.064113
4457.55,0.064478
4461.39,0.064979
4465.23,0.065268
4469.08,0.065633
4472.94,0.066063
4476.8,0.066163
4480.67,0.066079
4484.55,0.066524
4488.43,0.066842
4492.32,0.067037
4496.21,0.067573
4500.12,0.067972
4504.03,0.068105
4507.94,0.068433
4511.87,0.068373
4515.8,0.068303
4519.73,0.068777
4523.68,0.069322
4527.63,0.069864
4531.59,0.070143
4535.55,0.070923
4539.52,0.071734
4543.5,0.071826
4547.49,0.072075
4551.48,0.072547
4555.48,0.072961
4559.49,0.073392
4563.5,0.07397
4567.52,0.074689
4571.55,0.075231
4575.58,0.075468
4579.63,0.076169
4583.67,0.076674
4587.73,0.076884
4591.79,0.077398
4595.86,0.078097
4599.94,0.078553
4604.03,0.07913
4608.12,0.079696
4612.22,0.080333
4616.33,0.080866
4620.44,0.081219
4624.56,0.081711
4628.69,0.082183
4632.83,0.082967
4636.97,0.08345
4641.12,0.083759
4645.28,0.083991
4649.45,0.0842
4653.62,0.084523
4657.8,0.085181
4661.99,0.085548
4666.19,0.085681
4670.39,0.0858
4674.6,0.086145
4678.82,0.086587
4683.05,0.086985
4687.28,0.087252
4691.52,0.087367
4695.77,0.0879
4700.03,0.088173
4704.3,0.088274
4708.57,0.088635
4712.85,0.089131
4717.14,0.089451
4721.43,0.089722
4725.74,0.090191
4730.05,0.090831
4734.37,0.091161
4738.7,0.091359
4743.03,0.091919
4747.38,0.092749
4751.73,0.093387
4756.09,0.093807
4760.45,0.094549
4764.83,0.095534
4769.21,0.096562
4773.6,0.097288
4778.0,0.098037
4782.41,0.098792
4786.83,0.099362
4791.25,0.099963
4795.68,0.100912
4800.13,0.101945
4804.57,0.103291
4809.03,0.104505
4813.5,0.105351
4817.97,0.106114
4822.45,0.10702
4826.94,0.108069
4831.44,0.109192
4835.95,0.110039
4840.46,0.110699
4844.99,0.110859
4849.52,0.11099
4854.06,0.111293
4858.61,0.111435
4863.17,0.111233
4867.73,0.111161
4872.31,0.110957
4876.89,0.110707
4881.48,0.110307
4886.08,0.109929
4890.69,0.109796
4895.31,0.109732
4899.94,0.109305
4904.57,0.109143
4909.22,0.109222
4913.87,0.109282
4918.53,0.109887
4923.21,0.11091
4927.88,0.112103
4932.57,0.113159
4937.27,0.114404
4941.98,0.116056
4946.69,0.117881
4951.42,0.120017
4956.15,0.12184
4960.9,0.123176
4965.65,0.124572
4970.41,0.126124
4975.18,0.127206
4979.96,0.128111
4984.75,0.129148
4989.54,0.129989
4994.35,0.130388
4999.17,0.131294
5003.99,0.132088
5008.83,0.132806
5013.67,0.133354
5018.52,0.133865
5023.39,0.134551
5028.26,0.134983
5033.14,0.135267
5038.03,0.135781
5042.93,0.136513
5047.84,0.137105
5052.76,0.137191
5057.69,0.137476
5062.63,0.137823
5067.58,0.138042
5072.54,0.138156
5077.51,0.138484
5082.49,0.13866
5087.47,0.139022
5092.47,0.139203
5097.48,0.139449
5102.5,0.139831
5107.52,0.139673
5112.56,0.139549
5117.61,0.139633
5122.66,0.139789
5127.73,0.14058
5132.81,0.140746
5137.89,0.140449
5142.99,0.140245
5148.1,0.140243
5153.22,0.14043
5158.34,0.140553
5163.48,0.140481
5168.63,0.140513
5173.79,0.140545
5178.96,0.140381
5184.13,0.139954
5189.32,0.139892
5194.52,0.140096
5199.73,0.140153
5204.96,0.140146
5210.19,0.140181
5215.43,0.139916
5220.68,0.139994
5225.94,0.13987
5231.22,0.139578
5236.5,0.139407
5241.79,0.139629
5247.1,0.139558
5252.42,0.139507
5257.74,0.139587
5263.08,0.139552
5268.43,0.139166
5273.79,0.138932
5279.16,0.138914
5284.54,0.139165
5289.93,0.139065
5295.34,0.138868
5300.75,0.138626
5306.18,0.138382
5311.61,0.137978
5317.06,0.137727
5322.52,0.137515
5327.99,0.137446
5333.47,0.137294
5338.96,0.137137
5344.47,0.136782
5349.98,0.13657
5355.51,0.136374
5361.05,0.136192
5366.6,0.135881
5372.16,0.135582
5377.73,0.135195
5383.32,0.134584
5388.91,0.133966
5394.52,0.133899
5400.14,0.133931
5405.77,0.13365
5411.41,0.133163
5417.07,0.132814
5422.74,0.132207
5428.41,0.131648
5434.1,0.13106
5439.81,0.131073
5445.52,0.13066
5451.25,0.129924
5456.98,0.129425
5462.73,0.128689
5468.5,0.12778
5474.27,0.127254
5480.06,0.126608
5485.86,0.125961
5491.67,0.125158
5497.49,0.124531
5503.33,0.123906
5509.18,0.123321
5515.04,0.122499
5520.91,0.121611
5526.8,0.120667
5532.69,0.119943
5538.61,0.119515
5544.53,0.118881
5550.47,0.117931
5556.41,0.117061
5562.38,0.116482
5568.35,0.115928
5574.34,0.114836
5580.34,0.113696
5586.35,0.112744
5592.38,0.112337
5598.42,0.111693
5604.47,0.110701
5610.54,0.109943
5616.61,0.109341
5622.71,0.108377
5628.81,0.107496
5634.93,0.106828
5641.06,0.106074
5647.21,0.105113
5653.36,0.104183
5659.54,0.103368
5665.72,0.102543
5671.92,0.10132
5678.13,0.099925
5684.36,0.098885
5690.6,0.098176
5696.85,0.09688
5703.12,0.095644
5709.4,0.09434
5715.69,0.093069
5722.0,0.091775
5728.33,0.090642
5734.66,0.089388
5741.01,0.087931
5747.38,0.086507
5753.76,0.084989
5760.15,0.082967
5766.56,0.081125
5772.98,0.07921
5779.41,0.07767
5785.86,0.076005
5792.33,0.07433
5798.81,0.072355
5805.3,0.070485
5811.81,0.068612
5818.33,0.066903
5824.87,0.064603
5831.42,0.062414
5837.99,0.060792
5844.57,0.059241
5851.17,0.057233
5857.78,0.055004
5864.41,0.052967
5871.05,0.051215
5877.7,0.049612
5884.38,0.047934
5891.06,0.046165
5897.76,0.044938
5904.48,0.043419
5911.21,0.041775
5917.96,0.040626
5924.73,0.039543
5931.5,0.03839
5938.3,0.03747
5945.11,0.036607
5951.93,0.036149
5958.78,0.035828
5965.63,0.035494
5972.51,0.034948
5979.39,0.034617
5986.3,0.034212
5993.22,0.033997
6000.16,0.034514
6007.11,0.034758
6014.08,0.034449
6021.06,0.034215
6028.06,0.034493
6035.08,0.034569
6042.12,0.034721
6049.17,0.035217
6056.23,0.035391
6063.32,0.035615
6070.42,0.03615
6077.53,0.036746
6084.67,0.037093
6091.82,0.037198
6098.98,0.037331
6106.17,0.037731
6113.37,0.038239
6120.58,0.038523
6127.82,0.038762
6135.07,0.039292
6142.34,0.03971
6149.63,0.040078
6156.93,0.040444
6164.25,0.040672
6171.59,0.041279
6178.95,0.04174
6186.32,0.042184
6193.71,0.042758
6201.12,0.043335
6208.54,0.043942
6215.99,0.044648
6223.45,0.045326
6230.93,0.046091
6238.43,0.046562
6245.95,0.047328
6253.48,0.04832
6261.03,0.04914
6268.6,0.049888
6276.19,0.050556
6283.8,0.051396
6291.43,0.052131
6299.07,0.052695
6306.73,0.05324
6314.42,0.05385
6322.12,0.054622
6329.84,0.055099
6337.57,0.055636
6345.33,0.056176
6353.11,0.056998
6360.9,0.057515
6368.72,0.057942
6376.55,0.058532
6384.4,0.059109
6392.27,0.059339
6400.17,0.059615
6408.08,0.059772
6416.01,0.060283
6423.96,0.060768
6431.93,0.060659
6439.92,0.061087
6447.93,0.061744
6455.96,0.061833
6464.01,0.061784
6472.08,0.061772
6480.17,0.062001
6488.28,0.062468
6496.41,0.063042
6504.56,0.063098
6512.73,0.063085
6520.92,0.063076
6529.14,0.063227
6537.37,0.063209
6545.63,0.06286
6553.9,0.062643
6562.2,0.062871
6570.51,0.063025
6578.85,0.062816
6587.21,0.062839
6595.59,0.062546
6603.99,0.062496
6612.42,0.062634
6620.86,0.062182
6629.33,0.061912
6637.82,0.061818
6646.33,0.061579
6654.86,0.061903
6663.41,0.062106
6671.99,0.061794
6680.59,0.061748
6689.21,0.062149
6697.85,0.062622
6706.51,0.062741
6715.2,0.062498
6723.91,0.062388
6732.64,0.062548
6741.4,0.062542
6750.18,0.062785
6758.98,0.062799
6767.8,0.062545
6776.65,0.062335
6785.52,0.062356
6794.41,0.062765
6803.33,0.063223
6812.27,0.063028
6821.23,0.062751
6830.22,0.062667
6839.23,0.062625
6848.26,0.062549
6857.32,0.062541
6866.4,0.062688
6875.51,0.062409
6884.64,0.062371
6893.8,0.062461
6902.98,0.062312
6912.18,0.062363
6921.41,0.062027
6930.66,0.06152
6939.94,0.061453
6949.24,0.061432
6958.57,0.061532
6967.92,0.061269
6977.3,0.0607
6986.7,0.060602
6996.13,0.060715
7005.59,0.060779
7015.07,0.060695
7024.57,0.060511
7034.1,0.060273
7043.66,0.059951
7053.25,0.059677
7062.85,0.059743
7072.49,0.05951
7082.15,0.059124
7091.84,0.058966
7101.55,0.058625
7111.3,0.058316
7121.06,0.058134
7130.86,0.058247
7140.68,0.058035
7150.53,0.057454
7160.41,0.056997
7170.31,0.056918
7180.24,0.05689
7190.2,0.056609
7200.19,0.056143
7210.2,0.056169
7220.24,0.05606
7230.31,0.055799
7240.41,0.055306
7250.54,0.054535
7260.69,0.054131
7270.88,0.053836
7281.09,0.053427
7291.33,0.053049
7301.6,0.052593
7311.9,0.052136
7322.22,0.051672
7332.58,0.051114
7342.97,0.050566
7353.38,0.05021
7363.83,0.049846
7374.3,0.049404
7384.81,0.048705
7395.34,0.048112
7405.91,0.047482
7416.5,0.046843
7427.13,0.046213
7437.78,0.045229
7448.47,0.044685
7459.19,0.04401
7469.94,0.043113
7480.71,0.042702
7491.52,0.041757
7502.37,0.040829
7513.24,0.040093
7524.14,0.039142
7535.08,0.038193
7546.05,0.037569
7557.05,0.036657
7568.08,0.035595
7579.15,0.034749
7590.24,0.03388
7601.37,0.033108
7612.53,0.032149
7623.73,0.031083
7634.96,0.030235
7646.22,0.029455
7657.51,0.028528
7668.84,0.027137
7680.2,0.025947
7691.59,0.025319
7703.02,0.024592
7714.49,0.02363
7725.98,0.022737
7737.52,0.021806
7749.08,0.020803
7760.68,0.019627
7772.32,0.019076
7783.99,0.018195
7795.69,0.016983
7807.43,0.016146
7819.21,0.015718
7831.02,0.014922
7842.87,0.013959
7854.75,0.013233
7866.67,0.012412
7878.62,0.01141
7890.62,0.010812
7902.64,0.010505
7914.71,0.010221
7926.81,0.00969
7938.95,0.00888
7951.13,0.008376
7963.34,0.008435
7975.59,0.008293
7987.88,0.007874
8000.21,0.007666
8012.57,0.007711
8024.98,0.007684
8037.42,0.007702
8049.9,0.008056
8062.42,0.008749
8074.98,0.009243
8087.57,0.009621
8100.21,0.010302
8112.89,0.011214
8125.6,0.012418
8138.36,0.013762
8151.16,0.015327
8163.99,0.017268
8176.87,0.019691
8189.79,0.022178
8202.75,0.023939
8215.75,0.025922
8228.79,0.028038
8241.87,0.029964
8254.99,0.031641
8268.16,0.033057
8281.37,0.033769
8294.62,0.034511
8307.91,0.035021
8321.24,0.035182
8334.62,0.035125
8348.04,0.035193
8361.51,0.034783
8375.02,0.0343
8388.57,0.033846
8402.16,0.033306
8415.8,0.032558
8429.49,0.03152
8443.22,0.030818
8456.99,0.030149
8470.81,0.029244
8484.67,0.028888
8498.58,0.028703
8512.54,0.028164
8526.54,0.027647
8540.58,0.027146
8554.68,0.026452
8568.82,0.025128
8583.0,0.023752
8597.24,0.022839
8611.52,0.022101
8625.85,0.021045
8640.23,0.019651
8654.65,0.01871
8669.12,0.018324
8683.64,0.017379
8698.21,0.016587
8712.83,0.016136
8727.5,0.015755
8742.22,0.016288
8756.99,0.017026
8771.8,0.017986
8786.67,0.019648
8801.59,0.022365
8816.56,0.025569
8831.58,0.028307
8846.65,0.030779
8861.77,0.032916
8876.94,0.034659
8892.17,0.035864
8907.45,0.036611
8922.78,0.03733
8938.16,0.038534
8953.6,0.039654
8969.09,0.040514
8984.64,0.041373
9000.23,0.042141
9015.89,0.042999
9031.59,0.043714
9047.36,0.044132
9063.17,0.044413
9079.05,0.044756
9094.97,0.044328
9110.96,0.043673
9127.0,0.043274
9143.1,0.042978
9159.25,0.042741
9175.46,0.042503
9191.73,0.042366
9208.06,0.042198
9224.44,0.041859
9240.88,0.041424
9257.38,0.040578
9273.94,0.040251
9290.56,0.040526
9307.24,0.040119
9323.98,0.039201
9340.78,0.038432
9357.64,0.037647
9374.57,0.037018
9391.55,0.036552
9408.59,0.036382
9425.7,0.035858
9442.87,0.034703
9460.1,0.033562
9477.4,0.032531
9494.75,0.031407
9512.17,0.030678
9529.66,0.030261
9547.21,0.029765
9564.83,0.029457
9582.5,0.029222
9600.25,0.029
9618.06,0.028635
9635.94,0.027331
9653.88,0.02568
9671.89,0.024169
9689.97,0.023785
9708.12,0.023085
9726.33,0.021624
9744.62,0.020201
9762.97,0.019292
9781.39,0.01941
9799.88,0.020084
9818.44,0.020293
9837.07,0.020905
9855.77,0.022444
9874.54,0.024221
9893.39,0.025136
9912.3,0.025962
9931.29,0.026705
9950.36,0.027386
9969.49,0.02799
9988.7,0.028611
10007.98,0.028978
10027.34,0.029398
10046.77,0.029755
10066.28,0.030161
10085.87,0.030232
10105.53,0.030153
10125.26,0.030936
10145.08,0.031594
10164.97,0.032147
10184.94,0.032524
10204.99,0.032725
10225.12,0.032478
10245.33,0.032717
10265.61,0.033065
10285.98,0.032742
10306.43,0.032705
10326.96,0.032946
10347.57,0.032908
10368.27,0.032395
10389.05,0.031465
10409.91,0.031238
10430.86,0.030895
10451.88,0.030255
10473.0,0.029857
10494.2,0.029304
10515.49,0.028775
10536.86,0.028015
10558.32,0.027469
10579.87,0.027671
10601.5,0.02763
10623.23,0.02725
10645.04,0.026411
10666.94,0.025775
10688.94,0.025973
10711.02,0.025882
10733.2,0.025013
10755.47,0.024717
10777.83,0.024705
10800.28,0.024649
10822.83,0.024783
10845.47,0.024357
10868.21,0.023582
10891.04,0.02294
10913.97,0.022301
10936.99,0.021733
10960.12,0.02115
10983.34,0.020551
11006.66,0.020234
11030.07,0.020167
11053.59,0.01988
11077.21,0.019639
11100.93,0.019612
11124.75,0.019
11148.68,0.018322
11172.71,0.018699
11196.84,0.019492
11221.07,0.019414
11245.41,0.019377
11269.86,0.019621
11294.41,0.019351
11319.07,0.019083
11343.84,0.019459
11368.72,0.019563
11393.7,0.019377
11418.8,0.019617
11444.01,0.019921
11469.33,0.019603
11494.76,0.018644
11520.3,0.018443
11545.96,0.018829
11571.73,0.018879
11597.62,0.018337
11623.62,0.01825
11649.74,0.017889
11675.98,0.017829
11702.34,0.018303
11728.81,0.017981
11755.41,0.017921
11782.13,0.018239
11808.96,0.018113
11835.92,0.018441
11863.01,0.018995
11890.22,0.018951
11917.55,0.018843
11945.01,0.018247
11972.6,0.017732
12000.31,0.018108
12028.16,0.018394
12056.13,0.01848
12084.23,0.018978
12112.46,0.019111
12140.83,0.019223
12169.33,0.018961
12197.96,0.018829
12226.73,0.01899
12255.64,0.019257
12284.68,0.019526
12313.86,0.019511
12343.18,0.019588
12372.64,0.020201
12402.24,0.020613
12431.98,0.020702
12461.86,0.020329
12491.89,0.01982
12522.07,0.020348
12552.38,0.020819
12582.85,0.020706
12613.47,0.020542
12644.23,0.020801
12675.15,0.020886
12706.21,0.02083
12737.43,0.020929
12768.81,0.021609
12800.33,0.021838
12832.02,0.021875
12863.86,0.022304
12895.86,0.022278
12928.02,0.022133
12960.34,0.021903
12992.82,0.022015
13025.46,0.022742
13058.27,0.02297
13091.25,0.022099
13124.39,0.022122
13157.7,0.022994
13191.18,0.022987
13224.83,0.022346
13258.66,0.022495
13292.65,0.02319
13326.83,0.023099
13361.17,0.022796
13395.7,0.022688
13430.4,0.022588
13465.29,0.022333
13500.35,0.021573
13535.6,0.021331
13571.03,0.021887
13606.65,0.021387
13642.46,0.021132
13678.46,0.021019
13714.64,0.020142
13751.02,0.020486
13787.59,0.020694
13824.36,0.020237
13861.32,0.020093
13898.49,0.01981
13935.85,0.019198
13973.41,0.01862
14011.17,0.018606
14049.15,0.018377
14087.32,0.018049
14125.71,0.017866
14164.3,0.018519
14203.11,0.018363
14242.13,0.018005
14281.36,0.017525
14320.81,0.017141
14360.49,0.017604
14400.38,0.017588
14440.49,0.017385
14480.82,0.017124
14521.39,0.016826
14562.18,0.016587
14603.2,0.016023
14644.45,0.016181
14685.93,0.016553
14727.66,0.01698
14769.62,0.017239
14811.81,0.017047
14854.25,0.017025
14896.94,0.016736
14939.87,0.016917
14983.05,0.017682
15026.48,0.017936
15070.16,0.018902
15114.1,0.019462
15158.29,0.01927
15202.74,0.019391
15247.46,0.019502
15292.43,0.020725
15337.68,0.021453
15383.19,0.02144
15428.97,0.021138
15475.03,0.021721
15521.36,0.022079
15567.97,0.021373
15614.87,0.020728
15662.04,0.020497
15709.5,0.021214
15757.25,0.021972
15805.29,0.022234
15853.62,0.021757
15902.26,0.021021
15951.19,0.021103
16000.42,0.021443
16049.95,0.021726
16099.8,0.021343
16149.95,0.020831
16200.42,0.019507
16251.21,0.018455
16302.31,0.018064
16353.74,0.018831
16405.49,0.019828
16457.57,0.0208
16509.98,0.021532
16562.73,0.02142
16615.82,0.020518
16669.24,0.020425
16723.02,0.020863
16777.14,0.021118
16831.61,0.022097
16886.43,0.022925
16941.62,0.023932
16997.16,0.02395
17053.08,0.023174
17109.36,0.023633
17166.01,0.024152
17223.04,0.025099
17280.45,0.026157
17338.24,0.026202
17396.43,0.025494
17455.0,0.025913
17513.97,0.026632
17573.34,0.027098
17633.11,0.027738
17693.29,0.028169
17753.89,0.028115
17814.9,0.028425
17876.33,0.028356
17938.18,0.028231
18000.47,0.028191
18063.19,0.02921
18126.35,0.029285
18189.95,0.028176
18254.0,0.028717
18318.5,0.028797
18383.46,0.028499
18448.88,0.029104
18514.77,0.029337
18581.13,0.029126
18647.97,0.029445
18715.29,0.03034
18783.1,0.029605
18851.4,0.029427
18920.2,0.029597
18989.51,0.029353
19059.32,0.029672
19129.65,0.029715
19200.5,0.029309
19271.88,0.027841
19343.79,0.025949
19416.24,0.026649
19489.23,0.026733
19562.77,0.025546
19636.88,0.024894
19711.54,0.024968
19786.78,0.024417
19862.59,0.023297
19938.98,0.022968
20015.96,0.023269
20093.55,0.023509
20171.73,0.024661
20250.53,0.025127
20329.94,0.02453
20409.98,0.024465
20490.65,0.026029
20571.96,0.026115
20653.92,0.026965
20736.54,0.028946
20819.82,0.029888
20903.77,0.029717
20988.4,0.029372
21073.72,0.030898
21159.73,0.031181
21246.46,0.032555
21333.89,0.033268
21422.04,0.033572
21510.93,0.034976
21600.56,0.034616
21690.94,0.034247
21782.08,0.036531
21873.99,0.03783
21966.67,0.035031
22060.15,0.033081
22154.42,0.032889
22249.51,0.031481
22345.41,0.031972
22442.14,0.032743
22539.72,0.032535
22638.14,0.032249
22737.43,0.035297
22837.6,0.03882
22938.65,0.038582
23040.6,0.039402
23143.46,0.040596
23247.24,0.039994
23351.96,0.040983
23457.63,0.042281
23564.25,0.043113
23671.85,0.041343
23780.44,0.040268
23890.02,0.040674
24000.63,0.044192
24112.26,0.045028
24224.93,0.042766
24338.66,0.043696
24453.47,0.044406
24569.36,0.044077
24686.36,0.046059
24804.47,0.04552
24923.73,0.045159
25044.13,0.048156
25165.71,0.049947
25288.46,0.048142
25412.43,0.051055
25537.61,0.04987
25664.04,0.049971
25791.72,0.050391
25920.68,0.039387
