Database of Origin,University of Winnipeg Spectrophotometer Facility
Sample Description,8. Sulfates: RELAB + Nicolet spectra / Spectra all made consistently merged: Jan. / 10 / 2005
Date Added,2016-07-15 22:05:55.858775

Data ID,RPN_SUL_62          
Sample ID,SPT148
Mineral Name,Anglesite
Grain Size,<45
Viewing Geometry,30 / 0 | 30
Resolution,5 / 1.3-129
Material Class,Sulfate

Wavelength
305.0,0.56184
310.0,0.55768
315.0,0.56201
320.0,0.56344
325.0,0.56453
330.0,0.56735
335.0,0.56718
340.0,0.56802
345.0,0.56761
350.0,0.56733
355.0,0.56873
360.0,0.56899
365.0,0.57007
370.0,0.57205
375.0,0.57508
380.0,0.57985
385.0,0.58417
390.0,0.59077
395.0,0.59628
400.0,0.60274
405.0,0.60832
410.0,0.6127
415.0,0.61721
420.0,0.62268
425.0,0.62938
430.0,0.63657
435.0,0.64489
440.0,0.65241
445.0,0.6592
450.0,0.66345
455.0,0.6661
460.0,0.66776
465.0,0.66991
470.0,0.67086
475.0,0.67353
480.0,0.67491
485.0,0.67905
490.0,0.68214
495.0,0.687
500.0,0.69152
505.0,0.69722
510.0,0.70305
515.0,0.70947
520.0,0.71642
525.0,0.72433
530.0,0.73229
535.0,0.74101
540.0,0.74948
545.0,0.75836
550.0,0.76581
555.0,0.77335
560.0,0.77936
565.0,0.78513
570.0,0.78819
575.0,0.79132
580.0,0.79327
585.0,0.79451
590.0,0.79514
595.0,0.79557
600.0,0.79534
605.0,0.79548
610.0,0.79493
615.0,0.79507
620.0,0.79455
625.0,0.79498
630.0,0.79429
635.0,0.79474
640.0,0.79524
645.0,0.79579
650.0,0.79643
655.0,0.79681
660.0,0.79715
665.0,0.79862
670.0,0.79927
675.0,0.80028
680.0,0.80171
685.0,0.80353
690.0,0.80469
695.0,0.80627
700.0,0.80868
705.0,0.80919
710.0,0.81088
715.0,0.81353
720.0,0.81537
725.0,0.81591
730.0,0.81735
735.0,0.81869
740.0,0.81988
745.0,0.82129
750.0,0.82264
755.0,0.82247
760.0,0.82342
765.0,0.82352
770.0,0.82358
775.0,0.82325
780.0,0.82319
785.0,0.82208
790.0,0.82191
795.0,0.82114
800.0,0.82068
805.0,0.81974
810.0,0.819
815.0,0.81759
820.0,0.81708
825.0,0.81588
830.0,0.81479
835.0,0.8135
840.0,0.81369
845.0,0.81198
850.0,0.81131
855.0,0.81092
860.0,0.80979
865.0,0.80935
870.0,0.80848
875.0,0.80852
880.0,0.80769
885.0,0.80727
890.0,0.80767
895.0,0.80702
900.0,0.80698
905.0,0.80674
910.0,0.8075
915.0,0.80758
920.0,0.80729
925.0,0.80795
930.0,0.80757
935.0,0.80761
940.0,0.80873
945.0,0.80892
950.0,0.80918
955.0,0.81013
960.0,0.81039
965.0,0.81044
970.0,0.81065
975.0,0.81184
980.0,0.81165
985.0,0.81351
990.0,0.81364
995.0,0.81413
1000.0,0.81422
1005.0,0.81403
1010.0,0.81565
1015.0,0.8166
1020.0,0.81713
1025.0,0.81746
1030.0,0.81869
1035.0,0.81943
1040.0,0.82033
1045.0,0.82101
1050.0,0.82266
1055.0,0.82288
1060.0,0.82352
1065.0,0.82503
1070.0,0.82682
1075.0,0.82735
1080.0,0.82825
1085.0,0.82908
1090.0,0.83032
1095.0,0.83115
1100.0,0.83309
1105.0,0.83376
1110.0,0.83409
1115.0,0.83555
1120.0,0.8367
1125.0,0.83865
1130.0,0.83879
1135.0,0.83946
1140.0,0.84038
1145.0,0.84161
1150.0,0.84213
1155.0,0.84375
1160.0,0.84474
1165.0,0.84486
1170.0,0.84629
1175.0,0.84659
1180.0,0.84708
1185.0,0.84755
1190.0,0.84851
1195.0,0.84835
1200.0,0.84892
1205.0,0.84881
1210.0,0.84975
1215.0,0.84992
1220.0,0.85009
1225.0,0.85047
1230.0,0.85103
1235.0,0.85064
1240.0,0.85074
1245.0,0.85118
1250.0,0.85127
1255.0,0.85239
1260.0,0.85179
1265.0,0.85203
1270.0,0.85214
1275.0,0.85158
1280.0,0.85163
1285.0,0.85204
1290.0,0.85188
1295.0,0.85267
1300.0,0.85195
1305.0,0.85217
1310.0,0.8527
1315.0,0.85178
1320.0,0.85217
1325.0,0.85234
1330.0,0.85227
1335.0,0.85254
1340.0,0.85225
1345.0,0.85162
1350.0,0.85116
1355.0,0.85049
1360.0,0.85066
1365.0,0.85102
1370.0,0.8506
1375.0,0.85097
1380.0,0.85065
1385.0,0.85266
1390.0,0.85222
1395.0,0.85126
1400.0,0.85091
1405.0,0.85167
1410.0,0.85139
1415.0,0.85209
1420.0,0.85219
1425.0,0.85167
1430.0,0.85179
1435.0,0.8522
1440.0,0.85183
1445.0,0.85156
1450.0,0.85181
1455.0,0.85209
1460.0,0.85218
1465.0,0.85187
1470.0,0.85234
1475.0,0.85242
1480.0,0.85244
1485.0,0.8524
1490.0,0.85223
1495.0,0.85239
1500.0,0.8526
1505.0,0.85256
1510.0,0.85275
1515.0,0.85287
1520.0,0.85301
1525.0,0.85298
1530.0,0.8531
1535.0,0.85304
1540.0,0.85304
1545.0,0.85303
1550.0,0.85314
1555.0,0.85332
1560.0,0.85328
1565.0,0.85335
1570.0,0.85329
1575.0,0.85317
1580.0,0.85295
1585.0,0.85309
1590.0,0.85294
1595.0,0.85307
1600.0,0.85319
1605.0,0.85343
1610.0,0.85347
1615.0,0.85396
1620.0,0.85417
1625.0,0.85365
1630.0,0.85338
1635.0,0.85264
1640.0,0.85307
1645.0,0.85337
1650.0,0.85285
1655.0,0.85324
1660.0,0.85376
1665.0,0.85467
1670.0,0.85468
1675.0,0.85505
1680.0,0.85458
1685.0,0.85474
1690.0,0.85457
1695.0,0.85458
1700.0,0.85483
1705.0,0.85535
1710.0,0.85496
1715.0,0.8558
1720.0,0.8553
1725.0,0.85618
1730.0,0.85537
1735.0,0.85482
1740.0,0.85464
1745.0,0.85522
1750.0,0.85459
1755.0,0.85526
1760.0,0.85568
1765.0,0.85434
1770.0,0.85582
1775.0,0.85531
1780.0,0.85514
1785.0,0.85588
1790.0,0.85608
1795.0,0.85486
1800.0,0.85551
1805.0,0.85485
1810.0,0.85482
1815.0,0.85518
1820.0,0.85553
1825.0,0.85527
1830.0,0.85536
1835.0,0.85517
1840.0,0.85483
1845.0,0.85677
1850.0,0.85545
1855.0,0.85583
1860.0,0.85482
1865.0,0.85524
1870.0,0.85539
1875.0,0.85512
1880.0,0.85463
1885.0,0.85451
1890.0,0.85369
1895.0,0.85324
1900.0,0.85235
1905.0,0.85323
1910.0,0.85379
1915.0,0.85265
1920.0,0.85301
1925.0,0.85398
1930.0,0.85141
1935.0,0.85156
1940.0,0.85102
1945.0,0.85148
1950.0,0.85043
1955.0,0.84947
1960.0,0.84884
1965.0,0.8516
1970.0,0.85003
1975.0,0.85052
1980.0,0.85105
1985.0,0.8512
1990.0,0.85146
1995.0,0.8507
2000.0,0.84982
2005.0,0.85062
2010.0,0.85138
2015.0,0.85128
2020.0,0.85229
2025.0,0.8533
2030.0,0.85164
2035.0,0.8513
2040.0,0.85233
2045.0,0.85171
2050.0,0.85196
2055.0,0.85302
2060.0,0.85173
2065.0,0.8525
2070.0,0.85224
2075.0,0.85293
2080.0,0.85184
2085.0,0.8521
2090.0,0.85244
2095.0,0.85271
2100.0,0.85236
2105.0,0.85381
2110.0,0.85404
2115.0,0.85324
2120.0,0.85342
2125.0,0.85436
2130.0,0.85343
2135.0,0.85383
2140.0,0.8525
2145.0,0.85434
2150.0,0.85394
2155.0,0.85421
2160.0,0.85462
2165.0,0.85351
2170.0,0.85408
2175.0,0.85398
2180.0,0.85365
2185.0,0.85287
2190.0,0.85433
2195.0,0.85482
2200.0,0.85395
2205.0,0.85435
2210.0,0.8547
2215.0,0.85497
2220.0,0.85393
2225.0,0.85399
2230.0,0.85279
2235.0,0.85277
2240.0,0.85378
2245.0,0.85358
2250.0,0.85302
2255.0,0.85307
2260.0,0.85334
2265.0,0.85298
2270.0,0.85184
2275.0,0.85308
2280.0,0.85228
2285.0,0.85369
2290.0,0.85274
2295.0,0.85284
2300.0,0.85222
2305.0,0.85189
2310.0,0.8518
2315.0,0.85226
2320.0,0.85151
2325.0,0.85108
2330.0,0.85199
2335.0,0.85186
2340.0,0.8518
2345.0,0.85204
2350.0,0.85089
2355.0,0.84982
2360.0,0.84974
2365.0,0.84934
2370.0,0.84939
2375.0,0.84918
2380.0,0.84788
2385.0,0.84932
2390.0,0.84761
2395.0,0.84909
2400.0,0.84861
2405.0,0.84773
2410.0,0.84731
2415.0,0.84754
2420.0,0.84744
2425.0,0.84678
2430.0,0.84737
2435.0,0.84672
2440.0,0.84647
2445.0,0.84657
2450.0,0.84691
2455.0,0.84603
2460.0,0.84566
2465.0,0.84512
2470.0,0.84437
2475.0,0.84479
2480.0,0.84888
2485.0,0.84501
2490.0,0.84417
2495.0,0.84495
2500.0,0.84132
2505.0,0.84073
2510.0,0.84169
2515.0,0.84039
2520.0,0.84043
2525.0,0.84097
2530.0,0.841
2535.0,0.8417
2540.0,0.84344
2545.0,0.84233
2550.0,0.84339
2555.0,0.84373
2560.0,0.84344
2565.13,0.84354
2570.22,0.8437
2575.33,0.84389
2580.46,0.84396
2581.74,0.84386
2583.03,0.84393
2584.31,0.84366
2585.6,0.84377
2586.89,0.84391
2588.19,0.84379
2589.48,0.84387
2590.77,0.84397
2592.07,0.84408
2593.36,0.84387
2594.66,0.84318
2595.96,0.84298
2597.26,0.84357
2598.56,0.84394
2599.87,0.84407
2601.17,0.84399
2602.48,0.84389
2603.78,0.84381
2605.09,0.84359
2606.4,0.84338
2607.71,0.84361
2609.03,0.84376
2610.34,0.84368
2611.66,0.84377
2612.97,0.84381
2614.29,0.84376
2615.61,0.84378
2616.93,0.84342
2618.25,0.84346
2619.57,0.84365
2620.9,0.84333
2622.22,0.84347
2623.55,0.84372
2624.88,0.84366
2626.21,0.84341
2627.54,0.84323
2628.87,0.84359
2630.21,0.84329
2631.54,0.84303
2632.88,0.84336
2634.21,0.84329
2635.55,0.84326
2636.89,0.84337
2638.24,0.84332
2639.58,0.84329
2640.92,0.84322
2642.27,0.84313
2643.62,0.84319
2644.97,0.84312
2646.32,0.8429
2647.67,0.84294
2649.02,0.84291
2650.38,0.84285
2651.73,0.84269
2653.09,0.84243
2654.45,0.84245
2655.81,0.84242
2657.17,0.84244
2658.53,0.84241
2659.89,0.84221
2661.26,0.84209
2662.63,0.84189
2664.0,0.84174
2665.36,0.84147
2666.74,0.84125
2668.11,0.84126
2669.48,0.84137
2670.86,0.84075
2672.23,0.84088
2673.61,0.84126
2674.99,0.84108
2676.37,0.84064
2677.76,0.84027
2679.14,0.84027
2680.52,0.84028
2681.91,0.84039
2683.3,0.84019
2684.69,0.83986
2686.08,0.83967
2687.47,0.83956
2688.87,0.83943
2690.26,0.83921
2691.66,0.839
2693.06,0.83866
2694.46,0.83806
2695.86,0.83781
2697.26,0.83771
2698.66,0.83759
2700.07,0.83728
2701.48,0.83667
2702.89,0.83623
2704.3,0.83604
2705.71,0.83567
2707.12,0.83524
2708.53,0.8346
2709.95,0.8339
2711.37,0.83326
2712.79,0.833
2714.21,0.83288
2715.63,0.83239
2717.05,0.83175
2718.48,0.83137
2719.9,0.83094
2721.33,0.83007
2722.76,0.82963
2724.19,0.82902
2725.62,0.82816
2727.06,0.8278
2728.49,0.82736
2729.93,0.82678
2731.37,0.82621
2732.81,0.82545
2734.25,0.82448
2735.69,0.82352
2737.14,0.82287
2738.58,0.82202
2740.03,0.82082
2741.48,0.81988
2742.93,0.81923
2744.38,0.81859
2745.83,0.81784
2747.29,0.81698
2748.75,0.81597
2750.2,0.81497
2751.66,0.81387
2753.13,0.8128
2754.59,0.81161
2756.05,0.81019
2757.52,0.80943
2758.99,0.80873
2760.46,0.80764
2761.93,0.80646
2763.4,0.80528
2764.87,0.80423
2766.35,0.80319
2767.82,0.802
2769.3,0.80078
2770.78,0.79955
2772.26,0.7984
2773.75,0.79744
2775.23,0.79636
2776.72,0.7952
2778.21,0.79402
2779.7,0.7929
2781.19,0.79169
2782.68,0.79052
2784.18,0.78931
2785.67,0.78805
2787.17,0.78659
2788.67,0.78525
2790.17,0.78411
2791.67,0.78285
2793.18,0.78157
2794.68,0.78033
2796.19,0.77898
2797.7,0.77765
2799.21,0.77622
2800.72,0.77489
2802.24,0.77366
2803.75,0.7725
2805.27,0.77138
2806.79,0.77038
2808.31,0.76934
2809.83,0.76826
2811.35,0.7672
2812.88,0.76619
2814.41,0.76504
2815.93,0.76387
2817.46,0.76281
2819.0,0.76184
2820.53,0.76093
2822.07,0.76006
2823.6,0.75911
2825.14,0.75806
2826.68,0.75707
2828.22,0.7561
2829.77,0.75511
2831.31,0.75419
2832.86,0.75319
2834.41,0.75228
2835.96,0.75143
2837.51,0.75054
2839.07,0.74956
2840.62,0.74877
2842.18,0.74797
2843.74,0.74701
2845.3,0.74608
2846.86,0.7452
2848.43,0.74438
2849.99,0.74351
2851.56,0.74261
2853.13,0.74183
2854.7,0.74107
2856.27,0.74022
2857.85,0.73942
2859.42,0.73858
2861.0,0.73769
2862.58,0.73683
2864.16,0.73598
2865.75,0.73513
2867.33,0.73434
2868.92,0.73362
2870.51,0.73292
2872.1,0.73232
2873.69,0.73179
2875.28,0.73125
2876.88,0.73062
2878.48,0.73007
2880.07,0.72944
2881.68,0.72887
2883.28,0.72837
2884.88,0.72771
2886.49,0.72703
2888.1,0.72643
2889.71,0.72586
2891.32,0.7254
2892.93,0.7249
2894.55,0.7244
2896.16,0.72383
2897.78,0.72329
2899.4,0.72279
2901.03,0.72233
2902.65,0.72181
2904.28,0.72131
2905.91,0.72082
2907.54,0.72024
2909.17,0.71969
2910.8,0.71921
2912.44,0.71872
2914.07,0.71779
2915.71,0.71733
2917.35,0.71685
2918.99,0.7164
2920.64,0.71595
2922.29,0.71549
2923.93,0.71506
2925.58,0.71465
2927.24,0.71426
2928.89,0.71395
2930.55,0.71356
2932.2,0.71311
2933.86,0.7127
2935.52,0.71233
2937.19,0.71197
2938.85,0.71163
2940.52,0.71128
2942.19,0.71101
2943.86,0.71076
2945.53,0.71048
2947.21,0.71019
2948.88,0.70986
2950.56,0.70951
2952.24,0.70928
2953.92,0.70899
2955.61,0.70864
2957.29,0.70834
2958.98,0.70807
2960.67,0.70781
2962.36,0.70756
2964.06,0.70731
2965.75,0.707
2967.45,0.70669
2969.15,0.70645
2970.85,0.70617
2972.55,0.70594
2974.26,0.70565
2975.97,0.70532
2977.68,0.70504
2979.39,0.70489
2981.1,0.70477
2982.82,0.70453
2984.53,0.7042
2986.25,0.70395
2987.97,0.70371
2989.7,0.70347
2991.42,0.7033
2993.15,0.70313
2994.88,0.7029
2996.61,0.70269
2998.34,0.70247
3000.08,0.70231
3001.82,0.70211
3003.55,0.70194
3005.3,0.70179
3007.04,0.70157
3008.78,0.70134
3010.53,0.70113
3012.28,0.70094
3014.03,0.70084
3015.79,0.70071
3017.54,0.7006
3019.3,0.70046
3021.06,0.7003
3022.82,0.70018
3024.58,0.70006
3026.35,0.69997
3028.12,0.69986
3029.89,0.6997
3031.66,0.69954
3033.43,0.69935
3035.21,0.69915
3036.99,0.69898
3038.77,0.69891
3040.55,0.69881
3042.33,0.69865
3044.12,0.69843
3045.91,0.69824
3047.7,0.69813
3049.49,0.69807
3051.29,0.69795
3053.08,0.69786
3054.88,0.69773
3056.68,0.69756
3058.49,0.69741
3060.29,0.69724
3062.1,0.69709
3063.91,0.69694
3065.72,0.69676
3067.54,0.69667
3069.35,0.6965
3071.17,0.69629
3072.99,0.69612
3074.81,0.69601
3076.64,0.69589
3078.47,0.69576
3080.29,0.69556
3082.13,0.6954
3083.96,0.69519
3085.79,0.69496
3087.63,0.69478
3089.47,0.69465
3091.31,0.69449
3093.16,0.6943
3095.01,0.69411
3096.85,0.69391
3098.71,0.69371
3100.56,0.69358
3102.41,0.69346
3104.27,0.69331
3106.13,0.69314
3107.99,0.69298
3109.86,0.69275
3111.73,0.69252
3113.59,0.69237
3115.47,0.69224
3117.34,0.69214
3119.21,0.69208
3121.09,0.69195
3122.97,0.69182
3124.86,0.69169
3126.74,0.69152
3128.63,0.6914
3130.52,0.69139
3132.41,0.69129
3134.3,0.69113
3136.2,0.69103
3138.1,0.691
3140.0,0.69099
3141.9,0.69093
3143.81,0.69083
3145.71,0.69073
3147.62,0.69067
3149.54,0.69069
3151.45,0.69064
3153.37,0.69055
3155.29,0.69056
3157.21,0.69052
3159.13,0.69041
3161.06,0.6903
3162.99,0.69029
3164.92,0.69027
3166.85,0.69022
3168.79,0.69019
3170.72,0.69014
3172.67,0.69008
3174.61,0.69002
3176.55,0.68999
3178.5,0.68999
3180.45,0.69001
3182.4,0.69007
3184.36,0.69003
3186.32,0.68997
3188.27,0.69003
3190.24,0.6901
3192.2,0.69011
3194.17,0.69018
3196.14,0.69032
3198.11,0.69047
3200.08,0.69062
3202.06,0.69075
3204.04,0.69085
3206.02,0.69099
3208.0,0.69127
3209.99,0.69155
3211.98,0.69184
3213.97,0.69211
3215.96,0.69231
3217.96,0.69255
3219.96,0.69289
3221.96,0.69325
3223.96,0.69368
3225.97,0.69409
3227.98,0.69452
3229.99,0.69505
3232.0,0.69552
3234.02,0.69594
3236.04,0.69648
3238.06,0.69703
3240.08,0.69766
3242.11,0.69833
3244.14,0.69891
3246.17,0.69947
3248.2,0.70012
3250.24,0.70076
3252.28,0.70137
3254.32,0.70209
3256.37,0.70288
3258.41,0.7036
3260.46,0.70435
3262.51,0.70509
3264.57,0.70583
3266.63,0.70663
3268.69,0.70742
3270.75,0.70818
3272.81,0.70896
3274.88,0.70974
3276.95,0.71048
3279.02,0.7112
3281.1,0.71189
3283.18,0.7126
3285.26,0.71337
3287.34,0.71407
3289.43,0.71474
3291.51,0.71544
3293.61,0.7161
3295.7,0.71682
3297.8,0.71756
3299.9,0.71822
3302.0,0.7189
3304.1,0.71953
3306.21,0.72007
3308.32,0.72057
3310.43,0.72106
3312.55,0.72158
3314.66,0.72212
3316.79,0.72257
3318.91,0.72297
3321.03,0.72331
3323.16,0.72361
3325.29,0.72386
3327.43,0.72414
3329.57,0.72436
3331.71,0.72447
3333.85,0.72459
3335.99,0.72469
3338.14,0.72471
3340.29,0.72473
3342.45,0.72466
3344.6,0.7245
3346.76,0.7243
3348.92,0.72414
3351.09,0.72393
3353.26,0.72372
3355.43,0.72359
3357.6,0.72339
3359.78,0.72314
3361.96,0.72276
3364.14,0.72228
3366.32,0.72176
3368.51,0.72124
3370.7,0.72093
3372.89,0.7208
3375.09,0.72075
3377.29,0.72095
3379.49,0.72157
3381.69,0.72238
3383.9,0.72322
3386.11,0.72388
3388.32,0.72433
3390.54,0.72455
3392.76,0.72449
3394.98,0.72404
3397.21,0.72335
3399.43,0.72251
3401.66,0.72151
3403.9,0.72033
3406.13,0.71919
3408.37,0.71813
3410.61,0.71715
3412.86,0.71653
3415.11,0.71645
3417.36,0.71682
3419.61,0.71766
3421.87,0.71887
3424.13,0.72036
3426.39,0.72217
3428.66,0.72438
3430.93,0.72687
3433.2,0.72924
3435.48,0.73119
3437.76,0.7327
3440.04,0.73396
3442.32,0.73508
3444.61,0.73607
3446.9,0.73696
3449.19,0.73788
3451.49,0.73882
3453.79,0.73967
3456.09,0.74049
3458.4,0.74128
3460.7,0.74212
3463.02,0.74267
3465.33,0.74303
3467.65,0.74337
3469.97,0.74366
3472.29,0.7439
3474.62,0.74418
3476.95,0.74459
3479.29,0.74504
3481.62,0.74538
3483.96,0.74559
3486.3,0.74546
3488.65,0.74506
3491.0,0.74454
3493.35,0.74378
3495.71,0.74282
3498.07,0.74191
3500.43,0.74145
3502.79,0.74174
3505.16,0.74261
3507.53,0.74394
3509.91,0.74598
3512.29,0.74856
3514.67,0.75086
3517.05,0.7526
3519.44,0.7539
3521.83,0.75489
3524.23,0.75566
3526.62,0.7563
3529.02,0.75697
3531.43,0.7576
3533.83,0.7581
3536.24,0.75854
3538.66,0.75901
3541.08,0.75946
3543.5,0.75981
3545.92,0.76021
3548.35,0.76062
3550.78,0.76093
3553.21,0.76125
3555.65,0.76156
3558.09,0.76191
3560.53,0.76224
3562.98,0.76254
3565.43,0.76278
3567.88,0.7631
3570.34,0.76346
3572.8,0.76377
3575.27,0.76405
3577.73,0.76434
3580.2,0.76472
3582.68,0.76498
3585.16,0.76522
3587.64,0.76555
3590.12,0.76589
3592.61,0.76617
3595.1,0.76648
3597.6,0.76674
3600.09,0.76709
3602.6,0.76739
3605.1,0.76765
3607.61,0.76797
3610.12,0.7683
3612.64,0.76864
3615.16,0.76895
3617.68,0.76926
3620.21,0.76958
3622.74,0.76978
3625.27,0.77008
3627.81,0.77044
3630.35,0.77074
3632.89,0.77096
3635.44,0.77116
3637.99,0.77143
3640.54,0.77177
3643.1,0.77213
3645.66,0.77242
3648.23,0.77274
3650.8,0.77306
3653.37,0.7734
3655.95,0.7738
3658.53,0.77417
3661.11,0.77468
3663.7,0.77517
3666.29,0.77555
3668.89,0.77601
3671.48,0.7765
3674.09,0.77694
3676.69,0.77736
3679.3,0.77779
3681.91,0.77825
3684.53,0.77864
3687.15,0.77912
3689.78,0.77955
3692.4,0.77997
3695.04,0.78043
3697.67,0.78084
3700.31,0.78123
3702.95,0.78166
3705.6,0.78199
3708.25,0.78235
3710.91,0.78276
3713.56,0.78312
3716.23,0.78348
3718.89,0.7838
3721.56,0.7841
3724.23,0.78444
3726.91,0.78476
3729.59,0.78509
3732.28,0.7854
3734.97,0.78567
3737.66,0.78595
3740.36,0.78628
3743.06,0.78654
3745.76,0.7868
3748.47,0.7871
3751.18,0.78735
3753.9,0.78759
3756.62,0.78789
3759.34,0.78823
3762.07,0.78847
3764.8,0.78867
3767.54,0.78893
3770.28,0.78915
3773.02,0.78938
3775.77,0.7896
3778.52,0.78982
3781.28,0.79006
3784.04,0.7902
3786.8,0.79039
3789.57,0.79068
3792.34,0.7909
3795.12,0.79101
3797.9,0.79109
3800.69,0.79116
3803.47,0.79121
3806.27,0.79136
3809.06,0.79143
3811.86,0.79159
3814.67,0.79185
3817.48,0.79204
3820.29,0.79209
3823.11,0.7922
3825.93,0.79224
3828.76,0.79227
3831.59,0.79239
3834.42,0.79253
3837.26,0.7927
3840.1,0.79281
3842.95,0.79292
3845.8,0.79307
3848.65,0.79326
3851.51,0.79335
3854.38,0.7934
3857.24,0.79345
3860.12,0.79348
3862.99,0.79349
3865.87,0.79348
3868.76,0.79355
3871.65,0.7936
3874.54,0.79357
3877.44,0.79351
3880.34,0.79344
3883.25,0.79333
3886.16,0.7932
3889.07,0.79306
3891.99,0.79294
3894.92,0.79282
3897.85,0.79269
3900.78,0.79245
3903.72,0.79222
3906.66,0.792
3909.6,0.79177
3912.55,0.79145
3915.51,0.79112
3918.47,0.79079
3921.43,0.79053
3924.4,0.79025
3927.38,0.78998
3930.35,0.78984
3933.33,0.78979
3936.32,0.78967
3939.31,0.78951
3942.31,0.78927
3945.31,0.78908
3948.31,0.78893
3951.32,0.78882
3954.34,0.78874
3957.35,0.78871
3960.38,0.78873
3963.41,0.78878
3966.44,0.78883
3969.48,0.78893
3972.52,0.78901
3975.56,0.78905
3978.61,0.78911
3981.67,0.78915
3984.73,0.78914
3987.8,0.7891
3990.87,0.78902
3993.94,0.78899
3997.02,0.78884
4000.1,0.78863
4003.19,0.78836
4006.29,0.78808
4009.39,0.78773
4012.49,0.78731
4015.6,0.78685
4018.71,0.78639
4021.83,0.78586
4024.95,0.78534
4028.08,0.78478
4031.21,0.78415
4034.35,0.78344
4037.49,0.78274
4040.64,0.78204
4043.79,0.78135
4046.94,0.78061
4050.11,0.77982
4053.27,0.77901
4056.44,0.77817
4059.62,0.77726
4062.8,0.77632
4065.99,0.77534
4069.18,0.7744
4072.38,0.77339
4075.58,0.77233
4078.78,0.77124
4082.0,0.77014
4085.21,0.76891
4088.43,0.76766
4091.66,0.76633
4094.89,0.76491
4098.13,0.76341
4101.37,0.76186
4104.62,0.76023
4107.87,0.7585
4111.13,0.75667
4114.39,0.75473
4117.66,0.75266
4120.93,0.75054
4124.21,0.7483
4127.5,0.74597
4130.79,0.74351
4134.08,0.74096
4137.38,0.7383
4140.68,0.7356
4143.99,0.73288
4147.31,0.73022
4150.63,0.72757
4153.95,0.72492
4157.29,0.72221
4160.62,0.71945
4163.96,0.71662
4167.31,0.71366
4170.66,0.71052
4174.02,0.70721
4177.39,0.70367
4180.75,0.69997
4184.13,0.69602
4187.51,0.69184
4190.89,0.68743
4194.28,0.68282
4197.68,0.67795
4201.08,0.67277
4204.49,0.66729
4207.9,0.66158
4211.32,0.6557
4214.74,0.64977
4218.17,0.64387
4221.61,0.63812
4225.05,0.63258
4228.5,0.62729
4231.95,0.62227
4235.4,0.61758
4238.87,0.61319
4242.34,0.60919
4245.81,0.60566
4249.29,0.60267
4252.78,0.60015
4256.27,0.59749
4259.77,0.59384
4263.27,0.58986
4266.78,0.58649
4270.29,0.58374
4273.81,0.58136
4277.34,0.57919
4280.87,0.5773
4284.41,0.57571
4287.95,0.57424
4291.5,0.57296
4295.06,0.57188
4298.62,0.57093
4302.19,0.56998
4305.76,0.56915
4309.34,0.56845
4312.92,0.56782
4316.52,0.56731
4320.11,0.56684
4323.72,0.56641
4327.32,0.56603
4330.94,0.56567
4334.56,0.56535
4338.19,0.56506
4341.82,0.56478
4345.46,0.56444
4349.11,0.5641
4352.76,0.56374
4356.42,0.56333
4360.08,0.56287
4363.75,0.56238
4367.43,0.56189
4371.11,0.56135
4374.8,0.56073
4378.49,0.56008
4382.19,0.55934
4385.9,0.55851
4389.61,0.55768
4393.33,0.55681
4397.06,0.55591
4400.79,0.55497
4404.53,0.55395
4408.28,0.55292
4412.03,0.55187
4415.79,0.55075
4419.55,0.54961
4423.32,0.54841
4427.1,0.54716
4430.88,0.54587
4434.68,0.54458
4438.47,0.54328
4442.28,0.54195
4446.08,0.54058
4449.9,0.53915
4453.72,0.53772
4457.55,0.53625
4461.39,0.53472
4465.23,0.53313
4469.08,0.53147
4472.94,0.52976
4476.8,0.52801
4480.67,0.52618
4484.55,0.52426
4488.43,0.52229
4492.32,0.52027
4496.21,0.51826
4500.12,0.51618
4504.03,0.51408
4507.94,0.51196
4511.87,0.50986
4515.8,0.50772
4519.73,0.50557
4523.68,0.50336
4527.63,0.5011
4531.59,0.49875
4535.55,0.49631
4539.52,0.49373
4543.5,0.49095
4547.49,0.4879
4551.48,0.4846
4555.48,0.48108
4559.49,0.47733
4563.5,0.47337
4567.52,0.46927
4571.55,0.465
4575.58,0.46067
4579.63,0.45629
4583.67,0.45191
4587.73,0.44756
4591.79,0.44334
4595.86,0.43919
4599.94,0.43514
4604.03,0.43117
4608.12,0.42734
4612.22,0.42361
4616.33,0.42004
4620.44,0.41659
4624.56,0.41328
4628.69,0.4101
4632.83,0.40709
4636.97,0.40418
4641.12,0.40142
4645.28,0.39869
4649.45,0.39606
4653.62,0.3934
4657.8,0.39085
4661.99,0.38839
4666.19,0.38598
4670.39,0.38354
4674.6,0.38118
4678.82,0.37882
4683.05,0.3765
4687.28,0.37416
4691.52,0.37183
4695.77,0.36945
4700.03,0.36709
4704.3,0.36475
4708.57,0.36257
4712.85,0.36059
4717.14,0.35899
4721.43,0.35778
4725.74,0.3571
4730.05,0.3569
4734.37,0.35725
4738.7,0.35802
4743.03,0.35922
4747.38,0.36066
4751.73,0.36228
4756.09,0.36392
4760.45,0.36561
4764.83,0.36717
4769.21,0.36861
4773.6,0.36984
4778.0,0.37093
4782.41,0.3718
4786.83,0.37254
4791.25,0.37309
4795.68,0.37352
4800.13,0.37376
4804.57,0.37387
4809.03,0.3738
4813.5,0.37367
4817.97,0.37334
4822.45,0.3729
4826.94,0.37228
4831.44,0.37157
4835.95,0.37071
4840.46,0.36974
4844.99,0.36855
4849.52,0.36727
4854.06,0.36576
4858.61,0.36405
4863.17,0.36209
4867.73,0.35998
4872.31,0.35759
4876.89,0.35503
4881.48,0.35226
4886.08,0.34939
4890.69,0.3464
4895.31,0.34344
4899.94,0.34045
4904.57,0.3376
4909.22,0.3348
4913.87,0.33216
4918.53,0.32953
4923.21,0.32694
4927.88,0.3243
4932.57,0.32169
4937.27,0.31902
4941.98,0.31649
4946.69,0.31407
4951.42,0.31197
4956.15,0.31022
4960.9,0.30906
4965.65,0.30844
4970.41,0.30849
4975.18,0.30904
4979.96,0.31019
4984.75,0.31175
4989.54,0.31372
4994.35,0.31598
4999.17,0.31865
5003.99,0.32169
5008.83,0.32522
5013.67,0.32918
5018.52,0.33378
5023.39,0.3389
5028.26,0.34448
5033.14,0.35039
5038.03,0.35651
5042.93,0.36257
5047.84,0.36852
5052.76,0.37419
5057.69,0.37967
5062.63,0.38485
5067.58,0.38993
5072.54,0.39507
5077.51,0.40048
5082.49,0.40628
5087.47,0.41274
5092.47,0.41976
5097.48,0.4274
5102.5,0.43542
5107.52,0.44367
5112.56,0.45178
5117.61,0.45936
5122.66,0.46591
5127.73,0.4709
5132.81,0.47379
5137.89,0.4743
5142.99,0.47247
5148.1,0.46885
5153.22,0.46472
5158.34,0.4617
5163.48,0.46135
5168.63,0.46477
5173.79,0.47207
5178.96,0.48253
5184.13,0.49489
5189.32,0.50804
5194.52,0.52121
5199.73,0.53396
5204.96,0.54594
5210.19,0.557
5215.43,0.56738
5220.68,0.57672
5225.94,0.58509
5231.22,0.59252
5236.5,0.59908
5241.79,0.60483
5247.1,0.60987
5252.42,0.61425
5257.74,0.61814
5263.08,0.62159
5268.43,0.62479
5273.79,0.62784
5279.16,0.63099
5284.54,0.63426
5289.93,0.6378
5295.34,0.64157
5300.75,0.64552
5306.18,0.64947
5311.61,0.65343
5317.06,0.65724
5322.52,0.661
5327.99,0.66455
5333.47,0.66799
5338.96,0.67117
5344.47,0.67422
5349.98,0.67715
5355.51,0.68019
5361.05,0.68313
5366.6,0.68605
5372.16,0.68888
5377.73,0.69179
5383.32,0.69459
5388.91,0.69739
5394.52,0.7
5400.14,0.70244
5405.77,0.70456
5411.41,0.70649
5417.07,0.70798
5422.74,0.70934
5428.41,0.71063
5434.1,0.71163
5439.81,0.71223
5445.52,0.71266
5451.25,0.71277
5456.98,0.71266
5462.73,0.71217
5468.5,0.71175
5474.27,0.71123
5480.06,0.71057
5485.86,0.70988
5491.67,0.70921
5497.49,0.70844
5503.33,0.7077
5509.18,0.70689
5515.04,0.7062
5520.91,0.70535
5526.8,0.70454
5532.69,0.70367
5538.61,0.70275
5544.53,0.70172
5550.47,0.70077
5556.41,0.6999
5562.38,0.69946
5568.35,0.6992
5574.34,0.69907
5580.34,0.69921
5586.35,0.69995
5592.38,0.70072
5598.42,0.70155
5604.47,0.70238
5610.54,0.70332
5616.61,0.70427
5622.71,0.70556
5628.81,0.70682
5634.93,0.708
5641.06,0.70903
5647.21,0.71035
5653.36,0.71152
5659.54,0.71258
5665.72,0.7134
5671.92,0.71408
5678.13,0.71469
5684.36,0.71544
5690.6,0.71598
5696.85,0.71665
5703.12,0.71708
5709.4,0.71735
5715.69,0.71734
5722.0,0.71701
5728.33,0.71597
5734.66,0.71449
5741.01,0.71291
5747.38,0.71243
5753.76,0.71303
5760.15,0.71348
5766.56,0.71211
5772.98,0.70993
5779.41,0.70818
5785.86,0.70791
5792.33,0.70896
5798.81,0.71126
5805.3,0.71321
5811.81,0.71405
5818.33,0.71329
5824.87,0.71205
5831.42,0.71068
5837.99,0.70923
5844.57,0.70719
5851.17,0.70501
5857.78,0.70242
5864.41,0.6997
5871.05,0.69693
5877.7,0.69374
5884.38,0.6903
5891.06,0.68773
5897.76,0.68432
5904.48,0.68154
5911.21,0.67861
5917.96,0.67553
5924.73,0.67245
5931.5,0.66939
5938.3,0.6658
5945.11,0.66326
5951.93,0.66057
5958.78,0.6579
5965.63,0.65486
5972.51,0.65205
5979.39,0.64943
5986.3,0.64675
5993.22,0.644
6000.16,0.64195
6007.11,0.63978
6014.08,0.63783
6021.06,0.63623
6028.06,0.63518
6035.08,0.6342
6042.12,0.63333
6049.17,0.63233
6056.23,0.63268
6063.32,0.63294
6070.42,0.63291
6077.53,0.63305
6084.67,0.63355
6091.82,0.63367
6098.98,0.63371
6106.17,0.63329
6113.37,0.63271
6120.58,0.63221
6127.82,0.63167
6135.07,0.63031
6142.34,0.62849
6149.63,0.62596
6156.93,0.62263
6164.25,0.61808
6171.59,0.61294
6178.95,0.60655
6186.32,0.59909
6193.71,0.59198
6201.12,0.58561
6208.54,0.57932
6215.99,0.5736
6223.45,0.56765
6230.93,0.56164
6238.43,0.55518
6245.95,0.54892
6253.48,0.54271
6261.03,0.5371
6268.6,0.53175
6276.19,0.52665
6283.8,0.52094
6291.43,0.51479
6299.07,0.50804
6306.73,0.50133
6314.42,0.49456
6322.12,0.4882
6329.84,0.48251
6337.57,0.47832
6345.33,0.47572
6353.11,0.47536
6360.9,0.47578
6368.72,0.47634
6376.55,0.47712
6384.4,0.4788
6392.27,0.48203
6400.17,0.48708
6408.08,0.49343
6416.01,0.50125
6423.96,0.50831
6431.93,0.51416
6439.92,0.51873
6447.93,0.52158
6455.96,0.5229
6464.01,0.52302
6472.08,0.52196
6480.17,0.52022
6488.28,0.51767
6496.41,0.51469
6504.56,0.51177
6512.73,0.50871
6520.92,0.50472
6529.14,0.50082
6537.37,0.49671
6545.63,0.49237
6553.9,0.48762
6562.2,0.48302
6570.51,0.47781
6578.85,0.47252
6587.21,0.46733
6595.59,0.46188
6603.99,0.45631
6612.42,0.45074
6620.86,0.445
6629.33,0.43943
6637.82,0.43318
6646.33,0.42764
6654.86,0.42263
6663.41,0.41768
6671.99,0.41284
6680.59,0.4085
6689.21,0.4046
6697.85,0.40148
6706.51,0.39855
6715.2,0.39616
6723.91,0.39426
6732.64,0.3929
6741.4,0.39199
6750.18,0.39174
6758.98,0.39187
6767.8,0.39265
6776.65,0.39384
6785.52,0.39544
6794.41,0.39748
6803.33,0.4
6812.27,0.40262
6821.23,0.40535
6830.22,0.40809
6839.23,0.41085
6848.26,0.41338
6857.32,0.41575
6866.4,0.41804
6875.51,0.42017
6884.64,0.42202
6893.8,0.42371
6902.98,0.42511
6912.18,0.42651
6921.41,0.4278
6930.66,0.42905
6939.94,0.43029
6949.24,0.43157
6958.57,0.43291
6967.92,0.43457
6977.3,0.43629
6986.7,0.43803
6996.13,0.4397
7005.59,0.44126
7015.07,0.44253
7024.57,0.44352
7034.1,0.44412
7043.66,0.44426
7053.25,0.44394
7062.85,0.44325
7072.49,0.44197
7082.15,0.44025
7091.84,0.43809
7101.55,0.43584
7111.3,0.43358
7121.06,0.43149
7130.86,0.42975
7140.68,0.42848
7150.53,0.42759
7160.41,0.42725
7170.31,0.42717
7180.24,0.42731
7190.2,0.42739
7200.19,0.4273
7210.2,0.42688
7220.24,0.42629
7230.31,0.42531
7240.41,0.42404
7250.54,0.42237
7260.69,0.42034
7270.88,0.41773
7281.09,0.41465
7291.33,0.41116
7301.6,0.40735
7311.9,0.40305
7322.22,0.39858
7332.58,0.39376
7342.97,0.38874
7353.38,0.38357
7363.83,0.37842
7374.3,0.37308
7384.81,0.36778
7395.34,0.3625
7405.91,0.35748
7416.5,0.35242
7427.13,0.3475
7437.78,0.3426
7448.47,0.33801
7459.19,0.33339
7469.94,0.32887
7480.71,0.32422
7491.52,0.31969
7502.37,0.31498
7513.24,0.3103
7524.14,0.30543
7535.08,0.3005
7546.05,0.29524
7557.05,0.28995
7568.08,0.28438
7579.15,0.2788
7590.24,0.27286
7601.37,0.26685
7612.53,0.26052
7623.73,0.25416
7634.96,0.24753
7646.22,0.2409
7657.51,0.23389
7668.84,0.22694
7680.2,0.2197
7691.59,0.21252
7703.02,0.20508
7714.49,0.19773
7725.98,0.19014
7737.52,0.18272
7749.08,0.1751
7760.68,0.16759
7772.32,0.15985
7783.99,0.15234
7795.69,0.14474
7807.43,0.13745
7819.21,0.13009
7831.02,0.123
7842.87,0.11592
7854.75,0.10928
7866.67,0.10264
7878.62,0.09649
7890.62,0.09046
7902.64,0.08495
7914.71,0.07952
7926.81,0.07465
7938.95,0.06997
7951.13,0.06588
7963.34,0.062
7975.59,0.0588
7987.88,0.05588
8000.21,0.05358
8012.57,0.05152
8024.98,0.05018
8037.42,0.04915
8049.9,0.0488
8062.42,0.04876
8074.98,0.04937
8087.57,0.05012
8100.21,0.0514
8112.89,0.05273
8125.6,0.0543
8138.36,0.05568
8151.16,0.05722
8163.99,0.05844
8176.87,0.05981
8189.79,0.06092
8202.75,0.06214
8215.75,0.0631
8228.79,0.06413
8241.87,0.06493
8254.99,0.06588
8268.16,0.06658
8281.37,0.06736
8294.62,0.06781
8307.91,0.0682
8321.24,0.0682
8334.62,0.06823
8348.04,0.06788
8361.51,0.06758
8375.02,0.06707
8388.57,0.06666
8402.16,0.06602
8415.8,0.06558
8429.49,0.06497
8443.22,0.06458
8456.99,0.06411
8470.81,0.06388
8484.67,0.06352
8498.58,0.06341
8512.54,0.06327
8526.54,0.06346
8540.58,0.06365
8554.68,0.06414
8568.82,0.06464
8583.0,0.06551
8597.24,0.0665
8611.52,0.06791
8625.85,0.06946
8640.23,0.07155
8654.65,0.07382
8669.12,0.07647
8683.64,0.07909
8698.21,0.08191
8712.83,0.08457
8727.5,0.08733
8742.22,0.08978
8756.99,0.09224
8771.8,0.09439
8786.67,0.09644
8801.59,0.09807
8816.56,0.09959
8831.58,0.10074
8846.65,0.10186
8861.77,0.10267
8876.94,0.1034
8892.17,0.10387
8907.45,0.10435
8922.78,0.10463
8938.16,0.10507
8953.6,0.10541
8969.09,0.10587
8984.64,0.10621
9000.23,0.10675
9015.89,0.10723
9031.59,0.10785
9047.36,0.10831
9063.17,0.1089
9079.05,0.10943
9094.97,0.11009
9110.96,0.11057
9127.0,0.11116
9143.1,0.11159
9159.25,0.11213
9175.46,0.11249
9191.73,0.11298
9208.06,0.11338
9224.44,0.11389
9240.88,0.11424
9257.38,0.11477
9273.94,0.11529
9290.56,0.11594
9307.24,0.1165
9323.98,0.11722
9340.78,0.11778
9357.64,0.11836
9374.57,0.11874
9391.55,0.11913
9408.59,0.11918
9425.7,0.1191
9442.87,0.11874
9460.1,0.11833
9477.4,0.11762
9494.75,0.11678
9512.17,0.11566
9529.66,0.1146
9547.21,0.11326
9564.83,0.11187
9582.5,0.11038
9600.25,0.10901
9618.06,0.10753
9635.94,0.10622
9653.88,0.10482
9671.89,0.10367
9689.97,0.10258
9708.12,0.10161
9726.33,0.10047
9744.62,0.0994
9762.97,0.09817
9781.39,0.09705
9799.88,0.09592
9818.44,0.09507
9837.07,0.09427
9855.77,0.09369
9874.54,0.09315
9893.39,0.09284
9912.3,0.09255
9931.29,0.09257
9950.36,0.09269
9969.49,0.09323
9988.7,0.09396
10007.98,0.09504
10027.34,0.09621
10046.77,0.09756
10066.28,0.09891
10085.87,0.10058
10105.53,0.1022
10125.26,0.10389
10145.08,0.10536
10164.97,0.10659
10184.94,0.10709
10204.99,0.10663
10225.12,0.10423
10245.33,0.09942
10265.61,0.09204
10285.98,0.08418
10306.43,0.07926
10326.96,0.07944
10347.57,0.083
10368.27,0.08838
10389.05,0.09455
10409.91,0.10132
10430.86,0.1081
10451.88,0.11478
10473.0,0.12103
10494.2,0.12683
10515.49,0.1318
10536.86,0.13628
10558.32,0.14066
10579.87,0.1452
10601.5,0.14907
10623.23,0.15193
10645.04,0.15351
10666.94,0.15416
10688.94,0.15429
10711.02,0.15448
10733.2,0.15507
10755.47,0.15641
10777.83,0.15833
10800.28,0.16082
10822.83,0.16351
10845.47,0.16628
10868.21,0.16904
10891.04,0.17226
10913.97,0.176
10936.99,0.18035
10960.12,0.18457
10983.34,0.1882
11006.66,0.19096
11030.07,0.19319
11053.59,0.19531
11077.21,0.19806
11100.93,0.20138
11124.75,0.20541
11148.68,0.20993
11172.71,0.21468
11196.84,0.21948
11221.07,0.22456
11245.41,0.22983
11269.86,0.23556
11294.41,0.24171
11319.07,0.24851
11343.84,0.25563
11368.72,0.26291
11393.7,0.27037
11418.8,0.27796
11444.01,0.28548
11469.33,0.29282
11494.76,0.29969
11520.3,0.30614
11545.96,0.31207
11571.73,0.31742
11597.62,0.32224
11623.62,0.3265
11649.74,0.33018
11675.98,0.33347
11702.34,0.33582
11728.81,0.33738
11755.41,0.34015
11782.13,0.34414
11808.96,0.34723
11835.92,0.34906
11863.01,0.34942
11890.22,0.34969
11917.55,0.35239
11945.01,0.35693
11972.6,0.36055
12000.31,0.36305
12028.16,0.36491
12056.13,0.36634
12084.23,0.36744
12112.46,0.36831
12140.83,0.36887
12169.33,0.36924
12197.96,0.36922
12226.73,0.36864
12255.64,0.36758
12284.68,0.36629
12313.86,0.36486
12343.18,0.36334
12372.64,0.3616
12402.24,0.35973
12431.98,0.35791
12461.86,0.35642
12491.89,0.35525
12522.07,0.35452
12552.38,0.35431
12582.85,0.35449
12613.47,0.35468
12644.23,0.35481
12675.15,0.35482
12706.21,0.35465
12737.43,0.35418
12768.81,0.35336
12800.33,0.35239
12832.02,0.35131
12863.86,0.35006
12895.86,0.34901
12928.02,0.34823
12960.34,0.34762
12992.82,0.34696
13025.46,0.34648
13058.27,0.34628
13091.25,0.34617
13124.39,0.34632
13157.7,0.34661
13191.18,0.34675
13224.83,0.34678
13258.66,0.34654
13292.65,0.34599
13326.83,0.3452
13361.17,0.34387
13395.7,0.3423
13430.4,0.34085
13465.29,0.33969
13500.35,0.33881
13535.6,0.33823
13571.03,0.33798
13606.65,0.338
13642.46,0.33832
13678.46,0.33847
13714.64,0.33835
13751.02,0.33822
13787.59,0.33785
13824.36,0.33741
13861.32,0.33645
13898.49,0.33491
13935.85,0.3329
13973.41,0.33044
14011.17,0.3273
14049.15,0.32424
14087.32,0.32094
14125.71,0.31728
14164.3,0.31319
14203.11,0.30829
14242.13,0.30321
14281.36,0.2981
14320.81,0.29309
14360.49,0.28903
14400.38,0.28517
14440.49,0.28155
14480.82,0.27764
14521.39,0.27304
14562.18,0.26725
14603.2,0.25919
14644.45,0.24769
14685.93,0.23361
14727.66,0.2195
14769.62,0.2075
14811.81,0.19541
14854.25,0.18172
14896.94,0.16893
14939.87,0.15834
14983.05,0.1496
15026.48,0.14447
15070.16,0.14087
15114.1,0.1373
15158.29,0.13373
15202.74,0.12915
15247.46,0.1225
15292.43,0.1141
15337.68,0.10495
15383.19,0.09611
15428.97,0.09025
15475.03,0.0885
15521.36,0.09044
15567.97,0.09415
15614.87,0.09597
15662.04,0.09429
15709.5,0.0913
15757.25,0.08859
15805.29,0.08537
15853.62,0.08221
15902.26,0.07876
15951.19,0.07474
16000.42,0.07094
16049.95,0.06722
16099.8,0.06388
16149.95,0.06126
16200.42,0.05999
16251.21,0.06049
16302.31,0.06415
16353.74,0.07056
16405.49,0.07957
16457.57,0.09011
16509.98,0.09944
16562.73,0.10602
16615.82,0.11062
16669.24,0.11371
16723.02,0.11536
16777.14,0.11574
16831.61,0.11524
16886.43,0.11398
16941.62,0.11203
16997.16,0.1108
17053.08,0.11165
17109.36,0.11384
17166.01,0.11723
17223.04,0.12171
17280.45,0.12695
17338.24,0.13375
17396.43,0.14057
17455.0,0.14774
17513.97,0.15611
17573.34,0.16461
17633.11,0.17327
17693.29,0.18157
17753.89,0.18974
17814.9,0.19915
17876.33,0.20915
17938.18,0.21902
18000.47,0.2297
18063.19,0.24081
18126.35,0.25241
18189.95,0.26445
18254.0,0.27555
18318.5,0.28636
18383.46,0.29708
18448.88,0.30701
18514.77,0.31555
18581.13,0.32274
18647.97,0.32879
18715.29,0.33308
18783.1,0.33596
18851.4,0.33781
18920.2,0.33908
18989.51,0.33929
19059.32,0.3401
19129.65,0.34151
19200.5,0.34259
19271.88,0.34271
19343.79,0.34228
19416.24,0.34199
19489.23,0.34069
19562.77,0.33864
19636.88,0.3357
19711.54,0.33241
19786.78,0.32945
19862.59,0.32652
19938.98,0.32312
20015.96,0.3193
20093.55,0.31544
20171.73,0.31134
20250.53,0.30693
20329.94,0.3012
20409.98,0.29384
20490.65,0.2848
20571.96,0.27697
20653.92,0.27276
20736.54,0.27029
20819.82,0.26791
20903.77,0.26571
20988.4,0.26242
21073.72,0.2574
21159.73,0.25151
21246.46,0.24487
21333.89,0.2358
21422.04,0.22653
21510.93,0.22536
21600.56,0.23898
21690.94,0.2584
21782.08,0.26933
21873.99,0.27323
21966.67,0.28523
22060.15,0.30534
22154.42,0.32119
22249.51,0.32759
22345.41,0.32646
22442.14,0.31859
22539.72,0.30105
22638.14,0.27184
22737.43,0.24439
22837.6,0.24508
22938.65,0.27085
23040.6,0.29424
23143.46,0.30626
23247.24,0.31048
23351.96,0.31043
23457.63,0.30865
23564.25,0.30603
23671.85,0.30327
23780.44,0.29988
23890.02,0.29491
24000.63,0.2901
24112.26,0.2863
24224.93,0.28201
24338.66,0.27667
24453.47,0.27129
24569.36,0.2674
24686.36,0.26411
24804.47,0.25998
24923.73,0.25641
25044.13,0.25502
25165.71,0.25718
25288.46,0.26182
25412.43,0.26715
25537.61,0.27079
25664.04,0.27209
25791.72,0.27106
25920.68,0.26923
26057.2,0.267
26188.8,0.26426
26321.8,0.26083
26456.0,0.25717
26591.7,0.25284
26728.8,0.24815
26867.2,0.2441
27007.2,0.24
27148.6,0.23584
27291.5,0.2316
27435.9,0.22729
27581.8,0.22342
27729.3,0.2199
27878.4,0.21639
28029.1,0.21226
28181.4,0.20838
28335.4,0.20506
28491.1,0.20144
28648.5,0.19714
28807.7,0.19261
28968.6,0.18772
29131.3,0.18304
29295.9,0.1785
29462.4,0.17445
29630.7,0.17026
29801.0,0.16593
29973.3,0.16207
30147.6,0.15756
30323.9,0.15297
30502.3,0.14872
30682.8,0.14365
30865.4,0.13996
31050.2,0.13674
31237.2,0.13327
31426.5,0.1292
31618.2,0.12553
31812.1,0.12207
32008.5,0.11827
32207.3,0.11464
32408.6,0.11112
32612.5,0.10739
32818.9,0.10399
33027.9,0.09943
33239.6,0.0957
33454.1,0.09329
33671.3,0.09048
33891.4,0.08741
34114.3,0.08494
34340.3,0.08234
34569.2,0.07969
34801.2,0.07721
35036.3,0.07464
35274.7,0.07186
35516.3,0.0698
35761.3,0.06677
36009.6,0.06345
36261.4,0.06147
36516.8,0.0585
36775.8,0.05462
37038.5,0.05121
37304.9,0.04773
37575.2,0.04463
37849.5,0.04171
38127.8,0.03842
38410.2,0.03648
38696.9,0.03386
38987.8,0.0309
39283.2,0.02816
39583.1,0.02543
39887.6,0.02396
40196.8,0.02246
40510.8,0.02097
40829.8,0.01994
41153.9,0.01722
41483.1,0.01454
41817.6,0.01402
42157.5,0.01363
42503.1,0.01308
42854.4,0.014
43211.5,0.01478
43574.6,0.01484
43943.9,0.01696
44319.6,0.0206
44701.6,0.02528
45090.3,0.0303
45485.9,0.03536
45888.4,0.03974
46298.1,0.04482
46715.2,0.05242
47139.8,0.06318
47572.3,0.07521
48012.8,0.09464
48461.5,0.11194
48918.7,0.12567
49384.6,0.147
49859.4,0.16164
