Database of Origin,University of Winnipeg Spectrophotometer Facility
Sample Description,8. Sulfates: RELAB + Nicolet spectra / Spectra all made consistently merged: Jan. / 10 / 2005
Date Added,2016-07-15 22:05:55.297636

Data ID,RPN_SUL_39          
Sample ID,SPT124
Mineral Name,Botryogen
Grain Size,<45
Viewing Geometry,30 / 0 | 30
Resolution,5 / 1.3-129
Material Class,Sulfate

Wavelength
305.0,0.035578
310.0,0.031586
315.0,0.028083
320.0,0.024993
325.0,0.025218
330.0,0.024196
335.0,0.024398
340.0,0.025604
345.0,0.027844
350.0,0.030878
355.0,0.036717
360.0,0.043325
365.0,0.054341
370.0,0.067028
375.0,0.079962
380.0,0.096694
385.0,0.11653
390.0,0.137293
395.0,0.158162
400.0,0.180433
405.0,0.194339
410.0,0.193845
415.0,0.207755
420.0,0.208952
425.0,0.178646
430.0,0.141949
435.0,0.14301
440.0,0.171752
445.0,0.211644
450.0,0.251833
455.0,0.284253
460.0,0.306262
465.0,0.320902
470.0,0.330921
475.0,0.342748
480.0,0.350282
485.0,0.363617
490.0,0.372158
495.0,0.386087
500.0,0.397171
505.0,0.412068
510.0,0.426567
515.0,0.442304
520.0,0.460341
525.0,0.478803
530.0,0.497997
535.0,0.518885
540.0,0.539134
545.0,0.560801
550.0,0.581957
555.0,0.601484
560.0,0.621941
565.0,0.64004
570.0,0.657402
575.0,0.672641
580.0,0.687715
585.0,0.700687
590.0,0.711866
595.0,0.721623
600.0,0.730873
605.0,0.737692
610.0,0.742187
615.0,0.747492
620.0,0.749985
625.0,0.754124
630.0,0.752858
635.0,0.756692
640.0,0.755497
645.0,0.756631
650.0,0.754893
655.0,0.757295
660.0,0.75887
665.0,0.762387
670.0,0.764131
675.0,0.764618
680.0,0.765804
685.0,0.764519
690.0,0.765406
695.0,0.766006
700.0,0.769198
705.0,0.769868
710.0,0.772844
715.0,0.772945
720.0,0.773603
725.0,0.771851
730.0,0.768015
735.0,0.767031
740.0,0.763763
745.0,0.760268
750.0,0.757762
755.0,0.754139
760.0,0.749678
765.0,0.745376
770.0,0.740521
775.0,0.738173
780.0,0.732622
785.0,0.729364
790.0,0.722598
795.0,0.721783
800.0,0.716406
805.0,0.710078
810.0,0.709106
815.0,0.703705
820.0,0.697069
825.0,0.691977
830.0,0.689916
835.0,0.685585
840.0,0.683712
845.0,0.677956
850.0,0.673938
855.0,0.665842
860.0,0.666542
865.0,0.663508
870.0,0.657802
875.0,0.655229
880.0,0.648473
885.0,0.651159
890.0,0.644427
895.0,0.639858
900.0,0.638171
905.0,0.637791
910.0,0.637097
915.0,0.633084
920.0,0.63132
925.0,0.630548
930.0,0.628122
935.0,0.628077
940.0,0.628018
945.0,0.627382
950.0,0.627651
955.0,0.627574
960.0,0.627191
965.0,0.627574
970.0,0.630493
975.0,0.631101
980.0,0.632129
985.0,0.633141
990.0,0.635096
995.0,0.640605
1000.0,0.642772
1005.0,0.645851
1010.0,0.647332
1015.0,0.650031
1020.0,0.653394
1025.0,0.656495
1030.0,0.658801
1035.0,0.662726
1040.0,0.663993
1045.0,0.666953
1050.0,0.671111
1055.0,0.674931
1060.0,0.676368
1065.0,0.67978
1070.0,0.681335
1075.0,0.685006
1080.0,0.688031
1085.0,0.68957
1090.0,0.693397
1095.0,0.69449
1100.0,0.699177
1105.0,0.70124
1110.0,0.704092
1115.0,0.706995
1120.0,0.709005
1125.0,0.712419
1130.0,0.715314
1135.0,0.718079
1140.0,0.721513
1145.0,0.724618
1150.0,0.725451
1155.0,0.728583
1160.0,0.731248
1165.0,0.731597
1170.0,0.733268
1175.0,0.734514
1180.0,0.735675
1185.0,0.739307
1190.0,0.742649
1195.0,0.745805
1200.0,0.748322
1205.0,0.75302
1210.0,0.754644
1215.0,0.758724
1220.0,0.760607
1225.0,0.762757
1230.0,0.764383
1235.0,0.768225
1240.0,0.770895
1245.0,0.773316
1250.0,0.776414
1255.0,0.778643
1260.0,0.781583
1265.0,0.784854
1270.0,0.787653
1275.0,0.789384
1280.0,0.791449
1285.0,0.792756
1290.0,0.796205
1295.0,0.798794
1300.0,0.798889
1305.0,0.800424
1310.0,0.802552
1315.0,0.802151
1320.0,0.803184
1325.0,0.801977
1330.0,0.80243
1335.0,0.801914
1340.0,0.801039
1345.0,0.799881
1350.0,0.798232
1355.0,0.795734
1360.0,0.793292
1365.0,0.793588
1370.0,0.791338
1375.0,0.789124
1380.0,0.786907
1385.0,0.786627
1390.0,0.783886
1395.0,0.773764
1400.0,0.763315
1405.0,0.752012
1410.0,0.73311
1415.0,0.708543
1420.0,0.689578
1425.0,0.671819
1430.0,0.650709
1435.0,0.628779
1440.0,0.608327
1445.0,0.594165
1450.0,0.592283
1455.0,0.603369
1460.0,0.61577
1465.0,0.622123
1470.0,0.622593
1475.0,0.621558
1480.0,0.617061
1485.0,0.618408
1490.0,0.623894
1495.0,0.63001
1500.0,0.63507
1505.0,0.641017
1510.0,0.645321
1515.0,0.65086
1520.0,0.654429
1525.0,0.659581
1530.0,0.664266
1535.0,0.667699
1540.0,0.667922
1545.0,0.674091
1550.0,0.674569
1555.0,0.674609
1560.0,0.676229
1565.0,0.67623
1570.0,0.677354
1575.0,0.677576
1580.0,0.678404
1585.0,0.676737
1590.0,0.678264
1595.0,0.675471
1600.0,0.674866
1605.0,0.6753
1610.0,0.673964
1615.0,0.674813
1620.0,0.673221
1625.0,0.674679
1630.0,0.675852
1635.0,0.677962
1640.0,0.679576
1645.0,0.681419
1650.0,0.682976
1655.0,0.685014
1660.0,0.687621
1665.0,0.692389
1670.0,0.693292
1675.0,0.694623
1680.0,0.696549
1685.0,0.698621
1690.0,0.699109
1695.0,0.701229
1700.0,0.701352
1705.0,0.701948
1710.0,0.702369
1715.0,0.702282
1720.0,0.701925
1725.0,0.700972
1730.0,0.701296
1735.0,0.701617
1740.0,0.700821
1745.0,0.701183
1750.0,0.699918
1755.0,0.700233
1760.0,0.700719
1765.0,0.701248
1770.0,0.702925
1775.0,0.702734
1780.0,0.703715
1785.0,0.704348
1790.0,0.703584
1795.0,0.703947
1800.0,0.702603
1805.0,0.700098
1810.0,0.700155
1815.0,0.701357
1820.0,0.704624
1825.0,0.708872
1830.0,0.710937
1835.0,0.71385
1840.0,0.714519
1845.0,0.714498
1850.0,0.71166
1855.0,0.709471
1860.0,0.705334
1865.0,0.698195
1870.0,0.686843
1875.0,0.67349
1880.0,0.658536
1885.0,0.638253
1890.0,0.618262
1895.0,0.592361
1900.0,0.565071
1905.0,0.532858
1910.0,0.493622
1915.0,0.443685
1920.0,0.388854
1925.0,0.330994
1930.0,0.298305
1935.0,0.297703
1940.0,0.314524
1945.0,0.335907
1950.0,0.35123
1955.0,0.354889
1960.0,0.354228
1965.0,0.354615
1970.0,0.360859
1975.0,0.373485
1980.0,0.385011
1985.0,0.395157
1990.0,0.401176
1995.0,0.405371
2000.0,0.4095
2005.0,0.413973
2010.0,0.417493
2015.0,0.421763
2020.0,0.427309
2025.0,0.432495
2030.0,0.439916
2035.0,0.447503
2040.0,0.457383
2045.0,0.465046
2050.0,0.472893
2055.0,0.4785
2060.0,0.485499
2065.0,0.490065
2070.0,0.49507
2075.0,0.499171
2080.0,0.503248
2085.0,0.507443
2090.0,0.513446
2095.0,0.519217
2100.0,0.525607
2105.0,0.531313
2110.0,0.539114
2115.0,0.543641
2120.0,0.548413
2125.0,0.552746
2130.0,0.555697
2135.0,0.557814
2140.0,0.559862
2145.0,0.561572
2150.0,0.562595
2155.0,0.563529
2160.0,0.563101
2165.0,0.562577
2170.0,0.561559
2175.0,0.563276
2180.0,0.564933
2185.0,0.567241
2190.0,0.566918
2195.0,0.569769
2200.0,0.569397
2205.0,0.569509
2210.0,0.567644
2215.0,0.56732
2220.0,0.566705
2225.0,0.566107
2230.0,0.566717
2235.0,0.56585
2240.0,0.566246
2245.0,0.567166
2250.0,0.568176
2255.0,0.568583
2260.0,0.568985
2265.0,0.567841
2270.0,0.562289
2275.0,0.556754
2280.0,0.548326
2285.0,0.541525
2290.0,0.539511
2295.0,0.540857
2300.0,0.542912
2305.0,0.54086
2310.0,0.537226
2315.0,0.530284
2320.0,0.522605
2325.0,0.513088
2330.0,0.503385
2335.0,0.493652
2340.0,0.483754
2345.0,0.472888
2350.0,0.463087
2355.0,0.45247
2360.0,0.442448
2365.0,0.430558
2370.0,0.419427
2375.0,0.407796
2380.0,0.39526
2385.0,0.385577
2390.0,0.374515
2395.0,0.366561
2400.0,0.358415
2405.0,0.350149
2410.0,0.340653
2415.0,0.332451
2420.0,0.326471
2425.0,0.321171
2430.0,0.317207
2435.0,0.314567
2440.0,0.311718
2445.0,0.310218
2450.0,0.309709
2455.0,0.309667
2460.0,0.308604
2465.0,0.309478
2470.0,0.308182
2475.0,0.307712
2480.0,0.307561
2485.0,0.306542
2490.0,0.306449
2495.0,0.306577
2500.0,0.304345
2505.0,0.302469
2510.0,0.30042
2515.0,0.300055
2520.0,0.29878
2525.0,0.295204
2530.0,0.290917
2535.0,0.286709
2540.0,0.283175
2545.0,0.282278
2550.0,0.282439
2555.0,0.282785
2560.0,0.284029
2565.13,0.28697
2570.22,0.286733
2575.33,0.29298
2580.46,0.289556
2581.74,0.289948
2583.03,0.291176
2584.31,0.29069
2585.6,0.291422
2586.89,0.291653
2588.19,0.291552
2589.48,0.290261
2590.77,0.289424
2592.07,0.290368
2593.36,0.290293
2594.66,0.290871
2595.96,0.293016
2597.26,0.292466
2598.56,0.291626
2599.87,0.29183
2601.17,0.292838
2602.48,0.293979
2603.78,0.294005
2605.09,0.29367
2606.4,0.294326
2607.71,0.294256
2609.03,0.293568
2610.34,0.293489
2611.66,0.293904
2612.97,0.292751
2614.29,0.292663
2615.61,0.292572
2616.93,0.292475
2618.25,0.293163
2619.57,0.292203
2620.9,0.291085
2622.22,0.291475
2623.55,0.289978
2624.88,0.289846
2626.21,0.291167
2627.54,0.29049
2628.87,0.288799
2630.21,0.288698
2631.54,0.287831
2632.88,0.287689
2634.21,0.286321
2635.55,0.285919
2636.89,0.285753
2638.24,0.284971
2639.58,0.284294
2640.92,0.284026
2642.27,0.282636
2643.62,0.281634
2644.97,0.281061
2646.32,0.279965
2647.67,0.27949
2649.02,0.278342
2650.38,0.276949
2651.73,0.275392
2653.09,0.272971
2654.45,0.273768
2655.81,0.273988
2657.17,0.272105
2658.53,0.270387
2659.89,0.268548
2661.26,0.267501
2662.63,0.267743
2664.0,0.266871
2665.36,0.265382
2666.74,0.263156
2668.11,0.262062
2669.48,0.261555
2670.86,0.260597
2672.23,0.25791
2673.61,0.254421
2674.99,0.251904
2676.37,0.250184
2677.76,0.249048
2679.14,0.247331
2680.52,0.244845
2681.91,0.243467
2683.3,0.241556
2684.69,0.239799
2686.08,0.236221
2687.47,0.233354
2688.87,0.230798
2690.26,0.228925
2691.66,0.226318
2693.06,0.223914
2694.46,0.221284
2695.86,0.218323
2697.26,0.214574
2698.66,0.21122
2700.07,0.208277
2701.48,0.205516
2702.89,0.202693
2704.3,0.199786
2705.71,0.196471
2707.12,0.193444
2708.53,0.189342
2709.95,0.184675
2711.37,0.180184
2712.79,0.177638
2714.21,0.174467
2715.63,0.169562
2717.05,0.165388
2718.48,0.161922
2719.9,0.158408
2721.33,0.153982
2722.76,0.148696
2724.19,0.1451
2725.62,0.140868
2727.06,0.137083
2728.49,0.134699
2729.93,0.131076
2731.37,0.126529
2732.81,0.1226
2734.25,0.117933
2735.69,0.114475
2737.14,0.110727
2738.58,0.106382
2740.03,0.10166
2741.48,0.097889
2742.93,0.094207
2744.38,0.090663
2745.83,0.088484
2747.29,0.085375
2748.75,0.081367
2750.2,0.077074
2751.66,0.073818
2753.13,0.070939
2754.59,0.068015
2756.05,0.065673
2757.52,0.062623
2758.99,0.06021
2760.46,0.057683
2761.93,0.054122
2763.4,0.051491
2764.87,0.04992
2766.35,0.047351
2767.82,0.043633
2769.3,0.040529
2770.78,0.039182
2772.26,0.036296
2773.75,0.033148
2775.23,0.031389
2776.72,0.030564
2778.21,0.028297
2779.7,0.025891
2781.19,0.024296
2782.68,0.022451
2784.18,0.021784
2785.67,0.020802
2787.17,0.019393
2788.67,0.019142
2790.17,0.018825
2791.67,0.017845
2793.18,0.017863
2794.68,0.018374
2796.19,0.018049
2797.7,0.017136
2799.21,0.016836
2800.72,0.017853
2802.24,0.018598
2803.75,0.018945
2805.27,0.018236
2806.79,0.018176
2808.31,0.01889
2809.83,0.019274
2811.35,0.019597
2812.88,0.020625
2814.41,0.021463
2815.93,0.022328
2817.46,0.022449
2819.0,0.022521
2820.53,0.022951
2822.07,0.022753
2823.6,0.022646
2825.14,0.021924
2826.68,0.021577
2828.22,0.022799
2829.77,0.022656
2831.31,0.021839
2832.86,0.020987
2834.41,0.020962
2835.96,0.02082
2837.51,0.020374
2839.07,0.020485
2840.62,0.020396
2842.18,0.02058
2843.74,0.020862
2845.3,0.020067
2846.86,0.01919
2848.43,0.018799
2849.99,0.018322
2851.56,0.018678
2853.13,0.019287
2854.7,0.018886
2856.27,0.018455
2857.85,0.017914
2859.42,0.018206
2861.0,0.018341
2862.58,0.018028
2864.16,0.018309
2865.75,0.018384
2867.33,0.018083
2868.92,0.017379
2870.51,0.016628
2872.1,0.017669
2873.69,0.018388
2875.28,0.018267
2876.88,0.017158
2878.48,0.016244
2880.07,0.016753
2881.68,0.017035
2883.28,0.016904
2884.88,0.016917
2886.49,0.016363
2888.1,0.016796
2889.71,0.017128
2891.32,0.017716
2892.93,0.017727
2894.55,0.017783
2896.16,0.017737
2897.78,0.017475
2899.4,0.017102
2901.03,0.016642
2902.65,0.017327
2904.28,0.017543
2905.91,0.018131
2907.54,0.018644
2909.17,0.018729
2910.8,0.018332
2912.44,0.018123
2914.07,0.018659
2915.71,0.019256
2917.35,0.019297
2918.99,0.018943
2920.64,0.018777
2922.29,0.018665
2923.93,0.018259
2925.58,0.018748
2927.24,0.019397
2928.89,0.020146
2930.55,0.020131
2932.2,0.019863
2933.86,0.019799
2935.52,0.019078
2937.19,0.01864
2938.85,0.018547
2940.52,0.018737
2942.19,0.019717
2943.86,0.019896
2945.53,0.019238
2947.21,0.019276
2948.88,0.020149
2950.56,0.020234
2952.24,0.019905
2953.92,0.020193
2955.61,0.02025
2957.29,0.019919
2958.98,0.019681
2960.67,0.019528
2962.36,0.020073
2964.06,0.020113
2965.75,0.019867
2967.45,0.019596
2969.15,0.020067
2970.85,0.020645
2972.55,0.019986
2974.26,0.020601
2975.97,0.020826
2977.68,0.020278
2979.39,0.020389
2981.1,0.020681
2982.82,0.021544
2984.53,0.021195
2986.25,0.020367
2987.97,0.019775
2989.7,0.019607
2991.42,0.020658
2993.15,0.0211
2994.88,0.020603
2996.61,0.019525
2998.34,0.019732
3000.08,0.021019
3001.82,0.021329
3003.55,0.021226
3005.3,0.021342
3007.04,0.021753
3008.78,0.021787
3010.53,0.021391
3012.28,0.02168
3014.03,0.022557
3015.79,0.022417
3017.54,0.021909
3019.3,0.021573
3021.06,0.02144
3022.82,0.021504
3024.58,0.021766
3026.35,0.021749
3028.12,0.021837
3029.89,0.021474
3031.66,0.021923
3033.43,0.022451
3035.21,0.022804
3036.99,0.023159
3038.77,0.022773
3040.55,0.022727
3042.33,0.022997
3044.12,0.022937
3045.91,0.022721
3047.7,0.022753
3049.49,0.021935
3051.29,0.022158
3053.08,0.023013
3054.88,0.023066
3056.68,0.023208
3058.49,0.023782
3060.29,0.024016
3062.1,0.022989
3063.91,0.022833
3065.72,0.023807
3067.54,0.023771
3069.35,0.023178
3071.17,0.022765
3072.99,0.023453
3074.81,0.024199
3076.64,0.02462
3078.47,0.024429
3080.29,0.023703
3082.13,0.023492
3083.96,0.023869
3085.79,0.024851
3087.63,0.025108
3089.47,0.024666
3091.31,0.024542
3093.16,0.025033
3095.01,0.025299
3096.85,0.025209
3098.71,0.025309
3100.56,0.024857
3102.41,0.024717
3104.27,0.025442
3106.13,0.025807
3107.99,0.026047
3109.86,0.026975
3111.73,0.027501
3113.59,0.027629
3115.47,0.027731
3117.34,0.027917
3119.21,0.028108
3121.09,0.028084
3122.97,0.027625
3124.86,0.028002
3126.74,0.028528
3128.63,0.028077
3130.52,0.028135
3132.41,0.028655
3134.3,0.0293
3136.2,0.02973
3138.1,0.029503
3140.0,0.02937
3141.9,0.0298
3143.81,0.030507
3145.71,0.030912
3147.62,0.031383
3149.54,0.031435
3151.45,0.030986
3153.37,0.031199
3155.29,0.031711
3157.21,0.031957
3159.13,0.032213
3161.06,0.03228
3162.99,0.032393
3164.92,0.032174
3166.85,0.032333
3168.79,0.033279
3170.72,0.033739
3172.67,0.033277
3174.61,0.033128
3176.55,0.033841
3178.5,0.034955
3180.45,0.035717
3182.4,0.035856
3184.36,0.035431
3186.32,0.03542
3188.27,0.035931
3190.24,0.036643
3192.2,0.037409
3194.17,0.037833
3196.14,0.037912
3198.11,0.038219
3200.08,0.037961
3202.06,0.037977
3204.04,0.038371
3206.02,0.038808
3208.0,0.039688
3209.99,0.039798
3211.98,0.039631
3213.97,0.040046
3215.96,0.040721
3217.96,0.041801
3219.96,0.041922
3221.96,0.041605
3223.96,0.041971
3225.97,0.042465
3227.98,0.043291
3229.99,0.04392
3232.0,0.043557
3234.02,0.044133
3236.04,0.044864
3238.06,0.045401
3240.08,0.045805
3242.11,0.046381
3244.14,0.046644
3246.17,0.047332
3248.2,0.047653
3250.24,0.047689
3252.28,0.048224
3254.32,0.048829
3256.37,0.049629
3258.41,0.049888
3260.46,0.049757
3262.51,0.049992
3264.57,0.050447
3266.63,0.05082
3268.69,0.051286
3270.75,0.051807
3272.81,0.052595
3274.88,0.053327
3276.95,0.053577
3279.02,0.05376
3281.1,0.05436
3283.18,0.054991
3285.26,0.055604
3287.34,0.055494
3289.43,0.056348
3291.51,0.057619
3293.61,0.057424
3295.7,0.057289
3297.8,0.05842
3299.9,0.059427
3302.0,0.059771
3304.1,0.060302
3306.21,0.060231
3308.32,0.060317
3310.43,0.061207
3312.55,0.061956
3314.66,0.063081
3316.79,0.063692
3318.91,0.063561
3321.03,0.064132
3323.16,0.06556
3325.29,0.066105
3327.43,0.06602
3329.57,0.066611
3331.71,0.067601
3333.85,0.068725
3335.99,0.069205
3338.14,0.069528
3340.29,0.070681
3342.45,0.071363
3344.6,0.071887
3346.76,0.072689
3348.92,0.073805
3351.09,0.074864
3353.26,0.075525
3355.43,0.075883
3357.6,0.076117
3359.78,0.076555
3361.96,0.077194
3364.14,0.078158
3366.32,0.079129
3368.51,0.079426
3370.7,0.080078
3372.89,0.080714
3375.09,0.08116
3377.29,0.081865
3379.49,0.082872
3381.69,0.084347
3383.9,0.085212
3386.11,0.085819
3388.32,0.08661
3390.54,0.08738
3392.76,0.087955
3394.98,0.088799
3397.21,0.089799
3399.43,0.090477
3401.66,0.090901
3403.9,0.09161
3406.13,0.092032
3408.37,0.092819
3410.61,0.094044
3412.86,0.094876
3415.11,0.095815
3417.36,0.096903
3419.61,0.098041
3421.87,0.098779
3424.13,0.099632
3426.39,0.100496
3428.66,0.101033
3430.93,0.101344
3433.2,0.102202
3435.48,0.103101
3437.76,0.10382
3440.04,0.104822
3442.32,0.105981
3444.61,0.106801
3446.9,0.107747
3449.19,0.109021
3451.49,0.10938
3453.79,0.109928
3456.09,0.110981
3458.4,0.111543
3460.7,0.112564
3463.02,0.113695
3465.33,0.114543
3467.65,0.115642
3469.97,0.116545
3472.29,0.117443
3474.62,0.118492
3476.95,0.119475
3479.29,0.120581
3481.62,0.12123
3483.96,0.121924
3486.3,0.123084
3488.65,0.12419
3491.0,0.125397
3493.35,0.126106
3495.71,0.12661
3498.07,0.127912
3500.43,0.1291
3502.79,0.130282
3505.16,0.131462
3507.53,0.132538
3509.91,0.133325
3512.29,0.134053
3514.67,0.135202
3517.05,0.136121
3519.44,0.137325
3521.83,0.138066
3524.23,0.13891
3526.62,0.139962
3529.02,0.141362
3531.43,0.142451
3533.83,0.143236
3536.24,0.144031
3538.66,0.145125
3541.08,0.146432
3543.5,0.147577
3545.92,0.148313
3548.35,0.149372
3550.78,0.15052
3553.21,0.151642
3555.65,0.153034
3558.09,0.154607
3560.53,0.155387
3562.98,0.15598
3565.43,0.156621
3567.88,0.157558
3570.34,0.159058
3572.8,0.160082
3575.27,0.161173
3577.73,0.162786
3580.2,0.16372
3582.68,0.16452
3585.16,0.165497
3587.64,0.166463
3590.12,0.167595
3592.61,0.168594
3595.1,0.169245
3597.6,0.170059
3600.09,0.171089
3602.6,0.172223
3605.1,0.173379
3607.61,0.174541
3610.12,0.175586
3612.64,0.176935
3615.16,0.177776
3617.68,0.179066
3620.21,0.180785
3622.74,0.18191
3625.27,0.182658
3627.81,0.18299
3630.35,0.183758
3632.89,0.185249
3635.44,0.186766
3637.99,0.188019
3640.54,0.188852
3643.1,0.189764
3645.66,0.190592
3648.23,0.191717
3650.8,0.193082
3653.37,0.194013
3655.95,0.194305
3658.53,0.195076
3661.11,0.196401
3663.7,0.197517
3666.29,0.198506
3668.89,0.199762
3671.48,0.200918
3674.09,0.201971
3676.69,0.202324
3679.3,0.203337
3681.91,0.204899
3684.53,0.206098
3687.15,0.206881
3689.78,0.207666
3692.4,0.208582
3695.04,0.209729
3697.67,0.210537
3700.31,0.211728
3702.95,0.21258
3705.6,0.213366
3708.25,0.21436
3710.91,0.215187
3713.56,0.216128
3716.23,0.217533
3718.89,0.218151
3721.56,0.218888
3724.23,0.220178
3726.91,0.221153
3729.59,0.222314
3732.28,0.223323
3734.97,0.224308
3737.66,0.225211
3740.36,0.225875
3743.06,0.226643
3745.76,0.22736
3748.47,0.228578
3751.18,0.229584
3753.9,0.230102
3756.62,0.230941
3759.34,0.232196
3762.07,0.233205
3764.8,0.233848
3767.54,0.23415
3770.28,0.234912
3773.02,0.23568
3775.77,0.236372
3778.52,0.237312
3781.28,0.237912
3784.04,0.238416
3786.8,0.239159
3789.57,0.240034
3792.34,0.24113
3795.12,0.241577
3797.9,0.242199
3800.69,0.243099
3803.47,0.243417
3806.27,0.243699
3809.06,0.244387
3811.86,0.244517
3814.67,0.24491
3817.48,0.245687
3820.29,0.246412
3823.11,0.246637
3825.93,0.24695
3828.76,0.247468
3831.59,0.24813
3834.42,0.248826
3837.26,0.249195
3840.1,0.249292
3842.95,0.249725
3845.8,0.249979
3848.65,0.250437
3851.51,0.251129
3854.38,0.25132
3857.24,0.251447
3860.12,0.251654
3862.99,0.251946
3865.87,0.252213
3868.76,0.252335
3871.65,0.252722
3874.54,0.252744
3877.44,0.252543
3880.34,0.252785
3883.25,0.253184
3886.16,0.253303
3889.07,0.253344
3891.99,0.253514
3894.92,0.253409
3897.85,0.253305
3900.78,0.253334
3903.72,0.253422
3906.66,0.253441
3909.6,0.253261
3912.55,0.253015
3915.51,0.252473
3918.47,0.252637
3921.43,0.252428
3924.4,0.25199
3927.38,0.251505
3930.35,0.251384
3933.33,0.251371
3936.32,0.251274
3939.31,0.250717
3942.31,0.250913
3945.31,0.251054
3948.31,0.250731
3951.32,0.250109
3954.34,0.2495
3957.35,0.249055
3960.38,0.248895
3963.41,0.248561
3966.44,0.248297
3969.48,0.247714
3972.52,0.247133
3975.56,0.246295
3978.61,0.245886
3981.67,0.245442
3984.73,0.244797
3987.8,0.244079
3990.87,0.243136
3993.94,0.242366
3997.02,0.242124
4000.1,0.241208
4003.19,0.240323
4006.29,0.239456
4009.39,0.238406
4012.49,0.237884
4015.6,0.237491
4018.71,0.236228
4021.83,0.235006
4024.95,0.234261
4028.08,0.233474
4031.21,0.232343
4034.35,0.231056
4037.49,0.229724
4040.64,0.228548
4043.79,0.227375
4046.94,0.226215
4050.11,0.225309
4053.27,0.22413
4056.44,0.222873
4059.62,0.221844
4062.8,0.220689
4065.99,0.219553
4069.18,0.217821
4072.38,0.215988
4075.58,0.214414
4078.78,0.213217
4082.0,0.211721
4085.21,0.210172
4088.43,0.2084
4091.66,0.206917
4094.89,0.205464
4098.13,0.204293
4101.37,0.203101
4104.62,0.201371
4107.87,0.19963
4111.13,0.197903
4114.39,0.196248
4117.66,0.194837
4120.93,0.193313
4124.21,0.191905
4127.5,0.190278
4130.79,0.188651
4134.08,0.186888
4137.38,0.185228
4140.68,0.18387
4143.99,0.182558
4147.31,0.181073
4150.63,0.179805
4153.95,0.178219
4157.29,0.176526
4160.62,0.17501
4163.96,0.173803
4167.31,0.172749
4170.66,0.171747
4174.02,0.170323
4177.39,0.168854
4180.75,0.167725
4184.13,0.166711
4187.51,0.165458
4190.89,0.164329
4194.28,0.163257
4197.68,0.161879
4201.08,0.161047
4204.49,0.160115
4207.9,0.158839
4211.32,0.157842
4214.74,0.15715
4218.17,0.156346
4221.61,0.155712
4225.05,0.154743
4228.5,0.153438
4231.95,0.152523
4235.4,0.151765
4238.87,0.15089
4242.34,0.150542
4245.81,0.150227
4249.29,0.149559
4252.78,0.149082
4256.27,0.148631
4259.77,0.148188
4263.27,0.147732
4266.78,0.147561
4270.29,0.14755
4273.81,0.147797
4277.34,0.147759
4280.87,0.147676
4284.41,0.147607
4287.95,0.147307
4291.5,0.147319
4295.06,0.147758
4298.62,0.148151
4302.19,0.148537
4305.76,0.148726
4309.34,0.148951
4312.92,0.14904
4316.52,0.148739
4320.11,0.148721
4323.72,0.149114
4327.32,0.149377
4330.94,0.149725
4334.56,0.149858
4338.19,0.150051
4341.82,0.150387
4345.46,0.150559
4349.11,0.150514
4352.76,0.150763
4356.42,0.150607
4360.08,0.150639
4363.75,0.151044
4367.43,0.15083
4371.11,0.150705
4374.8,0.150697
4378.49,0.150568
4382.19,0.150717
4385.9,0.150797
4389.61,0.150962
4393.33,0.151069
4397.06,0.150943
4400.79,0.150715
4404.53,0.150632
4408.28,0.15064
4412.03,0.150491
4415.79,0.150035
4419.55,0.149984
4423.32,0.149804
4427.1,0.149561
4430.88,0.149643
4434.68,0.149886
4438.47,0.149857
4442.28,0.149728
4446.08,0.149732
4449.9,0.149533
4453.72,0.149237
4457.55,0.149197
4461.39,0.148919
4465.23,0.149088
4469.08,0.149539
4472.94,0.149323
4476.8,0.149281
4480.67,0.149323
4484.55,0.149502
4488.43,0.149847
4492.32,0.15004
4496.21,0.150505
4500.12,0.150894
4504.03,0.151014
4507.94,0.151407
4511.87,0.151892
4515.8,0.152717
4519.73,0.153781
4523.68,0.154696
4527.63,0.155701
4531.59,0.156213
4535.55,0.156414
4539.52,0.156987
4543.5,0.157944
4547.49,0.158286
4551.48,0.158264
4555.48,0.158746
4559.49,0.159211
4563.5,0.159421
4567.52,0.15955
4571.55,0.159768
4575.58,0.159998
4579.63,0.159955
4583.67,0.160436
4587.73,0.160918
4591.79,0.161006
4595.86,0.161403
4599.94,0.162235
4604.03,0.16308
4608.12,0.163806
4612.22,0.164338
4616.33,0.165143
4620.44,0.165553
4624.56,0.165934
4628.69,0.166201
4632.83,0.166531
4636.97,0.166606
4641.12,0.16674
4645.28,0.167
4649.45,0.16721
4653.62,0.167549
4657.8,0.168278
4661.99,0.168905
4666.19,0.169374
4670.39,0.169856
4674.6,0.170832
4678.82,0.171615
4683.05,0.172463
4687.28,0.173307
4691.52,0.174512
4695.77,0.175407
4700.03,0.176441
4704.3,0.177712
4708.57,0.178833
4712.85,0.17933
4717.14,0.179664
4721.43,0.18003
4725.74,0.180772
4730.05,0.181743
4734.37,0.182611
4738.7,0.183157
4743.03,0.183586
4747.38,0.18413
4751.73,0.184502
4756.09,0.184994
4760.45,0.185653
4764.83,0.186092
4769.21,0.186837
4773.6,0.187506
4778.0,0.188418
4782.41,0.189473
4786.83,0.190721
4791.25,0.191424
4795.68,0.192431
4800.13,0.193633
4804.57,0.194657
4809.03,0.195715
4813.5,0.196419
4817.97,0.196826
4822.45,0.197043
4826.94,0.197126
4831.44,0.197547
4835.95,0.197385
4840.46,0.197179
4844.99,0.196853
4849.52,0.196809
4854.06,0.197125
4858.61,0.197209
4863.17,0.197636
4867.73,0.198494
4872.31,0.199603
4876.89,0.200856
4881.48,0.202162
4886.08,0.20394
4890.69,0.206094
4895.31,0.208352
4899.94,0.210256
4904.57,0.212062
4909.22,0.214263
4913.87,0.216878
4918.53,0.219281
4923.21,0.221513
4927.88,0.223196
4932.57,0.224788
4937.27,0.226045
4941.98,0.227363
4946.69,0.228173
4951.42,0.229356
4956.15,0.23071
4960.9,0.232066
4965.65,0.233431
4970.41,0.235255
4975.18,0.23696
4979.96,0.238512
4984.75,0.23983
4989.54,0.241019
4994.35,0.241734
4999.17,0.242283
5003.99,0.242769
5008.83,0.243424
5013.67,0.243899
5018.52,0.244289
5023.39,0.244887
5028.26,0.245684
5033.14,0.246036
5038.03,0.246666
5042.93,0.247129
5047.84,0.24764
5052.76,0.248155
5057.69,0.249067
5062.63,0.249889
5067.58,0.250515
5072.54,0.250935
5077.51,0.251889
5082.49,0.252713
5087.47,0.253966
5092.47,0.254906
5097.48,0.255659
5102.5,0.256446
5107.52,0.257401
5112.56,0.258088
5117.61,0.258931
5122.66,0.259674
5127.73,0.260492
5132.81,0.261116
5137.89,0.261876
5142.99,0.262629
5148.1,0.26359
5153.22,0.26424
5158.34,0.264851
5163.48,0.265371
5168.63,0.265736
5173.79,0.26591
5178.96,0.266352
5184.13,0.266481
5189.32,0.26665
5194.52,0.266677
5199.73,0.266739
5204.96,0.266674
5210.19,0.26652
5215.43,0.266405
5220.68,0.266868
5225.94,0.266415
5231.22,0.266103
5236.5,0.265812
5241.79,0.265722
5247.1,0.265299
5252.42,0.264599
5257.74,0.263757
5263.08,0.263495
5268.43,0.262928
5273.79,0.262523
5279.16,0.261824
5284.54,0.261421
5289.93,0.260836
5295.34,0.260519
5300.75,0.259805
5306.18,0.259144
5311.61,0.258319
5317.06,0.258278
5322.52,0.258055
5327.99,0.257514
5333.47,0.256972
5338.96,0.257044
5344.47,0.256692
5349.98,0.256469
5355.51,0.256552
5361.05,0.256569
5366.6,0.256234
5372.16,0.256125
5377.73,0.256162
5383.32,0.256402
5388.91,0.256309
5394.52,0.25672
5400.14,0.256796
5405.77,0.256929
5411.41,0.256732
5417.07,0.256547
5422.74,0.256093
5428.41,0.256381
5434.1,0.255962
5439.81,0.255193
5445.52,0.254305
5451.25,0.253764
5456.98,0.252744
5462.73,0.251902
5468.5,0.25124
5474.27,0.250673
5480.06,0.249787
5485.86,0.248922
5491.67,0.247643
5497.49,0.246655
5503.33,0.245725
5509.18,0.24492
5515.04,0.243501
5520.91,0.242355
5526.8,0.241073
5532.69,0.239888
5538.61,0.238457
5544.53,0.237302
5550.47,0.235694
5556.41,0.234417
5562.38,0.232973
5568.35,0.23148
5574.34,0.229927
5580.34,0.228719
5586.35,0.226712
5592.38,0.22483
5598.42,0.222965
5604.47,0.221389
5610.54,0.219381
5616.61,0.217532
5622.71,0.215381
5628.81,0.21356
5634.93,0.211551
5641.06,0.209836
5647.21,0.207613
5653.36,0.205405
5659.54,0.203139
5665.72,0.200914
5671.92,0.198184
5678.13,0.195955
5684.36,0.193531
5690.6,0.191101
5696.85,0.188187
5703.12,0.185518
5709.4,0.182706
5715.69,0.18043
5722.0,0.177406
5728.33,0.17411
5734.66,0.17017
5741.01,0.166919
5747.38,0.163506
5753.76,0.1597
5760.15,0.155355
5766.56,0.151656
5772.98,0.146681
5779.41,0.141848
5785.86,0.137139
5792.33,0.132356
5798.81,0.127523
5805.3,0.122577
5811.81,0.117073
5818.33,0.112343
5824.87,0.107201
5831.42,0.101637
5837.99,0.096128
5844.57,0.0914
5851.17,0.086296
5857.78,0.081475
5864.41,0.076888
5871.05,0.072559
5877.7,0.068303
5884.38,0.065029
5891.06,0.061216
5897.76,0.058227
5904.48,0.054981
5911.21,0.052703
5917.96,0.051288
5924.73,0.050157
5931.5,0.049011
5938.3,0.048071
5945.11,0.04776
5951.93,0.047923
5958.78,0.047438
5965.63,0.046737
5972.51,0.046199
5979.39,0.045118
5986.3,0.043524
5993.22,0.042049
6000.16,0.039882
6007.11,0.037742
6014.08,0.035681
6021.06,0.033205
6028.06,0.030723
6035.08,0.0288
6042.12,0.027382
6049.17,0.026648
6056.23,0.026578
6063.32,0.027082
6070.42,0.027998
6077.53,0.029292
6084.67,0.030626
6091.82,0.032041
6098.98,0.033408
6106.17,0.034536
6113.37,0.035174
6120.58,0.035701
6127.82,0.0368
6135.07,0.03761
6142.34,0.038226
6149.63,0.038588
6156.93,0.039138
6164.25,0.040367
6171.59,0.041543
6178.95,0.042525
6186.32,0.044265
6193.71,0.046863
6201.12,0.049422
6208.54,0.051716
6215.99,0.054006
6223.45,0.056364
6230.93,0.058757
6238.43,0.0615
6245.95,0.064325
6253.48,0.067023
6261.03,0.069751
6268.6,0.071982
6276.19,0.074268
6283.8,0.076462
6291.43,0.078411
6299.07,0.080111
6306.73,0.0817
6314.42,0.083391
6322.12,0.085093
6329.84,0.08644
6337.57,0.087904
6345.33,0.089206
6353.11,0.090656
6360.9,0.091681
6368.72,0.092592
6376.55,0.093536
6384.4,0.094387
6392.27,0.09534
6400.17,0.096406
6408.08,0.097341
6416.01,0.098733
6423.96,0.099838
6431.93,0.100033
6439.92,0.100423
6447.93,0.10091
6455.96,0.101438
6464.01,0.10202
6472.08,0.102363
6480.17,0.102966
6488.28,0.103654
6496.41,0.104096
6504.56,0.104185
6512.73,0.104273
6520.92,0.104376
6529.14,0.104886
6537.37,0.105495
6545.63,0.10582
6553.9,0.105789
6562.2,0.105967
6570.51,0.106115
6578.85,0.106361
6587.21,0.106367
6595.59,0.106671
6603.99,0.10686
6612.42,0.106693
6620.86,0.106724
6629.33,0.106884
6637.82,0.107057
6646.33,0.107101
6654.86,0.106922
6663.41,0.107009
6671.99,0.106934
6680.59,0.106854
6689.21,0.106912
6697.85,0.107016
6706.51,0.107062
6715.2,0.107308
6723.91,0.107436
6732.64,0.107328
6741.4,0.107251
6750.18,0.107068
6758.98,0.107
6767.8,0.107239
6776.65,0.107217
6785.52,0.106881
6794.41,0.106696
6803.33,0.106664
6812.27,0.106353
6821.23,0.10592
6830.22,0.105878
6839.23,0.105718
6848.26,0.10523
6857.32,0.105102
6866.4,0.105482
6875.51,0.10555
6884.64,0.104947
6893.8,0.104529
6902.98,0.104215
6912.18,0.104261
6921.41,0.10429
6930.66,0.104199
6939.94,0.103816
6949.24,0.10356
6958.57,0.103623
6967.92,0.103856
6977.3,0.103338
6986.7,0.102771
6996.13,0.102625
7005.59,0.102371
7015.07,0.102162
7024.57,0.102219
7034.1,0.102203
7043.66,0.101965
7053.25,0.101522
7062.85,0.101352
7072.49,0.101262
7082.15,0.101009
7091.84,0.100823
7101.55,0.100252
7111.3,0.099754
7121.06,0.099829
7130.86,0.099809
7140.68,0.099606
7150.53,0.099298
7160.41,0.09887
7170.31,0.098533
7180.24,0.098332
7190.2,0.0978
7200.19,0.097211
7210.2,0.096601
7220.24,0.096271
7230.31,0.095719
7240.41,0.094958
7250.54,0.094488
7260.69,0.093973
7270.88,0.093298
7281.09,0.092705
7291.33,0.092253
7301.6,0.091491
7311.9,0.090897
7322.22,0.090443
7332.58,0.089753
7342.97,0.088938
7353.38,0.087983
7363.83,0.087047
7374.3,0.086343
7384.81,0.085321
7395.34,0.084407
7405.91,0.083746
7416.5,0.082877
7427.13,0.081921
7437.78,0.080979
7448.47,0.08016
7459.19,0.078954
7469.94,0.077456
7480.71,0.076632
7491.52,0.075969
7502.37,0.074729
7513.24,0.07333
7524.14,0.071911
7535.08,0.070779
7546.05,0.0696
7557.05,0.068311
7568.08,0.066877
7579.15,0.065337
7590.24,0.063972
7601.37,0.062645
7612.53,0.061411
7623.73,0.059777
7634.96,0.058453
7646.22,0.057334
7657.51,0.055977
7668.84,0.054303
7680.2,0.052643
7691.59,0.051211
7703.02,0.04952
7714.49,0.047769
7725.98,0.046385
7737.52,0.045159
7749.08,0.043643
7760.68,0.041942
7772.32,0.040136
7783.99,0.038606
7795.69,0.03714
7807.43,0.035715
7819.21,0.034357
7831.02,0.032722
7842.87,0.031478
7854.75,0.030276
7866.67,0.028742
7878.62,0.027455
7890.62,0.02652
7902.64,0.025249
7914.71,0.024118
7926.81,0.023356
7938.95,0.02307
7951.13,0.022918
7963.34,0.022648
7975.59,0.022278
7987.88,0.02211
8000.21,0.022476
8012.57,0.023643
8024.98,0.024915
8037.42,0.026224
8049.9,0.027966
8062.42,0.030198
8074.98,0.033047
8087.57,0.036397
8100.21,0.039407
8112.89,0.042607
8125.6,0.045752
8138.36,0.048058
8151.16,0.04991
8163.99,0.051705
8176.87,0.05224
8189.79,0.051803
8202.75,0.051031
8215.75,0.049585
8228.79,0.04776
8241.87,0.045676
8254.99,0.043517
8268.16,0.04186
8281.37,0.04047
8294.62,0.039087
8307.91,0.037917
8321.24,0.037038
8334.62,0.036128
8348.04,0.035638
8361.51,0.035407
8375.02,0.035575
8388.57,0.035863
8402.16,0.036652
8415.8,0.037741
8429.49,0.038708
8443.22,0.039942
8456.99,0.041166
8470.81,0.042285
8484.67,0.043418
8498.58,0.044223
8512.54,0.045038
8526.54,0.045757
8540.58,0.046161
8554.68,0.046587
8568.82,0.047658
8583.0,0.048856
8597.24,0.049438
8611.52,0.049981
8625.85,0.05031
8640.23,0.050657
8654.65,0.05122
8669.12,0.051457
8683.64,0.051599
8698.21,0.05156
8712.83,0.052186
8727.5,0.052725
8742.22,0.052892
8756.99,0.053729
8771.8,0.055015
8786.67,0.056156
8801.59,0.057379
8816.56,0.057833
8831.58,0.058054
8846.65,0.058185
8861.77,0.057916
8876.94,0.057826
8892.17,0.057648
8907.45,0.056987
8922.78,0.056714
8938.16,0.056816
8953.6,0.056233
8969.09,0.05503
8984.64,0.054438
9000.23,0.054261
9015.89,0.052927
9031.59,0.051757
9047.36,0.051372
9063.17,0.050223
9079.05,0.048997
9094.97,0.047435
9110.96,0.046181
9127.0,0.045202
9143.1,0.043833
9159.25,0.042749
9175.46,0.041931
9191.73,0.040938
9208.06,0.040601
9224.44,0.040281
9240.88,0.040058
9257.38,0.039885
9273.94,0.040251
9290.56,0.040957
9307.24,0.0414
9323.98,0.041885
9340.78,0.042312
9357.64,0.042844
9374.57,0.043339
9391.55,0.043286
9408.59,0.042925
9425.7,0.042625
9442.87,0.042668
9460.1,0.04254
9477.4,0.042305
9494.75,0.042023
9512.17,0.042017
9529.66,0.042518
9547.21,0.043396
9564.83,0.044619
9582.5,0.045407
9600.25,0.046091
9618.06,0.04764
9635.94,0.049667
9653.88,0.051223
9671.89,0.052809
9689.97,0.054162
9708.12,0.054753
9726.33,0.054587
9744.62,0.054265
9762.97,0.053791
9781.39,0.053009
9799.88,0.051364
9818.44,0.049047
9837.07,0.046715
9855.77,0.045487
9874.54,0.045394
9893.39,0.046029
9912.3,0.047145
9931.29,0.048325
9950.36,0.048475
9969.49,0.047417
9988.7,0.046225
10007.98,0.046552
10027.34,0.048329
10046.77,0.050713
10066.28,0.053434
10085.87,0.055611
10105.53,0.056781
10125.26,0.057863
10145.08,0.059484
10164.97,0.060893
10184.94,0.061505
10204.99,0.062006
10225.12,0.06307
10245.33,0.064466
10265.61,0.065413
10285.98,0.066488
10306.43,0.06748
10326.96,0.068541
10347.57,0.069209
10368.27,0.069682
10389.05,0.0705
10409.91,0.070996
10430.86,0.071403
10451.88,0.072183
10473.0,0.073182
10494.2,0.074078
10515.49,0.074874
10536.86,0.07584
10558.32,0.076582
10579.87,0.077421
10601.5,0.078268
10623.23,0.078341
10645.04,0.079023
10666.94,0.079956
10688.94,0.080712
10711.02,0.08164
10733.2,0.081959
10755.47,0.081902
10777.83,0.082077
10800.28,0.082473
10822.83,0.082772
10845.47,0.082632
10868.21,0.082088
10891.04,0.081748
10913.97,0.081669
10936.99,0.081044
10960.12,0.08091
10983.34,0.081714
11006.66,0.082722
11030.07,0.083755
11053.59,0.084688
11077.21,0.085629
11100.93,0.085943
11124.75,0.086021
11148.68,0.086091
11172.71,0.085756
11196.84,0.085361
11221.07,0.085421
11245.41,0.085904
11269.86,0.08599
11294.41,0.085405
11319.07,0.084943
11343.84,0.084502
11368.72,0.0837
11393.7,0.082805
11418.8,0.082332
11444.01,0.081786
11469.33,0.080855
11494.76,0.080312
11520.3,0.079975
11545.96,0.079246
11571.73,0.078124
11597.62,0.077051
11623.62,0.075989
11649.74,0.074558
11675.98,0.073201
11702.34,0.072185
11728.81,0.071512
11755.41,0.070354
11782.13,0.06885
11808.96,0.067837
11835.92,0.066825
11863.01,0.065895
11890.22,0.064486
11917.55,0.062612
11945.01,0.061127
11972.6,0.060226
12000.31,0.059097
12028.16,0.057522
12056.13,0.056142
12084.23,0.055376
12112.46,0.054986
12140.83,0.05317
12169.33,0.051118
12197.96,0.050079
12226.73,0.048999
12255.64,0.047052
12284.68,0.045278
12313.86,0.04446
12343.18,0.043633
12372.64,0.042379
12402.24,0.041214
12431.98,0.039845
12461.86,0.038466
12491.89,0.037467
12522.07,0.036276
12552.38,0.035272
12582.85,0.034593
12613.47,0.034076
12644.23,0.032951
12675.15,0.031761
12706.21,0.031039
12737.43,0.030482
12768.81,0.030123
12800.33,0.029641
12832.02,0.028867
12863.86,0.028196
12895.86,0.027847
12928.02,0.026897
12960.34,0.026261
12992.82,0.025996
13025.46,0.02618
13058.27,0.026316
13091.25,0.025921
13124.39,0.025342
13157.7,0.02508
13191.18,0.02555
13224.83,0.026325
13258.66,0.026684
13292.65,0.026133
13326.83,0.025898
13361.17,0.026251
13395.7,0.025925
13430.4,0.02541
13465.29,0.025729
13500.35,0.026498
13535.6,0.026323
13571.03,0.02665
13606.65,0.027024
13642.46,0.026694
13678.46,0.026297
13714.64,0.027111
13751.02,0.02744
13787.59,0.027246
13824.36,0.028041
13861.32,0.028473
13898.49,0.028864
13935.85,0.029469
13973.41,0.02975
14011.17,0.029431
14049.15,0.028819
14087.32,0.028283
14125.71,0.02842
14164.3,0.029193
14203.11,0.029356
14242.13,0.02888
14281.36,0.028134
14320.81,0.027239
14360.49,0.026967
14400.38,0.026312
14440.49,0.027046
14480.82,0.027556
14521.39,0.027402
14562.18,0.02795
14603.2,0.028363
14644.45,0.028575
14685.93,0.029325
14727.66,0.029648
14769.62,0.030591
14811.81,0.031469
14854.25,0.031786
14896.94,0.031838
14939.87,0.03184
14983.05,0.032314
15026.48,0.032979
15070.16,0.03353
15114.1,0.033352
15158.29,0.03379
15202.74,0.034419
15247.46,0.034976
15292.43,0.035195
15337.68,0.034976
15383.19,0.034989
15428.97,0.034928
15475.03,0.034972
15521.36,0.03527
15567.97,0.034908
15614.87,0.035469
15662.04,0.035103
15709.5,0.034258
15757.25,0.034679
15805.29,0.034552
15853.62,0.034123
15902.26,0.033891
15951.19,0.034628
16000.42,0.034887
16049.95,0.034999
16099.8,0.03618
16149.95,0.038571
16200.42,0.041348
16251.21,0.04365
16302.31,0.044841
16353.74,0.045933
16405.49,0.047706
16457.57,0.047733
16509.98,0.047143
16562.73,0.047933
16615.82,0.048274
16669.24,0.047859
16723.02,0.047297
16777.14,0.047211
16831.61,0.046489
16886.43,0.04541
16941.62,0.044911
16997.16,0.045305
17053.08,0.045065
17109.36,0.044152
17166.01,0.044234
17223.04,0.043844
17280.45,0.043391
17338.24,0.043458
17396.43,0.04266
17455.0,0.042921
17513.97,0.042828
17573.34,0.042236
17633.11,0.041491
17693.29,0.041432
17753.89,0.041456
17814.9,0.041491
17876.33,0.042129
17938.18,0.043632
18000.47,0.044426
18063.19,0.044873
18126.35,0.045281
18189.95,0.047044
18254.0,0.048875
18318.5,0.049905
18383.46,0.050272
18448.88,0.050792
18514.77,0.051528
18581.13,0.051682
18647.97,0.051641
18715.29,0.052137
18783.1,0.052189
18851.4,0.052422
18920.2,0.052196
18989.51,0.051903
19059.32,0.052016
19129.65,0.051633
19200.5,0.052332
19271.88,0.051163
19343.79,0.049013
19416.24,0.048218
19489.23,0.049707
19562.77,0.050995
19636.88,0.051769
19711.54,0.052412
19786.78,0.050915
19862.59,0.048342
19938.98,0.048085
20015.96,0.048632
20093.55,0.050477
20171.73,0.051287
20250.53,0.049585
20329.94,0.04995
20409.98,0.052137
20490.65,0.052111
20571.96,0.05127
20653.92,0.051012
20736.54,0.051881
20819.82,0.053689
20903.77,0.052999
20988.4,0.051894
21073.72,0.052126
21159.73,0.052201
21246.46,0.051671
21333.89,0.052728
21422.04,0.05532
21510.93,0.053432
21600.56,0.051178
21690.94,0.050803
21782.08,0.050134
21873.99,0.052349
21966.67,0.053884
22060.15,0.052571
22154.42,0.050644
22249.51,0.049089
22345.41,0.051309
22442.14,0.053979
22539.72,0.05281
22638.14,0.050451
22737.43,0.048997
22837.6,0.048394
22938.65,0.050423
23040.6,0.050367
23143.46,0.048279
23247.24,0.046937
23351.96,0.048838
23457.63,0.049692
23564.25,0.046779
23671.85,0.048073
23780.44,0.049695
23890.02,0.0487
24000.63,0.045137
24112.26,0.042571
24224.93,0.046064
24338.66,0.050037
24453.47,0.045861
24569.36,0.046239
24686.36,0.051263
24804.47,0.048658
24923.73,0.047326
25044.13,0.04781
25165.71,0.050763
25288.46,0.050757
25412.43,0.047188
25537.61,0.048702
25664.04,0.057521
25791.72,0.052662
25920.68,0.049074
