Database of Origin,University of Winnipeg Spectrophotometer Facility
Sample Description,8. Sulfates: RELAB + Nicolet spectra / Spectra all made consistently merged: Jan. / 10 / 2005
Date Added,2016-07-15 22:05:55.687075

Data ID,RPN_SUL_55          
Sample ID,SPT141
Mineral Name,Kieserite
Grain Size,<45
Viewing Geometry,30 / 0 | 30
Resolution,5 / 1.3-129
Material Class,Sulfate

Wavelength
305.0,0.035993
310.0,0.036005
315.0,0.037321
320.0,0.039477
325.0,0.041089
330.0,0.043437
335.0,0.046129
340.0,0.048656
345.0,0.052469
350.0,0.056632
355.0,0.062379
360.0,0.068859
365.0,0.075239
370.0,0.079372
375.0,0.083707
380.0,0.088216
385.0,0.095135
390.0,0.103541
395.0,0.114852
400.0,0.130654
405.0,0.145317
410.0,0.160239
415.0,0.174604
420.0,0.186255
425.0,0.19636
430.0,0.202641
435.0,0.210543
440.0,0.224828
445.0,0.241518
450.0,0.257706
455.0,0.272972
460.0,0.286285
465.0,0.297132
470.0,0.306659
475.0,0.315272
480.0,0.321495
485.0,0.32806
490.0,0.333122
495.0,0.33744
500.0,0.342387
505.0,0.346742
510.0,0.350362
515.0,0.353502
520.0,0.3571
525.0,0.359939
530.0,0.361841
535.0,0.364293
540.0,0.367639
545.0,0.369736
550.0,0.371862
555.0,0.373461
560.0,0.376619
565.0,0.37774
570.0,0.380172
575.0,0.382288
580.0,0.381797
585.0,0.383142
590.0,0.384317
595.0,0.385395
600.0,0.385704
605.0,0.38621
610.0,0.38404
615.0,0.384316
620.0,0.385051
625.0,0.384175
630.0,0.384218
635.0,0.385626
640.0,0.383222
645.0,0.382959
650.0,0.382434
655.0,0.382547
660.0,0.381055
665.0,0.380826
670.0,0.379264
675.0,0.377796
680.0,0.376658
685.0,0.374728
690.0,0.373835
695.0,0.372992
700.0,0.370429
705.0,0.370159
710.0,0.366595
715.0,0.363747
720.0,0.361161
725.0,0.359977
730.0,0.356984
735.0,0.354216
740.0,0.351497
745.0,0.347892
750.0,0.344853
755.0,0.3436
760.0,0.341217
765.0,0.337804
770.0,0.33557
775.0,0.331777
780.0,0.329359
785.0,0.327198
790.0,0.324405
795.0,0.321686
800.0,0.319233
805.0,0.316364
810.0,0.315866
815.0,0.312362
820.0,0.310591
825.0,0.309573
830.0,0.307163
835.0,0.304781
840.0,0.304205
845.0,0.302119
850.0,0.301509
855.0,0.300871
860.0,0.298926
865.0,0.298341
870.0,0.296679
875.0,0.296057
880.0,0.293639
885.0,0.294763
890.0,0.29319
895.0,0.292253
900.0,0.291536
905.0,0.292694
910.0,0.291279
915.0,0.291755
920.0,0.290845
925.0,0.29111
930.0,0.291534
935.0,0.291079
940.0,0.291132
945.0,0.290702
950.0,0.291702
955.0,0.29212
960.0,0.292571
965.0,0.291131
970.0,0.292099
975.0,0.292312
980.0,0.292823
985.0,0.293833
990.0,0.293792
995.0,0.294373
1000.0,0.295135
1005.0,0.296533
1010.0,0.296824
1015.0,0.297721
1020.0,0.297848
1025.0,0.297895
1030.0,0.30045
1035.0,0.30024
1040.0,0.300758
1045.0,0.301565
1050.0,0.302406
1055.0,0.302943
1060.0,0.303838
1065.0,0.305012
1070.0,0.306041
1075.0,0.306595
1080.0,0.307501
1085.0,0.308155
1090.0,0.309377
1095.0,0.309308
1100.0,0.310399
1105.0,0.313075
1110.0,0.312832
1115.0,0.315248
1120.0,0.315835
1125.0,0.317019
1130.0,0.318674
1135.0,0.318905
1140.0,0.32065
1145.0,0.320883
1150.0,0.322932
1155.0,0.323933
1160.0,0.324914
1165.0,0.326661
1170.0,0.327348
1175.0,0.32741
1180.0,0.329988
1185.0,0.330032
1190.0,0.33263
1195.0,0.333211
1200.0,0.333756
1205.0,0.337029
1210.0,0.337334
1215.0,0.338378
1220.0,0.341359
1225.0,0.341169
1230.0,0.342178
1235.0,0.343642
1240.0,0.343778
1245.0,0.346362
1250.0,0.347772
1255.0,0.349635
1260.0,0.35051
1265.0,0.35161
1270.0,0.35464
1275.0,0.355165
1280.0,0.355531
1285.0,0.358051
1290.0,0.359205
1295.0,0.360071
1300.0,0.361057
1305.0,0.362791
1310.0,0.363944
1315.0,0.364822
1320.0,0.366224
1325.0,0.367273
1330.0,0.368137
1335.0,0.370073
1340.0,0.3712
1345.0,0.371157
1350.0,0.371406
1355.0,0.372336
1360.0,0.372716
1365.0,0.374576
1370.0,0.375239
1375.0,0.376137
1380.0,0.376607
1385.0,0.376787
1390.0,0.377104
1395.0,0.375142
1400.0,0.37441
1405.0,0.372256
1410.0,0.369968
1415.0,0.367137
1420.0,0.363042
1425.0,0.361297
1430.0,0.357926
1435.0,0.355247
1440.0,0.352908
1445.0,0.348442
1450.0,0.344466
1455.0,0.341269
1460.0,0.338276
1465.0,0.337218
1470.0,0.339393
1475.0,0.342485
1480.0,0.345002
1485.0,0.347049
1490.0,0.350602
1495.0,0.351829
1500.0,0.353422
1505.0,0.354294
1510.0,0.357022
1515.0,0.358845
1520.0,0.359508
1525.0,0.359609
1530.0,0.360717
1535.0,0.362849
1540.0,0.363371
1545.0,0.366084
1550.0,0.367202
1555.0,0.369282
1560.0,0.373128
1565.0,0.374509
1570.0,0.377711
1575.0,0.379791
1580.0,0.380374
1585.0,0.381055
1590.0,0.382624
1595.0,0.384897
1600.0,0.385512
1605.0,0.384921
1610.0,0.385431
1615.0,0.386412
1620.0,0.386708
1625.0,0.387307
1630.0,0.38707
1635.0,0.387731
1640.0,0.388723
1645.0,0.389953
1650.0,0.390167
1655.0,0.391912
1660.0,0.390927
1665.0,0.391914
1670.0,0.392144
1675.0,0.391957
1680.0,0.393154
1685.0,0.393157
1690.0,0.393728
1695.0,0.393362
1700.0,0.392936
1705.0,0.393517
1710.0,0.394012
1715.0,0.393564
1720.0,0.392447
1725.0,0.39224
1730.0,0.391684
1735.0,0.392481
1740.0,0.391812
1745.0,0.390266
1750.0,0.390614
1755.0,0.38962
1760.0,0.390022
1765.0,0.389757
1770.0,0.390426
1775.0,0.38936
1780.0,0.390684
1785.0,0.390371
1790.0,0.391635
1795.0,0.391581
1800.0,0.391483
1805.0,0.393488
1810.0,0.394175
1815.0,0.394513
1820.0,0.395127
1825.0,0.395873
1830.0,0.396756
1835.0,0.397713
1840.0,0.397915
1845.0,0.398438
1850.0,0.398789
1855.0,0.397961
1860.0,0.395674
1865.0,0.394433
1870.0,0.391759
1875.0,0.386923
1880.0,0.380799
1885.0,0.373792
1890.0,0.364544
1895.0,0.353224
1900.0,0.335545
1905.0,0.320749
1910.0,0.307577
1915.0,0.293987
1920.0,0.2835
1925.0,0.274156
1930.0,0.266775
1935.0,0.260414
1940.0,0.252636
1945.0,0.247864
1950.0,0.241467
1955.0,0.235831
1960.0,0.229924
1965.0,0.223206
1970.0,0.219809
1975.0,0.217948
1980.0,0.217863
1985.0,0.219905
1990.0,0.225823
1995.0,0.234849
2000.0,0.244048
2005.0,0.24981
2010.0,0.256016
2015.0,0.261194
2020.0,0.265292
2025.0,0.269101
2030.0,0.270687
2035.0,0.271512
2040.0,0.271408
2045.0,0.268928
2050.0,0.269181
2055.0,0.267923
2060.0,0.267201
2065.0,0.26936
2070.0,0.269683
2075.0,0.269847
2080.0,0.269888
2085.0,0.271697
2090.0,0.271686
2095.0,0.271105
2100.0,0.273051
2105.0,0.273079
2110.0,0.27335
2115.0,0.273478
2120.0,0.273531
2125.0,0.272589
2130.0,0.272469
2135.0,0.27253
2140.0,0.274613
2145.0,0.278657
2150.0,0.28656
2155.0,0.294489
2160.0,0.305998
2165.0,0.313163
2170.0,0.3204
2175.0,0.326014
2180.0,0.330182
2185.0,0.333683
2190.0,0.337051
2195.0,0.338084
2200.0,0.340009
2205.0,0.340241
2210.0,0.340267
2215.0,0.341133
2220.0,0.341418
2225.0,0.340065
2230.0,0.341027
2235.0,0.341663
2240.0,0.340753
2245.0,0.342454
2250.0,0.342185
2255.0,0.342778
2260.0,0.342094
2265.0,0.342075
2270.0,0.341763
2275.0,0.34163
2280.0,0.340103
2285.0,0.339874
2290.0,0.338555
2295.0,0.338764
2300.0,0.33707
2305.0,0.337019
2310.0,0.335991
2315.0,0.334893
2320.0,0.333954
2325.0,0.330727
2330.0,0.330499
2335.0,0.327371
2340.0,0.324036
2345.0,0.321614
2350.0,0.315097
2355.0,0.311263
2360.0,0.307463
2365.0,0.301731
2370.0,0.296238
2375.0,0.289194
2380.0,0.282128
2385.0,0.273811
2390.0,0.266419
2395.0,0.258996
2400.0,0.251562
2405.0,0.2501
2410.0,0.249666
2415.0,0.249895
2420.0,0.251098
2425.0,0.249445
2430.0,0.247447
2435.0,0.24443
2440.0,0.24112
2445.0,0.237623
2450.0,0.234136
2455.0,0.23225
2460.0,0.229948
2465.0,0.227134
2470.0,0.225057
2475.0,0.223795
2480.0,0.222041
2485.0,0.22142
2490.0,0.219333
2495.0,0.217914
2500.0,0.215769
2505.0,0.213779
2510.0,0.212094
2515.0,0.211552
2520.0,0.210605
2525.0,0.210038
2530.0,0.209811
2535.0,0.209239
2540.0,0.208686
2545.0,0.208598
2550.0,0.207027
2555.0,0.206389
2560.0,0.205217
2565.13,0.203288
2570.22,0.203638
2575.33,0.204202
2580.46,0.203917
2581.74,0.203168
2583.03,0.202806
2584.31,0.202906
2585.6,0.203457
2586.89,0.202755
2588.19,0.202655
2589.48,0.202746
2590.77,0.202383
2592.07,0.202221
2593.36,0.201662
2594.66,0.201389
2595.96,0.201362
2597.26,0.201326
2598.56,0.201868
2599.87,0.202167
2601.17,0.201853
2602.48,0.201627
2603.78,0.201024
2605.09,0.200076
2606.4,0.20011
2607.71,0.200086
2609.03,0.199513
2610.34,0.199068
2611.66,0.199038
2612.97,0.198636
2614.29,0.198759
2615.61,0.198906
2616.93,0.19823
2618.25,0.198271
2619.57,0.198375
2620.9,0.198226
2622.22,0.197554
2623.55,0.196508
2624.88,0.196197
2626.21,0.195839
2627.54,0.195645
2628.87,0.195659
2630.21,0.195097
2631.54,0.19531
2632.88,0.195226
2634.21,0.194589
2635.55,0.194595
2636.89,0.194143
2638.24,0.193616
2639.58,0.19361
2640.92,0.193539
2642.27,0.193319
2643.62,0.193291
2644.97,0.19309
2646.32,0.192665
2647.67,0.192457
2649.02,0.192038
2650.38,0.191624
2651.73,0.1913
2653.09,0.191069
2654.45,0.191468
2655.81,0.191329
2657.17,0.190989
2658.53,0.190778
2659.89,0.190541
2661.26,0.190344
2662.63,0.190457
2664.0,0.189651
2665.36,0.188935
2666.74,0.18926
2668.11,0.18925
2669.48,0.188846
2670.86,0.188002
2672.23,0.187584
2673.61,0.186602
2674.99,0.185772
2676.37,0.185142
2677.76,0.184768
2679.14,0.184624
2680.52,0.184338
2681.91,0.183872
2683.3,0.182317
2684.69,0.18112
2686.08,0.180011
2687.47,0.179078
2688.87,0.178242
2690.26,0.177319
2691.66,0.176258
2693.06,0.175487
2694.46,0.174624
2695.86,0.172935
2697.26,0.170974
2698.66,0.169609
2700.07,0.16814
2701.48,0.166948
2702.89,0.165343
2704.3,0.163625
2705.71,0.161971
2707.12,0.159979
2708.53,0.157867
2709.95,0.155737
2711.37,0.153788
2712.79,0.152264
2714.21,0.150617
2715.63,0.148798
2717.05,0.146663
2718.48,0.144533
2719.9,0.142623
2721.33,0.140944
2722.76,0.138468
2724.19,0.135896
2725.62,0.133925
2727.06,0.132084
2728.49,0.129216
2729.93,0.126278
2731.37,0.12379
2732.81,0.121221
2734.25,0.118789
2735.69,0.116003
2737.14,0.113016
2738.58,0.110048
2740.03,0.107191
2741.48,0.104707
2742.93,0.102333
2744.38,0.099857
2745.83,0.096936
2747.29,0.093893
2748.75,0.091369
2750.2,0.088995
2751.66,0.086338
2753.13,0.08395
2754.59,0.081646
2756.05,0.079214
2757.52,0.076911
2758.99,0.074687
2760.46,0.07207
2761.93,0.06953
2763.4,0.06748
2764.87,0.065716
2766.35,0.06373
2767.82,0.061531
2769.3,0.059374
2770.78,0.057621
2772.26,0.056598
2773.75,0.055289
2775.23,0.053576
2776.72,0.052211
2778.21,0.050704
2779.7,0.04954
2781.19,0.048502
2782.68,0.047454
2784.18,0.046289
2785.67,0.045241
2787.17,0.043946
2788.67,0.042389
2790.17,0.041332
2791.67,0.040759
2793.18,0.040196
2794.68,0.039236
2796.19,0.038435
2797.7,0.037648
2799.21,0.036792
2800.72,0.035999
2802.24,0.035534
2803.75,0.034956
2805.27,0.034379
2806.79,0.033988
2808.31,0.033321
2809.83,0.032669
2811.35,0.031568
2812.88,0.030904
2814.41,0.030389
2815.93,0.029967
2817.46,0.029591
2819.0,0.029212
2820.53,0.028841
2822.07,0.028063
2823.6,0.027565
2825.14,0.02696
2826.68,0.026473
2828.22,0.026385
2829.77,0.026039
2831.31,0.025396
2832.86,0.024717
2834.41,0.024231
2835.96,0.024029
2837.51,0.023122
2839.07,0.022788
2840.62,0.023371
2842.18,0.023475
2843.74,0.022766
2845.3,0.022197
2846.86,0.022136
2848.43,0.022121
2849.99,0.02171
2851.56,0.021629
2853.13,0.02104
2854.7,0.020515
2856.27,0.02063
2857.85,0.020499
2859.42,0.02021
2861.0,0.019919
2862.58,0.0192
2864.16,0.01884
2865.75,0.018947
2867.33,0.019159
2868.92,0.01928
2870.51,0.01912
2872.1,0.018864
2873.69,0.018575
2875.28,0.018574
2876.88,0.018289
2878.48,0.018165
2880.07,0.017814
2881.68,0.017359
2883.28,0.016997
2884.88,0.016781
2886.49,0.017374
2888.1,0.017599
2889.71,0.017064
2891.32,0.016651
2892.93,0.016777
2894.55,0.016936
2896.16,0.01713
2897.78,0.017235
2899.4,0.017118
2901.03,0.017085
2902.65,0.017141
2904.28,0.016922
2905.91,0.016503
2907.54,0.016153
2909.17,0.016356
2910.8,0.016476
2912.44,0.016668
2914.07,0.016672
2915.71,0.016735
2917.35,0.016715
2918.99,0.01683
2920.64,0.016613
2922.29,0.016649
2923.93,0.016744
2925.58,0.016365
2927.24,0.016522
2928.89,0.016821
2930.55,0.016501
2932.2,0.016309
2933.86,0.016597
2935.52,0.016844
2937.19,0.016834
2938.85,0.016825
2940.52,0.016733
2942.19,0.016435
2943.86,0.016149
2945.53,0.016379
2947.21,0.016877
2948.88,0.016842
2950.56,0.016735
2952.24,0.017014
2953.92,0.017203
2955.61,0.016665
2957.29,0.016453
2958.98,0.016611
2960.67,0.016464
2962.36,0.016638
2964.06,0.016777
2965.75,0.016789
2967.45,0.016758
2969.15,0.016839
2970.85,0.0167
2972.55,0.016746
2974.26,0.016863
2975.97,0.017068
2977.68,0.017017
2979.39,0.016719
2981.1,0.016797
2982.82,0.016813
2984.53,0.016729
2986.25,0.016771
2987.97,0.017018
2989.7,0.017127
2991.42,0.016779
2993.15,0.016575
2994.88,0.016936
2996.61,0.016959
2998.34,0.016737
3000.08,0.017031
3001.82,0.017431
3003.55,0.017388
3005.3,0.016919
3007.04,0.017187
3008.78,0.017377
3010.53,0.017141
3012.28,0.017167
3014.03,0.017117
3015.79,0.016914
3017.54,0.017253
3019.3,0.017559
3021.06,0.017293
3022.82,0.017249
3024.58,0.017466
3026.35,0.017663
3028.12,0.017441
3029.89,0.017681
3031.66,0.017458
3033.43,0.017172
3035.21,0.01732
3036.99,0.01711
3038.77,0.017088
3040.55,0.017084
3042.33,0.017144
3044.12,0.017591
3045.91,0.017885
3047.7,0.017748
3049.49,0.017699
3051.29,0.017506
3053.08,0.017169
3054.88,0.017166
3056.68,0.016919
3058.49,0.016922
3060.29,0.017386
3062.1,0.017683
3063.91,0.017434
3065.72,0.017099
3067.54,0.017332
3069.35,0.017861
3071.17,0.017674
3072.99,0.017336
3074.81,0.017453
3076.64,0.017377
3078.47,0.017077
3080.29,0.016947
3082.13,0.017069
3083.96,0.017321
3085.79,0.017373
3087.63,0.01733
3089.47,0.017232
3091.31,0.017581
3093.16,0.017776
3095.01,0.01755
3096.85,0.017475
3098.71,0.017733
3100.56,0.017862
3102.41,0.017734
3104.27,0.017804
3106.13,0.018087
3107.99,0.018114
3109.86,0.018076
3111.73,0.018235
3113.59,0.018346
3115.47,0.018499
3117.34,0.018376
3119.21,0.018259
3121.09,0.018379
3122.97,0.018434
3124.86,0.01847
3126.74,0.018304
3128.63,0.018452
3130.52,0.01884
3132.41,0.018853
3134.3,0.018977
3136.2,0.019036
3138.1,0.019112
3140.0,0.019351
3141.9,0.019524
3143.81,0.019495
3145.71,0.019334
3147.62,0.019313
3149.54,0.01954
3151.45,0.020022
3153.37,0.020161
3155.29,0.020091
3157.21,0.020239
3159.13,0.020484
3161.06,0.020624
3162.99,0.020788
3164.92,0.021051
3166.85,0.021131
3168.79,0.021428
3170.72,0.021819
3172.67,0.021936
3174.61,0.022057
3176.55,0.022385
3178.5,0.022797
3180.45,0.023047
3182.4,0.023066
3184.36,0.023274
3186.32,0.02366
3188.27,0.023731
3190.24,0.023827
3192.2,0.024154
3194.17,0.024546
3196.14,0.024979
3198.11,0.02521
3200.08,0.025242
3202.06,0.025337
3204.04,0.02553
3206.02,0.026066
3208.0,0.0264
3209.99,0.026264
3211.98,0.026431
3213.97,0.026686
3215.96,0.027156
3217.96,0.027611
3219.96,0.027862
3221.96,0.027927
3223.96,0.027918
3225.97,0.02825
3227.98,0.028609
3229.99,0.028802
3232.0,0.028828
3234.02,0.028925
3236.04,0.029231
3238.06,0.029569
3240.08,0.029983
3242.11,0.030506
3244.14,0.030624
3246.17,0.030909
3248.2,0.031224
3250.24,0.031332
3252.28,0.031341
3254.32,0.031528
3256.37,0.031874
3258.41,0.032179
3260.46,0.032438
3262.51,0.032363
3264.57,0.032411
3266.63,0.032967
3268.69,0.033402
3270.75,0.033719
3272.81,0.034181
3274.88,0.034596
3276.95,0.034771
3279.02,0.034823
3281.1,0.034846
3283.18,0.035097
3285.26,0.035541
3287.34,0.035947
3289.43,0.036032
3291.51,0.036179
3293.61,0.036588
3295.7,0.036814
3297.8,0.03712
3299.9,0.037201
3302.0,0.037242
3304.1,0.037577
3306.21,0.037808
3308.32,0.037828
3310.43,0.038154
3312.55,0.038471
3314.66,0.038867
3316.79,0.039318
3318.91,0.039585
3321.03,0.039903
3323.16,0.040238
3325.29,0.04052
3327.43,0.040617
3329.57,0.040829
3331.71,0.0414
3333.85,0.04162
3335.99,0.041413
3338.14,0.041457
3340.29,0.042069
3342.45,0.042513
3344.6,0.042701
3346.76,0.042899
3348.92,0.043323
3351.09,0.043779
3353.26,0.044209
3355.43,0.044628
3357.6,0.044687
3359.78,0.045049
3361.96,0.045476
3364.14,0.045644
3366.32,0.045858
3368.51,0.046268
3370.7,0.046646
3372.89,0.04709
3375.09,0.047503
3377.29,0.048245
3379.49,0.048777
3381.69,0.049131
3383.9,0.049599
3386.11,0.049849
3388.32,0.050166
3390.54,0.05087
3392.76,0.051602
3394.98,0.052136
3397.21,0.052678
3399.43,0.053378
3401.66,0.053811
3403.9,0.054394
3406.13,0.055056
3408.37,0.055757
3410.61,0.056269
3412.86,0.056867
3415.11,0.057506
3417.36,0.058247
3419.61,0.05872
3421.87,0.05922
3424.13,0.059767
3426.39,0.060685
3428.66,0.061477
3430.93,0.062157
3433.2,0.063173
3435.48,0.063863
3437.76,0.064419
3440.04,0.064908
3442.32,0.065301
3444.61,0.066245
3446.9,0.06719
3449.19,0.067793
3451.49,0.068257
3453.79,0.068842
3456.09,0.06944
3458.4,0.070183
3460.7,0.071009
3463.02,0.071422
3465.33,0.071808
3467.65,0.072568
3469.97,0.073484
3472.29,0.074159
3474.62,0.074548
3476.95,0.075152
3479.29,0.075895
3481.62,0.076556
3483.96,0.077166
3486.3,0.077843
3488.65,0.078497
3491.0,0.079026
3493.35,0.079628
3495.71,0.080219
3498.07,0.080956
3500.43,0.081711
3502.79,0.082139
3505.16,0.082617
3507.53,0.083371
3509.91,0.084147
3512.29,0.084517
3514.67,0.084943
3517.05,0.085394
3519.44,0.085894
3521.83,0.086744
3524.23,0.087238
3526.62,0.087725
3529.02,0.088509
3531.43,0.089219
3533.83,0.090033
3536.24,0.090657
3538.66,0.09119
3541.08,0.091724
3543.5,0.092511
3545.92,0.093358
3548.35,0.094181
3550.78,0.094872
3553.21,0.095255
3555.65,0.095914
3558.09,0.096789
3560.53,0.09724
3562.98,0.098032
3565.43,0.099016
3567.88,0.099873
3570.34,0.1008
3572.8,0.101381
3575.27,0.101771
3577.73,0.102547
3580.2,0.103468
3582.68,0.104076
3585.16,0.104725
3587.64,0.105508
3590.12,0.106169
3592.61,0.106888
3595.1,0.107759
3597.6,0.108596
3600.09,0.109189
3602.6,0.110018
3605.1,0.110624
3607.61,0.111112
3610.12,0.112036
3612.64,0.112871
3615.16,0.113556
3617.68,0.114543
3620.21,0.11545
3622.74,0.116091
3625.27,0.116896
3627.81,0.117674
3630.35,0.118227
3632.89,0.118817
3635.44,0.119808
3637.99,0.120767
3640.54,0.121526
3643.1,0.122322
3645.66,0.123101
3648.23,0.124015
3650.8,0.124709
3653.37,0.125475
3655.95,0.126468
3658.53,0.12735
3661.11,0.128132
3663.7,0.129194
3666.29,0.130374
3668.89,0.131263
3671.48,0.132052
3674.09,0.133056
3676.69,0.133886
3679.3,0.13487
3681.91,0.135696
3684.53,0.136418
3687.15,0.137114
3689.78,0.13794
3692.4,0.138771
3695.04,0.139661
3697.67,0.140585
3700.31,0.141234
3702.95,0.142141
3705.6,0.143055
3708.25,0.143741
3710.91,0.144616
3713.56,0.1454
3716.23,0.146095
3718.89,0.146678
3721.56,0.147517
3724.23,0.148525
3726.91,0.149292
3729.59,0.149948
3732.28,0.150616
3734.97,0.151467
3737.66,0.152172
3740.36,0.152735
3743.06,0.15334
3745.76,0.15381
3748.47,0.154408
3751.18,0.155181
3753.9,0.15589
3756.62,0.156716
3759.34,0.157437
3762.07,0.157883
3764.8,0.158318
3767.54,0.158876
3770.28,0.159523
3773.02,0.160401
3775.77,0.160972
3778.52,0.16122
3781.28,0.161735
3784.04,0.16232
3786.8,0.162927
3789.57,0.163583
3792.34,0.164021
3795.12,0.164581
3797.9,0.165415
3800.69,0.165914
3803.47,0.16642
3806.27,0.167305
3809.06,0.168223
3811.86,0.169047
3814.67,0.170117
3817.48,0.171109
3820.29,0.172158
3823.11,0.17317
3825.93,0.174071
3828.76,0.174901
3831.59,0.175998
3834.42,0.177002
3837.26,0.177887
3840.1,0.178952
3842.95,0.180157
3845.8,0.18097
3848.65,0.181649
3851.51,0.182498
3854.38,0.183434
3857.24,0.184437
3860.12,0.185309
3862.99,0.185918
3865.87,0.186712
3868.76,0.187268
3871.65,0.187746
3874.54,0.188271
3877.44,0.188731
3880.34,0.189223
3883.25,0.189982
3886.16,0.190575
3889.07,0.191177
3891.99,0.191761
3894.92,0.192387
3897.85,0.192765
3900.78,0.193119
3903.72,0.193609
3906.66,0.193802
3909.6,0.194063
3912.55,0.194323
3915.51,0.194475
3918.47,0.194808
3921.43,0.194797
3924.4,0.194796
3927.38,0.195166
3930.35,0.19547
3933.33,0.195806
3936.32,0.195937
3939.31,0.19585
3942.31,0.195908
3945.31,0.195992
3948.31,0.196142
3951.32,0.196465
3954.34,0.196845
3957.35,0.196954
3960.38,0.197173
3963.41,0.197475
3966.44,0.197889
3969.48,0.198194
3972.52,0.198605
3975.56,0.199305
3978.61,0.199637
3981.67,0.199871
3984.73,0.200398
3987.8,0.200659
3990.87,0.201029
3993.94,0.201482
3997.02,0.201805
4000.1,0.202108
4003.19,0.202418
4006.29,0.202607
4009.39,0.202751
4012.49,0.203061
4015.6,0.20329
4018.71,0.203424
4021.83,0.203583
4024.95,0.203607
4028.08,0.203806
4031.21,0.203595
4034.35,0.203398
4037.49,0.203655
4040.64,0.203675
4043.79,0.203519
4046.94,0.203524
4050.11,0.203325
4053.27,0.20303
4056.44,0.202816
4059.62,0.202671
4062.8,0.202434
4065.99,0.202256
4069.18,0.201963
4072.38,0.201774
4075.58,0.201491
4078.78,0.201096
4082.0,0.200582
4085.21,0.200034
4088.43,0.199586
4091.66,0.198962
4094.89,0.198087
4098.13,0.197388
4101.37,0.196758
4104.62,0.195752
4107.87,0.194789
4111.13,0.193863
4114.39,0.193279
4117.66,0.192891
4120.93,0.192348
4124.21,0.191725
4127.5,0.191259
4130.79,0.190885
4134.08,0.190423
4137.38,0.189784
4140.68,0.189249
4143.99,0.188719
4147.31,0.188094
4150.63,0.187408
4153.95,0.186489
4157.29,0.185578
4160.62,0.184757
4163.96,0.183721
4167.31,0.182549
4170.66,0.181445
4174.02,0.180287
4177.39,0.179116
4180.75,0.177729
4184.13,0.176448
4187.51,0.175133
4190.89,0.173987
4194.28,0.172865
4197.68,0.171566
4201.08,0.170226
4204.49,0.169246
4207.9,0.167952
4211.32,0.166419
4214.74,0.164979
4218.17,0.163645
4221.61,0.162165
4225.05,0.160766
4228.5,0.159603
4231.95,0.158481
4235.4,0.157354
4238.87,0.156435
4242.34,0.155686
4245.81,0.154966
4249.29,0.154277
4252.78,0.153823
4256.27,0.153349
4259.77,0.152648
4263.27,0.151624
4266.78,0.150731
4270.29,0.14982
4273.81,0.148995
4277.34,0.147935
4280.87,0.146908
4284.41,0.146026
4287.95,0.144984
4291.5,0.144025
4295.06,0.142877
4298.62,0.141524
4302.19,0.140236
4305.76,0.139162
4309.34,0.138087
4312.92,0.136591
4316.52,0.135162
4320.11,0.13363
4323.72,0.132248
4327.32,0.131189
4330.94,0.13005
4334.56,0.12868
4338.19,0.127303
4341.82,0.126081
4345.46,0.124943
4349.11,0.123897
4352.76,0.122897
4356.42,0.12149
4360.08,0.120094
4363.75,0.118925
4367.43,0.117662
4371.11,0.116237
4374.8,0.114875
4378.49,0.113694
4382.19,0.1126
4385.9,0.111544
4389.61,0.110705
4393.33,0.109743
4397.06,0.108762
4400.79,0.107863
4404.53,0.107134
4408.28,0.106707
4412.03,0.106411
4415.79,0.105955
4419.55,0.105638
4423.32,0.105567
4427.1,0.105447
4430.88,0.105244
4434.68,0.105088
4438.47,0.104976
4442.28,0.104905
4446.08,0.104673
4449.9,0.104507
4453.72,0.104295
4457.55,0.104169
4461.39,0.104103
4465.23,0.103662
4469.08,0.103285
4472.94,0.10321
4476.8,0.102952
4480.67,0.102794
4484.55,0.102761
4488.43,0.102656
4492.32,0.102642
4496.21,0.102778
4500.12,0.102715
4504.03,0.102609
4507.94,0.10254
4511.87,0.102548
4515.8,0.102372
4519.73,0.102094
4523.68,0.101799
4527.63,0.101474
4531.59,0.101236
4535.55,0.101203
4539.52,0.101307
4543.5,0.101272
4547.49,0.101379
4551.48,0.101617
4555.48,0.101913
4559.49,0.102165
4563.5,0.102406
4567.52,0.102729
4571.55,0.103192
4575.58,0.103648
4579.63,0.104057
4583.67,0.104673
4587.73,0.105501
4591.79,0.106178
4595.86,0.106951
4599.94,0.107874
4604.03,0.10885
4608.12,0.109891
4612.22,0.110447
4616.33,0.110836
4620.44,0.11115
4624.56,0.111161
4628.69,0.11117
4632.83,0.1112
4636.97,0.111149
4641.12,0.111262
4645.28,0.111319
4649.45,0.111217
4653.62,0.111131
4657.8,0.110896
4661.99,0.110564
4666.19,0.110458
4670.39,0.110348
4674.6,0.110183
4678.82,0.110353
4683.05,0.110854
4687.28,0.111378
4691.52,0.112084
4695.77,0.112791
4700.03,0.113476
4704.3,0.11444
4708.57,0.115391
4712.85,0.11603
4717.14,0.116392
4721.43,0.116386
4725.74,0.116354
4730.05,0.116253
4734.37,0.116073
4738.7,0.116215
4743.03,0.116289
4747.38,0.116177
4751.73,0.115934
4756.09,0.115688
4760.45,0.115551
4764.83,0.115433
4769.21,0.115345
4773.6,0.11504
4778.0,0.114777
4782.41,0.114588
4786.83,0.114393
4791.25,0.11415
4795.68,0.11399
4800.13,0.113674
4804.57,0.113419
4809.03,0.113362
4813.5,0.113323
4817.97,0.113546
4822.45,0.113982
4826.94,0.11457
4831.44,0.115177
4835.95,0.115926
4840.46,0.11678
4844.99,0.117552
4849.52,0.118346
4854.06,0.119469
4858.61,0.120608
4863.17,0.12154
4867.73,0.122467
4872.31,0.123489
4876.89,0.124695
4881.48,0.12593
4886.08,0.127094
4890.69,0.128186
4895.31,0.129306
4899.94,0.130308
4904.57,0.131263
4909.22,0.132183
4913.87,0.133113
4918.53,0.134015
4923.21,0.135049
4927.88,0.136223
4932.57,0.137406
4937.27,0.138354
4941.98,0.139359
4946.69,0.140458
4951.42,0.141546
4956.15,0.142745
4960.9,0.143972
4965.65,0.145199
4970.41,0.14668
4975.18,0.148191
4979.96,0.149693
4984.75,0.151289
4989.54,0.152953
4994.35,0.154583
4999.17,0.15628
5003.99,0.157928
5008.83,0.15948
5013.67,0.160838
5018.52,0.162103
5023.39,0.1634
5028.26,0.164629
5033.14,0.165657
5038.03,0.166471
5042.93,0.167064
5047.84,0.16772
5052.76,0.168369
5057.69,0.168786
5062.63,0.168948
5067.58,0.169334
5072.54,0.169606
5077.51,0.16983
5082.49,0.170201
5087.47,0.170384
5092.47,0.170383
5097.48,0.170565
5102.5,0.170777
5107.52,0.170984
5112.56,0.171049
5117.61,0.171201
5122.66,0.171314
5127.73,0.17153
5132.81,0.171822
5137.89,0.17219
5142.99,0.172422
5148.1,0.172533
5153.22,0.172771
5158.34,0.173197
5163.48,0.173468
5168.63,0.173658
5173.79,0.173719
5178.96,0.173702
5184.13,0.173771
5189.32,0.173788
5194.52,0.173553
5199.73,0.173433
5204.96,0.173318
5210.19,0.173038
5215.43,0.172797
5220.68,0.172627
5225.94,0.172182
5231.22,0.171714
5236.5,0.171162
5241.79,0.170768
5247.1,0.17022
5252.42,0.169764
5257.74,0.169363
5263.08,0.168705
5268.43,0.168051
5273.79,0.16774
5279.16,0.167174
5284.54,0.166361
5289.93,0.165563
5295.34,0.164686
5300.75,0.163716
5306.18,0.162501
5311.61,0.161028
5317.06,0.159657
5322.52,0.158304
5327.99,0.156649
5333.47,0.154961
5338.96,0.153471
5344.47,0.152066
5349.98,0.150508
5355.51,0.148893
5361.05,0.147638
5366.6,0.146358
5372.16,0.145149
5377.73,0.14413
5383.32,0.143273
5388.91,0.14236
5394.52,0.141614
5400.14,0.140969
5405.77,0.140198
5411.41,0.139374
5417.07,0.138964
5422.74,0.138789
5428.41,0.138597
5434.1,0.138441
5439.81,0.138511
5445.52,0.138819
5451.25,0.139205
5456.98,0.139765
5462.73,0.140412
5468.5,0.141098
5474.27,0.141926
5480.06,0.142546
5485.86,0.143249
5491.67,0.143921
5497.49,0.144284
5503.33,0.144521
5509.18,0.144885
5515.04,0.145009
5520.91,0.144942
5526.8,0.14479
5532.69,0.144574
5538.61,0.144338
5544.53,0.144006
5550.47,0.143483
5556.41,0.142986
5562.38,0.14237
5568.35,0.141671
5574.34,0.140848
5580.34,0.140206
5586.35,0.139544
5592.38,0.13862
5598.42,0.137497
5604.47,0.136372
5610.54,0.135205
5616.61,0.134199
5622.71,0.133124
5628.81,0.13199
5634.93,0.130725
5641.06,0.12944
5647.21,0.128184
5653.36,0.126612
5659.54,0.12492
5665.72,0.123253
5671.92,0.121207
5678.13,0.119087
5684.36,0.116997
5690.6,0.114926
5696.85,0.112601
5703.12,0.110221
5709.4,0.107954
5715.69,0.105804
5722.0,0.103672
5728.33,0.101604
5734.66,0.099757
5741.01,0.098374
5747.38,0.096916
5753.76,0.095618
5760.15,0.094688
5766.56,0.093942
5772.98,0.093471
5779.41,0.093125
5785.86,0.092928
5792.33,0.093162
5798.81,0.093486
5805.3,0.093786
5811.81,0.094131
5818.33,0.094577
5824.87,0.09501
5831.42,0.095151
5837.99,0.095157
5844.57,0.095221
5851.17,0.095025
5857.78,0.094719
5864.41,0.094451
5871.05,0.093917
5877.7,0.093042
5884.38,0.092299
5891.06,0.091529
5897.76,0.090464
5904.48,0.089298
5911.21,0.087945
5917.96,0.086519
5924.73,0.085051
5931.5,0.083559
5938.3,0.082229
5945.11,0.08065
5951.93,0.078975
5958.78,0.077107
5965.63,0.075145
5972.51,0.073194
5979.39,0.070872
5986.3,0.068241
5993.22,0.065139
6000.16,0.061247
6007.11,0.057128
6014.08,0.052252
6021.06,0.046879
6028.06,0.041915
6035.08,0.038047
6042.12,0.035349
6049.17,0.033883
6056.23,0.03344
6063.32,0.033783
6070.42,0.034206
6077.53,0.034684
6084.67,0.034731
6091.82,0.034633
6098.98,0.034627
6106.17,0.034601
6113.37,0.034592
6120.58,0.034537
6127.82,0.034336
6135.07,0.034275
6142.34,0.034113
6149.63,0.033888
6156.93,0.033762
6164.25,0.034172
6171.59,0.035643
6178.95,0.037817
6186.32,0.0409
6193.71,0.045347
6201.12,0.049902
6208.54,0.054132
6215.99,0.058404
6223.45,0.062414
6230.93,0.065853
6238.43,0.068848
6245.95,0.071506
6253.48,0.073793
6261.03,0.075567
6268.6,0.077073
6276.19,0.078286
6283.8,0.079042
6291.43,0.079508
6299.07,0.079822
6306.73,0.080015
6314.42,0.080142
6322.12,0.079986
6329.84,0.079889
6337.57,0.079901
6345.33,0.079826
6353.11,0.079756
6360.9,0.079627
6368.72,0.079378
6376.55,0.079002
6384.4,0.078516
6392.27,0.077906
6400.17,0.077177
6408.08,0.076394
6416.01,0.075398
6423.96,0.074299
6431.93,0.072927
6439.92,0.071487
6447.93,0.070098
6455.96,0.068572
6464.01,0.066984
6472.08,0.065398
6480.17,0.063915
6488.28,0.062515
6496.41,0.060972
6504.56,0.05931
6512.73,0.057744
6520.92,0.056098
6529.14,0.054462
6537.37,0.053051
6545.63,0.051715
6553.9,0.050519
6562.2,0.04974
6570.51,0.049353
6578.85,0.049213
6587.21,0.049485
6595.59,0.050116
6603.99,0.051123
6612.42,0.052802
6620.86,0.054827
6629.33,0.056814
6637.82,0.05915
6646.33,0.061934
6654.86,0.064452
6663.41,0.066872
6671.99,0.069423
6680.59,0.072023
6689.21,0.074232
6697.85,0.076171
6706.51,0.078128
6715.2,0.080069
6723.91,0.081884
6732.64,0.083747
6741.4,0.085354
6750.18,0.086762
6758.98,0.088276
6767.8,0.089684
6776.65,0.091264
6785.52,0.092639
6794.41,0.093877
6803.33,0.095333
6812.27,0.096581
6821.23,0.097754
6830.22,0.099003
6839.23,0.100232
6848.26,0.101112
6857.32,0.10195
6866.4,0.103065
6875.51,0.10427
6884.64,0.105078
6893.8,0.105826
6902.98,0.106491
6912.18,0.10727
6921.41,0.108087
6930.66,0.108504
6939.94,0.108851
6949.24,0.109221
6958.57,0.10948
6967.92,0.10961
6977.3,0.109453
6986.7,0.10953
6996.13,0.109747
7005.59,0.109895
7015.07,0.109787
7024.57,0.109774
7034.1,0.109743
7043.66,0.109725
7053.25,0.109822
7062.85,0.109655
7072.49,0.109443
7082.15,0.109433
7091.84,0.109527
7101.55,0.109574
7111.3,0.109453
7121.06,0.109392
7130.86,0.109638
7140.68,0.109919
7150.53,0.109923
7160.41,0.109746
7170.31,0.109521
7180.24,0.109434
7190.2,0.109199
7200.19,0.108971
7210.2,0.109006
7220.24,0.108997
7230.31,0.108716
7240.41,0.108482
7250.54,0.108222
7260.69,0.108024
7270.88,0.107623
7281.09,0.107201
7291.33,0.106851
7301.6,0.106451
7311.9,0.106027
7322.22,0.105313
7332.58,0.104531
7342.97,0.10388
7353.38,0.103084
7363.83,0.102423
7374.3,0.102002
7384.81,0.101532
7395.34,0.100917
7405.91,0.100337
7416.5,0.099853
7427.13,0.099346
7437.78,0.09861
7448.47,0.097928
7459.19,0.097369
7469.94,0.096834
7480.71,0.096536
7491.52,0.096204
7502.37,0.095632
7513.24,0.095117
7524.14,0.094605
7535.08,0.094065
7546.05,0.093496
7557.05,0.092969
7568.08,0.092408
7579.15,0.091752
7590.24,0.091014
7601.37,0.090488
7612.53,0.090172
7623.73,0.089657
7634.96,0.089042
7646.22,0.088737
7657.51,0.088718
7668.84,0.08863
7680.2,0.088388
7691.59,0.088423
7703.02,0.088532
7714.49,0.088588
7725.98,0.088895
7737.52,0.08907
7749.08,0.088822
7760.68,0.088376
7772.32,0.088024
7783.99,0.087558
7795.69,0.087105
7807.43,0.086784
7819.21,0.086463
7831.02,0.086374
7842.87,0.086724
7854.75,0.087492
7866.67,0.08847
7878.62,0.08961
7890.62,0.090817
7902.64,0.092149
7914.71,0.093391
7926.81,0.094125
7938.95,0.094375
7951.13,0.094165
7963.34,0.093266
7975.59,0.091722
7987.88,0.089964
8000.21,0.087854
8012.57,0.085215
8024.98,0.082389
8037.42,0.079729
8049.9,0.077272
8062.42,0.074864
8074.98,0.072518
8087.57,0.070384
8100.21,0.068326
8112.89,0.066363
8125.6,0.064659
8138.36,0.062851
8151.16,0.061125
8163.99,0.059865
8176.87,0.05883
8189.79,0.057778
8202.75,0.056996
8215.75,0.056496
8228.79,0.056222
8241.87,0.056304
8254.99,0.056459
8268.16,0.05671
8281.37,0.057226
8294.62,0.057926
8307.91,0.058481
8321.24,0.059066
8334.62,0.059385
8348.04,0.059447
8361.51,0.059597
8375.02,0.059791
8388.57,0.06015
8402.16,0.060512
8415.8,0.060961
8429.49,0.061622
8443.22,0.062058
8456.99,0.062329
8470.81,0.062356
8484.67,0.062015
8498.58,0.061206
8512.54,0.059871
8526.54,0.058319
8540.58,0.056781
8554.68,0.055364
8568.82,0.054229
8583.0,0.053354
8597.24,0.052488
8611.52,0.051333
8625.85,0.050412
8640.23,0.049979
8654.65,0.049646
8669.12,0.049795
8683.64,0.050205
8698.21,0.050228
8712.83,0.050221
8727.5,0.050513
8742.22,0.05108
8756.99,0.051609
8771.8,0.052243
8786.67,0.052612
8801.59,0.052469
8816.56,0.051973
8831.58,0.05103
8846.65,0.049735
8861.77,0.049227
8876.94,0.048977
8892.17,0.048564
8907.45,0.04782
8922.78,0.046727
8938.16,0.045362
8953.6,0.044286
8969.09,0.043548
8984.64,0.042819
9000.23,0.042444
9015.89,0.04219
9031.59,0.041898
9047.36,0.041853
9063.17,0.041791
9079.05,0.041459
9094.97,0.041173
9110.96,0.041156
9127.0,0.04104
9143.1,0.041266
9159.25,0.041633
9175.46,0.041853
9191.73,0.042041
9208.06,0.042265
9224.44,0.042437
9240.88,0.04279
9257.38,0.043407
9273.94,0.044088
9290.56,0.045177
9307.24,0.046425
9323.98,0.047263
9340.78,0.047948
9357.64,0.048576
9374.57,0.049016
9391.55,0.049155
9408.59,0.049195
9425.7,0.049239
9442.87,0.048793
9460.1,0.048094
9477.4,0.047212
9494.75,0.045814
9512.17,0.043577
9529.66,0.040785
9547.21,0.03818
9564.83,0.036422
9582.5,0.0363
9600.25,0.037356
9618.06,0.038645
9635.94,0.03999
9653.88,0.041396
9671.89,0.042686
9689.97,0.043683
9708.12,0.044346
9726.33,0.044668
9744.62,0.044308
9762.97,0.043345
9781.39,0.042764
9799.88,0.042932
9818.44,0.043427
9837.07,0.043844
9855.77,0.044176
9874.54,0.044595
9893.39,0.044975
9912.3,0.0451
9931.29,0.045041
9950.36,0.045079
9969.49,0.045428
9988.7,0.046101
10007.98,0.046911
10027.34,0.0477
10046.77,0.048408
10066.28,0.049059
10085.87,0.049542
10105.53,0.050123
10125.26,0.050803
10145.08,0.051502
10164.97,0.051856
10184.94,0.052267
10204.99,0.052775
10225.12,0.052718
10245.33,0.052662
10265.61,0.05306
10285.98,0.053626
10306.43,0.053725
10326.96,0.053685
10347.57,0.053677
10368.27,0.053667
10389.05,0.053895
10409.91,0.053991
10430.86,0.053988
10451.88,0.053986
10473.0,0.053972
10494.2,0.054226
10515.49,0.054136
10536.86,0.053899
10558.32,0.054064
10579.87,0.053996
10601.5,0.053924
10623.23,0.05374
10645.04,0.053755
10666.94,0.053869
10688.94,0.053548
10711.02,0.052923
10733.2,0.052544
10755.47,0.052146
10777.83,0.051687
10800.28,0.051072
10822.83,0.050141
10845.47,0.049281
10868.21,0.04846
10891.04,0.047399
10913.97,0.04645
10936.99,0.045697
10960.12,0.044964
10983.34,0.04419
11006.66,0.043435
11030.07,0.042786
11053.59,0.042323
11077.21,0.042033
11100.93,0.041785
11124.75,0.041375
11148.68,0.040921
11172.71,0.040547
11196.84,0.040386
11221.07,0.040394
11245.41,0.040465
11269.86,0.040348
11294.41,0.040227
11319.07,0.040196
11343.84,0.03998
11368.72,0.039878
11393.7,0.040005
11418.8,0.040212
11444.01,0.040553
11469.33,0.040703
11494.76,0.040815
11520.3,0.041207
11545.96,0.041653
11571.73,0.041915
11597.62,0.042344
11623.62,0.043316
11649.74,0.043968
11675.98,0.04444
11702.34,0.045052
11728.81,0.04544
11755.41,0.045594
11782.13,0.046073
11808.96,0.046624
11835.92,0.046894
11863.01,0.047185
11890.22,0.047884
11917.55,0.048414
11945.01,0.048559
11972.6,0.049041
12000.31,0.049752
12028.16,0.04998
12056.13,0.050155
12084.23,0.050294
12112.46,0.050668
12140.83,0.051381
12169.33,0.051483
12197.96,0.051512
12226.73,0.051689
12255.64,0.051876
12284.68,0.051907
12313.86,0.052023
12343.18,0.052162
12372.64,0.051945
12402.24,0.051802
12431.98,0.051836
12461.86,0.052035
12491.89,0.052006
12522.07,0.051817
12552.38,0.051739
12582.85,0.0517
12613.47,0.051813
12644.23,0.052249
12675.15,0.052475
12706.21,0.05218
12737.43,0.052005
12768.81,0.052042
12800.33,0.051868
12832.02,0.051434
12863.86,0.051156
12895.86,0.050983
12928.02,0.050733
12960.34,0.050322
12992.82,0.049993
13025.46,0.049835
13058.27,0.049801
13091.25,0.049629
13124.39,0.049085
13157.7,0.048597
13191.18,0.04811
13224.83,0.047967
13258.66,0.048123
13292.65,0.047866
13326.83,0.047773
13361.17,0.047687
13395.7,0.047668
13430.4,0.047401
13465.29,0.047057
13500.35,0.046964
13535.6,0.046834
13571.03,0.046769
13606.65,0.04651
13642.46,0.046226
13678.46,0.046131
13714.64,0.046021
13751.02,0.046019
13787.59,0.045748
13824.36,0.045392
13861.32,0.045018
13898.49,0.044628
13935.85,0.04463
13973.41,0.044286
14011.17,0.043462
14049.15,0.04282
14087.32,0.042246
14125.71,0.041663
14164.3,0.041153
14203.11,0.04037
14242.13,0.039888
14281.36,0.03928
14320.81,0.038324
14360.49,0.037063
14400.38,0.035825
14440.49,0.035049
14480.82,0.03416
14521.39,0.033064
14562.18,0.032034
14603.2,0.030883
14644.45,0.029918
14685.93,0.029467
14727.66,0.029682
14769.62,0.030085
14811.81,0.030055
14854.25,0.030256
14896.94,0.030575
14939.87,0.030595
14983.05,0.031189
15026.48,0.032297
15070.16,0.032807
15114.1,0.032903
15158.29,0.033306
15202.74,0.033261
15247.46,0.033257
15292.43,0.033789
15337.68,0.034449
15383.19,0.034821
15428.97,0.035928
15475.03,0.037403
15521.36,0.038712
15567.97,0.039281
15614.87,0.039257
15662.04,0.038348
15709.5,0.037193
15757.25,0.036893
15805.29,0.037032
15853.62,0.036689
15902.26,0.036067
15951.19,0.036081
16000.42,0.036619
16049.95,0.037296
16099.8,0.038494
16149.95,0.040242
16200.42,0.041145
16251.21,0.040986
16302.31,0.041519
16353.74,0.042507
16405.49,0.042249
16457.57,0.041809
16509.98,0.041991
16562.73,0.042143
16615.82,0.041899
16669.24,0.041844
16723.02,0.041689
16777.14,0.040809
16831.61,0.04013
16886.43,0.040381
16941.62,0.040425
16997.16,0.040133
17053.08,0.039409
17109.36,0.038996
17166.01,0.039278
17223.04,0.039328
17280.45,0.039229
17338.24,0.0396
17396.43,0.039584
17455.0,0.039056
17513.97,0.039087
17573.34,0.038708
17633.11,0.038441
17693.29,0.038817
17753.89,0.038941
17814.9,0.038774
17876.33,0.038315
17938.18,0.038103
18000.47,0.03812
18063.19,0.038271
18126.35,0.038176
18189.95,0.038177
18254.0,0.03817
18318.5,0.037608
18383.46,0.037189
18448.88,0.037436
18514.77,0.037393
18581.13,0.037042
18647.97,0.037165
18715.29,0.037399
18783.1,0.037481
18851.4,0.037769
18920.2,0.037928
18989.51,0.037628
19059.32,0.037474
19129.65,0.036974
19200.5,0.036965
19271.88,0.037401
19343.79,0.037713
19416.24,0.0377
19489.23,0.036733
19562.77,0.036296
19636.88,0.03665
19711.54,0.03757
19786.78,0.038004
19862.59,0.038284
19938.98,0.038287
20015.96,0.0382
20093.55,0.037521
20171.73,0.037259
20250.53,0.037651
20329.94,0.038068
20409.98,0.037737
20490.65,0.037197
20571.96,0.037614
20653.92,0.037688
20736.54,0.03747
20819.82,0.037333
20903.77,0.037581
20988.4,0.037478
21073.72,0.036451
21159.73,0.036001
21246.46,0.037001
21333.89,0.037383
21422.04,0.036581
21510.93,0.036177
21600.56,0.036857
21690.94,0.036641
21782.08,0.036579
21873.99,0.036644
21966.67,0.037217
22060.15,0.037522
22154.42,0.037339
22249.51,0.037209
22345.41,0.035519
22442.14,0.035037
22539.72,0.035038
22638.14,0.033629
22737.43,0.034594
22837.6,0.035241
22938.65,0.034629
23040.6,0.033996
23143.46,0.034497
23247.24,0.034568
23351.96,0.03477
23457.63,0.034721
23564.25,0.034241
23671.85,0.034862
23780.44,0.035763
23890.02,0.034985
24000.63,0.034856
24112.26,0.036451
24224.93,0.038944
24338.66,0.038384
24453.47,0.036574
24569.36,0.037273
24686.36,0.037448
24804.47,0.036063
24923.73,0.035999
25044.13,0.03749
25165.71,0.041228
25288.46,0.041989
25412.43,0.044351
25537.61,0.044721
25664.04,0.045605
25791.72,0.046289
25920.68,0.049692
