Database of Origin,University of Winnipeg Spectrophotometer Facility
Sample Description,8. Sulfates: RELAB + Nicolet spectra / Spectra all made consistently merged: Jan. / 10 / 2005
Date Added,2016-07-15 22:05:55.442982

Data ID,RPN_SUL_45          
Sample ID,SPT130
Mineral Name,Rozenite+melanterite
Grain Size,<45
Viewing Geometry,30 / 0 | 30
Resolution,5 / 1.3-129
Material Class,Sulfate

Wavelength
305.0,0.17527
310.0,0.176841
315.0,0.178653
320.0,0.181851
325.0,0.189672
330.0,0.199263
335.0,0.208139
340.0,0.223037
345.0,0.240601
350.0,0.262925
355.0,0.290854
360.0,0.321798
365.0,0.352556
370.0,0.378613
375.0,0.404798
380.0,0.429302
385.0,0.45775
390.0,0.490951
395.0,0.530614
400.0,0.574931
405.0,0.6048
410.0,0.626483
415.0,0.63591
420.0,0.635568
425.0,0.625802
430.0,0.615043
435.0,0.616456
440.0,0.636364
445.0,0.660233
450.0,0.681984
455.0,0.702544
460.0,0.718405
465.0,0.732384
470.0,0.742125
475.0,0.752732
480.0,0.763506
485.0,0.77289
490.0,0.780624
495.0,0.788028
500.0,0.790962
505.0,0.802026
510.0,0.803416
515.0,0.814081
520.0,0.816304
525.0,0.826473
530.0,0.828297
535.0,0.836193
540.0,0.839249
545.0,0.844378
550.0,0.847368
555.0,0.851465
560.0,0.853912
565.0,0.855952
570.0,0.858564
575.0,0.858949
580.0,0.860235
585.0,0.859485
590.0,0.85873
595.0,0.85765
600.0,0.856359
605.0,0.853198
610.0,0.851071
615.0,0.848159
620.0,0.843181
625.0,0.840195
630.0,0.83521
635.0,0.830246
640.0,0.825039
645.0,0.821227
650.0,0.816453
655.0,0.810286
660.0,0.808024
665.0,0.801651
670.0,0.796328
675.0,0.791638
680.0,0.788082
685.0,0.783076
690.0,0.779829
695.0,0.774396
700.0,0.76939
705.0,0.766527
710.0,0.761303
715.0,0.759151
720.0,0.752782
725.0,0.748173
730.0,0.739572
735.0,0.738905
740.0,0.731583
745.0,0.728372
750.0,0.72112
755.0,0.715183
760.0,0.70968
765.0,0.702211
770.0,0.696777
775.0,0.688653
780.0,0.682872
785.0,0.673722
790.0,0.666457
795.0,0.657901
800.0,0.653315
805.0,0.642345
810.0,0.635424
815.0,0.628342
820.0,0.623065
825.0,0.614183
830.0,0.607782
835.0,0.60162
840.0,0.595845
845.0,0.589554
850.0,0.584424
855.0,0.57777
860.0,0.568981
865.0,0.569569
870.0,0.562642
875.0,0.558201
880.0,0.557041
885.0,0.551411
890.0,0.547524
895.0,0.544878
900.0,0.542016
905.0,0.538208
910.0,0.538013
915.0,0.535097
920.0,0.533562
925.0,0.532036
930.0,0.531177
935.0,0.532069
940.0,0.530919
945.0,0.530896
950.0,0.531414
955.0,0.529976
960.0,0.529802
965.0,0.530667
970.0,0.529028
975.0,0.531522
980.0,0.532085
985.0,0.532388
990.0,0.53415
995.0,0.533103
1000.0,0.537243
1005.0,0.535305
1010.0,0.53807
1015.0,0.53832
1020.0,0.539449
1025.0,0.539005
1030.0,0.541665
1035.0,0.541954
1040.0,0.543556
1045.0,0.543237
1050.0,0.543763
1055.0,0.54489
1060.0,0.543496
1065.0,0.545837
1070.0,0.544701
1075.0,0.546395
1080.0,0.545066
1085.0,0.547673
1090.0,0.545857
1095.0,0.546705
1100.0,0.546791
1105.0,0.547063
1110.0,0.54787
1115.0,0.548155
1120.0,0.549313
1125.0,0.54963
1130.0,0.550101
1135.0,0.550333
1140.0,0.551722
1145.0,0.552284
1150.0,0.555077
1155.0,0.553374
1160.0,0.556776
1165.0,0.556339
1170.0,0.559167
1175.0,0.560147
1180.0,0.562149
1185.0,0.564026
1190.0,0.56502
1195.0,0.567826
1200.0,0.570624
1205.0,0.574471
1210.0,0.576299
1215.0,0.582824
1220.0,0.582982
1225.0,0.587249
1230.0,0.590097
1235.0,0.594023
1240.0,0.597325
1245.0,0.601567
1250.0,0.605124
1255.0,0.609341
1260.0,0.614739
1265.0,0.619817
1270.0,0.62451
1275.0,0.627717
1280.0,0.632334
1285.0,0.636998
1290.0,0.642756
1295.0,0.645764
1300.0,0.65076
1305.0,0.654758
1310.0,0.659306
1315.0,0.662222
1320.0,0.66786
1325.0,0.671387
1330.0,0.673736
1335.0,0.676739
1340.0,0.678833
1345.0,0.682622
1350.0,0.683671
1355.0,0.685073
1360.0,0.685758
1365.0,0.691869
1370.0,0.692105
1375.0,0.697644
1380.0,0.69416
1385.0,0.701779
1390.0,0.700198
1395.0,0.695754
1400.0,0.690879
1405.0,0.685851
1410.0,0.677987
1415.0,0.664137
1420.0,0.648117
1425.0,0.629194
1430.0,0.612636
1435.0,0.59378
1440.0,0.57533
1445.0,0.56298
1450.0,0.558676
1455.0,0.557957
1460.0,0.560663
1465.0,0.561325
1470.0,0.562177
1475.0,0.565488
1480.0,0.566468
1485.0,0.570707
1490.0,0.573727
1495.0,0.577361
1500.0,0.582654
1505.0,0.587644
1510.0,0.59268
1515.0,0.598689
1520.0,0.603156
1525.0,0.607365
1530.0,0.610918
1535.0,0.616331
1540.0,0.619414
1545.0,0.621361
1550.0,0.623066
1555.0,0.626196
1560.0,0.628238
1565.0,0.62952
1570.0,0.631352
1575.0,0.631522
1580.0,0.632893
1585.0,0.635604
1590.0,0.636583
1595.0,0.638517
1600.0,0.639986
1605.0,0.642501
1610.0,0.64461
1615.0,0.645671
1620.0,0.648604
1625.0,0.651265
1630.0,0.653589
1635.0,0.656836
1640.0,0.660478
1645.0,0.663893
1650.0,0.667264
1655.0,0.670133
1660.0,0.673148
1665.0,0.677604
1670.0,0.680542
1675.0,0.682755
1680.0,0.686147
1685.0,0.687325
1690.0,0.689973
1695.0,0.691728
1700.0,0.691157
1705.0,0.692745
1710.0,0.694282
1715.0,0.695412
1720.0,0.696464
1725.0,0.697994
1730.0,0.699378
1735.0,0.701551
1740.0,0.702057
1745.0,0.703017
1750.0,0.705007
1755.0,0.706177
1760.0,0.707853
1765.0,0.708522
1770.0,0.709821
1775.0,0.710614
1780.0,0.711745
1785.0,0.712885
1790.0,0.713888
1795.0,0.715482
1800.0,0.716572
1805.0,0.718268
1810.0,0.719646
1815.0,0.71981
1820.0,0.719921
1825.0,0.723617
1830.0,0.720935
1835.0,0.720116
1840.0,0.71913
1845.0,0.720458
1850.0,0.71515
1855.0,0.711596
1860.0,0.705958
1865.0,0.698708
1870.0,0.681931
1875.0,0.674582
1880.0,0.659263
1885.0,0.631368
1890.0,0.60362
1895.0,0.57123
1900.0,0.534467
1905.0,0.497116
1910.0,0.462487
1915.0,0.42486
1920.0,0.39001
1925.0,0.359787
1930.0,0.331788
1935.0,0.308244
1940.0,0.288039
1945.0,0.273644
1950.0,0.261717
1955.0,0.255623
1960.0,0.25425
1965.0,0.255537
1970.0,0.255508
1975.0,0.255817
1980.0,0.256056
1985.0,0.259483
1990.0,0.264902
1995.0,0.272438
2000.0,0.281073
2005.0,0.289364
2010.0,0.298324
2015.0,0.30736
2020.0,0.316712
2025.0,0.325556
2030.0,0.335659
2035.0,0.346275
2040.0,0.35696
2045.0,0.367
2050.0,0.377026
2055.0,0.386624
2060.0,0.397661
2065.0,0.40748
2070.0,0.416738
2075.0,0.427466
2080.0,0.437605
2085.0,0.44849
2090.0,0.457096
2095.0,0.465909
2100.0,0.474898
2105.0,0.481944
2110.0,0.488254
2115.0,0.494462
2120.0,0.499279
2125.0,0.50516
2130.0,0.508793
2135.0,0.512825
2140.0,0.515963
2145.0,0.519779
2150.0,0.520495
2155.0,0.524535
2160.0,0.526574
2165.0,0.528174
2170.0,0.530428
2175.0,0.532288
2180.0,0.535056
2185.0,0.536587
2190.0,0.538934
2195.0,0.541299
2200.0,0.543461
2205.0,0.545668
2210.0,0.547446
2215.0,0.549735
2220.0,0.552041
2225.0,0.552767
2230.0,0.555108
2235.0,0.555431
2240.0,0.554708
2245.0,0.555553
2250.0,0.555614
2255.0,0.555412
2260.0,0.554453
2265.0,0.554252
2270.0,0.553289
2275.0,0.551232
2280.0,0.550638
2285.0,0.546307
2290.0,0.542804
2295.0,0.538554
2300.0,0.533791
2305.0,0.528832
2310.0,0.522393
2315.0,0.515306
2320.0,0.506029
2325.0,0.497603
2330.0,0.488693
2335.0,0.478827
2340.0,0.467201
2345.0,0.456449
2350.0,0.443284
2355.0,0.431378
2360.0,0.417922
2365.0,0.406054
2370.0,0.392915
2375.0,0.382075
2380.0,0.372429
2385.0,0.362525
2390.0,0.354451
2395.0,0.346563
2400.0,0.33943
2405.0,0.333682
2410.0,0.328383
2415.0,0.323399
2420.0,0.320774
2425.0,0.317332
2430.0,0.315113
2435.0,0.312073
2440.0,0.310831
2445.0,0.307536
2450.0,0.30576
2455.0,0.302964
2460.0,0.300535
2465.0,0.298232
2470.0,0.293936
2475.0,0.289523
2480.0,0.285919
2485.0,0.281733
2490.0,0.277228
2495.0,0.272022
2500.0,0.268505
2505.0,0.26331
2510.0,0.259424
2515.0,0.254422
2520.0,0.251431
2525.0,0.247823
2530.0,0.244771
2535.0,0.242223
2540.0,0.244301
2545.0,0.244622
2550.0,0.24376
2555.0,0.24464
2560.0,0.242761
2565.13,0.245427
2570.22,0.244703
2575.33,0.244774
2580.46,0.247039
2581.74,0.247376
2583.03,0.247321
2584.31,0.247664
2585.6,0.248372
2586.89,0.248568
2588.19,0.248653
2589.48,0.247184
2590.77,0.245994
2592.07,0.246236
2593.36,0.246688
2594.66,0.246728
2595.96,0.247076
2597.26,0.24697
2598.56,0.247564
2599.87,0.247459
2601.17,0.246363
2602.48,0.246667
2603.78,0.247395
2605.09,0.24626
2606.4,0.245298
2607.71,0.245925
2609.03,0.245955
2610.34,0.245743
2611.66,0.246075
2612.97,0.246102
2614.29,0.246108
2615.61,0.245706
2616.93,0.245357
2618.25,0.244719
2619.57,0.244029
2620.9,0.243801
2622.22,0.244606
2623.55,0.244322
2624.88,0.242985
2626.21,0.241142
2627.54,0.24062
2628.87,0.240563
2630.21,0.239883
2631.54,0.240307
2632.88,0.240263
2634.21,0.239323
2635.55,0.238933
2636.89,0.2391
2638.24,0.238144
2639.58,0.237586
2640.92,0.237408
2642.27,0.236418
2643.62,0.234598
2644.97,0.233434
2646.32,0.232377
2647.67,0.231246
2649.02,0.231213
2650.38,0.230707
2651.73,0.229273
2653.09,0.227861
2654.45,0.226046
2655.81,0.225097
2657.17,0.224294
2658.53,0.222195
2659.89,0.221071
2661.26,0.219992
2662.63,0.218147
2664.0,0.216033
2665.36,0.21418
2666.74,0.213898
2668.11,0.213501
2669.48,0.211003
2670.86,0.208836
2672.23,0.207386
2673.61,0.206944
2674.99,0.204812
2676.37,0.202056
2677.76,0.200544
2679.14,0.199437
2680.52,0.19839
2681.91,0.196454
2683.3,0.193701
2684.69,0.191551
2686.08,0.18999
2687.47,0.188814
2688.87,0.186967
2690.26,0.185315
2691.66,0.183696
2693.06,0.182346
2694.46,0.180252
2695.86,0.178029
2697.26,0.175485
2698.66,0.172644
2700.07,0.170427
2701.48,0.169086
2702.89,0.167446
2704.3,0.165093
2705.71,0.162309
2707.12,0.160131
2708.53,0.157548
2709.95,0.154833
2711.37,0.152141
2712.79,0.14985
2714.21,0.146998
2715.63,0.143859
2717.05,0.141392
2718.48,0.138252
2719.9,0.134906
2721.33,0.131546
2722.76,0.127734
2724.19,0.124149
2725.62,0.120613
2727.06,0.118078
2728.49,0.115061
2729.93,0.111417
2731.37,0.108316
2732.81,0.105325
2734.25,0.101874
2735.69,0.098363
2737.14,0.09482
2738.58,0.091057
2740.03,0.086899
2741.48,0.082907
2742.93,0.079833
2744.38,0.07689
2745.83,0.073232
2747.29,0.069361
2748.75,0.066357
2750.2,0.063913
2751.66,0.060542
2753.13,0.056924
2754.59,0.054443
2756.05,0.051728
2757.52,0.047625
2758.99,0.043936
2760.46,0.042104
2761.93,0.041088
2763.4,0.039187
2764.87,0.036265
2766.35,0.033843
2767.82,0.031836
2769.3,0.030145
2770.78,0.028405
2772.26,0.02618
2773.75,0.025274
2775.23,0.024415
2776.72,0.023542
2778.21,0.022296
2779.7,0.021174
2781.19,0.020423
2782.68,0.018986
2784.18,0.017867
2785.67,0.017733
2787.17,0.017416
2788.67,0.017073
2790.17,0.016815
2791.67,0.0161
2793.18,0.015238
2794.68,0.014696
2796.19,0.014772
2797.7,0.014324
2799.21,0.013532
2800.72,0.013377
2802.24,0.013317
2803.75,0.013411
2805.27,0.01353
2806.79,0.014201
2808.31,0.013886
2809.83,0.013043
2811.35,0.012565
2812.88,0.012919
2814.41,0.012959
2815.93,0.012437
2817.46,0.012389
2819.0,0.012389
2820.53,0.012361
2822.07,0.012005
2823.6,0.011475
2825.14,0.011617
2826.68,0.012307
2828.22,0.012338
2829.77,0.011775
2831.31,0.011802
2832.86,0.01191
2834.41,0.011282
2835.96,0.01086
2837.51,0.010984
2839.07,0.011587
2840.62,0.012102
2842.18,0.011775
2843.74,0.010909
2845.3,0.010899
2846.86,0.011097
2848.43,0.01116
2849.99,0.010802
2851.56,0.010337
2853.13,0.010935
2854.7,0.010868
2856.27,0.010425
2857.85,0.010226
2859.42,0.010457
2861.0,0.010534
2862.58,0.010799
2864.16,0.010992
2865.75,0.010674
2867.33,0.010564
2868.92,0.010959
2870.51,0.011412
2872.1,0.011152
2873.69,0.010314
2875.28,0.010185
2876.88,0.010776
2878.48,0.010897
2880.07,0.010435
2881.68,0.011054
2883.28,0.01184
2884.88,0.011716
2886.49,0.011352
2888.1,0.011055
2889.71,0.011471
2891.32,0.011764
2892.93,0.011915
2894.55,0.012014
2896.16,0.012507
2897.78,0.013118
2899.4,0.012765
2901.03,0.011765
2902.65,0.011615
2904.28,0.012051
2905.91,0.012231
2907.54,0.012347
2909.17,0.012923
2910.8,0.013552
2912.44,0.013563
2914.07,0.013122
2915.71,0.013023
2917.35,0.013174
2918.99,0.013656
2920.64,0.013349
2922.29,0.013484
2923.93,0.013549
2925.58,0.013373
2927.24,0.013236
2928.89,0.013026
2930.55,0.01309
2932.2,0.012741
2933.86,0.013105
2935.52,0.013565
2937.19,0.013777
2938.85,0.013419
2940.52,0.013174
2942.19,0.013325
2943.86,0.01362
2945.53,0.013995
2947.21,0.014014
2948.88,0.013864
2950.56,0.012906
2952.24,0.013242
2953.92,0.013883
2955.61,0.013856
2957.29,0.014264
2958.98,0.014716
2960.67,0.014296
2962.36,0.014275
2964.06,0.014369
2965.75,0.014267
2967.45,0.014342
2969.15,0.014699
2970.85,0.015357
2972.55,0.01552
2974.26,0.014679
2975.97,0.014798
2977.68,0.015287
2979.39,0.01571
2981.1,0.015637
2982.82,0.015103
2984.53,0.015309
2986.25,0.016193
2987.97,0.016553
2989.7,0.015543
2991.42,0.015791
2993.15,0.016659
2994.88,0.016202
2996.61,0.015477
2998.34,0.016173
3000.08,0.017348
3001.82,0.017378
3003.55,0.017472
3005.3,0.018038
3007.04,0.018373
3008.78,0.018009
3010.53,0.017538
3012.28,0.017704
3014.03,0.017927
3015.79,0.017914
3017.54,0.018306
3019.3,0.018676
3021.06,0.018507
3022.82,0.018349
3024.58,0.018816
3026.35,0.019321
3028.12,0.019492
3029.89,0.019141
3031.66,0.019024
3033.43,0.018627
3035.21,0.018658
3036.99,0.018876
3038.77,0.019059
3040.55,0.019804
3042.33,0.020095
3044.12,0.019535
3045.91,0.019343
3047.7,0.018992
3049.49,0.018759
3051.29,0.019582
3053.08,0.019937
3054.88,0.01956
3056.68,0.019306
3058.49,0.0194
3060.29,0.018911
3062.1,0.019043
3063.91,0.019754
3065.72,0.01961
3067.54,0.019659
3069.35,0.020133
3071.17,0.020371
3072.99,0.020495
3074.81,0.020354
3076.64,0.020321
3078.47,0.02065
3080.29,0.02066
3082.13,0.020872
3083.96,0.020874
3085.79,0.020868
3087.63,0.021082
3089.47,0.021297
3091.31,0.021266
3093.16,0.021579
3095.01,0.021611
3096.85,0.021746
3098.71,0.022264
3100.56,0.023015
3102.41,0.023563
3104.27,0.023342
3106.13,0.023566
3107.99,0.023585
3109.86,0.023921
3111.73,0.024829
3113.59,0.02505
3115.47,0.02493
3117.34,0.024628
3119.21,0.02482
3121.09,0.025414
3122.97,0.025925
3124.86,0.026591
3126.74,0.026976
3128.63,0.027061
3130.52,0.02809
3132.41,0.028409
3134.3,0.028133
3136.2,0.028711
3138.1,0.029512
3140.0,0.029495
3141.9,0.02889
3143.81,0.029464
3145.71,0.030222
3147.62,0.030463
3149.54,0.031026
3151.45,0.031357
3153.37,0.031451
3155.29,0.031726
3157.21,0.03225
3159.13,0.032551
3161.06,0.033064
3162.99,0.033735
3164.92,0.03388
3166.85,0.034206
3168.79,0.034957
3170.72,0.035437
3172.67,0.035369
3174.61,0.035637
3176.55,0.036346
3178.5,0.037146
3180.45,0.037512
3182.4,0.03779
3184.36,0.038402
3186.32,0.038861
3188.27,0.039114
3190.24,0.039597
3192.2,0.039907
3194.17,0.039983
3196.14,0.040506
3198.11,0.04186
3200.08,0.042999
3202.06,0.043197
3204.04,0.04337
3206.02,0.04391
3208.0,0.044448
3209.99,0.044878
3211.98,0.04556
3213.97,0.046011
3215.96,0.046776
3217.96,0.047317
3219.96,0.047716
3221.96,0.048634
3223.96,0.04973
3225.97,0.050112
3227.98,0.050188
3229.99,0.050827
3232.0,0.051573
3234.02,0.051839
3236.04,0.05234
3238.06,0.052963
3240.08,0.054055
3242.11,0.054621
3244.14,0.054866
3246.17,0.055156
3248.2,0.055809
3250.24,0.056568
3252.28,0.057294
3254.32,0.057783
3256.37,0.058078
3258.41,0.058412
3260.46,0.059088
3262.51,0.060286
3264.57,0.060836
3266.63,0.061395
3268.69,0.062309
3270.75,0.062868
3272.81,0.063329
3274.88,0.06399
3276.95,0.064869
3279.02,0.065501
3281.1,0.065763
3283.18,0.066626
3285.26,0.067545
3287.34,0.06815
3289.43,0.069127
3291.51,0.069721
3293.61,0.069858
3295.7,0.070414
3297.8,0.071142
3299.9,0.071834
3302.0,0.072964
3304.1,0.073823
3306.21,0.074078
3308.32,0.074724
3310.43,0.076082
3312.55,0.076888
3314.66,0.077369
3316.79,0.077939
3318.91,0.079064
3321.03,0.080614
3323.16,0.081377
3325.29,0.081343
3327.43,0.081991
3329.57,0.082975
3331.71,0.084041
3333.85,0.085113
3335.99,0.085685
3338.14,0.086494
3340.29,0.087449
3342.45,0.087895
3344.6,0.088264
3346.76,0.089514
3348.92,0.090998
3351.09,0.09163
3353.26,0.092122
3355.43,0.093124
3357.6,0.094303
3359.78,0.095596
3361.96,0.096854
3364.14,0.098053
3366.32,0.098864
3368.51,0.099522
3370.7,0.100244
3372.89,0.101636
3375.09,0.102565
3377.29,0.103194
3379.49,0.104438
3381.69,0.105195
3383.9,0.106206
3386.11,0.108114
3388.32,0.109065
3390.54,0.109881
3392.76,0.111123
3394.98,0.112062
3397.21,0.112875
3399.43,0.113951
3401.66,0.114704
3403.9,0.115875
3406.13,0.117229
3408.37,0.118171
3410.61,0.119219
3412.86,0.120348
3415.11,0.121444
3417.36,0.122386
3419.61,0.123323
3421.87,0.124257
3424.13,0.125333
3426.39,0.126486
3428.66,0.127572
3430.93,0.128362
3433.2,0.129087
3435.48,0.129736
3437.76,0.130248
3440.04,0.131194
3442.32,0.133078
3444.61,0.133788
3446.9,0.134324
3449.19,0.135702
3451.49,0.136785
3453.79,0.137747
3456.09,0.138767
3458.4,0.139968
3460.7,0.141232
3463.02,0.142334
3465.33,0.142687
3467.65,0.143142
3469.97,0.144081
3472.29,0.145475
3474.62,0.146845
3476.95,0.147849
3479.29,0.148489
3481.62,0.149073
3483.96,0.150154
3486.3,0.151412
3488.65,0.152415
3491.0,0.153293
3493.35,0.154235
3495.71,0.155441
3498.07,0.156621
3500.43,0.15759
3502.79,0.158284
3505.16,0.159155
3507.53,0.160022
3509.91,0.161202
3512.29,0.161837
3514.67,0.162646
3517.05,0.163432
3519.44,0.164171
3521.83,0.16543
3524.23,0.166066
3526.62,0.166773
3529.02,0.167663
3531.43,0.168472
3533.83,0.169242
3536.24,0.169887
3538.66,0.170813
3541.08,0.172156
3543.5,0.173212
3545.92,0.174141
3548.35,0.175185
3550.78,0.175564
3553.21,0.175968
3555.65,0.176786
3558.09,0.1779
3560.53,0.178866
3562.98,0.179709
3565.43,0.180711
3567.88,0.181206
3570.34,0.181771
3572.8,0.182653
3575.27,0.182937
3577.73,0.183474
3580.2,0.184542
3582.68,0.185534
3585.16,0.186244
3587.64,0.186673
3590.12,0.187465
3592.61,0.188288
3595.1,0.188784
3597.6,0.189311
3600.09,0.190217
3602.6,0.191285
3605.1,0.191992
3607.61,0.192371
3610.12,0.193145
3612.64,0.19381
3615.16,0.194774
3617.68,0.195647
3620.21,0.196042
3622.74,0.196504
3625.27,0.197611
3627.81,0.198391
3630.35,0.199046
3632.89,0.200029
3635.44,0.200822
3637.99,0.201378
3640.54,0.202204
3643.1,0.203132
3645.66,0.204108
3648.23,0.205112
3650.8,0.205779
3653.37,0.206879
3655.95,0.207646
3658.53,0.208037
3661.11,0.208902
3663.7,0.209855
3666.29,0.210602
3668.89,0.2117
3671.48,0.212344
3674.09,0.212868
3676.69,0.21414
3679.3,0.215034
3681.91,0.215342
3684.53,0.215863
3687.15,0.216587
3689.78,0.217365
3692.4,0.217899
3695.04,0.218446
3697.67,0.219101
3700.31,0.220038
3702.95,0.220684
3705.6,0.221212
3708.25,0.22191
3710.91,0.222537
3713.56,0.22318
3716.23,0.223972
3718.89,0.224732
3721.56,0.225691
3724.23,0.226193
3726.91,0.226232
3729.59,0.226609
3732.28,0.227098
3734.97,0.227829
3737.66,0.228644
3740.36,0.229155
3743.06,0.229597
3745.76,0.230323
3748.47,0.230978
3751.18,0.23154
3753.9,0.232298
3756.62,0.232586
3759.34,0.232969
3762.07,0.233807
3764.8,0.234575
3767.54,0.235014
3770.28,0.235748
3773.02,0.236137
3775.77,0.236236
3778.52,0.23663
3781.28,0.237282
3784.04,0.237655
3786.8,0.238161
3789.57,0.238629
3792.34,0.238801
3795.12,0.238973
3797.9,0.239472
3800.69,0.239858
3803.47,0.240468
3806.27,0.240627
3809.06,0.240694
3811.86,0.241359
3814.67,0.241699
3817.48,0.241543
3820.29,0.241494
3823.11,0.241851
3825.93,0.242256
3828.76,0.24253
3831.59,0.242611
3834.42,0.243001
3837.26,0.243604
3840.1,0.24344
3842.95,0.243539
3845.8,0.244186
3848.65,0.244428
3851.51,0.244261
3854.38,0.244497
3857.24,0.244858
3860.12,0.245023
3862.99,0.244933
3865.87,0.245447
3868.76,0.245895
3871.65,0.246022
3874.54,0.245706
3877.44,0.24554
3880.34,0.245833
3883.25,0.246029
3886.16,0.245745
3889.07,0.245822
3891.99,0.2458
3894.92,0.245967
3897.85,0.245792
3900.78,0.245577
3903.72,0.24567
3906.66,0.245686
3909.6,0.245546
3912.55,0.244996
3915.51,0.244575
3918.47,0.244409
3921.43,0.244338
3924.4,0.244222
3927.38,0.243814
3930.35,0.243685
3933.33,0.243749
3936.32,0.243462
3939.31,0.243138
3942.31,0.242833
3945.31,0.242711
3948.31,0.242773
3951.32,0.242289
3954.34,0.241439
3957.35,0.241055
3960.38,0.24108
3963.41,0.240695
3966.44,0.240399
3969.48,0.240285
3972.52,0.239825
3975.56,0.239084
3978.61,0.238842
3981.67,0.238473
3984.73,0.237709
3987.8,0.237037
3990.87,0.236421
3993.94,0.236146
3997.02,0.235605
4000.1,0.235029
4003.19,0.234385
4006.29,0.233912
4009.39,0.233637
4012.49,0.232909
4015.6,0.231891
4018.71,0.23094
4021.83,0.230113
4024.95,0.229546
4028.08,0.229017
4031.21,0.228404
4034.35,0.227402
4037.49,0.22623
4040.64,0.225192
4043.79,0.22427
4046.94,0.223351
4050.11,0.222104
4053.27,0.221138
4056.44,0.220321
4059.62,0.219273
4062.8,0.217911
4065.99,0.216494
4069.18,0.215306
4072.38,0.214421
4075.58,0.21317
4078.78,0.211855
4082.0,0.210569
4085.21,0.209439
4088.43,0.208276
4091.66,0.207095
4094.89,0.205813
4098.13,0.204859
4101.37,0.203626
4104.62,0.202155
4107.87,0.200783
4111.13,0.19965
4114.39,0.19838
4117.66,0.197329
4120.93,0.196168
4124.21,0.195152
4127.5,0.194002
4130.79,0.192916
4134.08,0.191883
4137.38,0.190738
4140.68,0.189628
4143.99,0.188496
4147.31,0.187532
4150.63,0.186691
4153.95,0.185943
4157.29,0.18494
4160.62,0.184028
4163.96,0.183367
4167.31,0.18263
4170.66,0.182084
4174.02,0.181265
4177.39,0.180585
4180.75,0.180258
4184.13,0.179634
4187.51,0.178932
4190.89,0.178534
4194.28,0.17804
4197.68,0.177629
4201.08,0.177414
4204.49,0.177307
4207.9,0.176774
4211.32,0.176324
4214.74,0.176291
4218.17,0.176273
4221.61,0.175893
4225.05,0.175424
4228.5,0.175022
4231.95,0.174847
4235.4,0.174829
4238.87,0.174542
4242.34,0.174009
4245.81,0.173316
4249.29,0.17246
4252.78,0.172096
4256.27,0.171594
4259.77,0.170811
4263.27,0.170237
4266.78,0.169908
4270.29,0.169347
4273.81,0.169043
4277.34,0.168903
4280.87,0.168616
4284.41,0.168022
4287.95,0.167447
4291.5,0.167156
4295.06,0.166723
4298.62,0.166229
4302.19,0.165979
4305.76,0.16548
4309.34,0.164776
4312.92,0.163878
4316.52,0.163479
4320.11,0.163308
4323.72,0.163021
4327.32,0.162555
4330.94,0.162106
4334.56,0.161793
4338.19,0.161431
4341.82,0.161028
4345.46,0.160809
4349.11,0.16029
4352.76,0.15984
4356.42,0.159486
4360.08,0.159206
4363.75,0.158955
4367.43,0.159019
4371.11,0.158924
4374.8,0.158646
4378.49,0.158476
4382.19,0.158575
4385.9,0.158506
4389.61,0.158551
4393.33,0.158408
4397.06,0.158184
4400.79,0.158445
4404.53,0.158572
4408.28,0.158523
4412.03,0.158617
4415.79,0.158437
4419.55,0.158462
4423.32,0.158671
4427.1,0.158391
4430.88,0.157939
4434.68,0.157971
4438.47,0.157974
4442.28,0.157822
4446.08,0.157623
4449.9,0.157603
4453.72,0.157663
4457.55,0.157354
4461.39,0.157036
4465.23,0.156874
4469.08,0.156848
4472.94,0.157099
4476.8,0.156992
4480.67,0.157039
4484.55,0.157466
4488.43,0.157491
4492.32,0.157417
4496.21,0.157775
4500.12,0.157988
4504.03,0.15786
4507.94,0.157895
4511.87,0.158181
4515.8,0.158202
4519.73,0.158233
4523.68,0.158246
4527.63,0.158396
4531.59,0.158506
4535.55,0.158519
4539.52,0.15851
4543.5,0.158827
4547.49,0.159114
4551.48,0.159043
4555.48,0.158818
4559.49,0.158963
4563.5,0.15909
4567.52,0.159056
4571.55,0.159131
4575.58,0.159187
4579.63,0.159365
4583.67,0.15937
4587.73,0.159335
4591.79,0.159552
4595.86,0.159656
4599.94,0.159525
4604.03,0.159234
4608.12,0.159125
4612.22,0.159025
4616.33,0.158897
4620.44,0.158932
4624.56,0.159145
4628.69,0.158971
4632.83,0.158722
4636.97,0.158583
4641.12,0.158614
4645.28,0.158384
4649.45,0.158002
4653.62,0.157752
4657.8,0.157798
4661.99,0.157821
4666.19,0.157789
4670.39,0.157821
4674.6,0.157678
4678.82,0.157158
4683.05,0.15731
4687.28,0.157857
4691.52,0.158374
4695.77,0.158907
4700.03,0.159414
4704.3,0.16025
4708.57,0.161236
4712.85,0.162216
4717.14,0.163422
4721.43,0.164186
4725.74,0.164419
4730.05,0.164927
4734.37,0.165614
4738.7,0.166077
4743.03,0.16625
4747.38,0.166557
4751.73,0.167119
4756.09,0.167176
4760.45,0.167195
4764.83,0.167363
4769.21,0.167831
4773.6,0.168282
4778.0,0.168468
4782.41,0.168486
4786.83,0.168606
4791.25,0.16895
4795.68,0.1692
4800.13,0.169599
4804.57,0.169953
4809.03,0.169857
4813.5,0.170106
4817.97,0.170425
4822.45,0.17099
4826.94,0.171302
4831.44,0.171622
4835.95,0.171743
4840.46,0.172001
4844.99,0.172516
4849.52,0.172808
4854.06,0.17324
4858.61,0.173891
4863.17,0.174613
4867.73,0.175673
4872.31,0.176803
4876.89,0.178294
4881.48,0.179636
4886.08,0.181155
4890.69,0.182744
4895.31,0.184405
4899.94,0.186142
4904.57,0.187925
4909.22,0.189715
4913.87,0.19131
4918.53,0.192633
4923.21,0.193973
4927.88,0.195098
4932.57,0.196359
4937.27,0.197744
4941.98,0.1988
4946.69,0.199487
4951.42,0.200263
4956.15,0.200878
4960.9,0.201639
4965.65,0.202512
4970.41,0.203398
4975.18,0.203946
4979.96,0.204585
4984.75,0.204919
4989.54,0.205209
4994.35,0.205683
4999.17,0.206219
5003.99,0.20669
5008.83,0.20713
5013.67,0.20758
5018.52,0.208075
5023.39,0.208499
5028.26,0.208977
5033.14,0.209321
5038.03,0.209746
5042.93,0.210096
5047.84,0.21044
5052.76,0.210755
5057.69,0.211363
5062.63,0.211697
5067.58,0.211918
5072.54,0.212422
5077.51,0.213276
5082.49,0.213961
5087.47,0.214658
5092.47,0.21538
5097.48,0.216203
5102.5,0.216753
5107.52,0.217471
5112.56,0.218275
5117.61,0.218985
5122.66,0.219653
5127.73,0.220315
5132.81,0.220733
5137.89,0.221075
5142.99,0.221322
5148.1,0.222166
5153.22,0.222913
5158.34,0.22337
5163.48,0.223758
5168.63,0.224223
5173.79,0.224615
5178.96,0.225042
5184.13,0.225601
5189.32,0.226295
5194.52,0.226691
5199.73,0.226964
5204.96,0.22721
5210.19,0.227648
5215.43,0.227802
5220.68,0.228068
5225.94,0.228358
5231.22,0.228786
5236.5,0.228927
5241.79,0.229221
5247.1,0.229188
5252.42,0.229204
5257.74,0.229205
5263.08,0.229181
5268.43,0.228993
5273.79,0.229042
5279.16,0.229138
5284.54,0.229236
5289.93,0.229039
5295.34,0.229142
5300.75,0.228998
5306.18,0.228798
5311.61,0.228443
5317.06,0.22825
5322.52,0.227901
5327.99,0.227752
5333.47,0.227788
5338.96,0.227565
5344.47,0.227239
5349.98,0.227106
5355.51,0.226818
5361.05,0.226754
5366.6,0.226462
5372.16,0.22626
5377.73,0.225832
5383.32,0.225608
5388.91,0.225402
5394.52,0.225176
5400.14,0.224642
5405.77,0.224307
5411.41,0.224058
5417.07,0.223513
5422.74,0.222862
5428.41,0.222585
5434.1,0.222058
5439.81,0.221566
5445.52,0.221073
5451.25,0.220541
5456.98,0.21984
5462.73,0.219187
5468.5,0.218305
5474.27,0.217736
5480.06,0.217136
5485.86,0.216743
5491.67,0.215899
5497.49,0.214887
5503.33,0.213965
5509.18,0.213344
5515.04,0.212664
5520.91,0.211936
5526.8,0.210906
5532.69,0.210056
5538.61,0.20899
5544.53,0.207956
5550.47,0.207059
5556.41,0.206365
5562.38,0.20532
5568.35,0.204437
5574.34,0.203327
5580.34,0.202617
5586.35,0.201756
5592.38,0.200836
5598.42,0.199514
5604.47,0.198564
5610.54,0.19762
5616.61,0.196571
5622.71,0.195525
5628.81,0.194655
5634.93,0.193166
5641.06,0.191751
5647.21,0.190358
5653.36,0.189187
5659.54,0.187952
5665.72,0.186886
5671.92,0.185449
5678.13,0.184218
5684.36,0.182725
5690.6,0.181239
5696.85,0.179593
5703.12,0.178499
5709.4,0.177144
5715.69,0.175788
5722.0,0.174616
5728.33,0.173469
5734.66,0.171615
5741.01,0.170127
5747.38,0.168401
5753.76,0.166723
5760.15,0.16466
5766.56,0.162652
5772.98,0.160239
5779.41,0.158076
5785.86,0.155893
5792.33,0.154071
5798.81,0.151456
5805.3,0.148888
5811.81,0.146472
5818.33,0.144044
5824.87,0.141122
5831.42,0.138485
5837.99,0.13578
5844.57,0.133143
5851.17,0.130208
5857.78,0.127149
5864.41,0.123758
5871.05,0.120481
5877.7,0.117118
5884.38,0.113665
5891.06,0.109698
5897.76,0.106399
5904.48,0.102147
5911.21,0.098149
5917.96,0.094358
5924.73,0.090117
5931.5,0.085594
5938.3,0.081228
5945.11,0.076116
5951.93,0.071784
5958.78,0.067041
5965.63,0.062597
5972.51,0.057745
5979.39,0.053055
5986.3,0.048837
5993.22,0.044658
6000.16,0.040792
6007.11,0.037771
6014.08,0.035067
6021.06,0.032755
6028.06,0.030732
6035.08,0.029586
6042.12,0.029016
6049.17,0.028636
6056.23,0.027793
6063.32,0.027213
6070.42,0.026683
6077.53,0.02645
6084.67,0.02628
6091.82,0.025654
6098.98,0.024788
6106.17,0.02398
6113.37,0.02292
6120.58,0.02211
6127.82,0.02133
6135.07,0.02073
6142.34,0.02008
6149.63,0.019923
6156.93,0.019733
6164.25,0.019811
6171.59,0.020201
6178.95,0.02091
6186.32,0.021819
6193.71,0.023132
6201.12,0.02439
6208.54,0.025873
6215.99,0.027613
6223.45,0.029392
6230.93,0.030754
6238.43,0.031989
6245.95,0.033221
6253.48,0.034368
6261.03,0.035947
6268.6,0.037912
6276.19,0.039908
6283.8,0.041827
6291.43,0.044376
6299.07,0.047235
6306.73,0.050231
6314.42,0.053177
6322.12,0.056277
6329.84,0.059114
6337.57,0.061623
6345.33,0.064289
6353.11,0.067302
6360.9,0.069821
6368.72,0.072142
6376.55,0.074689
6384.4,0.076977
6392.27,0.07881
6400.17,0.080759
6408.08,0.082451
6416.01,0.084069
6423.96,0.085755
6431.93,0.087251
6439.92,0.088811
6447.93,0.090116
6455.96,0.090901
6464.01,0.092102
6472.08,0.093652
6480.17,0.094953
6488.28,0.095589
6496.41,0.096769
6504.56,0.098047
6512.73,0.098668
6520.92,0.099085
6529.14,0.099863
6537.37,0.100865
6545.63,0.101634
6553.9,0.10207
6562.2,0.102729
6570.51,0.103352
6578.85,0.103962
6587.21,0.104664
6595.59,0.105218
6603.99,0.105626
6612.42,0.105955
6620.86,0.106171
6629.33,0.106601
6637.82,0.107223
6646.33,0.107796
6654.86,0.107925
6663.41,0.108175
6671.99,0.108519
6680.59,0.108565
6689.21,0.108943
6697.85,0.109308
6706.51,0.109182
6715.2,0.109478
6723.91,0.109656
6732.64,0.109608
6741.4,0.109619
6750.18,0.109602
6758.98,0.109642
6767.8,0.109833
6776.65,0.109978
6785.52,0.109941
6794.41,0.109979
6803.33,0.110114
6812.27,0.110036
6821.23,0.109994
6830.22,0.109901
6839.23,0.109987
6848.26,0.109835
6857.32,0.109559
6866.4,0.109643
6875.51,0.109797
6884.64,0.109666
6893.8,0.109445
6902.98,0.109192
6912.18,0.108997
6921.41,0.108923
6930.66,0.108877
6939.94,0.108659
6949.24,0.108227
6958.57,0.107792
6967.92,0.107552
6977.3,0.1071
6986.7,0.106679
6996.13,0.106367
7005.59,0.105971
7015.07,0.105431
7024.57,0.105148
7034.1,0.104951
7043.66,0.104575
7053.25,0.104262
7062.85,0.103797
7072.49,0.103146
7082.15,0.102527
7091.84,0.102009
7101.55,0.10156
7111.3,0.10114
7121.06,0.100715
7130.86,0.100172
7140.68,0.099459
7150.53,0.098651
7160.41,0.097896
7170.31,0.097278
7180.24,0.096529
7190.2,0.095667
7200.19,0.094993
7210.2,0.094367
7220.24,0.09347
7230.31,0.092523
7240.41,0.091503
7250.54,0.090416
7260.69,0.089384
7270.88,0.088479
7281.09,0.0876
7291.33,0.086742
7301.6,0.08586
7311.9,0.085034
7322.22,0.083834
7332.58,0.082647
7342.97,0.081703
7353.38,0.080453
7363.83,0.079277
7374.3,0.078079
7384.81,0.077113
7395.34,0.076149
7405.91,0.074758
7416.5,0.073756
7427.13,0.072831
7437.78,0.071683
7448.47,0.070371
7459.19,0.069143
7469.94,0.067766
7480.71,0.066341
7491.52,0.06513
7502.37,0.063738
7513.24,0.062406
7524.14,0.061352
7535.08,0.059911
7546.05,0.05856
7557.05,0.057377
7568.08,0.055961
7579.15,0.054516
7590.24,0.053355
7601.37,0.05195
7612.53,0.050353
7623.73,0.048837
7634.96,0.047678
7646.22,0.046168
7657.51,0.04483
7668.84,0.04346
7680.2,0.042313
7691.59,0.04116
7703.02,0.039886
7714.49,0.038276
7725.98,0.037017
7737.52,0.035779
7749.08,0.034481
7760.68,0.03346
7772.32,0.032395
7783.99,0.030925
7795.69,0.0296
7807.43,0.028513
7819.21,0.027538
7831.02,0.02639
7842.87,0.025234
7854.75,0.024195
7866.67,0.023285
7878.62,0.022139
7890.62,0.021151
7902.64,0.020271
7914.71,0.019609
7926.81,0.018695
7938.95,0.017636
7951.13,0.01697
7963.34,0.016331
7975.59,0.015542
7987.88,0.015095
8000.21,0.014499
8012.57,0.01364
8024.98,0.013055
8037.42,0.012864
8049.9,0.012392
8062.42,0.011787
8074.98,0.011279
8087.57,0.010897
8100.21,0.010636
8112.89,0.01041
8125.6,0.009882
8138.36,0.009492
8151.16,0.009151
8163.99,0.009162
8176.87,0.009145
8189.79,0.00871
8202.75,0.008369
8215.75,0.008476
8228.79,0.008326
8241.87,0.008464
8254.99,0.008454
8268.16,0.008385
8281.37,0.008595
8294.62,0.008934
8307.91,0.009121
8321.24,0.00949
8334.62,0.009533
8348.04,0.01017
8361.51,0.010772
8375.02,0.011213
8388.57,0.012167
8402.16,0.013299
8415.8,0.014445
8429.49,0.015613
8443.22,0.016731
8456.99,0.018003
8470.81,0.019194
8484.67,0.020551
8498.58,0.021781
8512.54,0.022967
8526.54,0.023872
8540.58,0.0247
8554.68,0.02526
8568.82,0.025678
8583.0,0.025854
8597.24,0.026134
8611.52,0.026278
8625.85,0.025944
8640.23,0.025584
8654.65,0.025388
8669.12,0.025336
8683.64,0.025257
8698.21,0.024962
8712.83,0.024952
8727.5,0.024993
8742.22,0.025164
8756.99,0.025233
8771.8,0.025296
8786.67,0.025085
8801.59,0.025265
8816.56,0.025625
8831.58,0.025948
8846.65,0.026137
8861.77,0.026139
8876.94,0.026167
8892.17,0.026305
8907.45,0.026087
8922.78,0.025897
8938.16,0.026093
8953.6,0.026195
8969.09,0.025925
8984.64,0.025969
9000.23,0.025803
9015.89,0.026067
9031.59,0.026011
9047.36,0.025646
9063.17,0.025573
9079.05,0.025732
9094.97,0.025528
9110.96,0.025347
9127.0,0.025317
9143.1,0.025071
9159.25,0.025023
9175.46,0.024999
9191.73,0.024398
9208.06,0.024188
9224.44,0.024568
9240.88,0.024483
9257.38,0.024257
9273.94,0.024348
9290.56,0.02466
9307.24,0.024428
9323.98,0.02403
9340.78,0.023758
9357.64,0.023703
9374.57,0.02395
9391.55,0.023658
9408.59,0.023649
9425.7,0.024072
9442.87,0.024449
9460.1,0.024419
9477.4,0.02458
9494.75,0.024658
9512.17,0.025294
9529.66,0.025786
9547.21,0.026324
9564.83,0.027098
9582.5,0.027395
9600.25,0.027513
9618.06,0.028047
9635.94,0.0285
9653.88,0.028973
9671.89,0.029454
9689.97,0.029739
9708.12,0.030423
9726.33,0.031427
9744.62,0.031697
9762.97,0.032209
9781.39,0.032757
9799.88,0.03309
9818.44,0.03337
9837.07,0.033658
9855.77,0.033732
9874.54,0.033848
9893.39,0.034484
9912.3,0.034793
9931.29,0.035005
9950.36,0.035472
9969.49,0.035958
9988.7,0.036191
10007.98,0.035644
10027.34,0.035313
10046.77,0.035416
10066.28,0.035182
10085.87,0.034219
10105.53,0.0318
10125.26,0.030114
10145.08,0.031408
10164.97,0.034437
10184.94,0.036617
10204.99,0.037808
10225.12,0.038852
10245.33,0.040057
10265.61,0.040868
10285.98,0.041643
10306.43,0.042335
10326.96,0.042821
10347.57,0.043753
10368.27,0.044801
10389.05,0.045755
10409.91,0.046666
10430.86,0.047729
10451.88,0.048076
10473.0,0.048682
10494.2,0.049551
10515.49,0.050497
10536.86,0.05123
10558.32,0.052104
10579.87,0.052524
10601.5,0.053262
10623.23,0.054296
10645.04,0.05503
10666.94,0.055322
10688.94,0.056052
10711.02,0.056932
10733.2,0.057614
10755.47,0.057871
10777.83,0.058388
10800.28,0.058792
10822.83,0.059254
10845.47,0.05994
10868.21,0.060466
10891.04,0.060862
10913.97,0.060696
10936.99,0.060409
10960.12,0.060593
10983.34,0.060887
11006.66,0.060987
11030.07,0.060859
11053.59,0.061073
11077.21,0.061414
11100.93,0.061567
11124.75,0.061787
11148.68,0.061687
11172.71,0.061772
11196.84,0.061722
11221.07,0.061185
11245.41,0.060636
11269.86,0.060815
11294.41,0.060814
11319.07,0.060286
11343.84,0.059703
11368.72,0.059767
11393.7,0.060204
11418.8,0.059989
11444.01,0.059411
11469.33,0.058828
11494.76,0.05833
11520.3,0.057868
11545.96,0.058116
11571.73,0.058307
11597.62,0.057911
11623.62,0.057117
11649.74,0.056341
11675.98,0.056019
11702.34,0.055752
11728.81,0.055244
11755.41,0.055214
11782.13,0.054626
11808.96,0.053764
11835.92,0.053469
11863.01,0.052787
11890.22,0.052264
11917.55,0.052115
11945.01,0.051406
11972.6,0.050575
12000.31,0.049966
12028.16,0.049537
12056.13,0.049104
12084.23,0.048537
12112.46,0.048064
12140.83,0.046963
12169.33,0.04606
12197.96,0.045424
12226.73,0.044576
12255.64,0.043948
12284.68,0.042995
12313.86,0.042316
12343.18,0.041421
12372.64,0.04061
12402.24,0.039817
12431.98,0.038972
12461.86,0.038158
12491.89,0.037679
12522.07,0.036853
12552.38,0.035892
12582.85,0.035121
12613.47,0.03441
12644.23,0.033314
12675.15,0.032422
12706.21,0.031811
12737.43,0.031332
12768.81,0.030537
12800.33,0.029514
12832.02,0.029102
12863.86,0.029146
12895.86,0.028775
12928.02,0.028134
12960.34,0.02701
12992.82,0.026297
13025.46,0.025555
13058.27,0.024727
13091.25,0.024284
13124.39,0.02387
13157.7,0.023031
13191.18,0.022366
13224.83,0.021608
13258.66,0.02088
13292.65,0.020812
13326.83,0.020446
13361.17,0.019527
13395.7,0.01921
13430.4,0.019192
13465.29,0.019331
13500.35,0.018801
13535.6,0.018245
13571.03,0.017951
13606.65,0.017985
13642.46,0.017202
13678.46,0.016835
13714.64,0.01656
13751.02,0.016198
13787.59,0.016205
13824.36,0.016564
13861.32,0.016666
13898.49,0.016426
13935.85,0.015688
13973.41,0.01571
14011.17,0.015969
14049.15,0.015783
14087.32,0.015065
14125.71,0.014934
14164.3,0.014825
14203.11,0.014884
14242.13,0.015295
14281.36,0.015304
14320.81,0.014614
14360.49,0.013829
14400.38,0.013963
14440.49,0.013801
14480.82,0.01317
14521.39,0.013261
14562.18,0.012836
14603.2,0.012558
14644.45,0.012579
14685.93,0.012398
14727.66,0.012457
14769.62,0.012827
14811.81,0.01299
14854.25,0.013311
14896.94,0.013356
14939.87,0.013256
14983.05,0.01274
15026.48,0.012547
15070.16,0.013232
15114.1,0.013682
15158.29,0.01391
15202.74,0.013765
15247.46,0.013718
15292.43,0.01392
15337.68,0.014327
15383.19,0.015064
15428.97,0.015141
15475.03,0.01498
15521.36,0.01588
15567.97,0.017121
15614.87,0.017349
15662.04,0.017728
15709.5,0.017877
15757.25,0.017645
15805.29,0.018451
15853.62,0.01912
15902.26,0.019209
15951.19,0.019614
16000.42,0.020155
16049.95,0.020238
16099.8,0.020054
16149.95,0.020858
16200.42,0.021701
16251.21,0.022067
16302.31,0.021845
16353.74,0.021711
16405.49,0.02179
16457.57,0.022064
16509.98,0.022022
16562.73,0.021684
16615.82,0.020965
16669.24,0.020334
16723.02,0.020623
16777.14,0.022201
16831.61,0.021843
16886.43,0.020265
16941.62,0.020724
16997.16,0.021395
17053.08,0.021666
17109.36,0.021784
17166.01,0.021788
17223.04,0.021496
17280.45,0.021106
17338.24,0.021229
17396.43,0.021309
17455.0,0.021488
17513.97,0.021391
17573.34,0.022235
17633.11,0.023038
17693.29,0.023031
17753.89,0.021902
17814.9,0.021674
17876.33,0.021955
17938.18,0.021559
18000.47,0.021772
18063.19,0.021935
18126.35,0.022179
18189.95,0.022364
18254.0,0.022841
18318.5,0.022529
18383.46,0.022587
18448.88,0.02317
18514.77,0.022946
18581.13,0.021894
18647.97,0.02203
18715.29,0.022428
18783.1,0.022452
18851.4,0.022209
18920.2,0.022026
18989.51,0.02229
19059.32,0.022774
19129.65,0.022463
19200.5,0.023124
19271.88,0.022411
19343.79,0.021221
19416.24,0.021896
19489.23,0.021993
19562.77,0.021734
19636.88,0.02184
19711.54,0.02277
19786.78,0.023012
19862.59,0.022815
19938.98,0.022746
20015.96,0.02298
20093.55,0.023827
20171.73,0.023973
20250.53,0.022629
20329.94,0.021879
20409.98,0.02224
20490.65,0.022875
20571.96,0.02361
20653.92,0.023279
20736.54,0.022673
20819.82,0.023116
20903.77,0.022556
20988.4,0.022425
21073.72,0.02521
21159.73,0.026752
21246.46,0.025748
21333.89,0.024087
21422.04,0.022511
21510.93,0.022155
21600.56,0.023292
21690.94,0.024788
21782.08,0.024778
21873.99,0.02419
21966.67,0.025095
22060.15,0.024909
22154.42,0.024487
22249.51,0.024543
22345.41,0.025571
22442.14,0.028291
22539.72,0.027328
22638.14,0.024709
22737.43,0.022708
22837.6,0.021006
22938.65,0.022263
23040.6,0.024172
23143.46,0.023814
23247.24,0.022861
23351.96,0.021641
23457.63,0.022032
23564.25,0.019571
23671.85,0.018518
23780.44,0.021317
23890.02,0.020587
24000.63,0.020109
24112.26,0.025734
24224.93,0.029389
24338.66,0.026534
24453.47,0.020529
24569.36,0.018342
24686.36,0.018482
24804.47,0.018699
24923.73,0.022892
25044.13,0.026332
25165.71,0.022449
25288.46,0.017422
25412.43,0.01639
25537.61,0.023554
25664.04,0.031221
25791.72,0.025771
25920.68,0.019322
