Database of Origin,University of Winnipeg Spectrophotometer Facility
Sample Description,8. Sulfates: RELAB + Nicolet spectra / Spectra all made consistently merged: Jan. / 10 / 2005
Date Added,2016-07-15 22:05:54.772894

Data ID,RPN_SUL_10          
Sample ID,SPT103
Mineral Name,Letovicite
Grain Size,<45
Viewing Geometry,30 / 0 | 30
Resolution,5 / 1.3-129
Material Class,Sulfate

Wavelength
305.0,0.251011
310.0,0.249737
315.0,0.253827
320.0,0.257342
325.0,0.263976
330.0,0.270614
335.0,0.280433
340.0,0.292407
345.0,0.306809
350.0,0.322462
355.0,0.341764
360.0,0.363203
365.0,0.387262
370.0,0.413848
375.0,0.442774
380.0,0.471874
385.0,0.50124
390.0,0.530237
395.0,0.561496
400.0,0.586526
405.0,0.60522
410.0,0.62093
415.0,0.634094
420.0,0.644932
425.0,0.65206
430.0,0.660765
435.0,0.669581
440.0,0.675204
445.0,0.681014
450.0,0.687116
455.0,0.691859
460.0,0.697377
465.0,0.70375
470.0,0.70751
475.0,0.711975
480.0,0.719304
485.0,0.721303
490.0,0.726916
495.0,0.732281
500.0,0.735093
505.0,0.740802
510.0,0.744981
515.0,0.74768
520.0,0.751489
525.0,0.758429
530.0,0.757556
535.0,0.763442
540.0,0.766972
545.0,0.771004
550.0,0.773911
555.0,0.778897
560.0,0.782175
565.0,0.787588
570.0,0.789124
575.0,0.793057
580.0,0.796816
585.0,0.801875
590.0,0.804742
595.0,0.806875
600.0,0.810628
605.0,0.813033
610.0,0.816494
615.0,0.820462
620.0,0.822517
625.0,0.827285
630.0,0.827236
635.0,0.831575
640.0,0.835493
645.0,0.836009
650.0,0.837991
655.0,0.841486
660.0,0.843339
665.0,0.849988
670.0,0.849321
675.0,0.849951
680.0,0.855029
685.0,0.859018
690.0,0.857696
695.0,0.862607
700.0,0.862987
705.0,0.866992
710.0,0.867726
715.0,0.866557
720.0,0.870736
725.0,0.875989
730.0,0.874114
735.0,0.877179
740.0,0.878319
745.0,0.882598
750.0,0.880664
755.0,0.88401
760.0,0.886367
765.0,0.888875
770.0,0.889875
775.0,0.889926
780.0,0.89193
785.0,0.891879
790.0,0.895363
795.0,0.894406
800.0,0.897495
805.0,0.898355
810.0,0.897014
815.0,0.898104
820.0,0.90045
825.0,0.90139
830.0,0.900829
835.0,0.901502
840.0,0.902356
845.0,0.902705
850.0,0.90573
855.0,0.90422
860.0,0.905714
865.0,0.906596
870.0,0.905699
875.0,0.908171
880.0,0.908613
885.0,0.907308
890.0,0.907687
895.0,0.90516
900.0,0.908389
905.0,0.904773
910.0,0.908556
915.0,0.908017
920.0,0.909291
925.0,0.908938
930.0,0.909422
935.0,0.906173
940.0,0.910983
945.0,0.909143
950.0,0.910643
955.0,0.910504
960.0,0.910819
965.0,0.908646
970.0,0.910152
975.0,0.912059
980.0,0.912524
985.0,0.911536
990.0,0.912221
995.0,0.910317
1000.0,0.908156
1005.0,0.908102
1010.0,0.90963
1015.0,0.908737
1020.0,0.908486
1025.0,0.905968
1030.0,0.904565
1035.0,0.906771
1040.0,0.903254
1045.0,0.909793
1050.0,0.905329
1055.0,0.90547
1060.0,0.903857
1065.0,0.903663
1070.0,0.903957
1075.0,0.908782
1080.0,0.906143
1085.0,0.907507
1090.0,0.908305
1095.0,0.910084
1100.0,0.909
1105.0,0.9062
1110.0,0.907047
1115.0,0.909779
1120.0,0.908877
1125.0,0.907983
1130.0,0.908773
1135.0,0.910041
1140.0,0.90713
1145.0,0.911797
1150.0,0.909191
1155.0,0.90714
1160.0,0.907141
1165.0,0.90544
1170.0,0.904568
1175.0,0.903958
1180.0,0.902097
1185.0,0.89862
1190.0,0.897712
1195.0,0.897087
1200.0,0.892646
1205.0,0.892949
1210.0,0.889733
1215.0,0.885076
1220.0,0.883373
1225.0,0.881639
1230.0,0.876951
1235.0,0.875154
1240.0,0.87206
1245.0,0.869252
1250.0,0.867237
1255.0,0.866062
1260.0,0.862373
1265.0,0.862094
1270.0,0.86148
1275.0,0.861206
1280.0,0.859296
1285.0,0.864418
1290.0,0.863486
1295.0,0.863382
1300.0,0.865818
1305.0,0.863713
1310.0,0.864984
1315.0,0.86799
1320.0,0.865104
1325.0,0.867277
1330.0,0.868015
1335.0,0.867303
1340.0,0.866244
1345.0,0.866529
1350.0,0.861591
1355.0,0.862675
1360.0,0.861071
1365.0,0.861717
1370.0,0.861649
1375.0,0.857545
1380.0,0.85653
1385.0,0.857056
1390.0,0.854481
1395.0,0.852753
1400.0,0.853818
1405.0,0.848629
1410.0,0.84918
1415.0,0.844806
1420.0,0.840993
1425.0,0.835709
1430.0,0.830554
1435.0,0.824008
1440.0,0.813834
1445.0,0.8009
1450.0,0.790979
1455.0,0.77828
1460.0,0.76501
1465.0,0.750738
1470.0,0.736336
1475.0,0.724977
1480.0,0.714783
1485.0,0.702047
1490.0,0.695036
1495.0,0.687043
1500.0,0.679477
1505.0,0.677922
1510.0,0.674996
1515.0,0.673162
1520.0,0.672728
1525.0,0.665607
1530.0,0.662143
1535.0,0.655969
1540.0,0.649321
1545.0,0.645277
1550.0,0.639855
1555.0,0.634565
1560.0,0.62941
1565.0,0.624862
1570.0,0.623879
1575.0,0.621694
1580.0,0.620982
1585.0,0.6205
1590.0,0.623204
1595.0,0.623859
1600.0,0.628224
1605.0,0.630052
1610.0,0.632402
1615.0,0.636465
1620.0,0.63814
1625.0,0.64053
1630.0,0.647418
1635.0,0.64852
1640.0,0.649608
1645.0,0.653298
1650.0,0.658275
1655.0,0.660277
1660.0,0.664971
1665.0,0.670136
1670.0,0.675791
1675.0,0.678097
1680.0,0.682834
1685.0,0.684211
1690.0,0.689642
1695.0,0.692642
1700.0,0.694867
1705.0,0.698015
1710.0,0.701558
1715.0,0.705189
1720.0,0.708168
1725.0,0.711797
1730.0,0.713574
1735.0,0.714141
1740.0,0.715112
1745.0,0.716416
1750.0,0.715104
1755.0,0.714442
1760.0,0.714614
1765.0,0.711406
1770.0,0.711978
1775.0,0.711208
1780.0,0.712225
1785.0,0.711651
1790.0,0.712634
1795.0,0.713478
1800.0,0.713324
1805.0,0.716385
1810.0,0.715728
1815.0,0.716519
1820.0,0.717197
1825.0,0.717993
1830.0,0.717737
1835.0,0.719605
1840.0,0.715786
1845.0,0.716905
1850.0,0.71487
1855.0,0.712818
1860.0,0.709782
1865.0,0.70633
1870.0,0.701682
1875.0,0.694781
1880.0,0.686949
1885.0,0.677765
1890.0,0.667797
1895.0,0.654019
1900.0,0.640117
1905.0,0.626738
1910.0,0.613528
1915.0,0.598257
1920.0,0.584355
1925.0,0.566448
1930.0,0.550813
1935.0,0.533295
1940.0,0.51796
1945.0,0.499648
1950.0,0.482829
1955.0,0.464541
1960.0,0.447961
1965.0,0.432074
1970.0,0.418311
1975.0,0.40683
1980.0,0.398891
1985.0,0.391685
1990.0,0.38564
1995.0,0.379751
2000.0,0.374715
2005.0,0.368214
2010.0,0.362988
2015.0,0.3569
2020.0,0.352903
2025.0,0.348
2030.0,0.343846
2035.0,0.340176
2040.0,0.33795
2045.0,0.337184
2050.0,0.337662
2055.0,0.338318
2060.0,0.34063
2065.0,0.343197
2070.0,0.344747
2075.0,0.347228
2080.0,0.347271
2085.0,0.346897
2090.0,0.344229
2095.0,0.341343
2100.0,0.335843
2105.0,0.330846
2110.0,0.32486
2115.0,0.31767
2120.0,0.312136
2125.0,0.306265
2130.0,0.301583
2135.0,0.297863
2140.0,0.295125
2145.0,0.292741
2150.0,0.291471
2155.0,0.291271
2160.0,0.291721
2165.0,0.289667
2170.0,0.295635
2175.0,0.299913
2180.0,0.3055
2185.0,0.31405
2190.0,0.323655
2195.0,0.334457
2200.0,0.344899
2205.0,0.353758
2210.0,0.362371
2215.0,0.369538
2220.0,0.376183
2225.0,0.383161
2230.0,0.392685
2235.0,0.400648
2240.0,0.408332
2245.0,0.417238
2250.0,0.424738
2255.0,0.433727
2260.0,0.441857
2265.0,0.449036
2270.0,0.458005
2275.0,0.463702
2280.0,0.467959
2285.0,0.470752
2290.0,0.471351
2295.0,0.470751
2300.0,0.47052
2305.0,0.47141
2310.0,0.470013
2315.0,0.470858
2320.0,0.471241
2325.0,0.471293
2330.0,0.470292
2335.0,0.468927
2340.0,0.468918
2345.0,0.466875
2350.0,0.4649
2355.0,0.46148
2360.0,0.457934
2365.0,0.452493
2370.0,0.447518
2375.0,0.442347
2380.0,0.43595
2385.0,0.429815
2390.0,0.422891
2395.0,0.416289
2400.0,0.409642
2405.0,0.404957
2410.0,0.400284
2415.0,0.39734
2420.0,0.394363
2425.0,0.394676
2430.0,0.397507
2435.0,0.403249
2440.0,0.408137
2445.0,0.414952
2450.0,0.419821
2455.0,0.423636
2460.0,0.426072
2465.0,0.426503
2470.0,0.426201
2475.0,0.423714
2480.0,0.423291
2485.0,0.417912
2490.0,0.415069
2495.0,0.409855
2500.0,0.4063
2505.0,0.401163
2510.0,0.398106
2515.0,0.39363
2520.0,0.392097
2525.0,0.388862
2530.0,0.386042
2535.0,0.38231
2540.0,0.380319
2545.0,0.377054
2550.0,0.374593
2555.0,0.373984
2560.0,0.37208
2565.13,0.3706
2570.22,0.36878
2575.33,0.367011
2580.46,0.36558
2581.74,0.364467
2583.03,0.3637
2584.31,0.362528
2585.6,0.362867
2586.89,0.363247
2588.19,0.362305
2589.48,0.362103
2590.77,0.361584
2592.07,0.361306
2593.36,0.360368
2594.66,0.3582
2595.96,0.357385
2597.26,0.359623
2598.56,0.360101
2599.87,0.358525
2601.17,0.357128
2602.48,0.356177
2603.78,0.355562
2605.09,0.355048
2606.4,0.354228
2607.71,0.354869
2609.03,0.35445
2610.34,0.353278
2611.66,0.352465
2612.97,0.351924
2614.29,0.351822
2615.61,0.351499
2616.93,0.349843
2618.25,0.349324
2619.57,0.349425
2620.9,0.347811
2622.22,0.348124
2623.55,0.348194
2624.88,0.346797
2626.21,0.345185
2627.54,0.344463
2628.87,0.345066
2630.21,0.343693
2631.54,0.342079
2632.88,0.34252
2634.21,0.34178
2635.55,0.340528
2636.89,0.340104
2638.24,0.339647
2639.58,0.338822
2640.92,0.338196
2642.27,0.337289
2643.62,0.336315
2644.97,0.335268
2646.32,0.334325
2647.67,0.334062
2649.02,0.333338
2650.38,0.332039
2651.73,0.331212
2653.09,0.330106
2654.45,0.329127
2655.81,0.327969
2657.17,0.326699
2658.53,0.32579
2659.89,0.325039
2661.26,0.324385
2662.63,0.32336
2664.0,0.321951
2665.36,0.319928
2666.74,0.31854
2668.11,0.318233
2669.48,0.317887
2670.86,0.315072
2672.23,0.314453
2673.61,0.314479
2674.99,0.311936
2676.37,0.309397
2677.76,0.307633
2679.14,0.306497
2680.52,0.304844
2681.91,0.303774
2683.3,0.301954
2684.69,0.300176
2686.08,0.298342
2687.47,0.296926
2688.87,0.295468
2690.26,0.293683
2691.66,0.292046
2693.06,0.290071
2694.46,0.288056
2695.86,0.286856
2697.26,0.285451
2698.66,0.283435
2700.07,0.281624
2701.48,0.280177
2702.89,0.278362
2704.3,0.276888
2705.71,0.275402
2707.12,0.273507
2708.53,0.271023
2709.95,0.268927
2711.37,0.267107
2712.79,0.265993
2714.21,0.264686
2715.63,0.262637
2717.05,0.26059
2718.48,0.258593
2719.9,0.256792
2721.33,0.254393
2722.76,0.253036
2724.19,0.251094
2725.62,0.248765
2727.06,0.247329
2728.49,0.245533
2729.93,0.243369
2731.37,0.241398
2732.81,0.239196
2734.25,0.236617
2735.69,0.234369
2737.14,0.232838
2738.58,0.230678
2740.03,0.22812
2741.48,0.225998
2742.93,0.22422
2744.38,0.222295
2745.83,0.219849
2747.29,0.217635
2748.75,0.214977
2750.2,0.212493
2751.66,0.210078
2753.13,0.207943
2754.59,0.205503
2756.05,0.202848
2757.52,0.200918
2758.99,0.198965
2760.46,0.196256
2761.93,0.193686
2763.4,0.19091
2764.87,0.188575
2766.35,0.186727
2767.82,0.184652
2769.3,0.182295
2770.78,0.179528
2772.26,0.176845
2773.75,0.174911
2775.23,0.172583
2776.72,0.170386
2778.21,0.168566
2779.7,0.166468
2781.19,0.164347
2782.68,0.162044
2784.18,0.159563
2785.67,0.157275
2787.17,0.154892
2788.67,0.152854
2790.17,0.15128
2791.67,0.149296
2793.18,0.147245
2794.68,0.145272
2796.19,0.143194
2797.7,0.141309
2799.21,0.139377
2800.72,0.137537
2802.24,0.135241
2803.75,0.133294
2805.27,0.131746
2806.79,0.130195
2808.31,0.128578
2809.83,0.127091
2811.35,0.125458
2812.88,0.123897
2814.41,0.122027
2815.93,0.120077
2817.46,0.118357
2819.0,0.116788
2820.53,0.115334
2822.07,0.113589
2823.6,0.112037
2825.14,0.110836
2826.68,0.109432
2828.22,0.10802
2829.77,0.106799
2831.31,0.10547
2832.86,0.10416
2834.41,0.102797
2835.96,0.101226
2837.51,0.099882
2839.07,0.098862
2840.62,0.097922
2842.18,0.096601
2843.74,0.095342
2845.3,0.094274
2846.86,0.093286
2848.43,0.092096
2849.99,0.090728
2851.56,0.089755
2853.13,0.088553
2854.7,0.087421
2856.27,0.086291
2857.85,0.084986
2859.42,0.084129
2861.0,0.083296
2862.58,0.082363
2864.16,0.081473
2865.75,0.080492
2867.33,0.079477
2868.92,0.078318
2870.51,0.07718
2872.1,0.076451
2873.69,0.07577
2875.28,0.074991
2876.88,0.074307
2878.48,0.073335
2880.07,0.072136
2881.68,0.071056
2883.28,0.070233
2884.88,0.069622
2886.49,0.068921
2888.1,0.06775
2889.71,0.066717
2891.32,0.066053
2892.93,0.065203
2894.55,0.064325
2896.16,0.063703
2897.78,0.062926
2899.4,0.062007
2901.03,0.061124
2902.65,0.060491
2904.28,0.059826
2905.91,0.05908
2907.54,0.058181
2909.17,0.057096
2910.8,0.056497
2912.44,0.055834
2914.07,0.054778
2915.71,0.054154
2917.35,0.053538
2918.99,0.052482
2920.64,0.051459
2922.29,0.050741
2923.93,0.050158
2925.58,0.049415
2927.24,0.048478
2928.89,0.047816
2930.55,0.0471
2932.2,0.046351
2933.86,0.045581
2935.52,0.044758
2937.19,0.043993
2938.85,0.043349
2940.52,0.042608
2942.19,0.041886
2943.86,0.041079
2945.53,0.040461
2947.21,0.039855
2948.88,0.039126
2950.56,0.038571
2952.24,0.037748
2953.92,0.036761
2955.61,0.035769
2957.29,0.03518
2958.98,0.034747
2960.67,0.034148
2962.36,0.033358
2964.06,0.032718
2965.75,0.032219
2967.45,0.031508
2969.15,0.030736
2970.85,0.029804
2972.55,0.028721
2974.26,0.028041
2975.97,0.027749
2977.68,0.027296
2979.39,0.026633
2981.1,0.026175
2982.82,0.025393
2984.53,0.024695
2986.25,0.024356
2987.97,0.02367
2989.7,0.022908
2991.42,0.02239
2993.15,0.022024
2994.88,0.021542
2996.61,0.020913
2998.34,0.020435
3000.08,0.020219
3001.82,0.019588
3003.55,0.019083
3005.3,0.018781
3007.04,0.018384
3008.78,0.018139
3010.53,0.017686
3012.28,0.017357
3014.03,0.017297
3015.79,0.016943
3017.54,0.016414
3019.3,0.016191
3021.06,0.015937
3022.82,0.015792
3024.58,0.015699
3026.35,0.015472
3028.12,0.015382
3029.89,0.015168
3031.66,0.014962
3033.43,0.014864
3035.21,0.014847
3036.99,0.014753
3038.77,0.0147
3040.55,0.014465
3042.33,0.014309
3044.12,0.014216
3045.91,0.014186
3047.7,0.014265
3049.49,0.014444
3051.29,0.014419
3053.08,0.014087
3054.88,0.014042
3056.68,0.014187
3058.49,0.01426
3060.29,0.014337
3062.1,0.014493
3063.91,0.014493
3065.72,0.014288
3067.54,0.014152
3069.35,0.014214
3071.17,0.014162
3072.99,0.014152
3074.81,0.014197
3076.64,0.014526
3078.47,0.014801
3080.29,0.014826
3082.13,0.014907
3083.96,0.014954
3085.79,0.015206
3087.63,0.015397
3089.47,0.015252
3091.31,0.015282
3093.16,0.015502
3095.01,0.015606
3096.85,0.015683
3098.71,0.015744
3100.56,0.015831
3102.41,0.015934
3104.27,0.016006
3106.13,0.015984
3107.99,0.016168
3109.86,0.016367
3111.73,0.016515
3113.59,0.016568
3115.47,0.01652
3117.34,0.016511
3119.21,0.016604
3121.09,0.016867
3122.97,0.017101
3124.86,0.017218
3126.74,0.017529
3128.63,0.0177
3130.52,0.017612
3132.41,0.017662
3134.3,0.017698
3136.2,0.017916
3138.1,0.018176
3140.0,0.018195
3141.9,0.018117
3143.81,0.018335
3145.71,0.018595
3147.62,0.018794
3149.54,0.019031
3151.45,0.019224
3153.37,0.019238
3155.29,0.019236
3157.21,0.019404
3159.13,0.019716
3161.06,0.019997
3162.99,0.020049
3164.92,0.020096
3166.85,0.020092
3168.79,0.020107
3170.72,0.020171
3172.67,0.020391
3174.61,0.02063
3176.55,0.020708
3178.5,0.020721
3180.45,0.020815
3182.4,0.020878
3184.36,0.020945
3186.32,0.021033
3188.27,0.02111
3190.24,0.021307
3192.2,0.021398
3194.17,0.0214
3196.14,0.021522
3198.11,0.021601
3200.08,0.021614
3202.06,0.021632
3204.04,0.021721
3206.02,0.021734
3208.0,0.021813
3209.99,0.021844
3211.98,0.02192
3213.97,0.02198
3215.96,0.02199
3217.96,0.021988
3219.96,0.021964
3221.96,0.021915
3223.96,0.02175
3225.97,0.021811
3227.98,0.021863
3229.99,0.021828
3232.0,0.021769
3234.02,0.021717
3236.04,0.021794
3238.06,0.021818
3240.08,0.021758
3242.11,0.021773
3244.14,0.021788
3246.17,0.02186
3248.2,0.021785
3250.24,0.021744
3252.28,0.021862
3254.32,0.021955
3256.37,0.02189
3258.41,0.021972
3260.46,0.022151
3262.51,0.02225
3264.57,0.022289
3266.63,0.022201
3268.69,0.022319
3270.75,0.022562
3272.81,0.02273
3274.88,0.022915
3276.95,0.022924
3279.02,0.022854
3281.1,0.023145
3283.18,0.023469
3285.26,0.0235
3287.34,0.02366
3289.43,0.023898
3291.51,0.023949
3293.61,0.024092
3295.7,0.024145
3297.8,0.024345
3299.9,0.024587
3302.0,0.024805
3304.1,0.024888
3306.21,0.025119
3308.32,0.025322
3310.43,0.025467
3312.55,0.025544
3314.66,0.025791
3316.79,0.026172
3318.91,0.026409
3321.03,0.026566
3323.16,0.026789
3325.29,0.027033
3327.43,0.027232
3329.57,0.027423
3331.71,0.027546
3333.85,0.027714
3335.99,0.028079
3338.14,0.028388
3340.29,0.028487
3342.45,0.028792
3344.6,0.029078
3346.76,0.029385
3348.92,0.029754
3351.09,0.029974
3353.26,0.03012
3355.43,0.030338
3357.6,0.030857
3359.78,0.03118
3361.96,0.031183
3364.14,0.031161
3366.32,0.031463
3368.51,0.031938
3370.7,0.032243
3372.89,0.032343
3375.09,0.032606
3377.29,0.033045
3379.49,0.03336
3381.69,0.033501
3383.9,0.033723
3386.11,0.034075
3388.32,0.034417
3390.54,0.034678
3392.76,0.034764
3394.98,0.034906
3397.21,0.035157
3399.43,0.035518
3401.66,0.035926
3403.9,0.036066
3406.13,0.036225
3408.37,0.036249
3410.61,0.036214
3412.86,0.036362
3415.11,0.036592
3417.36,0.036858
3419.61,0.037109
3421.87,0.03709
3424.13,0.037143
3426.39,0.037336
3428.66,0.037403
3430.93,0.037437
3433.2,0.037466
3435.48,0.037666
3437.76,0.037884
3440.04,0.03779
3442.32,0.03779
3444.61,0.038074
3446.9,0.03818
3449.19,0.037974
3451.49,0.037974
3453.79,0.038017
3456.09,0.038182
3458.4,0.038288
3460.7,0.038298
3463.02,0.038316
3465.33,0.038334
3467.65,0.038566
3469.97,0.038793
3472.29,0.038787
3474.62,0.038851
3476.95,0.038974
3479.29,0.039128
3481.62,0.039051
3483.96,0.039133
3486.3,0.039437
3488.65,0.039449
3491.0,0.039453
3493.35,0.039572
3495.71,0.039758
3498.07,0.039894
3500.43,0.040038
3502.79,0.040057
3505.16,0.040173
3507.53,0.040412
3509.91,0.040679
3512.29,0.041097
3514.67,0.041454
3517.05,0.041577
3519.44,0.041773
3521.83,0.04214
3524.23,0.042654
3526.62,0.043047
3529.02,0.043282
3531.43,0.043711
3533.83,0.044161
3536.24,0.044615
3538.66,0.045183
3541.08,0.045767
3543.5,0.046113
3545.92,0.046518
3548.35,0.047026
3550.78,0.047524
3553.21,0.04817
3555.65,0.048813
3558.09,0.049427
3560.53,0.05009
3562.98,0.050673
3565.43,0.051247
3567.88,0.051972
3570.34,0.052607
3572.8,0.053297
3575.27,0.053903
3577.73,0.054473
3580.2,0.055179
3582.68,0.055842
3585.16,0.056495
3587.64,0.057326
3590.12,0.058056
3592.61,0.058659
3595.1,0.059306
3597.6,0.060126
3600.09,0.060973
3602.6,0.061712
3605.1,0.062373
3607.61,0.063062
3610.12,0.063896
3612.64,0.064676
3615.16,0.065451
3617.68,0.066204
3620.21,0.066843
3622.74,0.067535
3625.27,0.068228
3627.81,0.069017
3630.35,0.069837
3632.89,0.070687
3635.44,0.071512
3637.99,0.07223
3640.54,0.073044
3643.1,0.073811
3645.66,0.074431
3648.23,0.075158
3650.8,0.075933
3653.37,0.076626
3655.95,0.077529
3658.53,0.078374
3661.11,0.079189
3663.7,0.079939
3666.29,0.080732
3668.89,0.081564
3671.48,0.082287
3674.09,0.082993
3676.69,0.083722
3679.3,0.084308
3681.91,0.085031
3684.53,0.086072
3687.15,0.087003
3689.78,0.087674
3692.4,0.088347
3695.04,0.089014
3697.67,0.089729
3700.31,0.090456
3702.95,0.091251
3705.6,0.092017
3708.25,0.092673
3710.91,0.093372
3713.56,0.094282
3716.23,0.095179
3718.89,0.09595
3721.56,0.09665
3724.23,0.097308
3726.91,0.098002
3729.59,0.098839
3732.28,0.09949
3734.97,0.100069
3737.66,0.100838
3740.36,0.101714
3743.06,0.102436
3745.76,0.103041
3748.47,0.103763
3751.18,0.104473
3753.9,0.105124
3756.62,0.105894
3759.34,0.106706
3762.07,0.107425
3764.8,0.108075
3767.54,0.108765
3770.28,0.1095
3773.02,0.110198
3775.77,0.110939
3778.52,0.111571
3781.28,0.112188
3784.04,0.112808
3786.8,0.113518
3789.57,0.114208
3792.34,0.114966
3795.12,0.115702
3797.9,0.116324
3800.69,0.117107
3803.47,0.117812
3806.27,0.118526
3809.06,0.119201
3811.86,0.119839
3814.67,0.120462
3817.48,0.120966
3820.29,0.121563
3823.11,0.122367
3825.93,0.123172
3828.76,0.123867
3831.59,0.124436
3834.42,0.125041
3837.26,0.125659
3840.1,0.126429
3842.95,0.127219
3845.8,0.12775
3848.65,0.128448
3851.51,0.12923
3854.38,0.129826
3857.24,0.130371
3860.12,0.130935
3862.99,0.131534
3865.87,0.13216
3868.76,0.132834
3871.65,0.133503
3874.54,0.134105
3877.44,0.134644
3880.34,0.135141
3883.25,0.135752
3886.16,0.136468
3889.07,0.137039
3891.99,0.137576
3894.92,0.138085
3897.85,0.138639
3900.78,0.1392
3903.72,0.139745
3906.66,0.140269
3909.6,0.140775
3912.55,0.141324
3915.51,0.14193
3918.47,0.142405
3921.43,0.142788
3924.4,0.143282
3927.38,0.143893
3930.35,0.144417
3933.33,0.144864
3936.32,0.145415
3939.31,0.145851
3942.31,0.146194
3945.31,0.146732
3948.31,0.147122
3951.32,0.147464
3954.34,0.148102
3957.35,0.148721
3960.38,0.149133
3963.41,0.149426
3966.44,0.149869
3969.48,0.150365
3972.52,0.150893
3975.56,0.151393
3978.61,0.151654
3981.67,0.151905
3984.73,0.152263
3987.8,0.152753
3990.87,0.153247
3993.94,0.153637
3997.02,0.154103
4000.1,0.154554
4003.19,0.154975
4006.29,0.155371
4009.39,0.155697
4012.49,0.156002
4015.6,0.156422
4018.71,0.156691
4021.83,0.15711
4024.95,0.157706
4028.08,0.158201
4031.21,0.158611
4034.35,0.158873
4037.49,0.15915
4040.64,0.159482
4043.79,0.159862
4046.94,0.160341
4050.11,0.160783
4053.27,0.161068
4056.44,0.161391
4059.62,0.161777
4062.8,0.162091
4065.99,0.16229
4069.18,0.162515
4072.38,0.162904
4075.58,0.163347
4078.78,0.163695
4082.0,0.163976
4085.21,0.164313
4088.43,0.164652
4091.66,0.164809
4094.89,0.165095
4098.13,0.165421
4101.37,0.165723
4104.62,0.16602
4107.87,0.166312
4111.13,0.166603
4114.39,0.166811
4117.66,0.167086
4120.93,0.167321
4124.21,0.167573
4127.5,0.167817
4130.79,0.16808
4134.08,0.168424
4137.38,0.168683
4140.68,0.168874
4143.99,0.169133
4147.31,0.169291
4150.63,0.169468
4153.95,0.169772
4157.29,0.170023
4160.62,0.170336
4163.96,0.170563
4167.31,0.17064
4170.66,0.170808
4174.02,0.171044
4177.39,0.171201
4180.75,0.171462
4184.13,0.171585
4187.51,0.171557
4190.89,0.171729
4194.28,0.171995
4197.68,0.172226
4201.08,0.172205
4204.49,0.172283
4207.9,0.172453
4211.32,0.172557
4214.74,0.172637
4218.17,0.172814
4221.61,0.17286
4225.05,0.172971
4228.5,0.173215
4231.95,0.173351
4235.4,0.17354
4238.87,0.173654
4242.34,0.173628
4245.81,0.173597
4249.29,0.173485
4252.78,0.173529
4256.27,0.17356
4259.77,0.17341
4263.27,0.173274
4266.78,0.173176
4270.29,0.173063
4273.81,0.173104
4277.34,0.173142
4280.87,0.173023
4284.41,0.173014
4287.95,0.173085
4291.5,0.172971
4295.06,0.172832
4298.62,0.172702
4302.19,0.172565
4305.76,0.172374
4309.34,0.172284
4312.92,0.172181
4316.52,0.172005
4320.11,0.171835
4323.72,0.171707
4327.32,0.17151
4330.94,0.171315
4334.56,0.171208
4338.19,0.171013
4341.82,0.170773
4345.46,0.170583
4349.11,0.170317
4352.76,0.170057
4356.42,0.169904
4360.08,0.169837
4363.75,0.169635
4367.43,0.169342
4371.11,0.16914
4374.8,0.168974
4378.49,0.168749
4382.19,0.168467
4385.9,0.168146
4389.61,0.167868
4393.33,0.167593
4397.06,0.167425
4400.79,0.167146
4404.53,0.166824
4408.28,0.16658
4412.03,0.166333
4415.79,0.166118
4419.55,0.165805
4423.32,0.16545
4427.1,0.165148
4430.88,0.164912
4434.68,0.164629
4438.47,0.164188
4442.28,0.163859
4446.08,0.163643
4449.9,0.163378
4453.72,0.163084
4457.55,0.162777
4461.39,0.162451
4465.23,0.161995
4469.08,0.161629
4472.94,0.161266
4476.8,0.160863
4480.67,0.160518
4484.55,0.160199
4488.43,0.159937
4492.32,0.159655
4496.21,0.15938
4500.12,0.15914
4504.03,0.158874
4507.94,0.15847
4511.87,0.158156
4515.8,0.157904
4519.73,0.157652
4523.68,0.157409
4527.63,0.157183
4531.59,0.15695
4535.55,0.156749
4539.52,0.156555
4543.5,0.156372
4547.49,0.156152
4551.48,0.155907
4555.48,0.155668
4559.49,0.155437
4563.5,0.155273
4567.52,0.155105
4571.55,0.154816
4575.58,0.154568
4579.63,0.154385
4583.67,0.154178
4587.73,0.15389
4591.79,0.153614
4595.86,0.153431
4599.94,0.153216
4604.03,0.152955
4608.12,0.152763
4612.22,0.15245
4616.33,0.152052
4620.44,0.15174
4624.56,0.15152
4628.69,0.151192
4632.83,0.150898
4636.97,0.150556
4641.12,0.150185
4645.28,0.149936
4649.45,0.149635
4653.62,0.14916
4657.8,0.14875
4661.99,0.148423
4666.19,0.148108
4670.39,0.147726
4674.6,0.147253
4678.82,0.14686
4683.05,0.146452
4687.28,0.145812
4691.52,0.145228
4695.77,0.144818
4700.03,0.144376
4704.3,0.143893
4708.57,0.143485
4712.85,0.142865
4717.14,0.142156
4721.43,0.14152
4725.74,0.140883
4730.05,0.140314
4734.37,0.139837
4738.7,0.139372
4743.03,0.138948
4747.38,0.138528
4751.73,0.13818
4756.09,0.1378
4760.45,0.137357
4764.83,0.136908
4769.21,0.136609
4773.6,0.136393
4778.0,0.136102
4782.41,0.135855
4786.83,0.135546
4791.25,0.135174
4795.68,0.134791
4800.13,0.134447
4804.57,0.134163
4809.03,0.133972
4813.5,0.133699
4817.97,0.133313
4822.45,0.133011
4826.94,0.132741
4831.44,0.132542
4835.95,0.132357
4840.46,0.132181
4844.99,0.131955
4849.52,0.131807
4854.06,0.131638
4858.61,0.131425
4863.17,0.131208
4867.73,0.131024
4872.31,0.130908
4876.89,0.130773
4881.48,0.130633
4886.08,0.130562
4890.69,0.130511
4895.31,0.130568
4899.94,0.130694
4904.57,0.130883
4909.22,0.131173
4913.87,0.13153
4918.53,0.131811
4923.21,0.132144
4927.88,0.132514
4932.57,0.132849
4937.27,0.133101
4941.98,0.133285
4946.69,0.133473
4951.42,0.133724
4956.15,0.134014
4960.9,0.134161
4965.65,0.134195
4970.41,0.134407
4975.18,0.134587
4979.96,0.134719
4984.75,0.134807
4989.54,0.134817
4994.35,0.134864
4999.17,0.135057
5003.99,0.135211
5008.83,0.135281
5013.67,0.135342
5018.52,0.135381
5023.39,0.135365
5028.26,0.135514
5033.14,0.135584
5038.03,0.135558
5042.93,0.135519
5047.84,0.135643
5052.76,0.135679
5057.69,0.135653
5062.63,0.135692
5067.58,0.135793
5072.54,0.135801
5077.51,0.135748
5082.49,0.135683
5087.47,0.135703
5092.47,0.13567
5097.48,0.135628
5102.5,0.135583
5107.52,0.135528
5112.56,0.135518
5117.61,0.135517
5122.66,0.135297
5127.73,0.135126
5132.81,0.135094
5137.89,0.134973
5142.99,0.134796
5148.1,0.134642
5153.22,0.134444
5158.34,0.134179
5163.48,0.134034
5168.63,0.133911
5173.79,0.133639
5178.96,0.133358
5184.13,0.133143
5189.32,0.132913
5194.52,0.132599
5199.73,0.132234
5204.96,0.131879
5210.19,0.131488
5215.43,0.131101
5220.68,0.13084
5225.94,0.130482
5231.22,0.129957
5236.5,0.129475
5241.79,0.129111
5247.1,0.128659
5252.42,0.128107
5257.74,0.127538
5263.08,0.127068
5268.43,0.126693
5273.79,0.126299
5279.16,0.125692
5284.54,0.125097
5289.93,0.124554
5295.34,0.123923
5300.75,0.123342
5306.18,0.122815
5311.61,0.122183
5317.06,0.121517
5322.52,0.120926
5327.99,0.120341
5333.47,0.11974
5338.96,0.119077
5344.47,0.118373
5349.98,0.117722
5355.51,0.117134
5361.05,0.116474
5366.6,0.115846
5372.16,0.115271
5377.73,0.114669
5383.32,0.114092
5388.91,0.113429
5394.52,0.112853
5400.14,0.112235
5405.77,0.111521
5411.41,0.110798
5417.07,0.110166
5422.74,0.109487
5428.41,0.108866
5434.1,0.10832
5439.81,0.107718
5445.52,0.107149
5451.25,0.106594
5456.98,0.105983
5462.73,0.105364
5468.5,0.104772
5474.27,0.104092
5480.06,0.103475
5485.86,0.102931
5491.67,0.102406
5497.49,0.101942
5503.33,0.101403
5509.18,0.100782
5515.04,0.100214
5520.91,0.099728
5526.8,0.099189
5532.69,0.098619
5538.61,0.098128
5544.53,0.097552
5550.47,0.09701
5556.41,0.096505
5562.38,0.096073
5568.35,0.095681
5574.34,0.095198
5580.34,0.094624
5586.35,0.094055
5592.38,0.093685
5598.42,0.093294
5604.47,0.092769
5610.54,0.092308
5616.61,0.091898
5622.71,0.091453
5628.81,0.091003
5634.93,0.090586
5641.06,0.090162
5647.21,0.089679
5653.36,0.089326
5659.54,0.088903
5665.72,0.088539
5671.92,0.08814
5678.13,0.087684
5684.36,0.087378
5690.6,0.087027
5696.85,0.086541
5703.12,0.086176
5709.4,0.085708
5715.69,0.085238
5722.0,0.084887
5728.33,0.084537
5734.66,0.084061
5741.01,0.083619
5747.38,0.083117
5753.76,0.082469
5760.15,0.081878
5766.56,0.081234
5772.98,0.080712
5779.41,0.080201
5785.86,0.079453
5792.33,0.078746
5798.81,0.078006
5805.3,0.077211
5811.81,0.076408
5818.33,0.075638
5824.87,0.074885
5831.42,0.074023
5837.99,0.073063
5844.57,0.072204
5851.17,0.071417
5857.78,0.070548
5864.41,0.069759
5871.05,0.06904
5877.7,0.068282
5884.38,0.067657
5891.06,0.067147
5897.76,0.066467
5904.48,0.065952
5911.21,0.065541
5917.96,0.065101
5924.73,0.064771
5931.5,0.064485
5938.3,0.064113
5945.11,0.063845
5951.93,0.063658
5958.78,0.063538
5965.63,0.063358
5972.51,0.063252
5979.39,0.063372
5986.3,0.063379
5993.22,0.063338
6000.16,0.063511
6007.11,0.063683
6014.08,0.06376
6021.06,0.064082
6028.06,0.064444
6035.08,0.064628
6042.12,0.064911
6049.17,0.065148
6056.23,0.065514
6063.32,0.066183
6070.42,0.066465
6077.53,0.066691
6084.67,0.067057
6091.82,0.067418
6098.98,0.067727
6106.17,0.068149
6113.37,0.068425
6120.58,0.068733
6127.82,0.069248
6135.07,0.069649
6142.34,0.069953
6149.63,0.070308
6156.93,0.070567
6164.25,0.070778
6171.59,0.07106
6178.95,0.07135
6186.32,0.071423
6193.71,0.071577
6201.12,0.071804
6208.54,0.071864
6215.99,0.071924
6223.45,0.07197
6230.93,0.071909
6238.43,0.071835
6245.95,0.071703
6253.48,0.071563
6261.03,0.071286
6268.6,0.070974
6276.19,0.070753
6283.8,0.070574
6291.43,0.070283
6299.07,0.070018
6306.73,0.069771
6314.42,0.069472
6322.12,0.069107
6329.84,0.06885
6337.57,0.068513
6345.33,0.067942
6353.11,0.06739
6360.9,0.066996
6368.72,0.066569
6376.55,0.065961
6384.4,0.065284
6392.27,0.064672
6400.17,0.063964
6408.08,0.063152
6416.01,0.062291
6423.96,0.061419
6431.93,0.06064
6439.92,0.059917
6447.93,0.058992
6455.96,0.057941
6464.01,0.056902
6472.08,0.055802
6480.17,0.054603
6488.28,0.05342
6496.41,0.05224
6504.56,0.051014
6512.73,0.049769
6520.92,0.048513
6529.14,0.047168
6537.37,0.045874
6545.63,0.044558
6553.9,0.043154
6562.2,0.041593
6570.51,0.040096
6578.85,0.038601
6587.21,0.037062
6595.59,0.035643
6603.99,0.034217
6612.42,0.032737
6620.86,0.031179
6629.33,0.029588
6637.82,0.028183
6646.33,0.026575
6654.86,0.025019
6663.41,0.023713
6671.99,0.022362
6680.59,0.020955
6689.21,0.019699
6697.85,0.0185
6706.51,0.017413
6715.2,0.016268
6723.91,0.015307
6732.64,0.014506
6741.4,0.013907
6750.18,0.013352
6758.98,0.012928
6767.8,0.012694
6776.65,0.012554
6785.52,0.01246
6794.41,0.012527
6803.33,0.012617
6812.27,0.012904
6821.23,0.013243
6830.22,0.013641
6839.23,0.014022
6848.26,0.014369
6857.32,0.014793
6866.4,0.015299
6875.51,0.01575
6884.64,0.016252
6893.8,0.016809
6902.98,0.017358
6912.18,0.017907
6921.41,0.018482
6930.66,0.019084
6939.94,0.019666
6949.24,0.020276
6958.57,0.020894
6967.92,0.021441
6977.3,0.02205
6986.7,0.022575
6996.13,0.023127
7005.59,0.023745
7015.07,0.02425
7024.57,0.024677
7034.1,0.025084
7043.66,0.025511
7053.25,0.026021
7062.85,0.026452
7072.49,0.026813
7082.15,0.027241
7091.84,0.027755
7101.55,0.028238
7111.3,0.028724
7121.06,0.029264
7130.86,0.029793
7140.68,0.030375
7150.53,0.031106
7160.41,0.031911
7170.31,0.032816
7180.24,0.033749
7190.2,0.034724
7200.19,0.035759
7210.2,0.036758
7220.24,0.037746
7230.31,0.038967
7240.41,0.040211
7250.54,0.041313
7260.69,0.042459
7270.88,0.043556
7281.09,0.044522
7291.33,0.045533
7301.6,0.046623
7311.9,0.047659
7322.22,0.048625
7332.58,0.049595
7342.97,0.050563
7353.38,0.051503
7363.83,0.05237
7374.3,0.053145
7384.81,0.053853
7395.34,0.054509
7405.91,0.055219
7416.5,0.055862
7427.13,0.056385
7437.78,0.056763
7448.47,0.057227
7459.19,0.057707
7469.94,0.057984
7480.71,0.05821
7491.52,0.058456
7502.37,0.058616
7513.24,0.05867
7524.14,0.058605
7535.08,0.058534
7546.05,0.058448
7557.05,0.058329
7568.08,0.05806
7579.15,0.057768
7590.24,0.057473
7601.37,0.057084
7612.53,0.056611
7623.73,0.056109
7634.96,0.055501
7646.22,0.054795
7657.51,0.054175
7668.84,0.053584
7680.2,0.052777
7691.59,0.051912
7703.02,0.051025
7714.49,0.05007
7725.98,0.049195
7737.52,0.048312
7749.08,0.047178
7760.68,0.045962
7772.32,0.044798
7783.99,0.043614
7795.69,0.042492
7807.43,0.041257
7819.21,0.039986
7831.02,0.038794
7842.87,0.037675
7854.75,0.036502
7866.67,0.035163
7878.62,0.033856
7890.62,0.032779
7902.64,0.031698
7914.71,0.030701
7926.81,0.029784
7938.95,0.028854
7951.13,0.028001
7963.34,0.02719
7975.59,0.026457
7987.88,0.025809
8000.21,0.025264
8012.57,0.024871
8024.98,0.024569
8037.42,0.024304
8049.9,0.024101
8062.42,0.023991
8074.98,0.02393
8087.57,0.023959
8100.21,0.024051
8112.89,0.024148
8125.6,0.024341
8138.36,0.024493
8151.16,0.024601
8163.99,0.024925
8176.87,0.025334
8189.79,0.025688
8202.75,0.026074
8215.75,0.026451
8228.79,0.026711
8241.87,0.026991
8254.99,0.027269
8268.16,0.027552
8281.37,0.027828
8294.62,0.028216
8307.91,0.02863
8321.24,0.029039
8334.62,0.029506
8348.04,0.030018
8361.51,0.030393
8375.02,0.0309
8388.57,0.031425
8402.16,0.031776
8415.8,0.03214
8429.49,0.032674
8443.22,0.033297
8456.99,0.033922
8470.81,0.034542
8484.67,0.035148
8498.58,0.03575
8512.54,0.036361
8526.54,0.036963
8540.58,0.037523
8554.68,0.03822
8568.82,0.038903
8583.0,0.039464
8597.24,0.040008
8611.52,0.040493
8625.85,0.041112
8640.23,0.041665
8654.65,0.042139
8669.12,0.042666
8683.64,0.043124
8698.21,0.043482
8712.83,0.043698
8727.5,0.044041
8742.22,0.044447
8756.99,0.044734
8771.8,0.044963
8786.67,0.045247
8801.59,0.045494
8816.56,0.045757
8831.58,0.046027
8846.65,0.046348
8861.77,0.046604
8876.94,0.046737
8892.17,0.046883
8907.45,0.046918
8922.78,0.046906
8938.16,0.046884
8953.6,0.046844
8969.09,0.046917
8984.64,0.046918
9000.23,0.046939
9015.89,0.046969
9031.59,0.046844
9047.36,0.046702
9063.17,0.04657
9079.05,0.046469
9094.97,0.046265
9110.96,0.04607
9127.0,0.045819
9143.1,0.045592
9159.25,0.045453
9175.46,0.045339
9191.73,0.045377
9208.06,0.045405
9224.44,0.045279
9240.88,0.045157
9257.38,0.045061
9273.94,0.044857
9290.56,0.04475
9307.24,0.044652
9323.98,0.044524
9340.78,0.044324
9357.64,0.0443
9374.57,0.044257
9391.55,0.04426
9408.59,0.044512
9425.7,0.044612
9442.87,0.044633
9460.1,0.044888
9477.4,0.045325
9494.75,0.045665
9512.17,0.045989
9529.66,0.046411
9547.21,0.047029
9564.83,0.047618
9582.5,0.048041
9600.25,0.04851
9618.06,0.049121
9635.94,0.049628
9653.88,0.050197
9671.89,0.050893
9689.97,0.051472
9708.12,0.05188
9726.33,0.052445
9744.62,0.0531
9762.97,0.053703
9781.39,0.054492
9799.88,0.05531
9818.44,0.055953
9837.07,0.056464
9855.77,0.05683
9874.54,0.057283
9893.39,0.057807
9912.3,0.058318
9931.29,0.058789
9950.36,0.059242
9969.49,0.059836
9988.7,0.060442
10007.98,0.060978
10027.34,0.061529
10046.77,0.062039
10066.28,0.062561
10085.87,0.06325
10105.53,0.064046
10125.26,0.064773
10145.08,0.065414
10164.97,0.065855
10184.94,0.065658
10204.99,0.065638
10225.12,0.067092
10245.33,0.069238
10265.61,0.070898
10285.98,0.072371
10306.43,0.074254
10326.96,0.076215
10347.57,0.077965
10368.27,0.07951
10389.05,0.080913
10409.91,0.082507
10430.86,0.08409
10451.88,0.085397
10473.0,0.086737
10494.2,0.088087
10515.49,0.089315
10536.86,0.090434
10558.32,0.091475
10579.87,0.092456
10601.5,0.093184
10623.23,0.09393
10645.04,0.094552
10666.94,0.095083
10688.94,0.095646
10711.02,0.096081
10733.2,0.096314
10755.47,0.096555
10777.83,0.096755
10800.28,0.096713
10822.83,0.096672
10845.47,0.096704
10868.21,0.096581
10891.04,0.096344
10913.97,0.096014
10936.99,0.095578
10960.12,0.095161
10983.34,0.094828
11006.66,0.094141
11030.07,0.093431
11053.59,0.092869
11077.21,0.09226
11100.93,0.091569
11124.75,0.090887
11148.68,0.090345
11172.71,0.089735
11196.84,0.088989
11221.07,0.088195
11245.41,0.087543
11269.86,0.086801
11294.41,0.086156
11319.07,0.085762
11343.84,0.085417
11368.72,0.084942
11393.7,0.084474
11418.8,0.084237
11444.01,0.084038
11469.33,0.083764
11494.76,0.083562
11520.3,0.083384
11545.96,0.083174
11571.73,0.083063
11597.62,0.083139
11623.62,0.083306
11649.74,0.083392
11675.98,0.083491
11702.34,0.083552
11728.81,0.083582
11755.41,0.083829
11782.13,0.083883
11808.96,0.083879
11835.92,0.084025
11863.01,0.083854
11890.22,0.083533
11917.55,0.083606
11945.01,0.083421
11972.6,0.083187
12000.31,0.083227
12028.16,0.083126
12056.13,0.08284
12084.23,0.082265
12112.46,0.081872
12140.83,0.081733
12169.33,0.081543
12197.96,0.081172
12226.73,0.080738
12255.64,0.080347
12284.68,0.079928
12313.86,0.079735
12343.18,0.079532
12372.64,0.079194
12402.24,0.07874
12431.98,0.078138
12461.86,0.077645
12491.89,0.077252
12522.07,0.076957
12552.38,0.076732
12582.85,0.076417
12613.47,0.076155
12644.23,0.075933
12675.15,0.075718
12706.21,0.075462
12737.43,0.075056
12768.81,0.074811
12800.33,0.074708
12832.02,0.074604
12863.86,0.07443
12895.86,0.074108
12928.02,0.073733
12960.34,0.073507
12992.82,0.073324
13025.46,0.072963
13058.27,0.072549
13091.25,0.072133
13124.39,0.071696
13157.7,0.071242
13191.18,0.070669
13224.83,0.070184
13258.66,0.069645
13292.65,0.069061
13326.83,0.068606
13361.17,0.068052
13395.7,0.067586
13430.4,0.067046
13465.29,0.066439
13500.35,0.065872
13535.6,0.065306
13571.03,0.064697
13606.65,0.064089
13642.46,0.063638
13678.46,0.06306
13714.64,0.062489
13751.02,0.061933
13787.59,0.061365
13824.36,0.060765
13861.32,0.060222
13898.49,0.059621
13935.85,0.058953
13973.41,0.058448
14011.17,0.057851
14049.15,0.057043
14087.32,0.056112
14125.71,0.055468
14164.3,0.05481
14203.11,0.053618
14242.13,0.052793
14281.36,0.051889
14320.81,0.050486
14360.49,0.049221
14400.38,0.048107
14440.49,0.0469
14480.82,0.045485
14521.39,0.044048
14562.18,0.042542
14603.2,0.040988
14644.45,0.039584
14685.93,0.038255
14727.66,0.036751
14769.62,0.035376
14811.81,0.034079
14854.25,0.032962
14896.94,0.031884
14939.87,0.031074
14983.05,0.030562
15026.48,0.029756
15070.16,0.029034
15114.1,0.028765
15158.29,0.028473
15202.74,0.028165
15247.46,0.027997
15292.43,0.027561
15337.68,0.027228
15383.19,0.027157
15428.97,0.026821
15475.03,0.026384
15521.36,0.026052
15567.97,0.025768
15614.87,0.025384
15662.04,0.024677
15709.5,0.02385
15757.25,0.023702
15805.29,0.02357
15853.62,0.023499
15902.26,0.024043
15951.19,0.024736
16000.42,0.025827
16049.95,0.027308
16099.8,0.028651
16149.95,0.029696
16200.42,0.030543
16251.21,0.031129
16302.31,0.031961
16353.74,0.033019
16405.49,0.033405
16457.57,0.033685
16509.98,0.033863
16562.73,0.034285
16615.82,0.03474
16669.24,0.035481
16723.02,0.036766
16777.14,0.037904
16831.61,0.038477
16886.43,0.039232
16941.62,0.040315
16997.16,0.041121
17053.08,0.041835
17109.36,0.04272
17166.01,0.043386
17223.04,0.043724
17280.45,0.044303
17338.24,0.045275
17396.43,0.045988
17455.0,0.046485
17513.97,0.046808
17573.34,0.046975
17633.11,0.046991
17693.29,0.047544
17753.89,0.048447
17814.9,0.048677
17876.33,0.048372
17938.18,0.0484
18000.47,0.048627
18063.19,0.048893
18126.35,0.048699
18189.95,0.048678
18254.0,0.048841
18318.5,0.048667
18383.46,0.048598
18448.88,0.048881
18514.77,0.049111
18581.13,0.048811
18647.97,0.04844
18715.29,0.04866
18783.1,0.048431
18851.4,0.048142
18920.2,0.047882
18989.51,0.047089
19059.32,0.046685
19129.65,0.046337
19200.5,0.046202
19271.88,0.045895
19343.79,0.045617
19416.24,0.044797
19489.23,0.043606
19562.77,0.042957
19636.88,0.042567
19711.54,0.042285
19786.78,0.041723
19862.59,0.041451
19938.98,0.041654
20015.96,0.041639
20093.55,0.041235
20171.73,0.040657
20250.53,0.039945
20329.94,0.039463
20409.98,0.038927
20490.65,0.038625
20571.96,0.038648
20653.92,0.038253
20736.54,0.037177
20819.82,0.036365
20903.77,0.036381
20988.4,0.036688
21073.72,0.03589
21159.73,0.035191
21246.46,0.034989
21333.89,0.034467
21422.04,0.034492
21510.93,0.034434
21600.56,0.034423
21690.94,0.033758
21782.08,0.033445
21873.99,0.034332
21966.67,0.034426
22060.15,0.033756
22154.42,0.033217
22249.51,0.032604
22345.41,0.032442
22442.14,0.032413
22539.72,0.032128
22638.14,0.032183
22737.43,0.031488
22837.6,0.030714
22938.65,0.029682
23040.6,0.028789
23143.46,0.028035
23247.24,0.027852
23351.96,0.027625
23457.63,0.027569
23564.25,0.027334
23671.85,0.027099
23780.44,0.027024
23890.02,0.026363
24000.63,0.025508
24112.26,0.025807
24224.93,0.025847
24338.66,0.024823
24453.47,0.025925
24569.36,0.027176
24686.36,0.026737
24804.47,0.026039
24923.73,0.025774
25044.13,0.026324
25165.71,0.029864
25288.46,0.032877
25412.43,0.031618
25537.61,0.031094
25664.04,0.03342
25791.72,0.031047
25920.68,0.029969
