Database of Origin,University of Winnipeg Spectrophotometer Facility
Sample Description,8. Sulfates: RELAB + Nicolet spectra / Spectra all made consistently merged: Jan. / 10 / 2005
Date Added,2016-07-15 22:05:55.005767

Data ID,RPN_SUL_27          
Sample ID,SPT112
Mineral Name,Amarantite
Grain Size,<45
Viewing Geometry,30 / 0 | 30
Resolution,5 / 1.3-129
Material Class,Sulfate

Wavelength
305.0,0.022359
310.0,0.021941
315.0,0.020614
320.0,0.020528
325.0,0.02186
330.0,0.021366
335.0,0.021264
340.0,0.02167
345.0,0.021942
350.0,0.02195
355.0,0.021891
360.0,0.022511
365.0,0.022726
370.0,0.023179
375.0,0.023745
380.0,0.024424
385.0,0.025151
390.0,0.026242
395.0,0.0275
400.0,0.028891
405.0,0.029686
410.0,0.030608
415.0,0.031237
420.0,0.0317
425.0,0.032318
430.0,0.032885
435.0,0.033729
440.0,0.03478
445.0,0.036268
450.0,0.037847
455.0,0.039459
460.0,0.040557
465.0,0.041617
470.0,0.042437
475.0,0.04324
480.0,0.044106
485.0,0.045107
490.0,0.046362
495.0,0.047794
500.0,0.049427
505.0,0.051191
510.0,0.053139
515.0,0.055301
520.0,0.057791
525.0,0.06085
530.0,0.064084
535.0,0.067923
540.0,0.072408
545.0,0.077726
550.0,0.083864
555.0,0.091067
560.0,0.099715
565.0,0.10966
570.0,0.120617
575.0,0.132493
580.0,0.144824
585.0,0.157358
590.0,0.169602
595.0,0.181143
600.0,0.191749
605.0,0.202012
610.0,0.209523
615.0,0.216559
620.0,0.222507
625.0,0.227772
630.0,0.232191
635.0,0.236677
640.0,0.240516
645.0,0.244597
650.0,0.248821
655.0,0.252981
660.0,0.257115
665.0,0.261783
670.0,0.266097
675.0,0.27054
680.0,0.275277
685.0,0.280163
690.0,0.284556
695.0,0.289052
700.0,0.293639
705.0,0.298066
710.0,0.301815
715.0,0.305385
720.0,0.308486
725.0,0.305154
730.0,0.305833
735.0,0.306471
740.0,0.306497
745.0,0.305889
750.0,0.303546
755.0,0.301697
760.0,0.2983
765.0,0.295302
770.0,0.291743
775.0,0.28793
780.0,0.283569
785.0,0.279811
790.0,0.275794
795.0,0.271457
800.0,0.267503
805.0,0.262918
810.0,0.261185
815.0,0.257004
820.0,0.254598
825.0,0.251262
830.0,0.249285
835.0,0.247188
840.0,0.2451
845.0,0.243152
850.0,0.242829
855.0,0.241108
860.0,0.240732
865.0,0.240798
870.0,0.239365
875.0,0.241532
880.0,0.24358
885.0,0.242947
890.0,0.244593
895.0,0.247603
900.0,0.248343
905.0,0.252145
910.0,0.254044
915.0,0.258544
920.0,0.260684
925.0,0.265182
930.0,0.268676
935.0,0.272344
940.0,0.277332
945.0,0.282038
950.0,0.285697
955.0,0.290473
960.0,0.294064
965.0,0.299491
970.0,0.305724
975.0,0.30967
980.0,0.314739
985.0,0.319811
990.0,0.326081
995.0,0.329434
1000.0,0.335015
1005.0,0.33854
1010.0,0.343333
1015.0,0.348423
1020.0,0.352777
1025.0,0.356147
1030.0,0.361556
1035.0,0.365347
1040.0,0.369939
1045.0,0.37355
1050.0,0.37816
1055.0,0.381624
1060.0,0.386447
1065.0,0.389676
1070.0,0.393634
1075.0,0.398795
1080.0,0.402511
1085.0,0.406348
1090.0,0.411642
1095.0,0.415301
1100.0,0.419624
1105.0,0.424149
1110.0,0.427724
1115.0,0.432938
1120.0,0.435843
1125.0,0.441546
1130.0,0.44508
1135.0,0.44824
1140.0,0.451989
1145.0,0.456541
1150.0,0.459049
1155.0,0.463728
1160.0,0.466642
1165.0,0.46873
1170.0,0.47155
1175.0,0.475048
1180.0,0.476645
1185.0,0.478749
1190.0,0.480737
1195.0,0.482472
1200.0,0.484321
1205.0,0.488736
1210.0,0.488205
1215.0,0.492734
1220.0,0.493119
1225.0,0.493975
1230.0,0.495409
1235.0,0.49645
1240.0,0.496247
1245.0,0.497742
1250.0,0.497487
1255.0,0.500083
1260.0,0.499582
1265.0,0.501883
1270.0,0.50186
1275.0,0.502789
1280.0,0.503451
1285.0,0.503946
1290.0,0.505347
1295.0,0.50574
1300.0,0.5073
1305.0,0.507586
1310.0,0.506923
1315.0,0.507621
1320.0,0.507653
1325.0,0.507964
1330.0,0.507923
1335.0,0.508137
1340.0,0.507904
1345.0,0.506491
1350.0,0.505138
1355.0,0.505401
1360.0,0.5055
1365.0,0.506166
1370.0,0.505834
1375.0,0.508299
1380.0,0.50827
1385.0,0.506807
1390.0,0.504512
1395.0,0.50444
1400.0,0.501985
1405.0,0.50018
1410.0,0.500221
1415.0,0.500251
1420.0,0.498807
1425.0,0.497263
1430.0,0.494746
1435.0,0.493577
1440.0,0.489242
1445.0,0.485577
1450.0,0.485742
1455.0,0.486129
1460.0,0.484323
1465.0,0.483449
1470.0,0.480695
1475.0,0.482345
1480.0,0.479354
1485.0,0.477823
1490.0,0.478573
1495.0,0.47937
1500.0,0.480024
1505.0,0.47948
1510.0,0.479926
1515.0,0.480977
1520.0,0.479483
1525.0,0.480044
1530.0,0.479326
1535.0,0.478421
1540.0,0.47982
1545.0,0.479302
1550.0,0.477894
1555.0,0.479837
1560.0,0.480092
1565.0,0.47973
1570.0,0.479352
1575.0,0.480347
1580.0,0.479886
1585.0,0.480868
1590.0,0.479372
1595.0,0.479866
1600.0,0.478656
1605.0,0.479939
1610.0,0.479362
1615.0,0.478342
1620.0,0.479056
1625.0,0.478932
1630.0,0.478826
1635.0,0.478747
1640.0,0.47993
1645.0,0.478582
1650.0,0.477598
1655.0,0.478983
1660.0,0.478229
1665.0,0.476638
1670.0,0.476257
1675.0,0.476878
1680.0,0.475873
1685.0,0.475537
1690.0,0.474336
1695.0,0.473704
1700.0,0.473192
1705.0,0.472368
1710.0,0.472012
1715.0,0.472415
1720.0,0.471675
1725.0,0.471284
1730.0,0.470098
1735.0,0.469609
1740.0,0.469128
1745.0,0.468895
1750.0,0.46871
1755.0,0.468086
1760.0,0.467601
1765.0,0.466501
1770.0,0.466864
1775.0,0.466465
1780.0,0.466119
1785.0,0.465324
1790.0,0.465163
1795.0,0.465401
1800.0,0.463536
1805.0,0.465039
1810.0,0.464161
1815.0,0.46439
1820.0,0.464016
1825.0,0.463345
1830.0,0.463258
1835.0,0.464565
1840.0,0.464425
1845.0,0.464766
1850.0,0.465839
1855.0,0.465483
1860.0,0.46148
1865.0,0.462836
1870.0,0.463935
1875.0,0.461937
1880.0,0.459723
1885.0,0.460171
1890.0,0.453254
1895.0,0.446898
1900.0,0.442568
1905.0,0.437377
1910.0,0.430433
1915.0,0.424786
1920.0,0.416205
1925.0,0.409303
1930.0,0.395453
1935.0,0.381427
1940.0,0.370428
1945.0,0.370692
1950.0,0.373695
1955.0,0.375607
1960.0,0.374887
1965.0,0.372323
1970.0,0.366853
1975.0,0.364244
1980.0,0.363149
1985.0,0.364238
1990.0,0.367451
1995.0,0.371343
2000.0,0.374664
2005.0,0.378705
2010.0,0.382668
2015.0,0.384611
2020.0,0.387956
2025.0,0.390373
2030.0,0.392222
2035.0,0.393224
2040.0,0.39529
2045.0,0.397231
2050.0,0.399275
2055.0,0.400879
2060.0,0.40329
2065.0,0.404287
2070.0,0.405998
2075.0,0.406885
2080.0,0.409568
2085.0,0.411273
2090.0,0.412053
2095.0,0.414805
2100.0,0.416826
2105.0,0.418017
2110.0,0.418699
2115.0,0.419405
2120.0,0.421088
2125.0,0.422849
2130.0,0.422816
2135.0,0.424387
2140.0,0.423816
2145.0,0.424742
2150.0,0.425181
2155.0,0.426076
2160.0,0.425682
2165.0,0.426086
2170.0,0.426936
2175.0,0.426341
2180.0,0.42687
2185.0,0.426295
2190.0,0.427606
2195.0,0.426296
2200.0,0.427521
2205.0,0.426854
2210.0,0.426772
2215.0,0.425909
2220.0,0.426774
2225.0,0.426713
2230.0,0.427286
2235.0,0.4266
2240.0,0.426355
2245.0,0.426872
2250.0,0.426109
2255.0,0.427175
2260.0,0.425336
2265.0,0.425613
2270.0,0.424074
2275.0,0.424685
2280.0,0.424357
2285.0,0.423715
2290.0,0.42364
2295.0,0.421797
2300.0,0.421871
2305.0,0.419784
2310.0,0.417611
2315.0,0.414433
2320.0,0.412647
2325.0,0.409168
2330.0,0.407895
2335.0,0.404767
2340.0,0.40229
2345.0,0.398919
2350.0,0.395526
2355.0,0.391328
2360.0,0.387491
2365.0,0.383745
2370.0,0.380017
2375.0,0.379424
2380.0,0.378011
2385.0,0.375948
2390.0,0.372628
2395.0,0.37047
2400.0,0.367662
2405.0,0.364862
2410.0,0.361419
2415.0,0.359247
2420.0,0.357943
2425.0,0.358189
2430.0,0.354958
2435.0,0.351412
2440.0,0.351449
2445.0,0.347611
2450.0,0.346587
2455.0,0.34634
2460.0,0.344311
2465.0,0.343525
2470.0,0.340431
2475.0,0.33933
2480.0,0.339467
2485.0,0.336111
2490.0,0.334404
2495.0,0.331945
2500.0,0.329076
2505.0,0.325604
2510.0,0.32305
2515.0,0.320401
2520.0,0.318092
2525.0,0.317077
2530.0,0.318254
2535.0,0.316691
2540.0,0.316618
2545.0,0.319849
2550.0,0.315464
2555.0,0.316442
2560.0,0.31642
2565.13,0.316641
2570.22,0.312168
2575.33,0.312052
2580.46,0.310981
2581.74,0.30992
2583.03,0.310976
2584.31,0.311371
2585.6,0.310937
2586.89,0.310876
2588.19,0.311285
2589.48,0.311713
2590.77,0.312781
2592.07,0.312284
2593.36,0.309339
2594.66,0.306267
2595.96,0.305584
2597.26,0.307572
2598.56,0.307676
2599.87,0.306803
2601.17,0.305527
2602.48,0.304621
2603.78,0.305541
2605.09,0.30587
2606.4,0.306834
2607.71,0.30583
2609.03,0.306133
2610.34,0.306324
2611.66,0.308297
2612.97,0.308653
2614.29,0.306444
2615.61,0.305721
2616.93,0.304984
2618.25,0.304143
2619.57,0.30439
2620.9,0.304119
2622.22,0.304512
2623.55,0.304561
2624.88,0.305789
2626.21,0.30502
2627.54,0.3038
2628.87,0.302388
2630.21,0.302183
2631.54,0.304605
2632.88,0.306243
2634.21,0.303525
2635.55,0.302301
2636.89,0.30121
2638.24,0.302499
2639.58,0.303693
2640.92,0.302956
2642.27,0.30107
2643.62,0.300748
2644.97,0.301514
2646.32,0.301236
2647.67,0.300346
2649.02,0.299063
2650.38,0.297783
2651.73,0.297481
2653.09,0.297363
2654.45,0.297874
2655.81,0.297635
2657.17,0.296672
2658.53,0.296127
2659.89,0.296252
2661.26,0.295142
2662.63,0.294553
2664.0,0.293493
2665.36,0.293417
2666.74,0.292614
2668.11,0.291827
2669.48,0.291545
2670.86,0.290817
2672.23,0.290026
2673.61,0.288932
2674.99,0.287608
2676.37,0.285762
2677.76,0.283923
2679.14,0.282504
2680.52,0.281729
2681.91,0.281241
2683.3,0.279884
2684.69,0.279073
2686.08,0.278761
2687.47,0.277219
2688.87,0.276765
2690.26,0.275015
2691.66,0.272144
2693.06,0.2702
2694.46,0.269153
2695.86,0.267916
2697.26,0.266666
2698.66,0.265694
2700.07,0.264298
2701.48,0.261572
2702.89,0.258961
2704.3,0.258635
2705.71,0.257013
2707.12,0.253294
2708.53,0.250999
2709.95,0.248909
2711.37,0.246373
2712.79,0.244639
2714.21,0.242489
2715.63,0.24034
2717.05,0.237809
2718.48,0.235669
2719.9,0.233048
2721.33,0.22971
2722.76,0.227145
2724.19,0.225954
2725.62,0.224374
2727.06,0.220829
2728.49,0.217784
2729.93,0.215742
2731.37,0.21222
2732.81,0.208941
2734.25,0.20515
2735.69,0.201174
2737.14,0.198572
2738.58,0.195405
2740.03,0.190959
2741.48,0.188271
2742.93,0.185847
2744.38,0.182315
2745.83,0.178241
2747.29,0.173742
2748.75,0.16971
2750.2,0.168047
2751.66,0.16536
2753.13,0.162548
2754.59,0.159176
2756.05,0.155057
2757.52,0.150523
2758.99,0.146654
2760.46,0.14307
2761.93,0.140139
2763.4,0.136844
2764.87,0.13339
2766.35,0.130518
2767.82,0.128522
2769.3,0.126436
2770.78,0.123222
2772.26,0.118863
2773.75,0.115158
2775.23,0.112531
2776.72,0.1111
2778.21,0.107369
2779.7,0.102779
2781.19,0.100402
2782.68,0.098418
2784.18,0.096236
2785.67,0.09483
2787.17,0.093284
2788.67,0.090235
2790.17,0.087309
2791.67,0.085399
2793.18,0.083598
2794.68,0.081287
2796.19,0.079019
2797.7,0.077112
2799.21,0.07513
2800.72,0.072928
2802.24,0.071289
2803.75,0.068933
2805.27,0.06641
2806.79,0.064837
2808.31,0.063026
2809.83,0.062336
2811.35,0.062186
2812.88,0.059726
2814.41,0.056834
2815.93,0.056447
2817.46,0.055822
2819.0,0.054482
2820.53,0.054195
2822.07,0.053138
2823.6,0.050958
2825.14,0.049424
2826.68,0.050954
2828.22,0.052657
2829.77,0.052255
2831.31,0.051914
2832.86,0.051421
2834.41,0.049266
2835.96,0.048874
2837.51,0.050089
2839.07,0.049864
2840.62,0.049822
2842.18,0.048781
2843.74,0.046473
2845.3,0.045831
2846.86,0.04656
2848.43,0.046619
2849.99,0.045956
2851.56,0.046469
2853.13,0.045645
2854.7,0.045545
2856.27,0.045638
2857.85,0.04436
2859.42,0.044429
2861.0,0.044301
2862.58,0.042991
2864.16,0.042125
2865.75,0.04235
2867.33,0.042054
2868.92,0.041692
2870.51,0.040371
2872.1,0.040125
2873.69,0.040889
2875.28,0.040609
2876.88,0.039418
2878.48,0.038498
2880.07,0.038706
2881.68,0.038416
2883.28,0.038592
2884.88,0.039552
2886.49,0.038528
2888.1,0.037807
2889.71,0.038119
2891.32,0.037616
2892.93,0.036788
2894.55,0.036608
2896.16,0.036329
2897.78,0.035204
2899.4,0.035328
2901.03,0.035571
2902.65,0.034822
2904.28,0.035063
2905.91,0.035724
2907.54,0.03466
2909.17,0.033821
2910.8,0.034116
2912.44,0.033849
2914.07,0.033615
2915.71,0.033546
2917.35,0.034253
2918.99,0.032852
2920.64,0.031407
2922.29,0.031938
2923.93,0.031539
2925.58,0.031683
2927.24,0.031977
2928.89,0.030755
2930.55,0.031043
2932.2,0.031589
2933.86,0.031424
2935.52,0.031098
2937.19,0.03057
2938.85,0.031339
2940.52,0.03149
2942.19,0.03078
2943.86,0.031273
2945.53,0.031131
2947.21,0.031094
2948.88,0.031566
2950.56,0.03196
2952.24,0.032549
2953.92,0.032431
2955.61,0.031415
2957.29,0.030519
2958.98,0.029544
2960.67,0.030862
2962.36,0.032699
2964.06,0.032752
2965.75,0.031793
2967.45,0.031642
2969.15,0.032234
2970.85,0.031767
2972.55,0.031841
2974.26,0.032319
2975.97,0.032691
2977.68,0.032814
2979.39,0.033192
2981.1,0.033628
2982.82,0.032785
2984.53,0.033245
2986.25,0.034499
2987.97,0.034181
2989.7,0.032742
2991.42,0.032421
2993.15,0.033104
2994.88,0.033679
2996.61,0.033178
2998.34,0.032875
3000.08,0.033208
3001.82,0.033831
3003.55,0.03473
3005.3,0.034395
3007.04,0.033488
3008.78,0.032961
3010.53,0.033264
3012.28,0.033909
3014.03,0.034501
3015.79,0.034424
3017.54,0.033858
3019.3,0.033859
3021.06,0.033696
3022.82,0.032986
3024.58,0.033242
3026.35,0.033904
3028.12,0.034357
3029.89,0.033959
3031.66,0.033231
3033.43,0.033535
3035.21,0.034287
3036.99,0.034505
3038.77,0.034389
3040.55,0.035245
3042.33,0.036294
3044.12,0.035259
3045.91,0.034929
3047.7,0.036083
3049.49,0.03596
3051.29,0.035302
3053.08,0.035682
3054.88,0.036014
3056.68,0.035297
3058.49,0.034722
3060.29,0.035345
3062.1,0.035826
3063.91,0.036843
3065.72,0.037356
3067.54,0.037173
3069.35,0.036778
3071.17,0.036987
3072.99,0.036951
3074.81,0.036892
3076.64,0.036996
3078.47,0.036942
3080.29,0.036637
3082.13,0.03736
3083.96,0.038684
3085.79,0.039189
3087.63,0.037172
3089.47,0.036532
3091.31,0.037278
3093.16,0.037723
3095.01,0.038001
3096.85,0.038774
3098.71,0.038968
3100.56,0.039041
3102.41,0.039212
3104.27,0.038235
3106.13,0.036935
3107.99,0.037402
3109.86,0.038161
3111.73,0.037534
3113.59,0.038031
3115.47,0.038658
3117.34,0.038125
3119.21,0.038002
3121.09,0.039576
3122.97,0.040043
3124.86,0.039368
3126.74,0.038801
3128.63,0.038581
3130.52,0.038356
3132.41,0.039175
3134.3,0.040471
3136.2,0.040131
3138.1,0.040039
3140.0,0.040391
3141.9,0.04045
3143.81,0.040454
3145.71,0.040795
3147.62,0.04081
3149.54,0.040177
3151.45,0.041381
3153.37,0.041544
3155.29,0.040374
3157.21,0.040444
3159.13,0.040798
3161.06,0.041415
3162.99,0.042025
3164.92,0.042162
3166.85,0.042601
3168.79,0.042416
3170.72,0.042331
3172.67,0.042683
3174.61,0.042799
3176.55,0.042756
3178.5,0.043398
3180.45,0.043279
3182.4,0.043083
3184.36,0.043402
3186.32,0.044026
3188.27,0.043895
3190.24,0.043529
3192.2,0.043596
3194.17,0.044048
3196.14,0.044391
3198.11,0.044941
3200.08,0.045464
3202.06,0.045381
3204.04,0.045882
3206.02,0.045859
3208.0,0.045928
3209.99,0.046179
3211.98,0.045608
3213.97,0.045878
3215.96,0.046392
3217.96,0.04653
3219.96,0.047457
3221.96,0.04788
3223.96,0.047256
3225.97,0.047097
3227.98,0.047056
3229.99,0.04699
3232.0,0.046645
3234.02,0.047012
3236.04,0.047142
3238.06,0.047367
3240.08,0.047817
3242.11,0.04865
3244.14,0.04948
3246.17,0.050264
3248.2,0.049726
3250.24,0.048867
3252.28,0.049627
3254.32,0.050296
3256.37,0.050899
3258.41,0.051215
3260.46,0.051278
3262.51,0.051593
3264.57,0.052228
3266.63,0.052245
3268.69,0.051103
3270.75,0.051362
3272.81,0.052361
3274.88,0.052562
3276.95,0.052943
3279.02,0.053024
3281.1,0.052628
3283.18,0.052295
3285.26,0.0526
3287.34,0.053168
3289.43,0.053166
3291.51,0.053826
3293.61,0.055137
3295.7,0.055155
3297.8,0.055164
3299.9,0.055997
3302.0,0.056288
3304.1,0.056991
3306.21,0.057428
3308.32,0.057081
3310.43,0.057574
3312.55,0.058545
3314.66,0.058518
3316.79,0.058066
3318.91,0.058465
3321.03,0.059312
3323.16,0.05938
3325.29,0.059352
3327.43,0.059522
3329.57,0.059875
3331.71,0.060819
3333.85,0.061737
3335.99,0.061957
3338.14,0.061822
3340.29,0.06231
3342.45,0.063108
3344.6,0.063697
3346.76,0.0638
3348.92,0.063666
3351.09,0.063599
3353.26,0.064723
3355.43,0.066
3357.6,0.066208
3359.78,0.066457
3361.96,0.066855
3364.14,0.067353
3366.32,0.067984
3368.51,0.068088
3370.7,0.067653
3372.89,0.067869
3375.09,0.068648
3377.29,0.069315
3379.49,0.069991
3381.69,0.06982
3383.9,0.069578
3386.11,0.070938
3388.32,0.071769
3390.54,0.072007
3392.76,0.071924
3394.98,0.071922
3397.21,0.072721
3399.43,0.073016
3401.66,0.073262
3403.9,0.073569
3406.13,0.073853
3408.37,0.074187
3410.61,0.075939
3412.86,0.076516
3415.11,0.077096
3417.36,0.077419
3419.61,0.077146
3421.87,0.077972
3424.13,0.078753
3426.39,0.079155
3428.66,0.078886
3430.93,0.079213
3433.2,0.080271
3435.48,0.080243
3437.76,0.080607
3440.04,0.081979
3442.32,0.082468
3444.61,0.082468
3446.9,0.083003
3449.19,0.083587
3451.49,0.084424
3453.79,0.08465
3456.09,0.084927
3458.4,0.08564
3460.7,0.086005
3463.02,0.086144
3465.33,0.086891
3467.65,0.087295
3469.97,0.087882
3472.29,0.088928
3474.62,0.089387
3476.95,0.089942
3479.29,0.09068
3481.62,0.09065
3483.96,0.090964
3486.3,0.091815
3488.65,0.093026
3491.0,0.09302
3493.35,0.093721
3495.71,0.094086
3498.07,0.093897
3500.43,0.094015
3502.79,0.094752
3505.16,0.095539
3507.53,0.096038
3509.91,0.096193
3512.29,0.096562
3514.67,0.097371
3517.05,0.097656
3519.44,0.098407
3521.83,0.099677
3524.23,0.099706
3526.62,0.099176
3529.02,0.099937
3531.43,0.101274
3533.83,0.102488
3536.24,0.102417
3538.66,0.102145
3541.08,0.102616
3543.5,0.103446
3545.92,0.103917
3548.35,0.104591
3550.78,0.105699
3553.21,0.106221
3555.65,0.106712
3558.09,0.107387
3560.53,0.107849
3562.98,0.108907
3565.43,0.109607
3567.88,0.109421
3570.34,0.109774
3572.8,0.109859
3575.27,0.111045
3577.73,0.112179
3580.2,0.112257
3582.68,0.112093
3585.16,0.11305
3587.64,0.113726
3590.12,0.114195
3592.61,0.115132
3595.1,0.116076
3597.6,0.116467
3600.09,0.116325
3602.6,0.117157
3605.1,0.118013
3607.61,0.118953
3610.12,0.119638
3612.64,0.120321
3615.16,0.120702
3617.68,0.120925
3620.21,0.121806
3622.74,0.122317
3625.27,0.122481
3627.81,0.122521
3630.35,0.123241
3632.89,0.124523
3635.44,0.125909
3637.99,0.126522
3640.54,0.127019
3643.1,0.127479
3645.66,0.12824
3648.23,0.128736
3650.8,0.129113
3653.37,0.129895
3655.95,0.130974
3658.53,0.131426
3661.11,0.132277
3663.7,0.133392
3666.29,0.134437
3668.89,0.134607
3671.48,0.135133
3674.09,0.136038
3676.69,0.136476
3679.3,0.137817
3681.91,0.138422
3684.53,0.138056
3687.15,0.138362
3689.78,0.138717
3692.4,0.139324
3695.04,0.140382
3697.67,0.141772
3700.31,0.142924
3702.95,0.143505
3705.6,0.143963
3708.25,0.144875
3710.91,0.146135
3713.56,0.146696
3716.23,0.146844
3718.89,0.14749
3721.56,0.148434
3724.23,0.149774
3726.91,0.150213
3729.59,0.150247
3732.28,0.151077
3734.97,0.152025
3737.66,0.152737
3740.36,0.152796
3743.06,0.153259
3745.76,0.153787
3748.47,0.15444
3751.18,0.155571
3753.9,0.156257
3756.62,0.156959
3759.34,0.156868
3762.07,0.157482
3764.8,0.158635
3767.54,0.159578
3770.28,0.160808
3773.02,0.1618
3775.77,0.162209
3778.52,0.162522
3781.28,0.162662
3784.04,0.163137
3786.8,0.164563
3789.57,0.165561
3792.34,0.16586
3795.12,0.165625
3797.9,0.166167
3800.69,0.167057
3803.47,0.167988
3806.27,0.168592
3809.06,0.168869
3811.86,0.169652
3814.67,0.170139
3817.48,0.170797
3820.29,0.171787
3823.11,0.172353
3825.93,0.17264
3828.76,0.173001
3831.59,0.173911
3834.42,0.174405
3837.26,0.174736
3840.1,0.175832
3842.95,0.176673
3845.8,0.177011
3848.65,0.177459
3851.51,0.177804
3854.38,0.17771
3857.24,0.177677
3860.12,0.178255
3862.99,0.179024
3865.87,0.179683
3868.76,0.180059
3871.65,0.180282
3874.54,0.180593
3877.44,0.181498
3880.34,0.182526
3883.25,0.183151
3886.16,0.183314
3889.07,0.183349
3891.99,0.183789
3894.92,0.184242
3897.85,0.184786
3900.78,0.185274
3903.72,0.185601
3906.66,0.185589
3909.6,0.185589
3912.55,0.185985
3915.51,0.186165
3918.47,0.18656
3921.43,0.18703
3924.4,0.187502
3927.38,0.187863
3930.35,0.18778
3933.33,0.187603
3936.32,0.188126
3939.31,0.188128
3942.31,0.187967
3945.31,0.188712
3948.31,0.188787
3951.32,0.188734
3954.34,0.189395
3957.35,0.189946
3960.38,0.190448
3963.41,0.190664
3966.44,0.190229
3969.48,0.190084
3972.52,0.19064
3975.56,0.191135
3978.61,0.191423
3981.67,0.191937
3984.73,0.19146
3987.8,0.190826
3990.87,0.190962
3993.94,0.191165
3997.02,0.191252
4000.1,0.19112
4003.19,0.191185
4006.29,0.191186
4009.39,0.191978
4012.49,0.192452
4015.6,0.192243
4018.71,0.192
4021.83,0.192323
4024.95,0.192947
4028.08,0.193116
4031.21,0.192894
4034.35,0.192794
4037.49,0.193187
4040.64,0.193324
4043.79,0.193593
4046.94,0.193526
4050.11,0.192984
4053.27,0.192748
4056.44,0.192683
4059.62,0.192485
4062.8,0.192756
4065.99,0.192537
4069.18,0.192508
4072.38,0.192478
4075.58,0.191798
4078.78,0.191812
4082.0,0.192318
4085.21,0.192407
4088.43,0.192242
4091.66,0.191877
4094.89,0.192227
4098.13,0.192549
4101.37,0.192161
4104.62,0.191983
4107.87,0.1919
4111.13,0.191832
4114.39,0.191919
4117.66,0.191944
4120.93,0.192364
4124.21,0.192351
4127.5,0.191635
4130.79,0.191502
4134.08,0.191748
4137.38,0.1919
4140.68,0.192025
4143.99,0.192194
4147.31,0.19221
4150.63,0.192326
4153.95,0.192191
4157.29,0.192123
4160.62,0.191806
4163.96,0.191591
4167.31,0.191608
4170.66,0.191806
4174.02,0.191747
4177.39,0.192082
4180.75,0.192538
4184.13,0.192061
4187.51,0.191904
4190.89,0.192363
4194.28,0.192169
4197.68,0.19152
4201.08,0.191305
4204.49,0.191099
4207.9,0.191345
4211.32,0.191612
4214.74,0.191465
4218.17,0.191473
4221.61,0.191745
4225.05,0.192077
4228.5,0.191824
4231.95,0.191714
4235.4,0.191887
4238.87,0.192282
4242.34,0.192382
4245.81,0.192513
4249.29,0.192987
4252.78,0.193012
4256.27,0.192994
4259.77,0.193131
4263.27,0.192453
4266.78,0.191535
4270.29,0.191343
4273.81,0.191774
4277.34,0.192758
4280.87,0.193533
4284.41,0.193787
4287.95,0.193615
4291.5,0.193564
4295.06,0.193448
4298.62,0.193487
4302.19,0.193943
4305.76,0.194344
4309.34,0.194208
4312.92,0.194899
4316.52,0.195822
4320.11,0.196077
4323.72,0.196067
4327.32,0.196487
4330.94,0.196556
4334.56,0.196649
4338.19,0.19659
4341.82,0.196916
4345.46,0.197154
4349.11,0.197242
4352.76,0.197563
4356.42,0.198038
4360.08,0.198086
4363.75,0.197584
4367.43,0.197474
4371.11,0.197654
4374.8,0.198324
4378.49,0.198868
4382.19,0.199057
4385.9,0.199265
4389.61,0.199344
4393.33,0.199373
4397.06,0.199658
4400.79,0.199833
4404.53,0.200302
4408.28,0.200995
4412.03,0.201446
4415.79,0.201284
4419.55,0.201237
4423.32,0.201382
4427.1,0.201587
4430.88,0.201812
4434.68,0.201757
4438.47,0.201481
4442.28,0.20148
4446.08,0.201767
4449.9,0.202034
4453.72,0.202192
4457.55,0.202605
4461.39,0.203111
4465.23,0.203204
4469.08,0.203193
4472.94,0.203638
4476.8,0.204067
4480.67,0.204653
4484.55,0.204914
4488.43,0.205249
4492.32,0.205669
4496.21,0.205621
4500.12,0.205877
4504.03,0.206361
4507.94,0.206668
4511.87,0.206744
4515.8,0.206973
4519.73,0.207299
4523.68,0.207543
4527.63,0.207899
4531.59,0.208236
4535.55,0.20839
4539.52,0.208327
4543.5,0.208414
4547.49,0.209096
4551.48,0.209382
4555.48,0.209446
4559.49,0.210067
4563.5,0.21044
4567.52,0.210735
4571.55,0.211025
4575.58,0.211459
4579.63,0.212281
4583.67,0.212589
4587.73,0.212851
4591.79,0.213514
4595.86,0.214183
4599.94,0.214513
4604.03,0.214636
4608.12,0.214682
4612.22,0.214975
4616.33,0.215174
4620.44,0.215503
4624.56,0.215811
4628.69,0.21635
4632.83,0.217345
4636.97,0.218236
4641.12,0.218472
4645.28,0.218387
4649.45,0.218428
4653.62,0.218622
4657.8,0.21866
4661.99,0.21912
4666.19,0.219279
4670.39,0.219583
4674.6,0.220162
4678.82,0.2201
4683.05,0.220084
4687.28,0.220184
4691.52,0.220492
4695.77,0.220498
4700.03,0.220352
4704.3,0.220242
4708.57,0.220387
4712.85,0.220793
4717.14,0.221045
4721.43,0.22132
4725.74,0.2216
4730.05,0.221594
4734.37,0.22178
4738.7,0.222407
4743.03,0.223085
4747.38,0.223582
4751.73,0.224164
4756.09,0.224877
4760.45,0.22506
4764.83,0.225126
4769.21,0.226086
4773.6,0.22663
4778.0,0.226818
4782.41,0.227175
4786.83,0.227249
4791.25,0.227306
4795.68,0.227363
4800.13,0.227
4804.57,0.227315
4809.03,0.22758
4813.5,0.227926
4817.97,0.227907
4822.45,0.228331
4826.94,0.229196
4831.44,0.229446
4835.95,0.229174
4840.46,0.229223
4844.99,0.229518
4849.52,0.230084
4854.06,0.230232
4858.61,0.230426
4863.17,0.231079
4867.73,0.231593
4872.31,0.23228
4876.89,0.232697
4881.48,0.23255
4886.08,0.232612
4890.69,0.232809
4895.31,0.233091
4899.94,0.233694
4904.57,0.234468
4909.22,0.234652
4913.87,0.234379
4918.53,0.234611
4923.21,0.235337
4927.88,0.235751
4932.57,0.236153
4937.27,0.236842
4941.98,0.237439
4946.69,0.238021
4951.42,0.238481
4956.15,0.238767
4960.9,0.239625
4965.65,0.239893
4970.41,0.239911
4975.18,0.24038
4979.96,0.24119
4984.75,0.241845
4989.54,0.242337
4994.35,0.24257
4999.17,0.242821
5003.99,0.243257
5008.83,0.24366
5013.67,0.243788
5018.52,0.243875
5023.39,0.24411
5028.26,0.245328
5033.14,0.2464
5038.03,0.246347
5042.93,0.246424
5047.84,0.246922
5052.76,0.247519
5057.69,0.248314
5062.63,0.24851
5067.58,0.248699
5072.54,0.248754
5077.51,0.248952
5082.49,0.249277
5087.47,0.249742
5092.47,0.250451
5097.48,0.251255
5102.5,0.25138
5107.52,0.251515
5112.56,0.251673
5117.61,0.252123
5122.66,0.252324
5127.73,0.252747
5132.81,0.253385
5137.89,0.253622
5142.99,0.253735
5148.1,0.254576
5153.22,0.255447
5158.34,0.255744
5163.48,0.255937
5168.63,0.255778
5173.79,0.25568
5178.96,0.256098
5184.13,0.255947
5189.32,0.25599
5194.52,0.256494
5199.73,0.256804
5204.96,0.256137
5210.19,0.255763
5215.43,0.25621
5220.68,0.257019
5225.94,0.257196
5231.22,0.256749
5236.5,0.256662
5241.79,0.256683
5247.1,0.256473
5252.42,0.256511
5257.74,0.256145
5263.08,0.2562
5268.43,0.256298
5273.79,0.255876
5279.16,0.255855
5284.54,0.256235
5289.93,0.255966
5295.34,0.255591
5300.75,0.255429
5306.18,0.255434
5311.61,0.255196
5317.06,0.254898
5322.52,0.254332
5327.99,0.254065
5333.47,0.253256
5338.96,0.25279
5344.47,0.252891
5349.98,0.252842
5355.51,0.252357
5361.05,0.252218
5366.6,0.252249
5372.16,0.251846
5377.73,0.251455
5383.32,0.251302
5388.91,0.251198
5394.52,0.251158
5400.14,0.250833
5405.77,0.250614
5411.41,0.250289
5417.07,0.249893
5422.74,0.249323
5428.41,0.249191
5434.1,0.24907
5439.81,0.248513
5445.52,0.24793
5451.25,0.247642
5456.98,0.246631
5462.73,0.245586
5468.5,0.245007
5474.27,0.244815
5480.06,0.24413
5485.86,0.243569
5491.67,0.243236
5497.49,0.243174
5503.33,0.242633
5509.18,0.242135
5515.04,0.241787
5520.91,0.241329
5526.8,0.24083
5532.69,0.240123
5538.61,0.239422
5544.53,0.238851
5550.47,0.237999
5556.41,0.237383
5562.38,0.236244
5568.35,0.235672
5574.34,0.235002
5580.34,0.234187
5586.35,0.233638
5592.38,0.23325
5598.42,0.232576
5604.47,0.231876
5610.54,0.230724
5616.61,0.229713
5622.71,0.22933
5628.81,0.229186
5634.93,0.228486
5641.06,0.227744
5647.21,0.226754
5653.36,0.226413
5659.54,0.225909
5665.72,0.225423
5671.92,0.224198
5678.13,0.223194
5684.36,0.222443
5690.6,0.221973
5696.85,0.220907
5703.12,0.219728
5709.4,0.218648
5715.69,0.217991
5722.0,0.216869
5728.33,0.216168
5734.66,0.215068
5741.01,0.213915
5747.38,0.212553
5753.76,0.211396
5760.15,0.209969
5766.56,0.208194
5772.98,0.20618
5779.41,0.204734
5785.86,0.203058
5792.33,0.200932
5798.81,0.198438
5805.3,0.196264
5811.81,0.193992
5818.33,0.191619
5824.87,0.188653
5831.42,0.186664
5837.99,0.184341
5844.57,0.181867
5851.17,0.178834
5857.78,0.175884
5864.41,0.172716
5871.05,0.169427
5877.7,0.165859
5884.38,0.162429
5891.06,0.158659
5897.76,0.155271
5904.48,0.150944
5911.21,0.147598
5917.96,0.143855
5924.73,0.139883
5931.5,0.136134
5938.3,0.132759
5945.11,0.12944
5951.93,0.127032
5958.78,0.124822
5965.63,0.122409
5972.51,0.119719
5979.39,0.117321
5986.3,0.115043
5993.22,0.112785
6000.16,0.109994
6007.11,0.107965
6014.08,0.105809
6021.06,0.103603
6028.06,0.101443
6035.08,0.099575
6042.12,0.097373
6049.17,0.095074
6056.23,0.09272
6063.32,0.091032
6070.42,0.089191
6077.53,0.087297
6084.67,0.08497
6091.82,0.083445
6098.98,0.082266
6106.17,0.080837
6113.37,0.079414
6120.58,0.078598
6127.82,0.078621
6135.07,0.078392
6142.34,0.07811
6149.63,0.078076
6156.93,0.078271
6164.25,0.07852
6171.59,0.079098
6178.95,0.08041
6186.32,0.082046
6193.71,0.084082
6201.12,0.085928
6208.54,0.088068
6215.99,0.090663
6223.45,0.093662
6230.93,0.096723
6238.43,0.099816
6245.95,0.102743
6253.48,0.105413
6261.03,0.108212
6268.6,0.111171
6276.19,0.114343
6283.8,0.117149
6291.43,0.119702
6299.07,0.122092
6306.73,0.124632
6314.42,0.12692
6322.12,0.129489
6329.84,0.131965
6337.57,0.134044
6345.33,0.135467
6353.11,0.137085
6360.9,0.13867
6368.72,0.140441
6376.55,0.142785
6384.4,0.144733
6392.27,0.145876
6400.17,0.147461
6408.08,0.148189
6416.01,0.148835
6423.96,0.151038
6431.93,0.152306
6439.92,0.153236
6447.93,0.154726
6455.96,0.155488
6464.01,0.156266
6472.08,0.156944
6480.17,0.157583
6488.28,0.158167
6496.41,0.158795
6504.56,0.159477
6512.73,0.159405
6520.92,0.159637
6529.14,0.160654
6537.37,0.161366
6545.63,0.161691
6553.9,0.162073
6562.2,0.162486
6570.51,0.16273
6578.85,0.163435
6587.21,0.164332
6595.59,0.164582
6603.99,0.165441
6612.42,0.166055
6620.86,0.16588
6629.33,0.165826
6637.82,0.166016
6646.33,0.166479
6654.86,0.167162
6663.41,0.167501
6671.99,0.167817
6680.59,0.16802
6689.21,0.168481
6697.85,0.16905
6706.51,0.169356
6715.2,0.169715
6723.91,0.169777
6732.64,0.16998
6741.4,0.170328
6750.18,0.17055
6758.98,0.170819
6767.8,0.171175
6776.65,0.171678
6785.52,0.171859
6794.41,0.171729
6803.33,0.17229
6812.27,0.172481
6821.23,0.172713
6830.22,0.172733
6839.23,0.172805
6848.26,0.172916
6857.32,0.173048
6866.4,0.173304
6875.51,0.173622
6884.64,0.173441
6893.8,0.173076
6902.98,0.173089
6912.18,0.173543
6921.41,0.174097
6930.66,0.174236
6939.94,0.173978
6949.24,0.173296
6958.57,0.173059
6967.92,0.173199
6977.3,0.173231
6986.7,0.173191
6996.13,0.173111
7005.59,0.173191
7015.07,0.173008
7024.57,0.173228
7034.1,0.173328
7043.66,0.172802
7053.25,0.172902
7062.85,0.173332
7072.49,0.173441
7082.15,0.173378
7091.84,0.173389
7101.55,0.173742
7111.3,0.173888
7121.06,0.173568
7130.86,0.17304
7140.68,0.172765
7150.53,0.172428
7160.41,0.172119
7170.31,0.172063
7180.24,0.171899
7190.2,0.171499
7200.19,0.171102
7210.2,0.170832
7220.24,0.170495
7230.31,0.170012
7240.41,0.169567
7250.54,0.168549
7260.69,0.167299
7270.88,0.166641
7281.09,0.165933
7291.33,0.1654
7301.6,0.164188
7311.9,0.16322
7322.22,0.162776
7332.58,0.162181
7342.97,0.161135
7353.38,0.160216
7363.83,0.159427
7374.3,0.158388
7384.81,0.157426
7395.34,0.156809
7405.91,0.156272
7416.5,0.155893
7427.13,0.155264
7437.78,0.154299
7448.47,0.153374
7459.19,0.152794
7469.94,0.151868
7480.71,0.150761
7491.52,0.149893
7502.37,0.149332
7513.24,0.148214
7524.14,0.146963
7535.08,0.145619
7546.05,0.14394
7557.05,0.142616
7568.08,0.141451
7579.15,0.140163
7590.24,0.139101
7601.37,0.138087
7612.53,0.136726
7623.73,0.134918
7634.96,0.132905
7646.22,0.131171
7657.51,0.129675
7668.84,0.128266
7680.2,0.126341
7691.59,0.123856
7703.02,0.121893
7714.49,0.119625
7725.98,0.116955
7737.52,0.114382
7749.08,0.112003
7760.68,0.109431
7772.32,0.106577
7783.99,0.103635
7795.69,0.100992
7807.43,0.098147
7819.21,0.095033
7831.02,0.091921
7842.87,0.088774
7854.75,0.085834
7866.67,0.082371
7878.62,0.078979
7890.62,0.07655
7902.64,0.073413
7914.71,0.070032
7926.81,0.067191
7938.95,0.064368
7951.13,0.060926
7963.34,0.057786
7975.59,0.054493
7987.88,0.051473
8000.21,0.049582
8012.57,0.047884
8024.98,0.046205
8037.42,0.04485
8049.9,0.043493
8062.42,0.042601
8074.98,0.041837
8087.57,0.041144
8100.21,0.040287
8112.89,0.039697
8125.6,0.039007
8138.36,0.038511
8151.16,0.037761
8163.99,0.037388
8176.87,0.037474
8189.79,0.037143
8202.75,0.036193
8215.75,0.035685
8228.79,0.035367
8241.87,0.034879
8254.99,0.034589
8268.16,0.034497
8281.37,0.034576
8294.62,0.034637
8307.91,0.034362
8321.24,0.034522
8334.62,0.034982
8348.04,0.035252
8361.51,0.034969
8375.02,0.034608
8388.57,0.034758
8402.16,0.034791
8415.8,0.034817
8429.49,0.035343
8443.22,0.035504
8456.99,0.035836
8470.81,0.036402
8484.67,0.036591
8498.58,0.036432
8512.54,0.036473
8526.54,0.037233
8540.58,0.03806
8554.68,0.038041
8568.82,0.038121
8583.0,0.038197
8597.24,0.037968
8611.52,0.038313
8625.85,0.0385
8640.23,0.037889
8654.65,0.037525
8669.12,0.036826
8683.64,0.036422
8698.21,0.03654
8712.83,0.03682
8727.5,0.036379
8742.22,0.036376
8756.99,0.036062
8771.8,0.036202
8786.67,0.03575
8801.59,0.035469
8816.56,0.03543
8831.58,0.035851
8846.65,0.036028
8861.77,0.035554
8876.94,0.035158
8892.17,0.035225
8907.45,0.035109
8922.78,0.03491
8938.16,0.035408
8953.6,0.035756
8969.09,0.035997
8984.64,0.036744
9000.23,0.036767
9015.89,0.036407
9031.59,0.036405
9047.36,0.036527
9063.17,0.036854
9079.05,0.037376
9094.97,0.037602
9110.96,0.037107
9127.0,0.03659
9143.1,0.036527
9159.25,0.036767
9175.46,0.03786
9191.73,0.038293
9208.06,0.03807
9224.44,0.037534
9240.88,0.037818
9257.38,0.038414
9273.94,0.038748
9290.56,0.038151
9307.24,0.038248
9323.98,0.0385
9340.78,0.038941
9357.64,0.039857
9374.57,0.040744
9391.55,0.041527
9408.59,0.042247
9425.7,0.042021
9442.87,0.042041
9460.1,0.041966
9477.4,0.042134
9494.75,0.041968
9512.17,0.041677
9529.66,0.041852
9547.21,0.042661
9564.83,0.042603
9582.5,0.042306
9600.25,0.042044
9618.06,0.042564
9635.94,0.043081
9653.88,0.043282
9671.89,0.042932
9689.97,0.04249
9708.12,0.041589
9726.33,0.040897
9744.62,0.040635
9762.97,0.03988
9781.39,0.039687
9799.88,0.039794
9818.44,0.040094
9837.07,0.040798
9855.77,0.041593
9874.54,0.042552
9893.39,0.043773
9912.3,0.044521
9931.29,0.045498
9950.36,0.046575
9969.49,0.047295
9988.7,0.048145
10007.98,0.049248
10027.34,0.050642
10046.77,0.051941
10066.28,0.052734
10085.87,0.05353
10105.53,0.054296
10125.26,0.055277
10145.08,0.057085
10164.97,0.058773
10184.94,0.059662
10204.99,0.060637
10225.12,0.062762
10245.33,0.064373
10265.61,0.06534
10285.98,0.066464
10306.43,0.068561
10326.96,0.070108
10347.57,0.070939
10368.27,0.07174
10389.05,0.072822
10409.91,0.073304
10430.86,0.073953
10451.88,0.074936
10473.0,0.075404
10494.2,0.075596
10515.49,0.075983
10536.86,0.076197
10558.32,0.076408
10579.87,0.077169
10601.5,0.077462
10623.23,0.077321
10645.04,0.077601
10666.94,0.07768
10688.94,0.077758
10711.02,0.077265
10733.2,0.076761
10755.47,0.076957
10777.83,0.077178
10800.28,0.077319
10822.83,0.076837
10845.47,0.075906
10868.21,0.074972
10891.04,0.074095
10913.97,0.073698
10936.99,0.073037
10960.12,0.072531
10983.34,0.07216
11006.66,0.070895
11030.07,0.070567
11053.59,0.070619
11077.21,0.069448
11100.93,0.068399
11124.75,0.067716
11148.68,0.067306
11172.71,0.067071
11196.84,0.066507
11221.07,0.06567
11245.41,0.065449
11269.86,0.06497
11294.41,0.064484
11319.07,0.064446
11343.84,0.064803
11368.72,0.06468
11393.7,0.064494
11418.8,0.064657
11444.01,0.064317
11469.33,0.064097
11494.76,0.063283
11520.3,0.062002
11545.96,0.061919
11571.73,0.063186
11597.62,0.063377
11623.62,0.062548
11649.74,0.062244
11675.98,0.062409
11702.34,0.062837
11728.81,0.062241
11755.41,0.061043
11782.13,0.060509
11808.96,0.060667
11835.92,0.060438
11863.01,0.060363
11890.22,0.060334
11917.55,0.059693
11945.01,0.059145
11972.6,0.058507
12000.31,0.057956
12028.16,0.057121
12056.13,0.056417
12084.23,0.05615
12112.46,0.056489
12140.83,0.055671
12169.33,0.054
12197.96,0.052979
12226.73,0.05231
12255.64,0.051197
12284.68,0.050115
12313.86,0.050184
12343.18,0.050328
12372.64,0.049876
12402.24,0.048625
12431.98,0.047753
12461.86,0.047117
12491.89,0.04587
12522.07,0.044644
12552.38,0.04493
12582.85,0.045236
12613.47,0.043944
12644.23,0.042917
12675.15,0.042716
12706.21,0.042423
12737.43,0.042385
12768.81,0.042476
12800.33,0.042079
12832.02,0.041611
12863.86,0.040856
12895.86,0.040203
12928.02,0.040122
12960.34,0.040242
12992.82,0.040313
13025.46,0.039362
13058.27,0.038812
13091.25,0.038202
13124.39,0.03805
13157.7,0.037778
13191.18,0.037366
13224.83,0.037416
13258.66,0.037455
13292.65,0.037587
13326.83,0.037214
13361.17,0.035663
13395.7,0.034938
13430.4,0.034974
13465.29,0.034771
13500.35,0.033752
13535.6,0.033675
13571.03,0.034052
13606.65,0.034049
13642.46,0.032988
13678.46,0.032605
13714.64,0.032885
13751.02,0.03161
13787.59,0.030343
13824.36,0.030267
13861.32,0.03
13898.49,0.029574
13935.85,0.029056
13973.41,0.028993
14011.17,0.028578
14049.15,0.027704
14087.32,0.027667
14125.71,0.028167
14164.3,0.028241
14203.11,0.027731
14242.13,0.026988
14281.36,0.026565
14320.81,0.025618
14360.49,0.024657
14400.38,0.024208
14440.49,0.024462
14480.82,0.024536
14521.39,0.024466
14562.18,0.024202
14603.2,0.024225
14644.45,0.023777
14685.93,0.023357
14727.66,0.022189
14769.62,0.021911
14811.81,0.021909
14854.25,0.022346
14896.94,0.022328
14939.87,0.022927
14983.05,0.023599
15026.48,0.024687
15070.16,0.024765
15114.1,0.023842
15158.29,0.023622
15202.74,0.02402
15247.46,0.024292
15292.43,0.023932
15337.68,0.024763
15383.19,0.02549
15428.97,0.025077
15475.03,0.025895
15521.36,0.026238
15567.97,0.025541
15614.87,0.025752
15662.04,0.026357
15709.5,0.026588
15757.25,0.026583
15805.29,0.027092
15853.62,0.027707
15902.26,0.028648
15951.19,0.028796
16000.42,0.027541
16049.95,0.027524
16099.8,0.028128
16149.95,0.02875
16200.42,0.028225
16251.21,0.028594
16302.31,0.028251
16353.74,0.027418
16405.49,0.028365
16457.57,0.028914
16509.98,0.030023
16562.73,0.03103
16615.82,0.030396
16669.24,0.030572
16723.02,0.03028
16777.14,0.029692
16831.61,0.029346
16886.43,0.02936
16941.62,0.029585
16997.16,0.029863
17053.08,0.03082
17109.36,0.031903
17166.01,0.031904
17223.04,0.030958
17280.45,0.031657
17338.24,0.032778
17396.43,0.031709
17455.0,0.031271
17513.97,0.032021
17573.34,0.033235
17633.11,0.032844
17693.29,0.031597
17753.89,0.030948
17814.9,0.030844
17876.33,0.03168
17938.18,0.033281
18000.47,0.033634
18063.19,0.032454
18126.35,0.032945
18189.95,0.033164
18254.0,0.032831
18318.5,0.03291
18383.46,0.033518
18448.88,0.033586
18514.77,0.033022
18581.13,0.031346
18647.97,0.031935
18715.29,0.035441
18783.1,0.034929
18851.4,0.032785
18920.2,0.033066
18989.51,0.033855
19059.32,0.034817
19129.65,0.036291
19200.5,0.03632
19271.88,0.035054
19343.79,0.033894
19416.24,0.032945
19489.23,0.031952
19562.77,0.031314
19636.88,0.031817
19711.54,0.032089
19786.78,0.032015
19862.59,0.031768
19938.98,0.031318
20015.96,0.03171
20093.55,0.031709
20171.73,0.031999
20250.53,0.030385
20329.94,0.030351
20409.98,0.030964
20490.65,0.031434
20571.96,0.033509
20653.92,0.035578
20736.54,0.03377
20819.82,0.032419
20903.77,0.032257
20988.4,0.031149
21073.72,0.033169
21159.73,0.036421
21246.46,0.037097
21333.89,0.035205
21422.04,0.03668
21510.93,0.038436
21600.56,0.036762
21690.94,0.036531
21782.08,0.039811
21873.99,0.039571
21966.67,0.040565
22060.15,0.042038
22154.42,0.037812
22249.51,0.035978
22345.41,0.038255
22442.14,0.037219
22539.72,0.035917
22638.14,0.039038
22737.43,0.040886
22837.6,0.037745
22938.65,0.033283
23040.6,0.033196
23143.46,0.037664
23247.24,0.035766
23351.96,0.032832
23457.63,0.037383
23564.25,0.040463
23671.85,0.038039
23780.44,0.035807
23890.02,0.034883
24000.63,0.03396
24112.26,0.036135
24224.93,0.038672
24338.66,0.04054
24453.47,0.034234
24569.36,0.027725
24686.36,0.031112
24804.47,0.036677
24923.73,0.029463
25044.13,0.021877
25165.71,0.022961
25288.46,0.030652
25412.43,0.035917
25537.61,0.032713
25664.04,0.026911
25791.72,0.034175
25920.68,0.036679
