Database of Origin,University of Winnipeg Spectrophotometer Facility
Sample Description,9.6. Other oxides: RELAB + Nicolet / Merged RELAB & Nicolet at 2.5um / different viewing geometries.
Date Added,2016-07-15 22:03:48.524637

Data ID,RPN_OOX_03          
Sample ID,HAU101
Mineral Name,hausmannite
Grain Size,<45
Viewing Geometry,30 / 0 | 30
Resolution,1.2-129
Material Class,Oxide

Wavelength
305.0,0.049041
310.0,0.048141
315.0,0.047741
320.0,0.047195
325.0,0.046838
330.0,0.046623
335.0,0.046378
340.0,0.046136
345.0,0.045949
350.0,0.045665
355.0,0.0455
360.0,0.045267
365.0,0.045053
370.0,0.044763
375.0,0.044486
380.0,0.044275
385.0,0.044045
390.0,0.0439
395.0,0.043842
400.0,0.043852
405.0,0.043751
410.0,0.043573
415.0,0.043553
420.0,0.043485
425.0,0.043494
430.0,0.043479
435.0,0.043454
440.0,0.043421
445.0,0.043425
450.0,0.043449
455.0,0.043509
460.0,0.043644
465.0,0.043858
470.0,0.044133
475.0,0.044452
480.0,0.044828
485.0,0.045222
490.0,0.045622
495.0,0.046083
500.0,0.046604
505.0,0.047206
510.0,0.048067
515.0,0.04919
520.0,0.050462
525.0,0.051813
530.0,0.053268
535.0,0.054886
540.0,0.056642
545.0,0.058474
550.0,0.060443
555.0,0.062199
560.0,0.063639
565.0,0.064566
570.0,0.065904
575.0,0.06855
580.0,0.072476
585.0,0.076697
590.0,0.080822
595.0,0.084691
600.0,0.0885
605.0,0.092238
610.0,0.096031
615.0,0.099717
620.0,0.103325
625.0,0.106719
630.0,0.110123
635.0,0.113297
640.0,0.116324
645.0,0.119143
650.0,0.121843
655.0,0.124315
660.0,0.126632
665.0,0.128718
670.0,0.130959
675.0,0.132736
680.0,0.134616
685.0,0.136343
690.0,0.138068
695.0,0.139541
700.0,0.141285
705.0,0.142909
710.0,0.144657
715.0,0.146301
720.0,0.148378
725.0,0.150011
730.0,0.151809
735.0,0.153638
740.0,0.15556
745.0,0.157511
750.0,0.159543
755.0,0.161519
760.0,0.163682
765.0,0.165876
770.0,0.168227
775.0,0.170577
780.0,0.17266
785.0,0.175164
790.0,0.177608
795.0,0.18031
800.0,0.183034
805.0,0.185724
810.0,0.188561
815.0,0.191583
820.0,0.194718
825.0,0.197881
830.0,0.201064
835.0,0.204407
840.0,0.207932
845.0,0.211219
850.0,0.215013
855.0,0.218453
860.0,0.222536
865.0,0.226135
870.0,0.230257
875.0,0.234347
880.0,0.238264
885.0,0.242433
890.0,0.247242
895.0,0.251798
900.0,0.256339
905.0,0.260994
910.0,0.265382
915.0,0.269558
920.0,0.27537
925.0,0.280074
930.0,0.285375
935.0,0.290216
940.0,0.295869
945.0,0.30091
950.0,0.306699
955.0,0.312012
960.0,0.317299
965.0,0.323378
970.0,0.329159
975.0,0.335993
980.0,0.3422
985.0,0.349385
990.0,0.355254
995.0,0.361488
1000.0,0.366571
1005.0,0.372914
1010.0,0.379542
1015.0,0.386862
1020.0,0.393032
1025.0,0.399743
1030.0,0.406475
1035.0,0.412807
1040.0,0.418598
1045.0,0.425268
1050.0,0.432073
1055.0,0.438825
1060.0,0.446006
1065.0,0.452566
1070.0,0.45873
1075.0,0.465065
1080.0,0.471416
1085.0,0.476757
1090.0,0.483211
1095.0,0.490096
1100.0,0.495884
1105.0,0.501336
1110.0,0.506524
1115.0,0.511327
1120.0,0.517056
1125.0,0.521844
1130.0,0.527272
1135.0,0.532751
1140.0,0.537249
1145.0,0.540522
1150.0,0.544954
1155.0,0.549173
1160.0,0.553989
1165.0,0.559098
1170.0,0.563586
1175.0,0.568451
1180.0,0.571673
1185.0,0.574535
1190.0,0.577545
1195.0,0.58047
1200.0,0.583296
1205.0,0.585839
1210.0,0.588544
1215.0,0.59164
1220.0,0.595269
1225.0,0.598027
1230.0,0.601819
1235.0,0.604963
1240.0,0.606716
1245.0,0.609188
1250.0,0.610706
1255.0,0.612868
1260.0,0.615284
1265.0,0.618354
1270.0,0.620134
1275.0,0.622595
1280.0,0.624146
1285.0,0.625477
1290.0,0.627426
1295.0,0.629314
1300.0,0.631178
1305.0,0.633049
1310.0,0.634807
1315.0,0.63587
1320.0,0.638003
1325.0,0.639521
1330.0,0.640475
1335.0,0.641536
1340.0,0.642739
1345.0,0.64299
1350.0,0.643819
1355.0,0.644522
1360.0,0.646286
1365.0,0.647615
1370.0,0.648219
1375.0,0.649024
1380.0,0.6513
1385.0,0.653246
1390.0,0.655436
1395.0,0.658357
1400.0,0.660809
1405.0,0.66235
1410.0,0.66498
1415.0,0.666742
1420.0,0.668069
1425.0,0.669602
1430.0,0.671841
1435.0,0.673127
1440.0,0.67479
1445.0,0.676422
1450.0,0.677457
1455.0,0.679247
1460.0,0.68107
1465.0,0.682522
1470.0,0.6844
1475.0,0.686429
1480.0,0.688013
1485.0,0.689984
1490.0,0.691872
1495.0,0.69397
1500.0,0.69652
1505.0,0.698363
1510.0,0.700049
1515.0,0.702412
1520.0,0.703944
1525.0,0.705113
1530.0,0.707438
1535.0,0.709269
1540.0,0.711303
1545.0,0.713554
1550.0,0.715552
1555.0,0.717754
1560.0,0.719247
1565.0,0.720486
1570.0,0.722251
1575.0,0.723713
1580.0,0.724839
1585.0,0.726242
1590.0,0.727972
1595.0,0.72898
1600.0,0.729998
1605.0,0.730526
1610.0,0.73183
1615.0,0.733055
1620.0,0.734604
1625.0,0.73536
1630.0,0.736351
1635.0,0.737133
1640.0,0.737839
1645.0,0.738321
1650.0,0.739312
1655.0,0.740174
1660.0,0.742889
1665.0,0.742752
1670.0,0.744929
1675.0,0.744582
1680.0,0.745496
1685.0,0.746316
1690.0,0.747024
1695.0,0.747429
1700.0,0.748178
1705.0,0.749125
1710.0,0.750101
1715.0,0.749741
1720.0,0.74977
1725.0,0.750117
1730.0,0.749905
1735.0,0.749489
1740.0,0.749892
1745.0,0.751091
1750.0,0.751988
1755.0,0.752728
1760.0,0.754179
1765.0,0.755885
1770.0,0.75764
1775.0,0.75935
1780.0,0.761924
1785.0,0.764237
1790.0,0.766502
1795.0,0.768177
1800.0,0.770389
1805.0,0.77232
1810.0,0.774328
1815.0,0.776602
1820.0,0.778378
1825.0,0.779023
1830.0,0.781069
1835.0,0.783572
1840.0,0.784784
1845.0,0.786418
1850.0,0.789204
1855.0,0.789405
1860.0,0.789138
1865.0,0.790633
1870.0,0.791806
1875.0,0.791845
1880.0,0.792705
1885.0,0.793367
1890.0,0.792689
1895.0,0.793794
1900.0,0.794691
1905.0,0.795271
1910.0,0.79512
1915.0,0.796092
1920.0,0.7953
1925.0,0.794484
1930.0,0.794908
1935.0,0.795382
1940.0,0.794506
1945.0,0.793936
1950.0,0.794497
1955.0,0.793477
1960.0,0.793772
1965.0,0.794664
1970.0,0.795544
1975.0,0.795415
1980.0,0.796567
1985.0,0.796415
1990.0,0.796402
1995.0,0.796063
2000.0,0.796101
2005.0,0.79616
2010.0,0.79659
2015.0,0.796444
2020.0,0.796175
2025.0,0.796388
2030.0,0.795603
2035.0,0.795104
2040.0,0.794841
2045.0,0.795149
2050.0,0.794663
2055.0,0.794391
2060.0,0.792966
2065.0,0.792421
2070.0,0.792885
2075.0,0.7931
2080.0,0.794175
2085.0,0.794746
2090.0,0.795655
2095.0,0.794853
2100.0,0.794425
2105.0,0.792556
2110.0,0.793547
2115.0,0.792824
2120.0,0.792441
2125.0,0.792535
2130.0,0.793598
2135.0,0.792456
2140.0,0.792617
2145.0,0.792586
2150.0,0.792589
2155.0,0.792582
2160.0,0.793623
2165.0,0.793052
2170.0,0.793387
2175.0,0.794569
2180.0,0.795131
2185.0,0.795637
2190.0,0.79696
2195.0,0.798314
2200.0,0.797977
2205.0,0.798735
2210.0,0.799149
2215.0,0.800023
2220.0,0.799315
2225.0,0.799208
2230.0,0.798755
2235.0,0.798019
2240.0,0.797386
2245.0,0.79795
2250.0,0.799184
2255.0,0.799718
2260.0,0.799957
2265.0,0.800541
2270.0,0.800928
2275.0,0.800812
2280.0,0.801737
2285.0,0.802878
2290.0,0.803381
2295.0,0.803455
2300.0,0.803076
2305.0,0.802239
2310.0,0.802301
2315.0,0.801716
2320.0,0.801575
2325.0,0.801808
2330.0,0.801826
2335.0,0.801435
2340.0,0.800555
2345.0,0.800075
2350.0,0.800659
2355.0,0.800227
2360.0,0.799664
2365.0,0.799895
2370.0,0.79899
2375.0,0.79796
2380.0,0.797889
2385.0,0.798015
2390.0,0.799259
2395.0,0.800671
2400.0,0.800803
2405.0,0.799747
2410.0,0.800305
2415.0,0.799694
2420.0,0.799679
2425.0,0.800272
2430.0,0.800832
2435.0,0.801466
2440.0,0.801649
2445.0,0.801468
2450.0,0.801076
2455.0,0.801418
2460.0,0.800196
2465.0,0.800321
2470.0,0.802281
2475.0,0.802731
2480.0,0.803576
2485.0,0.80302
2490.0,0.801619
2495.0,0.801671
2500.0,0.802537
2505.62,0.803788
2510.48,0.803097
2515.35,0.804018
2520.24,0.804059
2525.15,0.80206
2530.08,0.80258
2535.03,0.802855
2540.0,0.803665
2544.99,0.806041
2549.99,0.804541
2552.5,0.803613
2553.76,0.804762
2555.02,0.80732
2556.28,0.80674
2557.54,0.805179
2558.8,0.804651
2560.07,0.802993
2561.33,0.799242
2562.6,0.800709
2563.86,0.805789
2565.13,0.80705
2566.4,0.808948
2567.67,0.8088
2568.95,0.804153
2570.22,0.800426
2571.5,0.805427
2572.77,0.806506
2574.05,0.798863
2575.33,0.804304
2576.61,0.806379
2577.89,0.802987
2579.17,0.808749
2580.46,0.808064
2581.74,0.801685
2583.03,0.802802
2584.31,0.799173
2585.6,0.804414
2586.89,0.809714
2588.19,0.802859
2589.48,0.804699
2590.77,0.80821
2592.07,0.807948
2593.36,0.802383
2594.66,0.789788
2595.96,0.789098
2597.26,0.815324
2598.56,0.819439
2599.87,0.810712
2601.17,0.803761
2602.48,0.801197
2603.78,0.802041
2605.09,0.800116
2606.4,0.798413
2607.71,0.807398
2609.03,0.809816
2610.34,0.805846
2611.66,0.805997
2612.97,0.805567
2614.29,0.802613
2615.61,0.803697
2616.93,0.797499
2618.25,0.79973
2619.57,0.808991
2620.9,0.801672
2622.22,0.805238
2623.55,0.812294
2624.88,0.807047
2626.21,0.801504
2627.54,0.797693
2628.87,0.806287
2630.21,0.802263
2631.54,0.797676
2632.88,0.809617
2634.21,0.808469
2635.55,0.804948
2636.89,0.806722
2638.24,0.804346
2639.58,0.803285
2640.92,0.803112
2642.27,0.802233
2643.62,0.802371
2644.97,0.80329
2646.32,0.800537
2647.67,0.803716
2649.02,0.80642
2650.38,0.804726
2651.73,0.801653
2653.09,0.798833
2654.45,0.802929
2655.81,0.804963
2657.17,0.804163
2658.53,0.804678
2659.89,0.800027
2661.26,0.800955
2662.63,0.804662
2664.0,0.803157
2665.36,0.793776
2666.74,0.794908
2668.11,0.804716
2669.48,0.810272
2670.86,0.79617
2672.23,0.803127
2673.61,0.815594
2674.99,0.80608
2676.37,0.796151
2677.76,0.795229
2679.14,0.802888
2680.52,0.805325
2681.91,0.808868
2683.3,0.803923
2684.69,0.799296
2686.08,0.800599
2687.47,0.799782
2688.87,0.799661
2690.26,0.798593
2691.66,0.797342
2693.06,0.792557
2694.46,0.78687
2695.86,0.792374
2697.26,0.798765
2698.66,0.79803
2700.07,0.792662
2701.48,0.786836
2702.89,0.787404
2704.3,0.790465
2705.71,0.787199
2707.12,0.78403
2708.53,0.781357
2709.95,0.776801
2711.37,0.77428
2712.79,0.781686
2714.21,0.788593
2715.63,0.782905
2717.05,0.778842
2718.48,0.776664
2719.9,0.774397
2721.33,0.769327
2722.76,0.784147
2724.19,0.785048
2725.62,0.776817
2727.06,0.784959
2728.49,0.78635
2729.93,0.780861
2731.37,0.777977
2732.81,0.776971
2734.25,0.774405
2735.69,0.771391
2737.14,0.777205
2738.58,0.775194
2740.03,0.765577
2741.48,0.769055
2742.93,0.779667
2744.38,0.781861
2745.83,0.775798
2747.29,0.77172
2748.75,0.770803
2750.2,0.769862
2751.66,0.768509
2753.13,0.766511
2754.59,0.763977
2756.05,0.756943
2757.52,0.767498
2758.99,0.775043
2760.46,0.768185
2761.93,0.761921
2763.4,0.757495
2764.87,0.761289
2766.35,0.764198
2767.82,0.759471
2769.3,0.757989
2770.78,0.757608
2772.26,0.756866
2773.75,0.760245
2775.23,0.758682
2776.72,0.754247
2778.21,0.751989
2779.7,0.752073
2781.19,0.750947
2782.68,0.75023
2784.18,0.75137
2785.67,0.749593
2787.17,0.743883
2788.67,0.743856
2790.17,0.748776
2791.67,0.747763
2793.18,0.74413
2794.68,0.742615
2796.19,0.742225
2797.7,0.741491
2799.21,0.740682
2800.72,0.739418
2802.24,0.736097
2803.75,0.733016
2805.27,0.736162
2806.79,0.738598
2808.31,0.736035
2809.83,0.73439
2811.35,0.733778
2812.88,0.732436
2814.41,0.730327
2815.93,0.728918
2817.46,0.729565
2819.0,0.728152
2820.53,0.726688
2822.07,0.727241
2823.6,0.727391
2825.14,0.726071
2826.68,0.724107
2828.22,0.722234
2829.77,0.722015
2831.31,0.721783
2832.86,0.720792
2834.41,0.719948
2835.96,0.719001
2837.51,0.718193
2839.07,0.716957
2840.62,0.716554
2842.18,0.716381
2843.74,0.714881
2845.3,0.713401
2846.86,0.71244
2848.43,0.711643
2849.99,0.710756
2851.56,0.710563
2853.13,0.709306
2854.7,0.707742
2856.27,0.707999
2857.85,0.708665
2859.42,0.707193
2861.0,0.705709
2862.58,0.705151
2864.16,0.705106
2865.75,0.704548
2867.33,0.703494
2868.92,0.703001
2870.51,0.702334
2872.1,0.700838
2873.69,0.700202
2875.28,0.700003
2876.88,0.699628
2878.48,0.698636
2880.07,0.697951
2881.68,0.696964
2883.28,0.696018
2884.88,0.695034
2886.49,0.694805
2888.1,0.694236
2889.71,0.693673
2891.32,0.69353
2892.93,0.693324
2894.55,0.692314
2896.16,0.691677
2897.78,0.691276
2899.4,0.69123
2901.03,0.690658
2902.65,0.690211
2904.28,0.689922
2905.91,0.689283
2907.54,0.688744
2909.17,0.688162
2910.8,0.687932
2912.44,0.687732
2914.07,0.687798
2915.71,0.687852
2917.35,0.687601
2918.99,0.686991
2920.64,0.686792
2922.29,0.686312
2923.93,0.685479
2925.58,0.686004
2927.24,0.686163
2928.89,0.68553
2930.55,0.684635
2932.2,0.684821
2933.86,0.685126
2935.52,0.684822
2937.19,0.684339
2938.85,0.684441
2940.52,0.684288
2942.19,0.683765
2943.86,0.683786
2945.53,0.683986
2947.21,0.683611
2948.88,0.683385
2950.56,0.683532
2952.24,0.683988
2953.92,0.68329
2955.61,0.683467
2957.29,0.683306
2958.98,0.683021
2960.67,0.682948
2962.36,0.682839
2964.06,0.682777
2965.75,0.682929
2967.45,0.682649
2969.15,0.682556
2970.85,0.682522
2972.55,0.683047
2974.26,0.683584
2975.97,0.68367
2977.68,0.68325
2979.39,0.683449
2981.1,0.683764
2982.82,0.683853
2984.53,0.683689
2986.25,0.683673
2987.97,0.684339
2989.7,0.685199
2991.42,0.684867
2993.15,0.684721
2994.88,0.685239
2996.61,0.685894
2998.34,0.685881
3000.08,0.686109
3001.82,0.686431
3003.55,0.687398
3005.3,0.6877
3007.04,0.687541
3008.78,0.687776
3010.53,0.688064
3012.28,0.688291
3014.03,0.688792
3015.79,0.688946
3017.54,0.68906
3019.3,0.689444
3021.06,0.689949
3022.82,0.690509
3024.58,0.690998
3026.35,0.691272
3028.12,0.691459
3029.89,0.692071
3031.66,0.692705
3033.43,0.693174
3035.21,0.693678
3036.99,0.694104
3038.77,0.694406
3040.55,0.694348
3042.33,0.694475
3044.12,0.694839
3045.91,0.695473
3047.7,0.695785
3049.49,0.696241
3051.29,0.696428
3053.08,0.696818
3054.88,0.696904
3056.68,0.697428
3058.49,0.697773
3060.29,0.698274
3062.1,0.698778
3063.91,0.699368
3065.72,0.69952
3067.54,0.699751
3069.35,0.699951
3071.17,0.700269
3072.99,0.700305
3074.81,0.700854
3076.64,0.701415
3078.47,0.701706
3080.29,0.701583
3082.13,0.702159
3083.96,0.702469
3085.79,0.702451
3087.63,0.702779
3089.47,0.703373
3091.31,0.703675
3093.16,0.704071
3095.01,0.704691
3096.85,0.705061
3098.71,0.70523
3100.56,0.705602
3102.41,0.705856
3104.27,0.705837
3106.13,0.706088
3107.99,0.706613
3109.86,0.707304
3111.73,0.708241
3113.59,0.708424
3115.47,0.708557
3117.34,0.708789
3119.21,0.709225
3121.09,0.709592
3122.97,0.710377
3124.86,0.710784
3126.74,0.711353
3128.63,0.7121
3130.52,0.71255
3132.41,0.712846
3134.3,0.713246
3136.2,0.713703
3138.1,0.714176
3140.0,0.714731
3141.9,0.715494
3143.81,0.715965
3145.71,0.716341
3147.62,0.71672
3149.54,0.717302
3151.45,0.717502
3153.37,0.718193
3155.29,0.719134
3157.21,0.719656
3159.13,0.720352
3161.06,0.721137
3162.99,0.721199
3164.92,0.721671
3166.85,0.722345
3168.79,0.722949
3170.72,0.723503
3172.67,0.724124
3174.61,0.724553
3176.55,0.724967
3178.5,0.725719
3180.45,0.726278
3182.4,0.726788
3184.36,0.727698
3186.32,0.728643
3188.27,0.729074
3190.24,0.729368
3192.2,0.730192
3194.17,0.730937
3196.14,0.731424
3198.11,0.731676
3200.08,0.732123
3202.06,0.732611
3204.04,0.733322
3206.02,0.73429
3208.0,0.734771
3209.99,0.734957
3211.98,0.735748
3213.97,0.736571
3215.96,0.736776
3217.96,0.737285
3219.96,0.737839
3221.96,0.738129
3223.96,0.738645
3225.97,0.739199
3227.98,0.739666
3229.99,0.740065
3232.0,0.740804
3234.02,0.741537
3236.04,0.741879
3238.06,0.742193
3240.08,0.742713
3242.11,0.743246
3244.14,0.743761
3246.17,0.744227
3248.2,0.744854
3250.24,0.745581
3252.28,0.74629
3254.32,0.746751
3256.37,0.74712
3258.41,0.747555
3260.46,0.748105
3262.51,0.748809
3264.57,0.749409
3266.63,0.749736
3268.69,0.750405
3270.75,0.750738
3272.81,0.751035
3274.88,0.751836
3276.95,0.752394
3279.02,0.752424
3281.1,0.753197
3283.18,0.75412
3285.26,0.754942
3287.34,0.755368
3289.43,0.755632
3291.51,0.755902
3293.61,0.756586
3295.7,0.757215
3297.8,0.757695
3299.9,0.757772
3302.0,0.758419
3304.1,0.759155
3306.21,0.759581
3308.32,0.760108
3310.43,0.760964
3312.55,0.761324
3314.66,0.761626
3316.79,0.761959
3318.91,0.762533
3321.03,0.762885
3323.16,0.76335
3325.29,0.764163
3327.43,0.764643
3329.57,0.764922
3331.71,0.765448
3333.85,0.765716
3335.99,0.765526
3338.14,0.765422
3340.29,0.765661
3342.45,0.765807
3344.6,0.766462
3346.76,0.766596
3348.92,0.766521
3351.09,0.766416
3353.26,0.766475
3355.43,0.766249
3357.6,0.766198
3359.78,0.766217
3361.96,0.766276
3364.14,0.766211
3366.32,0.766235
3368.51,0.765794
3370.7,0.765618
3372.89,0.76591
3375.09,0.766117
3377.29,0.766419
3379.49,0.767006
3381.69,0.767475
3383.9,0.76823
3386.11,0.768996
3388.32,0.769565
3390.54,0.770066
3392.76,0.770124
3394.98,0.770109
3397.21,0.770187
3399.43,0.770067
3401.66,0.769953
3403.9,0.769676
3406.13,0.769265
3408.37,0.768893
3410.61,0.769007
3412.86,0.769161
3415.11,0.76978
3417.36,0.770552
3419.61,0.771687
3421.87,0.772903
3424.13,0.774253
3426.39,0.775774
3428.66,0.777208
3430.93,0.778427
3433.2,0.779689
3435.48,0.780627
3437.76,0.78129
3440.04,0.781883
3442.32,0.782484
3444.61,0.782899
3446.9,0.783652
3449.19,0.784423
3451.49,0.785453
3453.79,0.786286
3456.09,0.786656
3458.4,0.787057
3460.7,0.787213
3463.02,0.787481
3465.33,0.787803
3467.65,0.787925
3469.97,0.788116
3472.29,0.787982
3474.62,0.787957
3476.95,0.788238
3479.29,0.7885
3481.62,0.78892
3483.96,0.789599
3486.3,0.789844
3488.65,0.79023
3491.0,0.790494
3493.35,0.790686
3495.71,0.790972
3498.07,0.791359
3500.43,0.791632
3502.79,0.792591
3505.16,0.793678
3507.53,0.794533
3509.91,0.795589
3512.29,0.797094
3514.67,0.798203
3517.05,0.799294
3519.44,0.800106
3521.83,0.800979
3524.23,0.801713
3526.62,0.802829
3529.02,0.80361
3531.43,0.804401
3533.83,0.805214
3536.24,0.805805
3538.66,0.806218
3541.08,0.806754
3543.5,0.807382
3545.92,0.807924
3548.35,0.808484
3550.78,0.809042
3553.21,0.809444
3555.65,0.809933
3558.09,0.810652
3560.53,0.811059
3562.98,0.81134
3565.43,0.811933
3567.88,0.812429
3570.34,0.812831
3572.8,0.813306
3575.27,0.813856
3577.73,0.814306
3580.2,0.814589
3582.68,0.814937
3585.16,0.815427
3587.64,0.815866
3590.12,0.816575
3592.61,0.817074
3595.1,0.817362
3597.6,0.81747
3600.09,0.817932
3602.6,0.818584
3605.1,0.819129
3607.61,0.819151
3610.12,0.819361
3612.64,0.81963
3615.16,0.820202
3617.68,0.820445
3620.21,0.820833
3622.74,0.821324
3625.27,0.821871
3627.81,0.822197
3630.35,0.822668
3632.89,0.822884
3635.44,0.823067
3637.99,0.823208
3640.54,0.823564
3643.1,0.823938
3645.66,0.824181
3648.23,0.824464
3650.8,0.82469
3653.37,0.824944
3655.95,0.825581
3658.53,0.826031
3661.11,0.826503
3663.7,0.826863
3666.29,0.827166
3668.89,0.827475
3671.48,0.827893
3674.09,0.828335
3676.69,0.82874
3679.3,0.82932
3681.91,0.829724
3684.53,0.830102
3687.15,0.83046
3689.78,0.830546
3692.4,0.831058
3695.04,0.831371
3697.67,0.831918
3700.31,0.832447
3702.95,0.832883
3705.6,0.833433
3708.25,0.834008
3710.91,0.834223
3713.56,0.834534
3716.23,0.834887
3718.89,0.835281
3721.56,0.83566
3724.23,0.835866
3726.91,0.836206
3729.59,0.837049
3732.28,0.837475
3734.97,0.837893
3737.66,0.838096
3740.36,0.838557
3743.06,0.839095
3745.76,0.839743
3748.47,0.840134
3751.18,0.840319
3753.9,0.840545
3756.62,0.841085
3759.34,0.841594
3762.07,0.842172
3764.8,0.842617
3767.54,0.843102
3770.28,0.843622
3773.02,0.844137
3775.77,0.844506
3778.52,0.844973
3781.28,0.845251
3784.04,0.84572
3786.8,0.846091
3789.57,0.846482
3792.34,0.846924
3795.12,0.847455
3797.9,0.84775
3800.69,0.848133
3803.47,0.84855
3806.27,0.849113
3809.06,0.849402
3811.86,0.849961
3814.67,0.850424
3817.48,0.850823
3820.29,0.851033
3823.11,0.85143
3825.93,0.851828
3828.76,0.852363
3831.59,0.852829
3834.42,0.853273
3837.26,0.85373
3840.1,0.854004
3842.95,0.854133
3845.8,0.854274
3848.65,0.854654
3851.51,0.855333
3854.38,0.855781
3857.24,0.856283
3860.12,0.856625
3862.99,0.857181
3865.87,0.857453
3868.76,0.857568
3871.65,0.858145
3874.54,0.858669
3877.44,0.859044
3880.34,0.85934
3883.25,0.859709
3886.16,0.860114
3889.07,0.860472
3891.99,0.860874
3894.92,0.861109
3897.85,0.861661
3900.78,0.862046
3903.72,0.862476
3906.66,0.862882
3909.6,0.863352
3912.55,0.863735
3915.51,0.864247
3918.47,0.864548
3921.43,0.864772
3924.4,0.864994
3927.38,0.865589
3930.35,0.865824
3933.33,0.865986
3936.32,0.866377
3939.31,0.867007
3942.31,0.867263
3945.31,0.867479
3948.31,0.867419
3951.32,0.867236
3954.34,0.866859
3957.35,0.866524
3960.38,0.866503
3963.41,0.866698
3966.44,0.866908
3969.48,0.867156
3972.52,0.867285
3975.56,0.867584
3978.61,0.867867
3981.67,0.868247
3984.73,0.868412
3987.8,0.868805
3990.87,0.869644
3993.94,0.870625
3997.02,0.87162
4000.1,0.872806
4003.19,0.873969
4006.29,0.875343
4009.39,0.876394
4012.49,0.877308
4015.6,0.878287
4018.71,0.879337
4021.83,0.880291
4024.95,0.881048
4028.08,0.881682
4031.21,0.882345
4034.35,0.883027
4037.49,0.883682
4040.64,0.8841
4043.79,0.88492
4046.94,0.885669
4050.11,0.886295
4053.27,0.88671
4056.44,0.887144
4059.62,0.887457
4062.8,0.887987
4065.99,0.88827
4069.18,0.888605
4072.38,0.888963
4075.58,0.889422
4078.78,0.889813
4082.0,0.890282
4085.21,0.890764
4088.43,0.891249
4091.66,0.891686
4094.89,0.89197
4098.13,0.892121
4101.37,0.892552
4104.62,0.892948
4107.87,0.893463
4111.13,0.893989
4114.39,0.894305
4117.66,0.894625
4120.93,0.894992
4124.21,0.895145
4127.5,0.895571
4130.79,0.895947
4134.08,0.896486
4137.38,0.89682
4140.68,0.897283
4143.99,0.897934
4147.31,0.898647
4150.63,0.898931
4153.95,0.899095
4157.29,0.899373
4160.62,0.899936
4163.96,0.900284
4167.31,0.900761
4170.66,0.901037
4174.02,0.901419
4177.39,0.901815
4180.75,0.902191
4184.13,0.90254
4187.51,0.903063
4190.89,0.903382
4194.28,0.903821
4197.68,0.903977
4201.08,0.904147
4204.49,0.904051
4207.9,0.904002
4211.32,0.903954
4214.74,0.904213
4218.17,0.904439
4221.61,0.90467
4225.05,0.904851
4228.5,0.905398
4231.95,0.906175
4235.4,0.906835
4238.87,0.907382
4242.34,0.90865
4245.81,0.909472
4249.29,0.910265
4252.78,0.911076
4256.27,0.911534
4259.77,0.91033
4263.27,0.908183
4266.78,0.907752
4270.29,0.90842
4273.81,0.909043
4277.34,0.909782
4280.87,0.910445
4284.41,0.910898
4287.95,0.91151
4291.5,0.911979
4295.06,0.912266
4298.62,0.912783
4302.19,0.913188
4305.76,0.913756
4309.34,0.914122
4312.92,0.914225
4316.52,0.914395
4320.11,0.914552
4323.72,0.914597
4327.32,0.914994
4330.94,0.915015
4334.56,0.914783
4338.19,0.915018
4341.82,0.915549
4345.46,0.915714
4349.11,0.91581
4352.76,0.915954
4356.42,0.916263
4360.08,0.916449
4363.75,0.916697
4367.43,0.917094
4371.11,0.917412
4374.8,0.917418
4378.49,0.91762
4382.19,0.918018
4385.9,0.918181
4389.61,0.918196
4393.33,0.918286
4397.06,0.918482
4400.79,0.918744
4404.53,0.91899
4408.28,0.919059
4412.03,0.918997
4415.79,0.919356
4419.55,0.919564
4423.32,0.919633
4427.1,0.919806
4430.88,0.920065
4434.68,0.920176
4438.47,0.920256
4442.28,0.92034
4446.08,0.920679
4449.9,0.920823
4453.72,0.92099
4457.55,0.920919
4461.39,0.921095
4465.23,0.921249
4469.08,0.921305
4472.94,0.921318
4476.8,0.921283
4480.67,0.92154
4484.55,0.92188
4488.43,0.92174
4492.32,0.921748
4496.21,0.92183
4500.12,0.922052
4504.03,0.922117
4507.94,0.922318
4511.87,0.92241
4515.8,0.922483
4519.73,0.922499
4523.68,0.922504
4527.63,0.922389
4531.59,0.922256
4535.55,0.922348
4539.52,0.922408
4543.5,0.922459
4547.49,0.92257
4551.48,0.922605
4555.48,0.92255
4559.49,0.922415
4563.5,0.922717
4567.52,0.922917
4571.55,0.922957
4575.58,0.923041
4579.63,0.923278
4583.67,0.9233
4587.73,0.923349
4591.79,0.923332
4595.86,0.923341
4599.94,0.923373
4604.03,0.923591
4608.12,0.923578
4612.22,0.923654
4616.33,0.923654
4620.44,0.923631
4624.56,0.923769
4628.69,0.923875
4632.83,0.92398
4636.97,0.924119
4641.12,0.923815
4645.28,0.92368
4649.45,0.923834
4653.62,0.923852
4657.8,0.923672
4661.99,0.923734
4666.19,0.923982
4670.39,0.924214
4674.6,0.924158
4678.82,0.92422
4683.05,0.924212
4687.28,0.924174
4691.52,0.924173
4695.77,0.924325
4700.03,0.924276
4704.3,0.924282
4708.57,0.924401
4712.85,0.924616
4717.14,0.92457
4721.43,0.924602
4725.74,0.924692
4730.05,0.924602
4734.37,0.92451
4738.7,0.924723
4743.03,0.92488
4747.38,0.924839
4751.73,0.924847
4756.09,0.925006
4760.45,0.924894
4764.83,0.924956
4769.21,0.924918
4773.6,0.924921
4778.0,0.924864
4782.41,0.924883
4786.83,0.924772
4791.25,0.924746
4795.68,0.924411
4800.13,0.924438
4804.57,0.924409
4809.03,0.92433
4813.5,0.924284
4817.97,0.924584
4822.45,0.924495
4826.94,0.924276
4831.44,0.924058
4835.95,0.923751
4840.46,0.923543
4844.99,0.92358
4849.52,0.923651
4854.06,0.923548
4858.61,0.923309
4863.17,0.923154
4867.73,0.922877
4872.31,0.922818
4876.89,0.922961
4881.48,0.923036
4886.08,0.92299
4890.69,0.923123
4895.31,0.923192
4899.94,0.923225
4904.57,0.923419
4909.22,0.923381
4913.87,0.923119
4918.53,0.923197
4923.21,0.923244
4927.88,0.923435
4932.57,0.923468
4937.27,0.923479
4941.98,0.923367
4946.69,0.923475
4951.42,0.923453
4956.15,0.923429
4960.9,0.923465
4965.65,0.924104
4970.41,0.924057
4975.18,0.923912
4979.96,0.923591
4984.75,0.923535
4989.54,0.923575
4994.35,0.923607
4999.17,0.923556
5003.99,0.92354
5008.83,0.92351
5013.67,0.923515
5018.52,0.922941
5023.39,0.92295
5028.26,0.923805
5033.14,0.923448
5038.03,0.923189
5042.93,0.923135
5047.84,0.922677
5052.76,0.922624
5057.69,0.922551
5062.63,0.922569
5067.58,0.92272
5072.54,0.922931
5077.51,0.922728
5082.49,0.922259
5087.47,0.922321
5092.47,0.92313
5097.48,0.922772
5102.5,0.922278
5107.52,0.921987
5112.56,0.922508
5117.61,0.922459
5122.66,0.92241
5127.73,0.922224
5132.81,0.92219
5137.89,0.922076
5142.99,0.921942
5148.1,0.921136
5153.22,0.921712
5158.34,0.922818
5163.48,0.922109
5168.63,0.921855
5173.79,0.921857
5178.96,0.921947
5184.13,0.922004
5189.32,0.922
5194.52,0.921783
5199.73,0.921098
5204.96,0.921294
5210.19,0.92196
5215.43,0.920432
5220.68,0.922542
5225.94,0.9234
5231.22,0.921817
5236.5,0.921316
5241.79,0.921586
5247.1,0.922448
5252.42,0.922163
5257.74,0.922155
5263.08,0.922135
5268.43,0.92209
5273.79,0.921777
5279.16,0.921764
5284.54,0.922593
5289.93,0.922585
5295.34,0.921984
5300.75,0.92398
5306.18,0.923763
5311.61,0.923165
5317.06,0.923146
5322.52,0.923095
5327.99,0.922901
5333.47,0.923034
5338.96,0.923101
5344.47,0.922812
5349.98,0.920831
5355.51,0.922187
5361.05,0.9256
5366.6,0.924707
5372.16,0.923295
5377.73,0.922739
5383.32,0.922988
5388.91,0.923335
5394.52,0.923559
5400.14,0.923427
5405.77,0.923472
5411.41,0.923042
5417.07,0.922589
5422.74,0.919982
5428.41,0.923139
5434.1,0.927355
5439.81,0.923942
5445.52,0.922829
5451.25,0.922826
5456.98,0.922782
5462.73,0.920738
5468.5,0.920709
5474.27,0.924573
5480.06,0.922632
5485.86,0.922721
5491.67,0.924106
5497.49,0.922167
5503.33,0.921604
5509.18,0.921372
5515.04,0.921782
5520.91,0.920331
5526.8,0.920512
5532.69,0.920995
5538.61,0.920594
5544.53,0.918595
5550.47,0.916048
5556.41,0.91353
5562.38,0.913352
5568.35,0.911901
5574.34,0.909809
5580.34,0.906397
5586.35,0.911484
5592.38,0.916889
5598.42,0.916123
5604.47,0.915317
5610.54,0.917976
5616.61,0.917983
5622.71,0.918272
5628.81,0.918932
5634.93,0.917382
5641.06,0.913791
5647.21,0.915285
5653.36,0.921844
5659.54,0.919051
5665.72,0.919731
5671.92,0.917561
5678.13,0.914139
5684.36,0.918172
5690.6,0.918072
5696.85,0.915935
5703.12,0.918669
5709.4,0.91456
5715.69,0.914805
5722.0,0.92078
5728.33,0.921769
5734.66,0.921097
5741.01,0.920017
5747.38,0.919127
5753.76,0.919259
5760.15,0.921205
5766.56,0.911069
5772.98,0.915051
5779.41,0.92354
5785.86,0.917081
5792.33,0.914212
5798.81,0.911753
5805.3,0.909432
5811.81,0.908731
5818.33,0.90329
5824.87,0.898712
5831.42,0.906417
5837.99,0.907858
5844.57,0.903919
5851.17,0.898731
5857.78,0.894318
5864.41,0.890134
5871.05,0.889605
5877.7,0.88503
5884.38,0.874648
5891.06,0.88613
5897.76,0.87877
5904.48,0.876808
5911.21,0.878892
5917.96,0.869102
5924.73,0.865379
5931.5,0.86147
5938.3,0.852301
5945.11,0.859683
5951.93,0.86413
5958.78,0.855204
5965.63,0.849774
5972.51,0.844034
5979.39,0.848968
5986.3,0.844469
5993.22,0.839754
6000.16,0.843595
6007.11,0.842258
6014.08,0.834962
6021.06,0.83523
6028.06,0.837249
6035.08,0.834207
6042.12,0.829479
6049.17,0.819566
6056.23,0.829032
6063.32,0.844104
6070.42,0.830794
6077.53,0.8272
6084.67,0.835583
6091.82,0.835373
6098.98,0.83098
6106.17,0.830282
6113.37,0.825917
6120.58,0.831358
6127.82,0.840754
6135.07,0.836839
6142.34,0.833092
6149.63,0.834725
6156.93,0.835467
6164.25,0.834766
6171.59,0.839642
6178.95,0.838465
6186.32,0.832601
6193.71,0.838993
6201.12,0.84452
6208.54,0.839834
6215.99,0.838802
6223.45,0.83884
6230.93,0.839093
6238.43,0.837903
6245.95,0.837462
6253.48,0.836833
6261.03,0.836233
6268.6,0.835124
6276.19,0.834707
6283.8,0.833919
6291.43,0.833046
6299.07,0.831903
6306.73,0.831116
6314.42,0.829902
6322.12,0.82915
6329.84,0.827939
6337.57,0.826085
6345.33,0.820534
6353.11,0.825914
6360.9,0.830393
6368.72,0.822159
6376.55,0.82014
6384.4,0.824586
6392.27,0.821245
6400.17,0.819155
6408.08,0.813634
6416.01,0.80439
6423.96,0.817997
6431.93,0.823003
6439.92,0.814782
6447.93,0.813678
6455.96,0.809401
6464.01,0.808779
6472.08,0.804829
6480.17,0.80161
6488.28,0.799544
6496.41,0.797191
6504.56,0.805945
6512.73,0.80845
6520.92,0.798057
6529.14,0.79801
6537.37,0.801373
6545.63,0.79708
6553.9,0.794503
6562.2,0.795013
6570.51,0.792721
6578.85,0.790561
6587.21,0.79631
6595.59,0.79143
6603.99,0.790643
6612.42,0.788613
6620.86,0.784717
6629.33,0.781498
6637.82,0.774642
6646.33,0.780234
6654.86,0.786746
6663.41,0.77865
6671.99,0.772321
6680.59,0.770036
6689.21,0.770482
6697.85,0.77239
6706.51,0.76703
6715.2,0.762666
6723.91,0.764772
6732.64,0.764451
6741.4,0.762232
6750.18,0.758579
6758.98,0.756665
6767.8,0.754831
6776.65,0.751
6785.52,0.74877
6794.41,0.746171
6803.33,0.749612
6812.27,0.747927
6821.23,0.741626
6830.22,0.738254
6839.23,0.739917
6848.26,0.737566
6857.32,0.730985
6866.4,0.726863
6875.51,0.734161
6884.64,0.734593
6893.8,0.727747
6902.98,0.724248
6912.18,0.721549
6921.41,0.721861
6930.66,0.719346
6939.94,0.716586
6949.24,0.714135
6958.57,0.709757
6967.92,0.708567
6977.3,0.712911
6986.7,0.708657
6996.13,0.706065
7005.59,0.706039
7015.07,0.706009
7024.57,0.703691
7034.1,0.704279
7043.66,0.701731
7053.25,0.701595
7062.85,0.706918
7072.49,0.705902
7082.15,0.703965
7091.84,0.703566
7101.55,0.703613
7111.3,0.70316
7121.06,0.702315
7130.86,0.703205
7140.68,0.702517
7150.53,0.70025
7160.41,0.701199
7170.31,0.700725
7180.24,0.701566
7190.2,0.703345
7200.19,0.701258
7210.2,0.699878
7220.24,0.701534
7230.31,0.70242
7240.41,0.701033
7250.54,0.700882
7260.69,0.700084
7270.88,0.699534
7281.09,0.698364
7291.33,0.699402
7301.6,0.698495
7311.9,0.696652
7322.22,0.695592
7332.58,0.693567
7342.97,0.691292
7353.38,0.691033
7363.83,0.688876
7374.3,0.685555
7384.81,0.682219
7395.34,0.679232
7405.91,0.675695
7416.5,0.672193
7427.13,0.668438
7437.78,0.664882
7448.47,0.661198
7459.19,0.65753
7469.94,0.653607
7480.71,0.651077
7491.52,0.648164
7502.37,0.645267
7513.24,0.64235
7524.14,0.640102
7535.08,0.637624
7546.05,0.635459
7557.05,0.633581
7568.08,0.632449
7579.15,0.631399
7590.24,0.630879
7601.37,0.630685
7612.53,0.630505
7623.73,0.630092
7634.96,0.630206
7646.22,0.63023
7657.51,0.630723
7668.84,0.631267
7680.2,0.631961
7691.59,0.632376
7703.02,0.632966
7714.49,0.633557
7725.98,0.634327
7737.52,0.634624
7749.08,0.634958
7760.68,0.635058
7772.32,0.635274
7783.99,0.634967
7795.69,0.634443
7807.43,0.633685
7819.21,0.632966
7831.02,0.631699
7842.87,0.63007
7854.75,0.628016
7866.67,0.625957
7878.62,0.623544
7890.62,0.620774
7902.64,0.61761
7914.71,0.6146
7926.81,0.610746
7938.95,0.606718
7951.13,0.602298
7963.34,0.597565
7975.59,0.59227
7987.88,0.586994
8000.21,0.581467
8012.57,0.575913
8024.98,0.570022
8037.42,0.564735
8049.9,0.559874
8062.42,0.555495
8074.98,0.551433
8087.57,0.547842
8100.21,0.544289
8112.89,0.541167
8125.6,0.537524
8138.36,0.533547
8151.16,0.529013
8163.99,0.524427
8176.87,0.519504
8189.79,0.514778
8202.75,0.509671
8215.75,0.504649
8228.79,0.499604
8241.87,0.494867
8254.99,0.489996
8268.16,0.48569
8281.37,0.481587
8294.62,0.477917
8307.91,0.47434
8321.24,0.471577
8334.62,0.469034
8348.04,0.467067
8361.51,0.465435
8375.02,0.464111
8388.57,0.462357
8402.16,0.460924
8415.8,0.459526
8429.49,0.458356
8443.22,0.456948
8456.99,0.455597
8470.81,0.454093
8484.67,0.452964
8498.58,0.451807
8512.54,0.450664
8526.54,0.449259
8540.58,0.44824
8554.68,0.447262
8568.82,0.446542
8583.0,0.445736
8597.24,0.445027
8611.52,0.444042
8625.85,0.44347
8640.23,0.443031
8654.65,0.442687
8669.12,0.44205
8683.64,0.441546
8698.21,0.440629
8712.83,0.439305
8727.5,0.437386
8742.22,0.435517
8756.99,0.433286
8771.8,0.431288
8786.67,0.429177
8801.59,0.427518
8816.56,0.42619
8831.58,0.425779
8846.65,0.425561
8861.77,0.425901
8876.94,0.426484
8892.17,0.427718
8907.45,0.428581
8922.78,0.429381
8938.16,0.430466
8953.6,0.431783
8969.09,0.4326
8984.64,0.433325
9000.23,0.433447
9015.89,0.433355
9031.59,0.432506
9047.36,0.431172
9063.17,0.429061
9079.05,0.427151
9094.97,0.424655
9110.96,0.422172
9127.0,0.419594
9143.1,0.417128
9159.25,0.414413
9175.46,0.411978
9191.73,0.409395
9208.06,0.407156
9224.44,0.404433
9240.88,0.401936
9257.38,0.399194
9273.94,0.39645
9290.56,0.393397
9307.24,0.390233
9323.98,0.386703
9340.78,0.383323
9357.64,0.379755
9374.57,0.376051
9391.55,0.371474
9408.59,0.36734
9425.7,0.363059
9442.87,0.358506
9460.1,0.353319
9477.4,0.348134
9494.75,0.342915
9512.17,0.337677
9529.66,0.331836
9547.21,0.326277
9564.83,0.321246
9582.5,0.316499
9600.25,0.311558
9618.06,0.307481
9635.94,0.303672
9653.88,0.30059
9671.89,0.297605
9689.97,0.295106
9708.12,0.292605
9726.33,0.290326
9744.62,0.287628
9762.97,0.284751
9781.39,0.281271
9799.88,0.27745
9818.44,0.273422
9837.07,0.269971
9855.77,0.266502
9874.54,0.263186
9893.39,0.260018
9912.3,0.257508
9931.29,0.255168
9950.36,0.252937
9969.49,0.250024
9988.7,0.247559
10007.98,0.245081
10027.34,0.242684
10046.77,0.24005
10066.28,0.237465
10085.87,0.234395
10105.53,0.231249
10125.26,0.227256
10145.08,0.223338
10164.97,0.219426
10184.94,0.215825
10204.99,0.212052
10225.12,0.208995
10245.33,0.206339
10265.61,0.204851
10285.98,0.204005
10306.43,0.204207
10326.96,0.204704
10347.57,0.205569
10368.27,0.206168
10389.05,0.206898
10409.91,0.2072
10430.86,0.207467
10451.88,0.20761
10473.0,0.208062
10494.2,0.208558
10515.49,0.20958
10536.86,0.210729
10558.32,0.212266
10579.87,0.213574
10601.5,0.214927
10623.23,0.216472
10645.04,0.218358
10666.94,0.219768
10688.94,0.221022
10711.02,0.222321
10733.2,0.223678
10755.47,0.224412
10777.83,0.225171
10800.28,0.225384
10822.83,0.225671
10845.47,0.225749
10868.21,0.22597
10891.04,0.225848
10913.97,0.22583
10936.99,0.225274
10960.12,0.225026
10983.34,0.224432
11006.66,0.224142
11030.07,0.223745
11053.59,0.223095
11077.21,0.221902
11100.93,0.221055
11124.75,0.220052
11148.68,0.21921
11172.71,0.218275
11196.84,0.217614
11221.07,0.216696
11245.41,0.216181
11269.86,0.215204
11294.41,0.214735
11319.07,0.213843
11343.84,0.213001
11368.72,0.212052
11393.7,0.211082
11418.8,0.209933
11444.01,0.208922
11469.33,0.207742
11494.76,0.206561
11520.3,0.205223
11545.96,0.203644
11571.73,0.201075
11597.62,0.198567
11623.62,0.195839
11649.74,0.193167
11675.98,0.190177
11702.34,0.187374
11728.81,0.184394
11755.41,0.181253
11782.13,0.177867
11808.96,0.174853
11835.92,0.172066
11863.01,0.169614
11890.22,0.167186
11917.55,0.165876
11945.01,0.165249
11972.6,0.165396
12000.31,0.16595
12028.16,0.167229
12056.13,0.168076
12084.23,0.168879
12112.46,0.169707
12140.83,0.17051
12169.33,0.170348
12197.96,0.170213
12226.73,0.169388
12255.64,0.168396
12284.68,0.166845
12313.86,0.165117
12343.18,0.16289
12372.64,0.160718
12402.24,0.158016
12431.98,0.154975
12461.86,0.15123
12491.89,0.14761
12522.07,0.143615
12552.38,0.139843
12582.85,0.136117
12613.47,0.132192
12644.23,0.128196
12675.15,0.124577
12706.21,0.121057
12737.43,0.118026
12768.81,0.114777
12800.33,0.111574
12832.02,0.107987
12863.86,0.10452
12895.86,0.100511
12928.02,0.097005
12960.34,0.093501
12992.82,0.090198
13025.46,0.087321
13058.27,0.08496
13091.25,0.082375
13124.39,0.080217
13157.7,0.077742
13191.18,0.07569
13224.83,0.073795
13258.66,0.072288
13292.65,0.070655
13326.83,0.069115
13361.17,0.067066
13395.7,0.065135
13430.4,0.063132
13465.29,0.06147
13500.35,0.05959
13535.6,0.058059
13571.03,0.05633
13606.65,0.054953
13642.46,0.05353
13678.46,0.052723
13714.64,0.051912
13751.02,0.051764
13787.59,0.051903
13824.36,0.05265
13861.32,0.053699
13898.49,0.055595
13935.85,0.05848
13973.41,0.062903
14011.17,0.068582
14049.15,0.076397
14087.32,0.086151
14125.71,0.098626
14164.3,0.113484
14203.11,0.131299
14242.13,0.151767
14281.36,0.174506
14320.81,0.198367
14360.49,0.221945
14400.38,0.243127
14440.49,0.260172
14480.82,0.2717
14521.39,0.278159
14562.18,0.280386
14603.2,0.279331
14644.45,0.275953
14685.93,0.271635
14727.66,0.26716
14769.62,0.26326
14811.81,0.259379
14854.25,0.256645
14896.94,0.254841
14939.87,0.253806
14983.05,0.252773
15026.48,0.252436
15070.16,0.252172
15114.1,0.251676
15158.29,0.250318
15202.74,0.248673
15247.46,0.247082
15292.43,0.245422
15337.68,0.24327
15383.19,0.241439
15428.97,0.239569
15475.03,0.237619
15521.36,0.235635
15567.97,0.233877
15614.87,0.231523
15662.04,0.22913
15709.5,0.226921
15757.25,0.224722
15805.29,0.22246
15853.62,0.220208
15902.26,0.217771
15951.19,0.215797
16000.42,0.213725
16049.95,0.211708
16099.8,0.209607
16149.95,0.208272
16200.42,0.207082
16251.21,0.206436
16302.31,0.206458
16353.74,0.207014
16405.49,0.207103
16457.57,0.208041
16509.98,0.209569
16562.73,0.210336
16615.82,0.208906
16669.24,0.205115
16723.02,0.199335
16777.14,0.192507
16831.61,0.184294
16886.43,0.175993
16941.62,0.167553
16997.16,0.159302
17053.08,0.151098
17109.36,0.14475
17166.01,0.1395
17223.04,0.134302
17280.45,0.128967
17338.24,0.123752
17396.43,0.117412
17455.0,0.111326
17513.97,0.104981
17573.34,0.098218
17633.11,0.091126
17693.29,0.084499
17753.89,0.077483
17814.9,0.071795
17876.33,0.068714
17938.18,0.071129
18000.47,0.082186
18063.19,0.104074
18126.35,0.132612
18189.95,0.1622
18254.0,0.186796
18318.5,0.205339
18383.46,0.219027
18448.88,0.228485
18514.77,0.234351
18581.13,0.237835
18647.97,0.240153
18715.29,0.241824
18783.1,0.241609
18851.4,0.240968
18920.2,0.240258
18989.51,0.238571
19059.32,0.236729
19129.65,0.234462
19200.5,0.229048
19271.88,0.228181
19343.79,0.229703
19416.24,0.228253
19489.23,0.226261
19562.77,0.225538
19636.88,0.224254
19711.54,0.223457
19786.78,0.223123
19862.59,0.223419
19938.98,0.224339
20015.96,0.225691
20093.55,0.226781
20171.73,0.227541
20250.53,0.228288
20329.94,0.229625
20409.98,0.230946
20490.65,0.232322
20571.96,0.232572
20653.92,0.233416
20736.54,0.234009
20819.82,0.234387
20903.77,0.233775
20988.4,0.232361
21073.72,0.230189
21159.73,0.229653
21246.46,0.227285
21333.89,0.224055
21422.04,0.222257
21510.93,0.222197
21600.56,0.222217
21690.94,0.223537
21782.08,0.22481
21873.99,0.226659
21966.67,0.228763
22060.15,0.232558
22154.42,0.233742
22249.51,0.234516
22345.41,0.237052
22442.14,0.238865
22539.72,0.239064
22638.14,0.239353
22737.43,0.238819
22837.6,0.238215
22938.65,0.237702
23040.6,0.238091
23143.46,0.2375
23247.24,0.237058
23351.96,0.236899
23457.63,0.236915
23564.25,0.236087
23671.85,0.236567
23780.44,0.233707
23890.02,0.22989
24000.63,0.230688
24112.26,0.230911
24224.93,0.226724
24338.66,0.226075
24453.47,0.22411
24569.36,0.225136
24686.36,0.225555
24804.47,0.219057
24923.73,0.215687
25044.13,0.217849
25165.71,0.215892
25288.46,0.213684
25412.43,0.207722
25537.61,0.201353
25664.04,0.197327
25791.72,0.194834
25920.68,0.189495
