Database of Origin,University of Winnipeg Spectrophotometer Facility
Sample Description,8. Sulfates: RELAB + Nicolet spectra / Spectra all made consistently merged: Jan. / 10 / 2005
Date Added,2016-07-15 22:05:55.932015

Data ID,RPN_SUL_65          
Sample ID,SPT152
Mineral Name,Lazurite
Grain Size,<45
Viewing Geometry,30 / 0 | 30
Resolution,5 / 1.3-129
Material Class,Sulfate

Wavelength
305.0,0.32136
310.0,0.33391
315.0,0.3471
320.0,0.35957
325.0,0.3732
330.0,0.38435
335.0,0.39261
340.0,0.40072
345.0,0.40698
350.0,0.41479
355.0,0.42237
360.0,0.43136
365.0,0.44044
370.0,0.44981
375.0,0.46016
380.0,0.47008
385.0,0.47993
390.0,0.48936
395.0,0.49903
400.0,0.50585
405.0,0.51538
410.0,0.52507
415.0,0.53451
420.0,0.54475
425.0,0.5557
430.0,0.5659
435.0,0.57609
440.0,0.58422
445.0,0.59249
450.0,0.5978
455.0,0.60344
460.0,0.6055
465.0,0.60708
470.0,0.60539
475.0,0.60336
480.0,0.59625
485.0,0.58955
490.0,0.57829
495.0,0.56545
500.0,0.54986
505.0,0.53223
510.0,0.51382
515.0,0.49445
520.0,0.47542
525.0,0.45699
530.0,0.43882
535.0,0.42192
540.0,0.40628
545.0,0.39238
550.0,0.37976
555.0,0.36865
560.0,0.35919
565.0,0.35078
570.0,0.3437
575.0,0.33805
580.0,0.33345
585.0,0.32989
590.0,0.32757
595.0,0.32597
600.0,0.32575
605.0,0.32614
610.0,0.3278
615.0,0.3304
620.0,0.33389
625.0,0.33812
630.0,0.34318
635.0,0.3493
640.0,0.35668
645.0,0.36493
650.0,0.37402
655.0,0.38434
660.0,0.39599
665.0,0.40893
670.0,0.42323
675.0,0.43891
680.0,0.45611
685.0,0.47347
690.0,0.49165
695.0,0.51015
700.0,0.52851
705.0,0.54587
710.0,0.56217
715.0,0.57784
720.0,0.59051
725.0,0.60269
730.0,0.6127
735.0,0.62054
740.0,0.62715
745.0,0.63259
750.0,0.63757
755.0,0.64058
760.0,0.6435
765.0,0.64526
770.0,0.6476
775.0,0.64869
780.0,0.65004
785.0,0.65071
790.0,0.65187
795.0,0.65182
800.0,0.65364
805.0,0.65332
810.0,0.65464
815.0,0.6546
820.0,0.65544
825.0,0.65577
830.0,0.65595
835.0,0.6564
840.0,0.65724
845.0,0.65697
850.0,0.65769
855.0,0.6582
860.0,0.65913
865.0,0.65935
870.0,0.66008
875.0,0.65979
880.0,0.66103
885.0,0.66181
890.0,0.66263
895.0,0.66262
900.0,0.66381
905.0,0.66463
910.0,0.66523
915.0,0.66601
920.0,0.66654
925.0,0.66738
930.0,0.66807
935.0,0.66845
940.0,0.67013
945.0,0.66976
950.0,0.67083
955.0,0.67201
960.0,0.67172
965.0,0.67283
970.0,0.67297
975.0,0.6742
980.0,0.67425
985.0,0.67562
990.0,0.6755
995.0,0.67624
1000.0,0.67623
1005.0,0.67618
1010.0,0.67748
1015.0,0.67791
1020.0,0.67851
1025.0,0.67867
1030.0,0.67931
1035.0,0.67886
1040.0,0.67967
1045.0,0.68026
1050.0,0.68032
1055.0,0.68041
1060.0,0.68072
1065.0,0.68054
1070.0,0.68197
1075.0,0.68196
1080.0,0.6824
1085.0,0.68202
1090.0,0.68178
1095.0,0.68176
1100.0,0.68208
1105.0,0.68265
1110.0,0.68299
1115.0,0.68364
1120.0,0.68308
1125.0,0.68338
1130.0,0.68294
1135.0,0.68284
1140.0,0.68237
1145.0,0.68362
1150.0,0.68289
1155.0,0.68381
1160.0,0.68396
1165.0,0.68367
1170.0,0.68443
1175.0,0.68422
1180.0,0.68486
1185.0,0.68439
1190.0,0.68539
1195.0,0.68526
1200.0,0.68555
1205.0,0.68557
1210.0,0.68602
1215.0,0.68557
1220.0,0.68615
1225.0,0.68603
1230.0,0.68627
1235.0,0.68645
1240.0,0.68634
1245.0,0.68625
1250.0,0.68684
1255.0,0.68729
1260.0,0.68674
1265.0,0.68685
1270.0,0.68665
1275.0,0.68692
1280.0,0.68613
1285.0,0.68681
1290.0,0.68612
1295.0,0.68651
1300.0,0.68649
1305.0,0.68659
1310.0,0.68661
1315.0,0.68674
1320.0,0.68686
1325.0,0.68681
1330.0,0.68695
1335.0,0.68699
1340.0,0.68701
1345.0,0.68689
1350.0,0.68676
1355.0,0.68624
1360.0,0.68595
1365.0,0.68581
1370.0,0.68599
1375.0,0.68544
1380.0,0.68536
1385.0,0.68595
1390.0,0.68642
1395.0,0.68569
1400.0,0.68517
1405.0,0.68524
1410.0,0.68518
1415.0,0.68463
1420.0,0.68425
1425.0,0.68376
1430.0,0.68321
1435.0,0.68268
1440.0,0.68326
1445.0,0.68413
1450.0,0.68376
1455.0,0.68392
1460.0,0.68403
1465.0,0.68377
1470.0,0.68436
1475.0,0.68397
1480.0,0.68457
1485.0,0.6846
1490.0,0.68513
1495.0,0.68543
1500.0,0.68571
1505.0,0.68613
1510.0,0.68643
1515.0,0.68608
1520.0,0.68692
1525.0,0.68711
1530.0,0.68723
1535.0,0.68742
1540.0,0.6874
1545.0,0.68792
1550.0,0.68754
1555.0,0.68779
1560.0,0.68836
1565.0,0.68819
1570.0,0.68791
1575.0,0.68859
1580.0,0.68838
1585.0,0.68816
1590.0,0.6883
1595.0,0.68901
1600.0,0.68854
1605.0,0.68837
1610.0,0.68875
1615.0,0.6889
1620.0,0.68901
1625.0,0.6887
1630.0,0.68828
1635.0,0.68825
1640.0,0.68855
1645.0,0.68854
1650.0,0.68858
1655.0,0.6886
1660.0,0.68944
1665.0,0.68871
1670.0,0.68956
1675.0,0.68925
1680.0,0.68919
1685.0,0.68916
1690.0,0.68885
1695.0,0.6887
1700.0,0.68879
1705.0,0.68841
1710.0,0.68794
1715.0,0.68857
1720.0,0.68779
1725.0,0.68837
1730.0,0.68778
1735.0,0.68746
1740.0,0.68713
1745.0,0.68685
1750.0,0.6865
1755.0,0.68743
1760.0,0.6875
1765.0,0.6867
1770.0,0.68737
1775.0,0.68694
1780.0,0.68706
1785.0,0.68717
1790.0,0.68764
1795.0,0.68663
1800.0,0.6876
1805.0,0.68625
1810.0,0.68686
1815.0,0.68652
1820.0,0.68652
1825.0,0.68653
1830.0,0.68652
1835.0,0.68649
1840.0,0.68604
1845.0,0.68593
1850.0,0.68514
1855.0,0.68488
1860.0,0.68449
1865.0,0.68407
1870.0,0.68329
1875.0,0.68247
1880.0,0.68118
1885.0,0.67995
1890.0,0.67881
1895.0,0.67467
1900.0,0.67233
1905.0,0.66602
1910.0,0.66158
1915.0,0.65816
1920.0,0.65741
1925.0,0.6549
1930.0,0.65335
1935.0,0.65314
1940.0,0.6529
1945.0,0.65426
1950.0,0.65274
1955.0,0.65368
1960.0,0.65419
1965.0,0.65696
1970.0,0.65718
1975.0,0.65894
1980.0,0.65995
1985.0,0.66158
1990.0,0.66319
1995.0,0.66287
2000.0,0.66458
2005.0,0.66484
2010.0,0.66758
2015.0,0.66759
2020.0,0.66965
2025.0,0.67005
2030.0,0.67028
2035.0,0.66974
2040.0,0.67128
2045.0,0.67123
2050.0,0.67171
2055.0,0.67309
2060.0,0.67231
2065.0,0.67371
2070.0,0.67357
2075.0,0.67426
2080.0,0.67356
2085.0,0.67409
2090.0,0.6747
2095.0,0.67464
2100.0,0.67457
2105.0,0.67559
2110.0,0.67604
2115.0,0.67566
2120.0,0.67595
2125.0,0.67674
2130.0,0.67708
2135.0,0.67741
2140.0,0.67661
2145.0,0.67681
2150.0,0.67714
2155.0,0.6773
2160.0,0.67756
2165.0,0.67687
2170.0,0.67751
2175.0,0.67718
2180.0,0.67757
2185.0,0.67729
2190.0,0.67803
2195.0,0.67782
2200.0,0.67707
2205.0,0.67812
2210.0,0.67754
2215.0,0.67748
2220.0,0.6774
2225.0,0.67741
2230.0,0.67658
2235.0,0.67648
2240.0,0.67727
2245.0,0.6773
2250.0,0.67711
2255.0,0.67673
2260.0,0.67729
2265.0,0.67681
2270.0,0.67602
2275.0,0.67712
2280.0,0.6756
2285.0,0.67584
2290.0,0.67568
2295.0,0.67524
2300.0,0.67425
2305.0,0.67293
2310.0,0.67327
2315.0,0.67368
2320.0,0.67365
2325.0,0.673
2330.0,0.67283
2335.0,0.67166
2340.0,0.67105
2345.0,0.67113
2350.0,0.67034
2355.0,0.6702
2360.0,0.67109
2365.0,0.67027
2370.0,0.67062
2375.0,0.67069
2380.0,0.66882
2385.0,0.66937
2390.0,0.66751
2395.0,0.6677
2400.0,0.66677
2405.0,0.6654
2410.0,0.66396
2415.0,0.66395
2420.0,0.66263
2425.0,0.65978
2430.0,0.65944
2435.0,0.65788
2440.0,0.65611
2445.0,0.65606
2450.0,0.65498
2455.0,0.65357
2460.0,0.65256
2465.0,0.65092
2470.0,0.65066
2475.0,0.64967
2480.0,0.65092
2485.0,0.6481
2490.0,0.64644
2495.0,0.64751
2500.0,0.64423
2505.0,0.64451
2510.0,0.64455
2515.0,0.64469
2520.0,0.64343
2525.0,0.64419
2530.0,0.64448
2535.0,0.64325
2540.0,0.64279
2545.0,0.64506
2550.0,0.64671
2555.0,0.64769
2560.0,0.64804
2565.13,0.64831
2570.22,0.64832
2575.33,0.64827
2580.46,0.64793
2581.74,0.64786
2583.03,0.64787
2584.31,0.64768
2585.6,0.64768
2586.89,0.64753
2588.19,0.64739
2589.48,0.64729
2590.77,0.64726
2592.07,0.64724
2593.36,0.64709
2594.66,0.6467
2595.96,0.64665
2597.26,0.64671
2598.56,0.64667
2599.87,0.64654
2601.17,0.64632
2602.48,0.64612
2603.78,0.64606
2605.09,0.64592
2606.4,0.64578
2607.71,0.64571
2609.03,0.64559
2610.34,0.64535
2611.66,0.6452
2612.97,0.64501
2614.29,0.64478
2615.61,0.64466
2616.93,0.64455
2618.25,0.6445
2619.57,0.64435
2620.9,0.64406
2622.22,0.64396
2623.55,0.64369
2624.88,0.64336
2626.21,0.64302
2627.54,0.64287
2628.87,0.64282
2630.21,0.64239
2631.54,0.64212
2632.88,0.64198
2634.21,0.64162
2635.55,0.64136
2636.89,0.64107
2638.24,0.64083
2639.58,0.64054
2640.92,0.64013
2642.27,0.63973
2643.62,0.63955
2644.97,0.63915
2646.32,0.63861
2647.67,0.63818
2649.02,0.63778
2650.38,0.63732
2651.73,0.63685
2653.09,0.63639
2654.45,0.63601
2655.81,0.63545
2657.17,0.63498
2658.53,0.63436
2659.89,0.63379
2661.26,0.63316
2662.63,0.63241
2664.0,0.63172
2665.36,0.63104
2666.74,0.63028
2668.11,0.62953
2669.48,0.62868
2670.86,0.62753
2672.23,0.62653
2673.61,0.6256
2674.99,0.62458
2676.37,0.62345
2677.76,0.62221
2679.14,0.62106
2680.52,0.61985
2681.91,0.61865
2683.3,0.61721
2684.69,0.61563
2686.08,0.6139
2687.47,0.61213
2688.87,0.61025
2690.26,0.60839
2691.66,0.60648
2693.06,0.60469
2694.46,0.60288
2695.86,0.60106
2697.26,0.59933
2698.66,0.5976
2700.07,0.59547
2701.48,0.59308
2702.89,0.59051
2704.3,0.58799
2705.71,0.58518
2707.12,0.58216
2708.53,0.57881
2709.95,0.57512
2711.37,0.57072
2712.79,0.56636
2714.21,0.56305
2715.63,0.56039
2717.05,0.55728
2718.48,0.55371
2719.9,0.54972
2721.33,0.54517
2722.76,0.54024
2724.19,0.53554
2725.62,0.53017
2727.06,0.52453
2728.49,0.51858
2729.93,0.51272
2731.37,0.50758
2732.81,0.50289
2734.25,0.49777
2735.69,0.49246
2737.14,0.48734
2738.58,0.48273
2740.03,0.47782
2741.48,0.4724
2742.93,0.46658
2744.38,0.4611
2745.83,0.456
2747.29,0.45094
2748.75,0.44563
2750.2,0.44023
2751.66,0.43465
2753.13,0.42899
2754.59,0.42364
2756.05,0.41901
2757.52,0.41505
2758.99,0.41171
2760.46,0.40836
2761.93,0.405
2763.4,0.40187
2764.87,0.39889
2766.35,0.39589
2767.82,0.39298
2769.3,0.39004
2770.78,0.38723
2772.26,0.38455
2773.75,0.38207
2775.23,0.37967
2776.72,0.37742
2778.21,0.37514
2779.7,0.37295
2781.19,0.37072
2782.68,0.36843
2784.18,0.36576
2785.67,0.36287
2787.17,0.35997
2788.67,0.35757
2790.17,0.35554
2791.67,0.35359
2793.18,0.35226
2794.68,0.3514
2796.19,0.34976
2797.7,0.34718
2799.21,0.34495
2800.72,0.34409
2802.24,0.34348
2803.75,0.34251
2805.27,0.34115
2806.79,0.33977
2808.31,0.33849
2809.83,0.33723
2811.35,0.33591
2812.88,0.3345
2814.41,0.33312
2815.93,0.33187
2817.46,0.33069
2819.0,0.32965
2820.53,0.32866
2822.07,0.32775
2823.6,0.32691
2825.14,0.32618
2826.68,0.32558
2828.22,0.32514
2829.77,0.32479
2831.31,0.32464
2832.86,0.32452
2834.41,0.32453
2835.96,0.32455
2837.51,0.32456
2839.07,0.32448
2840.62,0.32447
2842.18,0.32444
2843.74,0.32427
2845.3,0.3241
2846.86,0.32397
2848.43,0.32376
2849.99,0.32352
2851.56,0.32313
2853.13,0.32266
2854.7,0.32218
2856.27,0.32159
2857.85,0.32081
2859.42,0.31987
2861.0,0.31877
2862.58,0.31774
2864.16,0.31692
2865.75,0.31652
2867.33,0.31637
2868.92,0.31626
2870.51,0.31617
2872.1,0.31627
2873.69,0.31644
2875.28,0.31647
2876.88,0.31629
2878.48,0.31608
2880.07,0.3158
2881.68,0.31556
2883.28,0.31527
2884.88,0.31485
2886.49,0.31431
2888.1,0.31375
2889.71,0.31316
2891.32,0.31253
2892.93,0.31176
2894.55,0.3109
2896.16,0.30997
2897.78,0.30901
2899.4,0.30812
2901.03,0.30743
2902.65,0.30691
2904.28,0.30663
2905.91,0.30646
2907.54,0.30643
2909.17,0.30653
2910.8,0.30656
2912.44,0.30644
2914.07,0.3059
2915.71,0.30562
2917.35,0.30538
2918.99,0.30512
2920.64,0.30479
2922.29,0.30441
2923.93,0.30401
2925.58,0.30356
2927.24,0.30307
2928.89,0.30272
2930.55,0.30233
2932.2,0.30193
2933.86,0.30165
2935.52,0.30149
2937.19,0.30138
2938.85,0.30133
2940.52,0.30135
2942.19,0.30153
2943.86,0.30175
2945.53,0.30193
2947.21,0.3021
2948.88,0.30229
2950.56,0.30247
2952.24,0.30274
2953.92,0.30298
2955.61,0.30321
2957.29,0.30346
2958.98,0.30373
2960.67,0.30393
2962.36,0.304
2964.06,0.30401
2965.75,0.30395
2967.45,0.30376
2969.15,0.30357
2970.85,0.30345
2972.55,0.30337
2974.26,0.30342
2975.97,0.30365
2977.68,0.30404
2979.39,0.30453
2981.1,0.30492
2982.82,0.30527
2984.53,0.30552
2986.25,0.30573
2987.97,0.30584
2989.7,0.30593
2991.42,0.30609
2993.15,0.30646
2994.88,0.30704
2996.61,0.30783
2998.34,0.30873
3000.08,0.30963
3001.82,0.31043
3003.55,0.31119
3005.3,0.31191
3007.04,0.31257
3008.78,0.31318
3010.53,0.31374
3012.28,0.31421
3014.03,0.31469
3015.79,0.31512
3017.54,0.31556
3019.3,0.31601
3021.06,0.31636
3022.82,0.31664
3024.58,0.31695
3026.35,0.31719
3028.12,0.31737
3029.89,0.31759
3031.66,0.31786
3033.43,0.31806
3035.21,0.31821
3036.99,0.31842
3038.77,0.31863
3040.55,0.31879
3042.33,0.31896
3044.12,0.31908
3045.91,0.31927
3047.7,0.31948
3049.49,0.3197
3051.29,0.31997
3053.08,0.32026
3054.88,0.32058
3056.68,0.3209
3058.49,0.32117
3060.29,0.32157
3062.1,0.32197
3063.91,0.32236
3065.72,0.32278
3067.54,0.32327
3069.35,0.32378
3071.17,0.32428
3072.99,0.32473
3074.81,0.32519
3076.64,0.32565
3078.47,0.32613
3080.29,0.32671
3082.13,0.3274
3083.96,0.32814
3085.79,0.32888
3087.63,0.32963
3089.47,0.33038
3091.31,0.3311
3093.16,0.33186
3095.01,0.3326
3096.85,0.33332
3098.71,0.33409
3100.56,0.3348
3102.41,0.33549
3104.27,0.3362
3106.13,0.33691
3107.99,0.3376
3109.86,0.33832
3111.73,0.33911
3113.59,0.33986
3115.47,0.3406
3117.34,0.3414
3119.21,0.3422
3121.09,0.34296
3122.97,0.34373
3124.86,0.34452
3126.74,0.34527
3128.63,0.34602
3130.52,0.34675
3132.41,0.34751
3134.3,0.34829
3136.2,0.34904
3138.1,0.34985
3140.0,0.35071
3141.9,0.35157
3143.81,0.35244
3145.71,0.35332
3147.62,0.35416
3149.54,0.35503
3151.45,0.35592
3153.37,0.35682
3155.29,0.35767
3157.21,0.35855
3159.13,0.3595
3161.06,0.36045
3162.99,0.36139
3164.92,0.36241
3166.85,0.3634
3168.79,0.36435
3170.72,0.36532
3172.67,0.36628
3174.61,0.36721
3176.55,0.36816
3178.5,0.36912
3180.45,0.37002
3182.4,0.37096
3184.36,0.37194
3186.32,0.37289
3188.27,0.37383
3190.24,0.37478
3192.2,0.3757
3194.17,0.37665
3196.14,0.37761
3198.11,0.37857
3200.08,0.37952
3202.06,0.38044
3204.04,0.38134
3206.02,0.38227
3208.0,0.38323
3209.99,0.38412
3211.98,0.38503
3213.97,0.38592
3215.96,0.38682
3217.96,0.38777
3219.96,0.38869
3221.96,0.38954
3223.96,0.39047
3225.97,0.39144
3227.98,0.3924
3229.99,0.39336
3232.0,0.39419
3234.02,0.39508
3236.04,0.39607
3238.06,0.397
3240.08,0.39792
3242.11,0.39888
3244.14,0.39974
3246.17,0.40061
3248.2,0.40157
3250.24,0.40251
3252.28,0.40341
3254.32,0.40434
3256.37,0.40522
3258.41,0.40614
3260.46,0.40707
3262.51,0.408
3264.57,0.40893
3266.63,0.40987
3268.69,0.41081
3270.75,0.41171
3272.81,0.41261
3274.88,0.41354
3276.95,0.41445
3279.02,0.41535
3281.1,0.41622
3283.18,0.41709
3285.26,0.418
3287.34,0.41894
3289.43,0.41976
3291.51,0.42059
3293.61,0.4215
3295.7,0.42238
3297.8,0.42319
3299.9,0.42406
3302.0,0.42492
3304.1,0.42571
3306.21,0.42649
3308.32,0.42727
3310.43,0.42801
3312.55,0.42873
3314.66,0.42943
3316.79,0.43007
3318.91,0.43068
3321.03,0.43127
3323.16,0.43179
3325.29,0.43222
3327.43,0.43258
3329.57,0.43286
3331.71,0.43278
3333.85,0.43241
3335.99,0.43165
3338.14,0.43024
3340.29,0.42794
3342.45,0.42475
3344.6,0.42124
3346.76,0.41831
3348.92,0.41644
3351.09,0.41586
3353.26,0.41626
3355.43,0.41728
3357.6,0.41863
3359.78,0.42011
3361.96,0.42147
3364.14,0.42248
3366.32,0.42318
3368.51,0.42371
3370.7,0.42402
3372.89,0.42419
3375.09,0.42443
3377.29,0.42488
3379.49,0.4256
3381.69,0.42653
3383.9,0.42755
3386.11,0.42865
3388.32,0.4297
3390.54,0.43059
3392.76,0.43129
3394.98,0.43172
3397.21,0.43197
3399.43,0.432
3401.66,0.43184
3403.9,0.43159
3406.13,0.43127
3408.37,0.43103
3410.61,0.43083
3412.86,0.43074
3415.11,0.43095
3417.36,0.4316
3419.61,0.43261
3421.87,0.43407
3424.13,0.43588
3426.39,0.43788
3428.66,0.44003
3430.93,0.44218
3433.2,0.44413
3435.48,0.4459
3437.76,0.44751
3440.04,0.44883
3442.32,0.44999
3444.61,0.4511
3446.9,0.45216
3449.19,0.45317
3451.49,0.45401
3453.79,0.45474
3456.09,0.45526
3458.4,0.45558
3460.7,0.45548
3463.02,0.45463
3465.33,0.45267
3467.65,0.4494
3469.97,0.44544
3472.29,0.44184
3474.62,0.43921
3476.95,0.43786
3479.29,0.43797
3481.62,0.4392
3483.96,0.44089
3486.3,0.44272
3488.65,0.44462
3491.0,0.44649
3493.35,0.44827
3495.71,0.45001
3498.07,0.45175
3500.43,0.45361
3502.79,0.45586
3505.16,0.45847
3507.53,0.46151
3509.91,0.46502
3512.29,0.46899
3514.67,0.47328
3517.05,0.47779
3519.44,0.48254
3521.83,0.48749
3524.23,0.49234
3526.62,0.49676
3529.02,0.50059
3531.43,0.50392
3533.83,0.50677
3536.24,0.50921
3538.66,0.51129
3541.08,0.5131
3543.5,0.51483
3545.92,0.51644
3548.35,0.51784
3550.78,0.51917
3553.21,0.52043
3555.65,0.52158
3558.09,0.52263
3560.53,0.52362
3562.98,0.52451
3565.43,0.52528
3567.88,0.52605
3570.34,0.52686
3572.8,0.5278
3575.27,0.52895
3577.73,0.53024
3580.2,0.53156
3582.68,0.53284
3585.16,0.534
3587.64,0.53518
3590.12,0.5363
3592.61,0.53733
3595.1,0.53841
3597.6,0.5395
3600.09,0.54045
3602.6,0.54135
3605.1,0.54231
3607.61,0.54323
3610.12,0.54408
3612.64,0.54505
3615.16,0.54601
3617.68,0.54687
3620.21,0.54773
3622.74,0.54853
3625.27,0.54931
3627.81,0.55023
3630.35,0.55109
3632.89,0.55183
3635.44,0.5526
3637.99,0.5534
3640.54,0.55416
3643.1,0.55491
3645.66,0.55557
3648.23,0.55627
3650.8,0.55704
3653.37,0.55779
3655.95,0.55846
3658.53,0.55912
3661.11,0.55992
3663.7,0.56071
3666.29,0.56136
3668.89,0.56203
3671.48,0.5627
3674.09,0.5633
3676.69,0.56393
3679.3,0.56461
3681.91,0.56528
3684.53,0.5659
3687.15,0.56658
3689.78,0.56725
3692.4,0.56787
3695.04,0.56847
3697.67,0.56913
3700.31,0.56972
3702.95,0.57027
3705.6,0.57087
3708.25,0.57146
3710.91,0.57205
3713.56,0.57255
3716.23,0.57305
3718.89,0.57364
3721.56,0.57418
3724.23,0.57464
3726.91,0.57513
3729.59,0.57564
3732.28,0.57618
3734.97,0.57657
3737.66,0.57695
3740.36,0.57738
3743.06,0.5777
3745.76,0.57807
3748.47,0.5785
3751.18,0.5789
3753.9,0.57929
3756.62,0.57967
3759.34,0.58
3762.07,0.58034
3764.8,0.58062
3767.54,0.58086
3770.28,0.58103
3773.02,0.5812
3775.77,0.58126
3778.52,0.58128
3781.28,0.5812
3784.04,0.58101
3786.8,0.58061
3789.57,0.57993
3792.34,0.57891
3795.12,0.57756
3797.9,0.57588
3800.69,0.57396
3803.47,0.57188
3806.27,0.56976
3809.06,0.56763
3811.86,0.56555
3814.67,0.56339
3817.48,0.56124
3820.29,0.55902
3823.11,0.55672
3825.93,0.55424
3828.76,0.55157
3831.59,0.54876
3834.42,0.54595
3837.26,0.54332
3840.1,0.54117
3842.95,0.53958
3845.8,0.53848
3848.65,0.53762
3851.51,0.53695
3854.38,0.53634
3857.24,0.53576
3860.12,0.53512
3862.99,0.53443
3865.87,0.53365
3868.76,0.53287
3871.65,0.53209
3874.54,0.53128
3877.44,0.53025
3880.34,0.52925
3883.25,0.52829
3886.16,0.52697
3889.07,0.52482
3891.99,0.52187
3894.92,0.51833
3897.85,0.51485
3900.78,0.51222
3903.72,0.51132
3906.66,0.51234
3909.6,0.51483
3912.55,0.51773
3915.51,0.52013
3918.47,0.52153
3921.43,0.5219
3924.4,0.52146
3927.38,0.5206
3930.35,0.52005
3933.33,0.52023
3936.32,0.51973
3939.31,0.51646
3942.31,0.50993
3945.31,0.50218
3948.31,0.49449
3951.32,0.48668
3954.34,0.47882
3957.35,0.47176
3960.38,0.46578
3963.41,0.46077
3966.44,0.45673
3969.48,0.45376
3972.52,0.45155
3975.56,0.44981
3978.61,0.44855
3981.67,0.44826
3984.73,0.44959
3987.8,0.45312
3990.87,0.45863
3993.94,0.46573
3997.02,0.47398
4000.1,0.48318
4003.19,0.49325
4006.29,0.50418
4009.39,0.51554
4012.49,0.52638
4015.6,0.53533
4018.71,0.54188
4021.83,0.54673
4024.95,0.55099
4028.08,0.55514
4031.21,0.55911
4034.35,0.56294
4037.49,0.56704
4040.64,0.57129
4043.79,0.57534
4046.94,0.57884
4050.11,0.58177
4053.27,0.5841
4056.44,0.58593
4059.62,0.58734
4062.8,0.5885
4065.99,0.58951
4069.18,0.59048
4072.38,0.59132
4075.58,0.59207
4078.78,0.59265
4082.0,0.59315
4085.21,0.59348
4088.43,0.59378
4091.66,0.594
4094.89,0.59426
4098.13,0.59455
4101.37,0.59493
4104.62,0.59533
4107.87,0.59577
4111.13,0.59615
4114.39,0.5965
4117.66,0.59676
4120.93,0.59699
4124.21,0.59716
4127.5,0.59732
4130.79,0.5974
4134.08,0.59752
4137.38,0.59757
4140.68,0.59761
4143.99,0.59757
4147.31,0.59755
4150.63,0.5975
4153.95,0.59744
4157.29,0.59731
4160.62,0.59723
4163.96,0.59712
4167.31,0.597
4170.66,0.59681
4174.02,0.59663
4177.39,0.5964
4180.75,0.5962
4184.13,0.59594
4187.51,0.59569
4190.89,0.59536
4194.28,0.59497
4197.68,0.59443
4201.08,0.59376
4204.49,0.59284
4207.9,0.59179
4211.32,0.59059
4214.74,0.58939
4218.17,0.5882
4221.61,0.58711
4225.05,0.58608
4228.5,0.58523
4231.95,0.5845
4235.4,0.58398
4238.87,0.58357
4242.34,0.58341
4245.81,0.58341
4249.29,0.5838
4252.78,0.58444
4256.27,0.58465
4259.77,0.58347
4263.27,0.58182
4266.78,0.58058
4270.29,0.57969
4273.81,0.57895
4277.34,0.57839
4280.87,0.57778
4284.41,0.5772
4287.95,0.57653
4291.5,0.57599
4295.06,0.5755
4298.62,0.57508
4302.19,0.57454
4305.76,0.57411
4309.34,0.57371
4312.92,0.57336
4316.52,0.57297
4320.11,0.5726
4323.72,0.5722
4327.32,0.57184
4330.94,0.57139
4334.56,0.57094
4338.19,0.57045
4341.82,0.57001
4345.46,0.56954
4349.11,0.5691
4352.76,0.56864
4356.42,0.56826
4360.08,0.56788
4363.75,0.56754
4367.43,0.56715
4371.11,0.56681
4374.8,0.56639
4378.49,0.566
4382.19,0.56557
4385.9,0.56521
4389.61,0.56477
4393.33,0.56436
4397.06,0.56395
4400.79,0.56365
4404.53,0.56328
4408.28,0.56298
4412.03,0.56263
4415.79,0.56236
4419.55,0.56204
4423.32,0.56175
4427.1,0.56145
4430.88,0.56118
4434.68,0.56085
4438.47,0.56056
4442.28,0.56025
4446.08,0.56
4449.9,0.55971
4453.72,0.55947
4457.55,0.55918
4461.39,0.55892
4465.23,0.55863
4469.08,0.55842
4472.94,0.55813
4476.8,0.55786
4480.67,0.55753
4484.55,0.55725
4488.43,0.55686
4492.32,0.55653
4496.21,0.55617
4500.12,0.55582
4504.03,0.55543
4507.94,0.55509
4511.87,0.55468
4515.8,0.55422
4519.73,0.55366
4523.68,0.55308
4527.63,0.55233
4531.59,0.55155
4535.55,0.55057
4539.52,0.54949
4543.5,0.54813
4547.49,0.54662
4551.48,0.54496
4555.48,0.54337
4559.49,0.54182
4563.5,0.54051
4567.52,0.53936
4571.55,0.5384
4575.58,0.53744
4579.63,0.53656
4583.67,0.5356
4587.73,0.53461
4591.79,0.53343
4595.86,0.53216
4599.94,0.5307
4604.03,0.5292
4608.12,0.5275
4612.22,0.52571
4616.33,0.52363
4620.44,0.52137
4624.56,0.51887
4628.69,0.51628
4632.83,0.51356
4636.97,0.51077
4641.12,0.50787
4645.28,0.50503
4649.45,0.50211
4653.62,0.49932
4657.8,0.4967
4661.99,0.49446
4666.19,0.49256
4670.39,0.49109
4674.6,0.48993
4678.82,0.48916
4683.05,0.48862
4687.28,0.48839
4691.52,0.48827
4695.77,0.48836
4700.03,0.48857
4704.3,0.48893
4708.57,0.4892
4712.85,0.48937
4717.14,0.48917
4721.43,0.48859
4725.74,0.48753
4730.05,0.48607
4734.37,0.48419
4738.7,0.48218
4743.03,0.48008
4747.38,0.47818
4751.73,0.47629
4756.09,0.47443
4760.45,0.47258
4764.83,0.47106
4769.21,0.46986
4773.6,0.46899
4778.0,0.4681
4782.41,0.4672
4786.83,0.46621
4791.25,0.46524
4795.68,0.46409
4800.13,0.46266
4804.57,0.4608
4809.03,0.45868
4813.5,0.45625
4817.97,0.45362
4822.45,0.45077
4826.94,0.44803
4831.44,0.44586
4835.95,0.44474
4840.46,0.44442
4844.99,0.4445
4849.52,0.44433
4854.06,0.44369
4858.61,0.4424
4863.17,0.44075
4867.73,0.43901
4872.31,0.43756
4876.89,0.43644
4881.48,0.43561
4886.08,0.43468
4890.69,0.43366
4895.31,0.43213
4899.94,0.42984
4904.57,0.42668
4909.22,0.42325
4913.87,0.42026
4918.53,0.4185
4923.21,0.418
4927.88,0.41854
4932.57,0.41953
4937.27,0.42081
4941.98,0.42221
4946.69,0.42375
4951.42,0.42517
4956.15,0.42649
4960.9,0.42756
4965.65,0.42858
4970.41,0.4293
4975.18,0.42967
4979.96,0.4295
4984.75,0.4289
4989.54,0.42789
4994.35,0.4269
4999.17,0.42605
5003.99,0.42552
5008.83,0.42496
5013.67,0.42434
5018.52,0.42357
5023.39,0.42283
5028.26,0.42228
5033.14,0.42225
5038.03,0.42246
5042.93,0.42273
5047.84,0.42258
5052.76,0.42203
5057.69,0.42106
5062.63,0.41993
5067.58,0.4187
5072.54,0.4176
5077.51,0.41651
5082.49,0.41553
5087.47,0.41442
5092.47,0.41294
5097.48,0.41092
5102.5,0.40907
5107.52,0.4073
5112.56,0.40552
5117.61,0.40351
5122.66,0.4015
5127.73,0.39943
5132.81,0.39732
5137.89,0.3948
5142.99,0.39176
5148.1,0.38797
5153.22,0.38367
5158.34,0.37894
5163.48,0.37403
5168.63,0.36896
5173.79,0.36386
5178.96,0.3587
5184.13,0.35375
5189.32,0.34919
5194.52,0.34543
5199.73,0.34245
5204.96,0.34024
5210.19,0.33852
5215.43,0.33708
5220.68,0.33569
5225.94,0.33446
5231.22,0.33332
5236.5,0.33248
5241.79,0.33191
5247.1,0.33182
5252.42,0.33216
5257.74,0.33311
5263.08,0.33469
5268.43,0.33731
5273.79,0.34137
5279.16,0.34753
5284.54,0.35574
5289.93,0.36584
5295.34,0.37697
5300.75,0.38846
5306.18,0.39954
5311.61,0.40961
5317.06,0.41802
5322.52,0.42485
5327.99,0.42992
5333.47,0.43362
5338.96,0.43587
5344.47,0.43718
5349.98,0.4376
5355.51,0.43753
5361.05,0.43674
5366.6,0.43561
5372.16,0.4344
5377.73,0.43417
5383.32,0.4354
5388.91,0.43834
5394.52,0.44181
5400.14,0.44489
5405.77,0.4466
5411.41,0.44709
5417.07,0.44626
5422.74,0.44457
5428.41,0.44223
5434.1,0.44008
5439.81,0.43804
5445.52,0.43648
5451.25,0.43492
5456.98,0.43332
5462.73,0.43113
5468.5,0.42852
5474.27,0.42547
5480.06,0.42207
5485.86,0.4181
5491.67,0.41397
5497.49,0.40942
5503.33,0.40486
5509.18,0.39995
5515.04,0.39467
5520.91,0.38829
5526.8,0.38065
5532.69,0.37118
5538.61,0.35947
5544.53,0.34456
5550.47,0.32711
5556.41,0.3123
5562.38,0.30612
5568.35,0.30624
5574.34,0.30732
5580.34,0.31328
5586.35,0.32781
5592.38,0.34377
5598.42,0.35481
5604.47,0.3611
5610.54,0.36464
5616.61,0.36674
5622.71,0.368
5628.81,0.36868
5634.93,0.36909
5641.06,0.36904
5647.21,0.36849
5653.36,0.36747
5659.54,0.36597
5665.72,0.36418
5671.92,0.36233
5678.13,0.35949
5684.36,0.35595
5690.6,0.35151
5696.85,0.34604
5703.12,0.3399
5709.4,0.33314
5715.69,0.32622
5722.0,0.32014
5728.33,0.3149
5734.66,0.31062
5741.01,0.30691
5747.38,0.30344
5753.76,0.29999
5760.15,0.29702
5766.56,0.29375
5772.98,0.29062
5779.41,0.288
5785.86,0.28562
5792.33,0.28341
5798.81,0.28135
5805.3,0.27943
5811.81,0.27796
5818.33,0.27696
5824.87,0.27648
5831.42,0.27669
5837.99,0.27747
5844.57,0.27849
5851.17,0.27952
5857.78,0.28027
5864.41,0.28063
5871.05,0.28054
5877.7,0.28032
5884.38,0.27944
5891.06,0.27857
5897.76,0.2774
5904.48,0.27598
5911.21,0.27438
5917.96,0.27236
5924.73,0.26992
5931.5,0.26756
5938.3,0.26503
5945.11,0.26315
5951.93,0.26195
5958.78,0.26128
5965.63,0.26087
5972.51,0.26044
5979.39,0.25971
5986.3,0.25861
5993.22,0.25672
6000.16,0.25442
6007.11,0.2517
6014.08,0.24855
6021.06,0.24502
6028.06,0.24144
6035.08,0.23779
6042.12,0.23458
6049.17,0.23091
6056.23,0.22749
6063.32,0.22476
6070.42,0.222
6077.53,0.21901
6084.67,0.2164
6091.82,0.21406
6098.98,0.21219
6106.17,0.21076
6113.37,0.20986
6120.58,0.20924
6127.82,0.20917
6135.07,0.20951
6142.34,0.21028
6149.63,0.2113
6156.93,0.21275
6164.25,0.21456
6171.59,0.21686
6178.95,0.21967
6186.32,0.22281
6193.71,0.22522
6201.12,0.22703
6208.54,0.22842
6215.99,0.22986
6223.45,0.23171
6230.93,0.23419
6238.43,0.23703
6245.95,0.24014
6253.48,0.24302
6261.03,0.24541
6268.6,0.247
6276.19,0.24765
6283.8,0.24708
6291.43,0.24566
6299.07,0.24385
6306.73,0.24205
6314.42,0.24018
6322.12,0.23843
6329.84,0.23689
6337.57,0.23591
6345.33,0.23475
6353.11,0.23328
6360.9,0.2318
6368.72,0.23038
6376.55,0.22914
6384.4,0.22853
6392.27,0.22863
6400.17,0.2296
6408.08,0.23142
6416.01,0.23383
6423.96,0.23583
6431.93,0.23746
6439.92,0.23828
6447.93,0.23815
6455.96,0.23716
6464.01,0.23584
6472.08,0.23434
6480.17,0.2329
6488.28,0.23137
6496.41,0.22946
6504.56,0.22724
6512.73,0.22504
6520.92,0.22226
6529.14,0.21918
6537.37,0.21591
6545.63,0.21243
6553.9,0.2086
6562.2,0.20483
6570.51,0.20062
6578.85,0.19598
6587.21,0.19136
6595.59,0.18649
6603.99,0.18154
6612.42,0.17687
6620.86,0.17259
6629.33,0.16913
6637.82,0.16582
6646.33,0.163
6654.86,0.16051
6663.41,0.15813
6671.99,0.15585
6680.59,0.15389
6689.21,0.15218
6697.85,0.15098
6706.51,0.14984
6715.2,0.14871
6723.91,0.14733
6732.64,0.14582
6741.4,0.14419
6750.18,0.14273
6758.98,0.14141
6767.8,0.14036
6776.65,0.13932
6785.52,0.13845
6794.41,0.13742
6803.33,0.13657
6812.27,0.13584
6821.23,0.13521
6830.22,0.13441
6839.23,0.13364
6848.26,0.13277
6857.32,0.13192
6866.4,0.13082
6875.51,0.12984
6884.64,0.12906
6893.8,0.12862
6902.98,0.12833
6912.18,0.12814
6921.41,0.12789
6930.66,0.1277
6939.94,0.12747
6949.24,0.12742
6958.57,0.12738
6967.92,0.12738
6977.3,0.12745
6986.7,0.12777
6996.13,0.12811
7005.59,0.12855
7015.07,0.12911
7024.57,0.12988
7034.1,0.13069
7043.66,0.13164
7053.25,0.13248
7062.85,0.13328
7072.49,0.13411
7082.15,0.1351
7091.84,0.13609
7101.55,0.13684
7111.3,0.13697
7121.06,0.13673
7130.86,0.13657
7140.68,0.13711
7150.53,0.13826
7160.41,0.13971
7170.31,0.14119
7180.24,0.14284
7190.2,0.14482
7200.19,0.14725
7210.2,0.1499
7220.24,0.15256
7230.31,0.15525
7240.41,0.15783
7250.54,0.16007
7260.69,0.16198
7270.88,0.16375
7281.09,0.16557
7291.33,0.16748
7301.6,0.16949
7311.9,0.17148
7322.22,0.17331
7332.58,0.17496
7342.97,0.17611
7353.38,0.17656
7363.83,0.17708
7374.3,0.17826
7384.81,0.1793
7395.34,0.17962
7405.91,0.17941
7416.5,0.17898
7427.13,0.17852
7437.78,0.17813
7448.47,0.17779
7459.19,0.17742
7469.94,0.17701
7480.71,0.17651
7491.52,0.17597
7502.37,0.17531
7513.24,0.17455
7524.14,0.17375
7535.08,0.17297
7546.05,0.17225
7557.05,0.17155
7568.08,0.17088
7579.15,0.17025
7590.24,0.1697
7601.37,0.16927
7612.53,0.1691
7623.73,0.16932
7634.96,0.1697
7646.22,0.17004
7657.51,0.17028
7668.84,0.17038
7680.2,0.17026
7691.59,0.16995
7703.02,0.16946
7714.49,0.16869
7725.98,0.1676
7737.52,0.16622
7749.08,0.16465
7760.68,0.16297
7772.32,0.16112
7783.99,0.15913
7795.69,0.15701
7807.43,0.15497
7819.21,0.15305
7831.02,0.15114
7842.87,0.14905
7854.75,0.1468
7866.67,0.14438
7878.62,0.14189
7890.62,0.13948
7902.64,0.13737
7914.71,0.13559
7926.81,0.13419
7938.95,0.133
7951.13,0.13195
7963.34,0.13083
7975.59,0.12958
7987.88,0.1281
8000.21,0.12638
8012.57,0.1243
8024.98,0.12192
8037.42,0.1193
8049.9,0.11664
8062.42,0.11408
8074.98,0.1117
8087.57,0.10941
8100.21,0.10713
8112.89,0.10459
8125.6,0.10189
8138.36,0.09902
8151.16,0.09613
8163.99,0.09326
8176.87,0.09061
8189.79,0.08808
8202.75,0.08564
8215.75,0.08322
8228.79,0.08094
8241.87,0.07867
8254.99,0.07653
8268.16,0.07441
8281.37,0.07234
8294.62,0.07025
8307.91,0.06823
8321.24,0.06616
8334.62,0.06416
8348.04,0.06215
8361.51,0.06026
8375.02,0.05839
8388.57,0.05663
8402.16,0.05494
8415.8,0.05341
8429.49,0.05198
8443.22,0.05077
8456.99,0.04957
8470.81,0.04854
8484.67,0.04771
8498.58,0.04726
8512.54,0.04703
8526.54,0.04708
8540.58,0.04723
8554.68,0.04754
8568.82,0.04792
8583.0,0.04847
8597.24,0.04916
8611.52,0.05024
8625.85,0.05161
8640.23,0.05336
8654.65,0.05537
8669.12,0.05771
8683.64,0.06027
8698.21,0.06314
8712.83,0.06611
8727.5,0.06921
8742.22,0.07238
8756.99,0.07573
8771.8,0.07916
8786.67,0.08253
8801.59,0.0855
8816.56,0.08775
8831.58,0.08891
8846.65,0.08936
8861.77,0.08939
8876.94,0.08918
8892.17,0.08871
8907.45,0.08808
8922.78,0.08726
8938.16,0.08633
8953.6,0.08524
8969.09,0.08415
8984.64,0.08312
9000.23,0.08237
9015.89,0.0819
9031.59,0.08175
9047.36,0.08184
9063.17,0.08225
9079.05,0.08288
9094.97,0.08388
9110.96,0.08524
9127.0,0.08699
9143.1,0.0891
9159.25,0.09172
9175.46,0.09487
9191.73,0.09873
9208.06,0.10327
9224.44,0.10802
9240.88,0.11188
9257.38,0.11434
9273.94,0.11568
9290.56,0.11641
9307.24,0.11686
9323.98,0.11723
9340.78,0.11711
9357.64,0.11608
9374.57,0.11385
9391.55,0.11032
9408.59,0.10549
9425.7,0.09972
9442.87,0.09366
9460.1,0.08825
9477.4,0.08405
9494.75,0.0811
9512.17,0.07887
9529.66,0.07687
9547.21,0.0745
9564.83,0.07155
9582.5,0.06827
9600.25,0.06574
9618.06,0.06566
9635.94,0.06935
9653.88,0.07506
9671.89,0.07995
9689.97,0.08289
9708.12,0.08421
9726.33,0.0842
9744.62,0.08291
9762.97,0.08048
9781.39,0.07827
9799.88,0.07721
9818.44,0.07752
9837.07,0.0793
9855.77,0.08215
9874.54,0.08417
9893.39,0.08437
9912.3,0.08307
9931.29,0.08138
9950.36,0.08051
9969.49,0.08091
9988.7,0.082
10007.98,0.08313
10027.34,0.08405
10046.77,0.08515
10066.28,0.08645
10085.87,0.08741
10105.53,0.08771
10125.26,0.08733
10145.08,0.08634
10164.97,0.08535
10184.94,0.08575
10204.99,0.08923
10225.12,0.09507
10245.33,0.10039
10265.61,0.10356
10285.98,0.10513
10306.43,0.10571
10326.96,0.10561
10347.57,0.10491
10368.27,0.10431
10389.05,0.10422
10409.91,0.10427
10430.86,0.10424
10451.88,0.1042
10473.0,0.10407
10494.2,0.10386
10515.49,0.10356
10536.86,0.1031
10558.32,0.10242
10579.87,0.10153
10601.5,0.10037
10623.23,0.0991
10645.04,0.09779
10666.94,0.09661
10688.94,0.09566
10711.02,0.09522
10733.2,0.0952
10755.47,0.09526
10777.83,0.09504
10800.28,0.0947
10822.83,0.09427
10845.47,0.09353
10868.21,0.09242
10891.04,0.0911
10913.97,0.08955
10936.99,0.08773
10960.12,0.08597
10983.34,0.08559
11006.66,0.08765
11030.07,0.09139
11053.59,0.09431
11077.21,0.09531
11100.93,0.09507
11124.75,0.0944
11148.68,0.09333
11172.71,0.09193
11196.84,0.09057
11221.07,0.08995
11245.41,0.0902
11269.86,0.09033
11294.41,0.08947
11319.07,0.08859
11343.84,0.08867
11368.72,0.08924
11393.7,0.09005
11418.8,0.09167
11444.01,0.09415
11469.33,0.09739
11494.76,0.10127
11520.3,0.10543
11545.96,0.10911
11571.73,0.11247
11597.62,0.11558
11623.62,0.11823
11649.74,0.12077
11675.98,0.12344
11702.34,0.12606
11728.81,0.12839
11755.41,0.12967
11782.13,0.1302
11808.96,0.13345
11835.92,0.13786
11863.01,0.14078
11890.22,0.14278
11917.55,0.14412
11945.01,0.14487
11972.6,0.14557
12000.31,0.14778
12028.16,0.1508
12056.13,0.15343
12084.23,0.15558
12112.46,0.15742
12140.83,0.15904
12169.33,0.16067
12197.96,0.16239
12226.73,0.16407
12255.64,0.16562
12284.68,0.16706
12313.86,0.16841
12343.18,0.16955
12372.64,0.17049
12402.24,0.17126
12431.98,0.17181
12461.86,0.17215
12491.89,0.17241
12522.07,0.17279
12552.38,0.17326
12582.85,0.17331
12613.47,0.17281
12644.23,0.17181
12675.15,0.17033
12706.21,0.16871
12737.43,0.16837
12768.81,0.16958
12800.33,0.17072
12832.02,0.17104
12863.86,0.17064
12895.86,0.16973
12928.02,0.16844
12960.34,0.16673
12992.82,0.16468
13025.46,0.16233
13058.27,0.15973
13091.25,0.15685
13124.39,0.15371
13157.7,0.15012
13191.18,0.14616
13224.83,0.14203
13258.66,0.13778
13292.65,0.13364
13326.83,0.12988
13361.17,0.12646
13395.7,0.12342
13430.4,0.12032
13465.29,0.11678
13500.35,0.11304
13535.6,0.10891
13571.03,0.10458
13606.65,0.10053
13642.46,0.0971
13678.46,0.09421
13714.64,0.09185
13751.02,0.09003
13787.59,0.08843
13824.36,0.08668
13861.32,0.08458
13898.49,0.0819
13935.85,0.07827
13973.41,0.07351
14011.17,0.06922
14049.15,0.0681
14087.32,0.06913
14125.71,0.06924
14164.3,0.06784
14203.11,0.06504
14242.13,0.06163
14281.36,0.05822
14320.81,0.05465
14360.49,0.0509
14400.38,0.04704
14440.49,0.04362
14480.82,0.04175
14521.39,0.04164
14562.18,0.0429
14603.2,0.04465
14644.45,0.04613
14685.93,0.04675
14727.66,0.04692
14769.62,0.0475
14811.81,0.04837
14854.25,0.04901
14896.94,0.04927
14939.87,0.04912
14983.05,0.04849
15026.48,0.04759
15070.16,0.04624
15114.1,0.04451
15158.29,0.04325
15202.74,0.04251
15247.46,0.04269
15292.43,0.04416
15337.68,0.04675
15383.19,0.04931
15428.97,0.05118
15475.03,0.05197
15521.36,0.05173
15567.97,0.05089
15614.87,0.05017
15662.04,0.05
15709.5,0.05062
15757.25,0.05177
15805.29,0.0529
15853.62,0.05387
15902.26,0.05459
15951.19,0.05489
16000.42,0.05503
16049.95,0.05506
16099.8,0.05518
16149.95,0.05552
16200.42,0.0561
16251.21,0.05646
16302.31,0.05687
16353.74,0.0579
16405.49,0.05913
16457.57,0.06036
16509.98,0.0612
16562.73,0.06152
16615.82,0.06169
16669.24,0.06139
16723.02,0.06103
16777.14,0.06072
16831.61,0.06018
16886.43,0.05973
16941.62,0.05944
16997.16,0.05908
17053.08,0.05885
17109.36,0.05935
17166.01,0.06025
17223.04,0.0615
17280.45,0.06358
17338.24,0.06625
17396.43,0.06844
17455.0,0.0698
17513.97,0.07132
17573.34,0.07352
17633.11,0.07593
17693.29,0.078
17753.89,0.07985
17814.9,0.08219
17876.33,0.08547
17938.18,0.08893
18000.47,0.09253
18063.19,0.09603
18126.35,0.09926
18189.95,0.10214
18254.0,0.10483
18318.5,0.10662
18383.46,0.1077
18448.88,0.10825
18514.77,0.1082
18581.13,0.10798
18647.97,0.10726
18715.29,0.10654
18783.1,0.10568
18851.4,0.10433
18920.2,0.10284
18989.51,0.10131
19059.32,0.09964
19129.65,0.09728
19200.5,0.09488
19271.88,0.09201
19343.79,0.08848
19416.24,0.08424
19489.23,0.07898
19562.77,0.07267
19636.88,0.06575
19711.54,0.06059
19786.78,0.05926
19862.59,0.06294
19938.98,0.07111
20015.96,0.07999
20093.55,0.08644
20171.73,0.08979
20250.53,0.0908
20329.94,0.09079
20409.98,0.0909
20490.65,0.09243
20571.96,0.09564
20653.92,0.09866
20736.54,0.10007
20819.82,0.10064
20903.77,0.10072
20988.4,0.10049
21073.72,0.09899
21159.73,0.09526
21246.46,0.09017
21333.89,0.08472
21422.04,0.0811
21510.93,0.0824
21600.56,0.08865
21690.94,0.09525
21782.08,0.09806
21873.99,0.09783
21966.67,0.09709
22060.15,0.0945
22154.42,0.09046
22249.51,0.086
22345.41,0.08263
22442.14,0.08053
22539.72,0.07931
22638.14,0.07844
22737.43,0.07759
22837.6,0.07663
22938.65,0.07579
23040.6,0.07572
23143.46,0.07623
23247.24,0.07648
23351.96,0.07609
23457.63,0.07554
23564.25,0.07464
23671.85,0.07293
23780.44,0.07079
23890.02,0.06784
24000.63,0.06418
24112.26,0.05991
24224.93,0.05662
24338.66,0.0551
24453.47,0.05468
24569.36,0.05496
24686.36,0.05439
24804.47,0.05274
24923.73,0.05145
25044.13,0.05122
25165.71,0.05286
25288.46,0.05648
25412.43,0.06113
25537.61,0.06631
25664.04,0.07178
25791.72,0.07698
25920.68,0.08238
26057.2,0.08811
26188.8,0.0932
26321.8,0.09739
26456.0,0.10163
26591.7,0.10592
26728.8,0.10935
26867.2,0.11114
27007.2,0.11204
27148.6,0.1123
27291.5,0.11181
27435.9,0.11094
27581.8,0.11021
27729.3,0.10906
27878.4,0.10715
28029.1,0.10477
28181.4,0.10287
28335.4,0.10094
28491.1,0.09885
28648.5,0.09686
28807.7,0.0943
28968.6,0.09101
29131.3,0.08792
29295.9,0.08521
29462.4,0.08367
29630.7,0.08123
29801.0,0.0775
29973.3,0.07411
30147.6,0.07089
30323.9,0.07004
30502.3,0.07324
30682.8,0.07606
30865.4,0.0773
31050.2,0.0776
31237.2,0.07638
31426.5,0.07415
31618.2,0.07228
31812.1,0.07225
32008.5,0.07328
32207.3,0.07355
32408.6,0.07323
32612.5,0.07257
32818.9,0.07216
33027.9,0.0697
33239.6,0.06623
33454.1,0.06679
33671.3,0.07133
33891.4,0.07647
34114.3,0.07882
34340.3,0.0775
34569.2,0.07437
34801.2,0.07121
35036.3,0.06911
35274.7,0.06934
35516.3,0.07005
35761.3,0.06955
36009.6,0.06966
36261.4,0.06965
36516.8,0.0681
36775.8,0.06809
37038.5,0.0715
37304.9,0.07591
37575.2,0.07868
37849.5,0.07889
38127.8,0.07803
38410.2,0.07785
38696.9,0.07662
38987.8,0.07497
39283.2,0.07327
39583.1,0.07052
39887.6,0.06788
40196.8,0.06592
40510.8,0.06408
40829.8,0.06234
41153.9,0.06115
41483.1,0.06104
41817.6,0.06533
42157.5,0.07113
42503.1,0.0748
42854.4,0.07663
43211.5,0.07576
43574.6,0.07408
43943.9,0.07447
44319.6,0.07497
44701.6,0.0753
45090.3,0.07379
45485.9,0.07441
45888.4,0.0752
46298.1,0.07461
46715.2,0.07604
47139.8,0.08055
47572.3,0.08417
48012.8,0.08719
48461.5,0.08835
48918.7,0.09143
49384.6,0.09565
49859.4,0.0952
