Database of Origin,University of Winnipeg Spectrophotometer Facility
Sample Description,9.6. Other oxides: RELAB + Nicolet / Merged RELAB & Nicolet at 2.5um / different viewing geometries.
Date Added,2016-07-15 22:03:48.476162

Data ID,RPN_OOX_01          
Sample ID,ALE101
Mineral Name,alexandrite
Grain Size,<45
Viewing Geometry,30 / 0 | 30
Resolution,1.2-129
Material Class,Oxide

Wavelength
305.0,0.209447
310.0,0.215037
315.0,0.218349
320.0,0.22519
325.0,0.238178
330.0,0.257922
335.0,0.283748
340.0,0.309537
345.0,0.328871
350.0,0.342924
355.0,0.350696
360.0,0.356654
365.0,0.351294
370.0,0.359283
375.0,0.362117
380.0,0.371714
385.0,0.378453
390.0,0.378879
395.0,0.375533
400.0,0.3727
405.0,0.36646
410.0,0.366096
415.0,0.366919
420.0,0.37005
425.0,0.374747
430.0,0.380115
435.0,0.38706
440.0,0.395999
445.0,0.41251
450.0,0.43035
455.0,0.448473
460.0,0.461462
465.0,0.473387
470.0,0.483109
475.0,0.493876
480.0,0.501027
485.0,0.506969
490.0,0.511065
495.0,0.514258
500.0,0.51653
505.0,0.518223
510.0,0.519754
515.0,0.520641
520.0,0.521322
525.0,0.519998
530.0,0.518799
535.0,0.515836
540.0,0.512679
545.0,0.508365
550.0,0.505151
555.0,0.500159
560.0,0.497129
565.0,0.493031
570.0,0.491278
575.0,0.489453
580.0,0.491935
585.0,0.492877
590.0,0.497001
595.0,0.49961
600.0,0.507071
605.0,0.512352
610.0,0.520631
615.0,0.528063
620.0,0.536403
625.0,0.544573
630.0,0.556561
635.0,0.567152
640.0,0.580029
645.0,0.582558
650.0,0.595058
655.0,0.598126
660.0,0.611154
665.0,0.614938
670.0,0.624481
675.0,0.627424
680.0,0.609284
685.0,0.632343
690.0,0.638412
695.0,0.639544
700.0,0.6428
705.0,0.643034
710.0,0.646597
715.0,0.647487
720.0,0.649018
725.0,0.652832
730.0,0.653347
735.0,0.65678
740.0,0.657262
745.0,0.659329
750.0,0.660416
755.0,0.662616
760.0,0.664107
765.0,0.665616
770.0,0.66663
775.0,0.668394
780.0,0.669168
785.0,0.671277
790.0,0.671771
795.0,0.67262
800.0,0.673923
805.0,0.674584
810.0,0.675651
815.0,0.675451
820.0,0.677548
825.0,0.677045
830.0,0.678131
835.0,0.678723
840.0,0.679564
845.0,0.679778
850.0,0.680615
855.0,0.680411
860.0,0.681824
865.0,0.681546
870.0,0.683074
875.0,0.685521
880.0,0.68557
885.0,0.686044
890.0,0.685605
895.0,0.683421
900.0,0.682316
905.0,0.682829
910.0,0.682326
915.0,0.684051
920.0,0.683278
925.0,0.684403
930.0,0.686016
935.0,0.687715
940.0,0.689887
945.0,0.690382
950.0,0.691456
955.0,0.692105
960.0,0.691934
965.0,0.691449
970.0,0.692173
975.0,0.693274
980.0,0.693497
985.0,0.694701
990.0,0.696186
995.0,0.697981
1000.0,0.697389
1005.0,0.698065
1010.0,0.697986
1015.0,0.697513
1020.0,0.696731
1025.0,0.698221
1030.0,0.699242
1035.0,0.700932
1040.0,0.7013
1045.0,0.701949
1050.0,0.70124
1055.0,0.701446
1060.0,0.700042
1065.0,0.701182
1070.0,0.70143
1075.0,0.702479
1080.0,0.703036
1085.0,0.704478
1090.0,0.704337
1095.0,0.706307
1100.0,0.707184
1105.0,0.706998
1110.0,0.707079
1115.0,0.708312
1120.0,0.707517
1125.0,0.706965
1130.0,0.707751
1135.0,0.708524
1140.0,0.709094
1145.0,0.709016
1150.0,0.709839
1155.0,0.709994
1160.0,0.710361
1165.0,0.711
1170.0,0.712014
1175.0,0.712954
1180.0,0.714034
1185.0,0.715285
1190.0,0.715588
1195.0,0.716572
1200.0,0.716973
1205.0,0.717026
1210.0,0.716965
1215.0,0.716444
1220.0,0.718665
1225.0,0.719205
1230.0,0.719764
1235.0,0.720261
1240.0,0.720071
1245.0,0.720125
1250.0,0.720524
1255.0,0.721551
1260.0,0.722261
1265.0,0.723479
1270.0,0.723644
1275.0,0.723639
1280.0,0.72254
1285.0,0.723176
1290.0,0.723316
1295.0,0.722994
1300.0,0.722821
1305.0,0.724801
1310.0,0.725132
1315.0,0.725814
1320.0,0.726774
1325.0,0.727326
1330.0,0.726387
1335.0,0.726539
1340.0,0.726147
1345.0,0.726226
1350.0,0.72572
1355.0,0.726503
1360.0,0.726669
1365.0,0.727809
1370.0,0.727717
1375.0,0.728816
1380.0,0.727593
1385.0,0.727368
1390.0,0.726582
1395.0,0.726067
1400.0,0.724807
1405.0,0.72611
1410.0,0.727469
1415.0,0.728842
1420.0,0.731126
1425.0,0.732486
1430.0,0.733353
1435.0,0.734976
1440.0,0.735254
1445.0,0.735373
1450.0,0.734856
1455.0,0.735304
1460.0,0.734812
1465.0,0.735605
1470.0,0.735521
1475.0,0.736796
1480.0,0.736677
1485.0,0.737137
1490.0,0.736664
1495.0,0.735458
1500.0,0.735325
1505.0,0.736102
1510.0,0.735853
1515.0,0.736886
1520.0,0.738474
1525.0,0.739306
1530.0,0.739177
1535.0,0.740326
1540.0,0.739719
1545.0,0.740623
1550.0,0.740165
1555.0,0.740828
1560.0,0.740473
1565.0,0.741532
1570.0,0.741217
1575.0,0.741945
1580.0,0.741172
1585.0,0.741957
1590.0,0.741694
1595.0,0.741372
1600.0,0.741437
1605.0,0.742181
1610.0,0.741063
1615.0,0.741765
1620.0,0.741998
1625.0,0.741938
1630.0,0.741079
1635.0,0.742493
1640.0,0.742715
1645.0,0.743442
1650.0,0.743
1655.0,0.743757
1660.0,0.743168
1665.0,0.743527
1670.0,0.7446
1675.0,0.745715
1680.0,0.74659
1685.0,0.746412
1690.0,0.745739
1695.0,0.746435
1700.0,0.745535
1705.0,0.746717
1710.0,0.747324
1715.0,0.748021
1720.0,0.747345
1725.0,0.747702
1730.0,0.746792
1735.0,0.746482
1740.0,0.746052
1745.0,0.746864
1750.0,0.746756
1755.0,0.747158
1760.0,0.747133
1765.0,0.747869
1770.0,0.748153
1775.0,0.748891
1780.0,0.74889
1785.0,0.749066
1790.0,0.747821
1795.0,0.747544
1800.0,0.747002
1805.0,0.74782
1810.0,0.748344
1815.0,0.750141
1820.0,0.750043
1825.0,0.750465
1830.0,0.750127
1835.0,0.750653
1840.0,0.750908
1845.0,0.751382
1850.0,0.750782
1855.0,0.750037
1860.0,0.749426
1865.0,0.749539
1870.0,0.749442
1875.0,0.749825
1880.0,0.749263
1885.0,0.749267
1890.0,0.747045
1895.0,0.746896
1900.0,0.746538
1905.0,0.74762
1910.0,0.746008
1915.0,0.747462
1920.0,0.747146
1925.0,0.746949
1930.0,0.746693
1935.0,0.748057
1940.0,0.746827
1945.0,0.747393
1950.0,0.746997
1955.0,0.746448
1960.0,0.745836
1965.0,0.746838
1970.0,0.745817
1975.0,0.747245
1980.0,0.747434
1985.0,0.747407
1990.0,0.746859
1995.0,0.748003
2000.0,0.748084
2005.0,0.749639
2010.0,0.751339
2015.0,0.752596
2020.0,0.752713
2025.0,0.752887
2030.0,0.751631
2035.0,0.75091
2040.0,0.750863
2045.0,0.750214
2050.0,0.750013
2055.0,0.750976
2060.0,0.750646
2065.0,0.75111
2070.0,0.751012
2075.0,0.751525
2080.0,0.751376
2085.0,0.752894
2090.0,0.752377
2095.0,0.753499
2100.0,0.751735
2105.0,0.752076
2110.0,0.751687
2115.0,0.751982
2120.0,0.752134
2125.0,0.753708
2130.0,0.754225
2135.0,0.753507
2140.0,0.75259
2145.0,0.752488
2150.0,0.751527
2155.0,0.749808
2160.0,0.749372
2165.0,0.749417
2170.0,0.74778
2175.0,0.748331
2180.0,0.749322
2185.0,0.749256
2190.0,0.748969
2195.0,0.749617
2200.0,0.748923
2205.0,0.747759
2210.0,0.747785
2215.0,0.746968
2220.0,0.746647
2225.0,0.748103
2230.0,0.747911
2235.0,0.746972
2240.0,0.747669
2245.0,0.747099
2250.0,0.745794
2255.0,0.746909
2260.0,0.747456
2265.0,0.748167
2270.0,0.749026
2275.0,0.749617
2280.0,0.749454
2285.0,0.750406
2290.0,0.749643
2295.0,0.751232
2300.0,0.750831
2305.0,0.750204
2310.0,0.74773
2315.0,0.747104
2320.0,0.744917
2325.0,0.744422
2330.0,0.743421
2335.0,0.743354
2340.0,0.743261
2345.0,0.74322
2350.0,0.743046
2355.0,0.74301
2360.0,0.743994
2365.0,0.744191
2370.0,0.742034
2375.0,0.741187
2380.0,0.739563
2385.0,0.739026
2390.0,0.737424
2395.0,0.737301
2400.0,0.736235
2405.0,0.737353
2410.0,0.738116
2415.0,0.74006
2420.0,0.742935
2425.0,0.744253
2430.0,0.743957
2435.0,0.742638
2440.0,0.740622
2445.0,0.738192
2450.0,0.736879
2455.0,0.736488
2460.0,0.735494
2465.0,0.736601
2470.0,0.738752
2475.0,0.73923
2480.0,0.740768
2485.0,0.741378
2490.0,0.741049
2495.0,0.740068
2500.0,0.741944
2505.62,0.741186
2510.48,0.742623
2515.35,0.743185
2520.24,0.743408
2525.15,0.743617
2530.08,0.74487
2535.03,0.746204
2540.0,0.746164
2544.99,0.746359
2549.99,0.745844
2552.5,0.744533
2553.76,0.745616
2555.02,0.74703
2556.28,0.746429
2557.54,0.745498
2558.8,0.745424
2560.07,0.744314
2561.33,0.74262
2562.6,0.744187
2563.86,0.747071
2565.13,0.748585
2566.4,0.750067
2567.67,0.748481
2568.95,0.744498
2570.22,0.742959
2571.5,0.746404
2572.77,0.746668
2574.05,0.742985
2575.33,0.746511
2576.61,0.746669
2577.89,0.745392
2579.17,0.748084
2580.46,0.746247
2581.74,0.743493
2583.03,0.745119
2584.31,0.74325
2585.6,0.746719
2586.89,0.747999
2588.19,0.745592
2589.48,0.747867
2590.77,0.747929
2592.07,0.74703
2593.36,0.74386
2594.66,0.737863
2595.96,0.741665
2597.26,0.756414
2598.56,0.755038
2599.87,0.748795
2601.17,0.744298
2602.48,0.74321
2603.78,0.744976
2605.09,0.744612
2606.4,0.744793
2607.71,0.749888
2609.03,0.750688
2610.34,0.748127
2611.66,0.747198
2612.97,0.746248
2614.29,0.745343
2615.61,0.745111
2616.93,0.741941
2618.25,0.745005
2619.57,0.749775
2620.9,0.745493
2622.22,0.748209
2623.55,0.749912
2624.88,0.745978
2626.21,0.742712
2627.54,0.741847
2628.87,0.746921
2630.21,0.744917
2631.54,0.744046
2632.88,0.750361
2634.21,0.748278
2635.55,0.746726
2636.89,0.747184
2638.24,0.745185
2639.58,0.744109
2640.92,0.743655
2642.27,0.743806
2643.62,0.744318
2644.97,0.744248
2646.32,0.743585
2647.67,0.74601
2649.02,0.746097
2650.38,0.743315
2651.73,0.742055
2653.09,0.742058
2654.45,0.744656
2655.81,0.745353
2657.17,0.745228
2658.53,0.744877
2659.89,0.741692
2661.26,0.742753
2662.63,0.744598
2664.0,0.743161
2665.36,0.738556
2666.74,0.740401
2668.11,0.746363
2669.48,0.747643
2670.86,0.740018
2672.23,0.744288
2673.61,0.747922
2674.99,0.740614
2676.37,0.734387
2677.76,0.734418
2679.14,0.737769
2680.52,0.736054
2681.91,0.73307
2683.3,0.725388
2684.69,0.719188
2686.08,0.714212
2687.47,0.70663
2688.87,0.698582
2690.26,0.689674
2691.66,0.680106
2693.06,0.669926
2694.46,0.661582
2695.86,0.658056
2697.26,0.653729
2698.66,0.647101
2700.07,0.64051
2701.48,0.635179
2702.89,0.633
2704.3,0.632344
2705.71,0.629484
2707.12,0.627793
2708.53,0.625875
2709.95,0.624113
2711.37,0.623457
2712.79,0.625946
2714.21,0.625683
2715.63,0.620345
2717.05,0.615869
2718.48,0.612898
2719.9,0.609257
2721.33,0.605901
2722.76,0.608966
2724.19,0.60454
2725.62,0.598686
2727.06,0.599794
2728.49,0.597016
2729.93,0.592173
2731.37,0.588622
2732.81,0.586584
2734.25,0.583823
2735.69,0.581597
2737.14,0.582084
2738.58,0.57977
2740.03,0.576199
2741.48,0.578171
2742.93,0.580585
2744.38,0.57862
2745.83,0.574067
2747.29,0.570883
2748.75,0.569344
2750.2,0.56797
2751.66,0.566279
2753.13,0.564731
2754.59,0.562569
2756.05,0.559939
2757.52,0.564331
2758.99,0.565354
2760.46,0.561885
2761.93,0.558928
2763.4,0.557854
2764.87,0.560073
2766.35,0.560748
2767.82,0.558929
2769.3,0.558611
2770.78,0.558211
2772.26,0.558126
2773.75,0.558804
2775.23,0.557385
2776.72,0.555591
2778.21,0.555005
2779.7,0.555217
2781.19,0.554146
2782.68,0.553217
2784.18,0.553039
2785.67,0.552234
2787.17,0.550923
2788.67,0.551719
2790.17,0.55282
2791.67,0.551823
2793.18,0.550626
2794.68,0.550345
2796.19,0.55
2797.7,0.549364
2799.21,0.549438
2800.72,0.549442
2802.24,0.548165
2803.75,0.547943
2805.27,0.550162
2806.79,0.550699
2808.31,0.54949
2809.83,0.548765
2811.35,0.548626
2812.88,0.5484
2814.41,0.548575
2815.93,0.548445
2817.46,0.548391
2819.0,0.547907
2820.53,0.547804
2822.07,0.54863
2823.6,0.549354
2825.14,0.549337
2826.68,0.548912
2828.22,0.548529
2829.77,0.54856
2831.31,0.548863
2832.86,0.549065
2834.41,0.54928
2835.96,0.549661
2837.51,0.549647
2839.07,0.549527
2840.62,0.549941
2842.18,0.549424
2843.74,0.549145
2845.3,0.549492
2846.86,0.549338
2848.43,0.549313
2849.99,0.549675
2851.56,0.550115
2853.13,0.550256
2854.7,0.549627
2856.27,0.55004
2857.85,0.550216
2859.42,0.550047
2861.0,0.550089
2862.58,0.550116
2864.16,0.550098
2865.75,0.550243
2867.33,0.550327
2868.92,0.550516
2870.51,0.550372
2872.1,0.549941
2873.69,0.550257
2875.28,0.550253
2876.88,0.54984
2878.48,0.550001
2880.07,0.550172
2881.68,0.550332
2883.28,0.550027
2884.88,0.550082
2886.49,0.550539
2888.1,0.550685
2889.71,0.550704
2891.32,0.550855
2892.93,0.550779
2894.55,0.551014
2896.16,0.551088
2897.78,0.550749
2899.4,0.550634
2901.03,0.550906
2902.65,0.551438
2904.28,0.551748
2905.91,0.551827
2907.54,0.551926
2909.17,0.5522
2910.8,0.552119
2912.44,0.552246
2914.07,0.552213
2915.71,0.552108
2917.35,0.552856
2918.99,0.553294
2920.64,0.553435
2922.29,0.55357
2923.93,0.55388
2925.58,0.554184
2927.24,0.554218
2928.89,0.554223
2930.55,0.554622
2932.2,0.555362
2933.86,0.55583
2935.52,0.556116
2937.19,0.556745
2938.85,0.556769
2940.52,0.556816
2942.19,0.557332
2943.86,0.557532
2945.53,0.557872
2947.21,0.558446
2948.88,0.558844
2950.56,0.559239
2952.24,0.559729
2953.92,0.560106
2955.61,0.560485
2957.29,0.560822
2958.98,0.561118
2960.67,0.561791
2962.36,0.562551
2964.06,0.562923
2965.75,0.562863
2967.45,0.563158
2969.15,0.563715
2970.85,0.564266
2972.55,0.565118
2974.26,0.565762
2975.97,0.565717
2977.68,0.566058
2979.39,0.566788
2981.1,0.567456
2982.82,0.567909
2984.53,0.567958
2986.25,0.568249
2987.97,0.568761
2989.7,0.569678
2991.42,0.570038
2993.15,0.570511
2994.88,0.570768
2996.61,0.57078
2998.34,0.570898
3000.08,0.571036
3001.82,0.571605
3003.55,0.572328
3005.3,0.572971
3007.04,0.573491
3008.78,0.573865
3010.53,0.574137
3012.28,0.57388
3014.03,0.573752
3015.79,0.573959
3017.54,0.573887
3019.3,0.574016
3021.06,0.574689
3022.82,0.574508
3024.58,0.574207
3026.35,0.573978
3028.12,0.573514
3029.89,0.573231
3031.66,0.572675
3033.43,0.572245
3035.21,0.572156
3036.99,0.571561
3038.77,0.570665
3040.55,0.569887
3042.33,0.56949
3044.12,0.568944
3045.91,0.56783
3047.7,0.56683
3049.49,0.565865
3051.29,0.564637
3053.08,0.563331
3054.88,0.561818
3056.68,0.560379
3058.49,0.558716
3060.29,0.556847
3062.1,0.554681
3063.91,0.552062
3065.72,0.548784
3067.54,0.545202
3069.35,0.541343
3071.17,0.537405
3072.99,0.532835
3074.81,0.527374
3076.64,0.521343
3078.47,0.514917
3080.29,0.508327
3082.13,0.501156
3083.96,0.493728
3085.79,0.486095
3087.63,0.478309
3089.47,0.47118
3091.31,0.464855
3093.16,0.459279
3095.01,0.454915
3096.85,0.45175
3098.71,0.450265
3100.56,0.450298
3102.41,0.451816
3104.27,0.454836
3106.13,0.459403
3107.99,0.465142
3109.86,0.471598
3111.73,0.478704
3113.59,0.485994
3115.47,0.493172
3117.34,0.500313
3119.21,0.507491
3121.09,0.514401
3122.97,0.520739
3124.86,0.526858
3126.74,0.532429
3128.63,0.537536
3130.52,0.542364
3132.41,0.546666
3134.3,0.55091
3136.2,0.55505
3138.1,0.558844
3140.0,0.562442
3141.9,0.565848
3143.81,0.568965
3145.71,0.571979
3147.62,0.574854
3149.54,0.577228
3151.45,0.579341
3153.37,0.58197
3155.29,0.584562
3157.21,0.58679
3159.13,0.589106
3161.06,0.591508
3162.99,0.593231
3164.92,0.594655
3166.85,0.596487
3168.79,0.598408
3170.72,0.600136
3172.67,0.601577
3174.61,0.603355
3176.55,0.605069
3178.5,0.606437
3180.45,0.607612
3182.4,0.608877
3184.36,0.610128
3186.32,0.611399
3188.27,0.612571
3190.24,0.613538
3192.2,0.614734
3194.17,0.615954
3196.14,0.617189
3198.11,0.61824
3200.08,0.619529
3202.06,0.620763
3204.04,0.621772
3206.02,0.623078
3208.0,0.624072
3209.99,0.625032
3211.98,0.626343
3213.97,0.627464
3215.96,0.62839
3217.96,0.629339
3219.96,0.630461
3221.96,0.631249
3223.96,0.631987
3225.97,0.633141
3227.98,0.634546
3229.99,0.635489
3232.0,0.636459
3234.02,0.637278
3236.04,0.638103
3238.06,0.63922
3240.08,0.640473
3242.11,0.641432
3244.14,0.642187
3246.17,0.643063
3248.2,0.644191
3250.24,0.645424
3252.28,0.646389
3254.32,0.646987
3256.37,0.647809
3258.41,0.648612
3260.46,0.649583
3262.51,0.650418
3264.57,0.651374
3266.63,0.652438
3268.69,0.653251
3270.75,0.65411
3272.81,0.65519
3274.88,0.65618
3276.95,0.656804
3279.02,0.65745
3281.1,0.658257
3283.18,0.659084
3285.26,0.659915
3287.34,0.66072
3289.43,0.661539
3291.51,0.662208
3293.61,0.662922
3295.7,0.663625
3297.8,0.664273
3299.9,0.664977
3302.0,0.665798
3304.1,0.666385
3306.21,0.667075
3308.32,0.668067
3310.43,0.668482
3312.55,0.668971
3314.66,0.669428
3316.79,0.669987
3318.91,0.670537
3321.03,0.671169
3323.16,0.671934
3325.29,0.672483
3327.43,0.672601
3329.57,0.672743
3331.71,0.673435
3333.85,0.674019
3335.99,0.674187
3338.14,0.674288
3340.29,0.674685
3342.45,0.674952
3344.6,0.674848
3346.76,0.674975
3348.92,0.675225
3351.09,0.675242
3353.26,0.675009
3355.43,0.674706
3357.6,0.674483
3359.78,0.674076
3361.96,0.673467
3364.14,0.673113
3366.32,0.672944
3368.51,0.672411
3370.7,0.671823
3372.89,0.671645
3375.09,0.671443
3377.29,0.671445
3379.49,0.671522
3381.69,0.671879
3383.9,0.672482
3386.11,0.672931
3388.32,0.673125
3390.54,0.673752
3392.76,0.674272
3394.98,0.673957
3397.21,0.673739
3399.43,0.673648
3401.66,0.673112
3403.9,0.672339
3406.13,0.671438
3408.37,0.670674
3410.61,0.670449
3412.86,0.670084
3415.11,0.669833
3417.36,0.670011
3419.61,0.670968
3421.87,0.672432
3424.13,0.673969
3426.39,0.675693
3428.66,0.677392
3430.93,0.678908
3433.2,0.680465
3435.48,0.681667
3437.76,0.682336
3440.04,0.683228
3442.32,0.684131
3444.61,0.685007
3446.9,0.685885
3449.19,0.686899
3451.49,0.687524
3453.79,0.688085
3456.09,0.688879
3458.4,0.68944
3460.7,0.690052
3463.02,0.690635
3465.33,0.690981
3467.65,0.691099
3469.97,0.69144
3472.29,0.691573
3474.62,0.69171
3476.95,0.691907
3479.29,0.692095
3481.62,0.692361
3483.96,0.692733
3486.3,0.693057
3488.65,0.693247
3491.0,0.693422
3493.35,0.693345
3495.71,0.693261
3498.07,0.693235
3500.43,0.693685
3502.79,0.694309
3505.16,0.695515
3507.53,0.697197
3509.91,0.699004
3512.29,0.700676
3514.67,0.702035
3517.05,0.703337
3519.44,0.704587
3521.83,0.705778
3524.23,0.707214
3526.62,0.708281
3529.02,0.70916
3531.43,0.710227
3533.83,0.711507
3536.24,0.712335
3538.66,0.71285
3541.08,0.713629
3543.5,0.714551
3545.92,0.715488
3548.35,0.716171
3550.78,0.716939
3553.21,0.717879
3555.65,0.718721
3558.09,0.719358
3560.53,0.719855
3562.98,0.720591
3565.43,0.721489
3567.88,0.722183
3570.34,0.722574
3572.8,0.723123
3575.27,0.723795
3577.73,0.724513
3580.2,0.725123
3582.68,0.725706
3585.16,0.726368
3587.64,0.72691
3590.12,0.727414
3592.61,0.728332
3595.1,0.728981
3597.6,0.729367
3600.09,0.729899
3602.6,0.730611
3605.1,0.731162
3607.61,0.731502
3610.12,0.732095
3612.64,0.732792
3615.16,0.733199
3617.68,0.733825
3620.21,0.734612
3622.74,0.735252
3625.27,0.735852
3627.81,0.736543
3630.35,0.737182
3632.89,0.737668
3635.44,0.738162
3637.99,0.738681
3640.54,0.739287
3643.1,0.739916
3645.66,0.740485
3648.23,0.741482
3650.8,0.742115
3653.37,0.742672
3655.95,0.743457
3658.53,0.743958
3661.11,0.74448
3663.7,0.745218
3666.29,0.745975
3668.89,0.746477
3671.48,0.747099
3674.09,0.747622
3676.69,0.748292
3679.3,0.749041
3681.91,0.749596
3684.53,0.750026
3687.15,0.75071
3689.78,0.751371
3692.4,0.751991
3695.04,0.752532
3697.67,0.752885
3700.31,0.753628
3702.95,0.754486
3705.6,0.754975
3708.25,0.755256
3710.91,0.755715
3713.56,0.75623
3716.23,0.756594
3718.89,0.757105
3721.56,0.757573
3724.23,0.758062
3726.91,0.758789
3729.59,0.759257
3732.28,0.759756
3734.97,0.760215
3737.66,0.760732
3740.36,0.761254
3743.06,0.761632
3745.76,0.76216
3748.47,0.762885
3751.18,0.763414
3753.9,0.763677
3756.62,0.764197
3759.34,0.764669
3762.07,0.764959
3764.8,0.765383
3767.54,0.766034
3770.28,0.766599
3773.02,0.76698
3775.77,0.767219
3778.52,0.767664
3781.28,0.768195
3784.04,0.76857
3786.8,0.768852
3789.57,0.769098
3792.34,0.769415
3795.12,0.770025
3797.9,0.770587
3800.69,0.771003
3803.47,0.771367
3806.27,0.771786
3809.06,0.772379
3811.86,0.772613
3814.67,0.772869
3817.48,0.773337
3820.29,0.773654
3823.11,0.773917
3825.93,0.774403
3828.76,0.774752
3831.59,0.775103
3834.42,0.775504
3837.26,0.775769
3840.1,0.775958
3842.95,0.776329
3845.8,0.776671
3848.65,0.776688
3851.51,0.776949
3854.38,0.777297
3857.24,0.777628
3860.12,0.777908
3862.99,0.778205
3865.87,0.77845
3868.76,0.778615
3871.65,0.778919
3874.54,0.779238
3877.44,0.779441
3880.34,0.77938
3883.25,0.779729
3886.16,0.779999
3889.07,0.779874
3891.99,0.779796
3894.92,0.779715
3897.85,0.779881
3900.78,0.780131
3903.72,0.780397
3906.66,0.78046
3909.6,0.780456
3912.55,0.780741
3915.51,0.780918
3918.47,0.780953
3921.43,0.780916
3924.4,0.780938
3927.38,0.781209
3930.35,0.781337
3933.33,0.781222
3936.32,0.781278
3939.31,0.781286
3942.31,0.781493
3945.31,0.781706
3948.31,0.781766
3951.32,0.781694
3954.34,0.781878
3957.35,0.781941
3960.38,0.781929
3963.41,0.782049
3966.44,0.782049
3969.48,0.782081
3972.52,0.782391
3975.56,0.782697
3978.61,0.78267
3981.67,0.782487
3984.73,0.782519
3987.8,0.7827
3990.87,0.782785
3993.94,0.78269
3997.02,0.783014
4000.1,0.783195
4003.19,0.783303
4006.29,0.783379
4009.39,0.783531
4012.49,0.783417
4015.6,0.783374
4018.71,0.78336
4021.83,0.783418
4024.95,0.78362
4028.08,0.783881
4031.21,0.783848
4034.35,0.783757
4037.49,0.783655
4040.64,0.783748
4043.79,0.783952
4046.94,0.784243
4050.11,0.784285
4053.27,0.784037
4056.44,0.783837
4059.62,0.783822
4062.8,0.783912
4065.99,0.784013
4069.18,0.783901
4072.38,0.783767
4075.58,0.783629
4078.78,0.783629
4082.0,0.783443
4085.21,0.783363
4088.43,0.783245
4091.66,0.783266
4094.89,0.783246
4098.13,0.783076
4101.37,0.782777
4104.62,0.782569
4107.87,0.782184
4111.13,0.781822
4114.39,0.781515
4117.66,0.780946
4120.93,0.780282
4124.21,0.779719
4127.5,0.778969
4130.79,0.778171
4134.08,0.777324
4137.38,0.776546
4140.68,0.77575
4143.99,0.775075
4147.31,0.774588
4150.63,0.774349
4153.95,0.774011
4157.29,0.773607
4160.62,0.773214
4163.96,0.772899
4167.31,0.772579
4170.66,0.772593
4174.02,0.772937
4177.39,0.773379
4180.75,0.77367
4184.13,0.773991
4187.51,0.774494
4190.89,0.774806
4194.28,0.775109
4197.68,0.775379
4201.08,0.77545
4204.49,0.775688
4207.9,0.776026
4211.32,0.776295
4214.74,0.776455
4218.17,0.776629
4221.61,0.777161
4225.05,0.777597
4228.5,0.777871
4231.95,0.778126
4235.4,0.778466
4238.87,0.779003
4242.34,0.77941
4245.81,0.779682
4249.29,0.779904
4252.78,0.780211
4256.27,0.780079
4259.77,0.778592
4263.27,0.777072
4266.78,0.777001
4270.29,0.777644
4273.81,0.778378
4277.34,0.778514
4280.87,0.778794
4284.41,0.779215
4287.95,0.779544
4291.5,0.779673
4295.06,0.779712
4298.62,0.779648
4302.19,0.779719
4305.76,0.779897
4309.34,0.779969
4312.92,0.779794
4316.52,0.779875
4320.11,0.779851
4323.72,0.779522
4327.32,0.779439
4330.94,0.779473
4334.56,0.779414
4338.19,0.779298
4341.82,0.779103
4345.46,0.778907
4349.11,0.778946
4352.76,0.779033
4356.42,0.778982
4360.08,0.77889
4363.75,0.778562
4367.43,0.7785
4371.11,0.77845
4374.8,0.778429
4378.49,0.778282
4382.19,0.778129
4385.9,0.777972
4389.61,0.777813
4393.33,0.777449
4397.06,0.777301
4400.79,0.777244
4404.53,0.77709
4408.28,0.777109
4412.03,0.776907
4415.79,0.776684
4419.55,0.776728
4423.32,0.776722
4427.1,0.776544
4430.88,0.776398
4434.68,0.776201
4438.47,0.776011
4442.28,0.775768
4446.08,0.775509
4449.9,0.775356
4453.72,0.775209
4457.55,0.77495
4461.39,0.774647
4465.23,0.774455
4469.08,0.774315
4472.94,0.774207
4476.8,0.774004
4480.67,0.773685
4484.55,0.773278
4488.43,0.773061
4492.32,0.772745
4496.21,0.772507
4500.12,0.77216
4504.03,0.77199
4507.94,0.771646
4511.87,0.77125
4515.8,0.770875
4519.73,0.77057
4523.68,0.770378
4527.63,0.77
4531.59,0.769488
4535.55,0.76888
4539.52,0.768019
4543.5,0.76746
4547.49,0.767031
4551.48,0.766489
4555.48,0.765709
4559.49,0.764861
4563.5,0.764175
4567.52,0.763413
4571.55,0.762596
4575.58,0.761857
4579.63,0.76104
4583.67,0.760086
4587.73,0.759061
4591.79,0.758135
4595.86,0.757113
4599.94,0.756202
4604.03,0.755507
4608.12,0.754702
4612.22,0.753637
4616.33,0.752784
4620.44,0.752041
4624.56,0.751337
4628.69,0.750715
4632.83,0.750145
4636.97,0.74976
4641.12,0.749194
4645.28,0.748608
4649.45,0.748113
4653.62,0.747595
4657.8,0.747308
4661.99,0.746926
4666.19,0.746393
4670.39,0.745865
4674.6,0.745467
4678.82,0.744988
4683.05,0.744547
4687.28,0.743954
4691.52,0.743136
4695.77,0.74242
4700.03,0.741802
4704.3,0.741186
4708.57,0.740502
4712.85,0.739594
4717.14,0.738475
4721.43,0.737365
4725.74,0.736274
4730.05,0.735068
4734.37,0.733566
4738.7,0.731942
4743.03,0.730458
4747.38,0.728931
4751.73,0.727184
4756.09,0.725171
4760.45,0.72311
4764.83,0.720828
4769.21,0.71839
4773.6,0.715629
4778.0,0.712722
4782.41,0.70957
4786.83,0.706119
4791.25,0.702411
4795.68,0.698602
4800.13,0.694508
4804.57,0.690025
4809.03,0.685055
4813.5,0.67996
4817.97,0.674671
4822.45,0.669152
4826.94,0.663674
4831.44,0.658277
4835.95,0.652719
4840.46,0.647551
4844.99,0.642688
4849.52,0.637933
4854.06,0.633205
4858.61,0.628784
4863.17,0.62458
4867.73,0.620843
4872.31,0.617158
4876.89,0.613646
4881.48,0.610552
4886.08,0.607602
4890.69,0.60515
4895.31,0.603297
4899.94,0.601776
4904.57,0.600729
4909.22,0.600271
4913.87,0.600139
4918.53,0.600465
4923.21,0.601133
4927.88,0.602112
4932.57,0.603445
4937.27,0.604814
4941.98,0.606156
4946.69,0.607608
4951.42,0.608972
4956.15,0.610231
4960.9,0.611879
4965.65,0.613451
4970.41,0.61462
4975.18,0.615963
4979.96,0.617233
4984.75,0.618412
4989.54,0.619533
4994.35,0.620593
4999.17,0.621621
5003.99,0.622547
5008.83,0.623503
5013.67,0.624385
5018.52,0.625059
5023.39,0.625936
5028.26,0.62707
5033.14,0.627612
5038.03,0.628175
5042.93,0.628465
5047.84,0.628768
5052.76,0.629259
5057.69,0.629612
5062.63,0.629753
5067.58,0.629935
5072.54,0.630383
5077.51,0.630619
5082.49,0.630509
5087.47,0.630824
5092.47,0.631142
5097.48,0.630714
5102.5,0.630289
5107.52,0.630177
5112.56,0.63002
5117.61,0.629649
5122.66,0.629344
5127.73,0.629013
5132.81,0.628628
5137.89,0.628093
5142.99,0.627541
5148.1,0.62683
5153.22,0.626771
5158.34,0.626207
5163.48,0.624817
5168.63,0.623877
5173.79,0.622917
5178.96,0.621805
5184.13,0.620499
5189.32,0.61933
5194.52,0.618189
5199.73,0.616856
5204.96,0.615988
5210.19,0.614808
5215.43,0.612687
5220.68,0.612242
5225.94,0.610717
5231.22,0.60838
5236.5,0.606584
5241.79,0.605186
5247.1,0.603742
5252.42,0.601963
5257.74,0.60037
5263.08,0.598846
5268.43,0.59744
5273.79,0.596302
5279.16,0.595517
5284.54,0.595034
5289.93,0.594115
5295.34,0.593814
5300.75,0.594505
5306.18,0.594175
5311.61,0.594239
5317.06,0.594602
5322.52,0.594837
5327.99,0.595117
5333.47,0.59544
5338.96,0.595824
5344.47,0.595872
5349.98,0.595063
5355.51,0.595603
5361.05,0.59591
5366.6,0.593761
5372.16,0.591615
5377.73,0.589783
5383.32,0.587833
5388.91,0.585718
5394.52,0.583623
5400.14,0.58124
5405.77,0.579142
5411.41,0.57717
5417.07,0.575817
5422.74,0.574083
5428.41,0.574864
5434.1,0.575221
5439.81,0.573365
5445.52,0.573361
5451.25,0.574262
5456.98,0.575399
5462.73,0.576194
5468.5,0.578647
5474.27,0.582279
5480.06,0.583249
5485.86,0.585975
5491.67,0.588527
5497.49,0.589712
5503.33,0.59153
5509.18,0.593622
5515.04,0.595612
5520.91,0.596859
5526.8,0.598634
5532.69,0.600294
5538.61,0.601044
5544.53,0.601027
5550.47,0.600833
5556.41,0.601271
5562.38,0.602001
5568.35,0.601338
5574.34,0.599651
5580.34,0.598135
5586.35,0.599351
5592.38,0.598639
5598.42,0.595239
5604.47,0.592949
5610.54,0.592151
5616.61,0.590339
5622.71,0.588796
5628.81,0.587009
5634.93,0.584623
5641.06,0.582034
5647.21,0.581687
5653.36,0.581923
5659.54,0.578258
5665.72,0.576244
5671.92,0.572914
5678.13,0.570271
5684.36,0.569844
5690.6,0.567399
5696.85,0.564969
5703.12,0.56409
5709.4,0.560891
5715.69,0.560309
5722.0,0.560727
5728.33,0.559056
5734.66,0.556548
5741.01,0.554191
5747.38,0.551978
5753.76,0.5506
5760.15,0.54868
5766.56,0.543566
5772.98,0.54459
5779.41,0.544724
5785.86,0.540547
5792.33,0.538107
5798.81,0.535785
5805.3,0.534241
5811.81,0.533143
5818.33,0.530893
5824.87,0.530203
5831.42,0.532665
5837.99,0.531475
5844.57,0.528471
5851.17,0.525457
5857.78,0.523695
5864.41,0.522318
5871.05,0.522156
5877.7,0.519584
5884.38,0.517136
5891.06,0.520605
5897.76,0.516143
5904.48,0.514887
5911.21,0.512532
5917.96,0.50745
5924.73,0.505272
5931.5,0.502678
5938.3,0.499699
5945.11,0.502295
5951.93,0.500809
5958.78,0.496246
5965.63,0.493918
5972.51,0.492854
5979.39,0.494661
5986.3,0.492647
5993.22,0.492322
6000.16,0.493727
6007.11,0.492505
6014.08,0.49048
6021.06,0.491572
6028.06,0.4918
6035.08,0.490581
6042.12,0.489433
6049.17,0.488075
6056.23,0.49345
6063.32,0.4954
6070.42,0.489844
6077.53,0.489703
6084.67,0.491081
6091.82,0.488907
6098.98,0.486517
6106.17,0.485561
6113.37,0.483997
6120.58,0.485886
6127.82,0.486103
6135.07,0.482748
6142.34,0.48057
6149.63,0.480232
6156.93,0.479149
6164.25,0.478159
6171.59,0.478135
6178.95,0.475828
6186.32,0.473446
6193.71,0.474483
6201.12,0.473249
6208.54,0.469776
6215.99,0.467755
6223.45,0.466095
6230.93,0.464552
6238.43,0.462833
6245.95,0.461321
6253.48,0.460104
6261.03,0.459014
6268.6,0.458
6276.19,0.45738
6283.8,0.456709
6291.43,0.455978
6299.07,0.455528
6306.73,0.455099
6314.42,0.454501
6322.12,0.454116
6329.84,0.453769
6337.57,0.453167
6345.33,0.452156
6353.11,0.453831
6360.9,0.453373
6368.72,0.450405
6376.55,0.450126
6384.4,0.450031
6392.27,0.447451
6400.17,0.445673
6408.08,0.443128
6416.01,0.441494
6423.96,0.444751
6431.93,0.441694
6439.92,0.437134
6447.93,0.434474
6455.96,0.431687
6464.01,0.429887
6472.08,0.427255
6480.17,0.42564
6488.28,0.424293
6496.41,0.423337
6504.56,0.423329
6512.73,0.420094
6520.92,0.415795
6529.14,0.414689
6537.37,0.412866
6545.63,0.409977
6553.9,0.40846
6562.2,0.407568
6570.51,0.405908
6578.85,0.405268
6587.21,0.405332
6595.59,0.403267
6603.99,0.402608
6612.42,0.401005
6620.86,0.399883
6629.33,0.399046
6637.82,0.398509
6646.33,0.399864
6654.86,0.39845
6663.41,0.395044
6671.99,0.393418
6680.59,0.392851
6689.21,0.393119
6697.85,0.392707
6706.51,0.391312
6715.2,0.39145
6723.91,0.392344
6732.64,0.391689
6741.4,0.390563
6750.18,0.389043
6758.98,0.388114
6767.8,0.386699
6776.65,0.385316
6785.52,0.384208
6794.41,0.383221
6803.33,0.382731
6812.27,0.380156
6821.23,0.37742
6830.22,0.375878
6839.23,0.374711
6848.26,0.372241
6857.32,0.369962
6866.4,0.36911
6875.51,0.368941
6884.64,0.365765
6893.8,0.362337
6902.98,0.359865
6912.18,0.357807
6921.41,0.355847
6930.66,0.353003
6939.94,0.350782
6949.24,0.348684
6958.57,0.346827
6967.92,0.345974
6977.3,0.344421
6986.7,0.341317
6996.13,0.339616
7005.59,0.338103
7015.07,0.336685
7024.57,0.335387
7034.1,0.334759
7043.66,0.333227
7053.25,0.332763
7062.85,0.331832
7072.49,0.329513
7082.15,0.327476
7091.84,0.325858
7101.55,0.324186
7111.3,0.32246
7121.06,0.320739
7130.86,0.319349
7140.68,0.317527
7150.53,0.31626
7160.41,0.315228
7170.31,0.31385
7180.24,0.312716
7190.2,0.311348
7200.19,0.309474
7210.2,0.307994
7220.24,0.306529
7230.31,0.30444
7240.41,0.30212
7250.54,0.299999
7260.69,0.297696
7270.88,0.295672
7281.09,0.293744
7291.33,0.291678
7301.6,0.289003
7311.9,0.286446
7322.22,0.283762
7332.58,0.28118
7342.97,0.278943
7353.38,0.276607
7363.83,0.273876
7374.3,0.271654
7384.81,0.26969
7395.34,0.268059
7405.91,0.266433
7416.5,0.265109
7427.13,0.26385
7437.78,0.262753
7448.47,0.261354
7459.19,0.26001
7469.94,0.258475
7480.71,0.256917
7491.52,0.254916
7502.37,0.25273
7513.24,0.250074
7524.14,0.247439
7535.08,0.244752
7546.05,0.241958
7557.05,0.238824
7568.08,0.235828
7579.15,0.232716
7590.24,0.229978
7601.37,0.227284
7612.53,0.224499
7623.73,0.221795
7634.96,0.219225
7646.22,0.216353
7657.51,0.213454
7668.84,0.210429
7680.2,0.207784
7691.59,0.204865
7703.02,0.202074
7714.49,0.199436
7725.98,0.197062
7737.52,0.194679
7749.08,0.192759
7760.68,0.190813
7772.32,0.188897
7783.99,0.186802
7795.69,0.184808
7807.43,0.182715
7819.21,0.18078
7831.02,0.178644
7842.87,0.17649
7854.75,0.174058
7866.67,0.17167
7878.62,0.168946
7890.62,0.166356
7902.64,0.163762
7914.71,0.161425
7926.81,0.158813
7938.95,0.156106
7951.13,0.153249
7963.34,0.150592
7975.59,0.147525
7987.88,0.144352
8000.21,0.141084
8012.57,0.138178
8024.98,0.135241
8037.42,0.132558
8049.9,0.129592
8062.42,0.126735
8074.98,0.123842
8087.57,0.121077
8100.21,0.118194
8112.89,0.115478
8125.6,0.112673
8138.36,0.110254
8151.16,0.107681
8163.99,0.105556
8176.87,0.103461
8189.79,0.101398
8202.75,0.099147
8215.75,0.097383
8228.79,0.095699
8241.87,0.094102
8254.99,0.092364
8268.16,0.090832
8281.37,0.089131
8294.62,0.087674
8307.91,0.086274
8321.24,0.085067
8334.62,0.083546
8348.04,0.082192
8361.51,0.080645
8375.02,0.07914
8388.57,0.077383
8402.16,0.075844
8415.8,0.07443
8429.49,0.073216
8443.22,0.071998
8456.99,0.071148
8470.81,0.07019
8484.67,0.069472
8498.58,0.068718
8512.54,0.068104
8526.54,0.067448
8540.58,0.067364
8554.68,0.067343
8568.82,0.067448
8583.0,0.067522
8597.24,0.067896
8611.52,0.068427
8625.85,0.069405
8640.23,0.070341
8654.65,0.071648
8669.12,0.073155
8683.64,0.074844
8698.21,0.076534
8712.83,0.078767
8727.5,0.081161
8742.22,0.083746
8756.99,0.086191
8771.8,0.088963
8786.67,0.091766
8801.59,0.09476
8816.56,0.097902
8831.58,0.101435
8846.65,0.105175
8861.77,0.109282
8876.94,0.11315
8892.17,0.117012
8907.45,0.12094
8922.78,0.125075
8938.16,0.129245
8953.6,0.133741
8969.09,0.137969
8984.64,0.142049
9000.23,0.146326
9015.89,0.150677
9031.59,0.155128
9047.36,0.159674
9063.17,0.16408
9079.05,0.168629
9094.97,0.173126
9110.96,0.177625
9127.0,0.181675
9143.1,0.185531
9159.25,0.188806
9175.46,0.191782
9191.73,0.193948
9208.06,0.195662
9224.44,0.196962
9240.88,0.197922
9257.38,0.198592
9273.94,0.199542
9290.56,0.200467
9307.24,0.201397
9323.98,0.201976
9340.78,0.202083
9357.64,0.201703
9374.57,0.201511
9391.55,0.200938
9408.59,0.199959
9425.7,0.199198
9442.87,0.198651
9460.1,0.197947
9477.4,0.197227
9494.75,0.196206
9512.17,0.19513
9529.66,0.193957
9547.21,0.192963
9564.83,0.191818
9582.5,0.19064
9600.25,0.189134
9618.06,0.187578
9635.94,0.186233
9653.88,0.184915
9671.89,0.183437
9689.97,0.182458
9708.12,0.181584
9726.33,0.180801
9744.62,0.179961
9762.97,0.179291
9781.39,0.178399
9799.88,0.17715
9818.44,0.175946
9837.07,0.174638
9855.77,0.172998
9874.54,0.171366
9893.39,0.169617
9912.3,0.167989
9931.29,0.166594
9950.36,0.165554
9969.49,0.164589
9988.7,0.164012
10007.98,0.163587
10027.34,0.163432
10046.77,0.163651
10066.28,0.16439
10085.87,0.165036
10105.53,0.165722
10125.26,0.166626
10145.08,0.167874
10164.97,0.169241
10184.94,0.170849
10204.99,0.172326
10225.12,0.173583
10245.33,0.174883
10265.61,0.177005
10285.98,0.17925
10306.43,0.181476
10326.96,0.183346
10347.57,0.185417
10368.27,0.187084
10389.05,0.188333
10409.91,0.189165
10430.86,0.189563
10451.88,0.189668
10473.0,0.189993
10494.2,0.190725
10515.49,0.192123
10536.86,0.194398
10558.32,0.197331
10579.87,0.200844
10601.5,0.20489
10623.23,0.208981
10645.04,0.213627
10666.94,0.218123
10688.94,0.221974
10711.02,0.225212
10733.2,0.22852
10755.47,0.231527
10777.83,0.234362
10800.28,0.236921
10822.83,0.239101
10845.47,0.240882
10868.21,0.242498
10891.04,0.243805
10913.97,0.244917
10936.99,0.245496
10960.12,0.24588
10983.34,0.245948
11006.66,0.24611
11030.07,0.245991
11053.59,0.245613
11077.21,0.244947
11100.93,0.24452
11124.75,0.243951
11148.68,0.243341
11172.71,0.242271
11196.84,0.240933
11221.07,0.239556
11245.41,0.238316
11269.86,0.236935
11294.41,0.235821
11319.07,0.234568
11343.84,0.233271
11368.72,0.232002
11393.7,0.230661
11418.8,0.229157
11444.01,0.227613
11469.33,0.225643
11494.76,0.223401
11520.3,0.221391
11545.96,0.219639
11571.73,0.217555
11597.62,0.215373
11623.62,0.212914
11649.74,0.210913
11675.98,0.209047
11702.34,0.20726
11728.81,0.205164
11755.41,0.203199
11782.13,0.201347
11808.96,0.199239
11835.92,0.197257
11863.01,0.195614
11890.22,0.193877
11917.55,0.192594
11945.01,0.191337
11972.6,0.190162
12000.31,0.189188
12028.16,0.188279
12056.13,0.187533
12084.23,0.187001
12112.46,0.186371
12140.83,0.186249
12169.33,0.186282
12197.96,0.186814
12226.73,0.187698
12255.64,0.189195
12284.68,0.191402
12313.86,0.194762
12343.18,0.198379
12372.64,0.202323
12402.24,0.206609
12431.98,0.210748
12461.86,0.214777
12491.89,0.218761
12522.07,0.221603
12552.38,0.223981
12582.85,0.226088
12613.47,0.227386
12644.23,0.227325
12675.15,0.226241
12706.21,0.224368
12737.43,0.22177
12768.81,0.218357
12800.33,0.214675
12832.02,0.211062
12863.86,0.208257
12895.86,0.206344
12928.02,0.204711
12960.34,0.202178
12992.82,0.198046
13025.46,0.192771
13058.27,0.187273
13091.25,0.18147
13124.39,0.176203
13157.7,0.17171
13191.18,0.168765
13224.83,0.167713
13258.66,0.16837
13292.65,0.169745
13326.83,0.170165
13361.17,0.169492
13395.7,0.168559
13430.4,0.166965
13465.29,0.165087
13500.35,0.162837
13535.6,0.160419
13571.03,0.15785
13606.65,0.155189
13642.46,0.152451
13678.46,0.150135
13714.64,0.147824
13751.02,0.145948
13787.59,0.144406
13824.36,0.143567
13861.32,0.143455
13898.49,0.144541
13935.85,0.147026
13973.41,0.15074
14011.17,0.155072
14049.15,0.160041
14087.32,0.164715
14125.71,0.168794
14164.3,0.171523
14203.11,0.173318
14242.13,0.174158
14281.36,0.174532
14320.81,0.174145
14360.49,0.173476
14400.38,0.172338
14440.49,0.171242
14480.82,0.170195
14521.39,0.16941
14562.18,0.168848
14603.2,0.169369
14644.45,0.171341
14685.93,0.174636
14727.66,0.1781
14769.62,0.182252
14811.81,0.18663
14854.25,0.189698
14896.94,0.190993
14939.87,0.190917
14983.05,0.18921
15026.48,0.185162
15070.16,0.178641
15114.1,0.169828
15158.29,0.160665
15202.74,0.160071
15247.46,0.171708
15292.43,0.188181
15337.68,0.20197
15383.19,0.211146
15428.97,0.215857
15475.03,0.217945
15521.36,0.217504
15567.97,0.215454
15614.87,0.21116
15662.04,0.204468
15709.5,0.195693
15757.25,0.186171
15805.29,0.176382
15853.62,0.166766
15902.26,0.157517
15951.19,0.148705
16000.42,0.139909
16049.95,0.132153
16099.8,0.126719
16149.95,0.125149
16200.42,0.12782
16251.21,0.134814
16302.31,0.145985
16353.74,0.162173
16405.49,0.180319
16457.57,0.193633
16509.98,0.19711
16562.73,0.190614
16615.82,0.176453
16669.24,0.163423
16723.02,0.162793
16777.14,0.177118
16831.61,0.196149
16886.43,0.212116
16941.62,0.222556
16997.16,0.227763
17053.08,0.228695
17109.36,0.2273
17166.01,0.224193
17223.04,0.219609
17280.45,0.214481
17338.24,0.211179
17396.43,0.213831
17455.0,0.22467
17513.97,0.236986
17573.34,0.240456
17633.11,0.231877
17693.29,0.220171
17753.89,0.213418
17814.9,0.216047
17876.33,0.225405
17938.18,0.236487
18000.47,0.24521
18063.19,0.250777
18126.35,0.253413
18189.95,0.252956
18254.0,0.248547
18318.5,0.240549
18383.46,0.229546
18448.88,0.216823
18514.77,0.20768
18581.13,0.209793
18647.97,0.21943
18715.29,0.228106
18783.1,0.236269
18851.4,0.243661
18920.2,0.24577
18989.51,0.24324
19059.32,0.236558
19129.65,0.226836
19200.5,0.211283
19271.88,0.210486
19343.79,0.236006
19416.24,0.263635
19489.23,0.274765
19562.77,0.277483
19636.88,0.278591
19711.54,0.277372
19786.78,0.275085
19862.59,0.272381
19938.98,0.268774
20015.96,0.264119
20093.55,0.257454
20171.73,0.249887
20250.53,0.242493
20329.94,0.235925
20409.98,0.229502
20490.65,0.223474
20571.96,0.218592
20653.92,0.215801
20736.54,0.212883
20819.82,0.210445
20903.77,0.208651
20988.4,0.207176
21073.72,0.205734
21159.73,0.203598
21246.46,0.199983
21333.89,0.199288
21422.04,0.198488
21510.93,0.197999
21600.56,0.19547
21690.94,0.19198
21782.08,0.187966
21873.99,0.18379
21966.67,0.175891
22060.15,0.165918
22154.42,0.153111
22249.51,0.140317
22345.41,0.139397
22442.14,0.156382
22539.72,0.180001
22638.14,0.203728
22737.43,0.218795
22837.6,0.222001
22938.65,0.220676
23040.6,0.218522
23143.46,0.213126
23247.24,0.20784
23351.96,0.204026
23457.63,0.201805
23564.25,0.197507
23671.85,0.193146
23780.44,0.189353
23890.02,0.189838
24000.63,0.190711
24112.26,0.190833
24224.93,0.190732
24338.66,0.192362
24453.47,0.192475
24569.36,0.193567
24686.36,0.192879
24804.47,0.190745
24923.73,0.191017
25044.13,0.190445
25165.71,0.190028
25288.46,0.189728
25412.43,0.181672
25537.61,0.177382
25664.04,0.170253
25791.72,0.162951
25920.68,0.152403
