Database of Origin,University of Winnipeg Spectrophotometer Facility
Sample Description,8. Sulfates: RELAB + Nicolet spectra / Spectra all made consistently merged: Jan. / 10 / 2005
Date Added,2016-07-15 22:05:54.851746

Data ID,RPN_SUL_16          
Sample ID,SPT105
Mineral Name,ammonium sulfate (syn)
Grain Size,<45
Viewing Geometry,30 / 0 | 30
Resolution,5 / 1.3-129
Material Class,Sulfate

Wavelength
305.0,0.653792
310.0,0.64675
315.0,0.660413
320.0,0.661043
325.0,0.672651
330.0,0.67347
335.0,0.68387
340.0,0.691309
345.0,0.69742
350.0,0.70651
355.0,0.711305
360.0,0.722766
365.0,0.732237
370.0,0.741991
375.0,0.748975
380.0,0.758459
385.0,0.764123
390.0,0.770459
395.0,0.781971
400.0,0.788471
405.0,0.789937
410.0,0.794753
415.0,0.803506
420.0,0.809709
425.0,0.816755
430.0,0.819568
435.0,0.823929
440.0,0.825562
445.0,0.831275
450.0,0.829913
455.0,0.835107
460.0,0.839691
465.0,0.845432
470.0,0.846526
475.0,0.851418
480.0,0.855499
485.0,0.858122
490.0,0.860883
495.0,0.861705
500.0,0.865336
505.0,0.867455
510.0,0.869346
515.0,0.87103
520.0,0.87205
525.0,0.87689
530.0,0.876194
535.0,0.882047
540.0,0.885487
545.0,0.890033
550.0,0.892453
555.0,0.896452
560.0,0.902144
565.0,0.907515
570.0,0.909391
575.0,0.910108
580.0,0.914199
585.0,0.917127
590.0,0.920464
595.0,0.919984
600.0,0.921011
605.0,0.924718
610.0,0.922566
615.0,0.926147
620.0,0.924251
625.0,0.924932
630.0,0.924814
635.0,0.927988
640.0,0.926813
645.0,0.926016
650.0,0.928678
655.0,0.928244
660.0,0.926717
665.0,0.932339
670.0,0.928572
675.0,0.928963
680.0,0.93043
685.0,0.929957
690.0,0.928325
695.0,0.931689
700.0,0.92922
705.0,0.929289
710.0,0.930512
715.0,0.929528
720.0,0.928616
725.0,0.935057
730.0,0.924276
735.0,0.930212
740.0,0.92472
745.0,0.928824
750.0,0.924341
755.0,0.927037
760.0,0.924568
765.0,0.928552
770.0,0.925952
775.0,0.922796
780.0,0.923942
785.0,0.922976
790.0,0.924288
795.0,0.920382
800.0,0.92241
805.0,0.922058
810.0,0.919106
815.0,0.918823
820.0,0.917978
825.0,0.920642
830.0,0.918352
835.0,0.917957
840.0,0.919301
845.0,0.918847
850.0,0.921322
855.0,0.922232
860.0,0.920455
865.0,0.921286
870.0,0.921496
875.0,0.920108
880.0,0.921224
885.0,0.921195
890.0,0.92219
895.0,0.919844
900.0,0.919767
905.0,0.917244
910.0,0.91798
915.0,0.92099
920.0,0.916918
925.0,0.917297
930.0,0.920577
935.0,0.919093
940.0,0.921746
945.0,0.919302
950.0,0.923189
955.0,0.923892
960.0,0.922688
965.0,0.922109
970.0,0.92291
975.0,0.921171
980.0,0.925201
985.0,0.923965
990.0,0.921752
995.0,0.921494
1000.0,0.920181
1005.0,0.919654
1010.0,0.919543
1015.0,0.918799
1020.0,0.915885
1025.0,0.912966
1030.0,0.908073
1035.0,0.905304
1040.0,0.901115
1045.0,0.903261
1050.0,0.896456
1055.0,0.896947
1060.0,0.894193
1065.0,0.894543
1070.0,0.894667
1075.0,0.897493
1080.0,0.897193
1085.0,0.902763
1090.0,0.901594
1095.0,0.908561
1100.0,0.910209
1105.0,0.908189
1110.0,0.91139
1115.0,0.914619
1120.0,0.915657
1125.0,0.91646
1130.0,0.916564
1135.0,0.918464
1140.0,0.919175
1145.0,0.920602
1150.0,0.919141
1155.0,0.918072
1160.0,0.919633
1165.0,0.919233
1170.0,0.91743
1175.0,0.916121
1180.0,0.913243
1185.0,0.9121
1190.0,0.90996
1195.0,0.905468
1200.0,0.902657
1205.0,0.900223
1210.0,0.88992
1215.0,0.883383
1220.0,0.872889
1225.0,0.866026
1230.0,0.858239
1235.0,0.853476
1240.0,0.845094
1245.0,0.840991
1250.0,0.835019
1255.0,0.832276
1260.0,0.82677
1265.0,0.824667
1270.0,0.821149
1275.0,0.820894
1280.0,0.818685
1285.0,0.822277
1290.0,0.820364
1295.0,0.821236
1300.0,0.823195
1305.0,0.82384
1310.0,0.825745
1315.0,0.828476
1320.0,0.82841
1325.0,0.833131
1330.0,0.836432
1335.0,0.839306
1340.0,0.83976
1345.0,0.84468
1350.0,0.84361
1355.0,0.841784
1360.0,0.845581
1365.0,0.850005
1370.0,0.853259
1375.0,0.85305
1380.0,0.852204
1385.0,0.857276
1390.0,0.859091
1395.0,0.853164
1400.0,0.8567
1405.0,0.852836
1410.0,0.857194
1415.0,0.85523
1420.0,0.854269
1425.0,0.852626
1430.0,0.850918
1435.0,0.849265
1440.0,0.845291
1445.0,0.836847
1450.0,0.833132
1455.0,0.827076
1460.0,0.822525
1465.0,0.815913
1470.0,0.806397
1475.0,0.795564
1480.0,0.789787
1485.0,0.778152
1490.0,0.769724
1495.0,0.756901
1500.0,0.743976
1505.0,0.732518
1510.0,0.718775
1515.0,0.703952
1520.0,0.688415
1525.0,0.668712
1530.0,0.650402
1535.0,0.633594
1540.0,0.614797
1545.0,0.599338
1550.0,0.584885
1555.0,0.570997
1560.0,0.557078
1565.0,0.547796
1570.0,0.544155
1575.0,0.543308
1580.0,0.545576
1585.0,0.551254
1590.0,0.559121
1595.0,0.567213
1600.0,0.577964
1605.0,0.586223
1610.0,0.594139
1615.0,0.601731
1620.0,0.608579
1625.0,0.612527
1630.0,0.617548
1635.0,0.619378
1640.0,0.620606
1645.0,0.623619
1650.0,0.628918
1655.0,0.633773
1660.0,0.637701
1665.0,0.644833
1670.0,0.655193
1675.0,0.659878
1680.0,0.666218
1685.0,0.669876
1690.0,0.676363
1695.0,0.682
1700.0,0.685964
1705.0,0.690125
1710.0,0.694272
1715.0,0.697702
1720.0,0.701471
1725.0,0.704245
1730.0,0.707261
1735.0,0.709202
1740.0,0.712159
1745.0,0.713393
1750.0,0.712952
1755.0,0.713368
1760.0,0.715904
1765.0,0.713996
1770.0,0.713421
1775.0,0.710788
1780.0,0.712194
1785.0,0.710875
1790.0,0.710167
1795.0,0.709513
1800.0,0.705203
1805.0,0.705329
1810.0,0.702536
1815.0,0.701355
1820.0,0.698213
1825.0,0.699017
1830.0,0.69467
1835.0,0.693727
1840.0,0.688732
1845.0,0.688705
1850.0,0.684023
1855.0,0.680724
1860.0,0.677492
1865.0,0.671373
1870.0,0.660924
1875.0,0.66374
1880.0,0.65807
1885.0,0.647737
1890.0,0.641577
1895.0,0.635885
1900.0,0.627295
1905.0,0.620295
1910.0,0.615188
1915.0,0.605606
1920.0,0.598706
1925.0,0.588836
1930.0,0.57953
1935.0,0.570862
1940.0,0.559641
1945.0,0.547246
1950.0,0.534838
1955.0,0.520234
1960.0,0.503337
1965.0,0.486799
1970.0,0.468709
1975.0,0.448026
1980.0,0.427605
1985.0,0.402588
1990.0,0.378442
1995.0,0.351362
2000.0,0.32558
2005.0,0.301964
2010.0,0.284798
2015.0,0.271228
2020.0,0.264665
2025.0,0.257725
2030.0,0.251674
2035.0,0.24646
2040.0,0.242823
2045.0,0.240237
2050.0,0.237462
2055.0,0.236819
2060.0,0.235594
2065.0,0.234236
2070.0,0.23187
2075.0,0.228822
2080.0,0.223134
2085.0,0.217042
2090.0,0.209229
2095.0,0.203276
2100.0,0.195776
2105.0,0.18761
2110.0,0.179553
2115.0,0.170914
2120.0,0.163301
2125.0,0.157756
2130.0,0.153458
2135.0,0.151463
2140.0,0.150703
2145.0,0.150441
2150.0,0.152273
2155.0,0.154751
2160.0,0.159011
2165.0,0.161885
2170.0,0.169933
2175.0,0.176252
2180.0,0.183622
2185.0,0.192773
2190.0,0.201844
2195.0,0.210922
2200.0,0.220098
2205.0,0.229246
2210.0,0.238238
2215.0,0.246731
2220.0,0.253756
2225.0,0.26193
2230.0,0.269681
2235.0,0.276238
2240.0,0.283878
2245.0,0.291414
2250.0,0.29815
2255.0,0.305598
2260.0,0.31315
2265.0,0.32007
2270.0,0.327901
2275.0,0.334788
2280.0,0.341603
2285.0,0.349141
2290.0,0.355541
2295.0,0.363595
2300.0,0.367777
2305.0,0.374905
2310.0,0.380298
2315.0,0.385085
2320.0,0.391001
2325.0,0.395801
2330.0,0.402271
2335.0,0.407981
2340.0,0.416298
2345.0,0.423537
2350.0,0.431181
2355.0,0.437164
2360.0,0.445588
2365.0,0.451829
2370.0,0.458927
2375.0,0.465452
2380.0,0.471801
2385.0,0.479807
2390.0,0.48705
2395.0,0.495311
2400.0,0.502948
2405.0,0.512047
2410.0,0.51944
2415.0,0.525784
2420.0,0.533357
2425.0,0.541106
2430.0,0.544736
2435.0,0.548899
2440.0,0.552347
2445.0,0.556524
2450.0,0.557128
2455.0,0.558589
2460.0,0.55813
2465.0,0.557259
2470.0,0.556372
2475.0,0.552724
2480.0,0.553098
2485.0,0.550716
2490.0,0.550586
2495.0,0.545912
2500.0,0.543747
2505.0,0.537633
2510.0,0.536074
2515.0,0.530055
2520.0,0.52916
2525.0,0.523988
2530.0,0.51889
2535.0,0.514981
2540.0,0.511303
2545.0,0.502767
2550.0,0.500722
2555.0,0.498364
2560.0,0.492872
2565.13,0.489185
2570.22,0.48389
2575.33,0.480873
2580.46,0.476461
2581.74,0.47455
2583.03,0.473836
2584.31,0.472887
2585.6,0.472146
2586.89,0.4714
2588.19,0.469996
2589.48,0.469415
2590.77,0.468177
2592.07,0.466988
2593.36,0.465748
2594.66,0.463101
2595.96,0.461606
2597.26,0.462568
2598.56,0.462626
2599.87,0.460648
2601.17,0.458742
2602.48,0.457235
2603.78,0.455397
2605.09,0.454241
2606.4,0.453634
2607.71,0.452871
2609.03,0.451335
2610.34,0.450054
2611.66,0.449456
2612.97,0.448702
2614.29,0.447167
2615.61,0.445893
2616.93,0.443496
2618.25,0.441786
2619.57,0.441391
2620.9,0.439597
2622.22,0.438774
2623.55,0.437772
2624.88,0.436056
2626.21,0.434263
2627.54,0.433234
2628.87,0.432901
2630.21,0.431085
2631.54,0.429063
2632.88,0.428373
2634.21,0.426391
2635.55,0.424832
2636.89,0.424511
2638.24,0.422948
2639.58,0.420679
2640.92,0.41909
2642.27,0.417452
2643.62,0.415804
2644.97,0.414024
2646.32,0.41244
2647.67,0.411371
2649.02,0.410269
2650.38,0.408395
2651.73,0.406662
2653.09,0.405102
2654.45,0.404195
2655.81,0.402896
2657.17,0.401072
2658.53,0.399536
2659.89,0.397883
2661.26,0.395621
2662.63,0.393119
2664.0,0.390991
2665.36,0.388716
2666.74,0.387349
2668.11,0.386874
2669.48,0.385679
2670.86,0.382749
2672.23,0.381138
2673.61,0.380319
2674.99,0.378375
2676.37,0.375685
2677.76,0.373044
2679.14,0.37138
2680.52,0.368929
2681.91,0.367192
2683.3,0.365513
2684.69,0.363405
2686.08,0.361165
2687.47,0.359458
2688.87,0.357764
2690.26,0.355624
2691.66,0.353063
2693.06,0.3507
2694.46,0.348525
2695.86,0.346283
2697.26,0.344343
2698.66,0.342742
2700.07,0.340516
2701.48,0.337989
2702.89,0.335629
2704.3,0.333659
2705.71,0.331396
2707.12,0.328717
2708.53,0.326135
2709.95,0.323586
2711.37,0.320953
2712.79,0.318934
2714.21,0.317349
2715.63,0.315015
2717.05,0.312519
2718.48,0.310147
2719.9,0.307633
2721.33,0.304926
2722.76,0.302942
2724.19,0.300775
2725.62,0.298425
2727.06,0.296476
2728.49,0.293882
2729.93,0.291683
2731.37,0.289257
2732.81,0.287091
2734.25,0.284825
2735.69,0.281943
2737.14,0.279336
2738.58,0.277186
2740.03,0.274745
2741.48,0.272424
2742.93,0.270835
2744.38,0.269297
2745.83,0.266717
2747.29,0.263951
2748.75,0.261461
2750.2,0.259676
2751.66,0.257926
2753.13,0.255703
2754.59,0.25328
2756.05,0.250869
2757.52,0.249521
2758.99,0.247567
2760.46,0.244987
2761.93,0.242693
2763.4,0.240738
2764.87,0.239343
2766.35,0.237446
2767.82,0.234957
2769.3,0.232907
2770.78,0.231207
2772.26,0.229383
2773.75,0.227138
2775.23,0.225063
2776.72,0.223139
2778.21,0.221213
2779.7,0.219363
2781.19,0.217389
2782.68,0.215587
2784.18,0.213934
2785.67,0.211682
2787.17,0.209084
2788.67,0.207945
2790.17,0.207336
2791.67,0.205315
2793.18,0.202862
2794.68,0.200828
2796.19,0.199208
2797.7,0.197616
2799.21,0.195294
2800.72,0.193124
2802.24,0.191254
2803.75,0.189563
2805.27,0.188116
2806.79,0.186596
2808.31,0.184391
2809.83,0.182729
2811.35,0.18101
2812.88,0.179394
2814.41,0.177642
2815.93,0.175779
2817.46,0.173787
2819.0,0.171978
2820.53,0.170321
2822.07,0.16845
2823.6,0.166865
2825.14,0.165495
2826.68,0.163638
2828.22,0.161598
2829.77,0.159893
2831.31,0.157827
2832.86,0.156135
2834.41,0.155038
2835.96,0.153188
2837.51,0.151367
2839.07,0.149855
2840.62,0.148564
2842.18,0.146886
2843.74,0.144977
2845.3,0.142811
2846.86,0.14104
2848.43,0.139784
2849.99,0.138675
2851.56,0.137041
2853.13,0.135224
2854.7,0.133682
2856.27,0.132178
2857.85,0.130691
2859.42,0.128741
2861.0,0.127069
2862.58,0.125738
2864.16,0.124465
2865.75,0.123028
2867.33,0.120961
2868.92,0.119019
2870.51,0.117654
2872.1,0.116017
2873.69,0.114532
2875.28,0.113551
2876.88,0.112132
2878.48,0.11028
2880.07,0.108652
2881.68,0.107307
2883.28,0.105944
2884.88,0.104245
2886.49,0.102904
2888.1,0.101548
2889.71,0.100049
2891.32,0.098513
2892.93,0.096885
2894.55,0.095229
2896.16,0.09392
2897.78,0.092832
2899.4,0.091126
2901.03,0.089212
2902.65,0.087692
2904.28,0.086268
2905.91,0.084745
2907.54,0.083603
2909.17,0.082524
2910.8,0.080949
2912.44,0.079084
2914.07,0.077179
2915.71,0.075632
2917.35,0.07419
2918.99,0.072798
2920.64,0.071428
2922.29,0.069874
2923.93,0.068744
2925.58,0.067389
2927.24,0.065493
2928.89,0.063807
2930.55,0.062656
2932.2,0.061262
2933.86,0.059487
2935.52,0.057988
2937.19,0.056919
2938.85,0.055535
2940.52,0.054095
2942.19,0.052549
2943.86,0.05122
2945.53,0.050323
2947.21,0.048861
2948.88,0.046946
2950.56,0.045274
2952.24,0.044421
2953.92,0.043481
2955.61,0.041988
2957.29,0.040606
2958.98,0.039372
2960.67,0.03822
2962.36,0.036904
2964.06,0.035368
2965.75,0.034196
2967.45,0.033324
2969.15,0.032511
2970.85,0.031495
2972.55,0.030482
2974.26,0.029317
2975.97,0.028201
2977.68,0.027177
2979.39,0.026099
2981.1,0.02512
2982.82,0.024348
2984.53,0.023366
2986.25,0.022435
2987.97,0.021597
2989.7,0.021168
2991.42,0.020576
2993.15,0.019908
2994.88,0.019217
2996.61,0.018799
2998.34,0.018403
3000.08,0.017984
3001.82,0.017608
3003.55,0.017051
3005.3,0.016575
3007.04,0.015984
3008.78,0.015658
3010.53,0.015862
3012.28,0.016051
3014.03,0.015922
3015.79,0.01586
3017.54,0.015619
3019.3,0.015247
3021.06,0.015296
3022.82,0.015661
3024.58,0.015715
3026.35,0.015927
3028.12,0.015844
3029.89,0.015894
3031.66,0.016278
3033.43,0.016384
3035.21,0.016325
3036.99,0.016496
3038.77,0.016925
3040.55,0.016871
3042.33,0.016775
3044.12,0.016975
3045.91,0.016908
3047.7,0.017094
3049.49,0.017883
3051.29,0.018029
3053.08,0.01831
3054.88,0.0187
3056.68,0.018681
3058.49,0.01875
3060.29,0.018991
3062.1,0.019354
3063.91,0.019935
3065.72,0.020242
3067.54,0.020226
3069.35,0.020545
3071.17,0.020628
3072.99,0.020805
3074.81,0.021044
3076.64,0.021234
3078.47,0.021395
3080.29,0.021804
3082.13,0.022019
3083.96,0.022203
3085.79,0.02249
3087.63,0.022737
3089.47,0.023107
3091.31,0.023231
3093.16,0.023397
3095.01,0.023607
3096.85,0.023555
3098.71,0.023693
3100.56,0.024127
3102.41,0.024338
3104.27,0.024495
3106.13,0.024485
3107.99,0.024747
3109.86,0.025164
3111.73,0.025241
3113.59,0.025122
3115.47,0.025512
3117.34,0.026076
3119.21,0.026384
3121.09,0.026216
3122.97,0.025888
3124.86,0.025946
3126.74,0.026039
3128.63,0.026251
3130.52,0.026664
3132.41,0.026642
3134.3,0.026686
3136.2,0.026751
3138.1,0.026938
3140.0,0.026861
3141.9,0.026717
3143.81,0.026805
3145.71,0.026871
3147.62,0.026992
3149.54,0.027131
3151.45,0.027173
3153.37,0.027322
3155.29,0.027483
3157.21,0.027657
3159.13,0.027846
3161.06,0.027777
3162.99,0.027594
3164.92,0.027272
3166.85,0.027154
3168.79,0.027497
3170.72,0.027522
3172.67,0.027597
3174.61,0.02758
3176.55,0.027329
3178.5,0.027409
3180.45,0.027743
3182.4,0.027955
3184.36,0.027909
3186.32,0.027679
3188.27,0.027759
3190.24,0.027968
3192.2,0.027944
3194.17,0.027662
3196.14,0.027942
3198.11,0.028231
3200.08,0.028258
3202.06,0.02813
3204.04,0.028097
3206.02,0.028078
3208.0,0.028101
3209.99,0.028061
3211.98,0.028025
3213.97,0.028148
3215.96,0.028328
3217.96,0.028375
3219.96,0.028178
3221.96,0.02811
3223.96,0.028225
3225.97,0.028239
3227.98,0.027992
3229.99,0.027909
3232.0,0.028169
3234.02,0.028338
3236.04,0.028281
3238.06,0.028183
3240.08,0.028169
3242.11,0.028119
3244.14,0.028422
3246.17,0.028385
3248.2,0.028368
3250.24,0.028522
3252.28,0.028631
3254.32,0.028689
3256.37,0.028736
3258.41,0.028888
3260.46,0.028932
3262.51,0.028761
3264.57,0.028972
3266.63,0.029173
3268.69,0.029115
3270.75,0.028941
3272.81,0.029053
3274.88,0.029337
3276.95,0.029801
3279.02,0.030018
3281.1,0.030023
3283.18,0.029954
3285.26,0.029749
3287.34,0.029855
3289.43,0.030101
3291.51,0.030143
3293.61,0.030326
3295.7,0.030527
3297.8,0.030573
3299.9,0.030711
3302.0,0.030963
3304.1,0.030782
3306.21,0.03074
3308.32,0.030883
3310.43,0.031117
3312.55,0.031114
3314.66,0.03105
3316.79,0.031241
3318.91,0.031587
3321.03,0.031696
3323.16,0.0318
3325.29,0.031878
3327.43,0.031918
3329.57,0.031959
3331.71,0.031969
3333.85,0.032082
3335.99,0.032246
3338.14,0.032451
3340.29,0.032516
3342.45,0.032657
3344.6,0.032807
3346.76,0.032717
3348.92,0.032914
3351.09,0.033178
3353.26,0.033221
3355.43,0.033169
3357.6,0.033312
3359.78,0.033752
3361.96,0.033842
3364.14,0.033794
3366.32,0.03388
3368.51,0.034072
3370.7,0.034343
3372.89,0.034353
3375.09,0.034423
3377.29,0.03464
3379.49,0.034695
3381.69,0.03484
3383.9,0.035068
3386.11,0.035105
3388.32,0.035066
3390.54,0.035151
3392.76,0.03526
3394.98,0.03547
3397.21,0.035529
3399.43,0.035639
3401.66,0.03563
3403.9,0.035672
3406.13,0.035857
3408.37,0.036431
3410.61,0.036488
3412.86,0.036342
3415.11,0.036487
3417.36,0.036515
3419.61,0.036673
3421.87,0.036721
3424.13,0.03665
3426.39,0.036855
3428.66,0.037031
3430.93,0.037067
3433.2,0.037196
3435.48,0.037227
3437.76,0.037162
3440.04,0.037238
3442.32,0.037531
3444.61,0.037795
3446.9,0.037864
3449.19,0.037918
3451.49,0.037769
3453.79,0.037693
3456.09,0.037713
3458.4,0.037686
3460.7,0.037831
3463.02,0.037801
3465.33,0.037923
3467.65,0.038174
3469.97,0.038164
3472.29,0.038059
3474.62,0.038001
3476.95,0.038346
3479.29,0.038664
3481.62,0.03871
3483.96,0.038679
3486.3,0.038577
3488.65,0.03862
3491.0,0.038653
3493.35,0.038791
3495.71,0.038949
3498.07,0.039071
3500.43,0.039124
3502.79,0.039101
3505.16,0.039212
3507.53,0.039329
3509.91,0.039523
3512.29,0.039782
3514.67,0.039672
3517.05,0.039719
3519.44,0.040193
3521.83,0.040281
3524.23,0.040145
3526.62,0.040145
3529.02,0.04041
3531.43,0.040639
3533.83,0.041006
3536.24,0.041347
3538.66,0.041439
3541.08,0.041575
3543.5,0.041947
3545.92,0.04223
3548.35,0.042475
3550.78,0.042743
3553.21,0.043087
3555.65,0.043496
3558.09,0.043768
3560.53,0.044022
3562.98,0.044371
3565.43,0.044836
3567.88,0.045482
3570.34,0.045864
3572.8,0.046124
3575.27,0.04653
3577.73,0.046925
3580.2,0.047569
3582.68,0.048192
3585.16,0.048694
3587.64,0.048925
3590.12,0.04917
3592.61,0.049802
3595.1,0.050514
3597.6,0.051101
3600.09,0.051619
3602.6,0.052293
3605.1,0.052903
3607.61,0.053337
3610.12,0.054072
3612.64,0.054791
3615.16,0.055168
3617.68,0.055652
3620.21,0.056268
3622.74,0.056985
3625.27,0.05772
3627.81,0.058175
3630.35,0.058754
3632.89,0.059398
3635.44,0.059916
3637.99,0.060424
3640.54,0.061274
3643.1,0.062041
3645.66,0.062763
3648.23,0.063424
3650.8,0.063987
3653.37,0.064457
3655.95,0.065131
3658.53,0.065792
3661.11,0.066592
3663.7,0.067327
3666.29,0.067969
3668.89,0.068791
3671.48,0.069541
3674.09,0.070227
3676.69,0.071011
3679.3,0.071885
3681.91,0.072609
3684.53,0.073179
3687.15,0.07383
3689.78,0.0746
3692.4,0.075447
3695.04,0.07618
3697.67,0.076816
3700.31,0.077542
3702.95,0.078557
3705.6,0.079324
3708.25,0.079755
3710.91,0.080517
3713.56,0.08148
3716.23,0.082372
3718.89,0.083064
3721.56,0.08384
3724.23,0.08461
3726.91,0.085361
3729.59,0.086111
3732.28,0.087
3734.97,0.088005
3737.66,0.088728
3740.36,0.089546
3743.06,0.090606
3745.76,0.091454
3748.47,0.092339
3751.18,0.093083
3753.9,0.093662
3756.62,0.094561
3759.34,0.095726
3762.07,0.096571
3764.8,0.097271
3767.54,0.098149
3770.28,0.09919
3773.02,0.100183
3775.77,0.10087
3778.52,0.101472
3781.28,0.102417
3784.04,0.103527
3786.8,0.104459
3789.57,0.105348
3792.34,0.106272
3795.12,0.10721
3797.9,0.10824
3800.69,0.109185
3803.47,0.109985
3806.27,0.11117
3809.06,0.112298
3811.86,0.113188
3814.67,0.114016
3817.48,0.115021
3820.29,0.116062
3823.11,0.117187
3825.93,0.118248
3828.76,0.119401
3831.59,0.120367
3834.42,0.121305
3837.26,0.122359
3840.1,0.123535
3842.95,0.124495
3845.8,0.125479
3848.65,0.126807
3851.51,0.128041
3854.38,0.129235
3857.24,0.1305
3860.12,0.131678
3862.99,0.132613
3865.87,0.133602
3868.76,0.134785
3871.65,0.135903
3874.54,0.136996
3877.44,0.138242
3880.34,0.139479
3883.25,0.140659
3886.16,0.141678
3889.07,0.142874
3891.99,0.144089
3894.92,0.145195
3897.85,0.146443
3900.78,0.147647
3903.72,0.148813
3906.66,0.150096
3909.6,0.151446
3912.55,0.15251
3915.51,0.153433
3918.47,0.154792
3921.43,0.156213
3924.4,0.157296
3927.38,0.15846
3930.35,0.159758
3933.33,0.160884
3936.32,0.161887
3939.31,0.163026
3942.31,0.16439
3945.31,0.165733
3948.31,0.166984
3951.32,0.168221
3954.34,0.169449
3957.35,0.17071
3960.38,0.171915
3963.41,0.172977
3966.44,0.174196
3969.48,0.175421
3972.52,0.176689
3975.56,0.177965
3978.61,0.179133
3981.67,0.180552
3984.73,0.181876
3987.8,0.183209
3990.87,0.184429
3993.94,0.185735
3997.02,0.187163
4000.1,0.18859
4003.19,0.189848
4006.29,0.190922
4009.39,0.192297
4012.49,0.193665
4015.6,0.195004
4018.71,0.196389
4021.83,0.197661
4024.95,0.198931
4028.08,0.200364
4031.21,0.201715
4034.35,0.203048
4037.49,0.204357
4040.64,0.2058
4043.79,0.207382
4046.94,0.208748
4050.11,0.209868
4053.27,0.211011
4056.44,0.212292
4059.62,0.213503
4062.8,0.214777
4065.99,0.216124
4069.18,0.217409
4072.38,0.218773
4075.58,0.220154
4078.78,0.221355
4082.0,0.222535
4085.21,0.223562
4088.43,0.224767
4091.66,0.225956
4094.89,0.226949
4098.13,0.227965
4101.37,0.229092
4104.62,0.230072
4107.87,0.231001
4111.13,0.232046
4114.39,0.233161
4117.66,0.234149
4120.93,0.235029
4124.21,0.235886
4127.5,0.236813
4130.79,0.237895
4134.08,0.238751
4137.38,0.239618
4140.68,0.240583
4143.99,0.241653
4147.31,0.242563
4150.63,0.243557
4153.95,0.24449
4157.29,0.245417
4160.62,0.246221
4163.96,0.2471
4167.31,0.248063
4170.66,0.248984
4174.02,0.249948
4177.39,0.250856
4180.75,0.251612
4184.13,0.252463
4187.51,0.25322
4190.89,0.254074
4194.28,0.254773
4197.68,0.255432
4201.08,0.256216
4204.49,0.257072
4207.9,0.257747
4211.32,0.258175
4214.74,0.258675
4218.17,0.25918
4221.61,0.259809
4225.05,0.260612
4228.5,0.261187
4231.95,0.261544
4235.4,0.26192
4238.87,0.262452
4242.34,0.26293
4245.81,0.263307
4249.29,0.263817
4252.78,0.264542
4256.27,0.265114
4259.77,0.265341
4263.27,0.265379
4266.78,0.265478
4270.29,0.265758
4273.81,0.265989
4277.34,0.266021
4280.87,0.2663
4284.41,0.266478
4287.95,0.266498
4291.5,0.266501
4295.06,0.266461
4298.62,0.266436
4302.19,0.266349
4305.76,0.266529
4309.34,0.266676
4312.92,0.266524
4316.52,0.266337
4320.11,0.266278
4323.72,0.26619
4327.32,0.265864
4330.94,0.265738
4334.56,0.265695
4338.19,0.265642
4341.82,0.26558
4345.46,0.265337
4349.11,0.265023
4352.76,0.264817
4356.42,0.264557
4360.08,0.264136
4363.75,0.263852
4367.43,0.263716
4371.11,0.263438
4374.8,0.263091
4378.49,0.262614
4382.19,0.262076
4385.9,0.261523
4389.61,0.261076
4393.33,0.2605
4397.06,0.259893
4400.79,0.25922
4404.53,0.258664
4408.28,0.258108
4412.03,0.257338
4415.79,0.25644
4419.55,0.255647
4423.32,0.254925
4427.1,0.254069
4430.88,0.253223
4434.68,0.252523
4438.47,0.251721
4442.28,0.250756
4446.08,0.249812
4449.9,0.248974
4453.72,0.248097
4457.55,0.247083
4461.39,0.246014
4465.23,0.245099
4469.08,0.244214
4472.94,0.243097
4476.8,0.242058
4480.67,0.241162
4484.55,0.240084
4488.43,0.238939
4492.32,0.237761
4496.21,0.236564
4500.12,0.235521
4504.03,0.234641
4507.94,0.233568
4511.87,0.23257
4515.8,0.231649
4519.73,0.230836
4523.68,0.230037
4527.63,0.229233
4531.59,0.228292
4535.55,0.227522
4539.52,0.226872
4543.5,0.226151
4547.49,0.225501
4551.48,0.224716
4555.48,0.223901
4559.49,0.223196
4563.5,0.222537
4567.52,0.221883
4571.55,0.221166
4575.58,0.220468
4579.63,0.219688
4583.67,0.218838
4587.73,0.217992
4591.79,0.217124
4595.86,0.216348
4599.94,0.215707
4604.03,0.214899
4608.12,0.213956
4612.22,0.212973
4616.33,0.212098
4620.44,0.211247
4624.56,0.210284
4628.69,0.209315
4632.83,0.208535
4636.97,0.20782
4641.12,0.206976
4645.28,0.206184
4649.45,0.205531
4653.62,0.204894
4657.8,0.204121
4661.99,0.203263
4666.19,0.202486
4670.39,0.201729
4674.6,0.201006
4678.82,0.199956
4683.05,0.198605
4687.28,0.197459
4691.52,0.196219
4695.77,0.194804
4700.03,0.19334
4704.3,0.191688
4708.57,0.189893
4712.85,0.188009
4717.14,0.185966
4721.43,0.183715
4725.74,0.181322
4730.05,0.179132
4734.37,0.177018
4738.7,0.174785
4743.03,0.17266
4747.38,0.170817
4751.73,0.169128
4756.09,0.167617
4760.45,0.166356
4764.83,0.16502
4769.21,0.163799
4773.6,0.162714
4778.0,0.161643
4782.41,0.160487
4786.83,0.159314
4791.25,0.158145
4795.68,0.157021
4800.13,0.155915
4804.57,0.15468
4809.03,0.153303
4813.5,0.151996
4817.97,0.150721
4822.45,0.149331
4826.94,0.147895
4831.44,0.146555
4835.95,0.145229
4840.46,0.143883
4844.99,0.142494
4849.52,0.141037
4854.06,0.139691
4858.61,0.138445
4863.17,0.137186
4867.73,0.136082
4872.31,0.135108
4876.89,0.134303
4881.48,0.13372
4886.08,0.13323
4890.69,0.132878
4895.31,0.132961
4899.94,0.133343
4904.57,0.133914
4909.22,0.134597
4913.87,0.135495
4918.53,0.136669
4923.21,0.137915
4927.88,0.139146
4932.57,0.140507
4937.27,0.141776
4941.98,0.142754
4946.69,0.143816
4951.42,0.144938
4956.15,0.145917
4960.9,0.146884
4965.65,0.147741
4970.41,0.148411
4975.18,0.148973
4979.96,0.149569
4984.75,0.150191
4989.54,0.150899
4994.35,0.151477
4999.17,0.151843
5003.99,0.1522
5008.83,0.152594
5013.67,0.152817
5018.52,0.153117
5023.39,0.153402
5028.26,0.153745
5033.14,0.154047
5038.03,0.154124
5042.93,0.154227
5047.84,0.154455
5052.76,0.154588
5057.69,0.154565
5062.63,0.154646
5067.58,0.154772
5072.54,0.154836
5077.51,0.154942
5082.49,0.155071
5087.47,0.155081
5092.47,0.155045
5097.48,0.155008
5102.5,0.154879
5107.52,0.154873
5112.56,0.154866
5117.61,0.154746
5122.66,0.154759
5127.73,0.154724
5132.81,0.154396
5137.89,0.154184
5142.99,0.154097
5148.1,0.153962
5153.22,0.153889
5158.34,0.153892
5163.48,0.153685
5168.63,0.153491
5173.79,0.153259
5178.96,0.152971
5184.13,0.152718
5189.32,0.152534
5194.52,0.152287
5199.73,0.152108
5204.96,0.151914
5210.19,0.151511
5215.43,0.151088
5220.68,0.150759
5225.94,0.150371
5231.22,0.149941
5236.5,0.149587
5241.79,0.149148
5247.1,0.148602
5252.42,0.148174
5257.74,0.147714
5263.08,0.147206
5268.43,0.146585
5273.79,0.146068
5279.16,0.145488
5284.54,0.144866
5289.93,0.144185
5295.34,0.143558
5300.75,0.143054
5306.18,0.142481
5311.61,0.141711
5317.06,0.140895
5322.52,0.140129
5327.99,0.139536
5333.47,0.138845
5338.96,0.138026
5344.47,0.137321
5349.98,0.136589
5355.51,0.135776
5361.05,0.134888
5366.6,0.134095
5372.16,0.133243
5377.73,0.132212
5383.32,0.131349
5388.91,0.130543
5394.52,0.129721
5400.14,0.128973
5405.77,0.128143
5411.41,0.12731
5417.07,0.126462
5422.74,0.125513
5428.41,0.124674
5434.1,0.123909
5439.81,0.122966
5445.52,0.122045
5451.25,0.121155
5456.98,0.120231
5462.73,0.119387
5468.5,0.118644
5474.27,0.117787
5480.06,0.116723
5485.86,0.115828
5491.67,0.115156
5497.49,0.114353
5503.33,0.113517
5509.18,0.112736
5515.04,0.11196
5520.91,0.111169
5526.8,0.110494
5532.69,0.109776
5538.61,0.108989
5544.53,0.10829
5550.47,0.107759
5556.41,0.107073
5562.38,0.106319
5568.35,0.105794
5574.34,0.105324
5580.34,0.104705
5586.35,0.104116
5592.38,0.103604
5598.42,0.103119
5604.47,0.102594
5610.54,0.102087
5616.61,0.101602
5622.71,0.101216
5628.81,0.100822
5634.93,0.100479
5641.06,0.100112
5647.21,0.099707
5653.36,0.09942
5659.54,0.099128
5665.72,0.098901
5671.92,0.098745
5678.13,0.098447
5684.36,0.098258
5690.6,0.098166
5696.85,0.098003
5703.12,0.097836
5709.4,0.097602
5715.69,0.097505
5722.0,0.097507
5728.33,0.097337
5734.66,0.09723
5741.01,0.09714
5747.38,0.096958
5753.76,0.096941
5760.15,0.09699
5766.56,0.096821
5772.98,0.096581
5779.41,0.096437
5785.86,0.096356
5792.33,0.096263
5798.81,0.096173
5805.3,0.09603
5811.81,0.095859
5818.33,0.095521
5824.87,0.095381
5831.42,0.095532
5837.99,0.09538
5844.57,0.095307
5851.17,0.095344
5857.78,0.09521
5864.41,0.095078
5871.05,0.095107
5877.7,0.09521
5884.38,0.095211
5891.06,0.09541
5897.76,0.095561
5904.48,0.095751
5911.21,0.09582
5917.96,0.095915
5924.73,0.096203
5931.5,0.096338
5938.3,0.096306
5945.11,0.09675
5951.93,0.097164
5958.78,0.097315
5965.63,0.097625
5972.51,0.0981
5979.39,0.098692
5986.3,0.099119
5993.22,0.099713
6000.16,0.100468
6007.11,0.101043
6014.08,0.101612
6021.06,0.10234
6028.06,0.102961
6035.08,0.10353
6042.12,0.104077
6049.17,0.104536
6056.23,0.105087
6063.32,0.105618
6070.42,0.105892
6077.53,0.106076
6084.67,0.106092
6091.82,0.106164
6098.98,0.106308
6106.17,0.106283
6113.37,0.106143
6120.58,0.106169
6127.82,0.106246
6135.07,0.106139
6142.34,0.10599
6149.63,0.105764
6156.93,0.105559
6164.25,0.105343
6171.59,0.105035
6178.95,0.104555
6186.32,0.104085
6193.71,0.10376
6201.12,0.103285
6208.54,0.102605
6215.99,0.101961
6223.45,0.101337
6230.93,0.100612
6238.43,0.099729
6245.95,0.09865
6253.48,0.097613
6261.03,0.096659
6268.6,0.095802
6276.19,0.094849
6283.8,0.093807
6291.43,0.092836
6299.07,0.091952
6306.73,0.091149
6314.42,0.090581
6322.12,0.090148
6329.84,0.089786
6337.57,0.089365
6345.33,0.088708
6353.11,0.087912
6360.9,0.08706
6368.72,0.086005
6376.55,0.084851
6384.4,0.083714
6392.27,0.082412
6400.17,0.081013
6408.08,0.079593
6416.01,0.078033
6423.96,0.076456
6431.93,0.074959
6439.92,0.073372
6447.93,0.07158
6455.96,0.069779
6464.01,0.067787
6472.08,0.065922
6480.17,0.064106
6488.28,0.062108
6496.41,0.060125
6504.56,0.058221
6512.73,0.056063
6520.92,0.054033
6529.14,0.051992
6537.37,0.049961
6545.63,0.047892
6553.9,0.045995
6562.2,0.043993
6570.51,0.042001
6578.85,0.04007
6587.21,0.038123
6595.59,0.036239
6603.99,0.034387
6612.42,0.032573
6620.86,0.030749
6629.33,0.028902
6637.82,0.027274
6646.33,0.025529
6654.86,0.023945
6663.41,0.022499
6671.99,0.021172
6680.59,0.019943
6689.21,0.018768
6697.85,0.017618
6706.51,0.016828
6715.2,0.016235
6723.91,0.015745
6732.64,0.015368
6741.4,0.015251
6750.18,0.015368
6758.98,0.01561
6767.8,0.015974
6776.65,0.016776
6785.52,0.017883
6794.41,0.019201
6803.33,0.020953
6812.27,0.022816
6821.23,0.024622
6830.22,0.026581
6839.23,0.028858
6848.26,0.031244
6857.32,0.033452
6866.4,0.035548
6875.51,0.037968
6884.64,0.040247
6893.8,0.04223
6902.98,0.044198
6912.18,0.046086
6921.41,0.047969
6930.66,0.049626
6939.94,0.051274
6949.24,0.052917
6958.57,0.054379
6967.92,0.055927
6977.3,0.057668
6986.7,0.05912
6996.13,0.060342
7005.59,0.06149
7015.07,0.062429
7024.57,0.063068
7034.1,0.063533
7043.66,0.063926
7053.25,0.064079
7062.85,0.063889
7072.49,0.063471
7082.15,0.063073
7091.84,0.062493
7101.55,0.061542
7111.3,0.060587
7121.06,0.059792
7130.86,0.058957
7140.68,0.05827
7150.53,0.057561
7160.41,0.056885
7170.31,0.056398
7180.24,0.055998
7190.2,0.055784
7200.19,0.055649
7210.2,0.055703
7220.24,0.056021
7230.31,0.056522
7240.41,0.056961
7250.54,0.057492
7260.69,0.058244
7270.88,0.05914
7281.09,0.059975
7291.33,0.060864
7301.6,0.061921
7311.9,0.063173
7322.22,0.064436
7332.58,0.065794
7342.97,0.067156
7353.38,0.068514
7363.83,0.069989
7374.3,0.071546
7384.81,0.073119
7395.34,0.074611
7405.91,0.076359
7416.5,0.078164
7427.13,0.079926
7437.78,0.081726
7448.47,0.08351
7459.19,0.085439
7469.94,0.08735
7480.71,0.089212
7491.52,0.091165
7502.37,0.093001
7513.24,0.094692
7524.14,0.096562
7535.08,0.098538
7546.05,0.100509
7557.05,0.102413
7568.08,0.104231
7579.15,0.105963
7590.24,0.107816
7601.37,0.109744
7612.53,0.11143
7623.73,0.112946
7634.96,0.114404
7646.22,0.115873
7657.51,0.117354
7668.84,0.118794
7680.2,0.120107
7691.59,0.121309
7703.02,0.122305
7714.49,0.123185
7725.98,0.124108
7737.52,0.124947
7749.08,0.125598
7760.68,0.126068
7772.32,0.126448
7783.99,0.126855
7795.69,0.127003
7807.43,0.126886
7819.21,0.126732
7831.02,0.126475
7842.87,0.125978
7854.75,0.125315
7866.67,0.124606
7878.62,0.123914
7890.62,0.123131
7902.64,0.122087
7914.71,0.120951
7926.81,0.119594
7938.95,0.118128
7951.13,0.116517
7963.34,0.114557
7975.59,0.112401
7987.88,0.110039
8000.21,0.107468
8012.57,0.104778
8024.98,0.102068
8037.42,0.099139
8049.9,0.095844
8062.42,0.092539
8074.98,0.089197
8087.57,0.085864
8100.21,0.082746
8112.89,0.07983
8125.6,0.076935
8138.36,0.074014
8151.16,0.071018
8163.99,0.068021
8176.87,0.065009
8189.79,0.061835
8202.75,0.058554
8215.75,0.055107
8228.79,0.051394
8241.87,0.047693
8254.99,0.043916
8268.16,0.040083
8281.37,0.036428
8294.62,0.032785
8307.91,0.029105
8321.24,0.025953
8334.62,0.022944
8348.04,0.020131
8361.51,0.017605
8375.02,0.015369
8388.57,0.013354
8402.16,0.011877
8415.8,0.010864
8429.49,0.010167
8443.22,0.009917
8456.99,0.010218
8470.81,0.011328
8484.67,0.013183
8498.58,0.01592
8512.54,0.019686
8526.54,0.024486
8540.58,0.030467
8554.68,0.037379
8568.82,0.045271
8583.0,0.053767
8597.24,0.062698
8611.52,0.071884
8625.85,0.080926
8640.23,0.08985
8654.65,0.098367
8669.12,0.106105
8683.64,0.113213
8698.21,0.11951
8712.83,0.12468
8727.5,0.128943
8742.22,0.132839
8756.99,0.136224
8771.8,0.13865
8786.67,0.140649
8801.59,0.142454
8816.56,0.143945
8831.58,0.144981
8846.65,0.145587
8861.77,0.145762
8876.94,0.145454
8892.17,0.144926
8907.45,0.144239
8922.78,0.143207
8938.16,0.142027
8953.6,0.141
8969.09,0.139885
8984.64,0.138648
9000.23,0.137603
9015.89,0.136823
9031.59,0.13586
9047.36,0.134902
9063.17,0.133923
9079.05,0.132917
9094.97,0.131711
9110.96,0.130384
9127.0,0.129084
9143.1,0.127643
9159.25,0.125953
9175.46,0.123769
9191.73,0.121417
9208.06,0.119249
9224.44,0.116691
9240.88,0.113836
9257.38,0.11105
9273.94,0.108361
9290.56,0.105563
9307.24,0.102694
9323.98,0.10001
9340.78,0.097225
9357.64,0.094765
9374.57,0.092626
9391.55,0.090638
9408.59,0.088819
9425.7,0.087222
9442.87,0.085786
9460.1,0.084449
9477.4,0.083266
9494.75,0.082476
9512.17,0.081835
9529.66,0.081446
9547.21,0.081209
9564.83,0.08096
9582.5,0.080953
9600.25,0.080878
9618.06,0.081024
9635.94,0.081469
9653.88,0.081939
9671.89,0.082534
9689.97,0.083325
9708.12,0.084186
9726.33,0.085015
9744.62,0.085978
9762.97,0.08725
9781.39,0.088489
9799.88,0.089584
9818.44,0.090877
9837.07,0.092443
9855.77,0.094271
9874.54,0.095951
9893.39,0.097459
9912.3,0.099266
9931.29,0.101195
9950.36,0.103202
9969.49,0.104962
9988.7,0.106701
10007.98,0.108792
10027.34,0.111237
10046.77,0.113599
10066.28,0.115831
10085.87,0.118056
10105.53,0.120164
10125.26,0.122469
10145.08,0.124895
10164.97,0.127109
10184.94,0.129031
10204.99,0.130434
10225.12,0.131057
10245.33,0.129492
10265.61,0.125323
10285.98,0.12304
10306.43,0.127789
10326.96,0.136112
10347.57,0.143154
10368.27,0.14838
10389.05,0.152454
10409.91,0.155485
10430.86,0.158011
10451.88,0.160445
10473.0,0.163414
10494.2,0.166984
10515.49,0.170393
10536.86,0.173436
10558.32,0.176186
10579.87,0.178818
10601.5,0.181367
10623.23,0.183687
10645.04,0.185811
10666.94,0.187988
10688.94,0.190102
10711.02,0.191902
10733.2,0.193582
10755.47,0.195249
10777.83,0.19666
10800.28,0.198192
10822.83,0.199754
10845.47,0.201196
10868.21,0.202578
10891.04,0.203845
10913.97,0.205082
10936.99,0.206391
10960.12,0.207601
10983.34,0.208851
11006.66,0.209933
11030.07,0.211179
11053.59,0.212234
11077.21,0.21338
11100.93,0.214358
11124.75,0.215355
11148.68,0.216704
11172.71,0.218152
11196.84,0.21943
11221.07,0.22066
11245.41,0.22185
11269.86,0.223137
11294.41,0.224175
11319.07,0.225348
11343.84,0.226555
11368.72,0.227551
11393.7,0.228712
11418.8,0.230052
11444.01,0.231154
11469.33,0.231868
11494.76,0.232695
11520.3,0.233783
11545.96,0.234968
11571.73,0.235832
11597.62,0.236513
11623.62,0.237584
11649.74,0.238487
11675.98,0.239376
11702.34,0.240248
11728.81,0.241154
11755.41,0.241889
11782.13,0.242508
11808.96,0.242905
11835.92,0.243355
11863.01,0.243726
11890.22,0.244176
11917.55,0.244307
11945.01,0.244233
11972.6,0.244535
12000.31,0.244783
12028.16,0.24497
12056.13,0.245106
12084.23,0.244972
12112.46,0.24476
12140.83,0.244586
12169.33,0.244509
12197.96,0.244414
12226.73,0.244311
12255.64,0.2441
12284.68,0.243618
12313.86,0.243152
12343.18,0.242599
12372.64,0.241865
12402.24,0.24124
12431.98,0.240928
12461.86,0.240687
12491.89,0.240029
12522.07,0.238984
12552.38,0.23819
12582.85,0.237522
12613.47,0.236715
12644.23,0.236098
12675.15,0.235349
12706.21,0.23461
12737.43,0.233965
12768.81,0.233308
12800.33,0.232779
12832.02,0.232036
12863.86,0.2309
12895.86,0.229974
12928.02,0.229283
12960.34,0.228442
12992.82,0.227578
13025.46,0.226744
13058.27,0.225969
13091.25,0.225292
13124.39,0.224167
13157.7,0.222894
13191.18,0.222018
13224.83,0.221392
13258.66,0.220362
13292.65,0.219102
13326.83,0.217849
13361.17,0.216523
13395.7,0.215271
13430.4,0.214131
13465.29,0.212824
13500.35,0.21135
13535.6,0.209924
13571.03,0.208594
13606.65,0.2069
13642.46,0.205128
13678.46,0.203054
13714.64,0.200973
13751.02,0.199211
13787.59,0.19733
13824.36,0.195237
13861.32,0.193228
13898.49,0.191133
13935.85,0.188565
13973.41,0.186012
14011.17,0.183606
14049.15,0.18136
14087.32,0.179244
14125.71,0.176977
14164.3,0.174634
14203.11,0.172785
14242.13,0.170681
14281.36,0.168084
14320.81,0.16597
14360.49,0.164089
14400.38,0.162263
14440.49,0.16042
14480.82,0.158819
14521.39,0.157104
14562.18,0.155024
14603.2,0.153182
14644.45,0.151336
14685.93,0.149208
14727.66,0.147405
14769.62,0.145481
14811.81,0.143322
14854.25,0.1414
14896.94,0.139532
14939.87,0.137121
14983.05,0.134541
15026.48,0.131966
15070.16,0.129166
15114.1,0.126129
15158.29,0.12263
15202.74,0.118832
15247.46,0.114862
15292.43,0.109955
15337.68,0.104349
15383.19,0.098044
15428.97,0.091398
15475.03,0.08381
15521.36,0.074993
15567.97,0.065268
15614.87,0.055113
15662.04,0.044693
15709.5,0.035049
15757.25,0.027472
15805.29,0.023496
15853.62,0.026205
15902.26,0.038638
15951.19,0.059982
16000.42,0.08392
16049.95,0.102408
16099.8,0.110826
16149.95,0.111305
16200.42,0.108338
16251.21,0.104803
16302.31,0.101921
16353.74,0.097651
16405.49,0.09209
16457.57,0.086587
16509.98,0.083176
16562.73,0.082237
16615.82,0.08261
16669.24,0.083936
16723.02,0.086149
16777.14,0.088243
16831.61,0.090261
16886.43,0.092748
16941.62,0.095383
16997.16,0.097719
17053.08,0.09971
17109.36,0.101233
17166.01,0.10268
17223.04,0.104305
17280.45,0.105894
17338.24,0.107028
17396.43,0.107905
17455.0,0.109271
17513.97,0.110251
17573.34,0.111109
17633.11,0.112004
17693.29,0.112927
17753.89,0.113966
17814.9,0.114148
17876.33,0.114456
17938.18,0.11479
18000.47,0.115148
18063.19,0.115472
18126.35,0.115437
18189.95,0.115508
18254.0,0.11559
18318.5,0.115773
18383.46,0.115986
18448.88,0.116103
18514.77,0.11632
18581.13,0.116719
18647.97,0.116709
18715.29,0.117217
18783.1,0.117232
18851.4,0.116599
18920.2,0.116357
18989.51,0.11609
19059.32,0.115532
19129.65,0.114795
19200.5,0.114929
19271.88,0.114788
19343.79,0.11448
19416.24,0.11443
19489.23,0.11356
19562.77,0.112585
19636.88,0.112152
19711.54,0.112133
19786.78,0.112423
19862.59,0.111879
19938.98,0.111256
20015.96,0.111094
20093.55,0.110969
20171.73,0.109924
20250.53,0.10861
20329.94,0.108396
20409.98,0.10772
20490.65,0.106765
20571.96,0.106096
20653.92,0.105605
20736.54,0.105532
20819.82,0.104323
20903.77,0.102677
20988.4,0.101398
21073.72,0.10037
21159.73,0.099185
21246.46,0.098297
21333.89,0.09693
21422.04,0.095895
21510.93,0.094842
21600.56,0.09305
21690.94,0.092045
21782.08,0.091319
21873.99,0.089384
21966.67,0.087408
22060.15,0.086499
22154.42,0.085997
22249.51,0.085195
22345.41,0.084453
22442.14,0.083574
22539.72,0.081522
22638.14,0.079789
22737.43,0.078207
22837.6,0.075852
22938.65,0.073991
23040.6,0.072769
23143.46,0.072864
23247.24,0.072401
23351.96,0.070571
23457.63,0.069292
23564.25,0.066407
23671.85,0.064166
23780.44,0.063123
23890.02,0.062394
24000.63,0.062161
24112.26,0.059595
24224.93,0.05807
24338.66,0.056595
24453.47,0.055461
24569.36,0.055863
24686.36,0.054616
24804.47,0.052723
24923.73,0.050851
25044.13,0.049211
25165.71,0.047342
25288.46,0.047605
25412.43,0.048678
25537.61,0.04698
25664.04,0.045763
25791.72,0.045622
25920.68,0.045807
