Database of Origin,University of Winnipeg Spectrophotometer Facility
Sample Description,8. Sulfates: RELAB + Nicolet spectra / Spectra all made consistently merged: Jan. / 10 / 2005
Date Added,2016-07-15 22:05:55.833772

Data ID,RPN_SUL_61          
Sample ID,SPT147
Mineral Name,Anglesite
Grain Size,<45
Viewing Geometry,30 / 0 | 30
Resolution,5 / 1.3-129
Material Class,Sulfate

Wavelength
305.0,0.72932
310.0,0.73883
315.0,0.74554
320.0,0.75013
325.0,0.75666
330.0,0.76
335.0,0.7644
340.0,0.7691
345.0,0.774
350.0,0.777
355.0,0.78175
360.0,0.78682
365.0,0.79055
370.0,0.79348
375.0,0.7982
380.0,0.8014
385.0,0.80483
390.0,0.80796
395.0,0.81133
400.0,0.81216
405.0,0.81432
410.0,0.81667
415.0,0.81808
420.0,0.82046
425.0,0.8223
430.0,0.82516
435.0,0.82617
440.0,0.82863
445.0,0.82987
450.0,0.83202
455.0,0.83217
460.0,0.83409
465.0,0.83476
470.0,0.83574
475.0,0.83643
480.0,0.83704
485.0,0.83877
490.0,0.83979
495.0,0.84092
500.0,0.84216
505.0,0.84298
510.0,0.84432
515.0,0.84473
520.0,0.84629
525.0,0.84685
530.0,0.84796
535.0,0.84814
540.0,0.84956
545.0,0.84996
550.0,0.85116
555.0,0.85059
560.0,0.852
565.0,0.85186
570.0,0.85312
575.0,0.85313
580.0,0.85379
585.0,0.8538
590.0,0.85457
595.0,0.85391
600.0,0.85454
605.0,0.85378
610.0,0.85473
615.0,0.85436
620.0,0.85532
625.0,0.85438
630.0,0.85566
635.0,0.85567
640.0,0.85685
645.0,0.85702
650.0,0.85704
655.0,0.85683
660.0,0.85696
665.0,0.85654
670.0,0.85665
675.0,0.85683
680.0,0.85805
685.0,0.85873
690.0,0.86028
695.0,0.86172
700.0,0.86419
705.0,0.86396
710.0,0.86587
715.0,0.86738
720.0,0.86812
725.0,0.86825
730.0,0.86891
735.0,0.86976
740.0,0.87064
745.0,0.87043
750.0,0.87165
755.0,0.87196
760.0,0.87187
765.0,0.87275
770.0,0.87263
775.0,0.87353
780.0,0.87305
785.0,0.87421
790.0,0.87376
795.0,0.87481
800.0,0.87496
805.0,0.87542
810.0,0.87505
815.0,0.87547
820.0,0.87592
825.0,0.87631
830.0,0.87593
835.0,0.8761
840.0,0.87658
845.0,0.87713
850.0,0.87731
855.0,0.87768
860.0,0.87738
865.0,0.87763
870.0,0.87751
875.0,0.87786
880.0,0.87778
885.0,0.87829
890.0,0.87827
895.0,0.87892
900.0,0.87947
905.0,0.87998
910.0,0.88015
915.0,0.88116
920.0,0.88046
925.0,0.88125
930.0,0.88095
935.0,0.88126
940.0,0.88201
945.0,0.88197
950.0,0.88184
955.0,0.88136
960.0,0.88308
965.0,0.88217
970.0,0.88216
975.0,0.88324
980.0,0.88348
985.0,0.88363
990.0,0.88332
995.0,0.88332
1000.0,0.88342
1005.0,0.88269
1010.0,0.883
1015.0,0.884
1020.0,0.88332
1025.0,0.88425
1030.0,0.88452
1035.0,0.88447
1040.0,0.88402
1045.0,0.88473
1050.0,0.88438
1055.0,0.88484
1060.0,0.88422
1065.0,0.88459
1070.0,0.88487
1075.0,0.8858
1080.0,0.88546
1085.0,0.88528
1090.0,0.88601
1095.0,0.88539
1100.0,0.88605
1105.0,0.88541
1110.0,0.88592
1115.0,0.88542
1120.0,0.88572
1125.0,0.88567
1130.0,0.88521
1135.0,0.88478
1140.0,0.88531
1145.0,0.88534
1150.0,0.88538
1155.0,0.88553
1160.0,0.88644
1165.0,0.88579
1170.0,0.88676
1175.0,0.88673
1180.0,0.88638
1185.0,0.88679
1190.0,0.88734
1195.0,0.88681
1200.0,0.88659
1205.0,0.8865
1210.0,0.88726
1215.0,0.88697
1220.0,0.88738
1225.0,0.88825
1230.0,0.88783
1235.0,0.8884
1240.0,0.88853
1245.0,0.88818
1250.0,0.88867
1255.0,0.88954
1260.0,0.88951
1265.0,0.889
1270.0,0.88903
1275.0,0.88784
1280.0,0.88848
1285.0,0.88806
1290.0,0.8885
1295.0,0.88837
1300.0,0.88812
1305.0,0.88851
1310.0,0.88872
1315.0,0.88818
1320.0,0.8883
1325.0,0.88894
1330.0,0.88842
1335.0,0.88881
1340.0,0.88892
1345.0,0.88853
1350.0,0.88816
1355.0,0.88758
1360.0,0.88711
1365.0,0.88715
1370.0,0.88746
1375.0,0.88701
1380.0,0.88705
1385.0,0.88796
1390.0,0.88849
1395.0,0.88784
1400.0,0.88795
1405.0,0.8883
1410.0,0.88769
1415.0,0.88838
1420.0,0.88838
1425.0,0.88736
1430.0,0.88759
1435.0,0.88662
1440.0,0.88784
1445.0,0.88754
1450.0,0.88681
1455.0,0.88651
1460.0,0.88649
1465.0,0.886
1470.0,0.88654
1475.0,0.88655
1480.0,0.8866
1485.0,0.88703
1490.0,0.88693
1495.0,0.88731
1500.0,0.88707
1505.0,0.88767
1510.0,0.88745
1515.0,0.88816
1520.0,0.88862
1525.0,0.88905
1530.0,0.88861
1535.0,0.88901
1540.0,0.88876
1545.0,0.88882
1550.0,0.88873
1555.0,0.88942
1560.0,0.88923
1565.0,0.88971
1570.0,0.88952
1575.0,0.88932
1580.0,0.88948
1585.0,0.88926
1590.0,0.88911
1595.0,0.88952
1600.0,0.88925
1605.0,0.88987
1610.0,0.88982
1615.0,0.89025
1620.0,0.88993
1625.0,0.88948
1630.0,0.88931
1635.0,0.8894
1640.0,0.88927
1645.0,0.89019
1650.0,0.88981
1655.0,0.8902
1660.0,0.89018
1665.0,0.8899
1670.0,0.88973
1675.0,0.8908
1680.0,0.88999
1685.0,0.89034
1690.0,0.88978
1695.0,0.89015
1700.0,0.89161
1705.0,0.8901
1710.0,0.89027
1715.0,0.89047
1720.0,0.88984
1725.0,0.89017
1730.0,0.88976
1735.0,0.88871
1740.0,0.88865
1745.0,0.88844
1750.0,0.88906
1755.0,0.88938
1760.0,0.88935
1765.0,0.88843
1770.0,0.8899
1775.0,0.89051
1780.0,0.88929
1785.0,0.89098
1790.0,0.89006
1795.0,0.8896
1800.0,0.88999
1805.0,0.8899
1810.0,0.88943
1815.0,0.88927
1820.0,0.8897
1825.0,0.88945
1830.0,0.88978
1835.0,0.89018
1840.0,0.88951
1845.0,0.88936
1850.0,0.88968
1855.0,0.88935
1860.0,0.88913
1865.0,0.88886
1870.0,0.88863
1875.0,0.88829
1880.0,0.88746
1885.0,0.88671
1890.0,0.88646
1895.0,0.88507
1900.0,0.88478
1905.0,0.88393
1910.0,0.88385
1915.0,0.88352
1920.0,0.88286
1925.0,0.88227
1930.0,0.88088
1935.0,0.88056
1940.0,0.88085
1945.0,0.88042
1950.0,0.8799
1955.0,0.8782
1960.0,0.87924
1965.0,0.88079
1970.0,0.88026
1975.0,0.88029
1980.0,0.88097
1985.0,0.88121
1990.0,0.88193
1995.0,0.88156
2000.0,0.88116
2005.0,0.88349
2010.0,0.88227
2015.0,0.88263
2020.0,0.88228
2025.0,0.883
2030.0,0.88142
2035.0,0.88103
2040.0,0.88107
2045.0,0.88183
2050.0,0.88149
2055.0,0.88222
2060.0,0.88174
2065.0,0.88097
2070.0,0.88181
2075.0,0.88124
2080.0,0.88124
2085.0,0.88002
2090.0,0.88162
2095.0,0.88175
2100.0,0.88168
2105.0,0.88237
2110.0,0.88324
2115.0,0.88267
2120.0,0.8828
2125.0,0.88434
2130.0,0.88328
2135.0,0.88361
2140.0,0.88272
2145.0,0.88396
2150.0,0.88304
2155.0,0.88322
2160.0,0.8836
2165.0,0.88207
2170.0,0.88238
2175.0,0.88234
2180.0,0.88199
2185.0,0.88135
2190.0,0.88309
2195.0,0.88236
2200.0,0.88148
2205.0,0.8822
2210.0,0.88187
2215.0,0.88193
2220.0,0.88088
2225.0,0.88089
2230.0,0.87924
2235.0,0.87888
2240.0,0.87964
2245.0,0.87889
2250.0,0.87803
2255.0,0.87814
2260.0,0.87843
2265.0,0.87784
2270.0,0.87746
2275.0,0.87841
2280.0,0.87693
2285.0,0.87806
2290.0,0.87724
2295.0,0.87684
2300.0,0.87605
2305.0,0.87456
2310.0,0.87439
2315.0,0.87471
2320.0,0.87354
2325.0,0.8732
2330.0,0.87262
2335.0,0.87234
2340.0,0.87138
2345.0,0.87045
2350.0,0.86976
2355.0,0.86839
2360.0,0.86816
2365.0,0.86679
2370.0,0.86651
2375.0,0.86565
2380.0,0.86313
2385.0,0.86458
2390.0,0.8613
2395.0,0.86244
2400.0,0.86061
2405.0,0.85979
2410.0,0.85844
2415.0,0.85672
2420.0,0.85506
2425.0,0.85312
2430.0,0.85321
2435.0,0.8533
2440.0,0.85201
2445.0,0.85142
2450.0,0.85036
2455.0,0.84731
2460.0,0.84675
2465.0,0.84603
2470.0,0.84668
2475.0,0.8471
2480.0,0.84961
2485.0,0.84857
2490.0,0.84846
2495.0,0.85069
2500.0,0.84819
2505.0,0.8502
2510.0,0.85152
2515.0,0.85278
2520.0,0.85282
2525.0,0.85475
2530.0,0.85603
2535.0,0.85525
2540.0,0.85606
2545.0,0.85768
2550.0,0.85536
2555.0,0.85427
2560.0,0.8525
2565.13,0.85116
2570.22,0.84909
2575.33,0.84716
2580.46,0.84511
2581.74,0.84463
2583.03,0.84422
2584.31,0.84367
2585.6,0.84324
2586.89,0.8428
2588.19,0.84238
2589.48,0.842
2590.77,0.84156
2592.07,0.84119
2593.36,0.84075
2594.66,0.84014
2595.96,0.83972
2597.26,0.83936
2598.56,0.83883
2599.87,0.83828
2601.17,0.83769
2602.48,0.83709
2603.78,0.83646
2605.09,0.83583
2606.4,0.8352
2607.71,0.83462
2609.03,0.83401
2610.34,0.83331
2611.66,0.83271
2612.97,0.83215
2614.29,0.83158
2615.61,0.83117
2616.93,0.83073
2618.25,0.83048
2619.57,0.83015
2620.9,0.82971
2622.22,0.82948
2623.55,0.82935
2624.88,0.82925
2626.21,0.82914
2627.54,0.82909
2628.87,0.82922
2630.21,0.82892
2631.54,0.82865
2632.88,0.82846
2634.21,0.82807
2635.55,0.82763
2636.89,0.82712
2638.24,0.8265
2639.58,0.82584
2640.92,0.82498
2642.27,0.82418
2643.62,0.82348
2644.97,0.82259
2646.32,0.82154
2647.67,0.82066
2649.02,0.81975
2650.38,0.81901
2651.73,0.81845
2653.09,0.81809
2654.45,0.81794
2655.81,0.81805
2657.17,0.81851
2658.53,0.81923
2659.89,0.82024
2661.26,0.82155
2662.63,0.82291
2664.0,0.82454
2665.36,0.82632
2666.74,0.82821
2668.11,0.83003
2669.48,0.83188
2670.86,0.83337
2672.23,0.83518
2673.61,0.83673
2674.99,0.83812
2676.37,0.83926
2677.76,0.84032
2679.14,0.84131
2680.52,0.84228
2681.91,0.84303
2683.3,0.84357
2684.69,0.84404
2686.08,0.84441
2687.47,0.84469
2688.87,0.84491
2690.26,0.84494
2691.66,0.8449
2693.06,0.84484
2694.46,0.84463
2695.86,0.84436
2697.26,0.84397
2698.66,0.84353
2700.07,0.84293
2701.48,0.84209
2702.89,0.8413
2704.3,0.84069
2705.71,0.84024
2707.12,0.84004
2708.53,0.83974
2709.95,0.83943
2711.37,0.83915
2712.79,0.83897
2714.21,0.83877
2715.63,0.83841
2717.05,0.83785
2718.48,0.83727
2719.9,0.83678
2721.33,0.83657
2722.76,0.83675
2724.19,0.83669
2725.62,0.8364
2727.06,0.83601
2728.49,0.83538
2729.93,0.83472
2731.37,0.83414
2732.81,0.83343
2734.25,0.83252
2735.69,0.83165
2737.14,0.83074
2738.58,0.82973
2740.03,0.82871
2741.48,0.82768
2742.93,0.82656
2744.38,0.82545
2745.83,0.82439
2747.29,0.82328
2748.75,0.822
2750.2,0.8207
2751.66,0.81925
2753.13,0.81779
2754.59,0.81633
2756.05,0.81478
2757.52,0.81345
2758.99,0.81209
2760.46,0.81062
2761.93,0.80922
2763.4,0.80787
2764.87,0.80655
2766.35,0.80534
2767.82,0.80408
2769.3,0.80274
2770.78,0.80153
2772.26,0.80049
2773.75,0.79961
2775.23,0.79875
2776.72,0.798
2778.21,0.79726
2779.7,0.79653
2781.19,0.79582
2782.68,0.79502
2784.18,0.79398
2785.67,0.79293
2787.17,0.79175
2788.67,0.79055
2790.17,0.78942
2791.67,0.7882
2793.18,0.78687
2794.68,0.78549
2796.19,0.78402
2797.7,0.78254
2799.21,0.7809
2800.72,0.77924
2802.24,0.77756
2803.75,0.77595
2805.27,0.77434
2806.79,0.77282
2808.31,0.77138
2809.83,0.77004
2811.35,0.76877
2812.88,0.76755
2814.41,0.7664
2815.93,0.7653
2817.46,0.76429
2819.0,0.76346
2820.53,0.76268
2822.07,0.76181
2823.6,0.76082
2825.14,0.75983
2826.68,0.75896
2828.22,0.75801
2829.77,0.75692
2831.31,0.7559
2832.86,0.75483
2834.41,0.75381
2835.96,0.75276
2837.51,0.75169
2839.07,0.75053
2840.62,0.74954
2842.18,0.74854
2843.74,0.74733
2845.3,0.7462
2846.86,0.74516
2848.43,0.74417
2849.99,0.74322
2851.56,0.74226
2853.13,0.74134
2854.7,0.74041
2856.27,0.7395
2857.85,0.73866
2859.42,0.73775
2861.0,0.73678
2862.58,0.73596
2864.16,0.73506
2865.75,0.73409
2867.33,0.73317
2868.92,0.7323
2870.51,0.73138
2872.1,0.7304
2873.69,0.7294
2875.28,0.72842
2876.88,0.72736
2878.48,0.72625
2880.07,0.72503
2881.68,0.72374
2883.28,0.72235
2884.88,0.72081
2886.49,0.71917
2888.1,0.7174
2889.71,0.71541
2891.32,0.71331
2892.93,0.71106
2894.55,0.70879
2896.16,0.70668
2897.78,0.70485
2899.4,0.70347
2901.03,0.70285
2902.65,0.70282
2904.28,0.70322
2905.91,0.70398
2907.54,0.70492
2909.17,0.70597
2910.8,0.70691
2912.44,0.7076
2914.07,0.70846
2915.71,0.70875
2917.35,0.70892
2918.99,0.70898
2920.64,0.70893
2922.29,0.70882
2923.93,0.70869
2925.58,0.70855
2927.24,0.70839
2928.89,0.70829
2930.55,0.70811
2932.2,0.70791
2933.86,0.70772
2935.52,0.70757
2937.19,0.70746
2938.85,0.70741
2940.52,0.70735
2942.19,0.70736
2943.86,0.70738
2945.53,0.70746
2947.21,0.70755
2948.88,0.70754
2950.56,0.70752
2952.24,0.70766
2953.92,0.70779
2955.61,0.70785
2957.29,0.70795
2958.98,0.70809
2960.67,0.7082
2962.36,0.70832
2964.06,0.70844
2965.75,0.70851
2967.45,0.70851
2969.15,0.70857
2970.85,0.70863
2972.55,0.70869
2974.26,0.70874
2975.97,0.7088
2977.68,0.70891
2979.39,0.70901
2981.1,0.70912
2982.82,0.70925
2984.53,0.70932
2986.25,0.70939
2987.97,0.70949
2989.7,0.70957
2991.42,0.7097
2993.15,0.70991
2994.88,0.71005
2996.61,0.71015
2998.34,0.71026
3000.08,0.71043
3001.82,0.71058
3003.55,0.71073
3005.3,0.71084
3007.04,0.71101
3008.78,0.71117
3010.53,0.71133
3012.28,0.71145
3014.03,0.71156
3015.79,0.71171
3017.54,0.71186
3019.3,0.71206
3021.06,0.71223
3022.82,0.7124
3024.58,0.71256
3026.35,0.71269
3028.12,0.71284
3029.89,0.71302
3031.66,0.71318
3033.43,0.71334
3035.21,0.71354
3036.99,0.71371
3038.77,0.71393
3040.55,0.71412
3042.33,0.71425
3044.12,0.71438
3045.91,0.71456
3047.7,0.71479
3049.49,0.71498
3051.29,0.71514
3053.08,0.71534
3054.88,0.71555
3056.68,0.71573
3058.49,0.7159
3060.29,0.71607
3062.1,0.7162
3063.91,0.71634
3065.72,0.7165
3067.54,0.71674
3069.35,0.71699
3071.17,0.71717
3072.99,0.71726
3074.81,0.71741
3076.64,0.71762
3078.47,0.71777
3080.29,0.7179
3082.13,0.71808
3083.96,0.7182
3085.79,0.71826
3087.63,0.71832
3089.47,0.71842
3091.31,0.71853
3093.16,0.7186
3095.01,0.7186
3096.85,0.71867
3098.71,0.71869
3100.56,0.71867
3102.41,0.7187
3104.27,0.71878
3106.13,0.71888
3107.99,0.71895
3109.86,0.719
3111.73,0.71911
3113.59,0.71926
3115.47,0.71939
3117.34,0.71957
3119.21,0.71979
3121.09,0.71993
3122.97,0.72003
3124.86,0.72011
3126.74,0.72025
3128.63,0.72033
3130.52,0.72042
3132.41,0.72057
3134.3,0.72073
3136.2,0.72082
3138.1,0.72091
3140.0,0.72113
3141.9,0.72129
3143.81,0.72132
3145.71,0.72136
3147.62,0.7214
3149.54,0.72143
3151.45,0.72152
3153.37,0.72158
3155.29,0.72157
3157.21,0.72156
3159.13,0.72157
3161.06,0.72154
3162.99,0.72152
3164.92,0.72149
3166.85,0.72141
3168.79,0.7213
3170.72,0.72123
3172.67,0.72119
3174.61,0.72118
3176.55,0.72116
3178.5,0.72105
3180.45,0.72095
3182.4,0.72092
3184.36,0.72088
3186.32,0.72074
3188.27,0.72056
3190.24,0.72041
3192.2,0.72023
3194.17,0.71998
3196.14,0.71972
3198.11,0.71948
3200.08,0.7192
3202.06,0.71887
3204.04,0.71844
3206.02,0.71793
3208.0,0.71744
3209.99,0.71681
3211.98,0.71605
3213.97,0.71523
3215.96,0.71429
3217.96,0.71321
3219.96,0.71214
3221.96,0.71102
3223.96,0.70986
3225.97,0.70869
3227.98,0.70758
3229.99,0.70647
3232.0,0.70541
3234.02,0.7044
3236.04,0.70351
3238.06,0.70282
3240.08,0.70247
3242.11,0.70241
3244.14,0.70257
3246.17,0.70298
3248.2,0.70356
3250.24,0.70419
3252.28,0.70484
3254.32,0.70546
3256.37,0.70598
3258.41,0.70643
3260.46,0.70689
3262.51,0.70722
3264.57,0.70753
3266.63,0.70794
3268.69,0.70834
3270.75,0.70878
3272.81,0.70929
3274.88,0.70976
3276.95,0.71022
3279.02,0.71066
3281.1,0.71109
3283.18,0.71149
3285.26,0.71177
3287.34,0.71196
3289.43,0.71209
3291.51,0.71214
3293.61,0.71211
3295.7,0.71212
3297.8,0.71206
3299.9,0.71191
3302.0,0.71176
3304.1,0.71154
3306.21,0.71123
3308.32,0.71084
3310.43,0.71046
3312.55,0.71004
3314.66,0.7096
3316.79,0.70922
3318.91,0.70874
3321.03,0.70815
3323.16,0.70754
3325.29,0.70693
3327.43,0.70626
3329.57,0.70547
3331.71,0.70466
3333.85,0.70378
3335.99,0.70281
3338.14,0.70174
3340.29,0.70061
3342.45,0.6994
3344.6,0.69812
3346.76,0.69681
3348.92,0.69546
3351.09,0.694
3353.26,0.69244
3355.43,0.69089
3357.6,0.68929
3359.78,0.6878
3361.96,0.68662
3364.14,0.68571
3366.32,0.68515
3368.51,0.68493
3370.7,0.68499
3372.89,0.68528
3375.09,0.68577
3377.29,0.68644
3379.49,0.68727
3381.69,0.68821
3383.9,0.68906
3386.11,0.68971
3388.32,0.69017
3390.54,0.69045
3392.76,0.69039
3394.98,0.68998
3397.21,0.68932
3399.43,0.6885
3401.66,0.68746
3403.9,0.68621
3406.13,0.68484
3408.37,0.68343
3410.61,0.6821
3412.86,0.68079
3415.11,0.6795
3417.36,0.67834
3419.61,0.67733
3421.87,0.67635
3424.13,0.67536
3426.39,0.67435
3428.66,0.67322
3430.93,0.67195
3433.2,0.67062
3435.48,0.66915
3437.76,0.66753
3440.04,0.6658
3442.32,0.66411
3444.61,0.66249
3446.9,0.66102
3449.19,0.6595
3451.49,0.65785
3453.79,0.656
3456.09,0.65406
3458.4,0.6521
3460.7,0.65012
3463.02,0.64804
3465.33,0.64576
3467.65,0.64323
3469.97,0.64064
3472.29,0.63802
3474.62,0.63524
3476.95,0.6324
3479.29,0.62958
3481.62,0.6266
3483.96,0.62342
3486.3,0.62007
3488.65,0.61656
3491.0,0.61296
3493.35,0.60928
3495.71,0.6055
3498.07,0.60181
3500.43,0.59808
3502.79,0.59443
3505.16,0.59086
3507.53,0.5872
3509.91,0.5835
3512.29,0.57991
3514.67,0.57639
3517.05,0.57297
3519.44,0.5697
3521.83,0.56657
3524.23,0.56353
3526.62,0.56062
3529.02,0.55783
3531.43,0.55523
3533.83,0.5528
3536.24,0.55055
3538.66,0.5483
3541.08,0.54614
3543.5,0.54418
3545.92,0.54234
3548.35,0.54057
3550.78,0.53889
3553.21,0.53736
3555.65,0.53595
3558.09,0.53458
3560.53,0.53329
3562.98,0.53209
3565.43,0.531
3567.88,0.53009
3570.34,0.52944
3572.8,0.52896
3575.27,0.52863
3577.73,0.52835
3580.2,0.5281
3582.68,0.52781
3585.16,0.52782
3587.64,0.52824
3590.12,0.52895
3592.61,0.52971
3595.1,0.53032
3597.6,0.53055
3600.09,0.53039
3602.6,0.53033
3605.1,0.53091
3607.61,0.53236
3610.12,0.53437
3612.64,0.53629
3615.16,0.53766
3617.68,0.53834
3620.21,0.53842
3622.74,0.53794
3625.27,0.53707
3627.81,0.53597
3630.35,0.53457
3632.89,0.53298
3635.44,0.53136
3637.99,0.52984
3640.54,0.52855
3643.1,0.52758
3645.66,0.52713
3648.23,0.52738
3650.8,0.52843
3653.37,0.53026
3655.95,0.53298
3658.53,0.53652
3661.11,0.54075
3663.7,0.54558
3666.29,0.55102
3668.89,0.55687
3671.48,0.56304
3674.09,0.56941
3676.69,0.57594
3679.3,0.58241
3681.91,0.58885
3684.53,0.59514
3687.15,0.60121
3689.78,0.60702
3692.4,0.61253
3695.04,0.61771
3697.67,0.62261
3700.31,0.62711
3702.95,0.6313
3705.6,0.63514
3708.25,0.63889
3710.91,0.64239
3713.56,0.64543
3716.23,0.64825
3718.89,0.651
3721.56,0.65353
3724.23,0.65578
3726.91,0.65783
3729.59,0.65979
3732.28,0.66161
3734.97,0.66329
3737.66,0.66473
3740.36,0.66616
3743.06,0.66761
3745.76,0.66918
3748.47,0.67078
3751.18,0.67235
3753.9,0.67391
3756.62,0.67546
3759.34,0.67705
3762.07,0.6786
3764.8,0.68014
3767.54,0.68174
3770.28,0.68334
3773.02,0.68495
3775.77,0.68652
3778.52,0.68797
3781.28,0.68933
3784.04,0.69073
3786.8,0.69221
3789.57,0.69362
3792.34,0.69473
3795.12,0.69546
3797.9,0.69579
3800.69,0.69565
3803.47,0.69519
3806.27,0.69489
3809.06,0.695
3811.86,0.69561
3814.67,0.69666
3817.48,0.69789
3820.29,0.69914
3823.11,0.7003
3825.93,0.70141
3828.76,0.70254
3831.59,0.70357
3834.42,0.70458
3837.26,0.70556
3840.1,0.7064
3842.95,0.70721
3845.8,0.70801
3848.65,0.70859
3851.51,0.709
3854.38,0.70935
3857.24,0.70956
3860.12,0.70964
3862.99,0.70963
3865.87,0.70946
3868.76,0.70917
3871.65,0.70873
3874.54,0.70813
3877.44,0.70743
3880.34,0.70658
3883.25,0.70554
3886.16,0.70433
3889.07,0.70289
3891.99,0.70121
3894.92,0.69928
3897.85,0.6971
3900.78,0.69449
3903.72,0.6915
3906.66,0.68806
3909.6,0.68419
3912.55,0.67982
3915.51,0.6749
3918.47,0.66946
3921.43,0.66367
3924.4,0.65759
3927.38,0.65131
3930.35,0.64497
3933.33,0.63872
3936.32,0.63257
3939.31,0.62668
3942.31,0.62107
3945.31,0.61589
3948.31,0.61117
3951.32,0.60694
3954.34,0.60313
3957.35,0.59965
3960.38,0.59652
3963.41,0.59379
3966.44,0.59137
3969.48,0.58923
3972.52,0.58732
3975.56,0.58566
3978.61,0.58417
3981.67,0.58282
3984.73,0.58159
3987.8,0.5805
3990.87,0.57947
3993.94,0.57848
3997.02,0.57742
4000.1,0.5762
4003.19,0.57488
4006.29,0.57344
4009.39,0.57177
4012.49,0.56989
4015.6,0.56773
4018.71,0.56533
4021.83,0.5627
4024.95,0.55995
4028.08,0.5571
4031.21,0.5543
4034.35,0.55163
4037.49,0.54923
4040.64,0.54713
4043.79,0.54541
4046.94,0.54407
4050.11,0.54299
4053.27,0.5421
4056.44,0.54133
4059.62,0.54056
4062.8,0.53972
4065.99,0.53873
4069.18,0.53749
4072.38,0.53595
4075.58,0.53403
4078.78,0.53169
4082.0,0.52896
4085.21,0.52574
4088.43,0.52204
4091.66,0.51779
4094.89,0.51301
4098.13,0.50771
4101.37,0.50182
4104.62,0.49541
4107.87,0.48854
4111.13,0.48131
4114.39,0.4738
4117.66,0.46604
4120.93,0.45811
4124.21,0.45
4127.5,0.44183
4130.79,0.43375
4134.08,0.426
4137.38,0.41899
4140.68,0.41328
4143.99,0.40932
4147.31,0.40742
4150.63,0.40769
4153.95,0.40992
4157.29,0.41394
4160.62,0.41948
4163.96,0.42638
4167.31,0.43439
4170.66,0.44309
4174.02,0.452
4177.39,0.46073
4180.75,0.46891
4184.13,0.4762
4187.51,0.48241
4190.89,0.4875
4194.28,0.4915
4197.68,0.49448
4201.08,0.49669
4204.49,0.49841
4207.9,0.49963
4211.32,0.50038
4214.74,0.50054
4218.17,0.50016
4221.61,0.49939
4225.05,0.4983
4228.5,0.49694
4231.95,0.49555
4235.4,0.49417
4238.87,0.49288
4242.34,0.49168
4245.81,0.4907
4249.29,0.49014
4252.78,0.48978
4256.27,0.48887
4259.77,0.48679
4263.27,0.48363
4266.78,0.48144
4270.29,0.48248
4273.81,0.48459
4277.34,0.48433
4280.87,0.48392
4284.41,0.48479
4287.95,0.48273
4291.5,0.47776
4295.06,0.48048
4298.62,0.49052
4302.19,0.49701
4305.76,0.50003
4309.34,0.50177
4312.92,0.50331
4316.52,0.50474
4320.11,0.5062
4323.72,0.50749
4327.32,0.50873
4330.94,0.50982
4334.56,0.51086
4338.19,0.51176
4341.82,0.51267
4345.46,0.51342
4349.11,0.51409
4352.76,0.51464
4356.42,0.51515
4360.08,0.51549
4363.75,0.51573
4367.43,0.51581
4371.11,0.51585
4374.8,0.51579
4378.49,0.51568
4382.19,0.51543
4385.9,0.51508
4389.61,0.51459
4393.33,0.51409
4397.06,0.51347
4400.79,0.51276
4404.53,0.5119
4408.28,0.51106
4412.03,0.5101
4415.79,0.50909
4419.55,0.50808
4423.32,0.50711
4427.1,0.50603
4430.88,0.50491
4434.68,0.50373
4438.47,0.50252
4442.28,0.50125
4446.08,0.50002
4449.9,0.49873
4453.72,0.4974
4457.55,0.49598
4461.39,0.4945
4465.23,0.4929
4469.08,0.49123
4472.94,0.48944
4476.8,0.48766
4480.67,0.48581
4484.55,0.48392
4488.43,0.48202
4492.32,0.48014
4496.21,0.47826
4500.12,0.47645
4504.03,0.47464
4507.94,0.47286
4511.87,0.47106
4515.8,0.46927
4519.73,0.46743
4523.68,0.46555
4527.63,0.46354
4531.59,0.46143
4535.55,0.45917
4539.52,0.45676
4543.5,0.45416
4547.49,0.45142
4551.48,0.44846
4555.48,0.44529
4559.49,0.44187
4563.5,0.43827
4567.52,0.43449
4571.55,0.43059
4575.58,0.4266
4579.63,0.42265
4583.67,0.41871
4587.73,0.41483
4591.79,0.41103
4595.86,0.40734
4599.94,0.4037
4604.03,0.4001
4608.12,0.3965
4612.22,0.39291
4616.33,0.38933
4620.44,0.38573
4624.56,0.38214
4628.69,0.37867
4632.83,0.37541
4636.97,0.37244
4641.12,0.3697
4645.28,0.36711
4649.45,0.36474
4653.62,0.36266
4657.8,0.36076
4661.99,0.35893
4666.19,0.35724
4670.39,0.35568
4674.6,0.35417
4678.82,0.35265
4683.05,0.35103
4687.28,0.34928
4691.52,0.34744
4695.77,0.34554
4700.03,0.34357
4704.3,0.34165
4708.57,0.3398
4712.85,0.33812
4717.14,0.33672
4721.43,0.33563
4725.74,0.33495
4730.05,0.33468
4734.37,0.3348
4738.7,0.33527
4743.03,0.33602
4747.38,0.33698
4751.73,0.33798
4756.09,0.33899
4760.45,0.34009
4764.83,0.34124
4769.21,0.3423
4773.6,0.34331
4778.0,0.34421
4782.41,0.3449
4786.83,0.34537
4791.25,0.34571
4795.68,0.34589
4800.13,0.34585
4804.57,0.34566
4809.03,0.34534
4813.5,0.34483
4817.97,0.34411
4822.45,0.34319
4826.94,0.34211
4831.44,0.34087
4835.95,0.33941
4840.46,0.33781
4844.99,0.33606
4849.52,0.33417
4854.06,0.33216
4858.61,0.33001
4863.17,0.32769
4867.73,0.32529
4872.31,0.3228
4876.89,0.32028
4881.48,0.3178
4886.08,0.31545
4890.69,0.31337
4895.31,0.3116
4899.94,0.31005
4904.57,0.30872
4909.22,0.30754
4913.87,0.30644
4918.53,0.30538
4923.21,0.30434
4927.88,0.30324
4932.57,0.30204
4937.27,0.30073
4941.98,0.29934
4946.69,0.29801
4951.42,0.29684
4956.15,0.29593
4960.9,0.2954
4965.65,0.29527
4970.41,0.29558
4975.18,0.29634
4979.96,0.29758
4984.75,0.29922
4989.54,0.30114
4994.35,0.30334
4999.17,0.30583
5003.99,0.30865
5008.83,0.31185
5013.67,0.31548
5018.52,0.31956
5023.39,0.32405
5028.26,0.32889
5033.14,0.33402
5038.03,0.3393
5042.93,0.34465
5047.84,0.34992
5052.76,0.35504
5057.69,0.35996
5062.63,0.36473
5067.58,0.36943
5072.54,0.37418
5077.51,0.37912
5082.49,0.38447
5087.47,0.39021
5092.47,0.39643
5097.48,0.40316
5102.5,0.4103
5107.52,0.41756
5112.56,0.42475
5117.61,0.43135
5122.66,0.43701
5127.73,0.44124
5132.81,0.44358
5137.89,0.44371
5142.99,0.44184
5148.1,0.43845
5153.22,0.43467
5158.34,0.43188
5163.48,0.43153
5168.63,0.43448
5173.79,0.44096
5178.96,0.45033
5184.13,0.4617
5189.32,0.474
5194.52,0.48662
5199.73,0.49909
5204.96,0.51104
5210.19,0.52223
5215.43,0.53289
5220.68,0.54247
5225.94,0.55125
5231.22,0.55907
5236.5,0.56612
5241.79,0.57219
5247.1,0.57756
5252.42,0.58221
5257.74,0.5864
5263.08,0.59013
5268.43,0.59376
5273.79,0.59715
5279.16,0.60066
5284.54,0.6042
5289.93,0.60808
5295.34,0.61198
5300.75,0.61609
5306.18,0.62037
5311.61,0.62486
5317.06,0.62914
5322.52,0.63339
5327.99,0.63733
5333.47,0.64117
5338.96,0.64473
5344.47,0.64827
5349.98,0.65159
5355.51,0.65486
5361.05,0.65783
5366.6,0.66084
5372.16,0.66355
5377.73,0.6662
5383.32,0.66851
5388.91,0.67072
5394.52,0.67263
5400.14,0.67449
5405.77,0.67599
5411.41,0.67748
5417.07,0.6787
5422.74,0.67988
5428.41,0.68055
5434.1,0.68116
5439.81,0.68139
5445.52,0.68154
5451.25,0.68132
5456.98,0.68116
5462.73,0.68072
5468.5,0.68035
5474.27,0.67981
5480.06,0.67938
5485.86,0.6787
5491.67,0.67825
5497.49,0.67764
5503.33,0.67718
5509.18,0.67649
5515.04,0.67597
5520.91,0.67514
5526.8,0.67403
5532.69,0.67192
5538.61,0.66893
5544.53,0.66482
5550.47,0.66054
5556.41,0.65643
5562.38,0.65343
5568.35,0.65113
5574.34,0.64976
5580.34,0.649
5586.35,0.64886
5592.38,0.6485
5598.42,0.64815
5604.47,0.64763
5610.54,0.64727
5616.61,0.64667
5622.71,0.64596
5628.81,0.6448
5634.93,0.6439
5641.06,0.64312
5647.21,0.64286
5653.36,0.64282
5659.54,0.64301
5665.72,0.64245
5671.92,0.64117
5678.13,0.63815
5684.36,0.63375
5690.6,0.62707
5696.85,0.61756
5703.12,0.60366
5709.4,0.58001
5715.69,0.5401
5722.0,0.48931
5728.33,0.44214
5734.66,0.40307
5741.01,0.37536
5747.38,0.36643
5753.76,0.37078
5760.15,0.3756
5766.56,0.36639
5772.98,0.34454
5779.41,0.33094
5785.86,0.33026
5792.33,0.34407
5798.81,0.37863
5805.3,0.42882
5811.81,0.47887
5818.33,0.51821
5824.87,0.54383
5831.42,0.55838
5837.99,0.56748
5844.57,0.57279
5851.17,0.5759
5857.78,0.57677
5864.41,0.57449
5871.05,0.56879
5877.7,0.56366
5884.38,0.56033
5891.06,0.55599
5897.76,0.55305
5904.48,0.55484
5911.21,0.55547
5917.96,0.55333
5924.73,0.54981
5931.5,0.54629
5938.3,0.54191
5945.11,0.53772
5951.93,0.53337
5958.78,0.5291
5965.63,0.52469
5972.51,0.52002
5979.39,0.51502
5986.3,0.50982
5993.22,0.50367
6000.16,0.49787
6007.11,0.4923
6014.08,0.48722
6021.06,0.48228
6028.06,0.4778
6035.08,0.47298
6042.12,0.46844
6049.17,0.46225
6056.23,0.45582
6063.32,0.45037
6070.42,0.44559
6077.53,0.44064
6084.67,0.43543
6091.82,0.42906
6098.98,0.42247
6106.17,0.41597
6113.37,0.40994
6120.58,0.40425
6127.82,0.39974
6135.07,0.39499
6142.34,0.38968
6149.63,0.3829
6156.93,0.37461
6164.25,0.3635
6171.59,0.35057
6178.95,0.33544
6186.32,0.31753
6193.71,0.30064
6201.12,0.29049
6208.54,0.2902
6215.99,0.2988
6223.45,0.30924
6230.93,0.31786
6238.43,0.32308
6245.95,0.3259
6253.48,0.32642
6261.03,0.32584
6268.6,0.32401
6276.19,0.32162
6283.8,0.31818
6291.43,0.31435
6299.07,0.30976
6306.73,0.30521
6314.42,0.30026
6322.12,0.29553
6329.84,0.29086
6337.57,0.28722
6345.33,0.2839
6353.11,0.28164
6360.9,0.27983
6368.72,0.27824
6376.55,0.27631
6384.4,0.27497
6392.27,0.27397
6400.17,0.27371
6408.08,0.27303
6416.01,0.27045
6423.96,0.26718
6431.93,0.26789
6439.92,0.27068
6447.93,0.27206
6455.96,0.27121
6464.01,0.26944
6472.08,0.26693
6480.17,0.2642
6488.28,0.26098
6496.41,0.25738
6504.56,0.25348
6512.73,0.25
6520.92,0.24594
6529.14,0.24196
6537.37,0.23794
6545.63,0.23412
6553.9,0.23001
6562.2,0.22625
6570.51,0.22221
6578.85,0.21819
6587.21,0.21426
6595.59,0.21046
6603.99,0.20654
6612.42,0.203
6620.86,0.19928
6629.33,0.19602
6637.82,0.19223
6646.33,0.18862
6654.86,0.18521
6663.41,0.18212
6671.99,0.179
6680.59,0.17614
6689.21,0.17308
6697.85,0.17052
6706.51,0.1678
6715.2,0.16527
6723.91,0.16263
6732.64,0.16021
6741.4,0.15769
6750.18,0.15544
6758.98,0.1531
6767.8,0.15114
6776.65,0.14907
6785.52,0.14735
6794.41,0.14545
6803.33,0.14391
6812.27,0.14234
6821.23,0.14104
6830.22,0.13953
6839.23,0.13825
6848.26,0.1369
6857.32,0.13583
6866.4,0.13445
6875.51,0.13327
6884.64,0.13206
6893.8,0.13109
6902.98,0.12998
6912.18,0.12896
6921.41,0.12785
6930.66,0.1269
6939.94,0.12578
6949.24,0.12494
6958.57,0.12393
6967.92,0.12304
6977.3,0.12213
6986.7,0.12149
6996.13,0.12073
7005.59,0.12016
7015.07,0.11951
7024.57,0.11905
7034.1,0.11853
7043.66,0.11828
7053.25,0.11791
7062.85,0.11774
7072.49,0.11755
7082.15,0.1177
7091.84,0.11783
7101.55,0.11819
7111.3,0.11857
7121.06,0.11923
7130.86,0.11988
7140.68,0.12086
7150.53,0.12192
7160.41,0.12322
7170.31,0.12449
7180.24,0.12596
7190.2,0.12732
7200.19,0.12868
7210.2,0.12971
7220.24,0.13058
7230.31,0.13107
7240.41,0.13137
7250.54,0.13133
7260.69,0.13118
7270.88,0.1308
7281.09,0.13066
7291.33,0.13084
7301.6,0.13161
7311.9,0.13253
7322.22,0.13355
7332.58,0.13436
7342.97,0.13508
7353.38,0.13548
7363.83,0.13579
7374.3,0.13578
7384.81,0.13564
7395.34,0.13518
7405.91,0.13469
7416.5,0.13389
7427.13,0.13309
7437.78,0.13252
7448.47,0.13262
7459.19,0.13311
7469.94,0.13395
7480.71,0.13477
7491.52,0.13568
7502.37,0.13646
7513.24,0.13709
7524.14,0.13732
7535.08,0.13735
7546.05,0.13708
7557.05,0.13671
7568.08,0.1361
7579.15,0.13547
7590.24,0.13468
7601.37,0.13389
7612.53,0.13296
7623.73,0.1321
7634.96,0.13119
7646.22,0.1304
7657.51,0.12955
7668.84,0.12885
7680.2,0.12806
7691.59,0.12738
7703.02,0.12663
7714.49,0.12593
7725.98,0.12512
7737.52,0.12436
7749.08,0.12345
7760.68,0.12256
7772.32,0.12148
7783.99,0.12036
7795.69,0.11909
7807.43,0.11784
7819.21,0.11635
7831.02,0.1149
7842.87,0.11327
7854.75,0.11166
7866.67,0.10993
7878.62,0.10826
7890.62,0.10656
7902.64,0.10491
7914.71,0.10311
7926.81,0.10139
7938.95,0.0996
7951.13,0.09793
7963.34,0.0962
7975.59,0.09469
7987.88,0.09322
8000.21,0.09194
8012.57,0.09068
8024.98,0.08965
8037.42,0.08867
8049.9,0.08801
8062.42,0.08741
8074.98,0.08708
8087.57,0.08681
8100.21,0.08666
8112.89,0.08643
8125.6,0.08619
8138.36,0.08572
8151.16,0.08521
8163.99,0.08443
8176.87,0.0836
8189.79,0.08257
8202.75,0.08153
8215.75,0.08037
8228.79,0.07932
8241.87,0.07831
8254.99,0.07761
8268.16,0.07706
8281.37,0.07674
8294.62,0.07629
8307.91,0.07581
8321.24,0.07508
8334.62,0.07431
8348.04,0.07337
8361.51,0.07244
8375.02,0.07138
8388.57,0.07044
8402.16,0.06945
8415.8,0.06856
8429.49,0.06769
8443.22,0.06705
8456.99,0.06639
8470.81,0.06591
8484.67,0.06549
8498.58,0.06529
8512.54,0.06519
8526.54,0.06543
8540.58,0.06574
8554.68,0.06634
8568.82,0.06704
8583.0,0.06802
8597.24,0.0691
8611.52,0.07051
8625.85,0.07208
8640.23,0.07391
8654.65,0.07586
8669.12,0.07808
8683.64,0.08033
8698.21,0.08262
8712.83,0.08473
8727.5,0.08676
8742.22,0.08852
8756.99,0.09015
8771.8,0.09151
8786.67,0.09277
8801.59,0.09383
8816.56,0.09484
8831.58,0.09556
8846.65,0.09628
8861.77,0.0968
8876.94,0.09717
8892.17,0.09735
8907.45,0.09753
8922.78,0.09747
8938.16,0.09729
8953.6,0.09683
8969.09,0.09646
8984.64,0.0962
9000.23,0.09622
9015.89,0.09634
9031.59,0.09661
9047.36,0.09695
9063.17,0.09753
9079.05,0.09811
9094.97,0.09872
9110.96,0.09927
9127.0,0.09991
9143.1,0.10052
9159.25,0.10121
9175.46,0.10174
9191.73,0.10222
9208.06,0.10264
9224.44,0.10306
9240.88,0.10329
9257.38,0.1036
9273.94,0.10394
9290.56,0.10435
9307.24,0.10467
9323.98,0.10508
9340.78,0.10545
9357.64,0.10582
9374.57,0.106
9391.55,0.10618
9408.59,0.10615
9425.7,0.10593
9442.87,0.10531
9460.1,0.10439
9477.4,0.10274
9494.75,0.10127
9512.17,0.10124
9529.66,0.10212
9547.21,0.10259
9564.83,0.10246
9582.5,0.10192
9600.25,0.10127
9618.06,0.10057
9635.94,0.10002
9653.88,0.09934
9671.89,0.09872
9689.97,0.09792
9708.12,0.09747
9726.33,0.09727
9744.62,0.09693
9762.97,0.0964
9781.39,0.09586
9799.88,0.09529
9818.44,0.09485
9837.07,0.09439
9855.77,0.09411
9874.54,0.09385
9893.39,0.09361
9912.3,0.09333
9931.29,0.09316
9950.36,0.09316
9969.49,0.09354
9988.7,0.09413
10007.98,0.09497
10027.34,0.09592
10046.77,0.09721
10066.28,0.09887
10085.87,0.10067
10105.53,0.10253
10125.26,0.10461
10145.08,0.10687
10164.97,0.10905
10184.94,0.11056
10204.99,0.11083
10225.12,0.10909
10245.33,0.10494
10265.61,0.09846
10285.98,0.09107
10306.43,0.08569
10326.96,0.08472
10347.57,0.08749
10368.27,0.09265
10389.05,0.09897
10409.91,0.10576
10430.86,0.11252
10451.88,0.11901
10473.0,0.12501
10494.2,0.13047
10515.49,0.13526
10536.86,0.13962
10558.32,0.14394
10579.87,0.1484
10601.5,0.15233
10623.23,0.15535
10645.04,0.15736
10666.94,0.15854
10688.94,0.15913
10711.02,0.15958
10733.2,0.16029
10755.47,0.1616
10777.83,0.16349
10800.28,0.16591
10822.83,0.16861
10845.47,0.17144
10868.21,0.17431
10891.04,0.17748
10913.97,0.18104
10936.99,0.18489
10960.12,0.1889
10983.34,0.19246
11006.66,0.19529
11030.07,0.19777
11053.59,0.20029
11077.21,0.2032
11100.93,0.20668
11124.75,0.21077
11148.68,0.21533
11172.71,0.21992
11196.84,0.2245
11221.07,0.22912
11245.41,0.23342
11269.86,0.23662
11294.41,0.23785
11319.07,0.23756
11343.84,0.23645
11368.72,0.23508
11393.7,0.2357
11418.8,0.23906
11444.01,0.24373
11469.33,0.24996
11494.76,0.25937
11520.3,0.26764
11545.96,0.27265
11571.73,0.27534
11597.62,0.27672
11623.62,0.27669
11649.74,0.27541
11675.98,0.27135
11702.34,0.25989
11728.81,0.24158
11755.41,0.23689
11782.13,0.2453
11808.96,0.24715
11835.92,0.23899
11863.01,0.22215
11890.22,0.20579
11917.55,0.2029
11945.01,0.2133
11972.6,0.22914
12000.31,0.24576
12028.16,0.26069
12056.13,0.27414
12084.23,0.28175
12112.46,0.27676
12140.83,0.27471
12169.33,0.29112
12197.96,0.30687
12226.73,0.31414
12255.64,0.3175
12284.68,0.31859
12313.86,0.31827
12343.18,0.31764
12372.64,0.31654
12402.24,0.31456
12431.98,0.31059
12461.86,0.30414
12491.89,0.29578
12522.07,0.28818
12552.38,0.2838
12582.85,0.28146
12613.47,0.27987
12644.23,0.28174
12675.15,0.28764
12706.21,0.29432
12737.43,0.2996
12768.81,0.30324
12800.33,0.30568
12832.02,0.30735
12863.86,0.30827
12895.86,0.30879
12928.02,0.30906
12960.34,0.30934
12992.82,0.30948
13025.46,0.3094
13058.27,0.30944
13091.25,0.3104
13124.39,0.31141
13157.7,0.31172
13191.18,0.31146
13224.83,0.31125
13258.66,0.31091
13292.65,0.31012
13326.83,0.30902
13361.17,0.3073
13395.7,0.30471
13430.4,0.3012
13465.29,0.29747
13500.35,0.2939
13535.6,0.28982
13571.03,0.28601
13606.65,0.28404
13642.46,0.2841
13678.46,0.28452
13714.64,0.28494
13751.02,0.28553
13787.59,0.28675
13824.36,0.2885
13861.32,0.29027
13898.49,0.29136
13935.85,0.29084
13973.41,0.28902
14011.17,0.28722
14049.15,0.28655
14087.32,0.2861
14125.71,0.28408
14164.3,0.28056
14203.11,0.27542
14242.13,0.26681
14281.36,0.25188
14320.81,0.24379
14360.49,0.24708
14400.38,0.24346
14440.49,0.23252
14480.82,0.2186
14521.39,0.20591
14562.18,0.19258
14603.2,0.17454
14644.45,0.15243
14685.93,0.1353
14727.66,0.12976
14769.62,0.13079
14811.81,0.13467
14854.25,0.13879
14896.94,0.14191
14939.87,0.14387
14983.05,0.1434
15026.48,0.14448
15070.16,0.14812
15114.1,0.14981
15158.29,0.14888
15202.74,0.14667
15247.46,0.14151
15292.43,0.13418
15337.68,0.12648
15383.19,0.11887
15428.97,0.11261
15475.03,0.1093
15521.36,0.10903
15567.97,0.10853
15614.87,0.10465
15662.04,0.09707
15709.5,0.09001
15757.25,0.08396
15805.29,0.07965
15853.62,0.07761
15902.26,0.07642
15951.19,0.0746
16000.42,0.07302
16049.95,0.07146
16099.8,0.07004
16149.95,0.06832
16200.42,0.06656
16251.21,0.06715
16302.31,0.07051
16353.74,0.07478
16405.49,0.07945
16457.57,0.08487
16509.98,0.08886
16562.73,0.09185
16615.82,0.09427
16669.24,0.09678
16723.02,0.09887
16777.14,0.09976
16831.61,0.10038
16886.43,0.1011
16941.62,0.10117
16997.16,0.1023
17053.08,0.10565
17109.36,0.1094
17166.01,0.11398
17223.04,0.1197
17280.45,0.12549
17338.24,0.1319
17396.43,0.13836
17455.0,0.14578
17513.97,0.15426
17573.34,0.16176
17633.11,0.16894
17693.29,0.17645
17753.89,0.18298
17814.9,0.18947
17876.33,0.19753
17938.18,0.20574
18000.47,0.21481
18063.19,0.22402
18126.35,0.23219
18189.95,0.24021
18254.0,0.24782
18318.5,0.25565
18383.46,0.26384
18448.88,0.27036
18514.77,0.27639
18581.13,0.28474
18647.97,0.29291
18715.29,0.29944
18783.1,0.30464
18851.4,0.30725
18920.2,0.30889
18989.51,0.31048
19059.32,0.31269
19129.65,0.31499
19200.5,0.31642
19271.88,0.3171
19343.79,0.3175
19416.24,0.31744
19489.23,0.31718
19562.77,0.31637
19636.88,0.31464
19711.54,0.3126
19786.78,0.31118
19862.59,0.30955
19938.98,0.30792
20015.96,0.30614
20093.55,0.30418
20171.73,0.30199
20250.53,0.30007
20329.94,0.29764
20409.98,0.29453
20490.65,0.29081
20571.96,0.28641
20653.92,0.28206
20736.54,0.27812
20819.82,0.27359
20903.77,0.26803
20988.4,0.26165
21073.72,0.25472
21159.73,0.24725
21246.46,0.23939
21333.89,0.23037
21422.04,0.22158
21510.93,0.21931
21600.56,0.22859
21690.94,0.24319
21782.08,0.25199
21873.99,0.25492
21966.67,0.26311
22060.15,0.27746
22154.42,0.28848
22249.51,0.29162
22345.41,0.28909
22442.14,0.2823
22539.72,0.26788
22638.14,0.24456
22737.43,0.22291
22837.6,0.22235
22938.65,0.24208
23040.6,0.26193
23143.46,0.27166
23247.24,0.27352
23351.96,0.27333
23457.63,0.27436
23564.25,0.27519
23671.85,0.27404
23780.44,0.2713
23890.02,0.26685
24000.63,0.26173
24112.26,0.25698
24224.93,0.25196
24338.66,0.24591
24453.47,0.24018
24569.36,0.23468
24686.36,0.22828
24804.47,0.22181
24923.73,0.2162
25044.13,0.21147
25165.71,0.20884
25288.46,0.20903
25412.43,0.21025
25537.61,0.21115
25664.04,0.21128
25791.72,0.20983
25920.68,0.20742
26057.2,0.20333
26188.8,0.19779
26321.8,0.19199
26456.0,0.18699
26591.7,0.18313
26728.8,0.18066
26867.2,0.17834
27007.2,0.17608
27148.6,0.17399
27291.5,0.17122
27435.9,0.16775
27581.8,0.1643
27729.3,0.16039
27878.4,0.15648
28029.1,0.15295
28181.4,0.14958
28335.4,0.14634
28491.1,0.14346
28648.5,0.13987
28807.7,0.13601
28968.6,0.13228
29131.3,0.12883
29295.9,0.12511
29462.4,0.12216
29630.7,0.11924
29801.0,0.11495
29973.3,0.11173
30147.6,0.1085
30323.9,0.10527
30502.3,0.10273
30682.8,0.09975
30865.4,0.09772
31050.2,0.09631
31237.2,0.09456
31426.5,0.09185
31618.2,0.08921
31812.1,0.08689
32008.5,0.08494
32207.3,0.08295
32408.6,0.08074
32612.5,0.07811
32818.9,0.07651
33027.9,0.07455
33239.6,0.0716
33454.1,0.06916
33671.3,0.06683
33891.4,0.06504
34114.3,0.06361
34340.3,0.06135
34569.2,0.05934
34801.2,0.0567
35036.3,0.05449
35274.7,0.05324
35516.3,0.05247
35761.3,0.05088
36009.6,0.04888
36261.4,0.04728
36516.8,0.04549
36775.8,0.04436
37038.5,0.04296
37304.9,0.04166
37575.2,0.04094
37849.5,0.04002
38127.8,0.03939
38410.2,0.04003
38696.9,0.04019
38987.8,0.04016
39283.2,0.03872
39583.1,0.03782
39887.6,0.03849
40196.8,0.03916
40510.8,0.03967
40829.8,0.04029
41153.9,0.03991
41483.1,0.03905
41817.6,0.04033
42157.5,0.04124
42503.1,0.04167
42854.4,0.04434
43211.5,0.04616
43574.6,0.04665
43943.9,0.0488
44319.6,0.05424
44701.6,0.0601
45090.3,0.06418
45485.9,0.068
45888.4,0.07222
46298.1,0.07701
46715.2,0.08312
47139.8,0.08989
47572.3,0.09621
48012.8,0.10578
48461.5,0.11415
48918.7,0.1216
49384.6,0.13245
49859.4,0.13988
