Database of Origin,University of Winnipeg Spectrophotometer Facility
Sample Description,8. Sulfates: RELAB + Nicolet spectra / Spectra all made consistently merged: Jan. / 10 / 2005
Date Added,2016-07-15 22:05:54.733506

Data ID,RPN_SUL_07          
Sample ID,SPT102
Mineral Name,Boussingaultite
Grain Size,<45
Viewing Geometry,30 / 0 | 30
Resolution,5 / 1.3-129
Material Class,Sulfate

Wavelength
305.0,0.304306
310.0,0.304428
315.0,0.309353
320.0,0.315181
325.0,0.322634
330.0,0.332725
335.0,0.342452
340.0,0.356379
345.0,0.368969
350.0,0.385436
355.0,0.402486
360.0,0.421265
365.0,0.440204
370.0,0.459514
375.0,0.479928
380.0,0.498237
385.0,0.520493
390.0,0.538218
395.0,0.556835
400.0,0.570518
405.0,0.579216
410.0,0.592869
415.0,0.601305
420.0,0.609953
425.0,0.616635
430.0,0.623492
435.0,0.630643
440.0,0.636078
445.0,0.642313
450.0,0.647241
455.0,0.653713
460.0,0.657657
465.0,0.662288
470.0,0.667464
475.0,0.672568
480.0,0.677524
485.0,0.682504
490.0,0.684763
495.0,0.691664
500.0,0.69473
505.0,0.701384
510.0,0.70469
515.0,0.710329
520.0,0.715598
525.0,0.719986
530.0,0.721277
535.0,0.727825
540.0,0.731449
545.0,0.736713
550.0,0.740327
555.0,0.743538
560.0,0.748127
565.0,0.755565
570.0,0.757056
575.0,0.761339
580.0,0.765401
585.0,0.770628
590.0,0.774358
595.0,0.778553
600.0,0.782571
605.0,0.78479
610.0,0.788983
615.0,0.791791
620.0,0.796189
625.0,0.801899
630.0,0.803582
635.0,0.807124
640.0,0.811704
645.0,0.813873
650.0,0.817602
655.0,0.820448
660.0,0.824842
665.0,0.82902
670.0,0.830954
675.0,0.836523
680.0,0.838404
685.0,0.839832
690.0,0.844541
695.0,0.847064
700.0,0.850421
705.0,0.84983
710.0,0.856284
715.0,0.85486
720.0,0.860849
725.0,0.862658
730.0,0.85895
735.0,0.863255
740.0,0.86539
745.0,0.869103
750.0,0.869951
755.0,0.872608
760.0,0.871983
765.0,0.873626
770.0,0.876877
775.0,0.877658
780.0,0.878613
785.0,0.880928
790.0,0.882866
795.0,0.883368
800.0,0.884469
805.0,0.885892
810.0,0.886856
815.0,0.886829
820.0,0.887767
825.0,0.88872
830.0,0.889104
835.0,0.890101
840.0,0.890858
845.0,0.891676
850.0,0.892237
855.0,0.892414
860.0,0.89263
865.0,0.894573
870.0,0.894789
875.0,0.894963
880.0,0.89556
885.0,0.896506
890.0,0.894015
895.0,0.896561
900.0,0.895944
905.0,0.899472
910.0,0.894533
915.0,0.894518
920.0,0.894319
925.0,0.896314
930.0,0.898448
935.0,0.897331
940.0,0.895932
945.0,0.89605
950.0,0.896432
955.0,0.896104
960.0,0.897175
965.0,0.895834
970.0,0.897785
975.0,0.896238
980.0,0.895093
985.0,0.893861
990.0,0.895147
995.0,0.894546
1000.0,0.895255
1005.0,0.89193
1010.0,0.892916
1015.0,0.894549
1020.0,0.891747
1025.0,0.894392
1030.0,0.894838
1035.0,0.893633
1040.0,0.893301
1045.0,0.891001
1050.0,0.89321
1055.0,0.88961
1060.0,0.895271
1065.0,0.891371
1070.0,0.89144
1075.0,0.893259
1080.0,0.89462
1085.0,0.894464
1090.0,0.893386
1095.0,0.895008
1100.0,0.896543
1105.0,0.893508
1110.0,0.893201
1115.0,0.895106
1120.0,0.893424
1125.0,0.895016
1130.0,0.895111
1135.0,0.892106
1140.0,0.891243
1145.0,0.892681
1150.0,0.893695
1155.0,0.893248
1160.0,0.889955
1165.0,0.887757
1170.0,0.885697
1175.0,0.886904
1180.0,0.88265
1185.0,0.885254
1190.0,0.882303
1195.0,0.88239
1200.0,0.881769
1205.0,0.876884
1210.0,0.867748
1215.0,0.872853
1220.0,0.865629
1225.0,0.866251
1230.0,0.861603
1235.0,0.862886
1240.0,0.85987
1245.0,0.861138
1250.0,0.858932
1255.0,0.854266
1260.0,0.855002
1265.0,0.856861
1270.0,0.85564
1275.0,0.856111
1280.0,0.857031
1285.0,0.855501
1290.0,0.859465
1295.0,0.857855
1300.0,0.861251
1305.0,0.860249
1310.0,0.863808
1315.0,0.858811
1320.0,0.858571
1325.0,0.860147
1330.0,0.85766
1335.0,0.857792
1340.0,0.857518
1345.0,0.855611
1350.0,0.854073
1355.0,0.8485
1360.0,0.84993
1365.0,0.849028
1370.0,0.847095
1375.0,0.846883
1380.0,0.840218
1385.0,0.84668
1390.0,0.84376
1395.0,0.834372
1400.0,0.833126
1405.0,0.831908
1410.0,0.828126
1415.0,0.825445
1420.0,0.818275
1425.0,0.810567
1430.0,0.799339
1435.0,0.791423
1440.0,0.778913
1445.0,0.767823
1450.0,0.762962
1455.0,0.760325
1460.0,0.755323
1465.0,0.74433
1470.0,0.736649
1475.0,0.724128
1480.0,0.71711
1485.0,0.704062
1490.0,0.698759
1495.0,0.692276
1500.0,0.68722
1505.0,0.683459
1510.0,0.685217
1515.0,0.684246
1520.0,0.681215
1525.0,0.680987
1530.0,0.678319
1535.0,0.678111
1540.0,0.674547
1545.0,0.669242
1550.0,0.669804
1555.0,0.664173
1560.0,0.663266
1565.0,0.659311
1570.0,0.658356
1575.0,0.655699
1580.0,0.656
1585.0,0.656882
1590.0,0.656854
1595.0,0.654899
1600.0,0.655106
1605.0,0.655838
1610.0,0.657464
1615.0,0.659478
1620.0,0.665316
1625.0,0.663061
1630.0,0.663601
1635.0,0.671509
1640.0,0.672109
1645.0,0.67384
1650.0,0.673971
1655.0,0.681245
1660.0,0.683611
1665.0,0.685669
1670.0,0.687438
1675.0,0.689914
1680.0,0.694433
1685.0,0.693926
1690.0,0.69848
1695.0,0.701406
1700.0,0.704124
1705.0,0.706164
1710.0,0.706648
1715.0,0.706949
1720.0,0.712521
1725.0,0.714289
1730.0,0.715666
1735.0,0.714641
1740.0,0.71827
1745.0,0.718184
1750.0,0.715457
1755.0,0.717155
1760.0,0.716891
1765.0,0.715452
1770.0,0.714199
1775.0,0.71571
1780.0,0.714828
1785.0,0.714787
1790.0,0.715827
1795.0,0.716944
1800.0,0.717779
1805.0,0.720474
1810.0,0.720053
1815.0,0.721292
1820.0,0.722472
1825.0,0.723598
1830.0,0.723935
1835.0,0.722693
1840.0,0.723027
1845.0,0.722932
1850.0,0.723884
1855.0,0.719029
1860.0,0.716022
1865.0,0.712587
1870.0,0.704282
1875.0,0.704417
1880.0,0.695253
1885.0,0.680216
1890.0,0.66952
1895.0,0.655316
1900.0,0.635649
1905.0,0.621827
1910.0,0.604975
1915.0,0.587792
1920.0,0.56686
1925.0,0.547207
1930.0,0.523466
1935.0,0.500219
1940.0,0.48061
1945.0,0.474556
1950.0,0.471957
1955.0,0.463201
1960.0,0.451385
1965.0,0.438839
1970.0,0.427238
1975.0,0.42017
1980.0,0.41041
1985.0,0.406386
1990.0,0.404162
1995.0,0.402593
2000.0,0.402237
2005.0,0.401821
2010.0,0.400044
2015.0,0.396642
2020.0,0.392838
2025.0,0.389345
2030.0,0.386624
2035.0,0.38487
2040.0,0.383256
2045.0,0.382559
2050.0,0.383588
2055.0,0.384769
2060.0,0.388553
2065.0,0.392226
2070.0,0.395349
2075.0,0.397367
2080.0,0.399932
2085.0,0.400189
2090.0,0.401089
2095.0,0.392013
2100.0,0.396382
2105.0,0.393649
2110.0,0.388264
2115.0,0.383631
2120.0,0.377487
2125.0,0.373362
2130.0,0.367617
2135.0,0.364164
2140.0,0.361526
2145.0,0.360335
2150.0,0.35918
2155.0,0.359381
2160.0,0.359079
2165.0,0.360169
2170.0,0.361928
2175.0,0.366733
2180.0,0.372647
2185.0,0.381016
2190.0,0.38928
2195.0,0.399048
2200.0,0.409544
2205.0,0.417731
2210.0,0.424996
2215.0,0.43001
2220.0,0.436597
2225.0,0.444215
2230.0,0.451097
2235.0,0.458092
2240.0,0.467377
2245.0,0.474936
2250.0,0.481165
2255.0,0.489534
2260.0,0.497609
2265.0,0.504272
2270.0,0.510164
2275.0,0.514763
2280.0,0.516436
2285.0,0.515755
2290.0,0.513984
2295.0,0.511042
2300.0,0.509961
2305.0,0.507562
2310.0,0.505401
2315.0,0.503165
2320.0,0.499781
2325.0,0.497801
2330.0,0.493971
2335.0,0.489451
2340.0,0.485851
2345.0,0.480324
2350.0,0.473986
2355.0,0.467376
2360.0,0.460105
2365.0,0.452021
2370.0,0.443074
2375.0,0.433624
2380.0,0.424635
2385.0,0.415045
2390.0,0.40588
2395.0,0.397794
2400.0,0.391276
2405.0,0.385229
2410.0,0.38114
2415.0,0.377593
2420.0,0.37696
2425.0,0.37629
2430.0,0.378473
2435.0,0.381968
2440.0,0.387087
2445.0,0.391186
2450.0,0.396797
2455.0,0.400348
2460.0,0.402877
2465.0,0.40397
2470.0,0.403551
2475.0,0.400378
2480.0,0.397835
2485.0,0.394685
2490.0,0.391076
2495.0,0.384918
2500.0,0.380389
2505.0,0.373952
2510.0,0.370036
2515.0,0.366875
2520.0,0.36656
2525.0,0.36342
2530.0,0.362157
2535.0,0.361741
2540.0,0.360972
2545.0,0.359915
2550.0,0.359563
2555.0,0.358622
2560.0,0.357573
2565.13,0.356032
2570.22,0.353684
2575.33,0.352467
2580.46,0.35136
2581.74,0.350212
2583.03,0.350077
2584.31,0.349219
2585.6,0.349764
2586.89,0.350025
2588.19,0.348335
2589.48,0.347807
2590.77,0.347753
2592.07,0.34722
2593.36,0.346105
2594.66,0.34351
2595.96,0.343599
2597.26,0.347247
2598.56,0.347057
2599.87,0.345158
2601.17,0.343852
2602.48,0.342856
2603.78,0.342579
2605.09,0.341817
2606.4,0.341714
2607.71,0.342748
2609.03,0.342531
2610.34,0.341451
2611.66,0.340931
2612.97,0.340315
2614.29,0.339625
2615.61,0.339383
2616.93,0.337671
2618.25,0.337007
2619.57,0.337696
2620.9,0.335879
2622.22,0.336038
2623.55,0.336713
2624.88,0.335383
2626.21,0.334156
2627.54,0.333127
2628.87,0.333733
2630.21,0.332329
2631.54,0.331066
2632.88,0.332459
2634.21,0.331756
2635.55,0.330557
2636.89,0.330028
2638.24,0.32871
2639.58,0.327784
2640.92,0.327265
2642.27,0.326375
2643.62,0.325888
2644.97,0.325487
2646.32,0.324267
2647.67,0.323894
2649.02,0.323512
2650.38,0.322385
2651.73,0.321025
2653.09,0.319926
2654.45,0.319581
2655.81,0.318788
2657.17,0.317634
2658.53,0.316823
2659.89,0.315255
2661.26,0.314276
2662.63,0.313553
2664.0,0.312369
2665.36,0.310133
2666.74,0.30915
2668.11,0.309196
2669.48,0.30838
2670.86,0.30486
2672.23,0.303852
2673.61,0.303579
2674.99,0.300006
2676.37,0.296634
2677.76,0.294291
2679.14,0.293223
2680.52,0.291628
2681.91,0.2906
2683.3,0.288338
2684.69,0.286314
2686.08,0.284719
2687.47,0.282959
2688.87,0.281683
2690.26,0.280248
2691.66,0.27812
2693.06,0.276076
2694.46,0.27423
2695.86,0.273435
2697.26,0.272119
2698.66,0.27027
2700.07,0.268366
2701.48,0.266573
2702.89,0.265069
2704.3,0.263666
2705.71,0.261612
2707.12,0.260027
2708.53,0.258077
2709.95,0.255926
2711.37,0.254046
2712.79,0.253167
2714.21,0.252535
2715.63,0.25019
2717.05,0.247956
2718.48,0.246056
2719.9,0.244113
2721.33,0.242006
2722.76,0.241192
2724.19,0.239003
2725.62,0.236344
2727.06,0.235432
2728.49,0.233597
2729.93,0.231448
2731.37,0.229232
2732.81,0.226844
2734.25,0.224665
2735.69,0.222443
2737.14,0.220663
2738.58,0.218431
2740.03,0.215646
2741.48,0.213885
2742.93,0.212196
2744.38,0.209846
2745.83,0.207131
2747.29,0.204694
2748.75,0.20224
2750.2,0.199625
2751.66,0.19692
2753.13,0.194456
2754.59,0.191878
2756.05,0.188936
2757.52,0.187218
2758.99,0.185062
2760.46,0.181933
2761.93,0.178913
2763.4,0.176084
2764.87,0.173938
2766.35,0.171548
2767.82,0.16892
2769.3,0.166571
2770.78,0.163867
2772.26,0.161182
2773.75,0.158923
2775.23,0.15635
2776.72,0.15388
2778.21,0.151262
2779.7,0.149064
2781.19,0.147066
2782.68,0.144835
2784.18,0.142392
2785.67,0.140203
2787.17,0.137642
2788.67,0.135395
2790.17,0.133605
2791.67,0.131563
2793.18,0.129386
2794.68,0.127536
2796.19,0.125493
2797.7,0.123409
2799.21,0.12142
2800.72,0.119484
2802.24,0.117453
2803.75,0.11561
2805.27,0.11387
2806.79,0.112202
2808.31,0.110389
2809.83,0.10859
2811.35,0.10699
2812.88,0.105554
2814.41,0.103899
2815.93,0.102412
2817.46,0.101367
2819.0,0.100236
2820.53,0.098927
2822.07,0.097845
2823.6,0.096867
2825.14,0.096246
2826.68,0.095546
2828.22,0.094919
2829.77,0.094274
2831.31,0.093645
2832.86,0.09302
2834.41,0.092285
2835.96,0.091454
2837.51,0.090888
2839.07,0.090343
2840.62,0.089958
2842.18,0.089248
2843.74,0.088442
2845.3,0.08779
2846.86,0.086999
2848.43,0.086077
2849.99,0.085419
2851.56,0.084839
2853.13,0.084254
2854.7,0.083591
2856.27,0.08273
2857.85,0.081631
2859.42,0.08067
2861.0,0.079948
2862.58,0.079075
2864.16,0.078138
2865.75,0.077491
2867.33,0.07695
2868.92,0.076114
2870.51,0.075242
2872.1,0.074377
2873.69,0.073457
2875.28,0.0726
2876.88,0.071763
2878.48,0.071009
2880.07,0.070371
2881.68,0.069516
2883.28,0.06872
2884.88,0.068191
2886.49,0.067543
2888.1,0.066636
2889.71,0.06579
2891.32,0.065075
2892.93,0.064223
2894.55,0.063454
2896.16,0.062885
2897.78,0.06205
2899.4,0.061344
2901.03,0.060742
2902.65,0.059922
2904.28,0.059271
2905.91,0.058679
2907.54,0.057915
2909.17,0.05708
2910.8,0.056616
2912.44,0.056166
2914.07,0.055396
2915.71,0.054461
2917.35,0.053958
2918.99,0.053356
2920.64,0.052791
2922.29,0.052274
2923.93,0.051512
2925.58,0.050874
2927.24,0.050451
2928.89,0.049763
2930.55,0.048925
2932.2,0.04838
2933.86,0.047985
2935.52,0.047528
2937.19,0.047107
2938.85,0.046495
2940.52,0.045779
2942.19,0.045305
2943.86,0.044893
2945.53,0.044435
2947.21,0.043806
2948.88,0.043053
2950.56,0.042492
2952.24,0.041997
2953.92,0.041599
2955.61,0.040936
2957.29,0.040287
2958.98,0.039894
2960.67,0.039415
2962.36,0.038911
2964.06,0.038256
2965.75,0.037623
2967.45,0.036984
2969.15,0.036394
2970.85,0.035862
2972.55,0.035372
2974.26,0.034869
2975.97,0.034334
2977.68,0.033852
2979.39,0.033539
2981.1,0.032958
2982.82,0.032215
2984.53,0.031595
2986.25,0.031131
2987.97,0.030581
2989.7,0.029981
2991.42,0.029268
2993.15,0.028648
2994.88,0.028146
2996.61,0.027759
2998.34,0.027293
3000.08,0.026759
3001.82,0.026287
3003.55,0.025728
3005.3,0.025258
3007.04,0.024807
3008.78,0.024489
3010.53,0.02412
3012.28,0.023656
3014.03,0.023019
3015.79,0.022625
3017.54,0.022386
3019.3,0.022004
3021.06,0.021619
3022.82,0.021355
3024.58,0.021181
3026.35,0.020909
3028.12,0.020535
3029.89,0.020091
3031.66,0.01971
3033.43,0.01955
3035.21,0.019504
3036.99,0.019359
3038.77,0.01932
3040.55,0.019024
3042.33,0.018796
3044.12,0.018677
3045.91,0.018439
3047.7,0.018229
3049.49,0.018168
3051.29,0.018033
3053.08,0.017886
3054.88,0.017769
3056.68,0.017822
3058.49,0.017928
3060.29,0.017918
3062.1,0.017841
3063.91,0.017681
3065.72,0.0177
3067.54,0.017617
3069.35,0.017659
3071.17,0.017896
3072.99,0.018042
3074.81,0.018052
3076.64,0.01809
3078.47,0.018065
3080.29,0.017883
3082.13,0.017857
3083.96,0.017958
3085.79,0.017955
3087.63,0.017976
3089.47,0.018152
3091.31,0.018234
3093.16,0.018261
3095.01,0.018324
3096.85,0.018365
3098.71,0.018565
3100.56,0.018743
3102.41,0.018871
3104.27,0.018959
3106.13,0.019038
3107.99,0.019137
3109.86,0.019097
3111.73,0.019188
3113.59,0.019353
3115.47,0.019488
3117.34,0.019759
3119.21,0.019985
3121.09,0.020061
3122.97,0.020126
3124.86,0.020307
3126.74,0.020471
3128.63,0.020532
3130.52,0.020619
3132.41,0.02085
3134.3,0.020956
3136.2,0.02104
3138.1,0.021264
3140.0,0.02134
3141.9,0.021573
3143.81,0.021898
3145.71,0.022068
3147.62,0.02211
3149.54,0.022226
3151.45,0.022396
3153.37,0.022729
3155.29,0.023007
3157.21,0.023213
3159.13,0.023415
3161.06,0.023633
3162.99,0.023942
3164.92,0.024241
3166.85,0.02446
3168.79,0.024622
3170.72,0.024754
3172.67,0.024848
3174.61,0.025066
3176.55,0.025402
3178.5,0.025602
3180.45,0.025798
3182.4,0.02591
3184.36,0.025993
3186.32,0.026208
3188.27,0.026372
3190.24,0.026362
3192.2,0.026562
3194.17,0.02692
3196.14,0.027054
3198.11,0.027017
3200.08,0.027136
3202.06,0.02724
3204.04,0.027324
3206.02,0.027426
3208.0,0.027485
3209.99,0.027511
3211.98,0.027589
3213.97,0.02761
3215.96,0.027676
3217.96,0.027736
3219.96,0.027754
3221.96,0.027695
3223.96,0.027792
3225.97,0.027799
3227.98,0.027701
3229.99,0.027725
3232.0,0.027873
3234.02,0.027934
3236.04,0.027701
3238.06,0.027713
3240.08,0.027764
3242.11,0.027777
3244.14,0.027854
3246.17,0.02789
3248.2,0.027965
3250.24,0.02826
3252.28,0.028376
3254.32,0.028283
3256.37,0.028356
3258.41,0.028517
3260.46,0.028504
3262.51,0.028589
3264.57,0.028844
3266.63,0.028952
3268.69,0.02892
3270.75,0.029086
3272.81,0.029237
3274.88,0.029302
3276.95,0.029495
3279.02,0.02969
3281.1,0.02997
3283.18,0.030221
3285.26,0.030464
3287.34,0.030627
3289.43,0.030799
3291.51,0.031061
3293.61,0.031225
3295.7,0.031343
3297.8,0.03153
3299.9,0.031653
3302.0,0.031924
3304.1,0.032266
3306.21,0.032484
3308.32,0.032712
3310.43,0.032969
3312.55,0.03315
3314.66,0.033425
3316.79,0.033713
3318.91,0.033905
3321.03,0.034106
3323.16,0.03439
3325.29,0.034742
3327.43,0.035082
3329.57,0.035417
3331.71,0.035762
3333.85,0.036052
3335.99,0.03622
3338.14,0.036513
3340.29,0.036844
3342.45,0.037114
3344.6,0.037522
3346.76,0.037801
3348.92,0.038059
3351.09,0.038417
3353.26,0.038735
3355.43,0.039089
3357.6,0.039477
3359.78,0.039843
3361.96,0.040227
3364.14,0.040547
3366.32,0.040874
3368.51,0.041187
3370.7,0.041655
3372.89,0.042119
3375.09,0.04251
3377.29,0.042873
3379.49,0.043239
3381.69,0.04367
3383.9,0.043898
3386.11,0.044151
3388.32,0.044634
3390.54,0.044909
3392.76,0.045127
3394.98,0.045427
3397.21,0.045834
3399.43,0.046263
3401.66,0.046653
3403.9,0.046884
3406.13,0.047028
3408.37,0.047446
3410.61,0.047716
3412.86,0.047912
3415.11,0.048242
3417.36,0.048513
3419.61,0.048771
3421.87,0.049054
3424.13,0.049225
3426.39,0.049406
3428.66,0.049699
3430.93,0.049824
3433.2,0.049846
3435.48,0.049972
3437.76,0.050054
3440.04,0.050188
3442.32,0.050307
3444.61,0.050349
3446.9,0.050493
3449.19,0.050664
3451.49,0.05072
3453.79,0.050842
3456.09,0.050986
3458.4,0.051088
3460.7,0.051139
3463.02,0.051284
3465.33,0.051461
3467.65,0.051586
3469.97,0.051755
3472.29,0.051893
3474.62,0.052004
3476.95,0.052075
3479.29,0.052113
3481.62,0.052199
3483.96,0.052367
3486.3,0.052594
3488.65,0.05277
3491.0,0.052845
3493.35,0.053066
3495.71,0.053252
3498.07,0.05338
3500.43,0.053529
3502.79,0.053881
3505.16,0.054209
3507.53,0.054472
3509.91,0.054805
3512.29,0.055068
3514.67,0.055392
3517.05,0.055768
3519.44,0.05616
3521.83,0.056616
3524.23,0.057169
3526.62,0.057642
3529.02,0.058175
3531.43,0.058649
3533.83,0.059138
3536.24,0.059692
3538.66,0.060294
3541.08,0.060966
3543.5,0.061629
3545.92,0.062238
3548.35,0.062855
3550.78,0.063513
3553.21,0.064184
3555.65,0.064828
3558.09,0.065547
3560.53,0.066258
3562.98,0.066908
3565.43,0.067753
3567.88,0.068468
3570.34,0.069069
3572.8,0.069757
3575.27,0.070633
3577.73,0.071441
3580.2,0.07228
3582.68,0.073107
3585.16,0.073897
3587.64,0.074628
3590.12,0.075357
3592.61,0.076148
3595.1,0.076935
3597.6,0.07777
3600.09,0.07863
3602.6,0.07944
3605.1,0.080204
3607.61,0.081042
3610.12,0.08182
3612.64,0.082576
3615.16,0.083521
3617.68,0.084509
3620.21,0.085331
3622.74,0.086055
3625.27,0.086912
3627.81,0.087751
3630.35,0.088561
3632.89,0.089434
3635.44,0.090273
3637.99,0.09113
3640.54,0.092004
3643.1,0.092884
3645.66,0.093745
3648.23,0.094602
3650.8,0.095455
3653.37,0.096198
3655.95,0.096974
3658.53,0.097905
3661.11,0.098793
3663.7,0.099664
3666.29,0.100487
3668.89,0.101258
3671.48,0.102092
3674.09,0.103025
3676.69,0.103878
3679.3,0.104687
3681.91,0.105454
3684.53,0.106231
3687.15,0.107058
3689.78,0.107879
3692.4,0.108679
3695.04,0.109461
3697.67,0.110333
3700.31,0.111178
3702.95,0.111957
3705.6,0.112753
3708.25,0.11358
3710.91,0.114381
3713.56,0.11523
3716.23,0.116007
3718.89,0.116744
3721.56,0.117566
3724.23,0.118307
3726.91,0.119035
3729.59,0.119779
3732.28,0.120569
3734.97,0.121271
3737.66,0.12194
3740.36,0.12274
3743.06,0.123525
3745.76,0.124276
3748.47,0.12504
3751.18,0.125745
3753.9,0.126423
3756.62,0.127167
3759.34,0.12791
3762.07,0.128557
3764.8,0.129195
3767.54,0.12997
3770.28,0.130633
3773.02,0.131244
3775.77,0.131874
3778.52,0.132637
3781.28,0.133352
3784.04,0.133975
3786.8,0.134591
3789.57,0.135219
3792.34,0.135939
3795.12,0.136629
3797.9,0.137287
3800.69,0.137883
3803.47,0.138597
3806.27,0.139248
3809.06,0.139899
3811.86,0.140619
3814.67,0.141224
3817.48,0.141896
3820.29,0.142568
3823.11,0.143222
3825.93,0.143907
3828.76,0.144509
3831.59,0.145158
3834.42,0.14579
3837.26,0.14632
3840.1,0.146955
3842.95,0.147609
3845.8,0.148215
3848.65,0.14875
3851.51,0.149316
3854.38,0.149902
3857.24,0.15049
3860.12,0.151015
3862.99,0.151558
3865.87,0.152153
3868.76,0.152704
3871.65,0.153269
3874.54,0.15382
3877.44,0.154396
3880.34,0.15493
3883.25,0.155392
3886.16,0.155847
3889.07,0.156304
3891.99,0.156818
3894.92,0.15728
3897.85,0.157797
3900.78,0.158339
3903.72,0.158791
3906.66,0.159177
3909.6,0.159535
3912.55,0.159966
3915.51,0.160424
3918.47,0.160869
3921.43,0.161366
3924.4,0.1617
3927.38,0.161957
3930.35,0.162355
3933.33,0.162703
3936.32,0.163076
3939.31,0.163462
3942.31,0.163778
3945.31,0.164074
3948.31,0.164511
3951.32,0.164901
3954.34,0.165275
3957.35,0.165536
3960.38,0.165799
3963.41,0.166044
3966.44,0.166361
3969.48,0.166666
3972.52,0.166953
3975.56,0.167332
3978.61,0.167591
3981.67,0.167832
3984.73,0.168051
3987.8,0.168311
3990.87,0.16861
3993.94,0.168882
3997.02,0.169073
4000.1,0.169327
4003.19,0.16964
4006.29,0.169903
4009.39,0.170169
4012.49,0.170463
4015.6,0.170787
4018.71,0.17104
4021.83,0.171255
4024.95,0.171376
4028.08,0.171637
4031.21,0.172021
4034.35,0.172345
4037.49,0.172494
4040.64,0.172614
4043.79,0.172812
4046.94,0.173052
4050.11,0.173277
4053.27,0.17353
4056.44,0.173674
4059.62,0.173839
4062.8,0.174014
4065.99,0.174197
4069.18,0.17437
4072.38,0.174562
4075.58,0.174784
4078.78,0.17491
4082.0,0.175101
4085.21,0.175268
4088.43,0.175325
4091.66,0.175375
4094.89,0.17554
4098.13,0.175786
4101.37,0.175988
4104.62,0.17606
4107.87,0.176104
4111.13,0.176232
4114.39,0.176364
4117.66,0.176361
4120.93,0.176405
4124.21,0.176601
4127.5,0.176782
4130.79,0.177024
4134.08,0.177222
4137.38,0.177269
4140.68,0.177352
4143.99,0.177499
4147.31,0.177604
4150.63,0.177749
4153.95,0.177831
4157.29,0.177903
4160.62,0.17797
4163.96,0.178003
4167.31,0.178022
4170.66,0.17812
4174.02,0.178034
4177.39,0.177983
4180.75,0.178021
4184.13,0.178062
4187.51,0.178044
4190.89,0.177935
4194.28,0.177908
4197.68,0.17787
4201.08,0.177816
4204.49,0.177768
4207.9,0.177686
4211.32,0.17753
4214.74,0.177338
4218.17,0.177186
4221.61,0.177015
4225.05,0.176843
4228.5,0.176771
4231.95,0.176789
4235.4,0.176749
4238.87,0.176771
4242.34,0.176776
4245.81,0.17683
4249.29,0.176948
4252.78,0.176908
4256.27,0.177004
4259.77,0.176965
4263.27,0.176677
4266.78,0.176508
4270.29,0.176456
4273.81,0.176423
4277.34,0.17637
4280.87,0.176383
4284.41,0.176361
4287.95,0.176323
4291.5,0.176245
4295.06,0.176219
4298.62,0.176192
4302.19,0.176063
4305.76,0.175936
4309.34,0.175926
4312.92,0.175847
4316.52,0.175703
4320.11,0.175598
4323.72,0.175483
4327.32,0.175319
4330.94,0.175113
4334.56,0.174951
4338.19,0.174842
4341.82,0.17461
4345.46,0.174397
4349.11,0.174252
4352.76,0.174043
4356.42,0.173754
4360.08,0.17353
4363.75,0.173331
4367.43,0.173103
4371.11,0.172779
4374.8,0.172472
4378.49,0.172105
4382.19,0.171878
4385.9,0.171641
4389.61,0.171336
4393.33,0.170999
4397.06,0.170756
4400.79,0.170491
4404.53,0.170241
4408.28,0.170059
4412.03,0.169868
4415.79,0.16961
4419.55,0.169435
4423.32,0.169298
4427.1,0.169026
4430.88,0.168772
4434.68,0.168647
4438.47,0.168393
4442.28,0.168138
4446.08,0.167926
4449.9,0.167674
4453.72,0.167342
4457.55,0.167002
4461.39,0.166669
4465.23,0.166422
4469.08,0.166149
4472.94,0.165782
4476.8,0.165419
4480.67,0.165054
4484.55,0.164719
4488.43,0.164443
4492.32,0.164173
4496.21,0.16396
4500.12,0.163771
4504.03,0.163488
4507.94,0.163214
4511.87,0.162991
4515.8,0.162692
4519.73,0.162418
4523.68,0.162109
4527.63,0.16187
4531.59,0.161626
4535.55,0.161345
4539.52,0.161078
4543.5,0.160914
4547.49,0.160715
4551.48,0.160495
4555.48,0.160262
4559.49,0.160084
4563.5,0.159872
4567.52,0.159663
4571.55,0.159408
4575.58,0.159171
4579.63,0.158935
4583.67,0.158704
4587.73,0.158444
4591.79,0.158202
4595.86,0.157905
4599.94,0.157731
4604.03,0.157537
4608.12,0.157257
4612.22,0.156906
4616.33,0.156523
4620.44,0.156224
4624.56,0.155932
4628.69,0.155448
4632.83,0.155011
4636.97,0.154664
4641.12,0.154199
4645.28,0.153719
4649.45,0.153199
4653.62,0.152555
4657.8,0.151979
4661.99,0.151474
4666.19,0.150976
4670.39,0.150445
4674.6,0.1501
4678.82,0.149856
4683.05,0.149594
4687.28,0.149334
4691.52,0.149131
4695.77,0.148932
4700.03,0.148836
4704.3,0.148718
4708.57,0.148758
4712.85,0.148854
4717.14,0.148943
4721.43,0.148969
4725.74,0.148949
4730.05,0.148943
4734.37,0.148913
4738.7,0.148808
4743.03,0.148682
4747.38,0.148545
4751.73,0.148397
4756.09,0.148183
4760.45,0.147985
4764.83,0.147738
4769.21,0.147477
4773.6,0.147251
4778.0,0.147109
4782.41,0.146894
4786.83,0.146622
4791.25,0.146324
4795.68,0.146114
4800.13,0.145961
4804.57,0.14573
4809.03,0.145493
4813.5,0.145357
4817.97,0.145256
4822.45,0.145188
4826.94,0.145085
4831.44,0.145032
4835.95,0.144994
4840.46,0.144986
4844.99,0.145002
4849.52,0.144996
4854.06,0.144958
4858.61,0.144941
4863.17,0.144936
4867.73,0.144975
4872.31,0.144989
4876.89,0.144982
4881.48,0.144977
4886.08,0.145079
4890.69,0.14513
4895.31,0.145243
4899.94,0.145396
4904.57,0.145571
4909.22,0.145699
4913.87,0.145887
4918.53,0.146101
4923.21,0.14621
4927.88,0.14639
4932.57,0.146606
4937.27,0.14671
4941.98,0.146774
4946.69,0.146975
4951.42,0.147195
4956.15,0.147323
4960.9,0.147492
4965.65,0.147631
4970.41,0.147822
4975.18,0.148047
4979.96,0.148232
4984.75,0.148406
4989.54,0.148617
4994.35,0.148784
4999.17,0.148935
5003.99,0.149102
5008.83,0.1493
5013.67,0.149459
5018.52,0.149549
5023.39,0.149674
5028.26,0.149873
5033.14,0.150024
5038.03,0.150154
5042.93,0.150222
5047.84,0.15027
5052.76,0.150378
5057.69,0.150533
5062.63,0.150549
5067.58,0.150553
5072.54,0.150566
5077.51,0.150587
5082.49,0.15056
5087.47,0.15061
5092.47,0.150597
5097.48,0.150495
5102.5,0.150469
5107.52,0.150453
5112.56,0.150325
5117.61,0.150204
5122.66,0.150082
5127.73,0.149962
5132.81,0.149835
5137.89,0.149735
5142.99,0.14958
5148.1,0.149346
5153.22,0.149126
5158.34,0.14899
5163.48,0.148816
5168.63,0.148644
5173.79,0.14831
5178.96,0.147954
5184.13,0.147616
5189.32,0.147352
5194.52,0.147046
5199.73,0.14667
5204.96,0.146321
5210.19,0.146045
5215.43,0.145648
5220.68,0.145207
5225.94,0.144674
5231.22,0.144235
5236.5,0.143824
5241.79,0.143349
5247.1,0.142853
5252.42,0.142325
5257.74,0.141718
5263.08,0.141181
5268.43,0.140701
5273.79,0.140115
5279.16,0.139431
5284.54,0.1389
5289.93,0.138306
5295.34,0.137683
5300.75,0.137125
5306.18,0.136483
5311.61,0.135869
5317.06,0.135279
5322.52,0.134607
5327.99,0.133994
5333.47,0.133365
5338.96,0.132705
5344.47,0.132026
5349.98,0.131371
5355.51,0.130774
5361.05,0.130205
5366.6,0.129569
5372.16,0.12894
5377.73,0.128254
5383.32,0.127575
5388.91,0.126879
5394.52,0.126248
5400.14,0.125573
5405.77,0.12493
5411.41,0.124283
5417.07,0.123586
5422.74,0.122824
5428.41,0.122273
5434.1,0.121674
5439.81,0.120988
5445.52,0.120326
5451.25,0.119732
5456.98,0.119119
5462.73,0.118394
5468.5,0.11772
5474.27,0.117196
5480.06,0.116558
5485.86,0.116048
5491.67,0.115617
5497.49,0.114979
5503.33,0.114361
5509.18,0.113831
5515.04,0.11324
5520.91,0.112684
5526.8,0.112227
5532.69,0.111767
5538.61,0.111149
5544.53,0.110559
5550.47,0.110043
5556.41,0.109529
5562.38,0.10899
5568.35,0.108453
5574.34,0.107858
5580.34,0.107322
5586.35,0.106922
5592.38,0.106378
5598.42,0.105698
5604.47,0.105101
5610.54,0.104563
5616.61,0.104037
5622.71,0.103527
5628.81,0.103035
5634.93,0.102425
5641.06,0.101752
5647.21,0.101164
5653.36,0.100689
5659.54,0.100062
5665.72,0.099515
5671.92,0.0989
5678.13,0.098242
5684.36,0.097666
5690.6,0.097121
5696.85,0.096466
5703.12,0.095806
5709.4,0.095062
5715.69,0.09438
5722.0,0.09379
5728.33,0.093128
5734.66,0.092349
5741.01,0.091644
5747.38,0.090938
5753.76,0.09018
5760.15,0.089435
5766.56,0.088566
5772.98,0.08776
5779.41,0.086948
5785.86,0.08607
5792.33,0.085223
5798.81,0.084338
5805.3,0.083471
5811.81,0.082553
5818.33,0.081567
5824.87,0.080636
5831.42,0.079827
5837.99,0.078842
5844.57,0.077856
5851.17,0.076933
5857.78,0.075993
5864.41,0.075021
5871.05,0.074133
5877.7,0.073255
5884.38,0.072353
5891.06,0.071759
5897.76,0.070971
5904.48,0.070384
5911.21,0.069818
5917.96,0.069178
5924.73,0.068714
5931.5,0.068236
5938.3,0.067698
5945.11,0.067513
5951.93,0.067354
5958.78,0.067067
5965.63,0.066854
5972.51,0.066652
5979.39,0.066694
5986.3,0.066609
5993.22,0.066532
6000.16,0.066472
6007.11,0.06631
6014.08,0.066134
6021.06,0.066068
6028.06,0.065976
6035.08,0.065776
6042.12,0.065513
6049.17,0.065215
6056.23,0.065125
6063.32,0.0651
6070.42,0.064752
6077.53,0.064443
6084.67,0.064261
6091.82,0.063995
6098.98,0.063717
6106.17,0.06351
6113.37,0.063241
6120.58,0.063258
6127.82,0.063571
6135.07,0.064009
6142.34,0.064551
6149.63,0.065285
6156.93,0.06606
6164.25,0.066892
6171.59,0.067832
6178.95,0.068687
6186.32,0.069423
6193.71,0.070292
6201.12,0.071078
6208.54,0.071655
6215.99,0.072223
6223.45,0.072706
6230.93,0.073042
6238.43,0.073246
6245.95,0.073389
6253.48,0.073443
6261.03,0.073466
6268.6,0.073479
6276.19,0.073399
6283.8,0.073213
6291.43,0.072956
6299.07,0.07259
6306.73,0.072195
6314.42,0.071784
6322.12,0.071311
6329.84,0.070803
6337.57,0.070212
6345.33,0.069602
6353.11,0.069063
6360.9,0.068405
6368.72,0.067734
6376.55,0.067058
6384.4,0.066305
6392.27,0.06551
6400.17,0.064683
6408.08,0.063892
6416.01,0.063101
6423.96,0.062128
6431.93,0.060999
6439.92,0.059979
6447.93,0.058885
6455.96,0.057782
6464.01,0.056628
6472.08,0.055474
6480.17,0.054227
6488.28,0.052978
6496.41,0.051746
6504.56,0.050437
6512.73,0.049091
6520.92,0.047947
6529.14,0.046734
6537.37,0.04545
6545.63,0.044262
6553.9,0.043152
6562.2,0.042053
6570.51,0.041004
6578.85,0.039936
6587.21,0.03895
6595.59,0.0381
6603.99,0.037314
6612.42,0.036533
6620.86,0.035708
6629.33,0.034863
6637.82,0.034068
6646.33,0.033115
6654.86,0.032177
6663.41,0.031258
6671.99,0.030217
6680.59,0.029093
6689.21,0.02804
6697.85,0.026828
6706.51,0.025666
6715.2,0.024532
6723.91,0.023438
6732.64,0.022383
6741.4,0.021456
6750.18,0.020569
6758.98,0.019699
6767.8,0.01895
6776.65,0.01832
6785.52,0.017716
6794.41,0.017233
6803.33,0.016829
6812.27,0.016609
6821.23,0.016364
6830.22,0.016229
6839.23,0.016142
6848.26,0.015955
6857.32,0.015834
6866.4,0.015793
6875.51,0.015719
6884.64,0.015735
6893.8,0.015763
6902.98,0.01583
6912.18,0.015939
6921.41,0.016132
6930.66,0.016324
6939.94,0.016592
6949.24,0.016875
6958.57,0.017142
6967.92,0.017454
6977.3,0.017766
6986.7,0.018085
6996.13,0.018458
7005.59,0.018815
7015.07,0.019178
7024.57,0.019619
7034.1,0.020108
7043.66,0.020611
7053.25,0.02114
7062.85,0.02164
7072.49,0.022149
7082.15,0.022721
7091.84,0.023332
7101.55,0.023982
7111.3,0.024733
7121.06,0.025571
7130.86,0.026465
7140.68,0.027387
7150.53,0.028397
7160.41,0.029453
7170.31,0.030561
7180.24,0.031703
7190.2,0.03279
7200.19,0.033898
7210.2,0.035077
7220.24,0.036271
7230.31,0.037427
7240.41,0.038549
7250.54,0.039636
7260.69,0.040746
7270.88,0.04184
7281.09,0.042818
7291.33,0.043645
7301.6,0.044446
7311.9,0.045263
7322.22,0.045982
7332.58,0.046601
7342.97,0.04709
7353.38,0.047514
7363.83,0.04791
7374.3,0.048218
7384.81,0.048486
7395.34,0.048625
7405.91,0.048635
7416.5,0.04853
7427.13,0.048478
7437.78,0.048383
7448.47,0.048144
7459.19,0.047831
7469.94,0.047462
7480.71,0.047015
7491.52,0.046549
7502.37,0.046037
7513.24,0.045454
7524.14,0.04478
7535.08,0.044051
7546.05,0.043327
7557.05,0.042502
7568.08,0.041671
7579.15,0.040855
7590.24,0.039913
7601.37,0.038873
7612.53,0.037989
7623.73,0.037086
7634.96,0.036041
7646.22,0.035009
7657.51,0.034029
7668.84,0.033043
7680.2,0.032071
7691.59,0.031042
7703.02,0.030057
7714.49,0.02905
7725.98,0.02808
7737.52,0.027118
7749.08,0.026208
7760.68,0.025384
7772.32,0.024566
7783.99,0.023795
7795.69,0.023117
7807.43,0.022484
7819.21,0.022025
7831.02,0.021583
7842.87,0.021165
7854.75,0.020955
7866.67,0.0208
7878.62,0.020738
7890.62,0.020904
7902.64,0.021232
7914.71,0.021624
7926.81,0.022075
7938.95,0.022734
7951.13,0.023482
7963.34,0.0242
7975.59,0.024857
7987.88,0.025496
8000.21,0.026018
8012.57,0.02645
8024.98,0.026727
8037.42,0.027009
8049.9,0.027291
8062.42,0.02756
8074.98,0.027807
8087.57,0.028054
8100.21,0.028433
8112.89,0.028779
8125.6,0.029031
8138.36,0.029293
8151.16,0.029534
8163.99,0.029756
8176.87,0.030055
8189.79,0.030404
8202.75,0.030726
8215.75,0.031015
8228.79,0.031229
8241.87,0.031534
8254.99,0.03185
8268.16,0.032102
8281.37,0.032384
8294.62,0.032612
8307.91,0.032771
8321.24,0.033049
8334.62,0.033323
8348.04,0.033606
8361.51,0.033851
8375.02,0.034049
8388.57,0.034183
8402.16,0.034379
8415.8,0.034588
8429.49,0.034807
8443.22,0.034945
8456.99,0.035189
8470.81,0.03554
8484.67,0.035736
8498.58,0.03585
8512.54,0.035849
8526.54,0.0359
8540.58,0.035949
8554.68,0.035969
8568.82,0.03604
8583.0,0.036098
8597.24,0.036144
8611.52,0.036181
8625.85,0.036133
8640.23,0.036107
8654.65,0.036055
8669.12,0.035951
8683.64,0.035945
8698.21,0.035915
8712.83,0.035828
8727.5,0.035575
8742.22,0.035369
8756.99,0.035219
8771.8,0.034927
8786.67,0.034762
8801.59,0.034775
8816.56,0.034796
8831.58,0.034825
8846.65,0.034853
8861.77,0.034904
8876.94,0.034924
8892.17,0.034793
8907.45,0.03468
8922.78,0.03472
8938.16,0.034814
8953.6,0.034759
8969.09,0.034639
8984.64,0.034618
9000.23,0.034718
9015.89,0.034903
9031.59,0.034989
9047.36,0.034929
9063.17,0.034901
9079.05,0.034959
9094.97,0.03499
9110.96,0.034966
9127.0,0.034969
9143.1,0.035037
9159.25,0.035168
9175.46,0.035232
9191.73,0.035236
9208.06,0.035337
9224.44,0.035468
9240.88,0.035631
9257.38,0.035804
9273.94,0.035964
9290.56,0.036127
9307.24,0.036307
9323.98,0.036599
9340.78,0.036886
9357.64,0.03706
9374.57,0.037198
9391.55,0.037495
9408.59,0.03785
9425.7,0.038219
9442.87,0.038513
9460.1,0.038862
9477.4,0.039237
9494.75,0.039466
9512.17,0.039654
9529.66,0.039717
9547.21,0.039726
9564.83,0.039903
9582.5,0.040489
9600.25,0.041479
9618.06,0.042586
9635.94,0.043738
9653.88,0.044897
9671.89,0.046046
9689.97,0.047085
9708.12,0.048043
9726.33,0.048946
9744.62,0.049783
9762.97,0.050516
9781.39,0.051256
9799.88,0.05195
9818.44,0.052523
9837.07,0.053119
9855.77,0.053724
9874.54,0.054176
9893.39,0.05464
9912.3,0.05529
9931.29,0.055809
9950.36,0.056346
9969.49,0.056917
9988.7,0.057308
10007.98,0.05772
10027.34,0.058161
10046.77,0.058569
10066.28,0.058959
10085.87,0.059532
10105.53,0.06005
10125.26,0.060435
10145.08,0.060808
10164.97,0.060924
10184.94,0.060781
10204.99,0.060721
10225.12,0.061789
10245.33,0.0637
10265.61,0.065338
10285.98,0.066467
10306.43,0.067405
10326.96,0.068322
10347.57,0.069281
10368.27,0.07035
10389.05,0.071395
10409.91,0.072433
10430.86,0.073287
10451.88,0.074084
10473.0,0.074842
10494.2,0.075467
10515.49,0.076033
10536.86,0.076469
10558.32,0.07675
10579.87,0.076927
10601.5,0.07699
10623.23,0.076987
10645.04,0.076928
10666.94,0.076789
10688.94,0.076539
10711.02,0.076174
10733.2,0.075769
10755.47,0.075372
10777.83,0.074911
10800.28,0.074189
10822.83,0.073441
10845.47,0.072658
10868.21,0.071769
10891.04,0.071004
10913.97,0.07014
10936.99,0.069191
10960.12,0.068162
10983.34,0.067119
11006.66,0.066068
11030.07,0.065045
11053.59,0.063989
11077.21,0.063014
11100.93,0.062031
11124.75,0.061054
11148.68,0.060172
11172.71,0.059422
11196.84,0.058776
11221.07,0.058211
11245.41,0.057632
11269.86,0.057149
11294.41,0.056701
11319.07,0.056278
11343.84,0.056166
11368.72,0.056154
11393.7,0.056012
11418.8,0.056007
11444.01,0.056204
11469.33,0.056422
11494.76,0.056569
11520.3,0.056798
11545.96,0.057182
11571.73,0.057676
11597.62,0.058234
11623.62,0.058773
11649.74,0.059369
11675.98,0.060023
11702.34,0.060775
11728.81,0.061562
11755.41,0.062325
11782.13,0.062951
11808.96,0.063522
11835.92,0.064158
11863.01,0.064823
11890.22,0.065223
11917.55,0.065657
11945.01,0.066192
11972.6,0.066471
12000.31,0.066651
12028.16,0.066856
12056.13,0.067105
12084.23,0.067419
12112.46,0.067469
12140.83,0.067415
12169.33,0.067642
12197.96,0.067711
12226.73,0.067658
12255.64,0.067716
12284.68,0.067642
12313.86,0.067571
12343.18,0.067564
12372.64,0.06752
12402.24,0.067516
12431.98,0.067441
12461.86,0.067378
12491.89,0.067413
12522.07,0.067195
12552.38,0.066953
12582.85,0.06706
12613.47,0.067188
12644.23,0.067116
12675.15,0.067004
12706.21,0.067047
12737.43,0.06699
12768.81,0.066913
12800.33,0.066893
12832.02,0.066924
12863.86,0.066864
12895.86,0.066907
12928.02,0.066952
12960.34,0.066905
12992.82,0.066757
13025.46,0.066553
13058.27,0.066268
13091.25,0.066076
13124.39,0.065811
13157.7,0.065386
13191.18,0.064866
13224.83,0.064364
13258.66,0.063884
13292.65,0.063391
13326.83,0.062843
13361.17,0.062409
13395.7,0.061934
13430.4,0.061343
13465.29,0.06085
13500.35,0.060236
13535.6,0.059499
13571.03,0.058918
13606.65,0.058416
13642.46,0.057773
13678.46,0.057109
13714.64,0.056436
13751.02,0.055773
13787.59,0.055118
13824.36,0.05428
13861.32,0.053553
13898.49,0.052789
13935.85,0.051936
13973.41,0.05113
14011.17,0.050333
14049.15,0.04948
14087.32,0.048645
14125.71,0.047377
14164.3,0.046094
14203.11,0.04495
14242.13,0.043778
14281.36,0.04246
14320.81,0.041117
14360.49,0.039637
14400.38,0.038118
14440.49,0.036708
14480.82,0.035285
14521.39,0.033607
14562.18,0.031823
14603.2,0.030172
14644.45,0.02859
14685.93,0.027231
14727.66,0.026019
14769.62,0.024978
14811.81,0.024368
14854.25,0.023939
14896.94,0.023663
14939.87,0.02344
14983.05,0.023221
15026.48,0.023121
15070.16,0.022931
15114.1,0.022744
15158.29,0.022611
15202.74,0.022564
15247.46,0.022469
15292.43,0.022352
15337.68,0.022218
15383.19,0.022214
15428.97,0.022152
15475.03,0.022101
15521.36,0.022188
15567.97,0.022379
15614.87,0.022388
15662.04,0.022122
15709.5,0.021821
15757.25,0.021774
15805.29,0.021815
15853.62,0.021912
15902.26,0.022001
15951.19,0.022179
16000.42,0.022503
16049.95,0.022856
16099.8,0.023148
16149.95,0.023579
16200.42,0.024307
16251.21,0.024912
16302.31,0.025431
16353.74,0.026032
16405.49,0.026568
16457.57,0.027274
16509.98,0.027893
16562.73,0.028332
16615.82,0.029104
16669.24,0.029955
16723.02,0.030371
16777.14,0.030718
16831.61,0.031495
16886.43,0.03231
16941.62,0.032745
16997.16,0.033026
17053.08,0.033376
17109.36,0.033502
17166.01,0.033803
17223.04,0.034206
17280.45,0.034481
17338.24,0.03483
17396.43,0.035209
17455.0,0.035644
17513.97,0.035924
17573.34,0.036276
17633.11,0.03653
17693.29,0.036709
17753.89,0.036882
17814.9,0.03706
17876.33,0.037071
17938.18,0.037142
18000.47,0.0373
18063.19,0.037459
18126.35,0.037471
18189.95,0.037669
18254.0,0.038013
18318.5,0.038052
18383.46,0.037856
18448.88,0.037784
18514.77,0.037704
18581.13,0.037885
18647.97,0.03792
18715.29,0.037978
18783.1,0.038021
18851.4,0.03795
18920.2,0.03774
18989.51,0.038002
19059.32,0.038431
19129.65,0.038159
19200.5,0.037816
19271.88,0.037484
19343.79,0.037456
19416.24,0.037533
19489.23,0.037011
19562.77,0.036633
19636.88,0.03638
19711.54,0.03604
19786.78,0.035955
19862.59,0.035692
19938.98,0.035538
20015.96,0.035255
20093.55,0.034714
20171.73,0.034324
20250.53,0.034132
20329.94,0.033616
20409.98,0.033051
20490.65,0.032786
20571.96,0.032683
20653.92,0.032484
20736.54,0.031823
20819.82,0.031193
20903.77,0.031051
20988.4,0.03048
21073.72,0.030097
21159.73,0.029981
21246.46,0.029334
21333.89,0.028927
21422.04,0.028999
21510.93,0.029057
21600.56,0.028955
21690.94,0.029132
21782.08,0.029086
21873.99,0.028496
21966.67,0.028339
22060.15,0.027731
22154.42,0.026711
22249.51,0.026454
22345.41,0.026253
22442.14,0.025843
22539.72,0.025388
22638.14,0.024933
22737.43,0.024511
22837.6,0.024124
22938.65,0.023849
23040.6,0.023822
23143.46,0.023309
23247.24,0.023167
23351.96,0.023337
23457.63,0.0229
23564.25,0.022511
23671.85,0.022359
23780.44,0.022157
23890.02,0.02185
24000.63,0.021215
24112.26,0.021302
24224.93,0.022102
24338.66,0.023387
24453.47,0.024242
24569.36,0.024543
24686.36,0.024107
24804.47,0.023277
24923.73,0.023615
25044.13,0.024341
25165.71,0.024033
25288.46,0.025123
25412.43,0.025817
25537.61,0.025894
25664.04,0.026718
25791.72,0.028766
25920.68,0.028347
