Database of Origin,University of Winnipeg Spectrophotometer Facility
Sample Description,8. Sulfates: RELAB + Nicolet spectra / Spectra all made consistently merged: Jan. / 10 / 2005
Date Added,2016-07-15 22:05:54.693889

Data ID,RPN_SUL_04          
Sample ID,PIG021
Mineral Name,anglesite (syn)
Grain Size,<45
Viewing Geometry,30 / 0 | 30
Resolution,5 / 1.3-129
Material Class,Sulfate

Wavelength
305.0,0.7927
310.0,0.79402
315.0,0.79523
320.0,0.79926
325.0,0.80176
330.0,0.80512
335.0,0.80862
340.0,0.81229
345.0,0.81612
350.0,0.81895
355.0,0.82525
360.0,0.82907
365.0,0.83353
370.0,0.83768
375.0,0.84321
380.0,0.84876
385.0,0.85582
390.0,0.8624
395.0,0.87034
400.0,0.87363
405.0,0.87694
410.0,0.88037
415.0,0.88353
420.0,0.88774
425.0,0.89074
430.0,0.89479
435.0,0.89734
440.0,0.90137
445.0,0.90254
450.0,0.90605
455.0,0.90528
460.0,0.90732
465.0,0.90703
470.0,0.90802
475.0,0.9082
480.0,0.90919
485.0,0.91015
490.0,0.91283
495.0,0.91351
500.0,0.91559
505.0,0.91657
510.0,0.91975
515.0,0.92004
520.0,0.92313
525.0,0.92383
530.0,0.92748
535.0,0.92809
540.0,0.93123
545.0,0.93157
550.0,0.93434
555.0,0.93327
560.0,0.93681
565.0,0.93581
570.0,0.93788
575.0,0.93692
580.0,0.93884
585.0,0.93779
590.0,0.93973
595.0,0.93871
600.0,0.93972
605.0,0.93741
610.0,0.94017
615.0,0.94014
620.0,0.94261
625.0,0.94183
630.0,0.94393
635.0,0.94285
640.0,0.9448
645.0,0.94415
650.0,0.94481
655.0,0.94369
660.0,0.94404
665.0,0.94297
670.0,0.94347
675.0,0.9426
680.0,0.94306
685.0,0.94211
690.0,0.94285
695.0,0.94095
700.0,0.94271
705.0,0.94058
710.0,0.94169
715.0,0.94049
720.0,0.94122
725.0,0.94261
730.0,0.94318
735.0,0.94223
740.0,0.94218
745.0,0.94175
750.0,0.9422
755.0,0.94199
760.0,0.94137
765.0,0.94122
770.0,0.94042
775.0,0.94084
780.0,0.93965
785.0,0.93974
790.0,0.93916
795.0,0.93921
800.0,0.93764
805.0,0.93816
810.0,0.93804
815.0,0.9373
820.0,0.93733
825.0,0.93661
830.0,0.93618
835.0,0.9358
840.0,0.93554
845.0,0.93489
850.0,0.93469
855.0,0.93479
860.0,0.93452
865.0,0.9344
870.0,0.9341
875.0,0.93447
880.0,0.93428
885.0,0.93443
890.0,0.93429
895.0,0.93491
900.0,0.93458
905.0,0.93484
910.0,0.93539
915.0,0.93633
920.0,0.9355
925.0,0.93729
930.0,0.93664
935.0,0.93721
940.0,0.93672
945.0,0.93727
950.0,0.9373
955.0,0.9377
960.0,0.93826
965.0,0.9375
970.0,0.93822
975.0,0.93867
980.0,0.93844
985.0,0.93903
990.0,0.93898
995.0,0.93802
1000.0,0.93874
1005.0,0.93804
1010.0,0.93851
1015.0,0.93982
1020.0,0.93927
1025.0,0.93939
1030.0,0.93957
1035.0,0.93999
1040.0,0.93945
1045.0,0.9409
1050.0,0.93973
1055.0,0.93995
1060.0,0.93951
1065.0,0.94054
1070.0,0.94043
1075.0,0.94153
1080.0,0.94076
1085.0,0.94107
1090.0,0.94098
1095.0,0.94026
1100.0,0.94055
1105.0,0.93945
1110.0,0.93981
1115.0,0.9399
1120.0,0.93996
1125.0,0.93862
1130.0,0.93923
1135.0,0.94078
1140.0,0.93946
1145.0,0.94004
1150.0,0.93863
1155.0,0.93869
1160.0,0.93983
1165.0,0.93971
1170.0,0.93882
1175.0,0.9399
1180.0,0.93954
1185.0,0.93972
1190.0,0.94025
1195.0,0.94004
1200.0,0.94053
1205.0,0.94218
1210.0,0.94385
1215.0,0.94103
1220.0,0.94124
1225.0,0.94179
1230.0,0.94297
1235.0,0.943
1240.0,0.94288
1245.0,0.94285
1250.0,0.94291
1255.0,0.94314
1260.0,0.94256
1265.0,0.94236
1270.0,0.94194
1275.0,0.94105
1280.0,0.94045
1285.0,0.93989
1290.0,0.93967
1295.0,0.93933
1300.0,0.93891
1305.0,0.93877
1310.0,0.93882
1315.0,0.93878
1320.0,0.93871
1325.0,0.93862
1330.0,0.93842
1335.0,0.93853
1340.0,0.93903
1345.0,0.93892
1350.0,0.93848
1355.0,0.93785
1360.0,0.93724
1365.0,0.93621
1370.0,0.93526
1375.0,0.93445
1380.0,0.93426
1385.0,0.93423
1390.0,0.93474
1395.0,0.93466
1400.0,0.93414
1405.0,0.93388
1410.0,0.93383
1415.0,0.93275
1420.0,0.93104
1425.0,0.9291
1430.0,0.92815
1435.0,0.92588
1440.0,0.92665
1445.0,0.92641
1450.0,0.9263
1455.0,0.92485
1460.0,0.92591
1465.0,0.92536
1470.0,0.92631
1475.0,0.9248
1480.0,0.92597
1485.0,0.92622
1490.0,0.92637
1495.0,0.92763
1500.0,0.92754
1505.0,0.9286
1510.0,0.92897
1515.0,0.92941
1520.0,0.93029
1525.0,0.93129
1530.0,0.93093
1535.0,0.93179
1540.0,0.93172
1545.0,0.93287
1550.0,0.9322
1555.0,0.93311
1560.0,0.93302
1565.0,0.93367
1570.0,0.93381
1575.0,0.93338
1580.0,0.93392
1585.0,0.93406
1590.0,0.93419
1595.0,0.93423
1600.0,0.93434
1605.0,0.93374
1610.0,0.93514
1615.0,0.93447
1620.0,0.93489
1625.0,0.93411
1630.0,0.93349
1635.0,0.93368
1640.0,0.93309
1645.0,0.93367
1650.0,0.9322
1655.0,0.93322
1660.0,0.93305
1665.0,0.93282
1670.0,0.93207
1675.0,0.93293
1680.0,0.9319
1685.0,0.93172
1690.0,0.93146
1695.0,0.93268
1700.0,0.93358
1705.0,0.93314
1710.0,0.93257
1715.0,0.93226
1720.0,0.93098
1725.0,0.931
1730.0,0.93032
1735.0,0.9298
1740.0,0.93033
1745.0,0.92965
1750.0,0.92986
1755.0,0.93039
1760.0,0.93054
1765.0,0.92936
1770.0,0.93014
1775.0,0.93075
1780.0,0.92994
1785.0,0.93151
1790.0,0.93062
1795.0,0.93111
1800.0,0.93129
1805.0,0.93125
1810.0,0.93098
1815.0,0.9318
1820.0,0.93101
1825.0,0.93102
1830.0,0.93082
1835.0,0.93049
1840.0,0.93024
1845.0,0.92978
1850.0,0.92892
1855.0,0.9285
1860.0,0.92847
1865.0,0.92665
1870.0,0.92462
1875.0,0.92253
1880.0,0.91944
1885.0,0.91516
1890.0,0.91213
1895.0,0.90809
1900.0,0.90322
1905.0,0.89869
1910.0,0.89459
1915.0,0.89052
1920.0,0.88784
1925.0,0.88435
1930.0,0.88153
1935.0,0.88019
1940.0,0.88075
1945.0,0.88017
1950.0,0.88138
1955.0,0.87898
1960.0,0.88131
1965.0,0.88279
1970.0,0.88432
1975.0,0.88506
1980.0,0.88757
1985.0,0.88903
1990.0,0.89097
1995.0,0.89199
2000.0,0.89159
2005.0,0.89622
2010.0,0.89511
2015.0,0.89808
2020.0,0.899
2025.0,0.90155
2030.0,0.90085
2035.0,0.90208
2040.0,0.90306
2045.0,0.90341
2050.0,0.90433
2055.0,0.90529
2060.0,0.90571
2065.0,0.90466
2070.0,0.90684
2075.0,0.90647
2080.0,0.90711
2085.0,0.90586
2090.0,0.90788
2095.0,0.90755
2100.0,0.90742
2105.0,0.90878
2110.0,0.90929
2115.0,0.90925
2120.0,0.90886
2125.0,0.91089
2130.0,0.91062
2135.0,0.91137
2140.0,0.90998
2145.0,0.91153
2150.0,0.91073
2155.0,0.91089
2160.0,0.91106
2165.0,0.90938
2170.0,0.90997
2175.0,0.91001
2180.0,0.90879
2185.0,0.90814
2190.0,0.90973
2195.0,0.91028
2200.0,0.9087
2205.0,0.90902
2210.0,0.90823
2215.0,0.90838
2220.0,0.90668
2225.0,0.9069
2230.0,0.90402
2235.0,0.90254
2240.0,0.90199
2245.0,0.90099
2250.0,0.89732
2255.0,0.89392
2260.0,0.89158
2265.0,0.88933
2270.0,0.88929
2275.0,0.89096
2280.0,0.89195
2285.0,0.89302
2290.0,0.89203
2295.0,0.8914
2300.0,0.89033
2305.0,0.88962
2310.0,0.88897
2315.0,0.88827
2320.0,0.8887
2325.0,0.8902
2330.0,0.89325
2335.0,0.89424
2340.0,0.89469
2345.0,0.89503
2350.0,0.89538
2355.0,0.89537
2360.0,0.89583
2365.0,0.89435
2370.0,0.89407
2375.0,0.89376
2380.0,0.89148
2385.0,0.89211
2390.0,0.88993
2395.0,0.88961
2400.0,0.88814
2405.0,0.8874
2410.0,0.88672
2415.0,0.88573
2420.0,0.88414
2425.0,0.88139
2430.0,0.8805
2435.0,0.88003
2440.0,0.87766
2445.0,0.87717
2450.0,0.8756
2455.0,0.8724
2460.0,0.87146
2465.0,0.86989
2470.0,0.86855
2475.0,0.86578
2480.0,0.86384
2485.0,0.86048
2490.0,0.85935
2495.0,0.86189
2500.0,0.85798
2505.0,0.85926
2510.0,0.85871
2515.0,0.86004
2520.0,0.85821
2525.0,0.86119
2530.0,0.86447
2535.0,0.86462
2540.0,0.86611
2545.0,0.86626
2550.0,0.86877
2555.0,0.86945
2560.0,0.86929
2565.13,0.86955
2570.22,0.86946
2575.33,0.86947
2580.46,0.86925
2581.74,0.86912
2583.03,0.86914
2584.31,0.86884
2585.6,0.86898
2586.89,0.86887
2588.19,0.8687
2589.48,0.8687
2590.77,0.86865
2592.07,0.86856
2593.36,0.86838
2594.66,0.86786
2595.96,0.86789
2597.26,0.86817
2598.56,0.86817
2599.87,0.86802
2601.17,0.86778
2602.48,0.86755
2603.78,0.8674
2605.09,0.8671
2606.4,0.86687
2607.71,0.86686
2609.03,0.86673
2610.34,0.86644
2611.66,0.86633
2612.97,0.86607
2614.29,0.86577
2615.61,0.86557
2616.93,0.86519
2618.25,0.86514
2619.57,0.86501
2620.9,0.8645
2622.22,0.86438
2623.55,0.86412
2624.88,0.8638
2626.21,0.86334
2627.54,0.86298
2628.87,0.86292
2630.21,0.86227
2631.54,0.86191
2632.88,0.86191
2634.21,0.86142
2635.55,0.86103
2636.89,0.86071
2638.24,0.86031
2639.58,0.85988
2640.92,0.85946
2642.27,0.85901
2643.62,0.8587
2644.97,0.85818
2646.32,0.85757
2647.67,0.85714
2649.02,0.85663
2650.38,0.85605
2651.73,0.85549
2653.09,0.85484
2654.45,0.85435
2655.81,0.85374
2657.17,0.85327
2658.53,0.85259
2659.89,0.85195
2661.26,0.85135
2662.63,0.85059
2664.0,0.84973
2665.36,0.84895
2666.74,0.84815
2668.11,0.84738
2669.48,0.84657
2670.86,0.84535
2672.23,0.8447
2673.61,0.84407
2674.99,0.8431
2676.37,0.84189
2677.76,0.84066
2679.14,0.83954
2680.52,0.83838
2681.91,0.83725
2683.3,0.83586
2684.69,0.83434
2686.08,0.83267
2687.47,0.83099
2688.87,0.82914
2690.26,0.82718
2691.66,0.82495
2693.06,0.82259
2694.46,0.81991
2695.86,0.81709
2697.26,0.81405
2698.66,0.81082
2700.07,0.80706
2701.48,0.8034
2702.89,0.80006
2704.3,0.79677
2705.71,0.79304
2707.12,0.78927
2708.53,0.78529
2709.95,0.78127
2711.37,0.77707
2712.79,0.773
2714.21,0.76885
2715.63,0.7647
2717.05,0.76038
2718.48,0.75601
2719.9,0.7513
2721.33,0.74616
2722.76,0.7408
2724.19,0.73541
2725.62,0.72951
2727.06,0.72376
2728.49,0.71795
2729.93,0.71213
2731.37,0.7063
2732.81,0.70038
2734.25,0.69433
2735.69,0.68849
2737.14,0.68258
2738.58,0.67685
2740.03,0.67112
2741.48,0.66546
2742.93,0.65979
2744.38,0.6544
2745.83,0.64916
2747.29,0.64402
2748.75,0.63877
2750.2,0.6337
2751.66,0.62867
2753.13,0.62374
2754.59,0.61894
2756.05,0.61424
2757.52,0.60959
2758.99,0.6051
2760.46,0.60061
2761.93,0.59634
2763.4,0.59217
2764.87,0.58797
2766.35,0.58389
2767.82,0.57996
2769.3,0.57591
2770.78,0.57192
2772.26,0.56799
2773.75,0.56426
2775.23,0.56041
2776.72,0.5567
2778.21,0.55308
2779.7,0.54954
2781.19,0.54597
2782.68,0.54251
2784.18,0.5389
2785.67,0.5354
2787.17,0.5319
2788.67,0.5285
2790.17,0.52513
2791.67,0.52177
2793.18,0.51845
2794.68,0.51519
2796.19,0.51185
2797.7,0.50868
2799.21,0.50548
2800.72,0.50235
2802.24,0.49927
2803.75,0.49625
2805.27,0.49312
2806.79,0.4901
2808.31,0.48715
2809.83,0.48439
2811.35,0.4816
2812.88,0.47882
2814.41,0.47611
2815.93,0.47353
2817.46,0.47088
2819.0,0.46829
2820.53,0.46573
2822.07,0.46317
2823.6,0.46053
2825.14,0.45804
2826.68,0.45554
2828.22,0.45312
2829.77,0.45075
2831.31,0.44847
2832.86,0.44613
2834.41,0.44392
2835.96,0.44175
2837.51,0.43961
2839.07,0.43738
2840.62,0.43531
2842.18,0.43324
2843.74,0.43114
2845.3,0.42906
2846.86,0.42708
2848.43,0.42524
2849.99,0.42339
2851.56,0.42146
2853.13,0.41966
2854.7,0.41782
2856.27,0.416
2857.85,0.4142
2859.42,0.41245
2861.0,0.41072
2862.58,0.40899
2864.16,0.40728
2865.75,0.40573
2867.33,0.40419
2868.92,0.40267
2870.51,0.40114
2872.1,0.39969
2873.69,0.39832
2875.28,0.397
2876.88,0.39562
2878.48,0.39439
2880.07,0.39313
2881.68,0.3919
2883.28,0.39077
2884.88,0.38965
2886.49,0.38848
2888.1,0.38742
2889.71,0.38633
2891.32,0.38538
2892.93,0.3844
2894.55,0.38343
2896.16,0.38248
2897.78,0.3816
2899.4,0.38072
2901.03,0.37996
2902.65,0.37914
2904.28,0.37838
2905.91,0.37762
2907.54,0.37688
2909.17,0.37616
2910.8,0.37553
2912.44,0.37493
2914.07,0.37373
2915.71,0.37327
2917.35,0.37275
2918.99,0.37231
2920.64,0.3719
2922.29,0.37153
2923.93,0.3712
2925.58,0.37093
2927.24,0.37063
2928.89,0.37036
2930.55,0.37012
2932.2,0.36992
2933.86,0.36973
2935.52,0.36969
2937.19,0.36962
2938.85,0.36955
2940.52,0.36948
2942.19,0.36954
2943.86,0.36965
2945.53,0.36974
2947.21,0.36981
2948.88,0.36996
2950.56,0.37017
2952.24,0.37047
2953.92,0.37073
2955.61,0.37095
2957.29,0.37122
2958.98,0.37158
2960.67,0.37196
2962.36,0.37238
2964.06,0.3728
2965.75,0.37326
2967.45,0.37371
2969.15,0.37419
2970.85,0.37472
2972.55,0.37526
2974.26,0.37573
2975.97,0.37626
2977.68,0.37682
2979.39,0.37746
2981.1,0.37809
2982.82,0.37871
2984.53,0.3793
2986.25,0.37986
2987.97,0.38046
2989.7,0.38117
2991.42,0.3818
2993.15,0.38243
2994.88,0.38308
2996.61,0.38375
2998.34,0.38439
3000.08,0.38501
3001.82,0.38565
3003.55,0.38632
3005.3,0.38696
3007.04,0.38753
3008.78,0.38815
3010.53,0.38877
3012.28,0.38939
3014.03,0.39005
3015.79,0.39064
3017.54,0.39128
3019.3,0.39192
3021.06,0.39253
3022.82,0.3931
3024.58,0.39376
3026.35,0.39436
3028.12,0.39495
3029.89,0.39559
3031.66,0.39625
3033.43,0.3969
3035.21,0.39758
3036.99,0.39822
3038.77,0.39892
3040.55,0.39958
3042.33,0.40021
3044.12,0.40088
3045.91,0.40164
3047.7,0.40231
3049.49,0.40294
3051.29,0.4036
3053.08,0.40438
3054.88,0.40516
3056.68,0.40587
3058.49,0.40657
3060.29,0.40735
3062.1,0.40809
3063.91,0.40885
3065.72,0.40968
3067.54,0.41053
3069.35,0.41135
3071.17,0.4122
3072.99,0.41307
3074.81,0.41401
3076.64,0.41497
3078.47,0.41587
3080.29,0.41681
3082.13,0.41785
3083.96,0.4189
3085.79,0.41995
3087.63,0.4211
3089.47,0.42229
3091.31,0.42348
3093.16,0.42473
3095.01,0.42598
3096.85,0.42728
3098.71,0.42853
3100.56,0.42986
3102.41,0.43124
3104.27,0.43265
3106.13,0.43407
3107.99,0.43549
3109.86,0.43693
3111.73,0.43842
3113.59,0.43993
3115.47,0.44144
3117.34,0.44297
3119.21,0.44452
3121.09,0.4461
3122.97,0.44769
3124.86,0.44932
3126.74,0.45088
3128.63,0.45246
3130.52,0.4541
3132.41,0.45574
3134.3,0.45736
3136.2,0.45898
3138.1,0.46064
3140.0,0.46228
3141.9,0.46393
3143.81,0.4656
3145.71,0.46722
3147.62,0.46884
3149.54,0.47051
3151.45,0.4722
3153.37,0.47389
3155.29,0.47559
3157.21,0.47725
3159.13,0.47892
3161.06,0.48056
3162.99,0.48224
3164.92,0.48393
3166.85,0.48556
3168.79,0.4872
3170.72,0.48888
3172.67,0.49053
3174.61,0.49218
3176.55,0.49392
3178.5,0.49553
3180.45,0.49712
3182.4,0.49878
3184.36,0.50042
3186.32,0.50207
3188.27,0.50374
3190.24,0.50538
3192.2,0.50697
3194.17,0.50857
3196.14,0.51012
3198.11,0.51171
3200.08,0.51336
3202.06,0.51497
3204.04,0.51653
3206.02,0.51808
3208.0,0.5197
3209.99,0.52128
3211.98,0.52281
3213.97,0.52436
3215.96,0.52588
3217.96,0.5274
3219.96,0.52891
3221.96,0.53037
3223.96,0.53187
3225.97,0.53339
3227.98,0.53487
3229.99,0.5363
3232.0,0.53768
3234.02,0.5391
3236.04,0.54054
3238.06,0.54191
3240.08,0.54326
3242.11,0.54467
3244.14,0.5461
3246.17,0.5475
3248.2,0.54891
3250.24,0.55032
3252.28,0.55168
3254.32,0.55303
3256.37,0.55433
3258.41,0.55565
3260.46,0.55707
3262.51,0.55843
3264.57,0.55972
3266.63,0.56101
3268.69,0.56227
3270.75,0.56354
3272.81,0.56482
3274.88,0.56612
3276.95,0.56732
3279.02,0.56844
3281.1,0.5696
3283.18,0.57077
3285.26,0.57186
3287.34,0.57288
3289.43,0.57391
3291.51,0.57489
3293.61,0.57575
3295.7,0.57659
3297.8,0.57745
3299.9,0.5783
3302.0,0.57895
3304.1,0.57951
3306.21,0.58003
3308.32,0.58042
3310.43,0.5808
3312.55,0.58124
3314.66,0.58174
3316.79,0.58228
3318.91,0.58297
3321.03,0.58378
3323.16,0.58467
3325.29,0.58572
3327.43,0.58696
3329.57,0.58826
3331.71,0.58961
3333.85,0.59101
3335.99,0.59232
3338.14,0.59352
3340.29,0.59464
3342.45,0.59562
3344.6,0.59646
3346.76,0.59722
3348.92,0.59804
3351.09,0.59886
3353.26,0.5997
3355.43,0.60069
3357.6,0.60172
3359.78,0.60291
3361.96,0.6042
3364.14,0.60552
3366.32,0.6069
3368.51,0.60839
3370.7,0.60994
3372.89,0.61151
3375.09,0.61304
3377.29,0.61466
3379.49,0.61638
3381.69,0.61816
3383.9,0.61974
3386.11,0.621
3388.32,0.62189
3390.54,0.62242
3392.76,0.62247
3394.98,0.62203
3397.21,0.62121
3399.43,0.6201
3401.66,0.61874
3403.9,0.6173
3406.13,0.61616
3408.37,0.61568
3410.61,0.61597
3412.86,0.61716
3415.11,0.61925
3417.36,0.62222
3419.61,0.62591
3421.87,0.62995
3424.13,0.63399
3426.39,0.63792
3428.66,0.64166
3430.93,0.64536
3433.2,0.64886
3435.48,0.652
3437.76,0.65466
3440.04,0.65693
3442.32,0.65901
3444.61,0.66101
3446.9,0.66292
3449.19,0.6648
3451.49,0.6666
3453.79,0.66826
3456.09,0.66986
3458.4,0.67141
3460.7,0.67296
3463.02,0.6744
3465.33,0.67567
3467.65,0.67687
3469.97,0.67802
3472.29,0.67919
3474.62,0.68046
3476.95,0.6818
3479.29,0.68307
3481.62,0.68421
3483.96,0.68524
3486.3,0.68617
3488.65,0.68695
3491.0,0.6875
3493.35,0.68789
3495.71,0.68817
3498.07,0.68852
3500.43,0.6893
3502.79,0.6905
3505.16,0.69197
3507.53,0.69351
3509.91,0.69531
3512.29,0.69733
3514.67,0.69931
3517.05,0.70106
3519.44,0.70256
3521.83,0.70386
3524.23,0.70513
3526.62,0.70642
3529.02,0.70765
3531.43,0.70889
3533.83,0.7101
3536.24,0.71127
3538.66,0.71244
3541.08,0.71351
3543.5,0.71464
3545.92,0.71568
3548.35,0.71667
3550.78,0.71762
3553.21,0.71852
3555.65,0.71955
3558.09,0.72059
3560.53,0.72144
3562.98,0.72227
3565.43,0.72309
3567.88,0.7239
3570.34,0.72475
3572.8,0.72563
3575.27,0.72648
3577.73,0.72736
3580.2,0.72826
3582.68,0.72907
3585.16,0.72978
3587.64,0.7306
3590.12,0.73149
3592.61,0.73224
3595.1,0.73297
3597.6,0.73366
3600.09,0.73434
3602.6,0.73496
3605.1,0.73562
3607.61,0.73637
3610.12,0.73695
3612.64,0.73748
3615.16,0.73805
3617.68,0.73853
3620.21,0.73906
3622.74,0.73961
3625.27,0.74007
3627.81,0.74056
3630.35,0.74105
3632.89,0.74154
3635.44,0.74209
3637.99,0.74267
3640.54,0.74328
3643.1,0.74393
3645.66,0.74447
3648.23,0.74501
3650.8,0.74556
3653.37,0.74619
3655.95,0.7467
3658.53,0.74716
3661.11,0.74774
3663.7,0.74846
3666.29,0.74913
3668.89,0.74972
3671.48,0.75028
3674.09,0.75098
3676.69,0.75181
3679.3,0.75252
3681.91,0.75316
3684.53,0.75384
3687.15,0.75457
3689.78,0.75527
3692.4,0.75607
3695.04,0.75683
3697.67,0.75751
3700.31,0.75809
3702.95,0.75856
3705.6,0.75901
3708.25,0.75941
3710.91,0.75971
3713.56,0.75987
3716.23,0.76001
3718.89,0.76003
3721.56,0.76
3724.23,0.75993
3726.91,0.75984
3729.59,0.75995
3732.28,0.76029
3734.97,0.7606
3737.66,0.76087
3740.36,0.76136
3743.06,0.76185
3745.76,0.7623
3748.47,0.76268
3751.18,0.76301
3753.9,0.76344
3756.62,0.76391
3759.34,0.76426
3762.07,0.76466
3764.8,0.76501
3767.54,0.76531
3770.28,0.7655
3773.02,0.76561
3775.77,0.76582
3778.52,0.76592
3781.28,0.766
3784.04,0.76617
3786.8,0.76629
3789.57,0.76648
3792.34,0.76657
3795.12,0.76648
3797.9,0.76626
3800.69,0.76597
3803.47,0.76584
3806.27,0.76578
3809.06,0.76564
3811.86,0.76555
3814.67,0.76566
3817.48,0.7657
3820.29,0.76572
3823.11,0.76591
3825.93,0.76596
3828.76,0.76594
3831.59,0.766
3834.42,0.76603
3837.26,0.76607
3840.1,0.76607
3842.95,0.76615
3845.8,0.76636
3848.65,0.76644
3851.51,0.76638
3854.38,0.76644
3857.24,0.7665
3860.12,0.76648
3862.99,0.76649
3865.87,0.76646
3868.76,0.76646
3871.65,0.76641
3874.54,0.76635
3877.44,0.76627
3880.34,0.76618
3883.25,0.76602
3886.16,0.76591
3889.07,0.76572
3891.99,0.76558
3894.92,0.76542
3897.85,0.76526
3900.78,0.76501
3903.72,0.76474
3906.66,0.76441
3909.6,0.76409
3912.55,0.76375
3915.51,0.76339
3918.47,0.76301
3921.43,0.76263
3924.4,0.7622
3927.38,0.76181
3930.35,0.76141
3933.33,0.761
3936.32,0.76055
3939.31,0.76017
3942.31,0.7597
3945.31,0.7592
3948.31,0.75873
3951.32,0.75833
3954.34,0.75788
3957.35,0.75744
3960.38,0.75703
3963.41,0.75663
3966.44,0.75612
3969.48,0.75565
3972.52,0.75517
3975.56,0.75463
3978.61,0.75401
3981.67,0.75338
3984.73,0.75266
3987.8,0.75199
3990.87,0.75132
3993.94,0.75067
3997.02,0.74991
4000.1,0.74912
4003.19,0.74832
4006.29,0.74758
4009.39,0.74672
4012.49,0.74585
4015.6,0.74494
4018.71,0.74401
4021.83,0.74301
4024.95,0.74208
4028.08,0.74112
4031.21,0.7402
4034.35,0.73927
4037.49,0.73845
4040.64,0.73759
4043.79,0.73677
4046.94,0.73596
4050.11,0.73517
4053.27,0.7343
4056.44,0.73344
4059.62,0.7325
4062.8,0.73157
4065.99,0.73056
4069.18,0.72958
4072.38,0.72856
4075.58,0.72757
4078.78,0.72651
4082.0,0.72548
4085.21,0.72438
4088.43,0.72328
4091.66,0.72211
4094.89,0.72095
4098.13,0.71972
4101.37,0.71847
4104.62,0.71717
4107.87,0.71588
4111.13,0.71455
4114.39,0.7132
4117.66,0.71177
4120.93,0.71041
4124.21,0.70899
4127.5,0.70758
4130.79,0.70615
4134.08,0.70472
4137.38,0.70316
4140.68,0.70155
4143.99,0.69981
4147.31,0.69799
4150.63,0.69606
4153.95,0.69405
4157.29,0.69185
4160.62,0.68955
4163.96,0.68713
4167.31,0.68464
4170.66,0.68195
4174.02,0.67916
4177.39,0.67623
4180.75,0.6732
4184.13,0.66997
4187.51,0.66663
4190.89,0.6631
4194.28,0.65945
4197.68,0.65558
4201.08,0.65149
4204.49,0.64715
4207.9,0.64271
4211.32,0.63814
4214.74,0.63349
4218.17,0.62869
4221.61,0.62397
4225.05,0.61927
4228.5,0.61468
4231.95,0.61017
4235.4,0.60582
4238.87,0.60152
4242.34,0.59741
4245.81,0.59346
4249.29,0.58964
4252.78,0.58589
4256.27,0.58215
4259.77,0.57796
4263.27,0.57357
4266.78,0.56965
4270.29,0.56686
4273.81,0.56537
4277.34,0.56467
4280.87,0.56389
4284.41,0.56289
4287.95,0.56165
4291.5,0.56043
4295.06,0.55912
4298.62,0.55801
4302.19,0.55711
4305.76,0.55622
4309.34,0.55532
4312.92,0.55451
4316.52,0.55375
4320.11,0.55302
4323.72,0.55236
4327.32,0.5518
4330.94,0.55125
4334.56,0.55078
4338.19,0.55028
4341.82,0.54981
4345.46,0.54931
4349.11,0.54882
4352.76,0.54831
4356.42,0.54786
4360.08,0.54739
4363.75,0.54698
4367.43,0.54655
4371.11,0.54611
4374.8,0.54559
4378.49,0.54501
4382.19,0.54436
4385.9,0.54367
4389.61,0.54289
4393.33,0.54208
4397.06,0.54116
4400.79,0.54021
4404.53,0.53923
4408.28,0.53826
4412.03,0.53721
4415.79,0.53617
4419.55,0.53508
4423.32,0.53397
4427.1,0.53281
4430.88,0.53161
4434.68,0.53032
4438.47,0.52903
4442.28,0.52774
4446.08,0.5265
4449.9,0.52524
4453.72,0.52398
4457.55,0.52266
4461.39,0.52133
4465.23,0.51989
4469.08,0.5184
4472.94,0.51679
4476.8,0.51518
4480.67,0.51357
4484.55,0.51192
4488.43,0.51012
4492.32,0.50832
4496.21,0.50648
4500.12,0.50468
4504.03,0.50291
4507.94,0.50115
4511.87,0.49931
4515.8,0.4975
4519.73,0.49569
4523.68,0.49386
4527.63,0.49191
4531.59,0.48988
4535.55,0.48764
4539.52,0.4852
4543.5,0.4825
4547.49,0.47953
4551.48,0.47619
4555.48,0.47259
4559.49,0.46864
4563.5,0.46446
4567.52,0.46017
4571.55,0.45588
4575.58,0.45159
4579.63,0.44737
4583.67,0.44317
4587.73,0.43908
4591.79,0.43506
4595.86,0.43116
4599.94,0.42738
4604.03,0.42373
4608.12,0.42015
4612.22,0.41668
4616.33,0.4133
4620.44,0.41003
4624.56,0.40684
4628.69,0.40376
4632.83,0.40076
4636.97,0.3979
4641.12,0.39513
4645.28,0.39248
4649.45,0.3899
4653.62,0.38737
4657.8,0.38486
4661.99,0.38241
4666.19,0.38001
4670.39,0.37765
4674.6,0.37536
4678.82,0.37311
4683.05,0.37084
4687.28,0.36855
4691.52,0.36621
4695.77,0.36382
4700.03,0.3614
4704.3,0.35903
4708.57,0.35676
4712.85,0.35467
4717.14,0.35285
4721.43,0.35143
4725.74,0.35037
4730.05,0.34979
4734.37,0.34978
4738.7,0.35038
4743.03,0.35151
4747.38,0.35292
4751.73,0.35443
4756.09,0.35595
4760.45,0.35743
4764.83,0.35878
4769.21,0.35986
4773.6,0.36078
4778.0,0.36191
4782.41,0.36335
4786.83,0.36476
4791.25,0.36592
4795.68,0.36679
4800.13,0.36743
4804.57,0.36778
4809.03,0.3679
4813.5,0.36781
4817.97,0.36757
4822.45,0.36716
4826.94,0.36662
4831.44,0.36592
4835.95,0.36505
4840.46,0.36399
4844.99,0.36282
4849.52,0.36147
4854.06,0.35991
4858.61,0.35811
4863.17,0.35611
4867.73,0.35386
4872.31,0.35141
4876.89,0.34874
4881.48,0.3459
4886.08,0.34295
4890.69,0.33991
4895.31,0.33689
4899.94,0.33396
4904.57,0.33115
4909.22,0.32851
4913.87,0.32603
4918.53,0.32367
4923.21,0.32135
4927.88,0.31906
4932.57,0.31674
4937.27,0.31437
4941.98,0.31201
4946.69,0.30978
4951.42,0.30779
4956.15,0.30618
4960.9,0.30504
4965.65,0.3045
4970.41,0.30453
4975.18,0.30517
4979.96,0.30638
4984.75,0.30806
4989.54,0.31016
4994.35,0.31267
4999.17,0.31552
5003.99,0.31877
5008.83,0.32249
5013.67,0.32674
5018.52,0.33155
5023.39,0.33691
5028.26,0.34271
5033.14,0.34882
5038.03,0.35508
5042.93,0.3614
5047.84,0.36755
5052.76,0.37345
5057.69,0.37906
5062.63,0.38445
5067.58,0.38964
5072.54,0.39489
5077.51,0.40029
5082.49,0.40609
5087.47,0.41234
5092.47,0.41917
5097.48,0.42648
5102.5,0.4342
5107.52,0.44192
5112.56,0.44948
5117.61,0.45642
5122.66,0.46237
5127.73,0.46672
5132.81,0.46916
5137.89,0.46929
5142.99,0.46726
5148.1,0.46341
5153.22,0.45897
5158.34,0.45534
5163.48,0.45422
5168.63,0.45655
5173.79,0.46266
5178.96,0.47175
5184.13,0.48281
5189.32,0.49468
5194.52,0.5067
5199.73,0.51828
5204.96,0.52924
5210.19,0.53934
5215.43,0.54879
5220.68,0.55719
5225.94,0.56481
5231.22,0.57156
5236.5,0.57763
5241.79,0.58281
5247.1,0.58743
5252.42,0.59141
5257.74,0.59501
5263.08,0.59811
5268.43,0.60106
5273.79,0.60375
5279.16,0.60652
5284.54,0.6092
5289.93,0.61214
5295.34,0.61506
5300.75,0.6181
5306.18,0.62099
5311.61,0.62402
5317.06,0.62692
5322.52,0.62987
5327.99,0.63246
5333.47,0.63496
5338.96,0.63711
5344.47,0.63922
5349.98,0.64101
5355.51,0.6429
5361.05,0.64465
5366.6,0.64655
5372.16,0.64839
5377.73,0.65044
5383.32,0.65221
5388.91,0.65391
5394.52,0.6553
5400.14,0.65675
5405.77,0.6579
5411.41,0.65911
5417.07,0.66006
5422.74,0.66095
5428.41,0.66149
5434.1,0.66215
5439.81,0.66244
5445.52,0.66277
5451.25,0.66279
5456.98,0.66289
5462.73,0.66265
5468.5,0.66236
5474.27,0.66185
5480.06,0.66143
5485.86,0.66077
5491.67,0.66031
5497.49,0.65964
5503.33,0.65917
5509.18,0.65848
5515.04,0.658
5520.91,0.65727
5526.8,0.65664
5532.69,0.65577
5538.61,0.65505
5544.53,0.65406
5550.47,0.65319
5556.41,0.65202
5562.38,0.65115
5568.35,0.6502
5574.34,0.64956
5580.34,0.64868
5586.35,0.64812
5592.38,0.64742
5598.42,0.64685
5604.47,0.64593
5610.54,0.64524
5616.61,0.64429
5622.71,0.64357
5628.81,0.64259
5634.93,0.64184
5641.06,0.64066
5647.21,0.6395
5653.36,0.63815
5659.54,0.63686
5665.72,0.63533
5671.92,0.63395
5678.13,0.63194
5684.36,0.63009
5690.6,0.62778
5696.85,0.62552
5703.12,0.62329
5709.4,0.62131
5715.69,0.6189
5722.0,0.6166
5728.33,0.61339
5734.66,0.60969
5741.01,0.60534
5747.38,0.60153
5753.76,0.59808
5760.15,0.59524
5766.56,0.59068
5772.98,0.58571
5779.41,0.5815
5785.86,0.57849
5792.33,0.57526
5798.81,0.57177
5805.3,0.56747
5811.81,0.56339
5818.33,0.55871
5824.87,0.55367
5831.42,0.54834
5837.99,0.54338
5844.57,0.53796
5851.17,0.53266
5857.78,0.52692
5864.41,0.52104
5871.05,0.51507
5877.7,0.50932
5884.38,0.5021
5891.06,0.49609
5897.76,0.48898
5904.48,0.48209
5911.21,0.47549
5917.96,0.46884
5924.73,0.46229
5931.5,0.45651
5938.3,0.44987
5945.11,0.44424
5951.93,0.43898
5958.78,0.43413
5965.63,0.42922
5972.51,0.4244
5979.39,0.41976
5986.3,0.41549
5993.22,0.41076
6000.16,0.40673
6007.11,0.40288
6014.08,0.39932
6021.06,0.39577
6028.06,0.39289
6035.08,0.39015
6042.12,0.38823
6049.17,0.38573
6056.23,0.38342
6063.32,0.38179
6070.42,0.38058
6077.53,0.37905
6084.67,0.37789
6091.82,0.3767
6098.98,0.37584
6106.17,0.37495
6113.37,0.37417
6120.58,0.37291
6127.82,0.37201
6135.07,0.37075
6142.34,0.36922
6149.63,0.36689
6156.93,0.36396
6164.25,0.35959
6171.59,0.35456
6178.95,0.3484
6186.32,0.34076
6193.71,0.33262
6201.12,0.32592
6208.54,0.32057
6215.99,0.31653
6223.45,0.31204
6230.93,0.30713
6238.43,0.30104
6245.95,0.29423
6253.48,0.28661
6261.03,0.27914
6268.6,0.2715
6276.19,0.26412
6283.8,0.25642
6291.43,0.24896
6299.07,0.24143
6306.73,0.2343
6314.42,0.22696
6322.12,0.2199
6329.84,0.21304
6337.57,0.20702
6345.33,0.20077
6353.11,0.19546
6360.9,0.19078
6368.72,0.18641
6376.55,0.18216
6384.4,0.17875
6392.27,0.17559
6400.17,0.17325
6408.08,0.17127
6416.01,0.16941
6423.96,0.16782
6431.93,0.16716
6439.92,0.16687
6447.93,0.16712
6455.96,0.16749
6464.01,0.16824
6472.08,0.16908
6480.17,0.17019
6488.28,0.17139
6496.41,0.17294
6504.56,0.17438
6512.73,0.17623
6520.92,0.17842
6529.14,0.18078
6537.37,0.18322
6545.63,0.18606
6553.9,0.18898
6562.2,0.19196
6570.51,0.19504
6578.85,0.19811
6587.21,0.20093
6595.59,0.20387
6603.99,0.20661
6612.42,0.2095
6620.86,0.21227
6629.33,0.21502
6637.82,0.21767
6646.33,0.2199
6654.86,0.22184
6663.41,0.22379
6671.99,0.2255
6680.59,0.22712
6689.21,0.22845
6697.85,0.22971
6706.51,0.23091
6715.2,0.23197
6723.91,0.23285
6732.64,0.23372
6741.4,0.23449
6750.18,0.2353
6758.98,0.23593
6767.8,0.23656
6776.65,0.23695
6785.52,0.23723
6794.41,0.23708
6803.33,0.23661
6812.27,0.23575
6821.23,0.23451
6830.22,0.23249
6839.23,0.2299
6848.26,0.22667
6857.32,0.2228
6866.4,0.21758
6875.51,0.21205
6884.64,0.20623
6893.8,0.20026
6902.98,0.1942
6912.18,0.18844
6921.41,0.18298
6930.66,0.17803
6939.94,0.17324
6949.24,0.16899
6958.57,0.16458
6967.92,0.1604
6977.3,0.15651
6986.7,0.153
6996.13,0.14953
7005.59,0.14654
7015.07,0.14378
7024.57,0.14155
7034.1,0.13963
7043.66,0.13818
7053.25,0.1368
7062.85,0.13599
7072.49,0.13544
7082.15,0.13548
7091.84,0.13593
7101.55,0.13693
7111.3,0.138
7121.06,0.13924
7130.86,0.14026
7140.68,0.14145
7150.53,0.14259
7160.41,0.14398
7170.31,0.14553
7180.24,0.14741
7190.2,0.14936
7200.19,0.15171
7210.2,0.15433
7220.24,0.15742
7230.31,0.16094
7240.41,0.16499
7250.54,0.16912
7260.69,0.17326
7270.88,0.17719
7281.09,0.18094
7291.33,0.18425
7301.6,0.18732
7311.9,0.18983
7322.22,0.19179
7332.58,0.19307
7342.97,0.1936
7353.38,0.19327
7363.83,0.19215
7374.3,0.18995
7384.81,0.18651
7395.34,0.18162
7405.91,0.17563
7416.5,0.16941
7427.13,0.16454
7437.78,0.16147
7448.47,0.15953
7459.19,0.15771
7469.94,0.15623
7480.71,0.15577
7491.52,0.1572
7502.37,0.15976
7513.24,0.16219
7524.14,0.16366
7535.08,0.16437
7546.05,0.16434
7557.05,0.1638
7568.08,0.1626
7579.15,0.16094
7590.24,0.15876
7601.37,0.15622
7612.53,0.15321
7623.73,0.14991
7634.96,0.14624
7646.22,0.14238
7657.51,0.13823
7668.84,0.13388
7680.2,0.12919
7691.59,0.1244
7703.02,0.11939
7714.49,0.11429
7725.98,0.10895
7737.52,0.10359
7749.08,0.09805
7760.68,0.0925
7772.32,0.08682
7783.99,0.08123
7795.69,0.07555
7807.43,0.07002
7819.21,0.06448
7831.02,0.05916
7842.87,0.05386
7854.75,0.04888
7866.67,0.04402
7878.62,0.03954
7890.62,0.03518
7902.64,0.03119
7914.71,0.02733
7926.81,0.02387
7938.95,0.0206
7951.13,0.01777
7963.34,0.01512
7975.59,0.01287
7987.88,0.01083
8000.21,0.00918
8012.57,0.00764
8024.98,0.00643
8037.42,0.00529
8049.9,0.00447
8062.42,0.00369
8074.98,0.00322
8087.57,0.00277
8100.21,0.00254
8112.89,0.00228
8125.6,0.00223
8138.36,0.00219
8151.16,0.00245
8163.99,0.00269
8176.87,0.0031
8189.79,0.0035
8202.75,0.00409
8215.75,0.00458
8228.79,0.00517
8241.87,0.00559
8254.99,0.00612
8268.16,0.00653
8281.37,0.00703
8294.62,0.00743
8307.91,0.00803
8321.24,0.0085
8334.62,0.00901
8348.04,0.00933
8361.51,0.00972
8375.02,0.00997
8388.57,0.01028
8402.16,0.01041
8415.8,0.01055
8429.49,0.01054
8443.22,0.01061
8456.99,0.01053
8470.81,0.01051
8484.67,0.01037
8498.58,0.0103
8512.54,0.01016
8526.54,0.01012
8540.58,0.00995
8554.68,0.00984
8568.82,0.0096
8583.0,0.00947
8597.24,0.00922
8611.52,0.00906
8625.85,0.00884
8640.23,0.0087
8654.65,0.00845
8669.12,0.00829
8683.64,0.00805
8698.21,0.00794
8712.83,0.00773
8727.5,0.00769
8742.22,0.00767
8756.99,0.00785
8771.8,0.00802
8786.67,0.00839
8801.59,0.00873
8816.56,0.0092
8831.58,0.0096
8846.65,0.0101
8861.77,0.01049
8876.94,0.01093
8892.17,0.01127
8907.45,0.01167
8922.78,0.01192
8938.16,0.01227
8953.6,0.01252
8969.09,0.01286
8984.64,0.01312
9000.23,0.01345
9015.89,0.01362
9031.59,0.01393
9047.36,0.01417
9063.17,0.01446
9079.05,0.01467
9094.97,0.01496
9110.96,0.0151
9127.0,0.01527
9143.1,0.01542
9159.25,0.01568
9175.46,0.01579
9191.73,0.01597
9208.06,0.01613
9224.44,0.01635
9240.88,0.0164
9257.38,0.01661
9273.94,0.0168
9290.56,0.01701
9307.24,0.01716
9323.98,0.01734
9340.78,0.01746
9357.64,0.01777
9374.57,0.01793
9391.55,0.01813
9408.59,0.01826
9425.7,0.01845
9442.87,0.01858
9460.1,0.01889
9477.4,0.01911
9494.75,0.01933
9512.17,0.01946
9529.66,0.01969
9547.21,0.01987
9564.83,0.02008
9582.5,0.02025
9600.25,0.02054
9618.06,0.02073
9635.94,0.02098
9653.88,0.02121
9671.89,0.02158
9689.97,0.02201
9708.12,0.02254
9726.33,0.02303
9744.62,0.02368
9762.97,0.02426
9781.39,0.02494
9799.88,0.02562
9818.44,0.02635
9837.07,0.02695
9855.77,0.02758
9874.54,0.02819
9893.39,0.02889
9912.3,0.0295
9931.29,0.03024
9950.36,0.03107
9969.49,0.03222
9988.7,0.03375
10007.98,0.03577
10027.34,0.03814
10046.77,0.04091
10066.28,0.0439
10085.87,0.04712
10105.53,0.05043
10125.26,0.05387
10145.08,0.05718
10164.97,0.06015
10184.94,0.06216
10204.99,0.06258
10225.12,0.06034
10245.33,0.05477
10265.61,0.04567
10285.98,0.03498
10306.43,0.02674
10326.96,0.02409
10347.57,0.02655
10368.27,0.03255
10389.05,0.04067
10409.91,0.0501
10430.86,0.06013
10451.88,0.07027
10473.0,0.08008
10494.2,0.08936
10515.49,0.09753
10536.86,0.10482
10558.32,0.11199
10579.87,0.11909
10601.5,0.1251
10623.23,0.12959
10645.04,0.13239
10666.94,0.1335
10688.94,0.13355
10711.02,0.13368
10733.2,0.13462
10755.47,0.13686
10777.83,0.14022
10800.28,0.14443
10822.83,0.14915
10845.47,0.15388
10868.21,0.15865
10891.04,0.16383
10913.97,0.16951
10936.99,0.17591
10960.12,0.18239
10983.34,0.18806
11006.66,0.19281
11030.07,0.19691
11053.59,0.20112
11077.21,0.20599
11100.93,0.21178
11124.75,0.21843
11148.68,0.22566
11172.71,0.23325
11196.84,0.24108
11221.07,0.24893
11245.41,0.2566
11269.86,0.26397
11294.41,0.27112
11319.07,0.27797
11343.84,0.28447
11368.72,0.29056
11393.7,0.29663
11418.8,0.30254
11444.01,0.30834
11469.33,0.31377
11494.76,0.31879
11520.3,0.32316
11545.96,0.32678
11571.73,0.32954
11597.62,0.3317
11623.62,0.33305
11649.74,0.33371
11675.98,0.33295
11702.34,0.32837
11728.81,0.31937
11755.41,0.31897
11782.13,0.32759
11808.96,0.33334
11835.92,0.33603
11863.01,0.33743
11890.22,0.33877
11917.55,0.34043
11945.01,0.34193
11972.6,0.34289
12000.31,0.34326
12028.16,0.34312
12056.13,0.34337
12084.23,0.3438
12112.46,0.34356
12140.83,0.34298
12169.33,0.34249
12197.96,0.34159
12226.73,0.34028
12255.64,0.33874
12284.68,0.337
12313.86,0.33518
12343.18,0.33332
12372.64,0.33137
12402.24,0.32925
12431.98,0.327
12461.86,0.3249
12491.89,0.32291
12522.07,0.32081
12552.38,0.31886
12582.85,0.31709
12613.47,0.31543
12644.23,0.3136
12675.15,0.31175
12706.21,0.30986
12737.43,0.30773
12768.81,0.30539
12800.33,0.30301
12832.02,0.30061
12863.86,0.29827
12895.86,0.29588
12928.02,0.29364
12960.34,0.29139
12992.82,0.28912
13025.46,0.28704
13058.27,0.28515
13091.25,0.28349
13124.39,0.28208
13157.7,0.28055
13191.18,0.27901
13224.83,0.27741
13258.66,0.27555
13292.65,0.2736
13326.83,0.27153
13361.17,0.2692
13395.7,0.2669
13430.4,0.26441
13465.29,0.262
13500.35,0.25986
13535.6,0.25784
13571.03,0.25607
13606.65,0.25438
13642.46,0.2527
13678.46,0.25107
13714.64,0.24953
13751.02,0.24833
13787.59,0.24691
13824.36,0.2454
13861.32,0.24376
13898.49,0.24182
13935.85,0.23946
13973.41,0.23683
14011.17,0.23392
14049.15,0.23107
14087.32,0.22789
14125.71,0.22423
14164.3,0.22035
14203.11,0.21639
14242.13,0.21234
14281.36,0.20832
14320.81,0.20425
14360.49,0.20053
14400.38,0.19652
14440.49,0.19182
14480.82,0.18663
14521.39,0.18126
14562.18,0.17505
14603.2,0.16747
14644.45,0.15818
14685.93,0.1487
14727.66,0.13986
14769.62,0.13043
14811.81,0.11957
14854.25,0.1083
14896.94,0.09787
14939.87,0.08908
14983.05,0.08109
15026.48,0.07464
15070.16,0.07027
15114.1,0.06713
15158.29,0.06343
15202.74,0.05826
15247.46,0.05149
15292.43,0.0433
15337.68,0.0346
15383.19,0.02605
15428.97,0.01774
15475.03,0.01081
15521.36,0.00639
15567.97,0.0042
15614.87,0.00426
15662.04,0.00677
15709.5,0.00932
15757.25,0.01025
15805.29,0.01081
15853.62,0.01143
15902.26,0.01201
15951.19,0.01208
16000.42,0.01242
16049.95,0.01337
16099.8,0.01365
16149.95,0.01277
16200.42,0.01127
16251.21,0.00953
16302.31,0.00809
16353.74,0.0081
16405.49,0.00909
16457.57,0.01046
16509.98,0.01198
16562.73,0.01335
16615.82,0.01477
16669.24,0.0162
16723.02,0.01781
16777.14,0.01962
16831.61,0.02071
16886.43,0.02217
16941.62,0.02567
16997.16,0.03133
17053.08,0.03904
17109.36,0.04885
17166.01,0.05958
17223.04,0.07111
17280.45,0.08318
17338.24,0.0951
17396.43,0.10653
17455.0,0.11801
17513.97,0.1293
17573.34,0.13944
17633.11,0.14888
17693.29,0.15874
17753.89,0.16826
17814.9,0.17685
17876.33,0.18576
17938.18,0.19419
18000.47,0.20209
18063.19,0.20949
18126.35,0.21589
18189.95,0.22103
18254.0,0.22522
18318.5,0.23004
18383.46,0.23559
18448.88,0.23968
18514.77,0.24344
18581.13,0.24948
18647.97,0.2558
18715.29,0.26027
18783.1,0.26357
18851.4,0.26508
18920.2,0.26547
18989.51,0.26537
19059.32,0.26574
19129.65,0.26565
19200.5,0.26533
19271.88,0.26451
19343.79,0.26389
19416.24,0.26308
19489.23,0.26158
19562.77,0.26
19636.88,0.25811
19711.54,0.25602
19786.78,0.25439
19862.59,0.25281
19938.98,0.25129
20015.96,0.24962
20093.55,0.24734
20171.73,0.24465
20250.53,0.24239
20329.94,0.23984
20409.98,0.23707
20490.65,0.23395
20571.96,0.22988
20653.92,0.22545
20736.54,0.22126
20819.82,0.21659
20903.77,0.21139
20988.4,0.20622
21073.72,0.20138
21159.73,0.19621
21246.46,0.19047
21333.89,0.18353
21422.04,0.17668
21510.93,0.17611
21600.56,0.1863
21690.94,0.20084
21782.08,0.21015
21873.99,0.21366
21966.67,0.21945
22060.15,0.2278
22154.42,0.23388
22249.51,0.23565
22345.41,0.23396
22442.14,0.22897
22539.72,0.21886
22638.14,0.20133
22737.43,0.18376
22837.6,0.18478
22938.65,0.20253
23040.6,0.21815
23143.46,0.22604
23247.24,0.22859
23351.96,0.22887
23457.63,0.22841
23564.25,0.22758
23671.85,0.22588
23780.44,0.22358
23890.02,0.22048
24000.63,0.21711
24112.26,0.21412
24224.93,0.21113
24338.66,0.20812
24453.47,0.20506
24569.36,0.20169
24686.36,0.19837
24804.47,0.19497
24923.73,0.19217
25044.13,0.19063
25165.71,0.1908
25288.46,0.19185
25412.43,0.19344
25537.61,0.19435
25664.04,0.19431
25791.72,0.19334
25920.68,0.19224
26057.2,0.19062
26188.8,0.18837
26321.8,0.18568
26456.0,0.18279
26591.7,0.17996
26728.8,0.17669
26867.2,0.17329
27007.2,0.17018
27148.6,0.16727
27291.5,0.16416
27435.9,0.16052
27581.8,0.15693
27729.3,0.15365
27878.4,0.15058
28029.1,0.14693
28181.4,0.1435
28335.4,0.14045
28491.1,0.1371
28648.5,0.13311
28807.7,0.12948
28968.6,0.12609
29131.3,0.12252
29295.9,0.11908
29462.4,0.11592
29630.7,0.11251
29801.0,0.10909
29973.3,0.10593
30147.6,0.10259
30323.9,0.09946
30502.3,0.09717
30682.8,0.09359
30865.4,0.09009
31050.2,0.08784
31237.2,0.08549
31426.5,0.08165
31618.2,0.07793
31812.1,0.07598
32008.5,0.07358
32207.3,0.06985
32408.6,0.06754
32612.5,0.06601
32818.9,0.06389
33027.9,0.06094
33239.6,0.0577
33454.1,0.05506
33671.3,0.05236
33891.4,0.04987
34114.3,0.04808
34340.3,0.04563
34569.2,0.04376
34801.2,0.04155
35036.3,0.039
35274.7,0.03679
35516.3,0.03426
35761.3,0.03163
36009.6,0.02927
36261.4,0.02776
36516.8,0.02591
36775.8,0.02415
37038.5,0.02246
37304.9,0.02135
37575.2,0.01969
37849.5,0.01719
38127.8,0.01517
38410.2,0.01451
38696.9,0.0138
38987.8,0.01209
39283.2,0.00994
39583.1,0.00835
39887.6,0.00743
40196.8,0.00739
40510.8,0.00714
40829.8,0.00647
41153.9,0.00593
41483.1,0.00446
41817.6,0.00374
42157.5,0.00322
42503.1,0.0019
42854.4,0.0026
43211.5,0.00316
43574.6,0.00217
43943.9,0.00245
44319.6,0.00423
44701.6,0.00547
45090.3,0.00683
45485.9,0.00824
45888.4,0.00736
46298.1,0.00692
46715.2,0.00811
47139.8,0.00981
47572.3,0.0107
48012.8,0.0134
48461.5,0.01662
48918.7,0.0197
49384.6,0.02499
49859.4,0.02907
