Database of Origin,University of Winnipeg Spectrophotometer Facility
Sample Description,8. Sulfates: RELAB + Nicolet spectra / Spectra all made consistently merged: Jan. / 10 / 2005
Date Added,2016-07-15 22:05:55.539945

Data ID,RPN_SUL_49          
Sample ID,SPT134
Mineral Name,Coquimbite+romerite
Grain Size,<45
Viewing Geometry,30 / 0 | 30
Resolution,5 / 1.3-129
Material Class,Sulfate

Wavelength
305.0,0.039493
310.0,0.0409
315.0,0.039475
320.0,0.040172
325.0,0.041666
330.0,0.042762
335.0,0.044086
340.0,0.046895
345.0,0.049365
350.0,0.052586
355.0,0.058201
360.0,0.064874
365.0,0.073167
370.0,0.084297
375.0,0.09651
380.0,0.109653
385.0,0.122789
390.0,0.134822
395.0,0.145672
400.0,0.156295
405.0,0.162542
410.0,0.167613
415.0,0.17125
420.0,0.173416
425.0,0.176511
430.0,0.179264
435.0,0.184688
440.0,0.187755
445.0,0.191357
450.0,0.193689
455.0,0.196958
460.0,0.200004
465.0,0.203113
470.0,0.206111
475.0,0.209439
480.0,0.212591
485.0,0.215819
490.0,0.219043
495.0,0.222619
500.0,0.225463
505.0,0.228727
510.0,0.23203
515.0,0.235375
520.0,0.23839
525.0,0.24197
530.0,0.244467
535.0,0.248491
540.0,0.251134
545.0,0.254412
550.0,0.257406
555.0,0.260683
560.0,0.263745
565.0,0.266872
570.0,0.269781
575.0,0.272887
580.0,0.275729
585.0,0.278924
590.0,0.281238
595.0,0.284427
600.0,0.287146
605.0,0.290231
610.0,0.292407
615.0,0.29492
620.0,0.298225
625.0,0.300524
630.0,0.302787
635.0,0.305413
640.0,0.30795
645.0,0.309976
650.0,0.312064
655.0,0.314376
660.0,0.316846
665.0,0.319051
670.0,0.321127
675.0,0.32285
680.0,0.324818
685.0,0.327008
690.0,0.32866
695.0,0.330429
700.0,0.331516
705.0,0.333511
710.0,0.3351
715.0,0.336591
720.0,0.337769
725.0,0.338603
730.0,0.338842
735.0,0.341194
740.0,0.341034
745.0,0.342837
750.0,0.343284
755.0,0.344678
760.0,0.34556
765.0,0.346144
770.0,0.347142
775.0,0.347494
780.0,0.34777
785.0,0.348141
790.0,0.349265
795.0,0.348309
800.0,0.349896
805.0,0.34896
810.0,0.349493
815.0,0.349998
820.0,0.349987
825.0,0.351069
830.0,0.349768
835.0,0.349399
840.0,0.348341
845.0,0.349143
850.0,0.349376
855.0,0.347666
860.0,0.347183
865.0,0.347279
870.0,0.347926
875.0,0.348208
880.0,0.344227
885.0,0.344787
890.0,0.346168
895.0,0.344566
900.0,0.345996
905.0,0.343249
910.0,0.344861
915.0,0.343626
920.0,0.344694
925.0,0.343671
930.0,0.344943
935.0,0.343299
940.0,0.347071
945.0,0.345658
950.0,0.346784
955.0,0.345198
960.0,0.346644
965.0,0.349076
970.0,0.349679
975.0,0.349993
980.0,0.350743
985.0,0.351852
990.0,0.353958
995.0,0.353735
1000.0,0.354799
1005.0,0.356143
1010.0,0.356868
1015.0,0.357694
1020.0,0.36078
1025.0,0.362004
1030.0,0.362489
1035.0,0.363811
1040.0,0.364147
1045.0,0.364455
1050.0,0.367269
1055.0,0.368838
1060.0,0.370457
1065.0,0.370407
1070.0,0.370691
1075.0,0.372084
1080.0,0.372775
1085.0,0.373489
1090.0,0.374679
1095.0,0.375194
1100.0,0.376456
1105.0,0.37678
1110.0,0.377465
1115.0,0.378096
1120.0,0.378983
1125.0,0.378957
1130.0,0.380146
1135.0,0.381292
1140.0,0.380742
1145.0,0.381967
1150.0,0.382555
1155.0,0.381778
1160.0,0.382796
1165.0,0.38328
1170.0,0.383971
1175.0,0.383664
1180.0,0.384763
1185.0,0.385802
1190.0,0.385343
1195.0,0.386038
1200.0,0.385474
1205.0,0.387673
1210.0,0.385445
1215.0,0.38885
1220.0,0.387195
1225.0,0.389242
1230.0,0.388673
1235.0,0.388389
1240.0,0.389202
1245.0,0.388878
1250.0,0.389674
1255.0,0.389744
1260.0,0.391127
1265.0,0.390319
1270.0,0.39092
1275.0,0.391249
1280.0,0.392084
1285.0,0.392384
1290.0,0.391979
1295.0,0.393243
1300.0,0.393649
1305.0,0.393335
1310.0,0.393763
1315.0,0.394204
1320.0,0.39412
1325.0,0.394981
1330.0,0.39499
1335.0,0.394553
1340.0,0.395627
1345.0,0.395901
1350.0,0.39608
1355.0,0.395428
1360.0,0.396703
1365.0,0.396674
1370.0,0.397278
1375.0,0.397224
1380.0,0.39591
1385.0,0.398015
1390.0,0.398141
1395.0,0.396501
1400.0,0.396168
1405.0,0.395538
1410.0,0.395616
1415.0,0.394648
1420.0,0.395618
1425.0,0.397176
1430.0,0.395243
1435.0,0.394916
1440.0,0.394754
1445.0,0.394193
1450.0,0.393751
1455.0,0.393102
1460.0,0.392792
1465.0,0.393212
1470.0,0.391709
1475.0,0.390838
1480.0,0.390416
1485.0,0.390366
1490.0,0.38924
1495.0,0.388472
1500.0,0.388182
1505.0,0.388934
1510.0,0.388537
1515.0,0.387637
1520.0,0.386914
1525.0,0.386517
1530.0,0.387316
1535.0,0.386094
1540.0,0.38686
1545.0,0.387037
1550.0,0.386467
1555.0,0.386689
1560.0,0.386488
1565.0,0.386205
1570.0,0.386255
1575.0,0.385382
1580.0,0.385708
1585.0,0.386313
1590.0,0.384462
1595.0,0.384847
1600.0,0.38422
1605.0,0.384216
1610.0,0.383499
1615.0,0.38402
1620.0,0.385927
1625.0,0.384172
1630.0,0.383285
1635.0,0.383598
1640.0,0.383289
1645.0,0.382747
1650.0,0.382443
1655.0,0.381763
1660.0,0.380802
1665.0,0.38168
1670.0,0.380107
1675.0,0.380333
1680.0,0.38019
1685.0,0.380483
1690.0,0.378205
1695.0,0.377368
1700.0,0.378178
1705.0,0.376486
1710.0,0.376758
1715.0,0.375844
1720.0,0.376575
1725.0,0.37518
1730.0,0.375083
1735.0,0.374142
1740.0,0.374474
1745.0,0.373933
1750.0,0.373688
1755.0,0.373835
1760.0,0.373861
1765.0,0.373553
1770.0,0.373548
1775.0,0.372975
1780.0,0.37343
1785.0,0.373157
1790.0,0.37249
1795.0,0.373216
1800.0,0.373079
1805.0,0.372851
1810.0,0.371965
1815.0,0.372908
1820.0,0.371832
1825.0,0.373181
1830.0,0.37264
1835.0,0.372707
1840.0,0.372579
1845.0,0.373177
1850.0,0.372695
1855.0,0.373155
1860.0,0.372213
1865.0,0.371521
1870.0,0.368306
1875.0,0.369982
1880.0,0.37035
1885.0,0.366452
1890.0,0.363218
1895.0,0.359565
1900.0,0.352324
1905.0,0.346697
1910.0,0.342586
1915.0,0.339432
1920.0,0.335609
1925.0,0.331012
1930.0,0.325657
1935.0,0.322476
1940.0,0.319558
1945.0,0.317329
1950.0,0.315876
1955.0,0.314463
1960.0,0.313405
1965.0,0.310956
1970.0,0.308996
1975.0,0.306866
1980.0,0.305636
1985.0,0.304432
1990.0,0.303667
1995.0,0.303505
2000.0,0.303982
2005.0,0.302918
2010.0,0.302206
2015.0,0.302677
2020.0,0.303706
2025.0,0.304629
2030.0,0.305504
2035.0,0.305077
2040.0,0.306295
2045.0,0.306096
2050.0,0.305933
2055.0,0.305228
2060.0,0.305769
2065.0,0.305753
2070.0,0.305735
2075.0,0.306523
2080.0,0.306131
2085.0,0.306666
2090.0,0.307014
2095.0,0.307623
2100.0,0.307991
2105.0,0.309127
2110.0,0.310977
2115.0,0.31247
2120.0,0.316042
2125.0,0.318288
2130.0,0.32145
2135.0,0.324186
2140.0,0.326742
2145.0,0.328486
2150.0,0.331278
2155.0,0.333283
2160.0,0.335211
2165.0,0.336117
2170.0,0.337066
2175.0,0.337985
2180.0,0.338713
2185.0,0.339834
2190.0,0.34121
2195.0,0.341796
2200.0,0.342599
2205.0,0.342973
2210.0,0.342697
2215.0,0.34346
2220.0,0.343956
2225.0,0.34528
2230.0,0.344747
2235.0,0.345952
2240.0,0.345842
2245.0,0.346615
2250.0,0.346389
2255.0,0.347392
2260.0,0.34761
2265.0,0.347541
2270.0,0.346851
2275.0,0.347466
2280.0,0.346828
2285.0,0.346892
2290.0,0.346192
2295.0,0.344202
2300.0,0.343106
2305.0,0.34282
2310.0,0.341452
2315.0,0.339017
2320.0,0.33733
2325.0,0.336348
2330.0,0.335288
2335.0,0.333346
2340.0,0.330717
2345.0,0.328754
2350.0,0.325863
2355.0,0.3232
2360.0,0.320749
2365.0,0.317577
2370.0,0.314812
2375.0,0.310803
2380.0,0.307259
2385.0,0.303707
2390.0,0.300245
2395.0,0.296789
2400.0,0.291729
2405.0,0.290433
2410.0,0.288884
2415.0,0.287661
2420.0,0.286732
2425.0,0.285347
2430.0,0.282739
2435.0,0.280665
2440.0,0.279878
2445.0,0.276111
2450.0,0.27565
2455.0,0.272847
2460.0,0.271219
2465.0,0.2684
2470.0,0.267105
2475.0,0.26472
2480.0,0.262281
2485.0,0.260439
2490.0,0.258101
2495.0,0.255407
2500.0,0.253658
2505.0,0.251087
2510.0,0.249106
2515.0,0.247467
2520.0,0.245382
2525.0,0.243195
2530.0,0.241774
2535.0,0.240071
2540.0,0.239634
2545.0,0.236855
2550.0,0.235863
2555.0,0.238244
2560.0,0.232827
2565.13,0.233586
2570.22,0.232694
2575.33,0.231257
2580.46,0.230056
2581.74,0.231026
2583.03,0.229973
2584.31,0.22963
2585.6,0.229499
2586.89,0.227741
2588.19,0.227518
2589.48,0.22849
2590.77,0.227627
2592.07,0.228392
2593.36,0.229766
2594.66,0.228395
2595.96,0.228465
2597.26,0.228961
2598.56,0.227648
2599.87,0.227145
2601.17,0.22805
2602.48,0.229108
2603.78,0.229161
2605.09,0.22828
2606.4,0.226521
2607.71,0.225169
2609.03,0.225509
2610.34,0.226133
2611.66,0.226223
2612.97,0.226702
2614.29,0.226554
2615.61,0.225243
2616.93,0.224547
2618.25,0.223681
2619.57,0.222965
2620.9,0.222758
2622.22,0.223832
2623.55,0.223401
2624.88,0.222406
2626.21,0.222074
2627.54,0.222399
2628.87,0.222814
2630.21,0.222885
2631.54,0.222676
2632.88,0.222401
2634.21,0.221411
2635.55,0.220539
2636.89,0.220736
2638.24,0.221842
2639.58,0.221655
2640.92,0.220603
2642.27,0.220372
2643.62,0.221416
2644.97,0.221591
2646.32,0.220808
2647.67,0.219661
2649.02,0.21836
2650.38,0.21865
2651.73,0.220674
2653.09,0.220108
2654.45,0.217829
2655.81,0.216974
2657.17,0.21653
2658.53,0.216895
2659.89,0.217045
2661.26,0.216781
2662.63,0.215689
2664.0,0.215132
2665.36,0.214847
2666.74,0.21386
2668.11,0.213759
2669.48,0.213489
2670.86,0.211489
2672.23,0.209286
2673.61,0.20837
2674.99,0.208208
2676.37,0.208565
2677.76,0.207864
2679.14,0.206232
2680.52,0.204189
2681.91,0.202548
2683.3,0.201428
2684.69,0.200808
2686.08,0.200364
2687.47,0.197927
2688.87,0.194635
2690.26,0.193341
2691.66,0.193654
2693.06,0.193352
2694.46,0.191423
2695.86,0.188736
2697.26,0.186803
2698.66,0.185387
2700.07,0.183333
2701.48,0.180741
2702.89,0.179462
2704.3,0.179138
2705.71,0.177851
2707.12,0.174886
2708.53,0.172128
2709.95,0.169605
2711.37,0.167939
2712.79,0.166275
2714.21,0.165557
2715.63,0.163989
2717.05,0.161444
2718.48,0.160168
2719.9,0.158806
2721.33,0.157408
2722.76,0.155779
2724.19,0.153362
2725.62,0.149934
2727.06,0.147984
2728.49,0.146527
2729.93,0.144911
2731.37,0.142492
2732.81,0.141363
2734.25,0.139301
2735.69,0.136516
2737.14,0.134082
2738.58,0.132151
2740.03,0.131443
2741.48,0.129814
2742.93,0.127274
2744.38,0.126076
2745.83,0.124023
2747.29,0.121081
2748.75,0.118974
2750.2,0.117897
2751.66,0.115633
2753.13,0.112585
2754.59,0.109912
2756.05,0.108556
2757.52,0.107052
2758.99,0.104568
2760.46,0.10269
2761.93,0.101696
2763.4,0.099942
2764.87,0.09768
2766.35,0.094838
2767.82,0.093124
2769.3,0.092525
2770.78,0.090953
2772.26,0.089076
2773.75,0.087571
2775.23,0.085231
2776.72,0.083992
2778.21,0.083594
2779.7,0.083331
2781.19,0.08149
2782.68,0.07953
2784.18,0.077554
2785.67,0.076202
2787.17,0.075047
2788.67,0.073702
2790.17,0.07126
2791.67,0.070293
2793.18,0.070302
2794.68,0.070167
2796.19,0.069462
2797.7,0.068791
2799.21,0.067881
2800.72,0.066035
2802.24,0.064358
2803.75,0.063651
2805.27,0.063669
2806.79,0.062692
2808.31,0.060541
2809.83,0.059462
2811.35,0.060016
2812.88,0.059655
2814.41,0.058342
2815.93,0.056443
2817.46,0.055584
2819.0,0.055695
2820.53,0.054944
2822.07,0.053732
2823.6,0.052716
2825.14,0.052752
2826.68,0.05312
2828.22,0.052516
2829.77,0.05033
2831.31,0.049623
2832.86,0.048913
2834.41,0.047966
2835.96,0.047375
2837.51,0.046249
2839.07,0.045296
2840.62,0.045533
2842.18,0.04456
2843.74,0.04402
2845.3,0.043985
2846.86,0.04358
2848.43,0.043627
2849.99,0.042479
2851.56,0.040531
2853.13,0.039135
2854.7,0.039457
2856.27,0.039738
2857.85,0.039306
2859.42,0.039019
2861.0,0.037461
2862.58,0.035972
2864.16,0.036186
2865.75,0.035546
2867.33,0.034054
2868.92,0.032939
2870.51,0.032763
2872.1,0.03306
2873.69,0.033365
2875.28,0.032762
2876.88,0.032098
2878.48,0.032565
2880.07,0.031729
2881.68,0.030584
2883.28,0.030033
2884.88,0.029516
2886.49,0.028528
2888.1,0.027266
2889.71,0.026771
2891.32,0.026902
2892.93,0.026916
2894.55,0.02664
2896.16,0.027138
2897.78,0.027854
2899.4,0.028124
2901.03,0.027162
2902.65,0.026033
2904.28,0.025065
2905.91,0.025095
2907.54,0.024778
2909.17,0.025175
2910.8,0.025557
2912.44,0.025637
2914.07,0.025437
2915.71,0.023974
2917.35,0.022896
2918.99,0.022826
2920.64,0.023122
2922.29,0.022893
2923.93,0.022861
2925.58,0.023352
2927.24,0.023087
2928.89,0.022842
2930.55,0.022885
2932.2,0.022765
2933.86,0.022287
2935.52,0.021794
2937.19,0.022334
2938.85,0.02318
2940.52,0.022977
2942.19,0.022273
2943.86,0.022026
2945.53,0.022025
2947.21,0.021594
2948.88,0.021386
2950.56,0.020734
2952.24,0.020049
2953.92,0.020916
2955.61,0.021335
2957.29,0.021039
2958.98,0.021307
2960.67,0.021397
2962.36,0.02149
2964.06,0.021182
2965.75,0.02106
2967.45,0.02059
2969.15,0.020653
2970.85,0.020443
2972.55,0.019954
2974.26,0.020288
2975.97,0.021155
2977.68,0.021639
2979.39,0.021307
2981.1,0.021112
2982.82,0.020414
2984.53,0.019875
2986.25,0.020026
2987.97,0.020097
2989.7,0.020362
2991.42,0.020399
2993.15,0.020103
2994.88,0.020093
2996.61,0.020548
2998.34,0.021116
3000.08,0.020993
3001.82,0.020287
3003.55,0.019587
3005.3,0.018995
3007.04,0.019398
3008.78,0.020388
3010.53,0.020208
3012.28,0.020213
3014.03,0.020936
3015.79,0.020533
3017.54,0.02008
3019.3,0.020534
3021.06,0.020538
3022.82,0.019989
3024.58,0.019925
3026.35,0.019436
3028.12,0.019386
3029.89,0.019829
3031.66,0.019786
3033.43,0.019606
3035.21,0.01962
3036.99,0.01942
3038.77,0.019635
3040.55,0.019846
3042.33,0.019915
3044.12,0.019693
3045.91,0.019193
3047.7,0.019469
3049.49,0.020376
3051.29,0.020342
3053.08,0.019853
3054.88,0.019567
3056.68,0.01925
3058.49,0.019629
3060.29,0.01975
3062.1,0.019769
3063.91,0.020234
3065.72,0.020616
3067.54,0.020238
3069.35,0.019775
3071.17,0.019963
3072.99,0.019994
3074.81,0.019922
3076.64,0.020068
3078.47,0.020348
3080.29,0.021066
3082.13,0.021137
3083.96,0.020794
3085.79,0.020416
3087.63,0.020275
3089.47,0.020389
3091.31,0.020356
3093.16,0.020256
3095.01,0.021014
3096.85,0.021333
3098.71,0.021483
3100.56,0.021214
3102.41,0.021036
3104.27,0.021699
3106.13,0.021272
3107.99,0.020468
3109.86,0.020948
3111.73,0.021817
3113.59,0.021816
3115.47,0.02151
3117.34,0.021705
3119.21,0.021526
3121.09,0.021878
3122.97,0.022071
3124.86,0.022594
3126.74,0.023464
3128.63,0.023595
3130.52,0.02304
3132.41,0.022458
3134.3,0.022394
3136.2,0.022522
3138.1,0.022683
3140.0,0.022648
3141.9,0.022833
3143.81,0.022924
3145.71,0.023022
3147.62,0.023369
3149.54,0.023448
3151.45,0.022981
3153.37,0.023322
3155.29,0.02393
3157.21,0.023444
3159.13,0.023005
3161.06,0.02323
3162.99,0.023713
3164.92,0.024223
3166.85,0.024866
3168.79,0.024938
3170.72,0.023963
3172.67,0.02349
3174.61,0.02388
3176.55,0.024478
3178.5,0.025108
3180.45,0.025026
3182.4,0.02494
3184.36,0.025146
3186.32,0.024814
3188.27,0.024833
3190.24,0.025327
3192.2,0.025737
3194.17,0.025801
3196.14,0.025994
3198.11,0.025497
3200.08,0.02569
3202.06,0.026266
3204.04,0.02594
3206.02,0.025454
3208.0,0.025171
3209.99,0.024868
3211.98,0.02499
3213.97,0.02509
3215.96,0.025665
3217.96,0.026267
3219.96,0.026254
3221.96,0.026096
3223.96,0.026276
3225.97,0.026623
3227.98,0.026694
3229.99,0.026352
3232.0,0.026788
3234.02,0.026689
3236.04,0.026187
3238.06,0.026398
3240.08,0.026631
3242.11,0.026789
3244.14,0.026416
3246.17,0.026685
3248.2,0.027591
3250.24,0.027902
3252.28,0.028304
3254.32,0.028015
3256.37,0.027853
3258.41,0.02793
3260.46,0.027909
3262.51,0.027944
3264.57,0.028083
3266.63,0.028049
3268.69,0.027806
3270.75,0.027812
3272.81,0.028224
3274.88,0.029033
3276.95,0.028897
3279.02,0.028792
3281.1,0.028784
3283.18,0.028847
3285.26,0.029114
3287.34,0.029389
3289.43,0.029823
3291.51,0.029711
3293.61,0.02912
3295.7,0.029351
3297.8,0.03015
3299.9,0.030214
3302.0,0.029819
3304.1,0.030021
3306.21,0.030286
3308.32,0.030336
3310.43,0.030498
3312.55,0.030959
3314.66,0.030933
3316.79,0.030846
3318.91,0.030973
3321.03,0.031812
3323.16,0.03237
3325.29,0.031645
3327.43,0.031216
3329.57,0.031636
3331.71,0.032048
3333.85,0.032075
3335.99,0.032015
3338.14,0.032383
3340.29,0.033016
3342.45,0.033055
3344.6,0.032853
3346.76,0.033095
3348.92,0.033787
3351.09,0.033925
3353.26,0.033613
3355.43,0.034031
3357.6,0.034266
3359.78,0.034069
3361.96,0.034453
3364.14,0.035035
3366.32,0.035027
3368.51,0.034493
3370.7,0.034724
3372.89,0.035312
3375.09,0.035464
3377.29,0.035426
3379.49,0.035399
3381.69,0.035817
3383.9,0.036387
3386.11,0.036589
3388.32,0.036321
3390.54,0.036681
3392.76,0.037499
3394.98,0.037561
3397.21,0.037654
3399.43,0.037113
3401.66,0.037471
3403.9,0.038202
3406.13,0.038518
3408.37,0.038388
3410.61,0.038137
3412.86,0.038459
3415.11,0.038815
3417.36,0.038612
3419.61,0.038232
3421.87,0.038377
3424.13,0.039068
3426.39,0.039488
3428.66,0.040214
3430.93,0.040567
3433.2,0.040566
3435.48,0.040763
3437.76,0.041021
3440.04,0.042045
3442.32,0.042205
3444.61,0.04157
3446.9,0.041956
3449.19,0.042892
3451.49,0.042866
3453.79,0.042657
3456.09,0.04322
3458.4,0.043483
3460.7,0.043658
3463.02,0.043846
3465.33,0.044078
3467.65,0.044565
3469.97,0.044873
3472.29,0.045061
3474.62,0.045295
3476.95,0.045707
3479.29,0.046121
3481.62,0.046554
3483.96,0.04704
3486.3,0.047381
3488.65,0.047389
3491.0,0.047148
3493.35,0.047278
3495.71,0.047334
3498.07,0.047353
3500.43,0.047576
3502.79,0.047792
3505.16,0.048261
3507.53,0.0485
3509.91,0.048764
3512.29,0.048918
3514.67,0.049166
3517.05,0.050197
3519.44,0.051151
3521.83,0.051572
3524.23,0.051704
3526.62,0.051629
3529.02,0.051429
3531.43,0.051275
3533.83,0.051768
3536.24,0.052629
3538.66,0.053231
3541.08,0.053722
3543.5,0.053515
3545.92,0.053668
3548.35,0.054174
3550.78,0.054069
3553.21,0.054377
3555.65,0.054764
3558.09,0.054764
3560.53,0.055231
3562.98,0.055769
3565.43,0.055538
3567.88,0.05561
3570.34,0.056161
3572.8,0.056619
3575.27,0.05706
3577.73,0.057472
3580.2,0.058447
3582.68,0.058836
3585.16,0.058836
3587.64,0.059178
3590.12,0.059004
3592.61,0.059015
3595.1,0.05936
3597.6,0.05926
3600.09,0.059803
3602.6,0.060886
3605.1,0.061436
3607.61,0.061399
3610.12,0.061481
3612.64,0.062247
3615.16,0.063181
3617.68,0.063276
3620.21,0.063311
3622.74,0.063221
3625.27,0.06318
3627.81,0.063953
3630.35,0.064198
3632.89,0.064019
3635.44,0.06487
3637.99,0.065133
3640.54,0.065655
3643.1,0.066356
3645.66,0.066222
3648.23,0.066214
3650.8,0.067153
3653.37,0.067213
3655.95,0.067214
3658.53,0.067513
3661.11,0.067891
3663.7,0.06842
3666.29,0.068916
3668.89,0.069279
3671.48,0.069565
3674.09,0.069816
3676.69,0.070284
3679.3,0.070714
3681.91,0.071049
3684.53,0.071534
3687.15,0.072265
3689.78,0.072664
3692.4,0.072532
3695.04,0.072438
3697.67,0.073051
3700.31,0.073892
3702.95,0.073869
3705.6,0.073839
3708.25,0.074505
3710.91,0.074838
3713.56,0.075024
3716.23,0.075505
3718.89,0.076534
3721.56,0.076594
3724.23,0.076528
3726.91,0.07655
3729.59,0.076601
3732.28,0.076851
3734.97,0.077678
3737.66,0.078361
3740.36,0.078253
3743.06,0.078079
3745.76,0.078288
3748.47,0.078981
3751.18,0.07978
3753.9,0.079902
3756.62,0.080295
3759.34,0.080584
3762.07,0.080775
3764.8,0.081134
3767.54,0.081694
3770.28,0.081802
3773.02,0.082096
3775.77,0.082223
3778.52,0.082284
3781.28,0.083127
3784.04,0.083578
3786.8,0.083852
3789.57,0.083999
3792.34,0.083953
3795.12,0.084148
3797.9,0.084336
3800.69,0.084422
3803.47,0.084909
3806.27,0.085391
3809.06,0.085531
3811.86,0.085729
3814.67,0.085668
3817.48,0.085831
3820.29,0.086409
3823.11,0.087142
3825.93,0.087411
3828.76,0.08697
3831.59,0.086762
3834.42,0.087263
3837.26,0.087716
3840.1,0.088026
3842.95,0.08801
3845.8,0.08823
3848.65,0.088488
3851.51,0.088516
3854.38,0.088936
3857.24,0.088608
3860.12,0.088309
3862.99,0.088982
3865.87,0.089588
3868.76,0.089929
3871.65,0.090229
3874.54,0.089884
3877.44,0.089923
3880.34,0.09
3883.25,0.090045
3886.16,0.090406
3889.07,0.09103
3891.99,0.091195
3894.92,0.091121
3897.85,0.091612
3900.78,0.092298
3903.72,0.092043
3906.66,0.091698
3909.6,0.091685
3912.55,0.091901
3915.51,0.092278
3918.47,0.092699
3921.43,0.092783
3924.4,0.092798
3927.38,0.092693
3930.35,0.092961
3933.33,0.092856
3936.32,0.092836
3939.31,0.093291
3942.31,0.09322
3945.31,0.093016
3948.31,0.093374
3951.32,0.093549
3954.34,0.093355
3957.35,0.093499
3960.38,0.093699
3963.41,0.093734
3966.44,0.093599
3969.48,0.093302
3972.52,0.093113
3975.56,0.093518
3978.61,0.093603
3981.67,0.09332
3984.73,0.092887
3987.8,0.092623
3990.87,0.092997
3993.94,0.093553
3997.02,0.093616
4000.1,0.093721
4003.19,0.093921
4006.29,0.093494
4009.39,0.093022
4012.49,0.092705
4015.6,0.092641
4018.71,0.092735
4021.83,0.093183
4024.95,0.093856
4028.08,0.093815
4031.21,0.093616
4034.35,0.093963
4037.49,0.094054
4040.64,0.094117
4043.79,0.094413
4046.94,0.094606
4050.11,0.094461
4053.27,0.094678
4056.44,0.095243
4059.62,0.095441
4062.8,0.095424
4065.99,0.095629
4069.18,0.096053
4072.38,0.09622
4075.58,0.096283
4078.78,0.096496
4082.0,0.096725
4085.21,0.096846
4088.43,0.096914
4091.66,0.09709
4094.89,0.097391
4098.13,0.0978
4101.37,0.097776
4104.62,0.097802
4107.87,0.098005
4111.13,0.098509
4114.39,0.098951
4117.66,0.098657
4120.93,0.098687
4124.21,0.09888
4127.5,0.099154
4130.79,0.099771
4134.08,0.099892
4137.38,0.09981
4140.68,0.099578
4143.99,0.099526
4147.31,0.099523
4150.63,0.099612
4153.95,0.099988
4157.29,0.100411
4160.62,0.100402
4163.96,0.100638
4167.31,0.100966
4170.66,0.101126
4174.02,0.101021
4177.39,0.100958
4180.75,0.101081
4184.13,0.101367
4187.51,0.10153
4190.89,0.101626
4194.28,0.10169
4197.68,0.101748
4201.08,0.101577
4204.49,0.101369
4207.9,0.101913
4211.32,0.102604
4214.74,0.102297
4218.17,0.102269
4221.61,0.102417
4225.05,0.102226
4228.5,0.102159
4231.95,0.102224
4235.4,0.102637
4238.87,0.102909
4242.34,0.103184
4245.81,0.103505
4249.29,0.10377
4252.78,0.104404
4256.27,0.104607
4259.77,0.104584
4263.27,0.104546
4266.78,0.104447
4270.29,0.104279
4273.81,0.10418
4277.34,0.104471
4280.87,0.104749
4284.41,0.104878
4287.95,0.10496
4291.5,0.105049
4295.06,0.104987
4298.62,0.10487
4302.19,0.105216
4305.76,0.105267
4309.34,0.10512
4312.92,0.105238
4316.52,0.105787
4320.11,0.105941
4323.72,0.105942
4327.32,0.106512
4330.94,0.106784
4334.56,0.106623
4338.19,0.106617
4341.82,0.106926
4345.46,0.107189
4349.11,0.106819
4352.76,0.106871
4356.42,0.107221
4360.08,0.107573
4363.75,0.10794
4367.43,0.108391
4371.11,0.108785
4374.8,0.10908
4378.49,0.108961
4382.19,0.109228
4385.9,0.109668
4389.61,0.11003
4393.33,0.110139
4397.06,0.110254
4400.79,0.110808
4404.53,0.110919
4408.28,0.110387
4412.03,0.110369
4415.79,0.111079
4419.55,0.111819
4423.32,0.111674
4427.1,0.111364
4430.88,0.111822
4434.68,0.111969
4438.47,0.111807
4442.28,0.111708
4446.08,0.111767
4449.9,0.111979
4453.72,0.112154
4457.55,0.112416
4461.39,0.112464
4465.23,0.112624
4469.08,0.11249
4472.94,0.112031
4476.8,0.111807
4480.67,0.112373
4484.55,0.112661
4488.43,0.112684
4492.32,0.1124
4496.21,0.11213
4500.12,0.112152
4504.03,0.112303
4507.94,0.112376
4511.87,0.112604
4515.8,0.112866
4519.73,0.113033
4523.68,0.113208
4527.63,0.113477
4531.59,0.114022
4535.55,0.114394
4539.52,0.114419
4543.5,0.114563
4547.49,0.115025
4551.48,0.115527
4555.48,0.115312
4559.49,0.115237
4563.5,0.115534
4567.52,0.115943
4571.55,0.116168
4575.58,0.116263
4579.63,0.116454
4583.67,0.116784
4587.73,0.116868
4591.79,0.117139
4595.86,0.117523
4599.94,0.118108
4604.03,0.118724
4608.12,0.119258
4612.22,0.119716
4616.33,0.119813
4620.44,0.120215
4624.56,0.120742
4628.69,0.120781
4632.83,0.121269
4636.97,0.121785
4641.12,0.121983
4645.28,0.122053
4649.45,0.122186
4653.62,0.122231
4657.8,0.122562
4661.99,0.122796
4666.19,0.122835
4670.39,0.123173
4674.6,0.123367
4678.82,0.123273
4683.05,0.123597
4687.28,0.124184
4691.52,0.124236
4695.77,0.124183
4700.03,0.124623
4704.3,0.125233
4708.57,0.125661
4712.85,0.125977
4717.14,0.126201
4721.43,0.126503
4725.74,0.126948
4730.05,0.127318
4734.37,0.127474
4738.7,0.127648
4743.03,0.128335
4747.38,0.129117
4751.73,0.129309
4756.09,0.129028
4760.45,0.129125
4764.83,0.12941
4769.21,0.129481
4773.6,0.12939
4778.0,0.129368
4782.41,0.129454
4786.83,0.129546
4791.25,0.129648
4795.68,0.129715
4800.13,0.12941
4804.57,0.129456
4809.03,0.129769
4813.5,0.130392
4817.97,0.13081
4822.45,0.131054
4826.94,0.131443
4831.44,0.132388
4835.95,0.13322
4840.46,0.133459
4844.99,0.13359
4849.52,0.133923
4854.06,0.134094
4858.61,0.134227
4863.17,0.134407
4867.73,0.1346
4872.31,0.134645
4876.89,0.134726
4881.48,0.134456
4886.08,0.134089
4890.69,0.133982
4895.31,0.134035
4899.94,0.13364
4904.57,0.133486
4909.22,0.133128
4913.87,0.132806
4918.53,0.132857
4923.21,0.133071
4927.88,0.13331
4932.57,0.133755
4937.27,0.134031
4941.98,0.134178
4946.69,0.134898
4951.42,0.135746
4956.15,0.136214
4960.9,0.136794
4965.65,0.13731
4970.41,0.137792
4975.18,0.137987
4979.96,0.138065
4984.75,0.138491
4989.54,0.138965
4994.35,0.139208
4999.17,0.139174
5003.99,0.139048
5008.83,0.139313
5013.67,0.139428
5018.52,0.139662
5023.39,0.140002
5028.26,0.140226
5033.14,0.140531
5038.03,0.140912
5042.93,0.140828
5047.84,0.141216
5052.76,0.141623
5057.69,0.141881
5062.63,0.142091
5067.58,0.142314
5072.54,0.142552
5077.51,0.142992
5082.49,0.143106
5087.47,0.143335
5092.47,0.143822
5097.48,0.14407
5102.5,0.144583
5107.52,0.145168
5112.56,0.145572
5117.61,0.145713
5122.66,0.145756
5127.73,0.146269
5132.81,0.146771
5137.89,0.146855
5142.99,0.146827
5148.1,0.147138
5153.22,0.147648
5158.34,0.148062
5163.48,0.148362
5168.63,0.148319
5173.79,0.148134
5178.96,0.148228
5184.13,0.148224
5189.32,0.148482
5194.52,0.148616
5199.73,0.14855
5204.96,0.14843
5210.19,0.14808
5215.43,0.147821
5220.68,0.147685
5225.94,0.147822
5231.22,0.147983
5236.5,0.147426
5241.79,0.147162
5247.1,0.14661
5252.42,0.146108
5257.74,0.145692
5263.08,0.145288
5268.43,0.144869
5273.79,0.144343
5279.16,0.143606
5284.54,0.143357
5289.93,0.142817
5295.34,0.142078
5300.75,0.141831
5306.18,0.141336
5311.61,0.140873
5317.06,0.140832
5322.52,0.140516
5327.99,0.140201
5333.47,0.139827
5338.96,0.139253
5344.47,0.13895
5349.98,0.138606
5355.51,0.138196
5361.05,0.138039
5366.6,0.138184
5372.16,0.138332
5377.73,0.138147
5383.32,0.13819
5388.91,0.13834
5394.52,0.138336
5400.14,0.138166
5405.77,0.137936
5411.41,0.13772
5417.07,0.137821
5422.74,0.137795
5428.41,0.137592
5434.1,0.137331
5439.81,0.137212
5445.52,0.137393
5451.25,0.137407
5456.98,0.137014
5462.73,0.136689
5468.5,0.136207
5474.27,0.135641
5480.06,0.13514
5485.86,0.134641
5491.67,0.133943
5497.49,0.1339
5503.33,0.133234
5509.18,0.132269
5515.04,0.131668
5520.91,0.131251
5526.8,0.130576
5532.69,0.129733
5538.61,0.128725
5544.53,0.127971
5550.47,0.127288
5556.41,0.126762
5562.38,0.125807
5568.35,0.124641
5574.34,0.123831
5580.34,0.12306
5586.35,0.122452
5592.38,0.121968
5598.42,0.120877
5604.47,0.119879
5610.54,0.118996
5616.61,0.117891
5622.71,0.117222
5628.81,0.116666
5634.93,0.115617
5641.06,0.114447
5647.21,0.113617
5653.36,0.113096
5659.54,0.112016
5665.72,0.110952
5671.92,0.110195
5678.13,0.109171
5684.36,0.108012
5690.6,0.107338
5696.85,0.106527
5703.12,0.105175
5709.4,0.103959
5715.69,0.10351
5722.0,0.10272
5728.33,0.101658
5734.66,0.100599
5741.01,0.099657
5747.38,0.098754
5753.76,0.097685
5760.15,0.096322
5766.56,0.095454
5772.98,0.094127
5779.41,0.092796
5785.86,0.091724
5792.33,0.090726
5798.81,0.08951
5805.3,0.088162
5811.81,0.086803
5818.33,0.085531
5824.87,0.084263
5831.42,0.08298
5837.99,0.081426
5844.57,0.079843
5851.17,0.078485
5857.78,0.077016
5864.41,0.075189
5871.05,0.073647
5877.7,0.072346
5884.38,0.071224
5891.06,0.069776
5897.76,0.068377
5904.48,0.066779
5911.21,0.06505
5917.96,0.063502
5924.73,0.062186
5931.5,0.060983
5938.3,0.059866
5945.11,0.058493
5951.93,0.057272
5958.78,0.055866
5965.63,0.054571
5972.51,0.05335
5979.39,0.0527
5986.3,0.051853
5993.22,0.050846
6000.16,0.049711
6007.11,0.049119
6014.08,0.048635
6021.06,0.047855
6028.06,0.047044
6035.08,0.046381
6042.12,0.045797
6049.17,0.045134
6056.23,0.044158
6063.32,0.04366
6070.42,0.043344
6077.53,0.04306
6084.67,0.042682
6091.82,0.042726
6098.98,0.042949
6106.17,0.043085
6113.37,0.043208
6120.58,0.043613
6127.82,0.043581
6135.07,0.04396
6142.34,0.044598
6149.63,0.044914
6156.93,0.045574
6164.25,0.046296
6171.59,0.047027
6178.95,0.048109
6186.32,0.049099
6193.71,0.049939
6201.12,0.050657
6208.54,0.051597
6215.99,0.052734
6223.45,0.053791
6230.93,0.054944
6238.43,0.056443
6245.95,0.057794
6253.48,0.058798
6261.03,0.060121
6268.6,0.061289
6276.19,0.062571
6283.8,0.063871
6291.43,0.064559
6299.07,0.065401
6306.73,0.066441
6314.42,0.067393
6322.12,0.067979
6329.84,0.068713
6337.57,0.069565
6345.33,0.07027
6353.11,0.070811
6360.9,0.071199
6368.72,0.071649
6376.55,0.071913
6384.4,0.072365
6392.27,0.073081
6400.17,0.073553
6408.08,0.073454
6416.01,0.073696
6423.96,0.074045
6431.93,0.074164
6439.92,0.07433
6447.93,0.074414
6455.96,0.074193
6464.01,0.074233
6472.08,0.074111
6480.17,0.073836
6488.28,0.07357
6496.41,0.073077
6504.56,0.072855
6512.73,0.072441
6520.92,0.07192
6529.14,0.071218
6537.37,0.070481
6545.63,0.069531
6553.9,0.068691
6562.2,0.068161
6570.51,0.06761
6578.85,0.066516
6587.21,0.065689
6595.59,0.065031
6603.99,0.064252
6612.42,0.063659
6620.86,0.063117
6629.33,0.062633
6637.82,0.061712
6646.33,0.060715
6654.86,0.06012
6663.41,0.059581
6671.99,0.059306
6680.59,0.058723
6689.21,0.058033
6697.85,0.058234
6706.51,0.058615
6715.2,0.058631
6723.91,0.058555
6732.64,0.058704
6741.4,0.059046
6750.18,0.05991
6758.98,0.06058
6767.8,0.060996
6776.65,0.061412
6785.52,0.061891
6794.41,0.06269
6803.33,0.063573
6812.27,0.064247
6821.23,0.064572
6830.22,0.064898
6839.23,0.065545
6848.26,0.06636
6857.32,0.067106
6866.4,0.067808
6875.51,0.068648
6884.64,0.068912
6893.8,0.068957
6902.98,0.069503
6912.18,0.070001
6921.41,0.070065
6930.66,0.07037
6939.94,0.070681
6949.24,0.070401
6958.57,0.070238
6967.92,0.070546
6977.3,0.070518
6986.7,0.070235
6996.13,0.07015
7005.59,0.070191
7015.07,0.070183
7024.57,0.070265
7034.1,0.070246
7043.66,0.070071
7053.25,0.070162
7062.85,0.070406
7072.49,0.070224
7082.15,0.069528
7091.84,0.06934
7101.55,0.069834
7111.3,0.069945
7121.06,0.069578
7130.86,0.068846
7140.68,0.06816
7150.53,0.067772
7160.41,0.067617
7170.31,0.067378
7180.24,0.067112
7190.2,0.066857
7200.19,0.066278
7210.2,0.065994
7220.24,0.065513
7230.31,0.064795
7240.41,0.064289
7250.54,0.063692
7260.69,0.063002
7270.88,0.062456
7281.09,0.061907
7291.33,0.061335
7301.6,0.060473
7311.9,0.059828
7322.22,0.059374
7332.58,0.058712
7342.97,0.057721
7353.38,0.057138
7363.83,0.056666
7374.3,0.055985
7384.81,0.055277
7395.34,0.054657
7405.91,0.053997
7416.5,0.053012
7427.13,0.052211
7437.78,0.051793
7448.47,0.050935
7459.19,0.050246
7469.94,0.049838
7480.71,0.049061
7491.52,0.048002
7502.37,0.046784
7513.24,0.045943
7524.14,0.045227
7535.08,0.044216
7546.05,0.043306
7557.05,0.042617
7568.08,0.041525
7579.15,0.040435
7590.24,0.039621
7601.37,0.038937
7612.53,0.038246
7623.73,0.037309
7634.96,0.03651
7646.22,0.036098
7657.51,0.035101
7668.84,0.034081
7680.2,0.033378
7691.59,0.032625
7703.02,0.032033
7714.49,0.031118
7725.98,0.030457
7737.52,0.029732
7749.08,0.028902
7760.68,0.028138
7772.32,0.02769
7783.99,0.027376
7795.69,0.026923
7807.43,0.02632
7819.21,0.025713
7831.02,0.025368
7842.87,0.025048
7854.75,0.02464
7866.67,0.024476
7878.62,0.024386
7890.62,0.024565
7902.64,0.02433
7914.71,0.02393
7926.81,0.023782
7938.95,0.023701
7951.13,0.023588
7963.34,0.023684
7975.59,0.023613
7987.88,0.023551
8000.21,0.023621
8012.57,0.023751
8024.98,0.023605
8037.42,0.023476
8049.9,0.023809
8062.42,0.024244
8074.98,0.024564
8087.57,0.024992
8100.21,0.025587
8112.89,0.025905
8125.6,0.02664
8138.36,0.027537
8151.16,0.027863
8163.99,0.028378
8176.87,0.028963
8189.79,0.029388
8202.75,0.030272
8215.75,0.031107
8228.79,0.031447
8241.87,0.032192
8254.99,0.033133
8268.16,0.033585
8281.37,0.034022
8294.62,0.034251
8307.91,0.034211
8321.24,0.034798
8334.62,0.035181
8348.04,0.035212
8361.51,0.035162
8375.02,0.035041
8388.57,0.034377
8402.16,0.034035
8415.8,0.034088
8429.49,0.034245
8443.22,0.034224
8456.99,0.033583
8470.81,0.033381
8484.67,0.033192
8498.58,0.032417
8512.54,0.032141
8526.54,0.031816
8540.58,0.031532
8554.68,0.031364
8568.82,0.030676
8583.0,0.029923
8597.24,0.02976
8611.52,0.029481
8625.85,0.029187
8640.23,0.029172
8654.65,0.029039
8669.12,0.028727
8683.64,0.02882
8698.21,0.028562
8712.83,0.028104
8727.5,0.028307
8742.22,0.028655
8756.99,0.028826
8771.8,0.02859
8786.67,0.028744
8801.59,0.02921
8816.56,0.029418
8831.58,0.029717
8846.65,0.03025
8861.77,0.030544
8876.94,0.030493
8892.17,0.030471
8907.45,0.030733
8922.78,0.03121
8938.16,0.031498
8953.6,0.031575
8969.09,0.031264
8984.64,0.031143
9000.23,0.031751
9015.89,0.032584
9031.59,0.032707
9047.36,0.032083
9063.17,0.03163
9079.05,0.031547
9094.97,0.031528
9110.96,0.030727
9127.0,0.030305
9143.1,0.030967
9159.25,0.031101
9175.46,0.030533
9191.73,0.030142
9208.06,0.030165
9224.44,0.03048
9240.88,0.030685
9257.38,0.030634
9273.94,0.030118
9290.56,0.029405
9307.24,0.02938
9323.98,0.029317
9340.78,0.029009
9357.64,0.029105
9374.57,0.029151
9391.55,0.028734
9408.59,0.028363
9425.7,0.027959
9442.87,0.028124
9460.1,0.028556
9477.4,0.02854
9494.75,0.028838
9512.17,0.028767
9529.66,0.028541
9547.21,0.028561
9564.83,0.028112
9582.5,0.028507
9600.25,0.029309
9618.06,0.029603
9635.94,0.030039
9653.88,0.030148
9671.89,0.030049
9689.97,0.029574
9708.12,0.029081
9726.33,0.028832
9744.62,0.028538
9762.97,0.028243
9781.39,0.028008
9799.88,0.027323
9818.44,0.026503
9837.07,0.026573
9855.77,0.02744
9874.54,0.028336
9893.39,0.028904
9912.3,0.030042
9931.29,0.03148
9950.36,0.032677
9969.49,0.03389
9988.7,0.034732
10007.98,0.035396
10027.34,0.036075
10046.77,0.036486
10066.28,0.036749
10085.87,0.037376
10105.53,0.037918
10125.26,0.037849
10145.08,0.038028
10164.97,0.039138
10184.94,0.039869
10204.99,0.04026
10225.12,0.040608
10245.33,0.041069
10265.61,0.041653
10285.98,0.041837
10306.43,0.041802
10326.96,0.042068
10347.57,0.042737
10368.27,0.042568
10389.05,0.042106
10409.91,0.042272
10430.86,0.042456
10451.88,0.042222
10473.0,0.042243
10494.2,0.041949
10515.49,0.041461
10536.86,0.04119
10558.32,0.041055
10579.87,0.041127
10601.5,0.041299
10623.23,0.041933
10645.04,0.041958
10666.94,0.041889
10688.94,0.042159
10711.02,0.04236
10733.2,0.042424
10755.47,0.04285
10777.83,0.042791
10800.28,0.042401
10822.83,0.042486
10845.47,0.042796
10868.21,0.042869
10891.04,0.043009
10913.97,0.043671
10936.99,0.043683
10960.12,0.043458
10983.34,0.042954
11006.66,0.04282
11030.07,0.043264
11053.59,0.043136
11077.21,0.042535
11100.93,0.042457
11124.75,0.042598
11148.68,0.042798
11172.71,0.042426
11196.84,0.042098
11221.07,0.041623
11245.41,0.041041
11269.86,0.040727
11294.41,0.040778
11319.07,0.041021
11343.84,0.041037
11368.72,0.040033
11393.7,0.039501
11418.8,0.039451
11444.01,0.040069
11469.33,0.03977
11494.76,0.038812
11520.3,0.038188
11545.96,0.038086
11571.73,0.037293
11597.62,0.036257
11623.62,0.035803
11649.74,0.035909
11675.98,0.035418
11702.34,0.03449
11728.81,0.033841
11755.41,0.033663
11782.13,0.033627
11808.96,0.033338
11835.92,0.032712
11863.01,0.03148
11890.22,0.031194
11917.55,0.031071
11945.01,0.030142
11972.6,0.028905
12000.31,0.028594
12028.16,0.028596
12056.13,0.0285
12084.23,0.028451
12112.46,0.028753
12140.83,0.028223
12169.33,0.027791
12197.96,0.027588
12226.73,0.027477
12255.64,0.027265
12284.68,0.027544
12313.86,0.027735
12343.18,0.027273
12372.64,0.027405
12402.24,0.02789
12431.98,0.027857
12461.86,0.027812
12491.89,0.027782
12522.07,0.028234
12552.38,0.028507
12582.85,0.028414
12613.47,0.029132
12644.23,0.029383
12675.15,0.029429
12706.21,0.030291
12737.43,0.030586
12768.81,0.031416
12800.33,0.032354
12832.02,0.032179
12863.86,0.031968
12895.86,0.032884
12928.02,0.03404
12960.34,0.034582
12992.82,0.03507
13025.46,0.036197
13058.27,0.037122
13091.25,0.037017
13124.39,0.03712
13157.7,0.037918
13191.18,0.037737
13224.83,0.037099
13258.66,0.037654
13292.65,0.038702
13326.83,0.039083
13361.17,0.038475
13395.7,0.038342
13430.4,0.038917
13465.29,0.039345
13500.35,0.039342
13535.6,0.0392
13571.03,0.038701
13606.65,0.03888
13642.46,0.038624
13678.46,0.038453
13714.64,0.0388
13751.02,0.038305
13787.59,0.037096
13824.36,0.036487
13861.32,0.036623
13898.49,0.036231
13935.85,0.035481
13973.41,0.03495
14011.17,0.035059
14049.15,0.034946
14087.32,0.033825
14125.71,0.033406
14164.3,0.034064
14203.11,0.034161
14242.13,0.033703
14281.36,0.032913
14320.81,0.032486
14360.49,0.031688
14400.38,0.031043
14440.49,0.030435
14480.82,0.030997
14521.39,0.031023
14562.18,0.02965
14603.2,0.028908
14644.45,0.029059
14685.93,0.028899
14727.66,0.027596
14769.62,0.025862
14811.81,0.02459
14854.25,0.024293
14896.94,0.023535
14939.87,0.021963
14983.05,0.021367
15026.48,0.021625
15070.16,0.022602
15114.1,0.023723
15158.29,0.024409
15202.74,0.025621
15247.46,0.025956
15292.43,0.026659
15337.68,0.027254
15383.19,0.027207
15428.97,0.027446
15475.03,0.027474
15521.36,0.026556
15567.97,0.026003
15614.87,0.026288
15662.04,0.026034
15709.5,0.025874
15757.25,0.025249
15805.29,0.023182
15853.62,0.022776
15902.26,0.022217
15951.19,0.021264
16000.42,0.021709
16049.95,0.02285
16099.8,0.022711
16149.95,0.023325
16200.42,0.023848
16251.21,0.023208
16302.31,0.022921
16353.74,0.022274
16405.49,0.021883
16457.57,0.021855
16509.98,0.022276
16562.73,0.022967
16615.82,0.022394
16669.24,0.022981
16723.02,0.024176
16777.14,0.02405
16831.61,0.023857
16886.43,0.02426
16941.62,0.024313
16997.16,0.024993
17053.08,0.025858
17109.36,0.025471
17166.01,0.025861
17223.04,0.026309
17280.45,0.025454
17338.24,0.02579
17396.43,0.026602
17455.0,0.025889
17513.97,0.025507
17573.34,0.025048
17633.11,0.023817
17693.29,0.024703
17753.89,0.026897
17814.9,0.027312
17876.33,0.026251
17938.18,0.02553
18000.47,0.025561
18063.19,0.026175
18126.35,0.026314
18189.95,0.024812
18254.0,0.023799
18318.5,0.024698
18383.46,0.02514
18448.88,0.026056
18514.77,0.026552
18581.13,0.025894
18647.97,0.026109
18715.29,0.025927
18783.1,0.026623
18851.4,0.027942
18920.2,0.026907
18989.51,0.025349
19059.32,0.025297
19129.65,0.025188
19200.5,0.024393
19271.88,0.025078
19343.79,0.02575
19416.24,0.024681
19489.23,0.025467
19562.77,0.025514
19636.88,0.024222
19711.54,0.023679
19786.78,0.024412
19862.59,0.025816
19938.98,0.025709
20015.96,0.025403
20093.55,0.024826
20171.73,0.025045
20250.53,0.02636
20329.94,0.027234
20409.98,0.026588
20490.65,0.025756
20571.96,0.024773
20653.92,0.022676
20736.54,0.024025
20819.82,0.02702
20903.77,0.029201
20988.4,0.026874
21073.72,0.024585
21159.73,0.026131
21246.46,0.027062
21333.89,0.027606
21422.04,0.027325
21510.93,0.026566
21600.56,0.026501
21690.94,0.027477
21782.08,0.030142
21873.99,0.0322
21966.67,0.029838
22060.15,0.030183
22154.42,0.031195
22249.51,0.030737
22345.41,0.030077
22442.14,0.027351
22539.72,0.026898
22638.14,0.027109
22737.43,0.026685
22837.6,0.028908
22938.65,0.030527
23040.6,0.031882
23143.46,0.029029
23247.24,0.030867
23351.96,0.033612
23457.63,0.032206
23564.25,0.028505
23671.85,0.027705
23780.44,0.029018
23890.02,0.029659
24000.63,0.031121
24112.26,0.028994
24224.93,0.027847
24338.66,0.029773
24453.47,0.029168
24569.36,0.032038
24686.36,0.032791
24804.47,0.03173
24923.73,0.03426
25044.13,0.029958
25165.71,0.026326
25288.46,0.024364
25412.43,0.020559
25537.61,0.024055
25664.04,0.031431
25791.72,0.036866
25920.68,0.035831
