Database of Origin,University of Winnipeg Spectrophotometer Facility
Sample Description,8. Sulfates: RELAB + Nicolet spectra / Spectra all made consistently merged: Jan. / 10 / 2005
Date Added,2016-07-15 22:05:55.224735

Data ID,RPN_SUL_36          
Sample ID,SPT121
Mineral Name,Fibroferrite
Grain Size,<45
Viewing Geometry,30 / 0 | 30
Resolution,5 / 1.3-129
Material Class,Sulfate

Wavelength
305.0,0.037095
310.0,0.032753
315.0,0.030314
320.0,0.026861
325.0,0.025977
330.0,0.025659
335.0,0.026196
340.0,0.028935
345.0,0.034137
350.0,0.041907
355.0,0.052031
360.0,0.064421
365.0,0.080868
370.0,0.100311
375.0,0.120371
380.0,0.144354
385.0,0.177465
390.0,0.218463
395.0,0.25649
400.0,0.283175
405.0,0.288964
410.0,0.276857
415.0,0.256528
420.0,0.231594
425.0,0.218707
430.0,0.254178
435.0,0.309782
440.0,0.360506
445.0,0.403664
450.0,0.439337
455.0,0.46885
460.0,0.492226
465.0,0.509672
470.0,0.524119
475.0,0.536602
480.0,0.54541
485.0,0.555653
490.0,0.562182
495.0,0.570856
500.0,0.577029
505.0,0.585746
510.0,0.592813
515.0,0.598736
520.0,0.606777
525.0,0.614443
530.0,0.621532
535.0,0.627966
540.0,0.635037
545.0,0.640708
550.0,0.646523
555.0,0.65346
560.0,0.659366
565.0,0.665947
570.0,0.671918
575.0,0.678093
580.0,0.685728
585.0,0.692071
590.0,0.698609
595.0,0.705948
600.0,0.712687
605.0,0.719589
610.0,0.7262
615.0,0.732521
620.0,0.738916
625.0,0.744827
630.0,0.749534
635.0,0.755476
640.0,0.760494
645.0,0.764549
650.0,0.767457
655.0,0.771564
660.0,0.77353
665.0,0.774655
670.0,0.77543
675.0,0.776058
680.0,0.775399
685.0,0.772811
690.0,0.770577
695.0,0.767357
700.0,0.763391
705.0,0.758635
710.0,0.754571
715.0,0.749405
720.0,0.743799
725.0,0.737755
730.0,0.731379
735.0,0.725304
740.0,0.718933
745.0,0.713217
750.0,0.708125
755.0,0.701341
760.0,0.695143
765.0,0.689622
770.0,0.685376
775.0,0.681384
780.0,0.676333
785.0,0.672403
790.0,0.668137
795.0,0.666373
800.0,0.663751
805.0,0.659326
810.0,0.659816
815.0,0.657544
820.0,0.652816
825.0,0.652861
830.0,0.652265
835.0,0.651919
840.0,0.651386
845.0,0.649053
850.0,0.65069
855.0,0.648484
860.0,0.650972
865.0,0.651949
870.0,0.650628
875.0,0.655612
880.0,0.656888
885.0,0.659304
890.0,0.658518
895.0,0.664421
900.0,0.666536
905.0,0.669093
910.0,0.673833
915.0,0.675646
920.0,0.681294
925.0,0.685049
930.0,0.688446
935.0,0.69211
940.0,0.698858
945.0,0.700272
950.0,0.706713
955.0,0.709661
960.0,0.714952
965.0,0.719792
970.0,0.724574
975.0,0.729877
980.0,0.735879
985.0,0.738228
990.0,0.745143
995.0,0.750587
1000.0,0.753303
1005.0,0.759642
1010.0,0.764142
1015.0,0.767492
1020.0,0.773435
1025.0,0.779104
1030.0,0.782726
1035.0,0.787673
1040.0,0.791412
1045.0,0.798043
1050.0,0.801765
1055.0,0.808119
1060.0,0.811305
1065.0,0.815608
1070.0,0.818237
1075.0,0.822976
1080.0,0.826405
1085.0,0.830968
1090.0,0.834207
1095.0,0.83672
1100.0,0.841008
1105.0,0.84397
1110.0,0.847223
1115.0,0.850197
1120.0,0.85216
1125.0,0.855642
1130.0,0.857062
1135.0,0.859658
1140.0,0.860454
1145.0,0.863448
1150.0,0.863929
1155.0,0.864929
1160.0,0.864979
1165.0,0.864196
1170.0,0.864347
1175.0,0.865923
1180.0,0.866544
1185.0,0.868487
1190.0,0.870296
1195.0,0.871113
1200.0,0.872261
1205.0,0.874065
1210.0,0.875618
1215.0,0.876812
1220.0,0.877241
1225.0,0.877459
1230.0,0.878111
1235.0,0.880326
1240.0,0.878911
1245.0,0.880308
1250.0,0.879942
1255.0,0.880186
1260.0,0.881655
1265.0,0.882346
1270.0,0.88257
1275.0,0.880608
1280.0,0.881205
1285.0,0.881747
1290.0,0.881171
1295.0,0.882163
1300.0,0.881934
1305.0,0.880336
1310.0,0.880777
1315.0,0.879336
1320.0,0.879298
1325.0,0.876678
1330.0,0.875705
1335.0,0.873313
1340.0,0.871217
1345.0,0.869001
1350.0,0.866973
1355.0,0.865021
1360.0,0.863926
1365.0,0.862169
1370.0,0.86126
1375.0,0.858743
1380.0,0.855848
1385.0,0.852541
1390.0,0.850286
1395.0,0.842634
1400.0,0.831601
1405.0,0.820523
1410.0,0.809633
1415.0,0.792338
1420.0,0.778174
1425.0,0.76578
1430.0,0.758688
1435.0,0.754682
1440.0,0.748631
1445.0,0.742659
1450.0,0.736913
1455.0,0.732347
1460.0,0.728677
1465.0,0.724872
1470.0,0.720458
1475.0,0.717769
1480.0,0.713544
1485.0,0.711721
1490.0,0.711925
1495.0,0.710306
1500.0,0.71176
1505.0,0.71401
1510.0,0.713404
1515.0,0.715701
1520.0,0.716439
1525.0,0.716402
1530.0,0.718474
1535.0,0.718472
1540.0,0.719938
1545.0,0.721868
1550.0,0.720532
1555.0,0.72162
1560.0,0.722829
1565.0,0.723045
1570.0,0.724132
1575.0,0.725046
1580.0,0.72764
1585.0,0.7292
1590.0,0.72982
1595.0,0.730807
1600.0,0.733537
1605.0,0.734033
1610.0,0.733416
1615.0,0.735274
1620.0,0.734595
1625.0,0.734567
1630.0,0.734757
1635.0,0.733262
1640.0,0.733592
1645.0,0.733001
1650.0,0.732464
1655.0,0.73107
1660.0,0.728105
1665.0,0.729368
1670.0,0.728359
1675.0,0.725576
1680.0,0.723922
1685.0,0.722121
1690.0,0.721968
1695.0,0.721137
1700.0,0.71924
1705.0,0.718246
1710.0,0.71594
1715.0,0.715453
1720.0,0.714816
1725.0,0.712788
1730.0,0.711193
1735.0,0.710238
1740.0,0.708858
1745.0,0.707139
1750.0,0.704915
1755.0,0.703771
1760.0,0.702472
1765.0,0.700467
1770.0,0.699879
1775.0,0.69759
1780.0,0.697746
1785.0,0.697273
1790.0,0.696181
1795.0,0.695423
1800.0,0.695134
1805.0,0.694884
1810.0,0.69471
1815.0,0.692789
1820.0,0.692929
1825.0,0.692699
1830.0,0.692488
1835.0,0.692128
1840.0,0.691085
1845.0,0.69029
1850.0,0.691738
1855.0,0.69184
1860.0,0.69103
1865.0,0.690056
1870.0,0.686219
1875.0,0.68089
1880.0,0.676082
1885.0,0.668317
1890.0,0.658887
1895.0,0.643577
1900.0,0.626028
1905.0,0.603596
1910.0,0.57683
1915.0,0.543593
1920.0,0.508361
1925.0,0.472514
1930.0,0.447165
1935.0,0.440893
1940.0,0.449041
1945.0,0.459443
1950.0,0.469035
1955.0,0.474617
1960.0,0.482081
1965.0,0.488848
1970.0,0.495026
1975.0,0.500093
1980.0,0.504376
1985.0,0.50873
1990.0,0.512376
1995.0,0.516662
2000.0,0.520159
2005.0,0.522934
2010.0,0.527317
2015.0,0.53054
2020.0,0.534111
2025.0,0.538093
2030.0,0.542349
2035.0,0.545045
2040.0,0.549903
2045.0,0.55351
2050.0,0.557354
2055.0,0.561158
2060.0,0.566144
2065.0,0.570668
2070.0,0.573617
2075.0,0.577881
2080.0,0.581691
2085.0,0.583866
2090.0,0.586591
2095.0,0.589359
2100.0,0.591532
2105.0,0.592546
2110.0,0.594323
2115.0,0.594624
2120.0,0.59653
2125.0,0.596991
2130.0,0.597502
2135.0,0.59797
2140.0,0.597871
2145.0,0.597937
2150.0,0.598417
2155.0,0.59779
2160.0,0.597152
2165.0,0.597217
2170.0,0.595842
2175.0,0.596098
2180.0,0.595331
2185.0,0.595976
2190.0,0.594447
2195.0,0.594986
2200.0,0.592207
2205.0,0.59254
2210.0,0.591002
2215.0,0.589184
2220.0,0.586742
2225.0,0.585571
2230.0,0.584833
2235.0,0.582441
2240.0,0.579538
2245.0,0.577603
2250.0,0.576312
2255.0,0.573975
2260.0,0.572382
2265.0,0.572936
2270.0,0.570119
2275.0,0.570507
2280.0,0.569019
2285.0,0.56811
2290.0,0.565718
2295.0,0.563687
2300.0,0.560804
2305.0,0.556373
2310.0,0.553208
2315.0,0.549897
2320.0,0.545353
2325.0,0.54179
2330.0,0.537535
2335.0,0.533217
2340.0,0.529263
2345.0,0.524602
2350.0,0.520384
2355.0,0.515321
2360.0,0.509653
2365.0,0.506208
2370.0,0.499947
2375.0,0.49513
2380.0,0.489782
2385.0,0.482962
2390.0,0.478054
2395.0,0.472568
2400.0,0.468645
2405.0,0.464545
2410.0,0.461602
2415.0,0.458308
2420.0,0.454342
2425.0,0.451954
2430.0,0.448326
2435.0,0.443914
2440.0,0.439838
2445.0,0.435359
2450.0,0.430393
2455.0,0.426749
2460.0,0.421487
2465.0,0.417944
2470.0,0.416276
2475.0,0.414274
2480.0,0.41342
2485.0,0.410949
2490.0,0.408946
2495.0,0.406349
2500.0,0.404885
2505.0,0.4022
2510.0,0.399041
2515.0,0.398075
2520.0,0.396149
2525.0,0.394847
2530.0,0.391994
2535.0,0.389735
2540.0,0.386202
2545.0,0.387396
2550.0,0.382951
2555.0,0.380376
2560.0,0.380229
2565.13,0.376735
2570.22,0.377359
2575.33,0.37614
2580.46,0.375308
2581.74,0.375391
2583.03,0.374355
2584.31,0.372885
2585.6,0.373936
2586.89,0.373057
2588.19,0.372989
2589.48,0.373548
2590.77,0.373023
2592.07,0.371905
2593.36,0.370052
2594.66,0.369114
2595.96,0.370573
2597.26,0.37251
2598.56,0.372361
2599.87,0.370746
2601.17,0.369551
2602.48,0.368936
2603.78,0.369998
2605.09,0.368777
2606.4,0.36751
2607.71,0.367888
2609.03,0.367316
2610.34,0.366933
2611.66,0.366679
2612.97,0.36572
2614.29,0.366209
2615.61,0.367313
2616.93,0.366926
2618.25,0.36713
2619.57,0.366526
2620.9,0.365181
2622.22,0.366879
2623.55,0.367141
2624.88,0.366092
2626.21,0.363641
2627.54,0.364837
2628.87,0.366373
2630.21,0.364646
2631.54,0.362453
2632.88,0.361877
2634.21,0.361764
2635.55,0.36293
2636.89,0.36258
2638.24,0.361355
2639.58,0.36069
2640.92,0.361294
2642.27,0.36016
2643.62,0.358996
2644.97,0.357487
2646.32,0.356498
2647.67,0.357579
2649.02,0.358454
2650.38,0.357554
2651.73,0.356643
2653.09,0.355571
2654.45,0.354086
2655.81,0.353031
2657.17,0.353407
2658.53,0.35373
2659.89,0.353564
2661.26,0.353553
2662.63,0.352784
2664.0,0.34987
2665.36,0.347295
2666.74,0.345344
2668.11,0.346121
2669.48,0.345843
2670.86,0.342552
2672.23,0.342533
2673.61,0.341944
2674.99,0.339794
2676.37,0.337985
2677.76,0.337155
2679.14,0.335312
2680.52,0.334961
2681.91,0.335263
2683.3,0.333617
2684.69,0.331615
2686.08,0.329682
2687.47,0.32816
2688.87,0.326642
2690.26,0.325979
2691.66,0.324223
2693.06,0.321292
2694.46,0.318054
2695.86,0.316238
2697.26,0.315432
2698.66,0.314303
2700.07,0.312247
2701.48,0.310064
2702.89,0.306793
2704.3,0.305115
2705.71,0.301661
2707.12,0.298288
2708.53,0.295137
2709.95,0.291334
2711.37,0.286991
2712.79,0.284045
2714.21,0.28085
2715.63,0.276093
2717.05,0.271867
2718.48,0.268534
2719.9,0.26463
2721.33,0.260132
2722.76,0.25623
2724.19,0.251581
2725.62,0.245682
2727.06,0.243905
2728.49,0.241232
2729.93,0.237219
2731.37,0.233101
2732.81,0.229386
2734.25,0.224934
2735.69,0.220163
2737.14,0.215442
2738.58,0.210917
2740.03,0.206671
2741.48,0.202745
2742.93,0.199127
2744.38,0.194836
2745.83,0.189457
2747.29,0.185128
2748.75,0.181303
2750.2,0.17774
2751.66,0.173045
2753.13,0.168581
2754.59,0.164996
2756.05,0.160574
2757.52,0.156221
2758.99,0.154335
2760.46,0.151145
2761.93,0.147758
2763.4,0.145033
2764.87,0.142248
2766.35,0.141004
2767.82,0.139589
2769.3,0.138283
2770.78,0.136702
2772.26,0.134612
2773.75,0.131873
2775.23,0.130023
2776.72,0.129126
2778.21,0.125902
2779.7,0.122707
2781.19,0.121017
2782.68,0.118963
2784.18,0.117289
2785.67,0.115403
2787.17,0.112004
2788.67,0.109948
2790.17,0.108841
2791.67,0.107215
2793.18,0.104575
2794.68,0.101256
2796.19,0.098493
2797.7,0.096857
2799.21,0.09469
2800.72,0.092711
2802.24,0.089992
2803.75,0.087216
2805.27,0.085219
2806.79,0.083209
2808.31,0.081451
2809.83,0.079
2811.35,0.076929
2812.88,0.073901
2814.41,0.070452
2815.93,0.068989
2817.46,0.068091
2819.0,0.065256
2820.53,0.062228
2822.07,0.060449
2823.6,0.059954
2825.14,0.058829
2826.68,0.056345
2828.22,0.05381
2829.77,0.052056
2831.31,0.049925
2832.86,0.048495
2834.41,0.047315
2835.96,0.046006
2837.51,0.044866
2839.07,0.044345
2840.62,0.043438
2842.18,0.041933
2843.74,0.039613
2845.3,0.037632
2846.86,0.036922
2848.43,0.036703
2849.99,0.036325
2851.56,0.0355
2853.13,0.035055
2854.7,0.034261
2856.27,0.033239
2857.85,0.032432
2859.42,0.032916
2861.0,0.032674
2862.58,0.031389
2864.16,0.029931
2865.75,0.029514
2867.33,0.029848
2868.92,0.029495
2870.51,0.02869
2872.1,0.027876
2873.69,0.027083
2875.28,0.026916
2876.88,0.02725
2878.48,0.026719
2880.07,0.025635
2881.68,0.025891
2883.28,0.026496
2884.88,0.026244
2886.49,0.025678
2888.1,0.025489
2889.71,0.02423
2891.32,0.024029
2892.93,0.024363
2894.55,0.023509
2896.16,0.023477
2897.78,0.024314
2899.4,0.024368
2901.03,0.024005
2902.65,0.023561
2904.28,0.023525
2905.91,0.024214
2907.54,0.024006
2909.17,0.02375
2910.8,0.023731
2912.44,0.023076
2914.07,0.023269
2915.71,0.023767
2917.35,0.023418
2918.99,0.023041
2920.64,0.022391
2922.29,0.0214
2923.93,0.021514
2925.58,0.02251
2927.24,0.02283
2928.89,0.021937
2930.55,0.021432
2932.2,0.021569
2933.86,0.021552
2935.52,0.021314
2937.19,0.020993
2938.85,0.021104
2940.52,0.021279
2942.19,0.020745
2943.86,0.020822
2945.53,0.020696
2947.21,0.020816
2948.88,0.020924
2950.56,0.020551
2952.24,0.019944
2953.92,0.019866
2955.61,0.020103
2957.29,0.020075
2958.98,0.020857
2960.67,0.020946
2962.36,0.020731
2964.06,0.021293
2965.75,0.021249
2967.45,0.020845
2969.15,0.020908
2970.85,0.020402
2972.55,0.020115
2974.26,0.020313
2975.97,0.020649
2977.68,0.020583
2979.39,0.021147
2981.1,0.021299
2982.82,0.021161
2984.53,0.021501
2986.25,0.021609
2987.97,0.02101
2989.7,0.020739
2991.42,0.021289
2993.15,0.021191
2994.88,0.020438
2996.61,0.020716
2998.34,0.021304
3000.08,0.021717
3001.82,0.021962
3003.55,0.021653
3005.3,0.021636
3007.04,0.021182
3008.78,0.020905
3010.53,0.021553
3012.28,0.021969
3014.03,0.021387
3015.79,0.021692
3017.54,0.022368
3019.3,0.022274
3021.06,0.022656
3022.82,0.02283
3024.58,0.022863
3026.35,0.023574
3028.12,0.023813
3029.89,0.023261
3031.66,0.02334
3033.43,0.023475
3035.21,0.024009
3036.99,0.023651
3038.77,0.023199
3040.55,0.022986
3042.33,0.02328
3044.12,0.023933
3045.91,0.024787
3047.7,0.025153
3049.49,0.025243
3051.29,0.025059
3053.08,0.024883
3054.88,0.024703
3056.68,0.024394
3058.49,0.024534
3060.29,0.024987
3062.1,0.025476
3063.91,0.026002
3065.72,0.025911
3067.54,0.025584
3069.35,0.02553
3071.17,0.025952
3072.99,0.026236
3074.81,0.026313
3076.64,0.026244
3078.47,0.026594
3080.29,0.026954
3082.13,0.026667
3083.96,0.026075
3085.79,0.025928
3087.63,0.026261
3089.47,0.026862
3091.31,0.026443
3093.16,0.026257
3095.01,0.026389
3096.85,0.026421
3098.71,0.027127
3100.56,0.028073
3102.41,0.027879
3104.27,0.027018
3106.13,0.026422
3107.99,0.026875
3109.86,0.027844
3111.73,0.028469
3113.59,0.02875
3115.47,0.028772
3117.34,0.02796
3119.21,0.028325
3121.09,0.02924
3122.97,0.02901
3124.86,0.028114
3126.74,0.028457
3128.63,0.029191
3130.52,0.028897
3132.41,0.028863
3134.3,0.029092
3136.2,0.029578
3138.1,0.030058
3140.0,0.030401
3141.9,0.030522
3143.81,0.030728
3145.71,0.030109
3147.62,0.029877
3149.54,0.030478
3151.45,0.03054
3153.37,0.030582
3155.29,0.031167
3157.21,0.031486
3159.13,0.031636
3161.06,0.031959
3162.99,0.032324
3164.92,0.032984
3166.85,0.033766
3168.79,0.034057
3170.72,0.034256
3172.67,0.034416
3174.61,0.034274
3176.55,0.033947
3178.5,0.034227
3180.45,0.034576
3182.4,0.034475
3184.36,0.03473
3186.32,0.035228
3188.27,0.035726
3190.24,0.036522
3192.2,0.036376
3194.17,0.035874
3196.14,0.03654
3198.11,0.036433
3200.08,0.036092
3202.06,0.036873
3204.04,0.037673
3206.02,0.038079
3208.0,0.037885
3209.99,0.037676
3211.98,0.038202
3213.97,0.039152
3215.96,0.039314
3217.96,0.03941
3219.96,0.040038
3221.96,0.040429
3223.96,0.040664
3225.97,0.040477
3227.98,0.040404
3229.99,0.040711
3232.0,0.041054
3234.02,0.041604
3236.04,0.042452
3238.06,0.042924
3240.08,0.043183
3242.11,0.043504
3244.14,0.043277
3246.17,0.043958
3248.2,0.044892
3250.24,0.045081
3252.28,0.045192
3254.32,0.045278
3256.37,0.046009
3258.41,0.046551
3260.46,0.046434
3262.51,0.047161
3264.57,0.048204
3266.63,0.048933
3268.69,0.04887
3270.75,0.048652
3272.81,0.049332
3274.88,0.049602
3276.95,0.050081
3279.02,0.050639
3281.1,0.050985
3283.18,0.051587
3285.26,0.052231
3287.34,0.052596
3289.43,0.05336
3291.51,0.054297
3293.61,0.054802
3295.7,0.054884
3297.8,0.055583
3299.9,0.055814
3302.0,0.055965
3304.1,0.056629
3306.21,0.056839
3308.32,0.057174
3310.43,0.058043
3312.55,0.058618
3314.66,0.059462
3316.79,0.060303
3318.91,0.060902
3321.03,0.061061
3323.16,0.061143
3325.29,0.061246
3327.43,0.062005
3329.57,0.063752
3331.71,0.064582
3333.85,0.064565
3335.99,0.065299
3338.14,0.066282
3340.29,0.066726
3342.45,0.067289
3344.6,0.068008
3346.76,0.068313
3348.92,0.069193
3351.09,0.06975
3353.26,0.070463
3355.43,0.071526
3357.6,0.072413
3359.78,0.072595
3361.96,0.073006
3364.14,0.073724
3366.32,0.074004
3368.51,0.074674
3370.7,0.075984
3372.89,0.076811
3375.09,0.077382
3377.29,0.078048
3379.49,0.078891
3381.69,0.079595
3383.9,0.079499
3386.11,0.080059
3388.32,0.081732
3390.54,0.083439
3392.76,0.084008
3394.98,0.08367
3397.21,0.083958
3399.43,0.085051
3401.66,0.086573
3403.9,0.087514
3406.13,0.088326
3408.37,0.088942
3410.61,0.089787
3412.86,0.090925
3415.11,0.092113
3417.36,0.092744
3419.61,0.093208
3421.87,0.093976
3424.13,0.094919
3426.39,0.096202
3428.66,0.096718
3430.93,0.096822
3433.2,0.097997
3435.48,0.098784
3437.76,0.09937
3440.04,0.100638
3442.32,0.101252
3444.61,0.10194
3446.9,0.103124
3449.19,0.104268
3451.49,0.105409
3453.79,0.105968
3456.09,0.10666
3458.4,0.107467
3460.7,0.108308
3463.02,0.109512
3465.33,0.111116
3467.65,0.112249
3469.97,0.112578
3472.29,0.113073
3474.62,0.113668
3476.95,0.114934
3479.29,0.115906
3481.62,0.116855
3483.96,0.11776
3486.3,0.118859
3488.65,0.120153
3491.0,0.121157
3493.35,0.121973
3495.71,0.122632
3498.07,0.12397
3500.43,0.124816
3502.79,0.125224
3505.16,0.12665
3507.53,0.128626
3509.91,0.12919
3512.29,0.129355
3514.67,0.13047
3517.05,0.131937
3519.44,0.132902
3521.83,0.133638
3524.23,0.134717
3526.62,0.135768
3529.02,0.136977
3531.43,0.137884
3533.83,0.138063
3536.24,0.139218
3538.66,0.140783
3541.08,0.141626
3543.5,0.142688
3545.92,0.143566
3548.35,0.14464
3550.78,0.145695
3553.21,0.146657
3555.65,0.147708
3558.09,0.14912
3560.53,0.150682
3562.98,0.151885
3565.43,0.152909
3567.88,0.153824
3570.34,0.154987
3572.8,0.155569
3575.27,0.156162
3577.73,0.157777
3580.2,0.15932
3582.68,0.160622
3585.16,0.161503
3587.64,0.162115
3590.12,0.163324
3592.61,0.164872
3595.1,0.165814
3597.6,0.166845
3600.09,0.168078
3602.6,0.168995
3605.1,0.170188
3607.61,0.171737
3610.12,0.172501
3612.64,0.173313
3615.16,0.174759
3617.68,0.176006
3620.21,0.177225
3622.74,0.178295
3625.27,0.179027
3627.81,0.180277
3630.35,0.181679
3632.89,0.182795
3635.44,0.183384
3637.99,0.18396
3640.54,0.185231
3643.1,0.18673
3645.66,0.187881
3648.23,0.189338
3650.8,0.190818
3653.37,0.191874
3655.95,0.193137
3658.53,0.194303
3661.11,0.195283
3663.7,0.196208
3666.29,0.197459
3668.89,0.19859
3671.48,0.199643
3674.09,0.200791
3676.69,0.201703
3679.3,0.202752
3681.91,0.20401
3684.53,0.204996
3687.15,0.205886
3689.78,0.206654
3692.4,0.207729
3695.04,0.209391
3697.67,0.210786
3700.31,0.212456
3702.95,0.213354
3705.6,0.213768
3708.25,0.214824
3710.91,0.215766
3713.56,0.216923
3716.23,0.218966
3718.89,0.220417
3721.56,0.221054
3724.23,0.221886
3726.91,0.223145
3729.59,0.224058
3732.28,0.225156
3734.97,0.226535
3737.66,0.227639
3740.36,0.228698
3743.06,0.229832
3745.76,0.231002
3748.47,0.231851
3751.18,0.232579
3753.9,0.233786
3756.62,0.235245
3759.34,0.236481
3762.07,0.237214
3764.8,0.238432
3767.54,0.239549
3770.28,0.240877
3773.02,0.241795
3775.77,0.242548
3778.52,0.243758
3781.28,0.244455
3784.04,0.245114
3786.8,0.246478
3789.57,0.247567
3792.34,0.248756
3795.12,0.249696
3797.9,0.251005
3800.69,0.252363
3803.47,0.253453
3806.27,0.253657
3809.06,0.254258
3811.86,0.255835
3814.67,0.257358
3817.48,0.258397
3820.29,0.258823
3823.11,0.259482
3825.93,0.260753
3828.76,0.261624
3831.59,0.262372
3834.42,0.263188
3837.26,0.263871
3840.1,0.264763
3842.95,0.26559
3845.8,0.266311
3848.65,0.267594
3851.51,0.268633
3854.38,0.269021
3857.24,0.26939
3860.12,0.270401
3862.99,0.27148
3865.87,0.271881
3868.76,0.272126
3871.65,0.272822
3874.54,0.273451
3877.44,0.274349
3880.34,0.275318
3883.25,0.275843
3886.16,0.276252
3889.07,0.276807
3891.99,0.277317
3894.92,0.278112
3897.85,0.279032
3900.78,0.278974
3903.72,0.278728
3906.66,0.279182
3909.6,0.279974
3912.55,0.280931
3915.51,0.28132
3918.47,0.281591
3921.43,0.28188
3924.4,0.282025
3927.38,0.282128
3930.35,0.282742
3933.33,0.283425
3936.32,0.283532
3939.31,0.283429
3942.31,0.283793
3945.31,0.28414
3948.31,0.284484
3951.32,0.284229
3954.34,0.28438
3957.35,0.284633
3960.38,0.284663
3963.41,0.285039
3966.44,0.28526
3969.48,0.285126
3972.52,0.285317
3975.56,0.285198
3978.61,0.285139
3981.67,0.285319
3984.73,0.284793
3987.8,0.284577
3990.87,0.284829
3993.94,0.284845
3997.02,0.284509
4000.1,0.283909
4003.19,0.283707
4006.29,0.283883
4009.39,0.284072
4012.49,0.283631
4015.6,0.282951
4018.71,0.282731
4021.83,0.282646
4024.95,0.282004
4028.08,0.281668
4031.21,0.281695
4034.35,0.281438
4037.49,0.280555
4040.64,0.280472
4043.79,0.280376
4046.94,0.279419
4050.11,0.278844
4053.27,0.278881
4056.44,0.278318
4059.62,0.277575
4062.8,0.27678
4065.99,0.276314
4069.18,0.275749
4072.38,0.275341
4075.58,0.274873
4078.78,0.27423
4082.0,0.273552
4085.21,0.272888
4088.43,0.272198
4091.66,0.271466
4094.89,0.271132
4098.13,0.270978
4101.37,0.270215
4104.62,0.269647
4107.87,0.269009
4111.13,0.268275
4114.39,0.267933
4117.66,0.267778
4120.93,0.266917
4124.21,0.265711
4127.5,0.26518
4130.79,0.264966
4134.08,0.264694
4137.38,0.264569
4140.68,0.264246
4143.99,0.263667
4147.31,0.263185
4150.63,0.262783
4153.95,0.26217
4157.29,0.261754
4160.62,0.261324
4163.96,0.261022
4167.31,0.260969
4170.66,0.260608
4174.02,0.259968
4177.39,0.259562
4180.75,0.259228
4184.13,0.258468
4187.51,0.257963
4190.89,0.25811
4194.28,0.257393
4197.68,0.256705
4201.08,0.256617
4204.49,0.256931
4207.9,0.256566
4211.32,0.255645
4214.74,0.254876
4218.17,0.254769
4221.61,0.254222
4225.05,0.253838
4228.5,0.253415
4231.95,0.252872
4235.4,0.252332
4238.87,0.25212
4242.34,0.25157
4245.81,0.251338
4249.29,0.251539
4252.78,0.251656
4256.27,0.251243
4259.77,0.250771
4263.27,0.250079
4266.78,0.24981
4270.29,0.249423
4273.81,0.248676
4277.34,0.248499
4280.87,0.248557
4284.41,0.248512
4287.95,0.248534
4291.5,0.248612
4295.06,0.248902
4298.62,0.248423
4302.19,0.248161
4305.76,0.248242
4309.34,0.248354
4312.92,0.248022
4316.52,0.24794
4320.11,0.24817
4323.72,0.247843
4327.32,0.247985
4330.94,0.248589
4334.56,0.248549
4338.19,0.248699
4341.82,0.248819
4345.46,0.248777
4349.11,0.248728
4352.76,0.248592
4356.42,0.248256
4360.08,0.248515
4363.75,0.248759
4367.43,0.248824
4371.11,0.248751
4374.8,0.248969
4378.49,0.249041
4382.19,0.249377
4385.9,0.249416
4389.61,0.249072
4393.33,0.248976
4397.06,0.249079
4400.79,0.249248
4404.53,0.249507
4408.28,0.249535
4412.03,0.249238
4415.79,0.248771
4419.55,0.248419
4423.32,0.248098
4427.1,0.247902
4430.88,0.247844
4434.68,0.247729
4438.47,0.247599
4442.28,0.247109
4446.08,0.246758
4449.9,0.246748
4453.72,0.246411
4457.55,0.246058
4461.39,0.245861
4465.23,0.245885
4469.08,0.245889
4472.94,0.245889
4476.8,0.245883
4480.67,0.24612
4484.55,0.246176
4488.43,0.246034
4492.32,0.245542
4496.21,0.245609
4500.12,0.24575
4504.03,0.245825
4507.94,0.245718
4511.87,0.24567
4515.8,0.24581
4519.73,0.246132
4523.68,0.246311
4527.63,0.246291
4531.59,0.246859
4535.55,0.247607
4539.52,0.247704
4543.5,0.247656
4547.49,0.248067
4551.48,0.248356
4555.48,0.248594
4559.49,0.249132
4563.5,0.249726
4567.52,0.249826
4571.55,0.249863
4575.58,0.25011
4579.63,0.250498
4583.67,0.251054
4587.73,0.251188
4591.79,0.251523
4595.86,0.251992
4599.94,0.252366
4604.03,0.252554
4608.12,0.252745
4612.22,0.252778
4616.33,0.252993
4620.44,0.25327
4624.56,0.253518
4628.69,0.253478
4632.83,0.253591
4636.97,0.253728
4641.12,0.253766
4645.28,0.253972
4649.45,0.254128
4653.62,0.254092
4657.8,0.25476
4661.99,0.255222
4666.19,0.255259
4670.39,0.254774
4674.6,0.25476
4678.82,0.255051
4683.05,0.255154
4687.28,0.254778
4691.52,0.254617
4695.77,0.255275
4700.03,0.255874
4704.3,0.255945
4708.57,0.256325
4712.85,0.256798
4717.14,0.257108
4721.43,0.257694
4725.74,0.258149
4730.05,0.258417
4734.37,0.259206
4738.7,0.259794
4743.03,0.260228
4747.38,0.261078
4751.73,0.261484
4756.09,0.261826
4760.45,0.262913
4764.83,0.263545
4769.21,0.263962
4773.6,0.264354
4778.0,0.264689
4782.41,0.264909
4786.83,0.265481
4791.25,0.266105
4795.68,0.266624
4800.13,0.267416
4804.57,0.268162
4809.03,0.269116
4813.5,0.270389
4817.97,0.271449
4822.45,0.272061
4826.94,0.273043
4831.44,0.274579
4835.95,0.275556
4840.46,0.276602
4844.99,0.277853
4849.52,0.279169
4854.06,0.279804
4858.61,0.280686
4863.17,0.281784
4867.73,0.283189
4872.31,0.284574
4876.89,0.285344
4881.48,0.286058
4886.08,0.287121
4890.69,0.287909
4895.31,0.288524
4899.94,0.289493
4904.57,0.290722
4909.22,0.292208
4913.87,0.294031
4918.53,0.295719
4923.21,0.297489
4927.88,0.299106
4932.57,0.300893
4937.27,0.302625
4941.98,0.304337
4946.69,0.305971
4951.42,0.307563
4956.15,0.309179
4960.9,0.310745
4965.65,0.311851
4970.41,0.313037
4975.18,0.314272
4979.96,0.315197
4984.75,0.31611
4989.54,0.317286
4994.35,0.318303
4999.17,0.319141
5003.99,0.320276
5008.83,0.321705
5013.67,0.322508
5018.52,0.323129
5023.39,0.324298
5028.26,0.325959
5033.14,0.327301
5038.03,0.329071
5042.93,0.330716
5047.84,0.3327
5052.76,0.334492
5057.69,0.336914
5062.63,0.33909
5067.58,0.341137
5072.54,0.343128
5077.51,0.345095
5082.49,0.346613
5087.47,0.348228
5092.47,0.349805
5097.48,0.351234
5102.5,0.352496
5107.52,0.353945
5112.56,0.355561
5117.61,0.356867
5122.66,0.357763
5127.73,0.35877
5132.81,0.359873
5137.89,0.36105
5142.99,0.361672
5148.1,0.362462
5153.22,0.363279
5158.34,0.364077
5163.48,0.364347
5168.63,0.364838
5173.79,0.365299
5178.96,0.366048
5184.13,0.366762
5189.32,0.367464
5194.52,0.367775
5199.73,0.36784
5204.96,0.367969
5210.19,0.368391
5215.43,0.368267
5220.68,0.369112
5225.94,0.369454
5231.22,0.369399
5236.5,0.369252
5241.79,0.369386
5247.1,0.369602
5252.42,0.37005
5257.74,0.369846
5263.08,0.369596
5268.43,0.369398
5273.79,0.369108
5279.16,0.368527
5284.54,0.368448
5289.93,0.368158
5295.34,0.368406
5300.75,0.368334
5306.18,0.368034
5311.61,0.367666
5317.06,0.367641
5322.52,0.36741
5327.99,0.367109
5333.47,0.366489
5338.96,0.366174
5344.47,0.36587
5349.98,0.365983
5355.51,0.365763
5361.05,0.365764
5366.6,0.365265
5372.16,0.364633
5377.73,0.364003
5383.32,0.36419
5388.91,0.363773
5394.52,0.363313
5400.14,0.362768
5405.77,0.36252
5411.41,0.361519
5417.07,0.360654
5422.74,0.359727
5428.41,0.359841
5434.1,0.359751
5439.81,0.359297
5445.52,0.358463
5451.25,0.357718
5456.98,0.35708
5462.73,0.356004
5468.5,0.35497
5474.27,0.354677
5480.06,0.3537
5485.86,0.353431
5491.67,0.352708
5497.49,0.351645
5503.33,0.35051
5509.18,0.349662
5515.04,0.348609
5520.91,0.347651
5526.8,0.346685
5532.69,0.345891
5538.61,0.344627
5544.53,0.343022
5550.47,0.34184
5556.41,0.340775
5562.38,0.339406
5568.35,0.338409
5574.34,0.336964
5580.34,0.335078
5586.35,0.333439
5592.38,0.332662
5598.42,0.331347
5604.47,0.32984
5610.54,0.328056
5616.61,0.326164
5622.71,0.32444
5628.81,0.323125
5634.93,0.320729
5641.06,0.318499
5647.21,0.316725
5653.36,0.315707
5659.54,0.313465
5665.72,0.311305
5671.92,0.30891
5678.13,0.306418
5684.36,0.304199
5690.6,0.302002
5696.85,0.299172
5703.12,0.297003
5709.4,0.294148
5715.69,0.291536
5722.0,0.288855
5728.33,0.286372
5734.66,0.283614
5741.01,0.281043
5747.38,0.277448
5753.76,0.274087
5760.15,0.270381
5766.56,0.266086
5772.98,0.261442
5779.41,0.258211
5785.86,0.254096
5792.33,0.250031
5798.81,0.24579
5805.3,0.241629
5811.81,0.236536
5818.33,0.231213
5824.87,0.225347
5831.42,0.220348
5837.99,0.215559
5844.57,0.210512
5851.17,0.204462
5857.78,0.199031
5864.41,0.192714
5871.05,0.185903
5877.7,0.179941
5884.38,0.173658
5891.06,0.16622
5897.76,0.160429
5904.48,0.153602
5911.21,0.147889
5917.96,0.141707
5924.73,0.134895
5931.5,0.12823
5938.3,0.122271
5945.11,0.115729
5951.93,0.110227
5958.78,0.104754
5965.63,0.100233
5972.51,0.095622
5979.39,0.091392
5986.3,0.087777
5993.22,0.084696
6000.16,0.081783
6007.11,0.079373
6014.08,0.077116
6021.06,0.075267
6028.06,0.073396
6035.08,0.072229
6042.12,0.070597
6049.17,0.068768
6056.23,0.067252
6063.32,0.06629
6070.42,0.064625
6077.53,0.063037
6084.67,0.061576
6091.82,0.060232
6098.98,0.058855
6106.17,0.057794
6113.37,0.056563
6120.58,0.055264
6127.82,0.054436
6135.07,0.053842
6142.34,0.053401
6149.63,0.053523
6156.93,0.053864
6164.25,0.05456
6171.59,0.055979
6178.95,0.057681
6186.32,0.059762
6193.71,0.063128
6201.12,0.0669
6208.54,0.070529
6215.99,0.074625
6223.45,0.079312
6230.93,0.084532
6238.43,0.09001
6245.95,0.095705
6253.48,0.101146
6261.03,0.106702
6268.6,0.111982
6276.19,0.116908
6283.8,0.121724
6291.43,0.126303
6299.07,0.13045
6306.73,0.134627
6314.42,0.138379
6322.12,0.141517
6329.84,0.144814
6337.57,0.148048
6345.33,0.150559
6353.11,0.153787
6360.9,0.156955
6368.72,0.159008
6376.55,0.160932
6384.4,0.163435
6392.27,0.165535
6400.17,0.167577
6408.08,0.168586
6416.01,0.169449
6423.96,0.172081
6431.93,0.174183
6439.92,0.175476
6447.93,0.17686
6455.96,0.178102
6464.01,0.179447
6472.08,0.180189
6480.17,0.180979
6488.28,0.181678
6496.41,0.18254
6504.56,0.184176
6512.73,0.185369
6520.92,0.185517
6529.14,0.186464
6537.37,0.187139
6545.63,0.187265
6553.9,0.187621
6562.2,0.188429
6570.51,0.188595
6578.85,0.18862
6587.21,0.189471
6595.59,0.189937
6603.99,0.189776
6612.42,0.189713
6620.86,0.189766
6629.33,0.189801
6637.82,0.189109
6646.33,0.189418
6654.86,0.189815
6663.41,0.18935
6671.99,0.189171
6680.59,0.189212
6689.21,0.189229
6697.85,0.189242
6706.51,0.188941
6715.2,0.188683
6723.91,0.188617
6732.64,0.188743
6741.4,0.188558
6750.18,0.188091
6758.98,0.187743
6767.8,0.187687
6776.65,0.187384
6785.52,0.186734
6794.41,0.185924
6803.33,0.185842
6812.27,0.186062
6821.23,0.185938
6830.22,0.185396
6839.23,0.184976
6848.26,0.184749
6857.32,0.184509
6866.4,0.183793
6875.51,0.18326
6884.64,0.183182
6893.8,0.182714
6902.98,0.182125
6912.18,0.181476
6921.41,0.180957
6930.66,0.180206
6939.94,0.179252
6949.24,0.178562
6958.57,0.177882
6967.92,0.176988
6977.3,0.176325
6986.7,0.175602
6996.13,0.174582
7005.59,0.173512
7015.07,0.172591
7024.57,0.171534
7034.1,0.171071
7043.66,0.170788
7053.25,0.170341
7062.85,0.170017
7072.49,0.169717
7082.15,0.169315
7091.84,0.169002
7101.55,0.168609
7111.3,0.167811
7121.06,0.166492
7130.86,0.165333
7140.68,0.164325
7150.53,0.163238
7160.41,0.162357
7170.31,0.161144
7180.24,0.159938
7190.2,0.158774
7200.19,0.157404
7210.2,0.15598
7220.24,0.15424
7230.31,0.152794
7240.41,0.151334
7250.54,0.149839
7260.69,0.148247
7270.88,0.146311
7281.09,0.14407
7291.33,0.142507
7301.6,0.141069
7311.9,0.138926
7322.22,0.136613
7332.58,0.134427
7342.97,0.132169
7353.38,0.130061
7363.83,0.127829
7374.3,0.125478
7384.81,0.123057
7395.34,0.120829
7405.91,0.118641
7416.5,0.116001
7427.13,0.11304
7437.78,0.110605
7448.47,0.107905
7459.19,0.10503
7469.94,0.102365
7480.71,0.099851
7491.52,0.09692
7502.37,0.094093
7513.24,0.091095
7524.14,0.087774
7535.08,0.084447
7546.05,0.081298
7557.05,0.078127
7568.08,0.075057
7579.15,0.071696
7590.24,0.068185
7601.37,0.064687
7612.53,0.061586
7623.73,0.058196
7634.96,0.055228
7646.22,0.051983
7657.51,0.048599
7668.84,0.045172
7680.2,0.042051
7691.59,0.03924
7703.02,0.036518
7714.49,0.033409
7725.98,0.030735
7737.52,0.028166
7749.08,0.025753
7760.68,0.023357
7772.32,0.021367
7783.99,0.01944
7795.69,0.017788
7807.43,0.016148
7819.21,0.01471
7831.02,0.013213
7842.87,0.012309
7854.75,0.011847
7866.67,0.011149
7878.62,0.010477
7890.62,0.010308
7902.64,0.009963
7914.71,0.009909
7926.81,0.010325
7938.95,0.011194
7951.13,0.011782
7963.34,0.012072
7975.59,0.012644
7987.88,0.013362
8000.21,0.014131
8012.57,0.015035
8024.98,0.015321
8037.42,0.015464
8049.9,0.015753
8062.42,0.01637
8074.98,0.016896
8087.57,0.01726
8100.21,0.01707
8112.89,0.017667
8125.6,0.018323
8138.36,0.018734
8151.16,0.019186
8163.99,0.01985
8176.87,0.020004
8189.79,0.020543
8202.75,0.020996
8215.75,0.021488
8228.79,0.022013
8241.87,0.022247
8254.99,0.022577
8268.16,0.023268
8281.37,0.02375
8294.62,0.024055
8307.91,0.023901
8321.24,0.024001
8334.62,0.023789
8348.04,0.023538
8361.51,0.023193
8375.02,0.023062
8388.57,0.022418
8402.16,0.022018
8415.8,0.021454
8429.49,0.020703
8443.22,0.020185
8456.99,0.02027
8470.81,0.02028
8484.67,0.020433
8498.58,0.02111
8512.54,0.021636
8526.54,0.021837
8540.58,0.022386
8554.68,0.022973
8568.82,0.023929
8583.0,0.024586
8597.24,0.025029
8611.52,0.025065
8625.85,0.025415
8640.23,0.025449
8654.65,0.025956
8669.12,0.026237
8683.64,0.026096
8698.21,0.025745
8712.83,0.02565
8727.5,0.026041
8742.22,0.026823
8756.99,0.026974
8771.8,0.026389
8786.67,0.02586
8801.59,0.026119
8816.56,0.026034
8831.58,0.026279
8846.65,0.026455
8861.77,0.026176
8876.94,0.025486
8892.17,0.025285
8907.45,0.025191
8922.78,0.025288
8938.16,0.025336
8953.6,0.025668
8969.09,0.025332
8984.64,0.024545
9000.23,0.024743
9015.89,0.025356
9031.59,0.025104
9047.36,0.02411
9063.17,0.023591
9079.05,0.023468
9094.97,0.023226
9110.96,0.023611
9127.0,0.023578
9143.1,0.0239
9159.25,0.023906
9175.46,0.023869
9191.73,0.023561
9208.06,0.023912
9224.44,0.02438
9240.88,0.024786
9257.38,0.025649
9273.94,0.026119
9290.56,0.026175
9307.24,0.026492
9323.98,0.026842
9340.78,0.027622
9357.64,0.027828
9374.57,0.028146
9391.55,0.027874
9408.59,0.02831
9425.7,0.028473
9442.87,0.027857
9460.1,0.027546
9477.4,0.027858
9494.75,0.027554
9512.17,0.027261
9529.66,0.027627
9547.21,0.027397
9564.83,0.02743
9582.5,0.028091
9600.25,0.027905
9618.06,0.02771
9635.94,0.027619
9653.88,0.027982
9671.89,0.028532
9689.97,0.028448
9708.12,0.028379
9726.33,0.028812
9744.62,0.028995
9762.97,0.02913
9781.39,0.029769
9799.88,0.029955
9818.44,0.030275
9837.07,0.030725
9855.77,0.031272
9874.54,0.032245
9893.39,0.032795
9912.3,0.033697
9931.29,0.033978
9950.36,0.034084
9969.49,0.034696
9988.7,0.035125
10007.98,0.0358
10027.34,0.036618
10046.77,0.037351
10066.28,0.038582
10085.87,0.040049
10105.53,0.041751
10125.26,0.043034
10145.08,0.044544
10164.97,0.047001
10184.94,0.049494
10204.99,0.051821
10225.12,0.054392
10245.33,0.057566
10265.61,0.061433
10285.98,0.065137
10306.43,0.068912
10326.96,0.07277
10347.57,0.076313
10368.27,0.079753
10389.05,0.083332
10409.91,0.086559
10430.86,0.089748
10451.88,0.09274
10473.0,0.095416
10494.2,0.09846
10515.49,0.101057
10536.86,0.103401
10558.32,0.105761
10579.87,0.107111
10601.5,0.108713
10623.23,0.110926
10645.04,0.11246
10666.94,0.113551
10688.94,0.115068
10711.02,0.11706
10733.2,0.118832
10755.47,0.119513
10777.83,0.119591
10800.28,0.121026
10822.83,0.122469
10845.47,0.122681
10868.21,0.123157
10891.04,0.123248
10913.97,0.123494
10936.99,0.124495
10960.12,0.124995
10983.34,0.125431
11006.66,0.125715
11030.07,0.125595
11053.59,0.125646
11077.21,0.125443
11100.93,0.125312
11124.75,0.124986
11148.68,0.12413
11172.71,0.123406
11196.84,0.123003
11221.07,0.122563
11245.41,0.122335
11269.86,0.121709
11294.41,0.120753
11319.07,0.119701
11343.84,0.118687
11368.72,0.117827
11393.7,0.11689
11418.8,0.115794
11444.01,0.11451
11469.33,0.113081
11494.76,0.111933
11520.3,0.111133
11545.96,0.109773
11571.73,0.108625
11597.62,0.108219
11623.62,0.106796
11649.74,0.105331
11675.98,0.103895
11702.34,0.102868
11728.81,0.101541
11755.41,0.100181
11782.13,0.098755
11808.96,0.097092
11835.92,0.095619
11863.01,0.09398
11890.22,0.091937
11917.55,0.090635
11945.01,0.089661
11972.6,0.088507
12000.31,0.087145
12028.16,0.084937
12056.13,0.083457
12084.23,0.082512
12112.46,0.081367
12140.83,0.080254
12169.33,0.079114
12197.96,0.077423
12226.73,0.075869
12255.64,0.074716
12284.68,0.07266
12313.86,0.070964
12343.18,0.069915
12372.64,0.068484
12402.24,0.067876
12431.98,0.067634
12461.86,0.066593
12491.89,0.065056
12522.07,0.06332
12552.38,0.06226
12582.85,0.061697
12613.47,0.060821
12644.23,0.059322
12675.15,0.058399
12706.21,0.057528
12737.43,0.056599
12768.81,0.055045
12800.33,0.053956
12832.02,0.052778
12863.86,0.051639
12895.86,0.051021
12928.02,0.050714
12960.34,0.050283
12992.82,0.04884
13025.46,0.047471
13058.27,0.046592
13091.25,0.045195
13124.39,0.043826
13157.7,0.043143
13191.18,0.042681
13224.83,0.041002
13258.66,0.039313
13292.65,0.038403
13326.83,0.037418
13361.17,0.03671
13395.7,0.036326
13430.4,0.036065
13465.29,0.03459
13500.35,0.033295
13535.6,0.032783
13571.03,0.031894
13606.65,0.0308
13642.46,0.029756
13678.46,0.029024
13714.64,0.028605
13751.02,0.028628
13787.59,0.0282
13824.36,0.027171
13861.32,0.026024
13898.49,0.025486
13935.85,0.025224
13973.41,0.024937
14011.17,0.023993
14049.15,0.02413
14087.32,0.023955
14125.71,0.023188
14164.3,0.023004
14203.11,0.02268
14242.13,0.022257
14281.36,0.022145
14320.81,0.021852
14360.49,0.02126
14400.38,0.021002
14440.49,0.021598
14480.82,0.02148
14521.39,0.020162
14562.18,0.019195
14603.2,0.019425
14644.45,0.019924
14685.93,0.019938
14727.66,0.020161
14769.62,0.020847
14811.81,0.021517
14854.25,0.021234
14896.94,0.020358
14939.87,0.020879
14983.05,0.020886
15026.48,0.020402
15070.16,0.020404
15114.1,0.020927
15158.29,0.021168
15202.74,0.020649
15247.46,0.019755
15292.43,0.019759
15337.68,0.020133
15383.19,0.019855
15428.97,0.019048
15475.03,0.018881
15521.36,0.018723
15567.97,0.01877
15614.87,0.018072
15662.04,0.0175
15709.5,0.018151
15757.25,0.018571
15805.29,0.017774
15853.62,0.017268
15902.26,0.0172
15951.19,0.016957
16000.42,0.018153
16049.95,0.018895
16099.8,0.017944
16149.95,0.016837
16200.42,0.016536
16251.21,0.016752
16302.31,0.017316
16353.74,0.017452
16405.49,0.01709
16457.57,0.015621
16509.98,0.014244
16562.73,0.014212
16615.82,0.015926
16669.24,0.017476
16723.02,0.017743
16777.14,0.018173
16831.61,0.018569
16886.43,0.019377
16941.62,0.019968
16997.16,0.020727
17053.08,0.021896
17109.36,0.022121
17166.01,0.021088
17223.04,0.021688
17280.45,0.022086
17338.24,0.022673
17396.43,0.023041
17455.0,0.022556
17513.97,0.023125
17573.34,0.024305
17633.11,0.023932
17693.29,0.02372
17753.89,0.023576
17814.9,0.024217
17876.33,0.024648
17938.18,0.02477
18000.47,0.024448
18063.19,0.023664
18126.35,0.023548
18189.95,0.024028
18254.0,0.024045
18318.5,0.023919
18383.46,0.023757
18448.88,0.024282
18514.77,0.024208
18581.13,0.024822
18647.97,0.024532
18715.29,0.023381
18783.1,0.023865
18851.4,0.025558
18920.2,0.026102
18989.51,0.025544
19059.32,0.02585
19129.65,0.025556
19200.5,0.022578
19271.88,0.024101
19343.79,0.027329
19416.24,0.02777
19489.23,0.028279
19562.77,0.030128
19636.88,0.030285
19711.54,0.028713
19786.78,0.028487
19862.59,0.028846
19938.98,0.030086
20015.96,0.031066
20093.55,0.031554
20171.73,0.030573
20250.53,0.029482
20329.94,0.032067
20409.98,0.034411
20490.65,0.033079
20571.96,0.031992
20653.92,0.032335
20736.54,0.03163
20819.82,0.030689
20903.77,0.029897
20988.4,0.029823
21073.72,0.030206
21159.73,0.031132
21246.46,0.030471
21333.89,0.02935
21422.04,0.030817
21510.93,0.029163
21600.56,0.027394
21690.94,0.030487
21782.08,0.032014
21873.99,0.031427
21966.67,0.030685
22060.15,0.031369
22154.42,0.031521
22249.51,0.031099
22345.41,0.031057
22442.14,0.032659
22539.72,0.03426
22638.14,0.035564
22737.43,0.035254
22837.6,0.034835
22938.65,0.035414
23040.6,0.036393
23143.46,0.033439
23247.24,0.029425
23351.96,0.025645
23457.63,0.028642
23564.25,0.033345
23671.85,0.032069
23780.44,0.027748
23890.02,0.024955
24000.63,0.027461
24112.26,0.030705
24224.93,0.029261
24338.66,0.029033
24453.47,0.029808
24569.36,0.032609
24686.36,0.034179
24804.47,0.033472
24923.73,0.035491
25044.13,0.032743
25165.71,0.033473
25288.46,0.036748
25412.43,0.040648
25537.61,0.046762
25664.04,0.043425
25791.72,0.041596
25920.68,0.05298
