Database of Origin,University of Winnipeg Spectrophotometer Facility
Sample Description,8. Sulfates: RELAB + Nicolet spectra / Spectra all made consistently merged: Jan. / 10 / 2005
Date Added,2016-07-15 22:05:54.865202

Data ID,RPN_SUL_17          
Sample ID,SPT105
Mineral Name,ammonium sulfate (syn)
Grain Size,<45
Viewing Geometry,30 / 0 | 30
Resolution,5 / 1.3-129
Material Class,Sulfate

Wavelength
305.0,0.653792
310.0,0.64675
315.0,0.660413
320.0,0.661043
325.0,0.672651
330.0,0.67347
335.0,0.68387
340.0,0.691309
345.0,0.69742
350.0,0.70651
355.0,0.711305
360.0,0.722766
365.0,0.732237
370.0,0.741991
375.0,0.748975
380.0,0.758459
385.0,0.764123
390.0,0.770459
395.0,0.781971
400.0,0.788471
405.0,0.789937
410.0,0.794753
415.0,0.803506
420.0,0.809709
425.0,0.816755
430.0,0.819568
435.0,0.823929
440.0,0.825562
445.0,0.831275
450.0,0.829913
455.0,0.835107
460.0,0.839691
465.0,0.845432
470.0,0.846526
475.0,0.851418
480.0,0.855499
485.0,0.858122
490.0,0.860883
495.0,0.861705
500.0,0.865336
505.0,0.867455
510.0,0.869346
515.0,0.87103
520.0,0.87205
525.0,0.87689
530.0,0.876194
535.0,0.882047
540.0,0.885487
545.0,0.890033
550.0,0.892453
555.0,0.896452
560.0,0.902144
565.0,0.907515
570.0,0.909391
575.0,0.910108
580.0,0.914199
585.0,0.917127
590.0,0.920464
595.0,0.919984
600.0,0.921011
605.0,0.924718
610.0,0.922566
615.0,0.926147
620.0,0.924251
625.0,0.924932
630.0,0.924814
635.0,0.927988
640.0,0.926813
645.0,0.926016
650.0,0.928678
655.0,0.928244
660.0,0.926717
665.0,0.932339
670.0,0.928572
675.0,0.928963
680.0,0.93043
685.0,0.929957
690.0,0.928325
695.0,0.931689
700.0,0.92922
705.0,0.929289
710.0,0.930512
715.0,0.929528
720.0,0.928616
725.0,0.935057
730.0,0.924276
735.0,0.930212
740.0,0.92472
745.0,0.928824
750.0,0.924341
755.0,0.927037
760.0,0.924568
765.0,0.928552
770.0,0.925952
775.0,0.922796
780.0,0.923942
785.0,0.922976
790.0,0.924288
795.0,0.920382
800.0,0.92241
805.0,0.922058
810.0,0.919106
815.0,0.918823
820.0,0.917978
825.0,0.920642
830.0,0.918352
835.0,0.917957
840.0,0.919301
845.0,0.918847
850.0,0.921322
855.0,0.922232
860.0,0.920455
865.0,0.921286
870.0,0.921496
875.0,0.920108
880.0,0.921224
885.0,0.921195
890.0,0.92219
895.0,0.919844
900.0,0.919767
905.0,0.917244
910.0,0.91798
915.0,0.92099
920.0,0.916918
925.0,0.917297
930.0,0.920577
935.0,0.919093
940.0,0.921746
945.0,0.919302
950.0,0.923189
955.0,0.923892
960.0,0.922688
965.0,0.922109
970.0,0.92291
975.0,0.921171
980.0,0.925201
985.0,0.923965
990.0,0.921752
995.0,0.921494
1000.0,0.920181
1005.0,0.919654
1010.0,0.919543
1015.0,0.918799
1020.0,0.915885
1025.0,0.912966
1030.0,0.908073
1035.0,0.905304
1040.0,0.901115
1045.0,0.903261
1050.0,0.896456
1055.0,0.896947
1060.0,0.894193
1065.0,0.894543
1070.0,0.894667
1075.0,0.897493
1080.0,0.897193
1085.0,0.902763
1090.0,0.901594
1095.0,0.908561
1100.0,0.910209
1105.0,0.908189
1110.0,0.91139
1115.0,0.914619
1120.0,0.915657
1125.0,0.91646
1130.0,0.916564
1135.0,0.918464
1140.0,0.919175
1145.0,0.920602
1150.0,0.919141
1155.0,0.918072
1160.0,0.919633
1165.0,0.919233
1170.0,0.91743
1175.0,0.916121
1180.0,0.913243
1185.0,0.9121
1190.0,0.90996
1195.0,0.905468
1200.0,0.902657
1205.0,0.900223
1210.0,0.88992
1215.0,0.883383
1220.0,0.872889
1225.0,0.866026
1230.0,0.858239
1235.0,0.853476
1240.0,0.845094
1245.0,0.840991
1250.0,0.835019
1255.0,0.832276
1260.0,0.82677
1265.0,0.824667
1270.0,0.821149
1275.0,0.820894
1280.0,0.818685
1285.0,0.822277
1290.0,0.820364
1295.0,0.821236
1300.0,0.823195
1305.0,0.82384
1310.0,0.825745
1315.0,0.828476
1320.0,0.82841
1325.0,0.833131
1330.0,0.836432
1335.0,0.839306
1340.0,0.83976
1345.0,0.84468
1350.0,0.84361
1355.0,0.841784
1360.0,0.845581
1365.0,0.850005
1370.0,0.853259
1375.0,0.85305
1380.0,0.852204
1385.0,0.857276
1390.0,0.859091
1395.0,0.853164
1400.0,0.8567
1405.0,0.852836
1410.0,0.857194
1415.0,0.85523
1420.0,0.854269
1425.0,0.852626
1430.0,0.850918
1435.0,0.849265
1440.0,0.845291
1445.0,0.836847
1450.0,0.833132
1455.0,0.827076
1460.0,0.822525
1465.0,0.815913
1470.0,0.806397
1475.0,0.795564
1480.0,0.789787
1485.0,0.778152
1490.0,0.769724
1495.0,0.756901
1500.0,0.743976
1505.0,0.732518
1510.0,0.718775
1515.0,0.703952
1520.0,0.688415
1525.0,0.668712
1530.0,0.650402
1535.0,0.633594
1540.0,0.614797
1545.0,0.599338
1550.0,0.584885
1555.0,0.570997
1560.0,0.557078
1565.0,0.547796
1570.0,0.544155
1575.0,0.543308
1580.0,0.545576
1585.0,0.551254
1590.0,0.559121
1595.0,0.567213
1600.0,0.577964
1605.0,0.586223
1610.0,0.594139
1615.0,0.601731
1620.0,0.608579
1625.0,0.612527
1630.0,0.617548
1635.0,0.619378
1640.0,0.620606
1645.0,0.623619
1650.0,0.628918
1655.0,0.633773
1660.0,0.637701
1665.0,0.644833
1670.0,0.655193
1675.0,0.659878
1680.0,0.666218
1685.0,0.669876
1690.0,0.676363
1695.0,0.682
1700.0,0.685964
1705.0,0.690125
1710.0,0.694272
1715.0,0.697702
1720.0,0.701471
1725.0,0.704245
1730.0,0.707261
1735.0,0.709202
1740.0,0.712159
1745.0,0.713393
1750.0,0.712952
1755.0,0.713368
1760.0,0.715904
1765.0,0.713996
1770.0,0.713421
1775.0,0.710788
1780.0,0.712194
1785.0,0.710875
1790.0,0.710167
1795.0,0.709513
1800.0,0.705203
1805.0,0.705329
1810.0,0.702536
1815.0,0.701355
1820.0,0.698213
1825.0,0.699017
1830.0,0.69467
1835.0,0.693727
1840.0,0.688732
1845.0,0.688705
1850.0,0.684023
1855.0,0.680724
1860.0,0.677492
1865.0,0.671373
1870.0,0.660924
1875.0,0.66374
1880.0,0.65807
1885.0,0.647737
1890.0,0.641577
1895.0,0.635885
1900.0,0.627295
1905.0,0.620295
1910.0,0.615188
1915.0,0.605606
1920.0,0.598706
1925.0,0.588836
1930.0,0.57953
1935.0,0.570862
1940.0,0.559641
1945.0,0.547246
1950.0,0.534838
1955.0,0.520234
1960.0,0.503337
1965.0,0.486799
1970.0,0.468709
1975.0,0.448026
1980.0,0.427605
1985.0,0.402588
1990.0,0.378442
1995.0,0.351362
2000.0,0.32558
2005.0,0.301964
2010.0,0.284798
2015.0,0.271228
2020.0,0.264665
2025.0,0.257725
2030.0,0.251674
2035.0,0.24646
2040.0,0.242823
2045.0,0.240237
2050.0,0.237462
2055.0,0.236819
2060.0,0.235594
2065.0,0.234236
2070.0,0.23187
2075.0,0.228822
2080.0,0.223134
2085.0,0.217042
2090.0,0.209229
2095.0,0.203276
2100.0,0.195776
2105.0,0.18761
2110.0,0.179553
2115.0,0.170914
2120.0,0.163301
2125.0,0.157756
2130.0,0.153458
2135.0,0.151463
2140.0,0.150703
2145.0,0.150441
2150.0,0.152273
2155.0,0.154751
2160.0,0.159011
2165.0,0.161885
2170.0,0.169933
2175.0,0.176252
2180.0,0.183622
2185.0,0.192773
2190.0,0.201844
2195.0,0.210922
2200.0,0.220098
2205.0,0.229246
2210.0,0.238238
2215.0,0.246731
2220.0,0.253756
2225.0,0.26193
2230.0,0.269681
2235.0,0.276238
2240.0,0.283878
2245.0,0.291414
2250.0,0.29815
2255.0,0.305598
2260.0,0.31315
2265.0,0.32007
2270.0,0.327901
2275.0,0.334788
2280.0,0.341603
2285.0,0.349141
2290.0,0.355541
2295.0,0.363595
2300.0,0.367777
2305.0,0.374905
2310.0,0.380298
2315.0,0.385085
2320.0,0.391001
2325.0,0.395801
2330.0,0.402271
2335.0,0.407981
2340.0,0.416298
2345.0,0.423537
2350.0,0.431181
2355.0,0.437164
2360.0,0.445588
2365.0,0.451829
2370.0,0.458927
2375.0,0.465452
2380.0,0.471801
2385.0,0.479807
2390.0,0.48705
2395.0,0.495311
2400.0,0.502948
2405.0,0.512047
2410.0,0.51944
2415.0,0.525784
2420.0,0.533357
2425.0,0.541106
2430.0,0.544736
2435.0,0.548899
2440.0,0.552347
2445.0,0.556524
2450.0,0.557128
2455.0,0.558589
2460.0,0.55813
2465.0,0.557259
2470.0,0.556372
2475.0,0.552724
2480.0,0.553098
2485.0,0.550716
2490.0,0.550586
2495.0,0.545912
2500.0,0.543747
2505.0,0.537633
2510.0,0.536074
2515.0,0.530055
2520.0,0.52916
2525.0,0.523988
2530.0,0.51889
2535.0,0.514981
2540.0,0.511303
2545.0,0.502767
2550.0,0.500722
2555.0,0.499877
2560.0,0.494553
2565.13,0.493325
2570.22,0.485797
2575.33,0.483196
2580.46,0.476674
2581.74,0.474449
2583.03,0.474353
2584.31,0.47393
2585.6,0.473107
2586.89,0.470205
2588.19,0.469189
2589.48,0.468316
2590.77,0.466444
2592.07,0.464947
2593.36,0.462974
2594.66,0.46134
2595.96,0.462701
2597.26,0.462259
2598.56,0.459024
2599.87,0.456401
2601.17,0.454814
2602.48,0.455466
2603.78,0.456375
2605.09,0.454024
2606.4,0.4518
2607.71,0.450818
2609.03,0.449737
2610.34,0.448621
2611.66,0.445689
2612.97,0.442611
2614.29,0.441684
2615.61,0.440602
2616.93,0.440432
2618.25,0.440567
2619.57,0.438719
2620.9,0.437995
2622.22,0.436859
2623.55,0.433131
2624.88,0.431283
2626.21,0.430728
2627.54,0.430536
2628.87,0.428318
2630.21,0.427047
2631.54,0.42681
2632.88,0.423551
2634.21,0.421416
2635.55,0.420427
2636.89,0.417259
2638.24,0.415582
2639.58,0.414358
2640.92,0.413098
2642.27,0.412154
2643.62,0.411273
2644.97,0.409212
2646.32,0.407453
2647.67,0.406754
2649.02,0.404944
2650.38,0.402428
2651.73,0.401504
2653.09,0.400965
2654.45,0.398583
2655.81,0.396094
2657.17,0.394321
2658.53,0.392896
2659.89,0.391235
2661.26,0.388577
2662.63,0.385885
2664.0,0.384234
2665.36,0.383043
2666.74,0.382278
2668.11,0.379955
2669.48,0.376914
2670.86,0.376564
2672.23,0.376075
2673.61,0.372165
2674.99,0.369465
2676.37,0.367338
2677.76,0.365155
2679.14,0.364655
2680.52,0.36223
2681.91,0.359911
2683.3,0.357518
2684.69,0.355637
2686.08,0.354575
2687.47,0.352455
2688.87,0.349935
2690.26,0.347358
2691.66,0.345035
2693.06,0.343002
2694.46,0.339755
2695.86,0.338072
2697.26,0.337204
2698.66,0.334061
2700.07,0.330648
2701.48,0.32875
2702.89,0.327024
2704.3,0.324923
2705.71,0.321935
2707.12,0.318812
2708.53,0.315766
2709.95,0.314147
2711.37,0.313068
2712.79,0.311614
2714.21,0.308232
2715.63,0.306157
2717.05,0.304053
2718.48,0.300663
2719.9,0.29758
2721.33,0.295646
2722.76,0.293044
2724.19,0.290343
2725.62,0.289776
2727.06,0.288119
2728.49,0.284751
2729.93,0.281572
2731.37,0.279585
2732.81,0.277091
2734.25,0.274534
2735.69,0.271865
2737.14,0.269064
2738.58,0.26673
2740.03,0.264571
2741.48,0.263627
2742.93,0.261961
2744.38,0.258853
2745.83,0.256322
2747.29,0.254571
2748.75,0.252587
2750.2,0.249482
2751.66,0.245971
2753.13,0.245043
2754.59,0.245079
2756.05,0.244653
2757.52,0.242578
2758.99,0.238132
2760.46,0.234752
2761.93,0.233487
2763.4,0.232749
2764.87,0.230294
2766.35,0.22807
2767.82,0.226243
2769.3,0.224967
2770.78,0.222612
2772.26,0.220364
2773.75,0.218668
2775.23,0.215589
2776.72,0.213637
2778.21,0.212853
2779.7,0.211733
2781.19,0.209224
2782.68,0.206948
2784.18,0.205928
2785.67,0.203783
2787.17,0.202312
2788.67,0.20107
2790.17,0.199587
2791.67,0.19725
2793.18,0.195198
2794.68,0.193164
2796.19,0.191621
2797.7,0.189482
2799.21,0.186938
2800.72,0.185652
2802.24,0.184711
2803.75,0.183268
2805.27,0.182503
2806.79,0.180286
2808.31,0.177567
2809.83,0.175882
2811.35,0.174791
2812.88,0.172551
2814.41,0.170442
2815.93,0.169578
2817.46,0.168675
2819.0,0.166928
2820.53,0.164708
2822.07,0.161965
2823.6,0.160592
2825.14,0.159919
2826.68,0.157664
2828.22,0.155179
2829.77,0.153791
2831.31,0.152278
2832.86,0.150549
2834.41,0.149419
2835.96,0.14762
2837.51,0.145991
2839.07,0.144657
2840.62,0.143828
2842.18,0.141561
2843.74,0.138668
2845.3,0.137785
2846.86,0.13714
2848.43,0.13545
2849.99,0.133529
2851.56,0.131495
2853.13,0.129724
2854.7,0.129286
2856.27,0.128055
2857.85,0.125996
2859.42,0.124425
2861.0,0.123088
2862.58,0.120977
2864.16,0.120362
2865.75,0.118957
2867.33,0.115788
2868.92,0.113989
2870.51,0.112796
2872.1,0.111353
2873.69,0.110207
2875.28,0.109084
2876.88,0.107436
2878.48,0.106103
2880.07,0.105072
2881.68,0.10311
2883.28,0.101533
2884.88,0.100167
2886.49,0.099037
2888.1,0.09821
2889.71,0.097414
2891.32,0.0962
2892.93,0.093338
2894.55,0.091105
2896.16,0.089919
2897.78,0.088762
2899.4,0.087886
2901.03,0.086557
2902.65,0.085464
2904.28,0.083724
2905.91,0.081836
2907.54,0.079955
2909.17,0.078046
2910.8,0.07625
2912.44,0.07492
2914.07,0.074224
2915.71,0.073359
2917.35,0.071643
2918.99,0.070414
2920.64,0.069398
2922.29,0.067667
2923.93,0.065516
2925.58,0.0634
2927.24,0.062105
2928.89,0.061092
2930.55,0.059274
2932.2,0.057306
2933.86,0.055993
2935.52,0.055236
2937.19,0.05414
2938.85,0.052821
2940.52,0.050968
2942.19,0.049456
2943.86,0.047963
2945.53,0.046479
2947.21,0.045646
2948.88,0.044744
2950.56,0.043149
2952.24,0.041331
2953.92,0.039758
2955.61,0.038552
2957.29,0.037517
2958.98,0.036778
2960.67,0.03545
2962.36,0.033996
2964.06,0.033382
2965.75,0.032584
2967.45,0.031106
2969.15,0.029333
2970.85,0.028227
2972.55,0.027569
2974.26,0.026434
2975.97,0.025394
2977.68,0.0252
2979.39,0.023751
2981.1,0.022207
2982.82,0.021605
2984.53,0.02079
2986.25,0.019638
2987.97,0.018912
2989.7,0.018868
2991.42,0.018457
2993.15,0.01796
2994.88,0.017789
2996.61,0.017265
2998.34,0.016626
3000.08,0.016634
3001.82,0.016781
3003.55,0.016175
3005.3,0.015436
3007.04,0.014634
3008.78,0.01385
3010.53,0.013611
3012.28,0.013458
3014.03,0.013243
3015.79,0.013865
3017.54,0.014997
3019.3,0.01528
3021.06,0.01432
3022.82,0.01387
3024.58,0.013719
3026.35,0.014072
3028.12,0.014858
3029.89,0.015656
3031.66,0.01564
3033.43,0.01521
3035.21,0.014985
3036.99,0.015151
3038.77,0.014652
3040.55,0.014762
3042.33,0.015912
3044.12,0.01595
3045.91,0.015885
3047.7,0.016113
3049.49,0.016516
3051.29,0.016453
3053.08,0.016378
3054.88,0.016472
3056.68,0.016641
3058.49,0.016823
3060.29,0.017712
3062.1,0.017508
3063.91,0.017422
3065.72,0.018936
3067.54,0.019182
3069.35,0.018818
3071.17,0.019136
3072.99,0.019799
3074.81,0.019418
3076.64,0.018665
3078.47,0.01928
3080.29,0.020938
3082.13,0.022079
3083.96,0.022441
3085.79,0.021841
3087.63,0.021565
3089.47,0.021195
3091.31,0.02082
3093.16,0.021679
3095.01,0.022281
3096.85,0.022246
3098.71,0.021636
3100.56,0.022038
3102.41,0.022612
3104.27,0.0227
3106.13,0.023466
3107.99,0.02362
3109.86,0.02351
3111.73,0.023622
3113.59,0.023929
3115.47,0.024466
3117.34,0.023844
3119.21,0.023544
3121.09,0.024429
3122.97,0.02475
3124.86,0.024575
3126.74,0.024576
3128.63,0.024414
3130.52,0.024092
3132.41,0.025001
3134.3,0.025806
3136.2,0.025716
3138.1,0.025112
3140.0,0.025207
3141.9,0.025588
3143.81,0.025445
3145.71,0.024256
3147.62,0.023703
3149.54,0.024575
3151.45,0.02485
3153.37,0.024787
3155.29,0.024796
3157.21,0.02557
3159.13,0.026198
3161.06,0.025842
3162.99,0.025455
3164.92,0.025663
3166.85,0.025809
3168.79,0.025838
3170.72,0.026128
3172.67,0.02615
3174.61,0.025961
3176.55,0.025997
3178.5,0.026436
3180.45,0.026057
3182.4,0.025661
3184.36,0.0261
3186.32,0.025791
3188.27,0.025562
3190.24,0.025786
3192.2,0.026138
3194.17,0.026027
3196.14,0.026263
3198.11,0.026031
3200.08,0.025905
3202.06,0.02599
3204.04,0.025556
3206.02,0.025097
3208.0,0.025179
3209.99,0.024953
3211.98,0.025465
3213.97,0.02562
3215.96,0.025793
3217.96,0.025945
3219.96,0.025494
3221.96,0.025532
3223.96,0.025922
3225.97,0.026375
3227.98,0.02644
3229.99,0.026113
3232.0,0.025933
3234.02,0.02589
3236.04,0.026129
3238.06,0.025967
3240.08,0.025718
3242.11,0.02596
3244.14,0.026078
3246.17,0.026034
3248.2,0.026698
3250.24,0.026874
3252.28,0.026437
3254.32,0.026396
3256.37,0.026398
3258.41,0.026585
3260.46,0.026798
3262.51,0.026712
3264.57,0.026502
3266.63,0.026551
3268.69,0.026733
3270.75,0.026898
3272.81,0.026692
3274.88,0.026962
3276.95,0.027482
3279.02,0.027431
3281.1,0.027679
3283.18,0.028333
3285.26,0.02785
3287.34,0.027113
3289.43,0.027426
3291.51,0.027891
3293.61,0.028055
3295.7,0.028122
3297.8,0.028251
3299.9,0.028478
3302.0,0.028455
3304.1,0.028231
3306.21,0.028519
3308.32,0.028773
3310.43,0.028571
3312.55,0.028289
3314.66,0.028336
3316.79,0.029058
3318.91,0.029286
3321.03,0.029409
3323.16,0.02959
3325.29,0.029969
3327.43,0.030312
3329.57,0.030144
3331.71,0.029992
3333.85,0.029762
3335.99,0.02951
3338.14,0.030163
3340.29,0.030375
3342.45,0.030435
3344.6,0.030576
3346.76,0.030336
3348.92,0.030562
3351.09,0.030904
3353.26,0.030911
3355.43,0.030896
3357.6,0.031367
3359.78,0.031756
3361.96,0.03157
3364.14,0.031006
3366.32,0.031308
3368.51,0.03175
3370.7,0.031549
3372.89,0.031613
3375.09,0.031831
3377.29,0.031961
3379.49,0.032348
3381.69,0.031875
3383.9,0.031736
3386.11,0.032731
3388.32,0.032719
3390.54,0.032675
3392.76,0.032933
3394.98,0.032977
3397.21,0.033024
3399.43,0.033068
3401.66,0.032943
3403.9,0.032899
3406.13,0.033033
3408.37,0.033849
3410.61,0.033995
3412.86,0.033408
3415.11,0.033688
3417.36,0.034382
3419.61,0.034847
3421.87,0.034686
3424.13,0.034444
3426.39,0.034538
3428.66,0.034712
3430.93,0.034673
3433.2,0.03463
3435.48,0.0353
3437.76,0.035657
3440.04,0.035108
3442.32,0.0348
3444.61,0.035209
3446.9,0.035646
3449.19,0.035009
3451.49,0.03409
3453.79,0.034807
3456.09,0.035748
3458.4,0.03612
3460.7,0.036055
3463.02,0.035146
3465.33,0.034689
3467.65,0.034927
3469.97,0.035068
3472.29,0.035718
3474.62,0.036112
3476.95,0.035924
3479.29,0.035957
3481.62,0.035963
3483.96,0.036133
3486.3,0.036316
3488.65,0.036271
3491.0,0.035997
3493.35,0.036047
3495.71,0.036543
3498.07,0.036881
3500.43,0.036708
3502.79,0.036578
3505.16,0.036537
3507.53,0.036625
3509.91,0.036954
3512.29,0.036812
3514.67,0.037009
3517.05,0.037059
3519.44,0.037129
3521.83,0.037945
3524.23,0.038124
3526.62,0.038174
3529.02,0.038594
3531.43,0.038744
3533.83,0.039038
3536.24,0.039181
3538.66,0.039018
3541.08,0.039166
3543.5,0.03908
3545.92,0.039846
3548.35,0.040599
3550.78,0.040659
3553.21,0.040752
3555.65,0.041447
3558.09,0.041766
3560.53,0.042237
3562.98,0.042602
3565.43,0.043079
3567.88,0.043702
3570.34,0.044121
3572.8,0.044591
3575.27,0.044508
3577.73,0.04508
3580.2,0.045702
3582.68,0.045821
3585.16,0.046003
3587.64,0.047138
3590.12,0.048092
3592.61,0.048856
3595.1,0.049647
3597.6,0.049848
3600.09,0.050533
3602.6,0.051384
3605.1,0.052646
3607.61,0.053341
3610.12,0.053708
3612.64,0.054088
3615.16,0.054542
3617.68,0.055708
3620.21,0.056804
3622.74,0.056978
3625.27,0.057451
3627.81,0.058034
3630.35,0.058546
3632.89,0.059633
3635.44,0.060417
3637.99,0.060774
3640.54,0.061646
3643.1,0.062208
3645.66,0.062698
3648.23,0.063355
3650.8,0.064073
3653.37,0.065021
3655.95,0.065681
3658.53,0.066232
3661.11,0.067374
3663.7,0.068774
3666.29,0.069521
3668.89,0.06934
3671.48,0.069911
3674.09,0.071483
3676.69,0.072629
3679.3,0.073206
3681.91,0.07361
3684.53,0.073712
3687.15,0.074795
3689.78,0.076177
3692.4,0.077544
3695.04,0.077873
3697.67,0.077919
3700.31,0.078656
3702.95,0.079644
3705.6,0.080895
3708.25,0.081687
3710.91,0.082251
3713.56,0.083427
3716.23,0.084672
3718.89,0.085081
3721.56,0.085498
3724.23,0.086673
3726.91,0.08802
3729.59,0.088551
3732.28,0.08901
3734.97,0.089863
3737.66,0.090711
3740.36,0.091508
3743.06,0.092677
3745.76,0.093719
3748.47,0.094293
3751.18,0.095157
3753.9,0.095796
3756.62,0.096801
3759.34,0.097937
3762.07,0.098455
3764.8,0.09942
3767.54,0.100714
3770.28,0.101698
3773.02,0.10243
3775.77,0.102828
3778.52,0.103981
3781.28,0.105615
3784.04,0.106327
3786.8,0.107358
3789.57,0.108442
3792.34,0.109238
3795.12,0.110407
3797.9,0.111341
3800.69,0.112359
3803.47,0.113308
3806.27,0.114244
3809.06,0.115377
3811.86,0.11697
3814.67,0.117767
3817.48,0.118377
3820.29,0.11923
3823.11,0.120349
3825.93,0.121378
3828.76,0.122266
3831.59,0.123355
3834.42,0.124589
3837.26,0.125798
3840.1,0.127283
3842.95,0.128342
3845.8,0.128942
3848.65,0.129675
3851.51,0.131118
3854.38,0.132362
3857.24,0.133246
3860.12,0.13432
3862.99,0.135415
3865.87,0.136593
3868.76,0.138057
3871.65,0.13936
3874.54,0.140138
3877.44,0.141339
3880.34,0.142308
3883.25,0.143043
3886.16,0.144769
3889.07,0.146615
3891.99,0.147901
3894.92,0.148827
3897.85,0.149597
3900.78,0.150451
3903.72,0.151471
3906.66,0.152786
3909.6,0.153661
3912.55,0.154339
3915.51,0.155516
3918.47,0.157068
3921.43,0.158034
3924.4,0.159125
3927.38,0.160193
3930.35,0.160923
3933.33,0.162129
3936.32,0.163707
3939.31,0.1651
3942.31,0.166335
3945.31,0.167252
3948.31,0.168246
3951.32,0.169627
3954.34,0.171022
3957.35,0.171931
3960.38,0.172808
3963.41,0.173653
3966.44,0.175031
3969.48,0.176571
3972.52,0.177816
3975.56,0.179104
3978.61,0.180364
3981.67,0.181251
3984.73,0.182206
3987.8,0.183539
3990.87,0.184901
3993.94,0.18588
3997.02,0.18704
4000.1,0.187998
4003.19,0.189333
4006.29,0.190723
4009.39,0.191799
4012.49,0.192906
4015.6,0.193786
4018.71,0.195196
4021.83,0.196757
4024.95,0.197867
4028.08,0.199162
4031.21,0.200504
4034.35,0.20168
4037.49,0.202913
4040.64,0.204419
4043.79,0.205248
4046.94,0.206364
4050.11,0.207604
4053.27,0.208829
4056.44,0.210033
4059.62,0.211226
4062.8,0.212447
4065.99,0.213491
4069.18,0.214748
4072.38,0.215899
4075.58,0.216631
4078.78,0.2175
4082.0,0.218227
4085.21,0.219441
4088.43,0.220539
4091.66,0.221426
4094.89,0.222319
4098.13,0.223472
4101.37,0.224511
4104.62,0.225541
4107.87,0.226163
4111.13,0.226984
4114.39,0.22783
4117.66,0.228626
4120.93,0.229409
4124.21,0.230153
4127.5,0.23065
4130.79,0.230958
4134.08,0.231707
4137.38,0.233178
4140.68,0.234121
4143.99,0.234432
4147.31,0.235102
4150.63,0.236129
4153.95,0.237247
4157.29,0.238044
4160.62,0.238939
4163.96,0.239279
4167.31,0.239731
4170.66,0.240488
4174.02,0.241095
4177.39,0.2416
4180.75,0.242314
4184.13,0.243228
4187.51,0.24363
4190.89,0.244193
4194.28,0.244624
4197.68,0.245356
4201.08,0.246116
4204.49,0.246226
4207.9,0.246431
4211.32,0.247058
4214.74,0.247438
4218.17,0.24791
4221.61,0.248524
4225.05,0.249492
4228.5,0.250231
4231.95,0.250367
4235.4,0.250587
4238.87,0.250745
4242.34,0.250891
4245.81,0.251186
4249.29,0.251488
4252.78,0.251593
4256.27,0.251867
4259.77,0.252081
4263.27,0.251908
4266.78,0.252295
4270.29,0.25256
4273.81,0.252595
4277.34,0.252562
4280.87,0.25211
4284.41,0.251565
4287.95,0.250988
4291.5,0.250823
4295.06,0.251166
4298.62,0.251058
4302.19,0.250882
4305.76,0.250859
4309.34,0.250699
4312.92,0.249835
4316.52,0.249214
4320.11,0.249109
4323.72,0.249227
4327.32,0.249264
4330.94,0.24891
4334.56,0.248305
4338.19,0.247738
4341.82,0.247764
4345.46,0.247952
4349.11,0.247529
4352.76,0.247288
4356.42,0.247043
4360.08,0.246105
4363.75,0.245448
4367.43,0.245085
4371.11,0.24443
4374.8,0.244195
4378.49,0.244255
4382.19,0.243586
4385.9,0.242693
4389.61,0.242295
4393.33,0.242031
4397.06,0.241385
4400.79,0.240285
4404.53,0.23953
4408.28,0.238847
4412.03,0.23803
4415.79,0.237015
4419.55,0.236155
4423.32,0.235256
4427.1,0.234229
4430.88,0.233092
4434.68,0.232403
4438.47,0.23174
4442.28,0.231016
4446.08,0.230493
4449.9,0.229728
4453.72,0.228477
4457.55,0.227398
4461.39,0.226388
4465.23,0.225415
4469.08,0.224331
4472.94,0.223387
4476.8,0.222313
4480.67,0.220989
4484.55,0.220044
4488.43,0.219215
4492.32,0.218144
4496.21,0.217592
4500.12,0.216491
4504.03,0.215002
4507.94,0.213779
4511.87,0.212916
4515.8,0.212315
4519.73,0.211599
4523.68,0.210708
4527.63,0.210155
4531.59,0.209866
4535.55,0.209161
4539.52,0.208338
4543.5,0.207573
4547.49,0.206601
4551.48,0.205955
4555.48,0.20567
4559.49,0.205185
4563.5,0.2043
4567.52,0.20364
4571.55,0.202869
4575.58,0.202065
4579.63,0.201798
4583.67,0.201598
4587.73,0.200505
4591.79,0.199489
4595.86,0.198751
4599.94,0.197982
4604.03,0.197342
4608.12,0.196866
4612.22,0.195682
4616.33,0.194687
4620.44,0.193945
4624.56,0.193403
4628.69,0.19291
4632.83,0.192187
4636.97,0.191328
4641.12,0.190542
4645.28,0.189945
4649.45,0.189315
4653.62,0.18853
4657.8,0.18806
4661.99,0.187541
4666.19,0.186758
4670.39,0.186187
4674.6,0.185531
4678.82,0.184514
4683.05,0.183485
4687.28,0.18212
4691.52,0.181071
4695.77,0.179631
4700.03,0.178087
4704.3,0.176581
4708.57,0.174812
4712.85,0.17338
4717.14,0.171512
4721.43,0.169016
4725.74,0.166838
4730.05,0.164639
4734.37,0.162749
4738.7,0.160901
4743.03,0.159003
4747.38,0.157139
4751.73,0.155642
4756.09,0.154584
4760.45,0.153464
4764.83,0.152411
4769.21,0.151623
4773.6,0.150957
4778.0,0.149967
4782.41,0.148776
4786.83,0.14785
4791.25,0.146794
4795.68,0.145539
4800.13,0.144298
4804.57,0.143107
4809.03,0.142184
4813.5,0.141079
4817.97,0.139623
4822.45,0.138508
4826.94,0.137603
4831.44,0.136132
4835.95,0.134604
4840.46,0.133428
4844.99,0.132036
4849.52,0.130996
4854.06,0.130153
4858.61,0.129243
4863.17,0.127888
4867.73,0.126832
4872.31,0.125942
4876.89,0.125274
4881.48,0.125052
4886.08,0.12479
4890.69,0.124335
4895.31,0.124396
4899.94,0.125133
4904.57,0.126226
4909.22,0.127083
4913.87,0.128072
4918.53,0.129256
4923.21,0.130358
4927.88,0.131605
4932.57,0.132841
4937.27,0.133654
4941.98,0.134865
4946.69,0.136118
4951.42,0.137387
4956.15,0.138484
4960.9,0.138954
4965.65,0.139272
4970.41,0.139883
4975.18,0.140762
4979.96,0.141239
4984.75,0.141505
4989.54,0.142205
4994.35,0.142889
4999.17,0.143349
5003.99,0.143503
5008.83,0.14389
5013.67,0.14445
5018.52,0.144582
5023.39,0.144561
5028.26,0.145149
5033.14,0.145497
5038.03,0.145494
5042.93,0.145479
5047.84,0.145676
5052.76,0.145991
5057.69,0.146084
5062.63,0.146194
5067.58,0.146478
5072.54,0.146429
5077.51,0.146594
5082.49,0.146572
5087.47,0.146678
5092.47,0.146956
5097.48,0.147086
5102.5,0.146966
5107.52,0.146979
5112.56,0.146937
5117.61,0.146688
5122.66,0.146475
5127.73,0.146278
5132.81,0.146041
5137.89,0.145998
5142.99,0.146033
5148.1,0.14583
5153.22,0.145673
5158.34,0.145725
5163.48,0.145738
5168.63,0.145559
5173.79,0.144816
5178.96,0.144548
5184.13,0.144682
5189.32,0.144722
5194.52,0.144655
5199.73,0.144205
5204.96,0.143681
5210.19,0.143476
5215.43,0.143496
5220.68,0.143076
5225.94,0.142418
5231.22,0.141982
5236.5,0.141423
5241.79,0.140847
5247.1,0.140446
5252.42,0.139966
5257.74,0.139453
5263.08,0.139283
5268.43,0.138856
5273.79,0.137911
5279.16,0.137047
5284.54,0.136531
5289.93,0.136117
5295.34,0.135806
5300.75,0.135115
5306.18,0.134237
5311.61,0.133554
5317.06,0.132897
5322.52,0.132001
5327.99,0.130875
5333.47,0.12989
5338.96,0.129085
5344.47,0.128884
5349.98,0.128658
5355.51,0.127731
5361.05,0.126586
5366.6,0.125397
5372.16,0.124503
5377.73,0.12353
5383.32,0.122564
5388.91,0.121607
5394.52,0.120473
5400.14,0.119563
5405.77,0.118713
5411.41,0.118056
5417.07,0.117368
5422.74,0.11655
5428.41,0.115545
5434.1,0.113939
5439.81,0.112863
5445.52,0.112466
5451.25,0.111774
5456.98,0.110866
5462.73,0.109981
5468.5,0.108873
5474.27,0.108018
5480.06,0.107199
5485.86,0.106338
5491.67,0.105367
5497.49,0.104395
5503.33,0.103643
5509.18,0.102908
5515.04,0.102034
5520.91,0.101184
5526.8,0.100498
5532.69,0.099697
5538.61,0.098975
5544.53,0.098302
5550.47,0.097659
5556.41,0.097215
5562.38,0.096917
5568.35,0.096159
5574.34,0.095325
5580.34,0.094747
5586.35,0.09428
5592.38,0.093741
5598.42,0.093322
5604.47,0.092602
5610.54,0.091859
5616.61,0.091713
5622.71,0.091333
5628.81,0.090783
5634.93,0.090567
5641.06,0.09027
5647.21,0.089988
5653.36,0.089686
5659.54,0.089338
5665.72,0.089027
5671.92,0.088793
5678.13,0.088646
5684.36,0.088532
5690.6,0.088258
5696.85,0.088127
5703.12,0.088106
5709.4,0.088124
5715.69,0.087911
5722.0,0.087678
5728.33,0.087803
5734.66,0.087998
5741.01,0.087703
5747.38,0.087633
5753.76,0.087542
5760.15,0.087199
5766.56,0.087646
5772.98,0.087928
5779.41,0.087261
5785.86,0.087049
5792.33,0.087017
5798.81,0.086654
5805.3,0.086493
5811.81,0.086449
5818.33,0.086339
5824.87,0.086599
5831.42,0.086549
5837.99,0.08631
5844.57,0.086159
5851.17,0.08596
5857.78,0.085754
5864.41,0.085535
5871.05,0.085319
5877.7,0.085514
5884.38,0.08589
5891.06,0.086408
5897.76,0.086546
5904.48,0.086415
5911.21,0.086183
5917.96,0.086374
5924.73,0.086493
5931.5,0.086574
5938.3,0.087125
5945.11,0.087426
5951.93,0.087413
5958.78,0.087441
5965.63,0.087474
5972.51,0.088155
5979.39,0.088988
5986.3,0.089417
5993.22,0.089873
6000.16,0.090011
6007.11,0.090454
6014.08,0.091263
6021.06,0.092347
6028.06,0.09334
6035.08,0.093793
6042.12,0.094054
6049.17,0.094805
6056.23,0.095649
6063.32,0.095154
6070.42,0.095155
6077.53,0.095889
6084.67,0.096241
6091.82,0.096151
6098.98,0.096012
6106.17,0.09622
6113.37,0.096331
6120.58,0.096305
6127.82,0.096145
6135.07,0.09584
6142.34,0.095498
6149.63,0.095219
6156.93,0.094978
6164.25,0.094726
6171.59,0.09449
6178.95,0.09449
6186.32,0.094703
6193.71,0.094238
6201.12,0.093091
6208.54,0.092501
6215.99,0.092121
6223.45,0.091386
6230.93,0.090686
6238.43,0.08978
6245.95,0.088431
6253.48,0.087839
6261.03,0.087095
6268.6,0.086185
6276.19,0.085233
6283.8,0.084215
6291.43,0.083358
6299.07,0.082605
6306.73,0.081896
6314.42,0.081596
6322.12,0.081634
6329.84,0.081129
6337.57,0.080575
6345.33,0.080604
6353.11,0.079794
6360.9,0.078678
6368.72,0.077704
6376.55,0.07656
6384.4,0.075082
6392.27,0.073885
6400.17,0.072683
6408.08,0.071789
6416.01,0.071015
6423.96,0.069494
6431.93,0.067843
6439.92,0.066207
6447.93,0.064112
6455.96,0.062452
6464.01,0.060708
6472.08,0.058784
6480.17,0.057192
6488.28,0.055697
6496.41,0.0538
6504.56,0.05155
6512.73,0.049629
6520.92,0.04795
6529.14,0.045695
6537.37,0.043964
6545.63,0.042165
6553.9,0.04023
6562.2,0.038271
6570.51,0.036786
6578.85,0.03512
6587.21,0.033084
6595.59,0.031413
6603.99,0.029858
6612.42,0.028155
6620.86,0.026467
6629.33,0.024689
6637.82,0.023632
6646.33,0.022141
6654.86,0.020541
6663.41,0.01924
6671.99,0.017953
6680.59,0.016782
6689.21,0.016013
6697.85,0.015165
6706.51,0.014271
6715.2,0.013649
6723.91,0.013319
6732.64,0.013046
6741.4,0.013156
6750.18,0.013297
6758.98,0.013512
6767.8,0.014005
6776.65,0.01509
6785.52,0.016806
6794.41,0.018198
6803.33,0.019464
6812.27,0.021044
6821.23,0.022656
6830.22,0.024305
6839.23,0.026451
6848.26,0.028544
6857.32,0.030532
6866.4,0.032465
6875.51,0.034251
6884.64,0.036197
6893.8,0.038159
6902.98,0.039572
6912.18,0.040983
6921.41,0.042639
6930.66,0.044201
6939.94,0.045636
6949.24,0.047286
6958.57,0.04887
6967.92,0.050564
6977.3,0.052108
6986.7,0.053227
6996.13,0.054356
7005.59,0.055823
7015.07,0.056759
7024.57,0.05718
7034.1,0.057945
7043.66,0.058492
7053.25,0.058679
7062.85,0.058624
7072.49,0.058353
7082.15,0.057693
7091.84,0.056923
7101.55,0.056099
7111.3,0.055275
7121.06,0.054313
7130.86,0.053422
7140.68,0.052874
7150.53,0.052392
7160.41,0.051881
7170.31,0.051479
7180.24,0.051192
7190.2,0.051011
7200.19,0.051355
7210.2,0.051816
7220.24,0.052051
7230.31,0.052148
7240.41,0.052426
7250.54,0.053367
7260.69,0.054241
7270.88,0.054881
7281.09,0.055876
7291.33,0.057137
7301.6,0.058335
7311.9,0.059634
7322.22,0.061133
7332.58,0.062542
7342.97,0.06404
7353.38,0.065558
7363.83,0.067258
7374.3,0.068884
7384.81,0.070304
7395.34,0.071823
7405.91,0.073658
7416.5,0.075202
7427.13,0.076869
7437.78,0.07851
7448.47,0.080138
7459.19,0.081829
7469.94,0.083864
7480.71,0.085903
7491.52,0.087727
7502.37,0.089599
7513.24,0.091321
7524.14,0.093098
7535.08,0.094929
7546.05,0.096821
7557.05,0.098771
7568.08,0.100431
7579.15,0.10224
7590.24,0.103849
7601.37,0.105116
7612.53,0.106432
7623.73,0.107983
7634.96,0.109295
7646.22,0.110631
7657.51,0.112039
7668.84,0.113106
7680.2,0.114174
7691.59,0.115426
7703.02,0.116391
7714.49,0.117275
7725.98,0.117709
7737.52,0.118117
7749.08,0.118749
7760.68,0.119181
7772.32,0.119398
7783.99,0.119331
7795.69,0.119413
7807.43,0.119477
7819.21,0.119187
7831.02,0.118567
7842.87,0.117849
7854.75,0.117074
7866.67,0.116036
7878.62,0.115027
7890.62,0.113823
7902.64,0.112721
7914.71,0.111135
7926.81,0.109707
7938.95,0.108447
7951.13,0.106718
7963.34,0.10448
7975.59,0.102392
7987.88,0.099959
8000.21,0.097489
8012.57,0.09503
8024.98,0.092477
8037.42,0.089697
8049.9,0.086609
8062.42,0.083528
8074.98,0.080635
8087.57,0.078004
8100.21,0.07531
8112.89,0.072465
8125.6,0.070076
8138.36,0.067963
8151.16,0.06551
8163.99,0.062969
8176.87,0.060789
8189.79,0.058596
8202.75,0.05584
8215.75,0.052653
8228.79,0.049562
8241.87,0.046353
8254.99,0.043307
8268.16,0.040102
8281.37,0.036856
8294.62,0.033844
8307.91,0.030646
8321.24,0.027602
8334.62,0.02509
8348.04,0.023167
8361.51,0.021301
8375.02,0.019243
8388.57,0.017531
8402.16,0.016619
8415.8,0.015953
8429.49,0.015119
8443.22,0.014555
8456.99,0.014642
8470.81,0.01567
8484.67,0.017881
8498.58,0.020732
8512.54,0.023949
8526.54,0.027789
8540.58,0.032545
8554.68,0.038593
8568.82,0.045392
8583.0,0.052399
8597.24,0.059943
8611.52,0.067825
8625.85,0.07548
8640.23,0.082866
8654.65,0.089588
8669.12,0.095763
8683.64,0.101209
8698.21,0.105987
8712.83,0.110402
8727.5,0.113828
8742.22,0.116849
8756.99,0.11951
8771.8,0.121332
8786.67,0.122786
8801.59,0.124259
8816.56,0.125609
8831.58,0.126388
8846.65,0.126557
8861.77,0.126255
8876.94,0.125707
8892.17,0.125113
8907.45,0.124735
8922.78,0.123944
8938.16,0.122989
8953.6,0.121895
8969.09,0.121005
8984.64,0.120782
9000.23,0.120177
9015.89,0.11911
9031.59,0.118789
9047.36,0.118823
9063.17,0.117982
9079.05,0.116975
9094.97,0.116648
9110.96,0.115674
9127.0,0.114366
9143.1,0.113191
9159.25,0.111835
9175.46,0.110202
9191.73,0.108223
9208.06,0.106266
9224.44,0.104247
9240.88,0.101899
9257.38,0.099361
9273.94,0.096709
9290.56,0.094182
9307.24,0.091708
9323.98,0.089792
9340.78,0.087685
9357.64,0.085588
9374.57,0.083933
9391.55,0.082079
9408.59,0.080221
9425.7,0.079266
9442.87,0.078083
9460.1,0.076812
9477.4,0.076209
9494.75,0.075735
9512.17,0.075641
9529.66,0.075494
9547.21,0.074553
9564.83,0.074389
9582.5,0.075126
9600.25,0.075715
9618.06,0.076245
9635.94,0.077218
9653.88,0.077888
9671.89,0.078048
9689.97,0.078626
9708.12,0.079992
9726.33,0.08128
9744.62,0.082474
9762.97,0.08349
9781.39,0.084887
9799.88,0.086483
9818.44,0.088293
9837.07,0.089976
9855.77,0.091302
9874.54,0.092385
9893.39,0.093816
9912.3,0.096149
9931.29,0.098384
9950.36,0.099835
9969.49,0.10142
9988.7,0.103403
10007.98,0.105388
10027.34,0.107981
10046.77,0.110113
10066.28,0.111566
10085.87,0.11352
10105.53,0.115737
10125.26,0.118008
10145.08,0.120005
10164.97,0.121987
10184.94,0.12413
10204.99,0.125798
10225.12,0.125188
10245.33,0.121658
10265.61,0.116077
10285.98,0.114576
10306.43,0.121761
10326.96,0.131395
10347.57,0.137816
10368.27,0.142413
10389.05,0.146364
10409.91,0.14921
10430.86,0.151575
10451.88,0.153792
10473.0,0.156424
10494.2,0.159505
10515.49,0.162375
10536.86,0.165674
10558.32,0.168844
10579.87,0.171497
10601.5,0.173763
10623.23,0.175751
10645.04,0.177824
10666.94,0.179582
10688.94,0.181067
10711.02,0.182774
10733.2,0.184389
10755.47,0.185694
10777.83,0.186987
10800.28,0.188699
10822.83,0.189872
10845.47,0.190816
10868.21,0.192108
10891.04,0.193163
10913.97,0.194043
10936.99,0.195245
10960.12,0.196133
10983.34,0.197001
11006.66,0.198166
11030.07,0.199272
11053.59,0.199986
11077.21,0.200333
11100.93,0.201215
11124.75,0.202186
11148.68,0.202773
11172.71,0.203891
11196.84,0.204483
11221.07,0.20517
11245.41,0.206065
11269.86,0.20714
11294.41,0.208566
11319.07,0.209699
11343.84,0.21037
11368.72,0.210738
11393.7,0.211431
11418.8,0.211944
11444.01,0.212161
11469.33,0.212851
11494.76,0.213607
11520.3,0.214416
11545.96,0.215161
11571.73,0.215698
11597.62,0.215896
11623.62,0.216393
11649.74,0.216974
11675.98,0.217662
11702.34,0.217858
11728.81,0.217691
11755.41,0.217267
11782.13,0.218152
11808.96,0.218663
11835.92,0.21903
11863.01,0.219349
11890.22,0.21943
11917.55,0.219761
11945.01,0.219867
11972.6,0.219656
12000.31,0.220056
12028.16,0.220498
12056.13,0.220617
12084.23,0.220628
12112.46,0.220641
12140.83,0.220187
12169.33,0.22025
12197.96,0.220604
12226.73,0.219794
12255.64,0.219523
12284.68,0.219581
12313.86,0.21896
12343.18,0.21842
12372.64,0.218402
12402.24,0.21788
12431.98,0.217032
12461.86,0.215932
12491.89,0.214682
12522.07,0.214107
12552.38,0.213603
12582.85,0.213366
12613.47,0.212538
12644.23,0.211764
12675.15,0.211357
12706.21,0.211032
12737.43,0.210219
12768.81,0.209579
12800.33,0.208545
12832.02,0.20808
12863.86,0.208003
12895.86,0.207765
12928.02,0.207016
12960.34,0.206096
12992.82,0.205517
13025.46,0.204703
13058.27,0.203753
13091.25,0.202587
13124.39,0.201374
13157.7,0.200697
13191.18,0.200206
13224.83,0.199783
13258.66,0.199206
13292.65,0.198344
13326.83,0.197505
13361.17,0.196272
13395.7,0.195169
13430.4,0.194155
13465.29,0.192896
13500.35,0.191614
13535.6,0.190487
13571.03,0.189132
13606.65,0.187728
13642.46,0.185804
13678.46,0.183664
13714.64,0.182638
13751.02,0.181243
13787.59,0.179116
13824.36,0.177357
13861.32,0.175513
13898.49,0.173473
13935.85,0.171614
13973.41,0.169695
14011.17,0.167815
14049.15,0.164974
14087.32,0.162315
14125.71,0.160398
14164.3,0.158784
14203.11,0.156871
14242.13,0.155287
14281.36,0.152643
14320.81,0.150212
14360.49,0.148934
14400.38,0.148049
14440.49,0.146086
14480.82,0.14374
14521.39,0.141308
14562.18,0.139743
14603.2,0.13887
14644.45,0.137276
14685.93,0.135557
14727.66,0.134236
14769.62,0.132527
14811.81,0.130757
14854.25,0.129424
14896.94,0.127493
14939.87,0.125428
14983.05,0.123825
15026.48,0.12127
15070.16,0.1183
15114.1,0.115095
15158.29,0.11152
15202.74,0.107938
15247.46,0.104272
15292.43,0.09999
15337.68,0.095556
15383.19,0.090075
15428.97,0.083081
15475.03,0.074832
15521.36,0.067406
15567.97,0.059044
15614.87,0.049464
15662.04,0.040787
15709.5,0.032671
15757.25,0.026163
15805.29,0.023263
15853.62,0.026124
15902.26,0.036281
15951.19,0.051851
16000.42,0.069203
16049.95,0.081378
16099.8,0.085895
16149.95,0.086206
16200.42,0.085124
16251.21,0.083322
16302.31,0.081887
16353.74,0.079226
16405.49,0.075296
16457.57,0.07168
16509.98,0.070008
16562.73,0.070337
16615.82,0.072146
16669.24,0.074327
16723.02,0.076765
16777.14,0.079289
16831.61,0.08146
16886.43,0.083048
16941.62,0.085114
16997.16,0.088349
17053.08,0.090616
17109.36,0.092793
17166.01,0.095414
17223.04,0.097826
17280.45,0.098803
17338.24,0.098964
17396.43,0.09949
17455.0,0.100208
17513.97,0.101148
17573.34,0.102219
17633.11,0.104154
17693.29,0.105124
17753.89,0.105004
17814.9,0.106428
17876.33,0.107638
17938.18,0.107207
18000.47,0.106526
18063.19,0.105823
18126.35,0.106557
18189.95,0.108209
18254.0,0.10952
18318.5,0.11008
18383.46,0.110458
18448.88,0.110674
18514.77,0.110506
18581.13,0.11013
18647.97,0.110352
18715.29,0.110001
18783.1,0.108703
18851.4,0.108725
18920.2,0.10977
18989.51,0.11051
19059.32,0.110162
19129.65,0.108548
19200.5,0.107451
19271.88,0.106954
19343.79,0.107147
19416.24,0.106884
19489.23,0.104995
19562.77,0.10301
19636.88,0.103069
19711.54,0.104582
19786.78,0.10375
19862.59,0.103537
19938.98,0.105347
20015.96,0.10403
20093.55,0.101456
20171.73,0.101549
20250.53,0.100483
20329.94,0.09931
20409.98,0.100232
20490.65,0.100173
20571.96,0.097336
20653.92,0.096306
20736.54,0.096444
20819.82,0.095284
20903.77,0.093275
20988.4,0.09179
21073.72,0.091173
21159.73,0.089634
21246.46,0.087847
21333.89,0.086159
21422.04,0.086
21510.93,0.086793
21600.56,0.08756
21690.94,0.086742
21782.08,0.084632
21873.99,0.083716
21966.67,0.08449
22060.15,0.081258
22154.42,0.077806
22249.51,0.078306
22345.41,0.07953
22442.14,0.076181
22539.72,0.073545
22638.14,0.071954
22737.43,0.070315
22837.6,0.070283
22938.65,0.068044
23040.6,0.063974
23143.46,0.058785
23247.24,0.057405
23351.96,0.061571
23457.63,0.062375
23564.25,0.057778
23671.85,0.054992
23780.44,0.053234
23890.02,0.051301
24000.63,0.051047
24112.26,0.051524
24224.93,0.048923
24338.66,0.05009
24453.47,0.052889
24569.36,0.053292
24686.36,0.052203
24804.47,0.051405
24923.73,0.046131
25044.13,0.044802
25165.71,0.041195
25288.46,0.035549
25412.43,0.038431
25537.61,0.04057
25664.04,0.041263
25791.72,0.039266
25920.68,0.035926
