Database of Origin,University of Winnipeg Spectrophotometer Facility
Sample Description,8. Sulfates: RELAB + Nicolet spectra / Spectra all made consistently merged: Jan. / 10 / 2005
Date Added,2016-07-15 22:05:55.956582

Data ID,RPN_SUL_66          
Sample ID,SPT153
Mineral Name,Lazurite
Grain Size,<45
Viewing Geometry,30 / 0 | 30
Resolution,5 / 1.3-129
Material Class,Sulfate

Wavelength
305.0,0.3524
310.0,0.36543
315.0,0.37806
320.0,0.39205
325.0,0.40485
330.0,0.41562
335.0,0.42308
340.0,0.42974
345.0,0.43439
350.0,0.43927
355.0,0.44589
360.0,0.45312
365.0,0.46072
370.0,0.46863
375.0,0.47696
380.0,0.48656
385.0,0.49504
390.0,0.50414
395.0,0.51252
400.0,0.52012
405.0,0.5287
410.0,0.5375
415.0,0.5466
420.0,0.5562
425.0,0.5665
430.0,0.57604
435.0,0.58583
440.0,0.59309
445.0,0.60091
450.0,0.60592
455.0,0.61135
460.0,0.61307
465.0,0.61494
470.0,0.61308
475.0,0.61182
480.0,0.60546
485.0,0.6006
490.0,0.59109
495.0,0.58057
500.0,0.56699
505.0,0.55198
510.0,0.53538
515.0,0.51732
520.0,0.49963
525.0,0.48135
530.0,0.46413
535.0,0.44733
540.0,0.43169
545.0,0.41703
550.0,0.40435
555.0,0.39221
560.0,0.38201
565.0,0.37286
570.0,0.36559
575.0,0.35928
580.0,0.35461
585.0,0.35058
590.0,0.34836
595.0,0.34638
600.0,0.34648
605.0,0.34644
610.0,0.34861
615.0,0.35118
620.0,0.35515
625.0,0.3595
630.0,0.36556
635.0,0.37197
640.0,0.38026
645.0,0.38864
650.0,0.39879
655.0,0.40954
660.0,0.42241
665.0,0.43544
670.0,0.45053
675.0,0.46644
680.0,0.48363
685.0,0.50108
690.0,0.51899
695.0,0.53702
700.0,0.55499
705.0,0.57144
710.0,0.58653
715.0,0.60184
720.0,0.6136
725.0,0.62371
730.0,0.63307
735.0,0.64038
740.0,0.64587
745.0,0.65054
750.0,0.65493
755.0,0.65689
760.0,0.65962
765.0,0.66073
770.0,0.66239
775.0,0.66296
780.0,0.66467
785.0,0.66441
790.0,0.6653
795.0,0.6653
800.0,0.66651
805.0,0.66609
810.0,0.66622
815.0,0.66669
820.0,0.66648
825.0,0.66716
830.0,0.66705
835.0,0.66724
840.0,0.66841
845.0,0.66808
850.0,0.669
855.0,0.66942
860.0,0.67004
865.0,0.66938
870.0,0.67023
875.0,0.67032
880.0,0.6712
885.0,0.67112
890.0,0.67227
895.0,0.67233
900.0,0.67327
905.0,0.67448
910.0,0.6745
915.0,0.6752
920.0,0.67562
925.0,0.67609
930.0,0.67702
935.0,0.67705
940.0,0.6786
945.0,0.6787
950.0,0.67938
955.0,0.68123
960.0,0.68069
965.0,0.6813
970.0,0.68134
975.0,0.68183
980.0,0.68246
985.0,0.68381
990.0,0.68354
995.0,0.68369
1000.0,0.68387
1005.0,0.68431
1010.0,0.68544
1015.0,0.68576
1020.0,0.68618
1025.0,0.68618
1030.0,0.68721
1035.0,0.68688
1040.0,0.68755
1045.0,0.68783
1050.0,0.68835
1055.0,0.6881
1060.0,0.68838
1065.0,0.68846
1070.0,0.68915
1075.0,0.6894
1080.0,0.68947
1085.0,0.68881
1090.0,0.68984
1095.0,0.68925
1100.0,0.69002
1105.0,0.69036
1110.0,0.68974
1115.0,0.69058
1120.0,0.69021
1125.0,0.69086
1130.0,0.69024
1135.0,0.69117
1140.0,0.69119
1145.0,0.69174
1150.0,0.6914
1155.0,0.69178
1160.0,0.692
1165.0,0.69138
1170.0,0.69184
1175.0,0.69202
1180.0,0.69238
1185.0,0.69241
1190.0,0.69315
1195.0,0.6926
1200.0,0.6932
1205.0,0.69265
1210.0,0.69309
1215.0,0.693
1220.0,0.69351
1225.0,0.69303
1230.0,0.69321
1235.0,0.69311
1240.0,0.6936
1245.0,0.69339
1250.0,0.6933
1255.0,0.69408
1260.0,0.69379
1265.0,0.69417
1270.0,0.69354
1275.0,0.6936
1280.0,0.69307
1285.0,0.69389
1290.0,0.69306
1295.0,0.69357
1300.0,0.69306
1305.0,0.69349
1310.0,0.69363
1315.0,0.69285
1320.0,0.69391
1325.0,0.69366
1330.0,0.69394
1335.0,0.69382
1340.0,0.69375
1345.0,0.69327
1350.0,0.69308
1355.0,0.69265
1360.0,0.69317
1365.0,0.69257
1370.0,0.69248
1375.0,0.69211
1380.0,0.69351
1385.0,0.69154
1390.0,0.69224
1395.0,0.69221
1400.0,0.69141
1405.0,0.69065
1410.0,0.68936
1415.0,0.68933
1420.0,0.6877
1425.0,0.68747
1430.0,0.68625
1435.0,0.68659
1440.0,0.68665
1445.0,0.6863
1450.0,0.68722
1455.0,0.68729
1460.0,0.68766
1465.0,0.68755
1470.0,0.68777
1475.0,0.68795
1480.0,0.68855
1485.0,0.68848
1490.0,0.68898
1495.0,0.68963
1500.0,0.69002
1505.0,0.69034
1510.0,0.69096
1515.0,0.69094
1520.0,0.6919
1525.0,0.69218
1530.0,0.69167
1535.0,0.69225
1540.0,0.69231
1545.0,0.69276
1550.0,0.69294
1555.0,0.69304
1560.0,0.69285
1565.0,0.69344
1570.0,0.69315
1575.0,0.69392
1580.0,0.69287
1585.0,0.69364
1590.0,0.69257
1595.0,0.69423
1600.0,0.6933
1605.0,0.69405
1610.0,0.69373
1615.0,0.69386
1620.0,0.694
1625.0,0.69356
1630.0,0.69345
1635.0,0.69312
1640.0,0.69359
1645.0,0.69393
1650.0,0.69369
1655.0,0.69397
1660.0,0.69417
1665.0,0.69374
1670.0,0.69473
1675.0,0.69447
1680.0,0.69462
1685.0,0.69413
1690.0,0.69381
1695.0,0.69389
1700.0,0.69508
1705.0,0.69441
1710.0,0.69414
1715.0,0.69496
1720.0,0.69414
1725.0,0.69451
1730.0,0.69347
1735.0,0.69335
1740.0,0.69289
1745.0,0.69304
1750.0,0.69207
1755.0,0.69305
1760.0,0.69286
1765.0,0.69169
1770.0,0.69285
1775.0,0.69193
1780.0,0.69255
1785.0,0.69247
1790.0,0.69255
1795.0,0.69171
1800.0,0.69217
1805.0,0.69128
1810.0,0.69184
1815.0,0.6914
1820.0,0.69153
1825.0,0.69111
1830.0,0.69085
1835.0,0.69107
1840.0,0.69044
1845.0,0.69049
1850.0,0.68994
1855.0,0.68997
1860.0,0.68911
1865.0,0.68867
1870.0,0.68769
1875.0,0.68637
1880.0,0.68441
1885.0,0.68272
1890.0,0.68069
1895.0,0.67576
1900.0,0.67109
1905.0,0.66286
1910.0,0.65596
1915.0,0.64999
1920.0,0.64683
1925.0,0.64298
1930.0,0.64047
1935.0,0.64036
1940.0,0.64017
1945.0,0.64219
1950.0,0.64231
1955.0,0.64448
1960.0,0.64507
1965.0,0.64896
1970.0,0.64945
1975.0,0.65205
1980.0,0.65343
1985.0,0.6548
1990.0,0.65756
1995.0,0.65789
2000.0,0.65964
2005.0,0.65972
2010.0,0.66329
2015.0,0.66337
2020.0,0.66597
2025.0,0.66711
2030.0,0.66763
2035.0,0.66724
2040.0,0.66915
2045.0,0.66927
2050.0,0.66958
2055.0,0.67151
2060.0,0.67048
2065.0,0.67201
2070.0,0.67204
2075.0,0.67324
2080.0,0.67294
2085.0,0.67374
2090.0,0.67373
2095.0,0.67444
2100.0,0.67424
2105.0,0.67534
2110.0,0.67622
2115.0,0.67607
2120.0,0.676
2125.0,0.67736
2130.0,0.67671
2135.0,0.67716
2140.0,0.6764
2145.0,0.67733
2150.0,0.67737
2155.0,0.67787
2160.0,0.67817
2165.0,0.6767
2170.0,0.67762
2175.0,0.67791
2180.0,0.6784
2185.0,0.67753
2190.0,0.67911
2195.0,0.67879
2200.0,0.67768
2205.0,0.67856
2210.0,0.67854
2215.0,0.67861
2220.0,0.67829
2225.0,0.67842
2230.0,0.6777
2235.0,0.67746
2240.0,0.67769
2245.0,0.67795
2250.0,0.67729
2255.0,0.67757
2260.0,0.67745
2265.0,0.67724
2270.0,0.67647
2275.0,0.67698
2280.0,0.67592
2285.0,0.67553
2290.0,0.67507
2295.0,0.674
2300.0,0.67317
2305.0,0.67249
2310.0,0.67194
2315.0,0.67145
2320.0,0.67081
2325.0,0.66947
2330.0,0.66873
2335.0,0.66705
2340.0,0.66578
2345.0,0.66525
2350.0,0.6648
2355.0,0.66439
2360.0,0.66531
2365.0,0.66502
2370.0,0.66523
2375.0,0.66447
2380.0,0.66231
2385.0,0.66212
2390.0,0.65961
2395.0,0.6597
2400.0,0.65741
2405.0,0.65547
2410.0,0.65355
2415.0,0.65185
2420.0,0.65041
2425.0,0.64774
2430.0,0.6458
2435.0,0.64314
2440.0,0.64119
2445.0,0.63984
2450.0,0.63737
2455.0,0.6344
2460.0,0.63287
2465.0,0.63007
2470.0,0.62859
2475.0,0.62635
2480.0,0.62713
2485.0,0.62308
2490.0,0.62102
2495.0,0.62128
2500.0,0.61795
2505.0,0.61724
2510.0,0.6171
2515.0,0.61632
2520.0,0.61481
2525.0,0.61404
2530.0,0.61371
2535.0,0.61217
2540.0,0.61174
2545.0,0.61351
2550.0,0.61552
2555.0,0.61739
2560.0,0.61874
2565.13,0.61937
2570.22,0.61983
2575.33,0.62003
2580.46,0.61986
2581.74,0.61984
2583.03,0.61985
2584.31,0.61972
2585.6,0.61965
2586.89,0.61953
2588.19,0.61948
2589.48,0.61936
2590.77,0.61927
2592.07,0.61927
2593.36,0.61925
2594.66,0.61905
2595.96,0.61887
2597.26,0.61868
2598.56,0.61863
2599.87,0.61853
2601.17,0.61831
2602.48,0.61812
2603.78,0.61799
2605.09,0.61784
2606.4,0.61769
2607.71,0.61754
2609.03,0.61739
2610.34,0.61708
2611.66,0.61689
2612.97,0.6167
2614.29,0.61647
2615.61,0.6163
2616.93,0.61617
2618.25,0.61595
2619.57,0.61577
2620.9,0.61543
2622.22,0.61511
2623.55,0.61481
2624.88,0.61452
2626.21,0.61424
2627.54,0.61399
2628.87,0.61372
2630.21,0.61329
2631.54,0.61284
2632.88,0.6125
2634.21,0.61211
2635.55,0.61169
2636.89,0.61124
2638.24,0.61088
2639.58,0.61046
2640.92,0.61
2642.27,0.60952
2643.62,0.60912
2644.97,0.60857
2646.32,0.60796
2647.67,0.60737
2649.02,0.60683
2650.38,0.60618
2651.73,0.60556
2653.09,0.60493
2654.45,0.6043
2655.81,0.60356
2657.17,0.60284
2658.53,0.602
2659.89,0.6013
2661.26,0.6005
2662.63,0.59953
2664.0,0.59864
2665.36,0.59783
2666.74,0.59684
2668.11,0.59577
2669.48,0.59462
2670.86,0.59321
2672.23,0.59153
2673.61,0.59014
2674.99,0.58879
2676.37,0.58741
2677.76,0.58593
2679.14,0.58457
2680.52,0.58306
2681.91,0.58153
2683.3,0.57987
2684.69,0.57797
2686.08,0.57589
2687.47,0.57379
2688.87,0.57157
2690.26,0.56932
2691.66,0.56709
2693.06,0.56518
2694.46,0.56321
2695.86,0.56125
2697.26,0.5594
2698.66,0.5576
2700.07,0.55546
2701.48,0.55292
2702.89,0.55004
2704.3,0.54716
2705.71,0.54392
2707.12,0.54025
2708.53,0.53598
2709.95,0.53067
2711.37,0.52365
2712.79,0.5168
2714.21,0.51363
2715.63,0.51256
2717.05,0.51036
2718.48,0.50686
2719.9,0.5022
2721.33,0.49657
2722.76,0.49071
2724.19,0.48537
2725.62,0.4787
2727.06,0.47102
2728.49,0.46248
2729.93,0.45428
2731.37,0.44848
2732.81,0.44443
2734.25,0.43919
2735.69,0.43292
2737.14,0.42759
2738.58,0.42354
2740.03,0.41838
2741.48,0.41116
2742.93,0.40295
2744.38,0.39624
2745.83,0.39057
2747.29,0.38494
2748.75,0.37895
2750.2,0.37251
2751.66,0.36535
2753.13,0.35771
2754.59,0.35051
2756.05,0.34461
2757.52,0.33985
2758.99,0.33597
2760.46,0.33199
2761.93,0.32813
2763.4,0.32463
2764.87,0.32134
2766.35,0.31804
2767.82,0.31476
2769.3,0.31142
2770.78,0.30837
2772.26,0.30541
2773.75,0.30269
2775.23,0.30014
2776.72,0.29765
2778.21,0.29515
2779.7,0.29291
2781.19,0.29074
2782.68,0.28864
2784.18,0.28644
2785.67,0.28431
2787.17,0.28212
2788.67,0.28002
2790.17,0.27806
2791.67,0.27619
2793.18,0.27439
2794.68,0.27266
2796.19,0.27081
2797.7,0.26889
2799.21,0.26696
2800.72,0.26523
2802.24,0.26344
2803.75,0.26175
2805.27,0.26009
2806.79,0.25858
2808.31,0.25715
2809.83,0.25578
2811.35,0.25437
2812.88,0.25295
2814.41,0.25151
2815.93,0.25022
2817.46,0.24892
2819.0,0.24777
2820.53,0.24673
2822.07,0.2457
2823.6,0.24466
2825.14,0.24375
2826.68,0.243
2828.22,0.24243
2829.77,0.24189
2831.31,0.24146
2832.86,0.24117
2834.41,0.24103
2835.96,0.24084
2837.51,0.24064
2839.07,0.24037
2840.62,0.24019
2842.18,0.23995
2843.74,0.23966
2845.3,0.23936
2846.86,0.23906
2848.43,0.23878
2849.99,0.23846
2851.56,0.23805
2853.13,0.23766
2854.7,0.23726
2856.27,0.23679
2857.85,0.23632
2859.42,0.23589
2861.0,0.23541
2862.58,0.23493
2864.16,0.23443
2865.75,0.23406
2867.33,0.23373
2868.92,0.23341
2870.51,0.23311
2872.1,0.23284
2873.69,0.23255
2875.28,0.23227
2876.88,0.23196
2878.48,0.23164
2880.07,0.23129
2881.68,0.23103
2883.28,0.23077
2884.88,0.23046
2886.49,0.23012
2888.1,0.22977
2889.71,0.22934
2891.32,0.22897
2892.93,0.22859
2894.55,0.22819
2896.16,0.22775
2897.78,0.22733
2899.4,0.22691
2901.03,0.22652
2902.65,0.22619
2904.28,0.22587
2905.91,0.22559
2907.54,0.22539
2909.17,0.22517
2910.8,0.22494
2912.44,0.22467
2914.07,0.22411
2915.71,0.22382
2917.35,0.22352
2918.99,0.22326
2920.64,0.22299
2922.29,0.2227
2923.93,0.22245
2925.58,0.22217
2927.24,0.2219
2928.89,0.2217
2930.55,0.22148
2932.2,0.22131
2933.86,0.22117
2935.52,0.22105
2937.19,0.22099
2938.85,0.22101
2940.52,0.22109
2942.19,0.22122
2943.86,0.22138
2945.53,0.22155
2947.21,0.22169
2948.88,0.22187
2950.56,0.2221
2952.24,0.22238
2953.92,0.22263
2955.61,0.22292
2957.29,0.22316
2958.98,0.22336
2960.67,0.22361
2962.36,0.22385
2964.06,0.2241
2965.75,0.22433
2967.45,0.2245
2969.15,0.22469
2970.85,0.22488
2972.55,0.22512
2974.26,0.22532
2975.97,0.22552
2977.68,0.22585
2979.39,0.22622
2981.1,0.22657
2982.82,0.22687
2984.53,0.22714
2986.25,0.22744
2987.97,0.22766
2989.7,0.22786
2991.42,0.22812
2993.15,0.22843
2994.88,0.2288
2996.61,0.22921
2998.34,0.22957
3000.08,0.22998
3001.82,0.23033
3003.55,0.23066
3005.3,0.23103
3007.04,0.2314
3008.78,0.23174
3010.53,0.23205
3012.28,0.23234
3014.03,0.23261
3015.79,0.2329
3017.54,0.2332
3019.3,0.2335
3021.06,0.23375
3022.82,0.234
3024.58,0.23418
3026.35,0.23438
3028.12,0.23462
3029.89,0.23479
3031.66,0.23495
3033.43,0.2351
3035.21,0.23528
3036.99,0.2355
3038.77,0.23568
3040.55,0.23583
3042.33,0.23599
3044.12,0.23617
3045.91,0.23631
3047.7,0.23643
3049.49,0.23666
3051.29,0.23691
3053.08,0.23715
3054.88,0.23741
3056.68,0.23764
3058.49,0.23787
3060.29,0.23818
3062.1,0.23849
3063.91,0.23877
3065.72,0.23904
3067.54,0.23935
3069.35,0.2397
3071.17,0.24007
3072.99,0.24044
3074.81,0.2408
3076.64,0.24116
3078.47,0.24158
3080.29,0.24203
3082.13,0.24249
3083.96,0.24299
3085.79,0.24351
3087.63,0.24402
3089.47,0.24456
3091.31,0.24508
3093.16,0.24562
3095.01,0.24617
3096.85,0.24675
3098.71,0.24729
3100.56,0.24784
3102.41,0.24841
3104.27,0.24901
3106.13,0.24961
3107.99,0.25024
3109.86,0.25088
3111.73,0.25154
3113.59,0.25223
3115.47,0.25297
3117.34,0.2537
3119.21,0.25442
3121.09,0.25512
3122.97,0.25585
3124.86,0.25665
3126.74,0.25742
3128.63,0.25815
3130.52,0.25889
3132.41,0.25962
3134.3,0.2603
3136.2,0.26102
3138.1,0.26183
3140.0,0.26263
3141.9,0.26341
3143.81,0.26421
3145.71,0.265
3147.62,0.26579
3149.54,0.26662
3151.45,0.26745
3153.37,0.26824
3155.29,0.26913
3157.21,0.27005
3159.13,0.27099
3161.06,0.27193
3162.99,0.27289
3164.92,0.27387
3166.85,0.27485
3168.79,0.27581
3170.72,0.27677
3172.67,0.27774
3174.61,0.27869
3176.55,0.2796
3178.5,0.28057
3180.45,0.28156
3182.4,0.2825
3184.36,0.28342
3186.32,0.28437
3188.27,0.28534
3190.24,0.28634
3192.2,0.28733
3194.17,0.28829
3196.14,0.2892
3198.11,0.29017
3200.08,0.29117
3202.06,0.29217
3204.04,0.29314
3206.02,0.29406
3208.0,0.29505
3209.99,0.29605
3211.98,0.29701
3213.97,0.29802
3215.96,0.29902
3217.96,0.29998
3219.96,0.30094
3221.96,0.30191
3223.96,0.30294
3225.97,0.30389
3227.98,0.30483
3229.99,0.30586
3232.0,0.30688
3234.02,0.30785
3236.04,0.30886
3238.06,0.30983
3240.08,0.31082
3242.11,0.31179
3244.14,0.31277
3246.17,0.31382
3248.2,0.31484
3250.24,0.31582
3252.28,0.31685
3254.32,0.3179
3256.37,0.3189
3258.41,0.31991
3260.46,0.32095
3262.51,0.32191
3264.57,0.32288
3266.63,0.32392
3268.69,0.32496
3270.75,0.32601
3272.81,0.32701
3274.88,0.32797
3276.95,0.32902
3279.02,0.33009
3281.1,0.3311
3283.18,0.33208
3285.26,0.33304
3287.34,0.33401
3289.43,0.33498
3291.51,0.33594
3293.61,0.33693
3295.7,0.33798
3297.8,0.33895
3299.9,0.33987
3302.0,0.34079
3304.1,0.3417
3306.21,0.34258
3308.32,0.34342
3310.43,0.34432
3312.55,0.34516
3314.66,0.34594
3316.79,0.3467
3318.91,0.34741
3321.03,0.34805
3323.16,0.34855
3325.29,0.34896
3327.43,0.34929
3329.57,0.34939
3331.71,0.34916
3333.85,0.34848
3335.99,0.34721
3338.14,0.34509
3340.29,0.34165
3342.45,0.33707
3344.6,0.33217
3346.76,0.32813
3348.92,0.32572
3351.09,0.325
3353.26,0.32565
3355.43,0.32729
3357.6,0.32948
3359.78,0.33191
3361.96,0.33427
3364.14,0.33635
3366.32,0.33811
3368.51,0.33957
3370.7,0.34077
3372.89,0.34183
3375.09,0.34282
3377.29,0.34385
3379.49,0.34503
3381.69,0.34635
3383.9,0.34772
3386.11,0.34908
3388.32,0.35035
3390.54,0.35156
3392.76,0.35274
3394.98,0.35388
3397.21,0.35497
3399.43,0.35597
3401.66,0.35691
3403.9,0.35784
3406.13,0.35881
3408.37,0.35983
3410.61,0.36077
3412.86,0.36177
3415.11,0.3628
3417.36,0.36378
3419.61,0.36478
3421.87,0.36587
3424.13,0.36704
3426.39,0.36815
3428.66,0.36932
3430.93,0.37059
3433.2,0.37183
3435.48,0.37301
3437.76,0.37408
3440.04,0.37506
3442.32,0.37591
3444.61,0.37668
3446.9,0.37736
3449.19,0.37799
3451.49,0.37851
3453.79,0.37887
3456.09,0.37896
3458.4,0.37864
3460.7,0.37775
3463.02,0.37588
3465.33,0.37259
3467.65,0.36768
3469.97,0.36204
3472.29,0.35706
3474.62,0.35346
3476.95,0.35169
3479.29,0.35199
3481.62,0.35377
3483.96,0.35617
3486.3,0.35888
3488.65,0.36167
3491.0,0.36468
3493.35,0.36788
3495.71,0.37097
3498.07,0.37398
3500.43,0.37701
3502.79,0.37993
3505.16,0.3829
3507.53,0.38609
3509.91,0.38952
3512.29,0.39331
3514.67,0.39759
3517.05,0.40249
3519.44,0.40817
3521.83,0.41439
3524.23,0.42074
3526.62,0.42677
3529.02,0.43213
3531.43,0.43679
3533.83,0.44068
3536.24,0.44403
3538.66,0.447
3541.08,0.44958
3543.5,0.45189
3545.92,0.45394
3548.35,0.45583
3550.78,0.45759
3553.21,0.45921
3555.65,0.46066
3558.09,0.46196
3560.53,0.46318
3562.98,0.46427
3565.43,0.46515
3567.88,0.46592
3570.34,0.46679
3572.8,0.46789
3575.27,0.46935
3577.73,0.47107
3580.2,0.47289
3582.68,0.47469
3585.16,0.47632
3587.64,0.47792
3590.12,0.47942
3592.61,0.48081
3595.1,0.48217
3597.6,0.48341
3600.09,0.4846
3602.6,0.48579
3605.1,0.48696
3607.61,0.48815
3610.12,0.4893
3612.64,0.49039
3615.16,0.49152
3617.68,0.49261
3620.21,0.49359
3622.74,0.49462
3625.27,0.49564
3627.81,0.49669
3630.35,0.49765
3632.89,0.49858
3635.44,0.49958
3637.99,0.5006
3640.54,0.50154
3643.1,0.50241
3645.66,0.5033
3648.23,0.50428
3650.8,0.50521
3653.37,0.50608
3655.95,0.50698
3658.53,0.50785
3661.11,0.50868
3663.7,0.50955
3666.29,0.51044
3668.89,0.51131
3671.48,0.51213
3674.09,0.51297
3676.69,0.51377
3679.3,0.51458
3681.91,0.51544
3684.53,0.5163
3687.15,0.51706
3689.78,0.51776
3692.4,0.51859
3695.04,0.51938
3697.67,0.52001
3700.31,0.52066
3702.95,0.52138
3705.6,0.52217
3708.25,0.52292
3710.91,0.52349
3713.56,0.52409
3716.23,0.52478
3718.89,0.52545
3721.56,0.52609
3724.23,0.5266
3726.91,0.52714
3729.59,0.52769
3732.28,0.52828
3734.97,0.52885
3737.66,0.5293
3740.36,0.52968
3743.06,0.53004
3745.76,0.53039
3748.47,0.53088
3751.18,0.53135
3753.9,0.53176
3756.62,0.53218
3759.34,0.53257
3762.07,0.53288
3764.8,0.53313
3767.54,0.53333
3770.28,0.53345
3773.02,0.53353
3775.77,0.53348
3778.52,0.53335
3781.28,0.53302
3784.04,0.53249
3786.8,0.53166
3789.57,0.53042
3792.34,0.52858
3795.12,0.52615
3797.9,0.52324
3800.69,0.52001
3803.47,0.51655
3806.27,0.51305
3809.06,0.50957
3811.86,0.50618
3814.67,0.5028
3817.48,0.49941
3820.29,0.49593
3823.11,0.49238
3825.93,0.48866
3828.76,0.48475
3831.59,0.48062
3834.42,0.47646
3837.26,0.47264
3840.1,0.46955
3842.95,0.46727
3845.8,0.46566
3848.65,0.46442
3851.51,0.46344
3854.38,0.46263
3857.24,0.46191
3860.12,0.46115
3862.99,0.46038
3865.87,0.45955
3868.76,0.45873
3871.65,0.45795
3874.54,0.45722
3877.44,0.45626
3880.34,0.45506
3883.25,0.45365
3886.16,0.45192
3889.07,0.44972
3891.99,0.44715
3894.92,0.44441
3897.85,0.44188
3900.78,0.44002
3903.72,0.43931
3906.66,0.43978
3909.6,0.44113
3912.55,0.44265
3915.51,0.44377
3918.47,0.44414
3921.43,0.44373
3924.4,0.44261
3927.38,0.44115
3930.35,0.4402
3933.33,0.44018
3936.32,0.43932
3939.31,0.43485
3942.31,0.42624
3945.31,0.41623
3948.31,0.40651
3951.32,0.39678
3954.34,0.38717
3957.35,0.37867
3960.38,0.37156
3963.41,0.36562
3966.44,0.36087
3969.48,0.35742
3972.52,0.35483
3975.56,0.35279
3978.61,0.3513
3981.67,0.35086
3984.73,0.35232
3987.8,0.35631
3990.87,0.36259
3993.94,0.37071
3997.02,0.38033
4000.1,0.3913
4003.19,0.40354
4006.29,0.41715
4009.39,0.4317
4012.49,0.44595
4015.6,0.458
4018.71,0.46695
4021.83,0.47362
4024.95,0.47954
4028.08,0.48536
4031.21,0.49103
4034.35,0.49661
4037.49,0.50261
4040.64,0.50892
4043.79,0.51503
4046.94,0.52039
4050.11,0.52493
4053.27,0.52863
4056.44,0.5316
4059.62,0.53392
4062.8,0.53582
4065.99,0.5374
4069.18,0.53887
4072.38,0.54026
4075.58,0.54158
4078.78,0.54275
4082.0,0.54382
4085.21,0.54472
4088.43,0.54557
4091.66,0.54627
4094.89,0.5469
4098.13,0.54747
4101.37,0.54801
4104.62,0.54846
4107.87,0.54892
4111.13,0.54932
4114.39,0.54972
4117.66,0.55009
4120.93,0.55047
4124.21,0.55076
4127.5,0.55104
4130.79,0.55125
4134.08,0.55147
4137.38,0.55162
4140.68,0.55177
4143.99,0.55182
4147.31,0.55188
4150.63,0.55189
4153.95,0.55184
4157.29,0.55175
4160.62,0.55169
4163.96,0.55154
4167.31,0.55141
4170.66,0.55122
4174.02,0.55101
4177.39,0.55073
4180.75,0.5505
4184.13,0.55023
4187.51,0.54998
4190.89,0.54963
4194.28,0.54926
4197.68,0.54877
4201.08,0.54819
4204.49,0.54742
4207.9,0.54656
4211.32,0.54558
4214.74,0.54456
4218.17,0.54351
4221.61,0.54259
4225.05,0.5417
4228.5,0.54093
4231.95,0.54024
4235.4,0.53973
4238.87,0.53928
4242.34,0.53898
4245.81,0.53882
4249.29,0.53896
4252.78,0.53925
4256.27,0.53926
4259.77,0.53829
4263.27,0.53694
4266.78,0.53586
4270.29,0.53509
4273.81,0.53438
4277.34,0.53376
4280.87,0.5331
4284.41,0.53247
4287.95,0.53177
4291.5,0.53122
4295.06,0.53067
4298.62,0.53013
4302.19,0.52949
4305.76,0.5289
4309.34,0.52833
4312.92,0.52786
4316.52,0.52741
4320.11,0.52702
4323.72,0.52654
4327.32,0.52605
4330.94,0.52551
4334.56,0.52505
4338.19,0.52457
4341.82,0.5241
4345.46,0.52357
4349.11,0.52311
4352.76,0.52265
4356.42,0.52232
4360.08,0.52198
4363.75,0.52168
4367.43,0.5213
4371.11,0.52096
4374.8,0.52055
4378.49,0.52016
4382.19,0.5197
4385.9,0.51924
4389.61,0.51872
4393.33,0.51826
4397.06,0.51778
4400.79,0.51738
4404.53,0.51694
4408.28,0.51653
4412.03,0.5161
4415.79,0.51576
4419.55,0.51533
4423.32,0.51497
4427.1,0.51455
4430.88,0.51413
4434.68,0.51369
4438.47,0.51329
4442.28,0.5128
4446.08,0.51234
4449.9,0.51187
4453.72,0.51147
4457.55,0.51103
4461.39,0.51066
4465.23,0.51024
4469.08,0.50985
4472.94,0.50939
4476.8,0.50893
4480.67,0.50842
4484.55,0.50797
4488.43,0.50743
4492.32,0.50696
4496.21,0.5065
4500.12,0.50606
4504.03,0.50561
4507.94,0.50525
4511.87,0.50482
4515.8,0.50444
4519.73,0.50397
4523.68,0.50347
4527.63,0.50286
4531.59,0.50226
4535.55,0.50152
4539.52,0.50075
4543.5,0.49981
4547.49,0.49881
4551.48,0.49773
4555.48,0.4967
4559.49,0.49562
4563.5,0.4947
4567.52,0.49385
4571.55,0.49309
4575.58,0.49229
4579.63,0.49155
4583.67,0.49074
4587.73,0.4899
4591.79,0.48889
4595.86,0.48783
4599.94,0.48663
4604.03,0.48542
4608.12,0.48404
4612.22,0.48255
4616.33,0.4808
4620.44,0.47893
4624.56,0.47685
4628.69,0.47473
4632.83,0.47238
4636.97,0.46989
4641.12,0.46724
4645.28,0.46458
4649.45,0.46188
4653.62,0.45933
4657.8,0.45708
4661.99,0.45534
4666.19,0.45397
4670.39,0.45306
4674.6,0.45245
4678.82,0.45221
4683.05,0.45222
4687.28,0.45259
4691.52,0.45315
4695.77,0.45399
4700.03,0.45504
4704.3,0.45634
4708.57,0.45767
4712.85,0.45895
4717.14,0.4599
4721.43,0.46051
4725.74,0.46061
4730.05,0.46032
4734.37,0.45954
4738.7,0.45858
4743.03,0.45748
4747.38,0.45648
4751.73,0.45544
4756.09,0.45439
4760.45,0.45328
4764.83,0.45236
4769.21,0.45162
4773.6,0.45109
4778.0,0.45051
4782.41,0.44996
4786.83,0.44931
4791.25,0.44867
4795.68,0.44786
4800.13,0.4469
4804.57,0.44571
4809.03,0.44446
4813.5,0.44297
4817.97,0.44136
4822.45,0.43957
4826.94,0.43792
4831.44,0.43655
4835.95,0.43588
4840.46,0.43575
4844.99,0.43591
4849.52,0.43587
4854.06,0.43553
4858.61,0.43468
4863.17,0.43353
4867.73,0.4323
4872.31,0.43136
4876.89,0.43064
4881.48,0.43018
4886.08,0.42969
4890.69,0.42915
4895.31,0.42819
4899.94,0.42671
4904.57,0.42459
4909.22,0.42228
4913.87,0.42022
4918.53,0.41904
4923.21,0.41874
4927.88,0.41919
4932.57,0.41996
4937.27,0.42098
4941.98,0.42201
4946.69,0.42311
4951.42,0.42406
4956.15,0.42492
4960.9,0.42552
4965.65,0.42604
4970.41,0.42628
4975.18,0.42637
4979.96,0.42621
4984.75,0.42587
4989.54,0.42525
4994.35,0.42464
4999.17,0.42402
5003.99,0.42359
5008.83,0.42308
5013.67,0.42258
5018.52,0.42206
5023.39,0.4217
5028.26,0.42156
5033.14,0.42191
5038.03,0.4224
5042.93,0.42293
5047.84,0.42301
5052.76,0.42276
5057.69,0.42214
5062.63,0.4214
5067.58,0.42049
5072.54,0.41962
5077.51,0.41866
5082.49,0.4177
5087.47,0.41633
5092.47,0.41434
5097.48,0.41187
5102.5,0.41049
5107.52,0.40984
5112.56,0.40911
5117.61,0.40792
5122.66,0.40656
5127.73,0.4051
5132.81,0.40367
5137.89,0.40189
5142.99,0.39977
5148.1,0.39699
5153.22,0.39374
5158.34,0.3901
5163.48,0.38633
5168.63,0.3823
5173.79,0.37825
5178.96,0.3741
5184.13,0.37009
5189.32,0.36632
5194.52,0.3632
5199.73,0.36067
5204.96,0.35875
5210.19,0.35721
5215.43,0.35588
5220.68,0.35449
5225.94,0.35331
5231.22,0.35222
5236.5,0.35138
5241.79,0.35069
5247.1,0.35044
5252.42,0.3505
5257.74,0.35105
5263.08,0.35205
5268.43,0.35395
5273.79,0.35702
5279.16,0.36178
5284.54,0.36806
5289.93,0.37579
5295.34,0.38403
5300.75,0.39234
5306.18,0.40013
5311.61,0.40705
5317.06,0.41257
5322.52,0.41692
5327.99,0.41993
5333.47,0.42197
5338.96,0.42297
5344.47,0.42347
5349.98,0.42327
5355.51,0.4226
5361.05,0.42141
5366.6,0.42006
5372.16,0.41856
5377.73,0.41778
5383.32,0.41785
5388.91,0.41898
5394.52,0.42034
5400.14,0.42148
5405.77,0.4217
5411.41,0.42115
5417.07,0.41981
5422.74,0.41785
5428.41,0.41512
5434.1,0.4127
5439.81,0.41029
5445.52,0.40819
5451.25,0.40599
5456.98,0.40389
5462.73,0.4014
5468.5,0.39851
5474.27,0.39529
5480.06,0.39188
5485.86,0.38789
5491.67,0.38382
5497.49,0.37927
5503.33,0.37453
5509.18,0.36919
5515.04,0.36335
5520.91,0.35607
5526.8,0.34703
5532.69,0.33516
5538.61,0.31926
5544.53,0.29762
5550.47,0.27176
5556.41,0.24995
5562.38,0.24009
5568.35,0.23872
5574.34,0.23906
5580.34,0.24636
5586.35,0.26612
5592.38,0.28992
5598.42,0.30834
5604.47,0.32014
5610.54,0.32719
5616.61,0.33145
5622.71,0.33386
5628.81,0.33512
5634.93,0.33584
5641.06,0.33588
5647.21,0.33494
5653.36,0.33336
5659.54,0.33112
5665.72,0.32868
5671.92,0.32643
5678.13,0.32326
5684.36,0.31983
5690.6,0.31628
5696.85,0.31214
5703.12,0.30761
5709.4,0.30272
5715.69,0.29747
5722.0,0.29269
5728.33,0.28829
5734.66,0.28449
5741.01,0.28098
5747.38,0.27759
5753.76,0.27414
5760.15,0.27147
5766.56,0.26857
5772.98,0.26551
5779.41,0.26297
5785.86,0.26067
5792.33,0.25846
5798.81,0.25635
5805.3,0.25421
5811.81,0.25244
5818.33,0.25102
5824.87,0.24961
5831.42,0.24839
5837.99,0.24764
5844.57,0.24697
5851.17,0.2463
5857.78,0.24532
5864.41,0.24397
5871.05,0.24229
5877.7,0.24073
5884.38,0.2381
5891.06,0.23566
5897.76,0.2328
5904.48,0.22954
5911.21,0.22639
5917.96,0.22298
5924.73,0.21936
5931.5,0.21613
5938.3,0.21243
5945.11,0.2091
5951.93,0.20639
5958.78,0.20422
5965.63,0.20232
5972.51,0.20023
5979.39,0.19806
5986.3,0.19584
5993.22,0.19297
6000.16,0.18999
6007.11,0.18701
6014.08,0.18393
6021.06,0.18067
6028.06,0.17765
6035.08,0.17482
6042.12,0.17266
6049.17,0.17018
6056.23,0.16756
6063.32,0.16568
6070.42,0.16417
6077.53,0.16249
6084.67,0.16114
6091.82,0.16018
6098.98,0.15966
6106.17,0.15962
6113.37,0.16014
6120.58,0.16079
6127.82,0.16198
6135.07,0.16366
6142.34,0.16562
6149.63,0.16762
6156.93,0.16985
6164.25,0.17222
6171.59,0.17485
6178.95,0.1779
6186.32,0.18113
6193.71,0.1836
6201.12,0.18565
6208.54,0.18738
6215.99,0.18895
6223.45,0.19057
6230.93,0.19237
6238.43,0.19425
6245.95,0.19614
6253.48,0.19791
6261.03,0.19949
6268.6,0.20077
6276.19,0.20159
6283.8,0.20162
6291.43,0.20116
6299.07,0.20089
6306.73,0.20109
6314.42,0.20141
6322.12,0.20167
6329.84,0.20213
6337.57,0.20337
6345.33,0.20458
6353.11,0.20491
6360.9,0.20504
6368.72,0.20518
6376.55,0.20513
6384.4,0.20533
6392.27,0.20603
6400.17,0.20731
6408.08,0.20933
6416.01,0.21146
6423.96,0.21286
6431.93,0.21403
6439.92,0.21447
6447.93,0.21394
6455.96,0.21235
6464.01,0.21023
6472.08,0.20787
6480.17,0.20545
6488.28,0.2029
6496.41,0.19975
6504.56,0.19633
6512.73,0.19337
6520.92,0.19
6529.14,0.18634
6537.37,0.1827
6545.63,0.17908
6553.9,0.17526
6562.2,0.17163
6570.51,0.16793
6578.85,0.16398
6587.21,0.16018
6595.59,0.15635
6603.99,0.15251
6612.42,0.14894
6620.86,0.14551
6629.33,0.14257
6637.82,0.13932
6646.33,0.13616
6654.86,0.13344
6663.41,0.13106
6671.99,0.12882
6680.59,0.12678
6689.21,0.12472
6697.85,0.12304
6706.51,0.12146
6715.2,0.11987
6723.91,0.11823
6732.64,0.11677
6741.4,0.11536
6750.18,0.1141
6758.98,0.11286
6767.8,0.11179
6776.65,0.11069
6785.52,0.10965
6794.41,0.10839
6803.33,0.10719
6812.27,0.10606
6821.23,0.10509
6830.22,0.10401
6839.23,0.10303
6848.26,0.10211
6857.32,0.10139
6866.4,0.10049
6875.51,0.09964
6884.64,0.09901
6893.8,0.09866
6902.98,0.09843
6912.18,0.09825
6921.41,0.09805
6930.66,0.09798
6939.94,0.0979
6949.24,0.09806
6958.57,0.09829
6967.92,0.0985
6977.3,0.09876
6986.7,0.09927
6996.13,0.09979
7005.59,0.1004
7015.07,0.10111
7024.57,0.10204
7034.1,0.10304
7043.66,0.10429
7053.25,0.10547
7062.85,0.10666
7072.49,0.10785
7082.15,0.10899
7091.84,0.10978
7101.55,0.10993
7111.3,0.10916
7121.06,0.10785
7130.86,0.10677
7140.68,0.1067
7150.53,0.10744
7160.41,0.10858
7170.31,0.10988
7180.24,0.11132
7190.2,0.11302
7200.19,0.11506
7210.2,0.11727
7220.24,0.11952
7230.31,0.12185
7240.41,0.12415
7250.54,0.12625
7260.69,0.12824
7270.88,0.13027
7281.09,0.1325
7291.33,0.13494
7301.6,0.13766
7311.9,0.14053
7322.22,0.1433
7332.58,0.14595
7342.97,0.14835
7353.38,0.15039
7363.83,0.1522
7374.3,0.15398
7384.81,0.1555
7395.34,0.15664
7405.91,0.15747
7416.5,0.15818
7427.13,0.15885
7437.78,0.15958
7448.47,0.16031
7459.19,0.16107
7469.94,0.16169
7480.71,0.16213
7491.52,0.1624
7502.37,0.16249
7513.24,0.1624
7524.14,0.16218
7535.08,0.16187
7546.05,0.16157
7557.05,0.16127
7568.08,0.16107
7579.15,0.16098
7590.24,0.161
7601.37,0.16121
7612.53,0.16178
7623.73,0.16272
7634.96,0.16389
7646.22,0.16507
7657.51,0.1663
7668.84,0.16744
7680.2,0.16842
7691.59,0.16915
7703.02,0.16969
7714.49,0.16993
7725.98,0.16983
7737.52,0.16932
7749.08,0.16853
7760.68,0.16756
7772.32,0.16638
7783.99,0.16493
7795.69,0.16347
7807.43,0.16227
7819.21,0.16141
7831.02,0.16059
7842.87,0.1595
7854.75,0.15798
7866.67,0.15608
7878.62,0.15396
7890.62,0.1519
7902.64,0.15021
7914.71,0.14902
7926.81,0.14824
7938.95,0.14767
7951.13,0.14711
7963.34,0.14642
7975.59,0.14546
7987.88,0.14417
8000.21,0.14261
8012.57,0.14081
8024.98,0.1387
8037.42,0.13631
8049.9,0.13385
8062.42,0.13163
8074.98,0.12982
8087.57,0.12827
8100.21,0.12669
8112.89,0.12487
8125.6,0.12284
8138.36,0.1206
8151.16,0.11829
8163.99,0.11601
8176.87,0.11392
8189.79,0.11185
8202.75,0.10968
8215.75,0.10746
8228.79,0.10525
8241.87,0.10296
8254.99,0.10065
8268.16,0.09834
8281.37,0.09603
8294.62,0.09363
8307.91,0.09124
8321.24,0.08878
8334.62,0.08628
8348.04,0.08374
8361.51,0.08114
8375.02,0.07852
8388.57,0.07592
8402.16,0.07338
8415.8,0.07107
8429.49,0.06898
8443.22,0.06705
8456.99,0.0651
8470.81,0.06335
8484.67,0.06194
8498.58,0.06096
8512.54,0.06029
8526.54,0.05987
8540.58,0.05949
8554.68,0.05915
8568.82,0.05879
8583.0,0.05858
8597.24,0.05861
8611.52,0.05901
8625.85,0.05974
8640.23,0.06081
8654.65,0.06204
8669.12,0.06347
8683.64,0.06504
8698.21,0.06674
8712.83,0.06849
8727.5,0.07035
8742.22,0.07229
8756.99,0.07438
8771.8,0.07658
8786.67,0.07883
8801.59,0.08085
8816.56,0.08245
8831.58,0.08343
8846.65,0.08395
8861.77,0.08412
8876.94,0.0841
8892.17,0.08389
8907.45,0.08355
8922.78,0.08306
8938.16,0.08243
8953.6,0.08167
8969.09,0.08082
8984.64,0.07996
9000.23,0.07937
9015.89,0.07891
9031.59,0.07861
9047.36,0.07844
9063.17,0.07848
9079.05,0.07875
9094.97,0.07926
9110.96,0.08003
9127.0,0.08109
9143.1,0.08242
9159.25,0.08406
9175.46,0.08596
9191.73,0.08834
9208.06,0.09116
9224.44,0.09405
9240.88,0.09646
9257.38,0.09809
9273.94,0.09898
9290.56,0.09946
9307.24,0.0998
9323.98,0.10008
9340.78,0.10005
9357.64,0.09945
9374.57,0.09802
9391.55,0.09571
9408.59,0.09251
9425.7,0.08865
9442.87,0.08455
9460.1,0.08085
9477.4,0.07798
9494.75,0.07598
9512.17,0.07445
9529.66,0.07302
9547.21,0.07133
9564.83,0.06934
9582.5,0.06721
9600.25,0.06568
9618.06,0.06572
9635.94,0.06804
9653.88,0.07164
9671.89,0.0747
9689.97,0.07642
9708.12,0.07709
9726.33,0.07685
9744.62,0.07575
9762.97,0.07401
9781.39,0.07245
9799.88,0.07164
9818.44,0.07173
9837.07,0.07276
9855.77,0.07451
9874.54,0.07571
9893.39,0.07574
9912.3,0.07481
9931.29,0.07365
9950.36,0.07298
9969.49,0.07302
9988.7,0.07345
10007.98,0.07405
10027.34,0.07466
10046.77,0.07546
10066.28,0.07633
10085.87,0.07708
10105.53,0.07742
10125.26,0.0773
10145.08,0.0768
10164.97,0.07627
10184.94,0.07653
10204.99,0.0787
10225.12,0.08243
10245.33,0.08585
10265.61,0.08792
10285.98,0.08897
10306.43,0.08934
10326.96,0.08924
10347.57,0.08885
10368.27,0.08867
10389.05,0.0889
10409.91,0.08919
10430.86,0.08936
10451.88,0.08953
10473.0,0.08961
10494.2,0.08963
10515.49,0.08959
10536.86,0.08944
10558.32,0.08911
10579.87,0.08868
10601.5,0.08808
10623.23,0.08735
10645.04,0.08654
10666.94,0.0858
10688.94,0.08532
10711.02,0.08522
10733.2,0.08536
10755.47,0.08553
10777.83,0.0856
10800.28,0.08561
10822.83,0.08558
10845.47,0.0853
10868.21,0.0847
10891.04,0.08388
10913.97,0.0829
10936.99,0.08169
10960.12,0.08038
10983.34,0.07986
11006.66,0.08112
11030.07,0.08366
11053.59,0.08578
11077.21,0.08675
11100.93,0.08694
11124.75,0.08677
11148.68,0.08634
11172.71,0.08568
11196.84,0.08502
11221.07,0.08504
11245.41,0.08588
11269.86,0.08588
11294.41,0.08397
11319.07,0.08201
11343.84,0.08147
11368.72,0.0814
11393.7,0.08137
11418.8,0.08223
11444.01,0.08451
11469.33,0.08809
11494.76,0.09293
11520.3,0.09829
11545.96,0.10304
11571.73,0.10728
11597.62,0.11118
11623.62,0.11443
11649.74,0.11727
11675.98,0.11975
11702.34,0.12184
11728.81,0.12341
11755.41,0.12289
11782.13,0.12108
11808.96,0.12487
11835.92,0.13127
11863.01,0.13512
11890.22,0.13757
11917.55,0.13905
11945.01,0.13984
11972.6,0.14035
12000.31,0.14196
12028.16,0.1442
12056.13,0.14615
12084.23,0.14781
12112.46,0.14936
12140.83,0.15076
12169.33,0.1522
12197.96,0.15356
12226.73,0.15486
12255.64,0.15615
12284.68,0.1574
12313.86,0.15847
12343.18,0.15938
12372.64,0.16011
12402.24,0.16065
12431.98,0.16091
12461.86,0.16093
12491.89,0.16074
12522.07,0.16049
12552.38,0.16012
12582.85,0.15948
12613.47,0.15844
12644.23,0.15693
12675.15,0.15506
12706.21,0.15313
12737.43,0.15214
12768.81,0.15207
12800.33,0.15185
12832.02,0.15096
12863.86,0.1495
12895.86,0.14777
12928.02,0.1457
12960.34,0.14339
12992.82,0.14087
13025.46,0.13824
13058.27,0.13531
13091.25,0.13215
13124.39,0.12893
13157.7,0.12568
13191.18,0.12237
13224.83,0.11896
13258.66,0.11552
13292.65,0.11202
13326.83,0.10874
13361.17,0.10567
13395.7,0.10267
13430.4,0.09967
13465.29,0.09644
13500.35,0.09299
13535.6,0.0893
13571.03,0.08562
13606.65,0.08223
13642.46,0.07936
13678.46,0.07726
13714.64,0.07583
13751.02,0.07476
13787.59,0.07377
13824.36,0.07251
13861.32,0.07054
13898.49,0.0673
13935.85,0.06276
13973.41,0.05742
14011.17,0.05404
14049.15,0.05469
14087.32,0.05783
14125.71,0.06033
14164.3,0.061
14203.11,0.06023
14242.13,0.05885
14281.36,0.05711
14320.81,0.05525
14360.49,0.05301
14400.38,0.05056
14440.49,0.04808
14480.82,0.0463
14521.39,0.04579
14562.18,0.04638
14603.2,0.04748
14644.45,0.04827
14685.93,0.04857
14727.66,0.04884
14769.62,0.04953
14811.81,0.05015
14854.25,0.05039
14896.94,0.05031
14939.87,0.04978
14983.05,0.04889
15026.48,0.04782
15070.16,0.04658
15114.1,0.0452
15158.29,0.04418
15202.74,0.04365
15247.46,0.04368
15292.43,0.04465
15337.68,0.04632
15383.19,0.04777
15428.97,0.04897
15475.03,0.0496
15521.36,0.04934
15567.97,0.04855
15614.87,0.04804
15662.04,0.04828
15709.5,0.04916
15757.25,0.05051
15805.29,0.05166
15853.62,0.05262
15902.26,0.05318
15951.19,0.05326
16000.42,0.05325
16049.95,0.05316
16099.8,0.05291
16149.95,0.05289
16200.42,0.0532
16251.21,0.05361
16302.31,0.05407
16353.74,0.05456
16405.49,0.05528
16457.57,0.05614
16509.98,0.05679
16562.73,0.05687
16615.82,0.05672
16669.24,0.0564
16723.02,0.05598
16777.14,0.05534
16831.61,0.05483
16886.43,0.0546
16941.62,0.0546
16997.16,0.05427
17053.08,0.05383
17109.36,0.05381
17166.01,0.05413
17223.04,0.05509
17280.45,0.05649
17338.24,0.05796
17396.43,0.05907
17455.0,0.06011
17513.97,0.06154
17573.34,0.06278
17633.11,0.06392
17693.29,0.06503
17753.89,0.06621
17814.9,0.06763
17876.33,0.06946
17938.18,0.07143
18000.47,0.07361
18063.19,0.07583
18126.35,0.07774
18189.95,0.07951
18254.0,0.08094
18318.5,0.08136
18383.46,0.08132
18448.88,0.08115
18514.77,0.08108
18581.13,0.08105
18647.97,0.08107
18715.29,0.08099
18783.1,0.08077
18851.4,0.08063
18920.2,0.08034
18989.51,0.08013
19059.32,0.07951
19129.65,0.07843
19200.5,0.07712
19271.88,0.07526
19343.79,0.0731
19416.24,0.07045
19489.23,0.06671
19562.77,0.06244
19636.88,0.05774
19711.54,0.05409
19786.78,0.05261
19862.59,0.05496
19938.98,0.06103
20015.96,0.06753
20093.55,0.07251
20171.73,0.07534
20250.53,0.07676
20329.94,0.0776
20409.98,0.0784
20490.65,0.08018
20571.96,0.08288
20653.92,0.08551
20736.54,0.08694
20819.82,0.0874
20903.77,0.0873
20988.4,0.08701
21073.72,0.08629
21159.73,0.08376
21246.46,0.07995
21333.89,0.07631
21422.04,0.07452
21510.93,0.07575
21600.56,0.0801
21690.94,0.08447
21782.08,0.08662
21873.99,0.08634
21966.67,0.08479
22060.15,0.08221
22154.42,0.07914
22249.51,0.07636
22345.41,0.07421
22442.14,0.0729
22539.72,0.07229
22638.14,0.07177
22737.43,0.07132
22837.6,0.07073
22938.65,0.07024
23040.6,0.07032
23143.46,0.07108
23247.24,0.07131
23351.96,0.07074
23457.63,0.07002
23564.25,0.0691
23671.85,0.06799
23780.44,0.06628
23890.02,0.06391
24000.63,0.06112
24112.26,0.05804
24224.93,0.05557
24338.66,0.05397
24453.47,0.05339
24569.36,0.05361
24686.36,0.05344
24804.47,0.05288
24923.73,0.05266
25044.13,0.053
25165.71,0.05517
25288.46,0.05845
25412.43,0.06224
25537.61,0.06617
25664.04,0.06985
25791.72,0.0735
25920.68,0.07694
26057.2,0.08032
26188.8,0.08346
26321.8,0.08596
26456.0,0.08805
26591.7,0.08972
26728.8,0.0914
26867.2,0.09274
27007.2,0.09296
27148.6,0.09315
27291.5,0.09367
27435.9,0.09341
27581.8,0.09295
27729.3,0.09282
27878.4,0.09222
28029.1,0.09076
28181.4,0.09005
28335.4,0.08967
28491.1,0.08902
28648.5,0.08812
28807.7,0.08638
28968.6,0.08422
29131.3,0.08229
29295.9,0.0802
29462.4,0.07899
29630.7,0.07775
29801.0,0.07522
29973.3,0.07343
30147.6,0.07209
30323.9,0.07212
30502.3,0.07462
30682.8,0.07703
30865.4,0.07778
31050.2,0.07828
31237.2,0.07821
31426.5,0.07638
31618.2,0.07434
31812.1,0.07413
32008.5,0.07473
32207.3,0.07495
32408.6,0.07466
32612.5,0.07448
32818.9,0.07459
33027.9,0.0731
33239.6,0.07026
33454.1,0.06982
33671.3,0.07175
33891.4,0.07463
34114.3,0.07622
34340.3,0.07551
34569.2,0.07332
34801.2,0.07057
35036.3,0.06866
35274.7,0.06872
35516.3,0.06928
35761.3,0.06918
36009.6,0.0695
36261.4,0.06964
36516.8,0.06845
36775.8,0.0681
37038.5,0.06959
37304.9,0.07253
37575.2,0.0755
37849.5,0.0766
38127.8,0.07645
38410.2,0.07621
38696.9,0.07531
38987.8,0.07376
39283.2,0.07177
39583.1,0.06841
39887.6,0.06599
40196.8,0.06475
40510.8,0.06282
40829.8,0.06212
41153.9,0.06184
41483.1,0.06178
41817.6,0.06393
42157.5,0.0674
42503.1,0.07027
42854.4,0.07259
43211.5,0.07335
43574.6,0.07315
43943.9,0.0734
44319.6,0.07328
44701.6,0.07345
45090.3,0.07302
45485.9,0.07302
45888.4,0.07243
46298.1,0.07191
46715.2,0.07415
47139.8,0.07781
47572.3,0.08071
48012.8,0.08323
48461.5,0.0848
48918.7,0.08838
49384.6,0.09086
49859.4,0.09111
