Database of Origin, USGS Spectral Database
Sample Description, See USGS database for additional info
Date Added,2016-08-10 04:57:35.170706

Data ID,USGS_jar09          
Sample ID, jarosite_gds98.11426
Mineral Name, jarosite
Material Class,Sulfate

Wavelength
1434.07, 0.753491
1434.46, 0.752232
1434.86, 0.752426
1435.26, 0.751845
1435.66, 0.751457
1436.05, 0.750585
1436.45, 0.750004
1436.85, 0.749519
1437.25, 0.749423
1437.65, 0.748938
1438.05, 0.748744
1438.44, 0.748163
1438.84, 0.747388
1439.24, 0.745935
1439.64, 0.744966
1440.04, 0.744870
1440.44, 0.745063
1440.84, 0.743513
1441.24, 0.742738
1441.65, 0.742448
1442.05, 0.742545
1442.45, 0.742060
1442.85, 0.741188
1443.25, 0.740026
1443.65, 0.739445
1444.05, 0.739348
1444.46, 0.738863
1444.86, 0.737895
1445.26, 0.736538
1445.67, 0.735763
1446.07, 0.735763
1446.47, 0.735473
1446.88, 0.735279
1447.28, 0.734116
1447.68, 0.732663
1448.09, 0.732663
1448.49, 0.732276
1448.9, 0.731113
1449.3, 0.729563
1449.71, 0.728788
1450.11, 0.727916
1450.52, 0.727238
1450.93, 0.726463
1451.33, 0.725882
1451.74, 0.725398
1452.14, 0.724429
1452.55, 0.723266
1452.96, 0.722298
1453.36, 0.721426
1453.77, 0.720554
1454.18, 0.719585
1454.59, 0.719198
1455.0, 0.718035
1455.41, 0.716970
1455.81, 0.716776
1456.22, 0.715226
1456.63, 0.713870
1457.04, 0.713288
1457.45, 0.712513
1457.86, 0.711641
1458.27, 0.710479
1458.68, 0.709123
1459.09, 0.707767
1459.5, 0.707088
1459.91, 0.706701
1460.32, 0.706023
1460.74, 0.704957
1461.15, 0.703698
1461.56, 0.702535
1461.97, 0.702535
1462.39, 0.702342
1462.8, 0.701567
1463.21, 0.701082
1463.62, 0.700404
1464.04, 0.699532
1464.45, 0.698854
1464.86, 0.697885
1465.28, 0.697304
1465.69, 0.697110
1466.11, 0.696917
1466.52, 0.695948
1466.94, 0.695076
1467.35, 0.694688
1467.77, 0.694592
1468.18, 0.694592
1468.6, 0.694592
1469.02, 0.695463
1469.43, 0.694882
1469.85, 0.693720
1470.27, 0.693623
1470.68, 0.694010
1471.1, 0.694107
1471.52, 0.693332
1471.94, 0.692945
1472.35, 0.693817
1472.77, 0.694107
1473.19, 0.693526
1473.61, 0.693235
1474.03, 0.693332
1474.45, 0.693526
1474.87, 0.694688
1475.29, 0.695851
1475.71, 0.696142
1476.13, 0.694979
1476.55, 0.694785
1476.97, 0.695076
1477.39, 0.695367
1477.81, 0.696238
1478.23, 0.696723
1478.65, 0.696626
1479.07, 0.696917
1479.5, 0.696529
1479.92, 0.696335
1480.34, 0.696432
1480.76, 0.697013
1481.19, 0.697304
1481.61, 0.696820
1482.03, 0.697207
1482.46, 0.698079
1482.88, 0.698079
1483.31, 0.697982
1483.73, 0.698273
1484.16, 0.698951
1484.58, 0.699242
1485.01, 0.699145
1485.43, 0.699435
1485.86, 0.699242
1486.28, 0.699532
1486.71, 0.700017
1487.14, 0.699920
1487.56, 0.699726
1487.99, 0.699629
1488.42, 0.699920
1488.84, 0.700307
1489.27, 0.700598
1489.7, 0.700888
1490.13, 0.700985
1490.56, 0.700985
1490.98, 0.700695
1491.41, 0.700792
1491.84, 0.701470
1492.27, 0.702245
1492.7, 0.702245
1493.13, 0.702148
1493.56, 0.701857
1493.99, 0.702148
1494.42, 0.702826
1494.85, 0.703407
1495.29, 0.703795
1495.72, 0.704279
1496.15, 0.703795
1496.58, 0.703988
1497.01, 0.704570
1497.44, 0.704860
1497.88, 0.704957
1498.31, 0.704279
1498.74, 0.704279
1499.18, 0.705248
1499.61, 0.706120
1500.04, 0.706798
1500.48, 0.706895
1500.91, 0.707282
1501.35, 0.707476
1501.78, 0.706992
1502.22, 0.706895
1502.65, 0.707573
1503.09, 0.707573
1503.53, 0.708154
1503.96, 0.708251
1504.4, 0.708154
1504.83, 0.708348
1505.27, 0.708735
1505.71, 0.708638
1506.15, 0.709413
1506.58, 0.710479
1507.02, 0.710770
1507.46, 0.710867
1507.9, 0.710576
1508.34, 0.710770
1508.78, 0.710963
1509.21, 0.711060
1509.66, 0.711254
1510.09, 0.711835
1510.53, 0.712804
1510.97, 0.712901
1511.42, 0.712804
1511.86, 0.712998
1512.3, 0.713288
1512.74, 0.713579
1513.18, 0.713288
1513.62, 0.713482
1514.06, 0.714451
1514.51, 0.715129
1514.95, 0.715323
1515.39, 0.715613
1515.83, 0.716001
1516.28, 0.715807
1516.72, 0.715323
1517.16, 0.715613
1517.61, 0.716098
1518.05, 0.716582
1518.5, 0.716679
1518.94, 0.717163
1519.39, 0.717648
1519.83, 0.717648
1520.28, 0.717648
1520.73, 0.717841
1521.17, 0.719004
1521.62, 0.719585
1522.07, 0.719391
1522.51, 0.719585
1522.96, 0.719779
1523.41, 0.719876
1523.85, 0.720651
1524.3, 0.721813
1524.75, 0.722104
1525.2, 0.721910
1525.65, 0.721813
1526.1, 0.722395
1526.55, 0.723073
1527.0, 0.722879
1527.45, 0.723363
1527.9, 0.724041
1528.35, 0.724526
1528.8, 0.724623
1529.25, 0.724526
1529.7, 0.724720
1530.15, 0.725204
1530.6, 0.725204
1531.05, 0.725785
1531.51, 0.726366
1531.96, 0.726657
1532.41, 0.727045
1532.87, 0.726560
1533.32, 0.726948
1533.77, 0.727820
1534.23, 0.728304
1534.68, 0.728498
1535.14, 0.728595
1535.59, 0.728788
1536.05, 0.729466
1536.5, 0.729660
1536.96, 0.729660
1537.41, 0.730048
1537.87, 0.731113
1538.32, 0.731985
1538.78, 0.732082
1539.24, 0.732082
1539.7, 0.732276
1540.15, 0.732082
1540.61, 0.732470
1541.07, 0.733632
1541.53, 0.734213
1541.98, 0.733923
1542.44, 0.733729
1542.9, 0.734020
1543.36, 0.735182
1543.82, 0.735570
1544.28, 0.735376
1544.74, 0.735860
1545.2, 0.736635
1545.66, 0.737701
1546.12, 0.737991
1546.59, 0.737604
1547.05, 0.737507
1547.51, 0.737991
1547.97, 0.738573
1548.43, 0.738670
1548.9, 0.738573
1549.36, 0.739348
1549.82, 0.739541
1550.29, 0.739638
1550.75, 0.740123
1551.21, 0.740607
1551.68, 0.740704
1552.14, 0.740704
1552.61, 0.740607
1553.07, 0.740704
1553.54, 0.741285
1554.0, 0.741576
1554.47, 0.741963
1554.93, 0.742448
1555.4, 0.742835
1555.87, 0.742932
1556.34, 0.742932
1556.8, 0.743804
1557.27, 0.744385
1557.74, 0.744288
1558.21, 0.744579
1558.68, 0.745063
1559.14, 0.745548
1559.61, 0.746032
1560.08, 0.746226
1560.55, 0.746516
1561.02, 0.746807
1561.49, 0.747001
1561.96, 0.747098
1562.43, 0.747195
1562.9, 0.747679
1563.38, 0.748066
1563.85, 0.747873
1564.32, 0.748066
1564.79, 0.748551
1565.26, 0.749035
1565.74, 0.749229
1566.21, 0.749713
1566.68, 0.750585
1567.16, 0.750779
1567.63, 0.750973
1568.1, 0.751069
1568.58, 0.750973
1569.05, 0.750876
1569.53, 0.751457
1570.0, 0.752135
1570.48, 0.751845
1570.96, 0.752232
1571.43, 0.752716
1571.91, 0.752910
1572.39, 0.752910
1572.86, 0.752910
1573.34, 0.753491
1573.82, 0.753976
1574.3, 0.754460
1574.77, 0.754363
1575.25, 0.754266
1575.73, 0.754945
1576.21, 0.755623
1576.69, 0.755526
1577.17, 0.754751
1577.65, 0.755235
1578.13, 0.755719
1578.61, 0.756010
1579.09, 0.755816
1579.57, 0.755816
1580.05, 0.756204
1580.54, 0.757173
1581.02, 0.757560
1581.5, 0.757366
1581.98, 0.757173
1582.47, 0.757560
1582.95, 0.758045
1583.43, 0.758432
1583.92, 0.758723
1584.4, 0.758916
1584.88, 0.759013
1585.37, 0.758819
1585.85, 0.759304
1586.34, 0.759982
1586.82, 0.759788
1587.31, 0.759691
1587.8, 0.759982
1588.28, 0.759595
1588.77, 0.759691
1589.26, 0.760660
1589.74, 0.760854
1590.23, 0.760854
1590.72, 0.760660
1591.21, 0.760854
1591.7, 0.761532
1592.19, 0.761532
1592.67, 0.761435
1593.16, 0.761726
1593.65, 0.761629
1594.14, 0.761532
1594.63, 0.761629
1595.12, 0.762210
1595.61, 0.762307
1596.11, 0.762501
1596.6, 0.762791
1597.09, 0.762985
1597.58, 0.762791
1598.08, 0.763179
1598.57, 0.762791
1599.06, 0.763469
1599.55, 0.763857
1600.05, 0.764051
1600.54, 0.764535
1601.04, 0.764729
1601.53, 0.764923
1602.03, 0.765213
1602.52, 0.765310
1603.02, 0.765407
1603.51, 0.765988
1604.01, 0.766279
1604.5, 0.765988
1605.0, 0.765794
1605.5, 0.765601
1606.0, 0.765794
1606.49, 0.766182
1606.99, 0.766376
1607.49, 0.766376
1607.99, 0.766763
1608.49, 0.767248
1608.99, 0.767344
1609.49, 0.766860
1609.99, 0.766957
1610.49, 0.767635
1610.99, 0.768119
1611.49, 0.768023
1611.99, 0.768216
1612.49, 0.768507
1612.99, 0.768894
1613.49, 0.769185
1614.0, 0.769185
1614.5, 0.768991
1615.0, 0.768894
1615.51, 0.768410
1616.01, 0.768604
1616.51, 0.769185
1617.02, 0.769669
1617.52, 0.769573
1618.03, 0.769476
1618.53, 0.769863
1619.04, 0.770057
1619.54, 0.770057
1620.05, 0.770348
1620.55, 0.770638
1621.06, 0.771026
1621.57, 0.771316
1622.08, 0.771413
1622.58, 0.771801
1623.09, 0.771897
1623.6, 0.771897
1624.11, 0.771897
1624.62, 0.772091
1625.13, 0.772769
1625.64, 0.772866
1626.15, 0.772866
1626.66, 0.772866
1627.17, 0.772576
1627.68, 0.772479
1628.19, 0.773351
1628.7, 0.773544
1629.21, 0.773738
1629.72, 0.773738
1630.24, 0.773544
1630.75, 0.774223
1631.26, 0.774513
1631.78, 0.774319
1632.29, 0.774126
1632.8, 0.774223
1633.32, 0.774416
1633.83, 0.774126
1634.35, 0.773738
1634.86, 0.774319
1635.38, 0.774513
1635.9, 0.774998
1636.41, 0.775676
1636.93, 0.776063
1637.45, 0.775385
1637.96, 0.775869
1638.48, 0.775869
1639.0, 0.775482
1639.52, 0.775579
1640.04, 0.776257
1640.56, 0.776644
1641.08, 0.776548
1641.59, 0.776160
1642.11, 0.776548
1642.63, 0.776741
1643.16, 0.776935
1643.68, 0.776838
1644.2, 0.776548
1644.72, 0.776548
1645.24, 0.776548
1645.76, 0.776548
1646.29, 0.776741
1646.81, 0.777032
1647.33, 0.777419
1647.86, 0.777710
1648.38, 0.777032
1648.9, 0.776354
1649.43, 0.776838
1649.95, 0.777613
1650.48, 0.777323
1651.0, 0.776935
1651.53, 0.777226
1652.06, 0.777516
1652.58, 0.778001
1653.11, 0.778098
1653.64, 0.777904
1654.17, 0.777613
1654.69, 0.777419
1655.22, 0.777613
1655.75, 0.777613
1656.28, 0.777807
1656.81, 0.777613
1657.34, 0.777807
1657.87, 0.778485
1658.4, 0.777904
1658.93, 0.777516
1659.46, 0.777613
1659.99, 0.777710
1660.52, 0.777613
1661.05, 0.778001
1661.59, 0.778291
1662.12, 0.778388
1662.65, 0.777904
1663.19, 0.777807
1663.72, 0.778291
1664.26, 0.778194
1664.79, 0.778194
1665.32, 0.778291
1665.86, 0.778194
1666.39, 0.778679
1666.93, 0.779066
1667.47, 0.778679
1668.0, 0.778485
1668.54, 0.778679
1669.08, 0.778776
1669.61, 0.778582
1670.15, 0.778873
1670.69, 0.779260
1671.23, 0.779260
1671.77, 0.779454
1672.31, 0.779647
1672.85, 0.779454
1673.39, 0.779551
1673.93, 0.779357
1674.47, 0.779260
1675.01, 0.779357
1675.55, 0.779454
1676.09, 0.779647
1676.64, 0.779647
1677.18, 0.779357
1677.72, 0.779454
1678.26, 0.779938
1678.81, 0.779938
1679.35, 0.779744
1679.89, 0.779841
1680.44, 0.780229
1680.98, 0.780326
1681.53, 0.780423
1682.07, 0.780616
1682.62, 0.780326
1683.17, 0.779551
1683.71, 0.780132
1684.26, 0.780423
1684.81, 0.780326
1685.36, 0.780616
1685.9, 0.781004
1686.45, 0.780713
1687.0, 0.780326
1687.55, 0.780519
1688.1, 0.781004
1688.65, 0.781391
1689.2, 0.781585
1689.75, 0.781682
1690.3, 0.781101
1690.85, 0.781004
1691.41, 0.781585
1691.96, 0.781682
1692.51, 0.781294
1693.06, 0.781488
1693.61, 0.781779
1694.17, 0.781973
1694.72, 0.782457
1695.28, 0.782748
1695.83, 0.782554
1696.39, 0.782554
1696.94, 0.782651
1697.5, 0.782457
1698.05, 0.782554
1698.61, 0.782844
1699.17, 0.782844
1699.72, 0.782554
1700.28, 0.782554
1700.84, 0.782651
1701.4, 0.782457
1701.95, 0.782360
1702.51, 0.782457
1703.07, 0.782941
1703.63, 0.783038
1704.19, 0.783038
1704.75, 0.783135
1705.31, 0.782554
1705.88, 0.782457
1706.44, 0.782457
1707.0, 0.782651
1707.56, 0.782748
1708.12, 0.782554
1708.69, 0.782554
1709.25, 0.782554
1709.81, 0.782263
1710.38, 0.782263
1710.94, 0.782457
1711.51, 0.782457
1712.07, 0.782748
1712.64, 0.782748
1713.2, 0.782651
1713.77, 0.782941
1714.34, 0.783038
1714.9, 0.783038
1715.47, 0.782748
1716.04, 0.782554
1716.61, 0.782457
1717.18, 0.782263
1717.74, 0.781779
1718.31, 0.781779
1718.88, 0.782457
1719.45, 0.782554
1720.02, 0.782166
1720.59, 0.782457
1721.17, 0.782748
1721.74, 0.782360
1722.31, 0.782069
1722.88, 0.781779
1723.45, 0.782069
1724.03, 0.782069
1724.6, 0.781973
1725.18, 0.781779
1725.75, 0.781294
1726.33, 0.781198
1726.9, 0.781488
1727.48, 0.781779
1728.05, 0.781488
1728.63, 0.781391
1729.2, 0.781488
1729.78, 0.781294
1730.36, 0.781198
1730.94, 0.781294
1731.51, 0.780616
1732.09, 0.780229
1732.67, 0.780132
1733.25, 0.780132
1733.83, 0.780519
1734.41, 0.780519
1734.99, 0.780326
1735.57, 0.780035
1736.15, 0.780616
1736.73, 0.780035
1737.32, 0.779551
1737.9, 0.779647
1738.48, 0.779647
1739.07, 0.780132
1739.65, 0.780035
1740.23, 0.779647
1740.82, 0.779454
1741.4, 0.779260
1741.99, 0.779357
1742.57, 0.779647
1743.16, 0.779744
1743.74, 0.779744
1744.33, 0.779454
1744.92, 0.779454
1745.51, 0.779357
1746.09, 0.779163
1746.68, 0.778873
1747.27, 0.778873
1747.86, 0.778679
1748.45, 0.778582
1749.04, 0.778485
1749.63, 0.778388
1750.22, 0.778582
1750.81, 0.778388
1751.4, 0.778194
1751.99, 0.778194
1752.59, 0.778194
1753.18, 0.778291
1753.77, 0.778485
1754.37, 0.778485
1754.96, 0.778098
1755.56, 0.777904
1756.15, 0.777710
1756.74, 0.777710
1757.34, 0.777419
1757.94, 0.777516
1758.53, 0.777419
1759.13, 0.777419
1759.73, 0.777419
1760.32, 0.777032
1760.92, 0.776935
1761.52, 0.776741
1762.12, 0.776548
1762.72, 0.776741
1763.32, 0.776935
1763.92, 0.776838
1764.52, 0.776548
1765.12, 0.776451
1765.72, 0.776451
1766.32, 0.776257
1766.92, 0.776257
1767.53, 0.776160
1768.13, 0.776160
1768.73, 0.776063
1769.34, 0.775676
1769.94, 0.775773
1770.55, 0.775869
1771.15, 0.775869
1771.76, 0.775676
1772.36, 0.775288
1772.97, 0.775579
1773.57, 0.775482
1774.18, 0.775385
1774.79, 0.775676
1775.4, 0.775869
1776.0, 0.775676
1776.61, 0.774998
1777.22, 0.774804
1777.83, 0.774707
1778.44, 0.774804
1779.05, 0.774998
1779.66, 0.775288
1780.27, 0.774998
1780.88, 0.774223
1781.5, 0.773932
1782.11, 0.773932
1782.72, 0.773835
1783.33, 0.774223
1783.95, 0.774126
1784.56, 0.773544
1785.18, 0.773448
1785.79, 0.773254
1786.41, 0.772963
1787.02, 0.772866
1787.64, 0.773351
1788.26, 0.772866
1788.87, 0.772673
1789.49, 0.772769
1790.11, 0.772576
1790.73, 0.772188
1791.35, 0.771897
1791.96, 0.771704
1792.58, 0.771510
1793.21, 0.771607
1793.83, 0.771994
1794.45, 0.771994
1795.07, 0.771316
1795.69, 0.770348
1796.31, 0.770154
1796.93, 0.770735
1797.56, 0.771123
1798.18, 0.770735
1798.8, 0.770154
1799.43, 0.769766
1800.05, 0.769766
1800.68, 0.769669
1801.3, 0.768991
1801.93, 0.768604
1802.56, 0.768410
1803.18, 0.768313
1803.81, 0.768604
1804.44, 0.768604
1805.07, 0.768216
1805.7, 0.767248
1806.33, 0.766569
1806.95, 0.766569
1807.58, 0.766763
1808.22, 0.766666
1808.85, 0.766569
1809.48, 0.766085
1810.11, 0.765407
1810.74, 0.765116
1811.38, 0.764729
1812.01, 0.764341
1812.64, 0.764051
1813.28, 0.764438
1813.91, 0.764148
1814.55, 0.763373
1815.18, 0.762404
1815.82, 0.762598
1816.45, 0.762598
1817.09, 0.762307
1817.73, 0.762016
1818.36, 0.761919
1819.0, 0.761919
1819.64, 0.760176
1820.28, 0.758819
1820.92, 0.759110
1821.56, 0.759207
1822.2, 0.759498
1822.84, 0.759691
1823.48, 0.759788
1824.12, 0.759401
1824.76, 0.758819
1825.41, 0.756301
1826.05, 0.753879
1826.69, 0.755041
1827.34, 0.756107
1827.98, 0.755332
1828.63, 0.754460
1829.27, 0.753879
1829.92, 0.752523
1830.56, 0.750198
1831.21, 0.749616
1831.86, 0.750004
1832.5, 0.749229
1833.15, 0.748938
1833.8, 0.748163
1834.45, 0.745838
1835.1, 0.743513
1835.75, 0.740898
1836.4, 0.739929
1837.05, 0.739445
1837.7, 0.737895
1838.35, 0.738282
1839.01, 0.736345
1839.66, 0.733535
1840.31, 0.733535
1840.96, 0.731210
1841.62, 0.727529
1842.27, 0.728110
1842.93, 0.728788
1843.58, 0.727529
1844.24, 0.726270
1844.9, 0.725301
1845.55, 0.723751
1846.21, 0.719876
1846.87, 0.716195
1847.53, 0.715904
1848.18, 0.716001
1848.84, 0.717454
1849.5, 0.717841
1850.16, 0.717260
1850.82, 0.717260
1851.48, 0.717551
1852.14, 0.716292
1852.81, 0.714645
1853.47, 0.713288
1854.13, 0.714742
1854.8, 0.717357
1855.46, 0.717357
1856.12, 0.715710
1856.79, 0.715904
1857.45, 0.717938
1858.12, 0.719198
1858.79, 0.717938
1859.45, 0.715904
1860.12, 0.717551
1860.79, 0.720263
1861.46, 0.721910
1862.12, 0.722685
1862.79, 0.723848
1863.46, 0.724332
1864.13, 0.725010
1864.8, 0.726657
1865.48, 0.728401
1866.15, 0.728982
1866.82, 0.727916
1867.49, 0.726270
1868.16, 0.728885
1868.84, 0.731113
1869.51, 0.731404
1870.19, 0.729466
1870.86, 0.728401
1871.54, 0.731888
1872.21, 0.731791
1872.89, 0.729466
1873.56, 0.731113
1874.24, 0.733245
1874.92, 0.733148
1875.6, 0.732857
1876.28, 0.731113
1876.96, 0.729466
1877.64, 0.730241
1878.32, 0.730145
1879.0, 0.728691
1879.68, 0.726754
1880.36, 0.724429
1881.04, 0.722588
1881.73, 0.721426
1882.41, 0.719876
1883.09, 0.716970
1883.78, 0.713773
1884.46, 0.712610
1885.15, 0.711060
1885.83, 0.709316
1886.52, 0.706895
1887.21, 0.705054
1887.89, 0.703504
1888.58, 0.701470
1889.27, 0.698176
1889.96, 0.694785
1890.65, 0.693913
1891.34, 0.692267
1892.03, 0.689942
1892.72, 0.688585
1893.41, 0.686745
1894.1, 0.684904
1894.79, 0.683064
1895.49, 0.680835
1896.18, 0.678220
1896.87, 0.675701
1897.57, 0.673085
1898.26, 0.670567
1898.96, 0.666692
1899.65, 0.664076
1900.35, 0.663398
1901.05, 0.662720
1901.74, 0.660685
1902.44, 0.657004
1903.14, 0.655454
1903.84, 0.654582
1904.54, 0.650998
1905.24, 0.647511
1905.94, 0.646348
1906.64, 0.644895
1907.34, 0.644217
1908.04, 0.643054
1908.75, 0.641407
1909.45, 0.639761
1910.15, 0.637726
1910.86, 0.635207
1911.56, 0.633560
1912.27, 0.632495
1912.97, 0.629782
1913.68, 0.628232
1914.39, 0.628523
1915.09, 0.627651
1915.8, 0.625617
1916.51, 0.624067
1917.22, 0.623292
1917.93, 0.622420
1918.64, 0.620967
1919.35, 0.618351
1920.06, 0.616220
1920.77, 0.616026
1921.48, 0.617189
1922.19, 0.616801
1922.91, 0.615639
1923.62, 0.614186
1924.33, 0.613507
1925.05, 0.613314
1925.76, 0.612539
1926.48, 0.611473
1927.19, 0.610989
1927.91, 0.609826
1928.63, 0.609051
1929.35, 0.609148
1930.07, 0.608761
1930.78, 0.607792
1931.5, 0.607695
1932.22, 0.607986
1932.94, 0.607501
1933.66, 0.606629
1934.39, 0.606920
1935.11, 0.607307
1935.83, 0.606436
1936.55, 0.606048
1937.28, 0.605951
1938.0, 0.605854
1938.73, 0.605757
1939.45, 0.605467
1940.18, 0.605757
1940.9, 0.605661
1941.63, 0.605757
1942.36, 0.605757
1943.09, 0.605467
1943.81, 0.605079
1944.54, 0.605079
1945.27, 0.605176
1946.0, 0.604982
1946.73, 0.605079
1947.47, 0.605079
1948.2, 0.604789
1948.93, 0.604498
1949.66, 0.604207
1950.4, 0.604498
1951.13, 0.604401
1951.86, 0.604014
1952.6, 0.603723
1953.34, 0.603820
1954.07, 0.603820
1954.81, 0.603432
1955.55, 0.603529
1956.29, 0.603626
1957.02, 0.603529
1957.76, 0.603239
1958.5, 0.602561
1959.24, 0.602561
1959.98, 0.602754
1960.72, 0.602851
1961.47, 0.602561
1962.21, 0.602464
1962.95, 0.602367
1963.7, 0.602657
1964.44, 0.602657
1965.18, 0.602367
1965.93, 0.602464
1966.67, 0.602851
1967.42, 0.602851
1968.17, 0.602561
1968.92, 0.602561
1969.66, 0.602561
1970.41, 0.602561
1971.16, 0.602851
1971.91, 0.603142
1972.66, 0.603432
1973.41, 0.603723
1974.16, 0.603529
1974.92, 0.603820
1975.67, 0.604014
1976.42, 0.603917
1977.18, 0.603529
1977.93, 0.603529
1978.69, 0.603723
1979.44, 0.604111
1980.2, 0.604498
1980.95, 0.604692
1981.71, 0.604789
1982.47, 0.605467
1983.23, 0.605661
1983.99, 0.605951
1984.74, 0.606339
1985.51, 0.605951
1986.27, 0.606145
1987.03, 0.606436
1987.79, 0.606532
1988.55, 0.607114
1989.32, 0.607792
1990.08, 0.607792
1990.84, 0.607695
1991.61, 0.607889
1992.37, 0.608276
1993.14, 0.608373
1993.9, 0.608470
1994.67, 0.609051
1995.44, 0.609632
1996.21, 0.609729
1996.98, 0.609632
1997.75, 0.609729
1998.52, 0.610117
1999.29, 0.610504
2000.06, 0.610698
2000.83, 0.610795
2001.6, 0.610892
2002.38, 0.611086
2003.15, 0.611667
2003.93, 0.612248
2004.7, 0.612151
2005.48, 0.612248
2006.25, 0.612539
2007.03, 0.612636
2007.81, 0.612829
2008.58, 0.613023
2009.36, 0.613411
2010.14, 0.613895
2010.92, 0.614379
2011.7, 0.614379
2012.48, 0.614089
2013.26, 0.614573
2014.05, 0.614864
2014.83, 0.615057
2015.61, 0.615445
2016.4, 0.615542
2017.18, 0.615929
2017.97, 0.616414
2018.75, 0.616317
2019.54, 0.616317
2020.32, 0.616801
2021.11, 0.616704
2021.9, 0.616995
2022.69, 0.617479
2023.48, 0.617673
2024.27, 0.617770
2025.06, 0.617964
2025.85, 0.618351
2026.64, 0.618545
2027.44, 0.618448
2028.23, 0.618642
2029.02, 0.618739
2029.82, 0.618836
2030.61, 0.618932
2031.41, 0.619029
2032.2, 0.619223
2033.0, 0.619804
2033.8, 0.619901
2034.6, 0.620095
2035.4, 0.620579
2036.2, 0.620579
2037.0, 0.620676
2037.8, 0.620967
2038.6, 0.621161
2039.4, 0.621451
2040.2, 0.621839
2041.01, 0.622129
2041.81, 0.622226
2042.61, 0.622032
2043.42, 0.621742
2044.22, 0.622226
2045.03, 0.622807
2045.84, 0.622904
2046.65, 0.623001
2047.46, 0.623292
2048.26, 0.623486
2049.07, 0.623776
2049.88, 0.624067
2050.69, 0.623970
2051.51, 0.624164
2052.32, 0.624454
2053.13, 0.624648
2053.94, 0.625036
2054.76, 0.625520
2055.57, 0.625811
2056.39, 0.625811
2057.2, 0.625714
2058.02, 0.626101
2058.84, 0.626779
2059.66, 0.626876
2060.48, 0.626585
2061.29, 0.626489
2062.11, 0.626779
2062.94, 0.626973
2063.76, 0.627070
2064.58, 0.627457
2065.4, 0.627554
2066.22, 0.627554
2067.05, 0.627942
2067.87, 0.627942
2068.7, 0.627845
2069.52, 0.628426
2070.35, 0.628717
2071.18, 0.629007
2072.0, 0.629007
2072.83, 0.628911
2073.66, 0.629007
2074.49, 0.629395
2075.32, 0.629589
2076.15, 0.629492
2076.98, 0.629976
2077.82, 0.630364
2078.65, 0.630461
2079.48, 0.630461
2080.32, 0.630461
2081.15, 0.630461
2081.99, 0.630654
2082.83, 0.630557
2083.66, 0.630751
2084.5, 0.631139
2085.34, 0.631526
2086.18, 0.631623
2087.02, 0.631817
2087.86, 0.631817
2088.7, 0.632107
2089.54, 0.632398
2090.39, 0.632495
2091.23, 0.632689
2092.07, 0.632785
2092.92, 0.632592
2093.76, 0.632592
2094.61, 0.633076
2095.45, 0.633367
2096.3, 0.633076
2097.15, 0.633173
2098.0, 0.633754
2098.85, 0.634142
2099.7, 0.634432
2100.55, 0.634142
2101.4, 0.634239
2102.25, 0.634529
2103.1, 0.634723
2103.96, 0.634820
2104.81, 0.634820
2105.67, 0.634820
2106.52, 0.635014
2107.38, 0.635304
2108.24, 0.635498
2109.09, 0.635498
2109.95, 0.635498
2110.81, 0.635789
2111.67, 0.636176
2112.53, 0.636079
2113.39, 0.635885
2114.25, 0.635789
2115.12, 0.635789
2115.98, 0.636273
2116.84, 0.636564
2117.71, 0.636757
2118.58, 0.636564
2119.44, 0.636661
2120.31, 0.636951
2121.18, 0.636854
2122.04, 0.636854
2122.91, 0.636757
2123.78, 0.636757
2124.65, 0.636951
2125.52, 0.637145
2126.4, 0.637339
2127.27, 0.636854
2128.14, 0.636757
2129.02, 0.636757
2129.89, 0.636564
2130.77, 0.636467
2131.64, 0.636467
2132.52, 0.636661
2133.4, 0.635764
2134.27, 0.635675
2135.15, 0.636392
2136.03, 0.636571
2136.91, 0.635764
2137.79, 0.635675
2138.68, 0.636033
2139.56, 0.635764
2140.44, 0.635406
2141.33, 0.635495
2142.21, 0.635226
2143.1, 0.634958
2143.99, 0.635495
2144.87, 0.634330
2145.76, 0.633434
2146.65, 0.633882
2147.54, 0.634061
2148.43, 0.633793
2149.32, 0.632807
2150.21, 0.631194
2151.1, 0.631821
2151.99, 0.632628
2152.89, 0.632538
2153.78, 0.631463
2154.68, 0.630925
2155.57, 0.631014
2156.47, 0.630208
2157.37, 0.629939
2158.27, 0.629849
2159.16, 0.628684
2160.06, 0.628684
2160.96, 0.629222
2161.86, 0.628684
2162.77, 0.628415
2163.67, 0.628147
2164.57, 0.627698
2165.48, 0.627878
2166.38, 0.627340
2167.29, 0.626444
2168.2, 0.625368
2169.1, 0.625368
2170.01, 0.625458
2170.92, 0.624651
2171.83, 0.623934
2172.74, 0.623307
2173.65, 0.622142
2174.56, 0.621694
2175.47, 0.621873
2176.39, 0.621246
2177.3, 0.620350
2178.22, 0.619902
2179.13, 0.619902
2180.05, 0.619812
2180.96, 0.618557
2181.88, 0.617482
2182.8, 0.617392
2183.72, 0.616944
2184.64, 0.615779
2185.56, 0.614435
2186.48, 0.614255
2187.41, 0.614255
2188.33, 0.613270
2189.25, 0.611746
2190.18, 0.612015
2191.1, 0.611656
2192.03, 0.610760
2192.96, 0.610940
2193.89, 0.609506
2194.82, 0.608251
2195.74, 0.608161
2196.68, 0.607803
2197.61, 0.607355
2198.54, 0.606279
2199.47, 0.604666
2200.4, 0.604935
2201.34, 0.605025
2202.28, 0.604756
2203.21, 0.604039
2204.15, 0.602784
2205.08, 0.602694
2206.02, 0.602963
2206.96, 0.601798
2207.9, 0.601081
2208.84, 0.600454
2209.78, 0.599379
2210.73, 0.598572
2211.67, 0.598572
2212.61, 0.598572
2213.56, 0.598303
2214.5, 0.597586
2215.45, 0.596869
2216.4, 0.596511
2217.35, 0.595614
2218.3, 0.595077
2219.24, 0.594629
2220.2, 0.593553
2221.15, 0.592567
2222.1, 0.592119
2223.05, 0.591850
2224.0, 0.591582
2224.96, 0.591044
2225.91, 0.589879
2226.87, 0.589162
2227.83, 0.588803
2228.79, 0.588535
2229.74, 0.587190
2230.7, 0.585846
2231.66, 0.585936
2232.63, 0.585219
2233.59, 0.583785
2234.55, 0.582351
2235.51, 0.581634
2236.48, 0.580648
2237.44, 0.579393
2238.41, 0.578407
2239.38, 0.577242
2240.34, 0.575360
2241.31, 0.573478
2242.28, 0.570162
2243.25, 0.567474
2244.22, 0.566846
2245.19, 0.566040
2246.17, 0.563082
2247.14, 0.559856
2248.12, 0.557616
2249.09, 0.554837
2250.07, 0.551611
2251.04, 0.548654
2252.02, 0.545875
2253.0, 0.543366
2253.98, 0.541843
2254.96, 0.539512
2255.94, 0.537182
2256.92, 0.535121
2257.91, 0.532701
2258.89, 0.530998
2259.88, 0.529565
2260.86, 0.528220
2261.85, 0.528131
2262.83, 0.527593
2263.82, 0.527414
2264.81, 0.527503
2265.8, 0.526786
2266.79, 0.525801
2267.78, 0.526069
2268.78, 0.526966
2269.77, 0.527951
2270.76, 0.528579
2271.76, 0.530282
2272.75, 0.532074
2273.75, 0.532432
2274.75, 0.532970
2275.75, 0.534494
2276.75, 0.535748
2277.75, 0.538078
2278.75, 0.540409
2279.75, 0.542022
2280.75, 0.543276
2281.76, 0.545786
2282.76, 0.548295
2283.77, 0.550088
2284.77, 0.551611
2285.78, 0.553224
2286.79, 0.555106
2287.8, 0.557347
2288.81, 0.559229
2289.82, 0.560752
2290.83, 0.562186
2291.84, 0.564337
2292.86, 0.566667
2293.87, 0.568908
2294.89, 0.570879
2295.91, 0.572403
2296.92, 0.573837
2297.94, 0.575540
2298.96, 0.576436
2299.98, 0.578497
2301.0, 0.580648
2302.02, 0.582171
2303.04, 0.583337
2304.07, 0.584681
2305.09, 0.586025
2306.12, 0.587101
2307.15, 0.587818
2308.17, 0.589072
2309.2, 0.590058
2310.23, 0.591402
2311.26, 0.592299
2312.29, 0.593016
2313.32, 0.593732
2314.35, 0.594808
2315.39, 0.595973
2316.42, 0.596331
2317.46, 0.596421
2318.5, 0.596780
2319.53, 0.597317
2320.57, 0.597855
2321.61, 0.597676
2322.65, 0.597497
2323.69, 0.597945
2324.73, 0.599020
2325.78, 0.599199
2326.82, 0.598751
2327.86, 0.598034
2328.91, 0.597497
2329.96, 0.597407
2331.01, 0.597855
2332.05, 0.597228
2333.1, 0.595883
2334.15, 0.595973
2335.21, 0.596063
2336.26, 0.595166
2337.31, 0.594449
2338.36, 0.593732
2339.42, 0.593105
2340.48, 0.592478
2341.53, 0.592209
2342.59, 0.591671
2343.65, 0.590417
2344.71, 0.589072
2345.77, 0.588893
2346.83, 0.588624
2347.9, 0.588086
2348.96, 0.587370
2350.02, 0.586473
2351.09, 0.585219
2352.16, 0.584322
2353.23, 0.583337
2354.29, 0.582709
2355.36, 0.581186
2356.43, 0.579931
2357.51, 0.578587
2358.58, 0.577511
2359.65, 0.576794
2360.73, 0.575360
2361.8, 0.573837
2362.88, 0.572582
2363.96, 0.571507
2365.03, 0.570162
2366.11, 0.568370
2367.19, 0.567563
2368.27, 0.566488
2369.36, 0.564785
2370.44, 0.563710
2371.53, 0.561917
2372.61, 0.560394
2373.7, 0.559677
2374.78, 0.558243
2375.87, 0.556092
2376.96, 0.554120
2378.05, 0.552507
2379.14, 0.551342
2380.24, 0.550177
2381.33, 0.548116
2382.42, 0.545875
2383.52, 0.544621
2384.61, 0.543904
2385.71, 0.542291
2386.81, 0.540409
2387.91, 0.538616
2389.01, 0.537093
2390.11, 0.535569
2391.22, 0.534225
2392.32, 0.532791
2393.42, 0.530998
2394.53, 0.529833
2395.64, 0.528220
2396.74, 0.526159
2397.85, 0.524725
2398.96, 0.523291
2400.07, 0.521409
2401.18, 0.519886
2402.3, 0.518631
2403.41, 0.517287
2404.52, 0.516032
2405.64, 0.514419
2406.76, 0.513074
2407.88, 0.511461
2408.99, 0.509759
2410.11, 0.508504
2411.23, 0.507518
2412.36, 0.505815
2413.48, 0.504471
2414.6, 0.503306
2415.73, 0.502051
2416.85, 0.500797
2417.98, 0.499452
2419.11, 0.498018
2420.24, 0.496764
2421.37, 0.495509
2422.5, 0.494254
2423.64, 0.492820
2424.77, 0.491297
2425.9, 0.489504
2427.04, 0.487533
2428.18, 0.485920
2429.31, 0.484844
2430.45, 0.482962
2431.59, 0.481259
2432.73, 0.479557
2433.88, 0.477675
2435.02, 0.475882
2436.16, 0.474717
2437.31, 0.473642
2438.45, 0.471491
2439.6, 0.468892
2440.75, 0.467368
2441.9, 0.466114
2443.05, 0.463873
2444.2, 0.461633
2445.35, 0.460647
2446.51, 0.459034
2447.67, 0.456703
2448.82, 0.454284
2449.98, 0.452491
2451.14, 0.451147
2452.3, 0.449982
2453.46, 0.448190
2454.62, 0.446487
2455.78, 0.444157
2456.94, 0.442006
2458.11, 0.440482
2459.28, 0.439407
2460.44, 0.438063
2461.61, 0.436808
2462.78, 0.435374
2463.95, 0.433850
2465.12, 0.432058
2466.3, 0.430983
2467.47, 0.429190
2468.65, 0.427756
2469.82, 0.427219
2471.0, 0.425874
2472.18, 0.424171
2473.36, 0.423096
2474.54, 0.422469
2475.72, 0.421304
2476.9, 0.419601
2478.08, 0.418615
2479.27, 0.417719
2480.46, 0.416643
2481.64, 0.415120
2482.83, 0.413776
2484.02, 0.412700
2485.21, 0.411625
2486.4, 0.410460
2487.6, 0.409205
2488.79, 0.407861
2489.99, 0.407054
2491.18, 0.405799
2492.38, 0.404365
2493.58, 0.403290
2494.78, 0.402125
2495.98, 0.401049
2497.18, 0.399884
2498.39, 0.399167
2499.59, 0.398719
2500.8, 0.398002
2502.01, 0.397017
2503.21, 0.396479
2504.42, 0.396120
2505.63, 0.395762
2506.84, 0.395762
2508.06, 0.395493
2509.27, 0.394597
2510.49, 0.394059
2511.7, 0.393790
2512.92, 0.393611
2514.14, 0.393521
2515.36, 0.393611
2516.58, 0.393970
2517.8, 0.393970
2519.03, 0.393701
2520.25, 0.393253
2521.48, 0.393253
2522.7, 0.393253
2523.93, 0.393163
2525.16, 0.393253
2526.39, 0.392984
2527.62, 0.393163
2528.86, 0.392984
2530.09, 0.392715
2531.33, 0.392087
2532.56, 0.391550
2533.8, 0.391819
2535.04, 0.391281
2536.28, 0.391102
2537.52, 0.391012
2538.76, 0.391191
2540.01, 0.390922
2541.25, 0.389668
2542.5, 0.388682
2543.75, 0.388861
2544.99, 0.388861
2546.24, 0.388234
2547.49, 0.387158
2548.75, 0.386800
2550.0, 0.385904
2551.26, 0.384918
2552.51, 0.384380
2553.77, 0.384649
2555.03, 0.384470
2556.29, 0.383394
2557.55, 0.382857
2558.81, 0.381154
2560.08, 0.377300
2561.34, 0.374612
2562.61, 0.373715
2563.88, 0.373805
2565.14, 0.374880
2566.41, 0.375687
2567.68, 0.373626
2568.96, 0.370310
2570.23, 0.370041
2571.51, 0.369503
2572.78, 0.366098
2574.06, 0.365650
2575.34, 0.364485
2576.62, 0.362782
2577.9, 0.363140
2579.18, 0.362423
2580.47, 0.359735
2581.75, 0.357942
2583.04, 0.354357
2584.32, 0.354178
2585.61, 0.354089
2586.9, 0.350773
2588.2, 0.349428
2589.49, 0.349518
2590.78, 0.349697
2592.08, 0.347009
2593.37, 0.340377
2594.67, 0.335985
2595.97, 0.339749
2597.27, 0.342528
2598.57, 0.342886
2599.88, 0.341900
2601.18, 0.340018
2602.49, 0.338226
2603.79, 0.335448
2605.1, 0.333118
2606.41, 0.333745
2607.72, 0.334731
2609.03, 0.334820
2610.35, 0.335179
2611.66, 0.335000
2612.98, 0.334283
2614.3, 0.333834
2615.62, 0.329981
2616.94, 0.328547
2618.26, 0.330070
2619.58, 0.328278
2620.91, 0.329085
2622.23, 0.331056
2623.56, 0.331235
2624.89, 0.329533
2626.22, 0.327471
2627.55, 0.328547
2628.88, 0.326844
2630.21, 0.325321
2631.55, 0.327740
2632.89, 0.327651
2634.22, 0.327651
2635.56, 0.328995
2636.9, 0.329353
2638.25, 0.329085
2639.59, 0.328457
2640.93, 0.327830
2642.28, 0.327561
2643.63, 0.327113
2644.98, 0.326127
2646.33, 0.326306
2647.68, 0.326665
2649.03, 0.326396
2650.39, 0.325679
2651.74, 0.324335
2653.1, 0.323976
2654.46, 0.323528
2655.82, 0.323707
2657.18, 0.324424
2658.54, 0.322722
2659.9, 0.321377
2661.27, 0.321108
2662.64, 0.320391
2664.01, 0.316448
2665.38, 0.313222
2666.74, 0.313222
2668.12, 0.314477
2669.49, 0.310533
2670.87, 0.310623
2672.24, 0.313760
2673.62, 0.312953
2675.0, 0.309816
2676.38, 0.306590
2677.76, 0.305694
2679.15, 0.304887
2680.54, 0.305156
2681.92, 0.303633
2683.31, 0.301571
2684.7, 0.299600
2686.09, 0.297090
2687.48, 0.294850
2688.88, 0.291982
2690.27, 0.288756
2691.67, 0.284275
2693.07, 0.278270
2694.47, 0.273789
2695.87, 0.270742
2697.27, 0.267695
2698.67, 0.262587
2700.08, 0.256224
2701.49, 0.250936
2702.9, 0.246634
2704.31, 0.241347
2705.72, 0.236418
2707.13, 0.231488
2708.54, 0.225932
2709.96, 0.220644
2711.38, 0.217956
2712.8, 0.216432
2714.22, 0.213564
2715.64, 0.209890
2717.06, 0.205678
2718.49, 0.200570
2719.91, 0.194475
2721.34, 0.191070
2722.77, 0.187575
2724.2, 0.182466
2725.63, 0.179598
2727.07, 0.176551
2728.5, 0.172518
2729.94, 0.168127
2731.38, 0.163736
2732.82, 0.159165
2734.26, 0.154953
2735.7, 0.151816
2737.15, 0.148052
2738.59, 0.142944
2740.04, 0.138463
2741.49, 0.134968
2742.94, 0.132279
2744.39, 0.128874
2745.84, 0.125378
2747.3, 0.121345
2748.76, 0.117402
2750.21, 0.113907
2751.67, 0.110591
2753.14, 0.106648
2754.6, 0.102077
2756.06, 0.0991200
2757.53, 0.0968790
2759.0, 0.0943700
2760.46, 0.0914120
2761.94, 0.0880070
2763.41, 0.0856770
2764.88, 0.0836150
2766.36, 0.0807480
2767.83, 0.0779690
2769.31, 0.0754600
2770.79, 0.0731300
2772.27, 0.0713380
2773.76, 0.0690970
2775.24, 0.0666770
2776.73, 0.0646160
2778.22, 0.0626440
2779.71, 0.0606730
2781.2, 0.0587010
2782.69, 0.0566400
2784.18, 0.0545790
2785.68, 0.0525170
2787.18, 0.0508150
2788.68, 0.0492910
2790.18, 0.0481260
2791.68, 0.0470500
2793.19, 0.0459750
2794.69, 0.0447200
2796.2, 0.0432860
2797.71, 0.0419420
2799.22, 0.0406870
2800.73, 0.0392540
2802.24, 0.0384470
2803.76, 0.0374610
2805.28, 0.0362960
2806.8, 0.0356690
2808.32, 0.0348620
2809.84, 0.0336970
2811.36, 0.0326220
2812.89, 0.0316360
2814.42, 0.0309190
2815.94, 0.0300230
2817.48, 0.0290370
2819.01, 0.0282300
2820.54, 0.0272440
2822.08, 0.0265280
2823.61, 0.0258110
2825.15, 0.0248250
2826.69, 0.0239290
2828.23, 0.0233010
2829.78, 0.0226740
2831.32, 0.0221360
2832.87, 0.0214190
2834.42, 0.0207920
2835.97, 0.0199850
2837.52, 0.0195370
2839.08, 0.0188200
2840.63, 0.0180140
2842.19, 0.0173860
2843.75, 0.0166690
2845.31, 0.0159520
2846.87, 0.0155040
2848.44, 0.0154150
2850.0, 0.0148770
2851.57, 0.0142500
2853.14, 0.0140700
2854.71, 0.0136220
2856.28, 0.0131740
2857.86, 0.0124570
2859.43, 0.0119190
2861.01, 0.0117400
2862.59, 0.0117400
2864.17, 0.0114710
2865.76, 0.0105750
2867.34, 0.0100370
2868.93, 0.00985800
2870.52, 0.00958900
2872.11, 0.00914100
2873.7, 0.00878300
2875.29, 0.00851400
2876.89, 0.00833500
2878.49, 0.00824500
2880.08, 0.00815500
2881.69, 0.00797600
2883.29, 0.00761800
2884.89, 0.00770700
2886.5, 0.00779700
2888.11, 0.00752800
2889.72, 0.00734900
2891.33, 0.00717000
2892.94, 0.00672100
2894.56, 0.00672100
2896.17, 0.00699000
2897.79, 0.00708000
2899.42, 0.00690100
2901.04, 0.00690100
2902.66, 0.00663200
2904.29, 0.00645300
2905.92, 0.00618400
2907.55, 0.00627300
2909.18, 0.00654200
2910.81, 0.00636300
2912.45, 0.00609400
2914.08, 0.00618400
2915.72, 0.00663200
2917.36, 0.00672100
2919.01, 0.00636300
2920.65, 0.00636300
2922.3, 0.00645300
2923.94, 0.00627300
2925.59, 0.00618400
2927.25, 0.00636300
2928.9, 0.00672100
2930.56, 0.00690100
2932.21, 0.00681100
2933.87, 0.00690100
2935.53, 0.00681100
2937.2, 0.00690100
2938.86, 0.00699000
2940.53, 0.00690100
2942.2, 0.00699000
2943.87, 0.00717000
2945.54, 0.00699000
2947.22, 0.00699000
2948.89, 0.00743800
2950.57, 0.00761800
2952.25, 0.00779700
2953.93, 0.00815500
2955.62, 0.00833500
2957.3, 0.00797600
2958.99, 0.00806600
2960.68, 0.00824500
2962.37, 0.00851400
2964.07, 0.00833500
2965.76, 0.00797600
2967.46, 0.00806600
2969.16, 0.00833500
2970.86, 0.00815500
2972.56, 0.00824500
2974.27, 0.00842400
2975.98, 0.00869300
2977.69, 0.00878300
2979.4, 0.00869300
2981.11, 0.00851400
2982.83, 0.00842400
2984.54, 0.00878300
2986.26, 0.00887200
2987.98, 0.00869300
2989.71, 0.00833500
2991.43, 0.00851400
2993.16, 0.00923100
2994.89, 0.00941000
2996.62, 0.00923100
2998.35, 0.00896200
3000.09, 0.00887200
3001.83, 0.00905200
3003.57, 0.00905200
3005.31, 0.00914100
3007.05, 0.00932000
3008.79, 0.00950000
3010.54, 0.00976900
3012.29, 0.00950000
3014.04, 0.00923100
3015.8, 0.00923100
3017.55, 0.00932000
3019.31, 0.00950000
3021.07, 0.00958900
3022.83, 0.00958900
3024.59, 0.00941000
3026.36, 0.00958900
3028.13, 0.00958900
3029.9, 0.00941000
3031.67, 0.00932000
3033.44, 0.00923100
3035.22, 0.00941000
3037.0, 0.00976900
3038.78, 0.0101270
3040.56, 0.00994800
3042.34, 0.00950000
3044.13, 0.00958900
3045.92, 0.00985800
3047.71, 0.00994800
3049.5, 0.00994800
3051.3, 0.00994800
3053.09, 0.0100370
3054.89, 0.0101270
3056.69, 0.0103960
3058.5, 0.0105750
3060.3, 0.0105750
3062.11, 0.0103960
3063.92, 0.0104860
3065.73, 0.0106650
3067.55, 0.0103960
3069.36, 0.0103960
3071.18, 0.0104860
3073.0, 0.0103960
3074.82, 0.0107540
3076.65, 0.0110230
3078.48, 0.0111130
3080.31, 0.0110230
3082.14, 0.0108440
3083.97, 0.0110230
3085.8, 0.0111130
3087.64, 0.0112020
3089.48, 0.0112920
3091.33, 0.0113820
3093.17, 0.0112020
3095.02, 0.0112920
3096.87, 0.0117400
3098.72, 0.0116510
3100.57, 0.0114710
3102.43, 0.0114710
3104.28, 0.0119190
3106.14, 0.0120090
3108.01, 0.0119190
3109.87, 0.0120090
3111.74, 0.0120090
3113.61, 0.0120090
3115.48, 0.0119190
3117.35, 0.0119190
3119.23, 0.0117400
3121.1, 0.0120090
3122.98, 0.0123680
3124.87, 0.0124570
3126.75, 0.0123680
3128.64, 0.0125470
3130.53, 0.0127260
3132.42, 0.0129950
3134.31, 0.0132640
3136.21, 0.0131740
3138.11, 0.0129950
3140.01, 0.0130850
3141.91, 0.0131740
3143.82, 0.0133530
3145.73, 0.0133530
3147.64, 0.0139810
3149.55, 0.0144290
3151.46, 0.0140700
3153.38, 0.0140700
3155.3, 0.0143390
3157.22, 0.0143390
3159.14, 0.0144290
3161.07, 0.0144290
3163.0, 0.0143390
3164.93, 0.0144290
3166.86, 0.0146080
3168.8, 0.0146980
3170.74, 0.0149670
3172.68, 0.0151460
3174.62, 0.0151460
3176.56, 0.0154150
3178.51, 0.0156840
3180.46, 0.0156840
3182.42, 0.0158630
3184.37, 0.0157730
3186.33, 0.0159520
3188.29, 0.0163110
3190.25, 0.0161320
3192.21, 0.0162210
3194.18, 0.0164900
3196.15, 0.0165800
3198.12, 0.0166690
3200.09, 0.0169380
3202.07, 0.0170280
3204.05, 0.0172070
3206.03, 0.0174760
3208.02, 0.0175660
3210.0, 0.0177450
3211.99, 0.0179240
3213.98, 0.0182820
3215.98, 0.0185510
3217.97, 0.0188200
3219.97, 0.0188200
3221.97, 0.0189990
3223.98, 0.0190890
3225.98, 0.0192680
3227.99, 0.0195370
3230.0, 0.0198060
3232.02, 0.0196270
3234.03, 0.0196270
3236.05, 0.0200750
3238.07, 0.0205230
3240.1, 0.0209710
3242.12, 0.0211500
3244.15, 0.0212400
3246.18, 0.0215980
3248.22, 0.0215980
3250.25, 0.0215090
3252.29, 0.0219570
3254.33, 0.0224050
3256.38, 0.0224950
3258.43, 0.0225840
3260.47, 0.0228530
3262.53, 0.0230320
3264.58, 0.0233010
3266.64, 0.0235700
3268.7, 0.0237490
3270.76, 0.0239290
3272.82, 0.0238390
3274.89, 0.0241080
3276.96, 0.0246450
3279.04, 0.0250040
3281.11, 0.0250940
3283.19, 0.0252730
3285.27, 0.0256310
3287.35, 0.0258110
3289.44, 0.0259000
3291.53, 0.0262590
3293.62, 0.0264380
3295.71, 0.0266170
3297.81, 0.0272440
3299.91, 0.0276930
3302.01, 0.0277820
3304.11, 0.0278720
3306.22, 0.0282300
3308.33, 0.0284990
3310.44, 0.0286780
3312.56, 0.0288580
3314.68, 0.0291260
3316.8, 0.0293950
3318.92, 0.0296640
3321.05, 0.0300230
3323.18, 0.0302020
3325.31, 0.0303810
3327.44, 0.0308290
3329.58, 0.0313670
3331.72, 0.0319050
3333.86, 0.0321740
3336.01, 0.0322630
3338.16, 0.0324420
3340.31, 0.0328010
3342.46, 0.0331590
3344.61, 0.0336070
3346.77, 0.0340560
3348.94, 0.0342350
3351.1, 0.0344140
3353.27, 0.0349520
3355.44, 0.0355790
3357.61, 0.0359380
3359.79, 0.0363860
3361.97, 0.0366550
3364.15, 0.0369230
3366.33, 0.0371920
3368.52, 0.0375510
3370.71, 0.0380880
3372.9, 0.0384470
3375.1, 0.0386260
3377.3, 0.0388950
3379.5, 0.0392540
3381.71, 0.0398810
3383.91, 0.0402390
3386.12, 0.0405080
3388.34, 0.0409560
3390.55, 0.0412250
3392.77, 0.0414940
3394.99, 0.0420320
3397.22, 0.0428380
3399.45, 0.0433760
3401.68, 0.0435550
3403.91, 0.0440930
3406.15, 0.0447200
3408.39, 0.0450790
3410.63, 0.0453480
3412.87, 0.0457960
3415.12, 0.0463340
3417.37, 0.0468710
3419.63, 0.0471400
3421.88, 0.0474990
3424.14, 0.0478570
3426.41, 0.0483050
3428.67, 0.0490220
3430.94, 0.0496490
3433.21, 0.0502770
3435.49, 0.0505460
3437.77, 0.0508150
3440.05, 0.0513520
3442.33, 0.0519800
3444.62, 0.0524280
3446.91, 0.0526970
3449.2, 0.0533240
3451.5, 0.0539510
3453.8, 0.0543990
3456.1, 0.0547580
3458.41, 0.0552060
3460.72, 0.0556540
3463.03, 0.0564610
3465.34, 0.0569980
3467.66, 0.0574460
3469.98, 0.0580740
3472.31, 0.0586110
3474.63, 0.0592390
3476.96, 0.0598660
3479.3, 0.0604930
3481.64, 0.0608520
3483.97, 0.0613900
3486.32, 0.0621070
3488.66, 0.0626440
3491.01, 0.0630920
3493.36, 0.0637200
3495.72, 0.0644370
3498.08, 0.0650640
3500.44, 0.0656910
3502.81, 0.0664080
3505.18, 0.0669460
3507.55, 0.0673940
3509.92, 0.0679320
3512.3, 0.0686490
3514.68, 0.0691870
3517.06, 0.0697240
3519.45, 0.0704410
3521.84, 0.0712480
3524.24, 0.0718750
3526.64, 0.0723230
3529.04, 0.0729510
3531.44, 0.0734880
3533.85, 0.0740260
3536.26, 0.0746530
3538.67, 0.0754600
3541.09, 0.0764460
3543.51, 0.0769840
3545.93, 0.0772520
3548.36, 0.0777900
3550.79, 0.0785970
3553.22, 0.0793140
3555.66, 0.0798510
3558.1, 0.0804790
3560.54, 0.0811960
3562.99, 0.0818230
3565.44, 0.0825400
3567.9, 0.0831670
3570.35, 0.0837050
3572.81, 0.0845120
3575.28, 0.0853180
3577.75, 0.0859460
3580.22, 0.0864830
3582.69, 0.0872000
3585.17, 0.0880960
3587.65, 0.0888130
3590.14, 0.0894410
3592.62, 0.0900680
3595.11, 0.0908750
3597.61, 0.0917710
3600.11, 0.0923980
3602.61, 0.0931150
3605.11, 0.0939220
3607.62, 0.0944590
3610.14, 0.0951760
3612.65, 0.0959830
3615.17, 0.0965210
3617.69, 0.0972380
3620.22, 0.0979550
3622.75, 0.0987610
3625.28, 0.0995680
3627.82, 0.100195
3630.36, 0.100733
3632.9, 0.101539
3635.45, 0.102346
3638.0, 0.102884
3640.56, 0.103690
3643.12, 0.104587
3645.68, 0.105214
3648.24, 0.106020
3650.81, 0.106827
3653.39, 0.107275
3655.96, 0.107813
3658.54, 0.108709
3661.13, 0.109336
3663.71, 0.109874
3666.3, 0.110501
3668.9, 0.111487
3671.5, 0.112563
3674.1, 0.113190
3676.7, 0.113728
3679.31, 0.114534
3681.93, 0.115162
3684.54, 0.115879
3687.17, 0.116864
3689.79, 0.117581
3692.42, 0.118298
3695.05, 0.119195
3697.69, 0.119912
3700.32, 0.120629
3702.97, 0.121345
3705.61, 0.122062
3708.27, 0.122690
3710.92, 0.123496
3713.58, 0.124213
3716.24, 0.124751
3718.91, 0.125468
3721.58, 0.126185
3724.25, 0.126902
3726.93, 0.127619
3729.61, 0.128425
3732.29, 0.129232
3734.98, 0.129859
3737.67, 0.130666
3740.37, 0.131562
3743.07, 0.132189
3745.78, 0.132638
3748.49, 0.133265
3751.2, 0.134072
3753.91, 0.134609
3756.63, 0.135057
3759.36, 0.135685
3762.09, 0.136491
3764.82, 0.137298
3767.55, 0.137925
3770.29, 0.138463
3773.04, 0.139001
3775.78, 0.139807
3778.54, 0.140614
3781.29, 0.141062
3784.05, 0.141689
3786.82, 0.142317
3789.59, 0.142944
3792.36, 0.143750
3795.13, 0.144378
3797.92, 0.144826
3800.7, 0.145364
3803.49, 0.146081
3806.28, 0.146708
3809.08, 0.147515
3811.88, 0.148321
3814.68, 0.149038
3817.49, 0.149486
3820.31, 0.150024
3823.12, 0.150562
3825.94, 0.151189
3828.77, 0.151996
3831.6, 0.152802
3834.43, 0.153340
3837.27, 0.153698
3840.11, 0.154146
3842.96, 0.154684
3845.81, 0.155311
3848.67, 0.155939
3851.53, 0.156477
3854.39, 0.157014
3857.26, 0.157552
3860.13, 0.158000
3863.01, 0.158538
3865.89, 0.159165
3868.77, 0.159703
3871.66, 0.160061
3874.55, 0.160509
3877.45, 0.160868
3880.35, 0.161316
3883.26, 0.161943
3886.17, 0.162391
3889.09, 0.162750
3892.01, 0.163198
3894.93, 0.163736
3897.86, 0.164184
3900.79, 0.164453
3903.73, 0.164901
3906.67, 0.165349
3909.62, 0.165618
3912.57, 0.165887
3915.52, 0.166245
3918.48, 0.166693
3921.45, 0.167141
3924.42, 0.167410
3927.39, 0.167679
3930.37, 0.168217
3933.35, 0.168665
3936.34, 0.168934
3939.33, 0.169113
3942.32, 0.169471
3945.32, 0.169740
3948.33, 0.169920
3951.34, 0.170099
3954.35, 0.170547
3957.37, 0.170726
3960.39, 0.170816
3963.42, 0.171174
3966.45, 0.171443
3969.49, 0.171622
3972.53, 0.172160
3975.58, 0.172608
3978.63, 0.172787
3981.68, 0.173146
3984.75, 0.173504
3987.81, 0.173863
3990.88, 0.174221
3993.95, 0.174669
3997.03, 0.175028
4000.12, 0.175386
4003.21, 0.175655
4006.3, 0.175924
4009.4, 0.176372
4012.5, 0.176731
4015.61, 0.176999
4018.72, 0.177089
4021.84, 0.177358
4024.96, 0.177806
4028.09, 0.177985
4031.22, 0.178254
4034.36, 0.178613
4037.5, 0.178882
4040.65, 0.179061
4043.8, 0.179330
4046.96, 0.179509
4050.12, 0.179598
4053.29, 0.179778
4056.46, 0.179867
4059.64, 0.179957
4062.82, 0.180226
4066.0, 0.180584
4069.19, 0.180764
4072.39, 0.180853
4075.59, 0.181032
4078.8, 0.181212
4082.01, 0.181391
4085.23, 0.181480
4088.45, 0.181570
4091.68, 0.181749
4094.91, 0.181929
4098.15, 0.182108
4101.39, 0.182197
4104.63, 0.182197
4107.89, 0.182108
4111.14, 0.182287
4114.41, 0.182466
4117.67, 0.182377
4120.95, 0.182466
4124.23, 0.182377
4127.51, 0.182377
4130.8, 0.182646
4134.09, 0.182914
4137.39, 0.182825
4140.7, 0.182825
4144.01, 0.182825
4147.32, 0.182914
4150.64, 0.182914
4153.97, 0.182825
4157.3, 0.182735
4160.64, 0.182556
4163.98, 0.182735
4167.33, 0.182825
4170.68, 0.182735
4174.04, 0.182556
4177.4, 0.182556
4180.77, 0.182646
4184.14, 0.182287
4187.52, 0.182018
4190.91, 0.182108
4194.3, 0.181929
4197.69, 0.181570
4201.1, 0.181212
4204.5, 0.180853
4207.92, 0.180405
4211.34, 0.179867
4214.76, 0.179330
4218.19, 0.178882
4221.62, 0.178433
4225.06, 0.177806
4228.51, 0.177448
4231.96, 0.177358
4235.42, 0.177179
4238.88, 0.177089
4242.35, 0.176999
4245.83, 0.177089
4249.31, 0.177358
4252.79, 0.177985
4256.28, 0.178165
4259.78, 0.177627
4263.29, 0.176999
4266.79, 0.176462
4270.31, 0.176103
4273.83, 0.175924
4277.35, 0.175655
4280.89, 0.175566
4284.42, 0.175386
4287.97, 0.175297
4291.52, 0.175476
4295.07, 0.175566
4298.63, 0.175476
4302.2, 0.175386
4305.78, 0.175566
4309.35, 0.175655
4312.94, 0.175655
4316.53, 0.175655
4320.13, 0.175655
4323.73, 0.175834
4327.34, 0.175924
4330.96, 0.175834
4334.58, 0.175745
4338.21, 0.175745
4341.84, 0.175655
4345.48, 0.175566
4349.12, 0.175297
4352.77, 0.175117
4356.43, 0.175117
4360.1, 0.174938
4363.76, 0.174580
4367.44, 0.174311
4371.12, 0.174042
4374.81, 0.173773
4378.51, 0.173594
4382.21, 0.173415
4385.92, 0.173146
4389.63, 0.172877
4393.35, 0.172518
4397.08, 0.172070
4400.81, 0.171891
4404.55, 0.171622
4408.29, 0.171443
4412.04, 0.171085
4415.8, 0.170547
4419.57, 0.170009
4423.34, 0.169651
4427.12, 0.169113
4430.9, 0.168575
4434.69, 0.168127
4438.49, 0.167589
4442.29, 0.166962
4446.1, 0.166424
4449.92, 0.165707
4453.74, 0.164811
4457.57, 0.164005
4461.41, 0.163198
4465.25, 0.162302
4469.1, 0.161316
4472.95, 0.160330
4476.82, 0.159434
4480.69, 0.158448
4484.56, 0.157462
4488.44, 0.156477
4492.33, 0.155311
4496.23, 0.154146
4500.13, 0.153161
4504.04, 0.152085
4507.96, 0.151099
4511.88, 0.150114
4515.81, 0.149128
4519.75, 0.148052
4523.69, 0.147066
4527.65, 0.145991
4531.6, 0.144826
4535.57, 0.143661
4539.54, 0.142675
4543.52, 0.141600
4547.5, 0.140345
4551.5, 0.139180
4555.5, 0.138015
4559.5, 0.136939
4563.52, 0.136043
4567.54, 0.134968
4571.56, 0.133803
4575.6, 0.132906
4579.64, 0.131921
4583.69, 0.131024
4587.75, 0.130487
4591.81, 0.129949
4595.88, 0.129322
4599.96, 0.128874
4604.04, 0.128515
4608.14, 0.128246
4612.24, 0.128336
4616.34, 0.128246
4620.46, 0.128246
4624.58, 0.128157
4628.71, 0.128157
4632.84, 0.128246
4636.99, 0.128425
4641.14, 0.128605
4645.3, 0.128874
4649.47, 0.129053
4653.64, 0.129232
4657.82, 0.129411
4662.01, 0.129232
4666.21, 0.129053
4670.41, 0.128874
4674.62, 0.128515
4678.84, 0.128157
4683.07, 0.127440
4687.3, 0.126543
4691.54, 0.125558
4695.79, 0.124303
4700.05, 0.123138
4704.31, 0.121883
4708.59, 0.120270
4712.87, 0.118746
4717.15, 0.117402
4721.45, 0.116148
4725.76, 0.114893
4730.07, 0.113459
4734.39, 0.112294
4738.72, 0.111398
4743.05, 0.110501
4747.39, 0.109605
4751.75, 0.108888
4756.1, 0.108440
4760.47, 0.107902
4764.85, 0.107544
4769.23, 0.107096
4773.62, 0.106558
4778.02, 0.106200
4782.43, 0.105572
4786.85, 0.104855
4791.27, 0.104138
4795.7, 0.103511
4800.14, 0.102705
4804.59, 0.102077
4809.05, 0.101719
4813.51, 0.101539
4817.99, 0.101719
4822.47, 0.101988
4826.96, 0.102346
4831.46, 0.102794
4835.96, 0.103242
4840.48, 0.103511
4845.0, 0.103601
4849.54, 0.103601
4854.08, 0.103511
4858.63, 0.103063
4863.18, 0.102973
4867.75, 0.102884
4872.33, 0.102436
4876.91, 0.101808
4881.5, 0.101181
4886.1, 0.100733
4890.71, 0.100195
4895.33, 0.0997470
4899.96, 0.0993890
4904.59, 0.0990300
4909.24, 0.0988510
4913.89, 0.0985820
4918.55, 0.0984920
4923.22, 0.0984030
4927.9, 0.0984030
4932.59, 0.0984920
4937.29, 0.0986720
4942.0, 0.0992090
4946.71, 0.0998370
4951.44, 0.100643
4956.17, 0.101539
4960.91, 0.102705
4965.67, 0.103780
4970.43, 0.105035
4975.2, 0.106469
4979.98, 0.107992
4984.76, 0.109426
4989.56, 0.110950
4994.37, 0.112383
4999.18, 0.113638
5004.01, 0.114982
5008.84, 0.116327
5013.69, 0.117223
5018.54, 0.117940
5023.4, 0.118657
5028.28, 0.119195
5033.16, 0.119643
5038.05, 0.120001
5042.95, 0.120180
5047.86, 0.120270
5052.78, 0.120360
5057.71, 0.120539
5062.65, 0.120808
5067.6, 0.121256
5072.56, 0.121883
5077.53, 0.122600
5082.5, 0.123496
5087.49, 0.125110
5092.49, 0.127081
5097.5, 0.129411
5102.51, 0.132189
5107.54, 0.135505
5112.58, 0.139090
5117.62, 0.143302
5122.68, 0.147694
5127.75, 0.152085
5132.82, 0.156656
5137.91, 0.161316
5143.01, 0.166066
5148.12, 0.170457
5153.23, 0.174669
5158.36, 0.178523
5163.5, 0.182287
5168.65, 0.185872
5173.81, 0.189277
5178.98, 0.192325
5184.15, 0.195013
5189.34, 0.197612
5194.54, 0.199942
5199.75, 0.201914
5204.98, 0.204065
5210.21, 0.205768
5215.45, 0.207650
5220.7, 0.209711
5225.96, 0.211414
5231.23, 0.212848
5236.52, 0.214102
5241.81, 0.215357
5247.12, 0.216612
5252.44, 0.217777
5257.76, 0.218942
5263.1, 0.219927
5268.45, 0.220644
5273.81, 0.221272
5279.18, 0.222258
5284.56, 0.222975
5289.95, 0.223333
5295.36, 0.224229
5300.77, 0.225125
5306.2, 0.225753
5311.63, 0.226380
5317.08, 0.226918
5322.54, 0.227366
5328.01, 0.227635
5333.49, 0.227993
5338.98, 0.228262
5344.49, 0.227904
5350.0, 0.227366
5355.53, 0.227993
5361.07, 0.228621
5366.62, 0.229158
5372.18, 0.229248
5377.75, 0.229069
5383.34, 0.229069
5388.93, 0.229069
5394.54, 0.228979
5400.16, 0.228621
5405.79, 0.228173
5411.44, 0.227904
5417.09, 0.226739
5422.76, 0.225842
5428.43, 0.226649
5434.12, 0.227097
5439.83, 0.226559
5445.54, 0.226022
5451.26, 0.225753
5457.0, 0.225125
5462.75, 0.223871
5468.52, 0.223602
5474.29, 0.223243
5480.08, 0.222616
5485.88, 0.222795
5491.69, 0.222616
5497.51, 0.221809
5503.35, 0.221003
5509.2, 0.220555
5515.06, 0.219748
5520.93, 0.218583
5526.82, 0.217956
5532.71, 0.217508
5538.63, 0.216791
5544.55, 0.215536
5550.49, 0.214192
5556.44, 0.213296
5562.4, 0.212758
5568.37, 0.211951
5574.36, 0.210069
5580.36, 0.208725
5586.37, 0.208635
5592.4, 0.208187
5598.44, 0.206933
5604.49, 0.205857
5610.56, 0.204961
5616.63, 0.203706
5622.73, 0.202720
5628.83, 0.201287
5634.95, 0.199225
5641.08, 0.196806
5647.23, 0.195999
5653.39, 0.195103
5659.56, 0.194565
5665.74, 0.193669
5671.94, 0.191608
5678.15, 0.190084
5684.38, 0.189009
5690.62, 0.187306
5696.87, 0.186051
5703.14, 0.183990
5709.42, 0.181391
5715.72, 0.179867
5722.03, 0.178792
5728.35, 0.177179
5734.69, 0.175297
5741.03, 0.173235
5747.4, 0.171174
5753.78, 0.169561
5760.17, 0.166514
5766.58, 0.163108
5773.0, 0.162571
5779.44, 0.161406
5785.88, 0.159434
5792.35, 0.157104
5798.83, 0.154505
5805.32, 0.151996
5811.83, 0.148859
5818.35, 0.144736
5824.89, 0.142048
5831.45, 0.140076
5838.01, 0.138015
5844.59, 0.135505
5851.19, 0.132369
5857.8, 0.128694
5864.43, 0.125468
5871.07, 0.122421
5877.73, 0.117671
5884.4, 0.114445
5891.09, 0.112294
5897.79, 0.108888
5904.5, 0.106827
5911.23, 0.103870
5917.98, 0.100374
5924.75, 0.0967000
5931.53, 0.0924880
5938.32, 0.0886340
5945.13, 0.0863940
5951.96, 0.0835260
5958.8, 0.0804790
5965.65, 0.0769840
5972.53, 0.0740260
5979.42, 0.0712480
5986.32, 0.0683800
5993.24, 0.0656910
6000.18, 0.0637200
6007.13, 0.0613000
6014.1, 0.0587910
6021.08, 0.0567290
6028.09, 0.0544890
6035.1, 0.0523380
6042.14, 0.0499180
6049.19, 0.0475880
6056.25, 0.0470500
6063.34, 0.0461540
6070.44, 0.0448100
6077.55, 0.0440030
6084.69, 0.0433760
6091.84, 0.0426590
6099.0, 0.0421210
6106.19, 0.0413150
6113.39, 0.0408670
6120.61, 0.0414040
6127.84, 0.0420320
6135.09, 0.0425690
6142.36, 0.0431970
6149.65, 0.0441830
6156.95, 0.0452580
6164.27, 0.0467820
6171.61, 0.0481260
6178.97, 0.0490220
6186.34, 0.0505460
6193.73, 0.0526070
6201.14, 0.0540410
6208.57, 0.0553850
6216.01, 0.0569090
6223.47, 0.0584320
6230.95, 0.0597770
6238.45, 0.0612100
6245.97, 0.0625550
6253.5, 0.0638090
6261.06, 0.0651540
6268.63, 0.0664980
6276.21, 0.0677530
6283.82, 0.0690070
6291.45, 0.0703520
6299.1, 0.0713380
6306.76, 0.0721440
6314.44, 0.0730400
6322.14, 0.0739360
6329.86, 0.0748330
6337.6, 0.0751020
6345.35, 0.0756390
6353.13, 0.0770730
6360.92, 0.0778800
6368.74, 0.0780590
6376.57, 0.0789550
6384.43, 0.0798510
6392.3, 0.0804790
6400.19, 0.0808370
6408.1, 0.0800310
6416.03, 0.0801200
6423.98, 0.0819130
6431.95, 0.0829880
6439.94, 0.0837050
6447.95, 0.0843320
6455.98, 0.0849600
6464.03, 0.0854970
6472.1, 0.0854970
6480.19, 0.0854970
6488.31, 0.0851390
6496.44, 0.0855870
6504.59, 0.0872900
6512.76, 0.0880070
6520.95, 0.0881860
6529.16, 0.0891720
6537.4, 0.0898890
6545.65, 0.0902470
6553.92, 0.0905160
6562.22, 0.0906060
6570.54, 0.0902470
6578.88, 0.0910540
6587.23, 0.0918600
6595.61, 0.0923090
6604.02, 0.0929360
6612.44, 0.0932050
6620.89, 0.0930260
6629.35, 0.0919500
6637.84, 0.0914120
6646.35, 0.0927570
6654.88, 0.0936530
6663.44, 0.0935630
6672.01, 0.0931150
6680.61, 0.0927570
6689.23, 0.0929360
6697.88, 0.0929360
6706.54, 0.0923090
6715.23, 0.0919500
6723.94, 0.0919500
6732.67, 0.0919500
6741.42, 0.0918600
6750.2, 0.0914120
6759.0, 0.0909640
6767.82, 0.0902470
6776.67, 0.0892620
6785.54, 0.0881860
6794.44, 0.0879170
6803.35, 0.0881860
6812.29, 0.0879170
6821.26, 0.0870210
6830.24, 0.0864830
6839.25, 0.0865730
6848.29, 0.0859460
6857.35, 0.0845120
6866.43, 0.0839740
6875.54, 0.0845120
6884.67, 0.0845120
6893.82, 0.0839740
6903.0, 0.0832570
6912.2, 0.0828980
6921.43, 0.0825400
6930.69, 0.0820020
6939.96, 0.0815540
6949.27, 0.0807480
6958.59, 0.0798510
6967.95, 0.0801200
6977.33, 0.0802100
6986.73, 0.0798510
6996.16, 0.0794930
7005.61, 0.0793140
7015.09, 0.0788660
7024.6, 0.0785970
7034.13, 0.0780590
7043.69, 0.0772520
7053.27, 0.0774320
7062.88, 0.0775210
7072.52, 0.0771630
7082.18, 0.0767150
7091.87, 0.0763560
7101.58, 0.0758190
7111.32, 0.0750120
7121.09, 0.0745640
7130.88, 0.0742950
7140.71, 0.0736680
7150.56, 0.0730400
7160.43, 0.0725030
7170.33, 0.0720540
7180.27, 0.0720540
7190.23, 0.0719650
7200.21, 0.0715170
7210.23, 0.0711580
7220.27, 0.0708890
7230.34, 0.0703520
7240.44, 0.0699040
7250.56, 0.0694550
7260.72, 0.0688280
7270.9, 0.0681110
7281.12, 0.0674840
7291.36, 0.0670360
7301.63, 0.0663190
7311.93, 0.0652430
7322.25, 0.0645260
7332.61, 0.0637200
7343.0, 0.0628240
7353.41, 0.0619270
7363.86, 0.0610310
7374.33, 0.0598660
7384.83, 0.0587910
7395.37, 0.0577150
7405.93, 0.0565500
7416.53, 0.0555640
7427.15, 0.0543100
7437.81, 0.0529650
7448.5, 0.0515320
7459.22, 0.0502770
7469.96, 0.0490220
7480.74, 0.0477670
7491.55, 0.0465130
7502.39, 0.0450790
7513.27, 0.0439140
7524.17, 0.0424800
7535.11, 0.0411360
7546.08, 0.0397020
7557.08, 0.0383570
7568.11, 0.0369230
7579.17, 0.0354900
7590.27, 0.0341450
7601.4, 0.0329800
7612.56, 0.0315460
7623.76, 0.0303810
7634.98, 0.0291260
7646.24, 0.0278720
7657.54, 0.0265280
7668.87, 0.0252730
7680.23, 0.0241080
7691.62, 0.0228530
7703.05, 0.0214190
7714.51, 0.0200750
7726.01, 0.0189100
7737.54, 0.0176550
7749.11, 0.0164000
7760.71, 0.0151460
7772.35, 0.0138010
7784.02, 0.0127260
7795.72, 0.0116510
7807.46, 0.0103060
7819.23, 0.00905200
7831.04, 0.00824500
7842.89, 0.00734900
7854.77, 0.00645300
7866.69, 0.00573600
7878.65, 0.00510800
7890.64, 0.00430200
7902.67, 0.00367400
7914.74, 0.00331600
7926.84, 0.00304700
7938.98, 0.00268900
7951.16, 0.00250900
7963.37, 0.00233000
7975.62, 0.00224000
7987.91, 0.00206100
8000.24, 0.00206100
8012.6, 0.00215100
8025.01, 0.00224000
8037.45, 0.00242000
8049.93, 0.00277800
8062.45, 0.00286800
8075.01, 0.00286800
8087.61, 0.00313700
8100.24, 0.00358500
8112.91, 0.00376400
8125.63, 0.00394300
8138.39, 0.00439100
8151.18, 0.00483900
8164.02, 0.00501900
8176.9, 0.00528800
8189.81, 0.00555600
8202.77, 0.00600500
8215.77, 0.00645300
8228.82, 0.00654200
8241.9, 0.00645300
8255.02, 0.00654200
8268.19, 0.00690100
8281.39, 0.00717000
8294.65, 0.00743800
8307.94, 0.00752800
8321.28, 0.00770700
8334.66, 0.00779700
8348.08, 0.00779700
8361.54, 0.00770700
8375.05, 0.00770700
8388.6, 0.00806600
8402.2, 0.00824500
8415.84, 0.00806600
8429.52, 0.00797600
8443.25, 0.00788700
8457.02, 0.00788700
8470.84, 0.00779700
8484.7, 0.00779700
8498.61, 0.00770700
8512.57, 0.00752800
8526.57, 0.00752800
8540.62, 0.00743800
8554.71, 0.00734900
8568.85, 0.00708000
8583.04, 0.00699000
8597.27, 0.00708000
8611.55, 0.00699000
8625.88, 0.00645300
8640.26, 0.00618400
8654.68, 0.00627300
8669.16, 0.00618400
8683.68, 0.00600500
8698.25, 0.00573600
8712.87, 0.00555600
8727.53, 0.00537700
8742.25, 0.00519800
8757.02, 0.00501900
8771.83, 0.00492900
8786.7, 0.00483900
8801.62, 0.00475000
8816.59, 0.00483900
8831.61, 0.00483900
8846.68, 0.00519800
8861.8, 0.00528800
8876.97, 0.00528800
8892.2, 0.00600500
8907.48, 0.00681100
8922.81, 0.00717000
8938.2, 0.00743800
8953.63, 0.00806600
8969.13, 0.00878300
8984.67, 0.00932000
9000.27, 0.00985800
9015.92, 0.0101270
9031.63, 0.0106650
9047.39, 0.0112020
9063.21, 0.0116510
9079.08, 0.0118300
9095.01, 0.0121880
9111.0, 0.0124570
9127.04, 0.0129050
9143.13, 0.0135330
9159.28, 0.0142500
9175.49, 0.0147870
9191.76, 0.0149670
9208.09, 0.0149670
9224.47, 0.0146980
9240.92, 0.0142500
9257.42, 0.0138010
9273.98, 0.0131740
9290.6, 0.0123680
9307.28, 0.0114710
9324.02, 0.0105750
9340.82, 0.0102170
9357.68, 0.00976900
9374.6, 0.00896200
9391.58, 0.00842400
9408.62, 0.00842400
9425.73, 0.00824500
9442.9, 0.00761800
9460.13, 0.00752800
9477.42, 0.00743800
9494.78, 0.00725900
9512.2, 0.00743800
9529.69, 0.00788700
9547.24, 0.00797600
9564.86, 0.00788700
9582.54, 0.00779700
9600.28, 0.00788700
9618.1, 0.00833500
9635.97, 0.00869300
9653.92, 0.00914100
9671.93, 0.00958900
9690.01, 0.00994800
9708.16, 0.0103960
9726.37, 0.0108440
9744.65, 0.0114710
9763.0, 0.0119190
9781.43, 0.0123680
9799.92, 0.0128160
9818.48, 0.0132640
9837.1, 0.0135330
9855.8, 0.0138910
9874.58, 0.0146080
9893.42, 0.0155040
9912.34, 0.0165800
9931.33, 0.0180140
9950.39, 0.0194480
9969.52, 0.0198960
9988.74, 0.0196270
10008.0, 0.0186410
10027.4, 0.0179240
10046.8, 0.0178340
10066.3, 0.0180140
10085.9, 0.0175660
10105.6, 0.0172970
10125.3, 0.0172970
10145.1, 0.0172070
10165.0, 0.0168490
10185.0, 0.0165800
10205.0, 0.0166690
10225.2, 0.0166690
10245.4, 0.0166690
10265.7, 0.0166690
10286.0, 0.0170280
10306.5, 0.0169380
10327.0, 0.0170280
10347.6, 0.0175660
10368.3, 0.0180140
10389.1, 0.0180140
10409.9, 0.0180140
10430.9, 0.0181930
10451.9, 0.0185510
10473.0, 0.0191790
10494.2, 0.0198060
10515.5, 0.0204330
10536.9, 0.0212400
10558.4, 0.0219570
10579.9, 0.0233010
10601.5, 0.0250940
10623.3, 0.0265280
10645.1, 0.0278720
10667.0, 0.0291260
10689.0, 0.0303810
10711.1, 0.0316360
10733.2, 0.0330700
10755.5, 0.0345040
10777.9, 0.0357580
10800.3, 0.0367440
10822.9, 0.0376400
10845.5, 0.0387160
10868.2, 0.0397910
10891.1, 0.0405080
10914.0, 0.0414040
10937.0, 0.0423010
10960.2, 0.0428380
10983.4, 0.0431070
11006.7, 0.0434660
11030.1, 0.0439140
11053.6, 0.0440030
11077.3, 0.0441830
11101.0, 0.0443620
11124.8, 0.0442720
11148.7, 0.0440930
11172.7, 0.0437350
11196.9, 0.0435550
11221.1, 0.0434660
11245.4, 0.0433760
11269.9, 0.0431970
11294.4, 0.0427490
11319.1, 0.0419420
11343.9, 0.0414040
11368.8, 0.0408670
11393.7, 0.0406870
11418.8, 0.0405980
11444.0, 0.0401500
11469.4, 0.0398810
11494.8, 0.0390740
11520.3, 0.0383570
11546.0, 0.0382680
11571.8, 0.0383570
11597.7, 0.0380880
11623.7, 0.0378200
11649.8, 0.0374610
11676.0, 0.0368340
11702.4, 0.0368340
11728.9, 0.0368340
11755.5, 0.0362060
11782.2, 0.0361170
11809.0, 0.0361170
11836.0, 0.0358480
11863.0, 0.0354000
11890.3, 0.0351310
11917.6, 0.0347730
11945.0, 0.0344140
11972.6, 0.0345040
12000.4, 0.0345930
12028.2, 0.0345930
12056.2, 0.0345040
12084.3, 0.0341450
12112.5, 0.0337870
12140.9, 0.0334280
12169.4, 0.0331590
12198.0, 0.0328910
12226.8, 0.0321740
12255.7, 0.0316360
12284.7, 0.0313670
12313.9, 0.0314570
12343.2, 0.0310090
12372.7, 0.0304710
12402.3, 0.0299330
12432.0, 0.0294850
12461.9, 0.0292160
12491.9, 0.0287680
12522.1, 0.0287680
12552.4, 0.0283200
12582.9, 0.0276930
12613.5, 0.0271550
12644.3, 0.0267070
12675.2, 0.0260790
12706.3, 0.0255420
12737.5, 0.0247350
12768.9, 0.0241970
12800.4, 0.0242870
12832.1, 0.0243770
12863.9, 0.0239290
12895.9, 0.0232120
12928.1, 0.0229430
12960.4, 0.0224950
12992.9, 0.0219570
13025.5, 0.0217780
13058.3, 0.0218670
13091.3, 0.0213300
13124.4, 0.0208810
13157.8, 0.0207020
13191.2, 0.0200750
13224.9, 0.0192680
13258.7, 0.0189990
13292.7, 0.0189100
13326.9, 0.0183720
13361.2, 0.0179240
13395.7, 0.0179240
13430.4, 0.0172970
13465.3, 0.0160420
13500.4, 0.0156840
13535.7, 0.0156840
13571.1, 0.0152350
13606.7, 0.0142500
13642.5, 0.0138910
13678.5, 0.0140700
13714.7, 0.0141600
13751.1, 0.0138910
13787.6, 0.0133530
13824.4, 0.0125470
13861.4, 0.0121880
13898.5, 0.0115610
13935.9, 0.0109340
13973.5, 0.0107540
14011.2, 0.0101270
14049.2, 0.0100370
14087.4, 0.0100370
14125.8, 0.00950000
14164.3, 0.00869300
14203.2, 0.00824500
14242.2, 0.00806600
14281.4, 0.00779700
14320.9, 0.00806600
14360.5, 0.00761800
14400.4, 0.00681100
14440.5, 0.00636300
14480.9, 0.00681100
14521.4, 0.00672100
14562.2, 0.00573600
14603.3, 0.00546700
14644.5, 0.00555600
14686.0, 0.00537700
14727.7, 0.00537700
14769.7, 0.00501900
14811.9, 0.00510800
14854.3, 0.00528800
14897.0, 0.00537700
14939.9, 0.00537700
14983.1, 0.00546700
15026.5, 0.00546700
15070.2, 0.00591500
15114.2, 0.00582500
15158.3, 0.00627300
15202.8, 0.00618400
15247.5, 0.00555600
15292.5, 0.00591500
15337.7, 0.00591500
15383.2, 0.00573600
15429.0, 0.00555600
15475.1, 0.00573600
15521.4, 0.00546700
15568.0, 0.00519800
15614.9, 0.00636300
15662.1, 0.00672100
15709.6, 0.00752800
15757.3, 0.00887200
15805.4, 0.00994800
15853.7, 0.00967900
15902.3, 0.00985800
15951.2, 0.0103960
16000.5, 0.0107540
16050.0, 0.0101270
16099.8, 0.00914100
16150.0, 0.00833500
16200.5, 0.00815500
16251.3, 0.00815500
16302.4, 0.00824500
16353.8, 0.00824500
16405.5, 0.00833500
16457.6, 0.00815500
16510.0, 0.00797600
16562.8, 0.00797600
16615.9, 0.00770700
16669.3, 0.00743800
16723.1, 0.00815500
16777.2, 0.00806600
16831.7, 0.00743800
16886.5, 0.00779700
16941.7, 0.00815500
16997.2, 0.00743800
17053.1, 0.00770700
17109.4, 0.00905200
17166.1, 0.00994800
17223.1, 0.00994800
17280.5, 0.00958900
17338.3, 0.00905200
17396.5, 0.00887200
17455.1, 0.00914100
17514.0, 0.0102170
17573.4, 0.0104860
17633.2, 0.0107540
17693.4, 0.0100370
17754.0, 0.00941000
17815.0, 0.00932000
17876.4, 0.00932000
17938.3, 0.00994800
18000.5, 0.0107540
18063.3, 0.0109340
18126.4, 0.0108440
18190.0, 0.0103960
18254.1, 0.0108440
18318.6, 0.0122780
18383.5, 0.0127260
18449.0, 0.0127260
18514.9, 0.0128160
18581.2, 0.0119190
18648.0, 0.0123680
18715.4, 0.0150560
18783.2, 0.0149670
18851.5, 0.0138910
18920.3, 0.0142500
18989.6, 0.0149670
19059.4, 0.0164000
19129.7, 0.0159520
19200.6, 0.0154150
19272.0, 0.0149670
19343.9, 0.0152350
19416.3, 0.0172070
19489.3, 0.0169380
19562.8, 0.0164000
19637.0, 0.0168490
19711.6, 0.0166690
19786.8, 0.0174760
19862.6, 0.0189100
19939.0, 0.0187310
20016.0, 0.0188200
20093.6, 0.0189990
20171.8, 0.0180140
20250.6, 0.0163110
20330.0, 0.0152350
20410.0, 0.0153250
20490.7, 0.0144290
20572.0, 0.0134430
20654.0, 0.0156840
20736.6, 0.0182820
20819.9, 0.0182820
20903.8, 0.0169380
20988.5, 0.0166690
21073.8, 0.0184620
21159.8, 0.0191790
21246.5, 0.0200750
21334.0, 0.0202540
21422.1, 0.0233010
21511.0, 0.0251830
21600.7, 0.0248250
21691.0, 0.0227630
21782.1, 0.0226740
21874.0, 0.0248250
21966.7, 0.0256310
22060.2, 0.0235700
22154.5, 0.0245560
22249.6, 0.0235700
22345.5, 0.0215090
22442.2, 0.0206130
22539.8, 0.0208810
22638.2, 0.0215090
22737.5, 0.0228530
22837.7, 0.0250040
22938.7, 0.0290370
23040.7, 0.0327110
23143.5, 0.0304710
23247.3, 0.0276030
23352.1, 0.0290370
23457.7, 0.0288580
23564.4, 0.0275130
23672.0, 0.0293950
23780.5, 0.0346830
23890.1, 0.0364750
24000.7, 0.0369230
24112.3, 0.0316360
24225.0, 0.0312770
24338.7, 0.0402390
24453.5, 0.0423900
24569.4, 0.0375510
24686.4, 0.0319940
24804.5, 0.0278720
