Database of Origin,USGS Spectral Database
Sample Description,See USGS database for additional info
Date Added,2017-02-22 02:49:12.848798

Data ID,USGS_top34          
Sample ID,topaz_hs184.22317
Mineral Name,topaz

Wavelength
1383.55, 0.705058
1383.92, 0.704975
1384.29, 0.704067
1384.66, 0.702745
1385.03, 0.701836
1385.4, 0.702001
1385.77, 0.701340
1386.14, 0.700927
1386.51, 0.699853
1386.88, 0.699523
1387.25, 0.699853
1387.62, 0.698614
1387.99, 0.698449
1388.36, 0.699027
1388.74, 0.699110
1389.11, 0.697540
1389.48, 0.696135
1389.85, 0.695640
1390.23, 0.695557
1390.6, 0.695061
1390.97, 0.694318
1391.35, 0.693739
1391.72, 0.692831
1392.09, 0.692583
1392.47, 0.692005
1392.84, 0.690930
1393.21, 0.690104
1393.59, 0.689774
1393.96, 0.688782
1394.34, 0.687295
1394.71, 0.686469
1395.09, 0.686387
1395.46, 0.685726
1395.84, 0.684073
1396.22, 0.682173
1396.59, 0.680273
1396.97, 0.678455
1397.35, 0.676555
1397.72, 0.675068
1398.1, 0.672837
1398.48, 0.670111
1398.85, 0.666476
1399.23, 0.661601
1399.61, 0.655735
1399.99, 0.648713
1400.37, 0.641112
1400.74, 0.631611
1401.12, 0.619962
1401.5, 0.607156
1401.88, 0.593277
1402.26, 0.578819
1402.64, 0.563039
1403.02, 0.548415
1403.4, 0.535940
1403.78, 0.525613
1404.16, 0.519334
1404.54, 0.518590
1404.92, 0.522556
1405.3, 0.529578
1405.68, 0.538914
1406.06, 0.549655
1406.44, 0.560808
1406.83, 0.571383
1407.21, 0.580719
1407.59, 0.589641
1407.97, 0.597408
1408.35, 0.603025
1408.74, 0.607982
1409.12, 0.612031
1409.5, 0.616079
1409.89, 0.620210
1410.27, 0.624258
1410.65, 0.627893
1411.04, 0.631611
1411.42, 0.635412
1411.81, 0.639047
1412.19, 0.642930
1412.58, 0.645987
1412.96, 0.648382
1413.35, 0.650861
1413.73, 0.652679
1414.12, 0.654661
1414.5, 0.656396
1414.89, 0.658049
1415.28, 0.659205
1415.66, 0.660279
1416.05, 0.660858
1416.44, 0.661767
1416.82, 0.662510
1417.21, 0.663006
1417.6, 0.662923
1417.98, 0.663088
1418.37, 0.663336
1418.76, 0.663336
1419.15, 0.664080
1419.54, 0.664658
1419.93, 0.664576
1420.32, 0.663749
1420.71, 0.663336
1421.09, 0.663667
1421.48, 0.663502
1421.88, 0.663254
1422.27, 0.663171
1422.66, 0.663254
1423.05, 0.663254
1423.44, 0.663088
1423.83, 0.662510
1424.22, 0.662262
1424.61, 0.662593
1425.0, 0.662345
1425.39, 0.662345
1425.78, 0.662262
1426.18, 0.661519
1426.57, 0.661436
1426.96, 0.661519
1427.36, 0.661436
1427.75, 0.661023
1428.14, 0.660610
1428.54, 0.660692
1428.93, 0.660197
1429.32, 0.660279
1429.72, 0.660114
1430.11, 0.660362
1430.51, 0.659701
1430.9, 0.659371
1431.3, 0.659288
1431.69, 0.658958
1432.09, 0.658544
1432.48, 0.657801
1432.88, 0.657305
1433.28, 0.657553
1433.67, 0.657718
1434.07, 0.657305
1434.46, 0.656809
1434.86, 0.656314
1435.26, 0.656066
1435.66, 0.655735
1436.05, 0.655405
1436.45, 0.655653
1436.85, 0.655405
1437.25, 0.654909
1437.65, 0.654992
1438.05, 0.654661
1438.44, 0.654414
1438.84, 0.654166
1439.24, 0.653835
1439.64, 0.653009
1440.04, 0.652761
1440.44, 0.653092
1440.84, 0.653257
1441.24, 0.652679
1441.65, 0.651770
1442.05, 0.651109
1442.45, 0.651191
1442.85, 0.651274
1443.25, 0.651109
1443.65, 0.651357
1444.05, 0.651687
1444.46, 0.650944
1444.86, 0.650448
1445.26, 0.650365
1445.67, 0.649870
1446.07, 0.650035
1446.47, 0.650200
1446.88, 0.649870
1447.28, 0.649209
1447.68, 0.649126
1448.09, 0.649291
1448.49, 0.648796
1448.9, 0.648300
1449.3, 0.647556
1449.71, 0.647474
1450.11, 0.647887
1450.52, 0.648382
1450.93, 0.648300
1451.33, 0.647722
1451.74, 0.647639
1452.14, 0.647391
1452.55, 0.646648
1452.96, 0.646730
1453.36, 0.646813
1453.77, 0.646234
1454.18, 0.646400
1454.59, 0.646317
1455.0, 0.646069
1455.41, 0.646152
1455.81, 0.645904
1456.22, 0.645408
1456.63, 0.645243
1457.04, 0.645160
1457.45, 0.645243
1457.86, 0.645160
1458.27, 0.644747
1458.68, 0.644252
1459.09, 0.643508
1459.5, 0.643012
1459.91, 0.642930
1460.32, 0.643178
1460.74, 0.643591
1461.15, 0.643012
1461.56, 0.642599
1461.97, 0.642351
1462.39, 0.642930
1462.8, 0.643095
1463.21, 0.642351
1463.62, 0.641608
1464.04, 0.641608
1464.45, 0.641360
1464.86, 0.641195
1465.28, 0.641525
1465.69, 0.641856
1466.11, 0.641525
1466.52, 0.641195
1466.94, 0.640782
1467.35, 0.641195
1467.77, 0.641443
1468.18, 0.641030
1468.6, 0.640286
1469.02, 0.639955
1469.43, 0.640038
1469.85, 0.640038
1470.27, 0.640369
1470.68, 0.640369
1471.1, 0.639955
1471.52, 0.639790
1471.94, 0.640038
1472.35, 0.640121
1472.77, 0.640038
1473.19, 0.639542
1473.61, 0.639212
1474.03, 0.638964
1474.45, 0.639460
1474.87, 0.639955
1475.29, 0.639377
1475.71, 0.639129
1476.13, 0.639377
1476.55, 0.639873
1476.97, 0.639873
1477.39, 0.639625
1477.81, 0.639377
1478.23, 0.638634
1478.65, 0.638551
1479.07, 0.639129
1479.5, 0.639047
1479.92, 0.638882
1480.34, 0.638964
1480.76, 0.639460
1481.19, 0.639790
1481.61, 0.639625
1482.03, 0.639542
1482.46, 0.639129
1482.88, 0.638964
1483.31, 0.639542
1483.73, 0.639625
1484.16, 0.639377
1484.58, 0.639460
1485.01, 0.639460
1485.43, 0.639212
1485.86, 0.639460
1486.28, 0.639460
1486.71, 0.639295
1487.14, 0.639625
1487.56, 0.639377
1487.99, 0.639047
1488.42, 0.639129
1488.84, 0.639129
1489.27, 0.639542
1489.7, 0.639542
1490.13, 0.639295
1490.56, 0.639460
1490.98, 0.638964
1491.41, 0.638551
1491.84, 0.639047
1492.27, 0.639460
1492.7, 0.639790
1493.13, 0.639460
1493.56, 0.639212
1493.99, 0.639542
1494.42, 0.639955
1494.85, 0.639873
1495.29, 0.640038
1495.72, 0.640286
1496.15, 0.640121
1496.58, 0.639625
1497.01, 0.639460
1497.44, 0.639873
1497.88, 0.639790
1498.31, 0.639460
1498.74, 0.639873
1499.18, 0.640203
1499.61, 0.640203
1500.04, 0.639873
1500.48, 0.639955
1500.91, 0.640286
1501.35, 0.640369
1501.78, 0.640369
1502.22, 0.640369
1502.65, 0.640451
1503.09, 0.640369
1503.53, 0.640534
1503.96, 0.640616
1504.4, 0.640616
1504.83, 0.640699
1505.27, 0.640782
1505.71, 0.640782
1506.15, 0.640782
1506.58, 0.640699
1507.02, 0.640534
1507.46, 0.640203
1507.9, 0.640451
1508.34, 0.641277
1508.78, 0.641360
1509.21, 0.641277
1509.66, 0.640947
1510.09, 0.640782
1510.53, 0.641030
1510.97, 0.641112
1511.42, 0.641112
1511.86, 0.641195
1512.3, 0.641195
1512.74, 0.641112
1513.18, 0.641195
1513.62, 0.641608
1514.06, 0.641690
1514.51, 0.641690
1514.95, 0.641608
1515.39, 0.641525
1515.83, 0.641690
1516.28, 0.641690
1516.72, 0.641690
1517.16, 0.641773
1517.61, 0.641525
1518.05, 0.641112
1518.5, 0.641690
1518.94, 0.642186
1519.39, 0.642104
1519.83, 0.641938
1520.28, 0.642104
1520.73, 0.642351
1521.17, 0.642351
1521.62, 0.642351
1522.07, 0.642599
1522.51, 0.642765
1522.96, 0.642434
1523.41, 0.642104
1523.85, 0.642104
1524.3, 0.642434
1524.75, 0.642599
1525.2, 0.642765
1525.65, 0.642765
1526.1, 0.642930
1526.55, 0.643260
1527.0, 0.643756
1527.45, 0.643591
1527.9, 0.643178
1528.35, 0.643425
1528.8, 0.643425
1529.25, 0.643260
1529.7, 0.643178
1530.15, 0.643425
1530.6, 0.643756
1531.05, 0.643839
1531.51, 0.644086
1531.96, 0.644417
1532.41, 0.644417
1532.87, 0.644086
1533.32, 0.644417
1533.77, 0.644665
1534.23, 0.644747
1534.68, 0.644830
1535.14, 0.644830
1535.59, 0.645326
1536.05, 0.645326
1536.5, 0.645078
1536.96, 0.645326
1537.41, 0.645739
1537.87, 0.645821
1538.32, 0.645656
1538.78, 0.645904
1539.24, 0.646482
1539.7, 0.647061
1540.15, 0.647226
1540.61, 0.647226
1541.07, 0.646895
1541.53, 0.646895
1541.98, 0.646978
1542.44, 0.647143
1542.9, 0.647226
1543.36, 0.647391
1543.82, 0.647556
1544.28, 0.647804
1544.74, 0.648300
1545.2, 0.648713
1545.66, 0.648713
1546.12, 0.648961
1546.59, 0.648961
1547.05, 0.648961
1547.51, 0.649126
1547.97, 0.649209
1548.43, 0.649291
1548.9, 0.649374
1549.36, 0.649291
1549.82, 0.649622
1550.29, 0.649952
1550.75, 0.650035
1551.21, 0.650200
1551.68, 0.650778
1552.14, 0.651109
1552.61, 0.651274
1553.07, 0.650778
1553.54, 0.650448
1554.0, 0.650778
1554.47, 0.651026
1554.93, 0.651191
1555.4, 0.651687
1555.87, 0.651687
1556.34, 0.651439
1556.8, 0.651605
1557.27, 0.651852
1557.74, 0.652431
1558.21, 0.652679
1558.68, 0.652679
1559.14, 0.652679
1559.61, 0.653092
1560.08, 0.653174
1560.55, 0.653340
1561.02, 0.653422
1561.49, 0.653340
1561.96, 0.653587
1562.43, 0.653835
1562.9, 0.653835
1563.38, 0.654083
1563.85, 0.654248
1564.32, 0.654248
1564.79, 0.654331
1565.26, 0.655074
1565.74, 0.655240
1566.21, 0.655074
1566.68, 0.655074
1567.16, 0.655074
1567.63, 0.655322
1568.1, 0.655735
1568.58, 0.655735
1569.05, 0.655735
1569.53, 0.655653
1570.0, 0.655818
1570.48, 0.655901
1570.96, 0.656149
1571.43, 0.656314
1571.91, 0.656314
1572.39, 0.656149
1572.86, 0.656149
1573.34, 0.656644
1573.82, 0.657223
1574.3, 0.657140
1574.77, 0.656892
1575.25, 0.656809
1575.73, 0.656975
1576.21, 0.657470
1576.69, 0.657388
1577.17, 0.657057
1577.65, 0.656892
1578.13, 0.657223
1578.61, 0.657636
1579.09, 0.657801
1579.57, 0.657966
1580.05, 0.658214
1580.54, 0.658379
1581.02, 0.658379
1581.5, 0.658379
1581.98, 0.658627
1582.47, 0.658544
1582.95, 0.658627
1583.43, 0.658875
1583.92, 0.658875
1584.4, 0.658544
1584.88, 0.658462
1585.37, 0.658627
1585.85, 0.659123
1586.34, 0.659288
1586.82, 0.659123
1587.31, 0.659288
1587.8, 0.659536
1588.28, 0.659949
1588.77, 0.660114
1589.26, 0.660032
1589.74, 0.660279
1590.23, 0.659949
1590.72, 0.659949
1591.21, 0.660114
1591.7, 0.660279
1592.19, 0.660362
1592.67, 0.660527
1593.16, 0.660775
1593.65, 0.660940
1594.14, 0.661106
1594.63, 0.661436
1595.12, 0.661767
1595.61, 0.661767
1596.11, 0.661767
1596.6, 0.661684
1597.09, 0.662097
1597.58, 0.662180
1598.08, 0.662510
1598.57, 0.662593
1599.06, 0.662262
1599.55, 0.662345
1600.05, 0.662841
1600.54, 0.663254
1601.04, 0.663254
1601.53, 0.663336
1602.03, 0.663749
1602.52, 0.663832
1603.02, 0.663502
1603.51, 0.663584
1604.01, 0.664245
1604.5, 0.664576
1605.0, 0.664741
1605.5, 0.664741
1606.0, 0.664658
1606.49, 0.664741
1606.99, 0.665071
1607.49, 0.665484
1607.99, 0.665980
1608.49, 0.666228
1608.99, 0.666063
1609.49, 0.666310
1609.99, 0.666641
1610.49, 0.666724
1610.99, 0.666806
1611.49, 0.667385
1611.99, 0.667302
1612.49, 0.667137
1612.99, 0.667632
1613.49, 0.667550
1614.0, 0.668045
1614.5, 0.668541
1615.0, 0.668541
1615.51, 0.668706
1616.01, 0.669119
1616.51, 0.669450
1617.02, 0.669863
1617.52, 0.669946
1618.03, 0.670276
1618.53, 0.670441
1619.04, 0.669780
1619.54, 0.669698
1620.05, 0.670607
1620.55, 0.671185
1621.06, 0.671350
1621.57, 0.671598
1622.08, 0.671846
1622.58, 0.672011
1623.09, 0.672176
1623.6, 0.672011
1624.11, 0.671929
1624.62, 0.672342
1625.13, 0.672837
1625.64, 0.673333
1626.15, 0.673581
1626.66, 0.673498
1627.17, 0.673746
1627.68, 0.673911
1628.19, 0.673581
1628.7, 0.673746
1629.21, 0.673911
1629.72, 0.673911
1630.24, 0.673994
1630.75, 0.674076
1631.26, 0.674572
1631.78, 0.674903
1632.29, 0.674490
1632.8, 0.674738
1633.32, 0.675068
1633.83, 0.675151
1634.35, 0.675233
1634.86, 0.675564
1635.38, 0.675894
1635.9, 0.676142
1636.41, 0.676555
1636.93, 0.676472
1637.45, 0.676390
1637.96, 0.676472
1638.48, 0.676472
1639.0, 0.676803
1639.52, 0.676968
1640.04, 0.677051
1640.56, 0.677216
1641.08, 0.677629
1641.59, 0.677464
1642.11, 0.677547
1642.63, 0.677794
1643.16, 0.677877
1643.68, 0.677960
1644.2, 0.678042
1644.72, 0.677960
1645.24, 0.678042
1645.76, 0.678207
1646.29, 0.678290
1646.81, 0.678538
1647.33, 0.678951
1647.86, 0.679116
1648.38, 0.678951
1648.9, 0.679034
1649.43, 0.679447
1649.95, 0.680025
1650.48, 0.679777
1651.0, 0.679529
1651.53, 0.679529
1652.06, 0.679777
1652.58, 0.679860
1653.11, 0.680273
1653.64, 0.680603
1654.17, 0.680769
1654.69, 0.680603
1655.22, 0.680355
1655.75, 0.680438
1656.28, 0.680686
1656.81, 0.681182
1657.34, 0.681264
1657.87, 0.680769
1658.4, 0.681264
1658.93, 0.681760
1659.46, 0.681925
1659.99, 0.682090
1660.52, 0.682008
1661.05, 0.682090
1661.59, 0.682338
1662.12, 0.682751
1662.65, 0.682834
1663.19, 0.682586
1663.72, 0.682669
1664.26, 0.682999
1664.79, 0.683082
1665.32, 0.683164
1665.86, 0.683412
1666.39, 0.683412
1666.93, 0.683743
1667.47, 0.683991
1668.0, 0.684238
1668.54, 0.684321
1669.08, 0.684404
1669.61, 0.684156
1670.15, 0.684156
1670.69, 0.684486
1671.23, 0.684652
1671.77, 0.684404
1672.31, 0.684404
1672.85, 0.684404
1673.39, 0.684404
1673.93, 0.684569
1674.47, 0.684404
1675.01, 0.684321
1675.55, 0.684238
1676.09, 0.683660
1676.64, 0.683082
1677.18, 0.682504
1677.72, 0.682008
1678.26, 0.681843
1678.81, 0.681595
1679.35, 0.680851
1679.89, 0.679777
1680.44, 0.678538
1680.98, 0.676968
1681.53, 0.675646
1682.07, 0.674820
1682.62, 0.673911
1683.17, 0.673168
1683.71, 0.673333
1684.26, 0.673746
1684.81, 0.674407
1685.36, 0.675564
1685.9, 0.676885
1686.45, 0.678042
1687.0, 0.679529
1687.55, 0.680769
1688.1, 0.682008
1688.65, 0.683412
1689.2, 0.684652
1689.75, 0.685313
1690.3, 0.686056
1690.85, 0.686717
1691.41, 0.687295
1691.96, 0.687956
1692.51, 0.688782
1693.06, 0.689609
1693.61, 0.690187
1694.17, 0.690517
1694.72, 0.690352
1695.28, 0.690270
1695.83, 0.690600
1696.39, 0.690765
1696.94, 0.691178
1697.5, 0.692005
1698.05, 0.692170
1698.61, 0.691839
1699.17, 0.691757
1699.72, 0.691757
1700.28, 0.692087
1700.84, 0.692583
1701.4, 0.692913
1701.95, 0.692996
1702.51, 0.692996
1703.07, 0.693079
1703.63, 0.693079
1704.19, 0.693079
1704.75, 0.693161
1705.31, 0.693492
1705.88, 0.693905
1706.44, 0.693987
1707.0, 0.693657
1707.56, 0.693492
1708.12, 0.693987
1708.69, 0.694153
1709.25, 0.693987
1709.81, 0.693905
1710.38, 0.693822
1710.94, 0.693822
1711.51, 0.693905
1712.07, 0.693987
1712.64, 0.694153
1713.2, 0.693987
1713.77, 0.693905
1714.34, 0.694070
1714.9, 0.694153
1715.47, 0.693987
1716.04, 0.693987
1716.61, 0.694153
1717.18, 0.694566
1717.74, 0.694400
1718.31, 0.694070
1718.88, 0.694235
1719.45, 0.694318
1720.02, 0.694153
1720.59, 0.694153
1721.17, 0.694235
1721.74, 0.694235
1722.31, 0.694070
1722.88, 0.694070
1723.45, 0.694400
1724.03, 0.694318
1724.6, 0.694153
1725.18, 0.694648
1725.75, 0.694896
1726.33, 0.694979
1726.9, 0.694896
1727.48, 0.694979
1728.05, 0.695392
1728.63, 0.695557
1729.2, 0.695557
1729.78, 0.695640
1730.36, 0.695888
1730.94, 0.695805
1731.51, 0.695805
1732.09, 0.696218
1732.67, 0.696383
1733.25, 0.696466
1733.83, 0.696548
1734.41, 0.696879
1734.99, 0.697209
1735.57, 0.697540
1736.15, 0.697870
1736.73, 0.697953
1737.32, 0.697788
1737.9, 0.697788
1738.48, 0.697870
1739.07, 0.698449
1739.65, 0.698779
1740.23, 0.698944
1740.82, 0.698944
1741.4, 0.698944
1741.99, 0.699275
1742.57, 0.699605
1743.16, 0.699688
1743.74, 0.699605
1744.33, 0.699853
1744.92, 0.700018
1745.51, 0.700184
1746.09, 0.700266
1746.68, 0.700101
1747.27, 0.700432
1747.86, 0.701010
1748.45, 0.701175
1749.04, 0.701092
1749.63, 0.701258
1750.22, 0.701340
1750.81, 0.701340
1751.4, 0.701506
1751.99, 0.701506
1752.59, 0.701506
1753.18, 0.701753
1753.77, 0.702084
1754.37, 0.702332
1754.96, 0.702414
1755.56, 0.702001
1756.15, 0.701836
1756.74, 0.702084
1757.34, 0.702662
1757.94, 0.702580
1758.53, 0.702580
1759.13, 0.702910
1759.73, 0.703075
1760.32, 0.703158
1760.92, 0.703323
1761.52, 0.703488
1762.12, 0.703654
1762.72, 0.703901
1763.32, 0.704067
1763.92, 0.703901
1764.52, 0.703984
1765.12, 0.704149
1765.72, 0.704232
1766.32, 0.704480
1766.92, 0.704645
1767.53, 0.704893
1768.13, 0.704975
1768.73, 0.705223
1769.34, 0.705306
1769.94, 0.705223
1770.55, 0.705306
1771.15, 0.705636
1771.76, 0.705554
1772.36, 0.705471
1772.97, 0.705389
1773.57, 0.705636
1774.18, 0.705884
1774.79, 0.706050
1775.4, 0.706380
1776.0, 0.706545
1776.61, 0.706793
1777.22, 0.706958
1777.83, 0.706710
1778.44, 0.706958
1779.05, 0.707206
1779.66, 0.707206
1780.27, 0.707206
1780.88, 0.707454
1781.5, 0.707537
1782.11, 0.707537
1782.72, 0.707124
1783.33, 0.707289
1783.95, 0.707289
1784.56, 0.707206
1785.18, 0.707371
1785.79, 0.707206
1786.41, 0.707454
1787.02, 0.707371
1787.64, 0.707124
1788.26, 0.707537
1788.87, 0.707702
1789.49, 0.707454
1790.11, 0.707454
1790.73, 0.707619
1791.35, 0.707702
1791.96, 0.707371
1792.58, 0.707124
1793.21, 0.707454
1793.83, 0.707702
1794.45, 0.707289
1795.07, 0.707124
1795.69, 0.707206
1796.31, 0.707454
1796.93, 0.707702
1797.56, 0.707784
1798.18, 0.708032
1798.8, 0.708198
1799.43, 0.708445
1800.05, 0.708198
1800.68, 0.708115
1801.3, 0.708363
1801.93, 0.708528
1802.56, 0.708280
1803.18, 0.708528
1803.81, 0.708693
1804.44, 0.708611
1805.07, 0.708693
1805.7, 0.708611
1806.33, 0.708528
1806.95, 0.708776
1807.58, 0.709189
1808.22, 0.709602
1808.85, 0.709685
1809.48, 0.709437
1810.11, 0.709437
1810.74, 0.709272
1811.38, 0.709189
1812.01, 0.709272
1812.64, 0.709519
1813.28, 0.709437
1813.91, 0.709767
1814.55, 0.709933
1815.18, 0.709685
1815.82, 0.709850
1816.45, 0.710015
1817.09, 0.709685
1817.73, 0.709767
1818.36, 0.710098
1819.0, 0.710263
1819.64, 0.710428
1820.28, 0.710593
1820.92, 0.710511
1821.56, 0.710346
1822.2, 0.710511
1822.84, 0.710676
1823.48, 0.710841
1824.12, 0.710841
1824.76, 0.710924
1825.41, 0.711502
1826.05, 0.711833
1826.69, 0.711585
1827.34, 0.711337
1827.98, 0.711502
1828.63, 0.711420
1829.27, 0.711254
1829.92, 0.711750
1830.56, 0.712328
1831.21, 0.712494
1831.86, 0.712246
1832.5, 0.712246
1833.15, 0.712163
1833.8, 0.711833
1834.45, 0.712328
1835.1, 0.712576
1835.75, 0.712576
1836.4, 0.712824
1837.05, 0.712907
1837.7, 0.712824
1838.35, 0.712659
1839.01, 0.712824
1839.66, 0.712907
1840.31, 0.712989
1840.96, 0.713320
1841.62, 0.713650
1842.27, 0.713320
1842.93, 0.713155
1843.58, 0.713237
1844.24, 0.713237
1844.9, 0.713485
1845.55, 0.713485
1846.21, 0.713485
1846.87, 0.713981
1847.53, 0.714229
1848.18, 0.714229
1848.84, 0.714146
1849.5, 0.714063
1850.16, 0.713981
1850.82, 0.714311
1851.48, 0.714394
1852.14, 0.714476
1852.81, 0.714724
1853.47, 0.714807
1854.13, 0.714724
1854.8, 0.714642
1855.46, 0.714642
1856.12, 0.714724
1856.79, 0.714890
1857.45, 0.714724
1858.12, 0.714642
1858.79, 0.714972
1859.45, 0.715220
1860.12, 0.714724
1860.79, 0.714807
1861.46, 0.714476
1862.12, 0.714146
1862.79, 0.714229
1863.46, 0.714311
1864.13, 0.714229
1864.8, 0.714476
1865.48, 0.714559
1866.15, 0.714311
1866.82, 0.714642
1867.49, 0.715055
1868.16, 0.714724
1868.84, 0.714476
1869.51, 0.714394
1870.19, 0.714559
1870.86, 0.714394
1871.54, 0.713981
1872.21, 0.714229
1872.89, 0.714724
1873.56, 0.714146
1874.24, 0.713650
1874.92, 0.713733
1875.6, 0.713733
1876.28, 0.713816
1876.96, 0.713650
1877.64, 0.713320
1878.32, 0.713320
1879.0, 0.713485
1879.68, 0.713485
1880.36, 0.713155
1881.04, 0.712907
1881.73, 0.712741
1882.41, 0.712659
1883.09, 0.712576
1883.78, 0.712659
1884.46, 0.712576
1885.15, 0.712246
1885.83, 0.712081
1886.52, 0.712246
1887.21, 0.712081
1887.89, 0.712081
1888.58, 0.711668
1889.27, 0.711585
1889.96, 0.711585
1890.65, 0.711254
1891.34, 0.711007
1892.03, 0.710676
1892.72, 0.710593
1893.41, 0.710511
1894.1, 0.710346
1894.79, 0.710180
1895.49, 0.710180
1896.18, 0.710180
1896.87, 0.710180
1897.57, 0.710346
1898.26, 0.710346
1898.96, 0.710346
1899.65, 0.710098
1900.35, 0.709850
1901.05, 0.709519
1901.74, 0.709354
1902.44, 0.709519
1903.14, 0.709519
1903.84, 0.709519
1904.54, 0.709602
1905.24, 0.709850
1905.94, 0.709767
1906.64, 0.709685
1907.34, 0.709272
1908.04, 0.709106
1908.75, 0.709106
1909.45, 0.709354
1910.15, 0.709850
1910.86, 0.710015
1911.56, 0.709767
1912.27, 0.709767
1912.97, 0.710015
1913.68, 0.710098
1914.39, 0.709850
1915.09, 0.709685
1915.8, 0.709767
1916.51, 0.709933
1917.22, 0.709850
1917.93, 0.709850
1918.64, 0.710098
1919.35, 0.710428
1920.06, 0.710428
1920.77, 0.710180
1921.48, 0.710098
1922.19, 0.709933
1922.91, 0.709933
1923.62, 0.710015
1924.33, 0.710015
1925.05, 0.710015
1925.76, 0.710098
1926.48, 0.709933
1927.19, 0.709850
1927.91, 0.709850
1928.63, 0.710015
1929.35, 0.709933
1930.07, 0.710015
1930.78, 0.710180
1931.5, 0.710428
1932.22, 0.710346
1932.94, 0.710428
1933.66, 0.710511
1934.39, 0.710346
1935.11, 0.710676
1935.83, 0.710759
1936.55, 0.710676
1937.28, 0.710593
1938.0, 0.711007
1938.73, 0.711172
1939.45, 0.711254
1940.18, 0.711420
1940.9, 0.711254
1941.63, 0.711089
1942.36, 0.711089
1943.09, 0.711420
1943.81, 0.711585
1944.54, 0.711668
1945.27, 0.711668
1946.0, 0.711750
1946.73, 0.711833
1947.47, 0.711915
1948.2, 0.711750
1948.93, 0.711420
1949.66, 0.711420
1950.4, 0.711420
1951.13, 0.711420
1951.86, 0.711502
1952.6, 0.711502
1953.34, 0.711668
1954.07, 0.711502
1954.81, 0.711337
1955.55, 0.711337
1956.29, 0.711172
1957.02, 0.711089
1957.76, 0.710924
1958.5, 0.710924
1959.24, 0.711337
1959.98, 0.711585
1960.72, 0.711502
1961.47, 0.711420
1962.21, 0.711420
1962.95, 0.711420
1963.7, 0.711172
1964.44, 0.711172
1965.18, 0.711172
1965.93, 0.711254
1966.67, 0.711089
1967.42, 0.711172
1968.17, 0.711172
1968.92, 0.711007
1969.66, 0.711089
1970.41, 0.711089
1971.16, 0.710924
1971.91, 0.711089
1972.66, 0.711254
1973.41, 0.711337
1974.16, 0.711668
1974.92, 0.711668
1975.67, 0.711668
1976.42, 0.711502
1977.18, 0.711420
1977.93, 0.711420
1978.69, 0.711833
1979.44, 0.711998
1980.2, 0.711750
1980.95, 0.711915
1981.71, 0.712163
1982.47, 0.712081
1983.23, 0.711915
1983.99, 0.711915
1984.74, 0.711915
1985.51, 0.711750
1986.27, 0.711998
1987.03, 0.711998
1987.79, 0.711833
1988.55, 0.711833
1989.32, 0.711833
1990.08, 0.711502
1990.84, 0.711502
1991.61, 0.711254
1992.37, 0.711337
1993.14, 0.711585
1993.9, 0.711502
1994.67, 0.711337
1995.44, 0.711089
1996.21, 0.710676
1996.98, 0.710759
1997.75, 0.710841
1998.52, 0.710593
1999.29, 0.710676
2000.06, 0.710759
2000.83, 0.710676
2001.6, 0.710428
2002.38, 0.710263
2003.15, 0.710346
2003.93, 0.710593
2004.7, 0.710676
2005.48, 0.710511
2006.25, 0.710428
2007.03, 0.710676
2007.81, 0.710511
2008.58, 0.710263
2009.36, 0.710098
2010.14, 0.710015
2010.92, 0.710263
2011.7, 0.710511
2012.48, 0.710593
2013.26, 0.711007
2014.05, 0.711420
2014.83, 0.711750
2015.61, 0.711750
2016.4, 0.711750
2017.18, 0.711750
2017.97, 0.711915
2018.75, 0.712411
2019.54, 0.712659
2020.32, 0.712741
2021.11, 0.712907
2021.9, 0.712907
2022.69, 0.713072
2023.48, 0.712824
2024.27, 0.712989
2025.06, 0.713072
2025.85, 0.712989
2026.64, 0.712824
2027.44, 0.712824
2028.23, 0.712824
2029.02, 0.712824
2029.82, 0.713072
2030.61, 0.713237
2031.41, 0.712989
2032.2, 0.712659
2033.0, 0.712659
2033.8, 0.712576
2034.6, 0.712494
2035.4, 0.712494
2036.2, 0.712246
2037.0, 0.711833
2037.8, 0.711668
2038.6, 0.711420
2039.4, 0.711089
2040.2, 0.711007
2041.01, 0.710841
2041.81, 0.710428
2042.61, 0.710346
2043.42, 0.709933
2044.22, 0.709437
2045.03, 0.708941
2045.84, 0.708198
2046.65, 0.707537
2047.46, 0.706958
2048.26, 0.706545
2049.07, 0.706132
2049.88, 0.705554
2050.69, 0.704562
2051.51, 0.703901
2052.32, 0.703075
2053.13, 0.702084
2053.94, 0.701092
2054.76, 0.699771
2055.57, 0.698366
2056.39, 0.697044
2057.2, 0.695557
2058.02, 0.693987
2058.84, 0.691757
2059.66, 0.689526
2060.48, 0.687543
2061.29, 0.685065
2062.11, 0.682173
2062.94, 0.679034
2063.76, 0.675729
2064.58, 0.671846
2065.4, 0.667054
2066.22, 0.662014
2067.05, 0.655983
2067.87, 0.648796
2068.7, 0.640782
2069.52, 0.631446
2070.35, 0.620045
2071.18, 0.607156
2072.0, 0.592120
2072.83, 0.574522
2073.66, 0.554612
2074.49, 0.532718
2075.32, 0.509089
2076.15, 0.483726
2076.98, 0.456958
2077.82, 0.429116
2078.65, 0.400117
2079.48, 0.370705
2080.32, 0.343111
2081.15, 0.319399
2081.99, 0.302380
2082.83, 0.294118
2083.66, 0.294862
2084.5, 0.303619
2085.34, 0.318656
2086.18, 0.338236
2087.02, 0.361039
2087.86, 0.385989
2088.7, 0.412096
2089.54, 0.438617
2090.39, 0.464476
2091.23, 0.489344
2092.07, 0.512724
2092.92, 0.534205
2093.76, 0.552959
2094.61, 0.569070
2095.45, 0.583280
2096.3, 0.595672
2097.15, 0.606165
2098.0, 0.615335
2098.85, 0.623102
2099.7, 0.630041
2100.55, 0.635825
2101.4, 0.640947
2102.25, 0.645491
2103.1, 0.649539
2103.96, 0.653009
2104.81, 0.656314
2105.67, 0.659123
2106.52, 0.661767
2107.38, 0.664328
2108.24, 0.666641
2109.09, 0.668954
2109.95, 0.671102
2110.81, 0.673250
2111.67, 0.675151
2112.53, 0.677051
2113.39, 0.678786
2114.25, 0.680273
2115.12, 0.681512
2115.98, 0.682504
2116.84, 0.683578
2117.71, 0.684569
2118.58, 0.685395
2119.44, 0.685891
2120.31, 0.686304
2121.18, 0.686717
2122.04, 0.687047
2122.91, 0.687130
2123.78, 0.687295
2124.65, 0.687461
2125.52, 0.686442
2126.4, 0.684485
2127.27, 0.684250
2128.14, 0.684093
2129.02, 0.682448
2129.89, 0.680882
2130.77, 0.679394
2131.64, 0.677201
2132.52, 0.674460
2133.4, 0.671562
2134.27, 0.668508
2135.15, 0.665297
2136.03, 0.662243
2136.91, 0.658640
2137.79, 0.654803
2138.68, 0.651748
2139.56, 0.649086
2140.44, 0.647206
2141.33, 0.645170
2142.21, 0.643447
2143.1, 0.641802
2143.99, 0.640549
2144.87, 0.640001
2145.76, 0.638826
2146.65, 0.636790
2147.54, 0.634597
2148.43, 0.633422
2149.32, 0.632561
2150.21, 0.630290
2151.1, 0.628018
2151.99, 0.626374
2152.89, 0.625982
2153.78, 0.625747
2154.68, 0.625982
2155.57, 0.626844
2156.47, 0.628802
2157.37, 0.631073
2158.27, 0.633266
2159.16, 0.635537
2160.06, 0.638669
2160.96, 0.642272
2161.86, 0.645326
2162.77, 0.648224
2163.67, 0.650887
2164.57, 0.653393
2165.48, 0.655273
2166.38, 0.656134
2167.29, 0.656212
2168.2, 0.656369
2169.1, 0.656056
2170.01, 0.655821
2170.92, 0.656056
2171.83, 0.656604
2172.74, 0.656839
2173.65, 0.656996
2174.56, 0.657230
2175.47, 0.658327
2176.39, 0.659188
2177.3, 0.659815
2178.22, 0.660755
2179.13, 0.661773
2180.05, 0.662478
2180.96, 0.663652
2181.88, 0.665610
2182.8, 0.666863
2183.72, 0.667881
2184.64, 0.668351
2185.56, 0.669056
2186.48, 0.669839
2187.41, 0.670857
2188.33, 0.671171
2189.25, 0.672032
2190.18, 0.672580
2191.1, 0.672659
2192.03, 0.672189
2192.96, 0.671641
2193.89, 0.670623
2194.82, 0.669761
2195.74, 0.668430
2196.68, 0.667490
2197.61, 0.666393
2198.54, 0.665375
2199.47, 0.664357
2200.4, 0.663261
2201.34, 0.662086
2202.28, 0.661381
2203.21, 0.660755
2204.15, 0.660911
2205.08, 0.661068
2206.02, 0.661225
2206.96, 0.661616
2207.9, 0.661695
2208.84, 0.661303
2209.78, 0.661146
2210.73, 0.661538
2211.67, 0.661146
2212.61, 0.660833
2213.56, 0.661146
2214.5, 0.661695
2215.45, 0.663417
2216.4, 0.664905
2217.35, 0.666002
2218.3, 0.667177
2219.24, 0.669291
2220.2, 0.672032
2221.15, 0.674225
2222.1, 0.675791
2223.05, 0.678376
2224.0, 0.681117
2224.96, 0.683701
2225.91, 0.685189
2226.87, 0.686442
2227.83, 0.687931
2228.79, 0.689497
2229.74, 0.690985
2230.7, 0.692081
2231.66, 0.692786
2232.63, 0.693256
2233.59, 0.693256
2234.55, 0.693961
2235.51, 0.694431
2236.48, 0.694822
2237.44, 0.694666
2238.41, 0.694509
2239.38, 0.694431
2240.34, 0.694196
2241.31, 0.694587
2242.28, 0.694901
2243.25, 0.694979
2244.22, 0.695057
2245.19, 0.694744
2246.17, 0.694431
2247.14, 0.694117
2248.12, 0.694039
2249.09, 0.694039
2250.07, 0.693334
2251.04, 0.692081
2252.02, 0.690123
2253.0, 0.687774
2253.98, 0.685738
2254.96, 0.682840
2255.94, 0.678846
2256.92, 0.673442
2257.91, 0.667568
2258.89, 0.661773
2259.88, 0.656369
2260.86, 0.652766
2261.85, 0.651200
2262.83, 0.651670
2263.82, 0.653550
2264.81, 0.656291
2265.8, 0.659815
2266.79, 0.663261
2267.78, 0.666942
2268.78, 0.670857
2269.77, 0.673912
2270.76, 0.675948
2271.76, 0.678689
2272.75, 0.681352
2273.75, 0.683388
2274.75, 0.684798
2275.75, 0.686051
2276.75, 0.687304
2277.75, 0.688322
2278.75, 0.689027
2279.75, 0.689418
2280.75, 0.689340
2281.76, 0.689184
2282.76, 0.689105
2283.77, 0.688870
2284.77, 0.688244
2285.78, 0.688322
2286.79, 0.687539
2287.8, 0.686442
2288.81, 0.685581
2289.82, 0.684563
2290.83, 0.682370
2291.84, 0.680804
2292.86, 0.679551
2293.87, 0.677828
2294.89, 0.676026
2295.91, 0.673912
2296.92, 0.671641
2297.94, 0.669526
2298.96, 0.667255
2299.98, 0.665454
2301.0, 0.663887
2302.02, 0.662556
2303.04, 0.661146
2304.07, 0.660050
2305.09, 0.659267
2306.12, 0.657857
2307.15, 0.656761
2308.17, 0.656369
2309.2, 0.655742
2310.23, 0.654646
2311.26, 0.653236
2312.29, 0.652297
2313.32, 0.651278
2314.35, 0.650339
2315.39, 0.649242
2316.42, 0.648381
2317.46, 0.647363
2318.5, 0.645640
2319.53, 0.643760
2320.57, 0.642115
2321.61, 0.639844
2322.65, 0.637730
2323.69, 0.635772
2324.73, 0.633971
2325.78, 0.632717
2326.82, 0.631699
2327.86, 0.630603
2328.91, 0.629898
2329.96, 0.629741
2331.01, 0.629741
2332.05, 0.629898
2333.1, 0.629898
2334.15, 0.629898
2335.21, 0.629428
2336.26, 0.629037
2337.31, 0.628880
2338.36, 0.628645
2339.42, 0.628175
2340.48, 0.628018
2341.53, 0.627079
2342.59, 0.626531
2343.65, 0.626687
2344.71, 0.626531
2345.77, 0.626217
2346.83, 0.626531
2347.9, 0.626687
2348.96, 0.627079
2350.02, 0.627705
2351.09, 0.628645
2352.16, 0.629428
2353.23, 0.629193
2354.29, 0.629350
2355.36, 0.629350
2356.43, 0.628880
2357.51, 0.627862
2358.58, 0.626922
2359.65, 0.626139
2360.73, 0.625356
2361.8, 0.624259
2362.88, 0.623241
2363.96, 0.622458
2365.03, 0.621910
2366.11, 0.621597
2367.19, 0.620422
2368.27, 0.618621
2369.36, 0.617289
2370.44, 0.616584
2371.53, 0.615566
2372.61, 0.614391
2373.7, 0.613217
2374.78, 0.612590
2375.87, 0.612277
2376.96, 0.612120
2378.05, 0.612669
2379.14, 0.612903
2380.24, 0.612434
2381.33, 0.612590
2382.42, 0.613138
2383.52, 0.613138
2384.61, 0.613138
2385.71, 0.613530
2386.81, 0.613530
2387.91, 0.612199
2389.01, 0.611494
2390.11, 0.610789
2391.22, 0.609457
2392.32, 0.608283
2393.42, 0.607656
2394.53, 0.607186
2395.64, 0.606325
2396.74, 0.605463
2397.85, 0.604367
2398.96, 0.602801
2400.07, 0.602252
2401.18, 0.602017
2402.3, 0.601391
2403.41, 0.600295
2404.52, 0.599511
2405.64, 0.598180
2406.76, 0.596849
2407.88, 0.595439
2408.99, 0.593794
2410.11, 0.591210
2411.23, 0.587999
2412.36, 0.585023
2413.48, 0.582360
2414.6, 0.580089
2415.73, 0.577739
2416.85, 0.575938
2417.98, 0.574920
2419.11, 0.574215
2420.24, 0.573745
2421.37, 0.573510
2422.5, 0.573119
2423.64, 0.572257
2424.77, 0.571787
2425.9, 0.571317
2427.04, 0.571004
2428.18, 0.571474
2429.31, 0.571866
2430.45, 0.572179
2431.59, 0.572179
2432.73, 0.572101
2433.88, 0.572571
2435.02, 0.573667
2436.16, 0.574842
2437.31, 0.576408
2438.45, 0.577974
2439.6, 0.579306
2440.75, 0.579541
2441.9, 0.578523
2443.05, 0.576800
2444.2, 0.574528
2445.35, 0.572414
2446.51, 0.570378
2447.67, 0.568341
2448.82, 0.566305
2449.98, 0.563799
2451.14, 0.561136
2452.3, 0.558474
2453.46, 0.555498
2454.62, 0.551817
2455.78, 0.547979
2456.94, 0.544063
2458.11, 0.540304
2459.28, 0.536153
2460.44, 0.531768
2461.61, 0.527774
2462.78, 0.524406
2463.95, 0.520960
2465.12, 0.517749
2466.3, 0.514773
2467.47, 0.512110
2468.65, 0.509604
2469.82, 0.507568
2471.0, 0.505923
2472.18, 0.504514
2473.36, 0.503652
2474.54, 0.503417
2475.72, 0.503104
2476.9, 0.502556
2478.08, 0.502477
2479.27, 0.501773
2480.46, 0.500050
2481.64, 0.498248
2482.83, 0.495821
2484.02, 0.492218
2485.21, 0.488772
2486.4, 0.485953
2487.6, 0.482663
2488.79, 0.479609
2489.99, 0.477025
2491.18, 0.473735
2492.38, 0.469506
2493.58, 0.464416
2494.78, 0.458229
2495.98, 0.451650
2497.18, 0.445620
2498.39, 0.439824
2499.59, 0.434421
2500.8, 0.430426
2502.01, 0.427764
2503.21, 0.425414
2504.42, 0.423691
2505.63, 0.422360
2506.84, 0.421185
2508.06, 0.419619
2509.27, 0.417504
2510.49, 0.414607
2511.7, 0.410612
2512.92, 0.405757
2514.14, 0.400196
2515.36, 0.393305
2516.58, 0.386569
2517.8, 0.380617
2519.03, 0.375918
2520.25, 0.372394
2521.48, 0.370045
2522.7, 0.368400
2523.93, 0.366520
2525.16, 0.365111
2526.39, 0.363231
2527.62, 0.360647
2528.86, 0.357279
2530.09, 0.354068
2531.33, 0.351327
2532.56, 0.349761
2533.8, 0.349134
2535.04, 0.348664
2536.28, 0.349212
2537.52, 0.350700
2538.76, 0.352815
2540.01, 0.354460
2541.25, 0.354773
2542.5, 0.353285
2543.75, 0.351327
2544.99, 0.349447
2546.24, 0.347959
2547.49, 0.347255
2548.75, 0.347489
2550.0, 0.348899
2551.26, 0.351092
2552.51, 0.353990
2553.77, 0.358454
2555.03, 0.363623
2556.29, 0.370201
2557.55, 0.377485
2558.81, 0.384142
2560.08, 0.389467
2561.34, 0.394479
2562.61, 0.399257
2563.88, 0.404191
2565.14, 0.410221
2566.41, 0.416878
2567.68, 0.422438
2568.96, 0.427137
2570.23, 0.431914
2571.51, 0.436848
2572.78, 0.441626
2574.06, 0.447264
2575.34, 0.453608
2576.62, 0.460030
2577.9, 0.466139
2579.18, 0.471621
2580.47, 0.475772
2581.75, 0.478121
2583.04, 0.477808
2584.32, 0.475302
2585.61, 0.473187
2586.9, 0.472012
2588.2, 0.470681
2589.49, 0.470368
2590.78, 0.469976
2592.08, 0.468880
2593.37, 0.465904
2594.67, 0.460735
2595.97, 0.456584
2597.27, 0.454470
2598.57, 0.451885
2599.88, 0.449144
2601.18, 0.447186
2602.49, 0.446638
2603.79, 0.447578
2605.1, 0.449379
2606.41, 0.451337
2607.72, 0.454391
2609.03, 0.456819
2610.35, 0.458777
2611.66, 0.460030
2612.98, 0.460265
2614.3, 0.459169
2615.62, 0.456506
2616.94, 0.453451
2618.26, 0.452198
2619.58, 0.452355
2620.91, 0.454156
2622.23, 0.458307
2623.56, 0.463633
2624.89, 0.468801
2626.22, 0.474205
2627.55, 0.480079
2628.88, 0.485718
2630.21, 0.490338
2631.55, 0.495429
2632.89, 0.500285
2634.22, 0.504592
2635.56, 0.508273
2636.9, 0.511484
2638.25, 0.513912
2639.59, 0.516105
2640.93, 0.517984
2642.28, 0.519237
2643.63, 0.520255
2644.98, 0.521352
2646.33, 0.522370
2647.68, 0.523779
2649.03, 0.524563
2650.39, 0.525424
2651.74, 0.525581
2653.1, 0.525659
2654.46, 0.526129
2655.82, 0.526599
2657.18, 0.526756
2658.54, 0.526599
2659.9, 0.525581
2661.27, 0.525346
2662.64, 0.525424
2664.01, 0.524249
2665.38, 0.522057
2666.74, 0.520412
2668.12, 0.520334
2669.49, 0.519942
2670.87, 0.517279
2672.24, 0.516888
2673.62, 0.516574
2675.0, 0.514538
2676.38, 0.511406
2677.76, 0.508743
2679.15, 0.506237
2680.54, 0.503809
2681.92, 0.501538
2683.31, 0.498562
2684.7, 0.494567
2686.09, 0.490338
2687.48, 0.485953
2688.88, 0.481410
2690.27, 0.475850
2691.67, 0.469976
2693.07, 0.462771
2694.47, 0.455488
2695.87, 0.448831
2697.27, 0.442957
2698.67, 0.436848
2700.08, 0.430035
2701.49, 0.423300
2702.9, 0.417269
2704.31, 0.410691
2705.72, 0.403486
2707.13, 0.395654
2708.54, 0.386726
2709.96, 0.376388
2711.38, 0.365581
2712.8, 0.355243
2714.22, 0.343887
2715.64, 0.330573
2717.06, 0.315850
2718.49, 0.300265
2719.91, 0.283192
2721.34, 0.265257
2722.77, 0.248263
2724.2, 0.228840
2725.63, 0.208713
2727.07, 0.188586
2728.5, 0.168223
2729.94, 0.148018
2731.38, 0.128282
2732.82, 0.110191
2734.26, 0.0951540
2735.7, 0.0836420
2737.15, 0.0760450
2738.59, 0.0714240
2740.04, 0.0704850
2741.49, 0.0723640
2742.94, 0.0754970
2744.39, 0.0786300
2745.84, 0.0814490
2747.3, 0.0840330
2748.76, 0.0863050
2750.21, 0.0889670
2751.67, 0.0927270
2753.14, 0.0976600
2754.6, 0.104552
2756.06, 0.116143
2757.53, 0.130788
2759.0, 0.146921
2760.46, 0.162976
2761.94, 0.178483
2763.41, 0.193285
2764.88, 0.207617
2766.36, 0.221713
2767.83, 0.235575
2769.31, 0.248106
2770.79, 0.259384
2772.27, 0.269721
2773.76, 0.279041
2775.24, 0.287812
2776.73, 0.295644
2778.22, 0.301439
2779.71, 0.306138
2781.2, 0.310602
2782.69, 0.315145
2784.18, 0.320079
2785.68, 0.324151
2787.18, 0.328067
2788.68, 0.332061
2790.18, 0.335977
2791.68, 0.339658
2793.19, 0.343417
2794.69, 0.347020
2796.2, 0.350387
2797.71, 0.353990
2799.22, 0.357514
2800.73, 0.360882
2802.24, 0.363936
2803.76, 0.366677
2805.28, 0.369340
2806.8, 0.372002
2808.32, 0.374195
2809.84, 0.376075
2811.36, 0.378111
2812.89, 0.380304
2814.42, 0.381792
2815.94, 0.383045
2817.48, 0.384376
2819.01, 0.385316
2820.54, 0.385943
2822.08, 0.386648
2823.61, 0.387118
2825.15, 0.387744
2826.69, 0.388919
2828.23, 0.390250
2829.78, 0.392051
2831.32, 0.393774
2832.87, 0.395106
2834.42, 0.396359
2835.97, 0.397455
2837.52, 0.398004
2839.08, 0.398004
2840.63, 0.397534
2842.19, 0.396829
2843.75, 0.395732
2845.31, 0.393774
2846.87, 0.391190
2848.44, 0.388057
2850.0, 0.385316
2851.57, 0.383123
2853.14, 0.380696
2854.71, 0.378346
2856.28, 0.375527
2857.86, 0.371689
2859.43, 0.367460
2861.01, 0.363074
2862.59, 0.358767
2864.17, 0.354381
2865.76, 0.350465
2867.34, 0.347176
2868.93, 0.344592
2870.52, 0.342556
2872.11, 0.341302
2873.7, 0.340598
2875.29, 0.340128
2876.89, 0.340363
2878.49, 0.341146
2880.08, 0.342321
2881.69, 0.343887
2883.29, 0.345375
2884.89, 0.346550
2886.5, 0.347724
2888.11, 0.348351
2889.72, 0.348194
2891.33, 0.347646
2892.94, 0.346941
2894.56, 0.346001
2896.17, 0.345062
2897.79, 0.344435
2899.42, 0.344592
2901.04, 0.345297
2902.66, 0.347020
2904.29, 0.348664
2905.92, 0.349839
2907.55, 0.350231
2909.18, 0.350544
2910.81, 0.351797
2912.45, 0.354225
2914.08, 0.356809
2915.72, 0.359550
2917.36, 0.361900
2919.01, 0.363701
2920.65, 0.364954
2922.3, 0.365659
2923.94, 0.366207
2925.59, 0.367147
2927.25, 0.368008
2928.9, 0.368478
2930.56, 0.368870
2932.21, 0.369183
2933.87, 0.369105
2935.53, 0.368948
2937.2, 0.368791
2938.86, 0.368400
2940.53, 0.367382
2942.2, 0.366050
2943.87, 0.365111
2945.54, 0.364249
2947.22, 0.363388
2948.89, 0.361900
2950.57, 0.359863
2952.25, 0.357749
2953.93, 0.355321
2955.62, 0.353128
2957.3, 0.351249
2958.99, 0.349291
2960.68, 0.347255
2962.37, 0.345532
2964.07, 0.344044
2965.76, 0.342947
2967.46, 0.342086
2969.16, 0.341851
2970.86, 0.342321
2972.56, 0.342712
2974.27, 0.342947
2975.98, 0.343025
2977.69, 0.342869
2979.4, 0.342556
2981.11, 0.342477
2982.83, 0.343182
2984.54, 0.344279
2986.26, 0.345453
2987.98, 0.347098
2989.71, 0.349212
2991.43, 0.351875
2993.16, 0.354381
2994.89, 0.356496
2996.62, 0.358297
2998.35, 0.359942
3000.09, 0.361430
3001.83, 0.362604
3003.57, 0.363936
3005.31, 0.365346
3007.05, 0.367069
3008.79, 0.369183
3010.54, 0.371611
3012.29, 0.374430
3014.04, 0.377485
3015.8, 0.380226
3017.55, 0.383123
3019.31, 0.386099
3021.07, 0.388684
3022.83, 0.390955
3024.59, 0.392991
3026.36, 0.395184
3028.13, 0.397064
3029.9, 0.398708
3031.67, 0.400431
3033.44, 0.401998
3035.22, 0.403642
3037.0, 0.405287
3038.78, 0.407323
3040.56, 0.409751
3042.34, 0.412100
3044.13, 0.414450
3045.92, 0.416721
3047.71, 0.418836
3049.5, 0.420872
3051.3, 0.422908
3053.09, 0.424788
3054.89, 0.426902
3056.69, 0.429173
3058.5, 0.431366
3060.3, 0.433402
3062.11, 0.435047
3063.92, 0.436457
3065.73, 0.438258
3067.55, 0.439668
3069.36, 0.440608
3071.18, 0.441547
3073.0, 0.442722
3074.82, 0.444132
3076.65, 0.445072
3078.48, 0.446011
3080.31, 0.447499
3082.14, 0.448987
3083.97, 0.450240
3085.8, 0.451650
3087.64, 0.453216
3089.48, 0.454626
3091.33, 0.456271
3093.17, 0.457759
3095.02, 0.459169
3096.87, 0.460813
3098.72, 0.462614
3100.57, 0.464259
3102.43, 0.466060
3104.28, 0.467940
3106.14, 0.469350
3108.01, 0.470681
3109.87, 0.472326
3111.74, 0.473892
3113.61, 0.475458
3115.48, 0.477025
3117.35, 0.478434
3119.23, 0.480236
3121.1, 0.481567
3122.98, 0.482663
3124.87, 0.483995
3126.75, 0.485091
3128.64, 0.486109
3130.53, 0.487127
3132.42, 0.487989
3134.31, 0.489007
3136.21, 0.489947
3138.11, 0.490887
3140.01, 0.491826
3141.91, 0.492923
3143.82, 0.493863
3145.73, 0.494724
3147.64, 0.495742
3149.55, 0.496682
3151.46, 0.497778
3153.38, 0.498718
3155.3, 0.499580
3157.22, 0.500363
3159.14, 0.501068
3161.07, 0.501773
3163.0, 0.502712
3164.93, 0.503887
3166.86, 0.504984
3168.8, 0.506002
3170.74, 0.507333
3172.68, 0.508664
3174.62, 0.510152
3176.56, 0.511640
3178.51, 0.512894
3180.46, 0.514225
3182.42, 0.515556
3184.37, 0.516731
3186.33, 0.518062
3188.29, 0.519472
3190.25, 0.520725
3192.21, 0.521587
3194.18, 0.522370
3196.15, 0.523545
3198.12, 0.524641
3200.09, 0.525816
3202.07, 0.526990
3204.05, 0.528244
3206.03, 0.529262
3208.02, 0.530358
3210.0, 0.531533
3211.99, 0.532394
3213.98, 0.533256
3215.98, 0.534509
3217.97, 0.535762
3219.97, 0.536702
3221.97, 0.537485
3223.98, 0.538346
3225.98, 0.539364
3227.99, 0.540069
3230.0, 0.540931
3232.02, 0.541871
3234.03, 0.542575
3236.05, 0.543045
3238.07, 0.543907
3240.1, 0.544768
3242.12, 0.545395
3244.15, 0.546021
3246.18, 0.546804
3248.22, 0.547666
3250.25, 0.548684
3252.29, 0.549859
3254.33, 0.550955
3256.38, 0.551817
3258.43, 0.552835
3260.47, 0.553775
3262.53, 0.554636
3264.58, 0.555811
3266.64, 0.556751
3268.7, 0.557769
3270.76, 0.558709
3272.82, 0.559492
3274.89, 0.560588
3276.96, 0.561685
3279.04, 0.562389
3281.11, 0.563016
3283.19, 0.563799
3285.27, 0.564504
3287.35, 0.565287
3289.44, 0.566227
3291.53, 0.566853
3293.62, 0.567480
3295.71, 0.568263
3297.81, 0.568968
3299.91, 0.569438
3302.01, 0.570456
3304.11, 0.571552
3306.22, 0.572179
3308.33, 0.572884
3310.44, 0.573824
3312.56, 0.574528
3314.68, 0.575312
3316.8, 0.576016
3318.92, 0.576643
3321.05, 0.577348
3323.18, 0.578209
3325.31, 0.579071
3327.44, 0.579932
3329.58, 0.580637
3331.72, 0.581264
3333.86, 0.581890
3336.01, 0.582595
3338.16, 0.583457
3340.31, 0.584475
3342.46, 0.585179
3344.61, 0.585884
3346.77, 0.586198
3348.94, 0.586667
3351.1, 0.587059
3353.27, 0.587216
3355.44, 0.587451
3357.61, 0.587764
3359.79, 0.587764
3361.97, 0.587607
3364.15, 0.587451
3366.33, 0.587529
3368.52, 0.587607
3370.71, 0.587607
3372.9, 0.587764
3375.1, 0.588390
3377.3, 0.589174
3379.5, 0.589957
3381.71, 0.590740
3383.91, 0.591523
3386.12, 0.592071
3388.34, 0.592541
3390.55, 0.593089
3392.77, 0.593481
3394.99, 0.593638
3397.22, 0.594029
3399.45, 0.594264
3401.68, 0.594499
3403.91, 0.594812
3406.15, 0.595126
3408.39, 0.595439
3410.63, 0.595830
3412.87, 0.596222
3415.12, 0.596692
3417.37, 0.597475
3419.63, 0.598337
3421.88, 0.599355
3424.14, 0.600295
3426.41, 0.600999
3428.67, 0.601861
3430.94, 0.602801
3433.21, 0.603584
3435.49, 0.604289
3437.77, 0.604915
3440.05, 0.605150
3442.33, 0.605542
3444.62, 0.606090
3446.91, 0.606403
3449.2, 0.606795
3451.5, 0.607343
3453.8, 0.607735
3456.1, 0.607891
3458.41, 0.608048
3460.72, 0.608283
3463.03, 0.608283
3465.34, 0.608126
3467.66, 0.607891
3469.98, 0.607813
3472.31, 0.607891
3474.63, 0.608048
3476.96, 0.608283
3479.3, 0.608753
3481.64, 0.608988
3483.97, 0.608909
3486.32, 0.608909
3488.66, 0.608988
3491.01, 0.608909
3493.36, 0.608753
3495.72, 0.608518
3498.08, 0.608439
3500.44, 0.608439
3502.81, 0.608674
3505.18, 0.608988
3507.55, 0.609223
3509.92, 0.609614
3512.3, 0.610084
3514.68, 0.610319
3517.06, 0.610632
3519.45, 0.610946
3521.84, 0.611180
3524.24, 0.611180
3526.64, 0.611259
3529.04, 0.611415
3531.44, 0.611494
3533.85, 0.611415
3536.26, 0.611102
3538.67, 0.610946
3541.09, 0.610946
3543.51, 0.610789
3545.93, 0.610789
3548.36, 0.610711
3550.79, 0.610632
3553.22, 0.610397
3555.66, 0.610319
3558.1, 0.610476
3560.54, 0.610319
3562.99, 0.610084
3565.44, 0.610162
3567.9, 0.610084
3570.35, 0.610084
3572.81, 0.609927
3575.28, 0.609849
3577.75, 0.609692
3580.22, 0.609692
3582.69, 0.609536
3585.17, 0.609379
3587.65, 0.609223
3590.14, 0.609144
3592.62, 0.609144
3595.11, 0.609144
3597.61, 0.608988
3600.11, 0.609066
3602.61, 0.609066
3605.11, 0.608909
3607.62, 0.608753
3610.14, 0.608753
3612.65, 0.608439
3615.17, 0.608283
3617.69, 0.608283
3620.22, 0.608361
3622.75, 0.608283
3625.28, 0.608126
3627.82, 0.608048
3630.36, 0.608048
3632.9, 0.607970
3635.45, 0.607735
3638.0, 0.607735
3640.56, 0.607735
3643.12, 0.607813
3645.68, 0.607891
3648.24, 0.607813
3650.81, 0.607735
3653.39, 0.607891
3655.96, 0.607970
3658.54, 0.608048
3661.13, 0.608361
3663.71, 0.608518
3666.3, 0.608596
3668.9, 0.608909
3671.5, 0.609223
3674.1, 0.609223
3676.7, 0.609457
3679.31, 0.609692
3681.93, 0.609927
3684.54, 0.610162
3687.17, 0.610554
3689.79, 0.610711
3692.42, 0.610632
3695.05, 0.610711
3697.69, 0.610946
3700.32, 0.610867
3702.97, 0.610554
3705.61, 0.609692
3708.27, 0.607343
3710.92, 0.602331
3713.58, 0.596379
3716.24, 0.594499
3718.91, 0.597945
3721.58, 0.602409
3724.25, 0.605385
3726.93, 0.606873
3729.61, 0.608126
3732.29, 0.609379
3734.98, 0.610241
3737.67, 0.610397
3740.37, 0.610397
3743.07, 0.610319
3745.78, 0.610006
3748.49, 0.609614
3751.2, 0.609301
3753.91, 0.609144
3756.63, 0.608831
3759.36, 0.608048
3762.09, 0.607421
3764.82, 0.606873
3767.55, 0.606325
3770.29, 0.605777
3773.04, 0.605150
3775.78, 0.604445
3778.54, 0.603897
3781.29, 0.603271
3784.05, 0.602566
3786.82, 0.601861
3789.59, 0.601078
3792.36, 0.600216
3795.13, 0.599511
3797.92, 0.598807
3800.7, 0.598102
3803.49, 0.597319
3806.28, 0.596535
3809.08, 0.595909
3811.88, 0.595126
3814.68, 0.594499
3817.49, 0.593951
3820.31, 0.593168
3823.12, 0.592619
3825.94, 0.591993
3828.77, 0.591523
3831.6, 0.590975
3834.43, 0.590270
3837.27, 0.589800
3840.11, 0.589487
3842.96, 0.589174
3845.81, 0.588860
3848.67, 0.588469
3851.53, 0.588312
3854.39, 0.588234
3857.26, 0.588156
3860.13, 0.588156
3863.01, 0.588469
3865.89, 0.588782
3868.77, 0.588860
3871.66, 0.589330
3874.55, 0.590113
3877.45, 0.590740
3880.35, 0.591288
3883.26, 0.591836
3886.17, 0.592463
3889.09, 0.593168
3892.01, 0.593794
3894.93, 0.594499
3897.86, 0.595282
3900.79, 0.595909
3903.73, 0.596535
3906.67, 0.596849
3909.62, 0.597162
3912.57, 0.597553
3915.52, 0.597867
3918.48, 0.598102
3921.45, 0.598415
3924.42, 0.598493
3927.39, 0.598493
3930.37, 0.598572
3933.35, 0.598493
3936.34, 0.598337
3939.33, 0.598337
3942.32, 0.598023
3945.32, 0.597632
3948.33, 0.597475
3951.34, 0.597240
3954.35, 0.596849
3957.37, 0.596770
3960.39, 0.596770
3963.42, 0.596535
3966.45, 0.596222
3969.49, 0.595987
3972.53, 0.595674
3975.58, 0.595517
3978.63, 0.595204
3981.68, 0.594969
3984.75, 0.594656
3987.81, 0.594108
3990.88, 0.593403
3993.95, 0.592698
3997.03, 0.591523
4000.12, 0.589957
4003.21, 0.588234
4006.3, 0.586198
4009.4, 0.583770
4012.5, 0.581029
4015.61, 0.578288
4018.72, 0.576095
4021.84, 0.574528
4024.96, 0.573902
4028.09, 0.574372
4031.22, 0.575625
4034.36, 0.577348
4037.5, 0.579306
4040.65, 0.581107
4043.8, 0.582752
4046.96, 0.584240
4050.12, 0.585571
4053.29, 0.586667
4056.46, 0.587529
4059.64, 0.588234
4062.82, 0.588939
4066.0, 0.589409
4069.19, 0.589565
4072.39, 0.589722
4075.59, 0.589957
4078.8, 0.589957
4082.01, 0.589800
4085.23, 0.589330
4088.45, 0.588939
4091.68, 0.588469
4094.91, 0.587999
4098.15, 0.587451
4101.39, 0.587059
4104.63, 0.586276
4107.89, 0.585571
4111.14, 0.584866
4114.41, 0.584240
4117.67, 0.583535
4120.95, 0.582673
4124.23, 0.581968
4127.51, 0.581342
4130.8, 0.580559
4134.09, 0.579854
4137.39, 0.578914
4140.7, 0.577896
4144.01, 0.576800
4147.32, 0.575782
4150.64, 0.574763
4153.97, 0.573824
4157.3, 0.572649
4160.64, 0.571396
4163.98, 0.569986
4167.33, 0.568498
4170.68, 0.566853
4174.04, 0.565131
4177.4, 0.563173
4180.77, 0.561058
4184.14, 0.558709
4187.52, 0.556124
4190.91, 0.553148
4194.3, 0.549624
4197.69, 0.545630
4201.1, 0.540852
4204.5, 0.534979
4207.92, 0.528322
4211.34, 0.521038
4214.76, 0.513050
4218.19, 0.504435
4221.62, 0.495586
4225.06, 0.486579
4228.51, 0.477573
4231.96, 0.468723
4235.42, 0.460343
4238.88, 0.452277
4242.35, 0.444523
4245.83, 0.436848
4249.31, 0.428938
4252.79, 0.420402
4256.28, 0.410221
4259.78, 0.397690
4263.29, 0.384298
4266.79, 0.374117
4270.31, 0.368791
4273.83, 0.365894
4277.35, 0.362526
4280.89, 0.357514
4284.42, 0.350857
4287.97, 0.342947
4291.52, 0.334097
4295.07, 0.324464
4298.63, 0.314283
4302.2, 0.304102
4305.78, 0.294783
4309.35, 0.287891
4312.94, 0.284680
4316.53, 0.285776
4320.13, 0.291728
4323.73, 0.302066
4327.34, 0.315928
4330.96, 0.331905
4334.58, 0.348508
4338.21, 0.364797
4341.84, 0.380304
4345.48, 0.394949
4349.12, 0.408811
4352.77, 0.421812
4356.43, 0.433794
4360.1, 0.444837
4363.76, 0.454705
4367.44, 0.463163
4371.12, 0.470289
4374.81, 0.475850
4378.51, 0.480314
4382.21, 0.483838
4385.92, 0.486658
4389.63, 0.488929
4393.35, 0.491043
4397.08, 0.492923
4400.81, 0.494489
4404.55, 0.495821
4408.29, 0.496682
4412.04, 0.497309
4415.8, 0.497857
4419.57, 0.498327
4423.34, 0.498562
4427.12, 0.498562
4430.9, 0.498640
4434.69, 0.498718
4438.49, 0.498718
4442.29, 0.498483
4446.1, 0.498327
4449.92, 0.497857
4453.74, 0.497152
4457.57, 0.496212
4461.41, 0.495194
4465.25, 0.493863
4469.1, 0.492610
4472.95, 0.491122
4476.82, 0.489555
4480.69, 0.487832
4484.56, 0.486109
4488.44, 0.484151
4492.33, 0.482037
4496.23, 0.479844
4500.13, 0.477651
4504.04, 0.475223
4507.96, 0.472874
4511.88, 0.470289
4515.81, 0.467783
4519.75, 0.465199
4523.69, 0.462693
4527.65, 0.460030
4531.6, 0.457602
4535.57, 0.455253
4539.54, 0.452982
4543.52, 0.450710
4547.5, 0.448596
4551.5, 0.446481
4555.5, 0.444367
4559.5, 0.442331
4563.52, 0.440451
4567.54, 0.438493
4571.56, 0.436692
4575.6, 0.434812
4579.64, 0.433168
4583.69, 0.431445
4587.75, 0.429722
4591.81, 0.428077
4595.88, 0.426432
4599.96, 0.424631
4604.04, 0.422516
4608.14, 0.420402
4612.24, 0.418209
4616.34, 0.415546
4620.46, 0.412805
4624.58, 0.410221
4628.71, 0.407793
4632.84, 0.405444
4636.99, 0.403172
4641.14, 0.401136
4645.3, 0.399726
4649.47, 0.398395
4653.64, 0.397612
4657.82, 0.397299
4662.01, 0.397142
4666.21, 0.396829
4670.41, 0.396515
4674.62, 0.395889
4678.84, 0.395106
4683.07, 0.394323
4687.3, 0.393305
4691.54, 0.391973
4695.79, 0.390720
4700.05, 0.389545
4704.31, 0.388214
4708.59, 0.386648
4712.87, 0.384925
4717.15, 0.383123
4721.45, 0.381322
4725.76, 0.379286
4730.07, 0.377406
4734.39, 0.375683
4738.72, 0.374117
4743.05, 0.372316
4747.39, 0.370358
4751.75, 0.368087
4756.1, 0.365581
4760.47, 0.363153
4764.85, 0.360960
4769.23, 0.359002
4773.62, 0.357436
4778.02, 0.356418
4782.43, 0.356261
4786.85, 0.356966
4791.27, 0.358297
4795.7, 0.359942
4800.14, 0.361665
4804.59, 0.363231
4809.05, 0.364406
4813.51, 0.365111
4817.99, 0.365267
4822.47, 0.364797
4826.96, 0.363936
4831.46, 0.362683
4835.96, 0.360568
4840.48, 0.357749
4845.0, 0.354460
4849.54, 0.350857
4854.08, 0.347098
4858.63, 0.343182
4863.18, 0.339423
4867.75, 0.335585
4872.33, 0.331983
4876.91, 0.328145
4881.5, 0.324073
4886.1, 0.319922
4890.71, 0.315536
4895.33, 0.310994
4899.96, 0.306608
4904.59, 0.302693
4909.24, 0.299325
4913.89, 0.296349
4918.55, 0.293843
4923.22, 0.291023
4927.9, 0.287969
4932.59, 0.284601
4937.29, 0.280999
4942.0, 0.276848
4946.71, 0.272697
4951.44, 0.268703
4956.17, 0.264944
4960.91, 0.261576
4965.67, 0.258679
4970.43, 0.256173
4975.2, 0.254215
4979.98, 0.252727
4984.76, 0.251709
4989.56, 0.251160
4994.37, 0.251082
4999.18, 0.251239
5004.01, 0.251395
5008.84, 0.251552
5013.69, 0.251552
5018.54, 0.251082
5023.4, 0.250456
5028.28, 0.249516
5033.16, 0.248263
5038.05, 0.246775
5042.95, 0.245052
5047.86, 0.243407
5052.78, 0.241841
5057.71, 0.240118
5062.65, 0.238082
5067.6, 0.235654
5072.56, 0.233069
5077.53, 0.230015
5082.5, 0.226882
5087.49, 0.223515
5092.49, 0.220069
5097.5, 0.216466
5102.51, 0.212707
5107.54, 0.209183
5112.58, 0.205737
5117.62, 0.202369
5122.68, 0.199237
5127.75, 0.196261
5132.82, 0.193285
5137.91, 0.190309
5143.01, 0.187411
5148.12, 0.184435
5153.23, 0.181537
5158.36, 0.178483
5163.5, 0.175350
5168.65, 0.171983
5173.81, 0.168693
5178.98, 0.165326
5184.15, 0.161802
5189.34, 0.158199
5194.54, 0.154361
5199.75, 0.150524
5204.98, 0.146686
5210.21, 0.142614
5215.45, 0.138307
5220.7, 0.133843
5225.96, 0.129535
5231.23, 0.125384
5236.52, 0.121234
5241.81, 0.117474
5247.12, 0.113950
5252.44, 0.110739
5257.76, 0.107685
5263.1, 0.104787
5268.45, 0.102203
5273.81, 0.0997750
5279.18, 0.0976600
5284.56, 0.0958590
5289.95, 0.0941360
5295.36, 0.0927270
5300.77, 0.0915520
5306.2, 0.0902200
5311.63, 0.0890460
5317.08, 0.0879490
5322.54, 0.0867740
5328.01, 0.0856780
5333.49, 0.0843470
5338.98, 0.0831720
5344.49, 0.0821540
5350.0, 0.0810570
5355.53, 0.0801180
5361.07, 0.0794130
5366.62, 0.0784730
5372.18, 0.0773770
5377.75, 0.0763580
5383.34, 0.0756540
5388.93, 0.0749490
5394.54, 0.0742440
5400.16, 0.0736960
5405.79, 0.0730690
5411.44, 0.0723640
5417.09, 0.0716590
5422.76, 0.0708760
5428.43, 0.0702500
5434.12, 0.0697020
5439.83, 0.0689180
5445.54, 0.0679000
5451.26, 0.0668040
5457.0, 0.0657070
5462.75, 0.0646110
5468.52, 0.0636710
5474.29, 0.0628880
5480.08, 0.0621050
5485.88, 0.0613220
5491.69, 0.0606170
5497.51, 0.0599120
5503.35, 0.0591290
5509.2, 0.0586590
5515.06, 0.0579540
5520.93, 0.0574060
5526.82, 0.0567790
5532.71, 0.0563090
5538.63, 0.0560740
5544.55, 0.0561530
5550.49, 0.0563090
5556.44, 0.0566230
5562.4, 0.0572490
5568.37, 0.0582670
5574.36, 0.0594420
5580.36, 0.0610870
5586.37, 0.0630450
5592.4, 0.0653160
5598.44, 0.0675870
5604.49, 0.0701710
5610.56, 0.0727560
5616.63, 0.0754190
5622.73, 0.0783160
5628.83, 0.0809790
5634.95, 0.0834070
5641.08, 0.0859910
5647.23, 0.0886540
5653.39, 0.0911600
5659.56, 0.0935100
5665.74, 0.0957810
5671.94, 0.0978950
5678.15, 0.100088
5684.38, 0.102046
5690.62, 0.103847
5696.87, 0.105570
5703.14, 0.106980
5709.42, 0.107998
5715.72, 0.109016
5722.03, 0.109878
5728.35, 0.110739
5734.69, 0.111209
5741.03, 0.111444
5747.4, 0.111601
5753.78, 0.111757
5760.17, 0.111522
5766.58, 0.111053
5773.0, 0.111287
5779.44, 0.111679
5785.88, 0.111836
5792.35, 0.112149
5798.83, 0.112697
5805.32, 0.113480
5811.83, 0.114263
5818.35, 0.114890
5824.89, 0.115830
5831.45, 0.117396
5838.01, 0.118806
5844.59, 0.120059
5851.19, 0.121312
5857.8, 0.122565
5864.43, 0.123661
5871.07, 0.124680
5877.73, 0.125071
5884.4, 0.125541
5891.09, 0.126246
5897.79, 0.126716
5904.5, 0.127812
5911.23, 0.128830
5917.98, 0.129927
5924.75, 0.131258
5931.53, 0.132355
5938.32, 0.133764
5945.13, 0.136035
5951.96, 0.137993
5958.8, 0.139403
5965.65, 0.140265
5972.53, 0.140891
5979.42, 0.141518
5986.32, 0.141439
5993.24, 0.141126
6000.18, 0.140891
6007.13, 0.140343
6014.1, 0.139403
6021.08, 0.138620
6028.09, 0.137758
6035.1, 0.136740
6042.14, 0.135252
6049.19, 0.133216
6056.25, 0.132668
6063.34, 0.132355
6070.44, 0.131180
6077.55, 0.130083
6084.69, 0.129379
6091.84, 0.128517
6099.0, 0.127421
6106.19, 0.126168
6113.39, 0.124758
6120.61, 0.123896
6127.84, 0.123113
6135.09, 0.122095
6142.36, 0.121077
6149.65, 0.120059
6156.95, 0.119119
6164.27, 0.118336
6171.61, 0.117709
6178.97, 0.116926
6186.34, 0.115830
6193.73, 0.115517
6201.14, 0.115282
6208.57, 0.114655
6216.01, 0.114263
6223.47, 0.114029
6230.95, 0.113794
6238.45, 0.113480
6245.97, 0.113089
6253.5, 0.112932
6261.06, 0.112775
6268.63, 0.112384
6276.21, 0.112149
6283.82, 0.111992
6291.45, 0.111757
6299.1, 0.111679
6306.76, 0.111444
6314.44, 0.111287
6322.14, 0.111366
6329.86, 0.111366
6337.6, 0.110974
6345.35, 0.110269
6353.13, 0.110269
6360.92, 0.110191
6368.74, 0.109565
6376.57, 0.109095
6384.43, 0.108938
6392.3, 0.108625
6400.19, 0.108155
6408.1, 0.107137
6416.03, 0.106119
6423.98, 0.105884
6431.95, 0.105335
6439.94, 0.104396
6447.95, 0.103378
6455.98, 0.102359
6464.03, 0.101263
6472.1, 0.0999320
6480.19, 0.0988350
6488.31, 0.0975820
6496.44, 0.0964070
6504.59, 0.0959370
6512.76, 0.0956240
6520.95, 0.0948410
6529.16, 0.0942150
6537.4, 0.0936660
6545.65, 0.0930400
6553.92, 0.0923350
6562.22, 0.0918650
6570.54, 0.0910040
6578.88, 0.0901420
6587.23, 0.0894370
6595.61, 0.0885760
6604.02, 0.0877930
6612.44, 0.0870090
6620.89, 0.0859910
6629.35, 0.0848950
6637.84, 0.0836420
6646.35, 0.0831720
6654.88, 0.0829370
6663.44, 0.0822320
6672.01, 0.0813710
6680.61, 0.0805870
6689.23, 0.0798830
6697.88, 0.0791780
6706.54, 0.0783160
6715.23, 0.0774550
6723.94, 0.0768280
6732.67, 0.0762020
6741.42, 0.0757320
6750.2, 0.0754190
6759.0, 0.0751050
6767.82, 0.0748700
6776.67, 0.0747920
6785.54, 0.0747140
6794.44, 0.0745570
6803.35, 0.0745570
6812.29, 0.0745570
6821.26, 0.0744000
6830.24, 0.0740090
6839.25, 0.0738520
6848.29, 0.0734610
6857.35, 0.0727560
6866.43, 0.0719730
6875.54, 0.0716590
6884.67, 0.0711110
6893.82, 0.0703280
6903.0, 0.0693880
6912.2, 0.0685270
6921.43, 0.0678220
6930.69, 0.0669600
6939.96, 0.0660210
6949.27, 0.0653160
6958.59, 0.0642190
6967.95, 0.0633580
6977.33, 0.0628100
6986.73, 0.0621830
6996.16, 0.0614780
7005.61, 0.0609300
7015.09, 0.0603820
7024.6, 0.0599120
7034.13, 0.0593640
7043.69, 0.0587370
7053.27, 0.0580320
7062.88, 0.0577970
7072.52, 0.0574840
7082.18, 0.0570140
7091.87, 0.0563090
7101.58, 0.0557610
7111.32, 0.0551350
7121.09, 0.0545860
7130.88, 0.0538820
7140.71, 0.0529420
7150.56, 0.0520800
7160.43, 0.0513760
7170.33, 0.0502790
7180.27, 0.0493390
7190.23, 0.0485560
7200.21, 0.0479300
7210.23, 0.0471460
7220.27, 0.0465200
7230.34, 0.0458150
7240.44, 0.0451100
7250.56, 0.0444050
7260.72, 0.0436220
7270.9, 0.0427610
7281.12, 0.0420560
7291.36, 0.0412730
7301.63, 0.0405680
7311.93, 0.0396280
7322.25, 0.0387670
7332.61, 0.0379830
7343.0, 0.0373570
7353.41, 0.0364170
7363.86, 0.0356340
7374.33, 0.0349290
7384.83, 0.0343030
7395.37, 0.0334410
7405.93, 0.0328150
7416.53, 0.0321100
7427.15, 0.0314050
7437.81, 0.0307000
7448.5, 0.0302300
7459.22, 0.0296040
7469.96, 0.0290550
7480.74, 0.0285850
7491.55, 0.0280370
7502.39, 0.0275670
7513.27, 0.0269410
7524.17, 0.0263930
7535.11, 0.0258440
7546.08, 0.0252180
7557.08, 0.0246700
7568.11, 0.0240430
7579.17, 0.0235730
7590.27, 0.0229470
7601.4, 0.0224770
7612.56, 0.0220070
7623.76, 0.0216150
7634.98, 0.0211450
7646.24, 0.0205970
7657.54, 0.0201270
7668.87, 0.0196570
7680.23, 0.0191870
7691.62, 0.0189530
7703.05, 0.0186390
7714.51, 0.0181690
7726.01, 0.0176990
7737.54, 0.0173080
7749.11, 0.0169160
7760.71, 0.0166030
7772.35, 0.0163680
7784.02, 0.0160550
7795.72, 0.0155850
7807.46, 0.0151150
7819.23, 0.0148800
7831.04, 0.0147230
7842.89, 0.0142540
7854.77, 0.0138620
7866.69, 0.0137050
7878.65, 0.0137050
7890.64, 0.0137840
7902.67, 0.0139400
7914.74, 0.0139400
7926.84, 0.0140970
7938.98, 0.0143320
7951.16, 0.0147230
7963.37, 0.0151930
7975.62, 0.0157420
7987.91, 0.0163680
8000.24, 0.0174650
8012.6, 0.0184040
8025.01, 0.0193440
8037.45, 0.0206760
8049.93, 0.0221640
8062.45, 0.0238080
8075.01, 0.0255310
8087.61, 0.0271760
8100.24, 0.0291340
8112.91, 0.0314830
8125.63, 0.0339890
8138.39, 0.0364950
8151.18, 0.0390800
8164.02, 0.0418210
8176.9, 0.0445620
8189.81, 0.0471460
8202.77, 0.0497310
8215.77, 0.0519240
8228.82, 0.0540380
8241.9, 0.0559960
8255.02, 0.0577970
8268.19, 0.0599120
8281.39, 0.0624180
8294.65, 0.0650030
8307.94, 0.0673520
8321.28, 0.0694670
8334.66, 0.0715810
8348.08, 0.0734610
8361.54, 0.0750270
8375.05, 0.0762800
8388.6, 0.0769070
8402.2, 0.0771420
8415.84, 0.0771420
8429.52, 0.0767500
8443.25, 0.0764370
8457.02, 0.0761230
8470.84, 0.0758890
8484.7, 0.0760450
8498.61, 0.0766720
8512.57, 0.0772200
8526.57, 0.0775330
8540.62, 0.0773770
8554.71, 0.0762020
8568.85, 0.0745570
8583.04, 0.0725210
8597.27, 0.0700930
8611.55, 0.0677440
8625.88, 0.0657860
8640.26, 0.0640630
8654.68, 0.0625750
8669.16, 0.0614780
8683.68, 0.0607730
8698.25, 0.0600690
8712.87, 0.0595200
8727.53, 0.0588940
8742.25, 0.0580320
8757.02, 0.0571710
8771.83, 0.0561530
8786.7, 0.0551350
8801.62, 0.0543520
8816.59, 0.0532550
8831.61, 0.0519240
8846.68, 0.0505140
8861.8, 0.0491040
8876.97, 0.0475380
8892.2, 0.0455020
8907.48, 0.0436220
8922.81, 0.0421340
8938.2, 0.0408030
8953.63, 0.0393930
8969.13, 0.0381400
8984.67, 0.0376700
9000.27, 0.0379050
9015.92, 0.0384530
9031.63, 0.0397060
9047.39, 0.0418210
9063.21, 0.0444840
9079.08, 0.0474600
9095.01, 0.0512970
9111.0, 0.0556830
9127.04, 0.0601470
9143.13, 0.0647680
9159.28, 0.0693100
9175.49, 0.0733820
9191.76, 0.0773770
9208.09, 0.0813710
9224.47, 0.0849730
9240.92, 0.0881840
9257.42, 0.0917870
9273.98, 0.0955460
9290.6, 0.0993050
9307.28, 0.103769
9324.02, 0.109016
9340.82, 0.115282
9357.68, 0.122878
9374.6, 0.130710
9391.58, 0.138385
9408.62, 0.145355
9425.73, 0.151229
9442.9, 0.156789
9460.13, 0.161802
9477.42, 0.167127
9494.78, 0.174019
9512.2, 0.183887
9529.69, 0.195243
9547.24, 0.205737
9564.86, 0.214352
9582.54, 0.221557
9600.28, 0.226961
9618.1, 0.231111
9635.97, 0.234479
9653.92, 0.236750
9671.93, 0.237690
9690.01, 0.236985
9708.16, 0.234949
9726.37, 0.232599
9744.65, 0.231111
9763.0, 0.230642
9781.43, 0.231816
9799.92, 0.235967
9818.48, 0.243407
9837.1, 0.253745
9855.8, 0.264083
9874.58, 0.272776
9893.42, 0.279433
9912.34, 0.283427
9931.33, 0.284915
9950.39, 0.284680
9969.52, 0.282722
9988.74, 0.279668
10008.0, 0.275908
10027.4, 0.271993
10046.8, 0.267529
10066.3, 0.262673
10085.9, 0.257269
10105.6, 0.251395
10125.3, 0.244817
10145.1, 0.238865
10165.0, 0.234636
10185.0, 0.233696
10205.0, 0.237377
10225.2, 0.246305
10245.4, 0.258679
10265.7, 0.271523
10286.0, 0.282017
10306.5, 0.289144
10327.0, 0.293843
10347.6, 0.297054
10368.3, 0.299090
10389.1, 0.300265
10409.9, 0.300891
10430.9, 0.301205
10451.9, 0.300735
10473.0, 0.300030
10494.2, 0.299090
10515.5, 0.298307
10536.9, 0.297367
10558.4, 0.295957
10579.9, 0.293765
10601.5, 0.290710
10623.3, 0.286011
10645.1, 0.279824
10667.0, 0.272541
10689.0, 0.264709
10711.1, 0.257034
10733.2, 0.251395
10755.5, 0.248028
10777.9, 0.247010
10800.3, 0.247871
10822.9, 0.249751
10845.5, 0.250925
10868.2, 0.251082
10891.1, 0.249751
10914.0, 0.247401
10937.0, 0.245208
10960.2, 0.244269
10983.4, 0.245208
11006.7, 0.248498
11030.1, 0.253510
11053.6, 0.259149
11077.3, 0.264004
11101.0, 0.267215
11124.8, 0.268547
11148.7, 0.268782
11172.7, 0.268155
11196.9, 0.266980
11221.1, 0.266275
11245.4, 0.266589
11269.9, 0.268077
11294.4, 0.269408
11319.1, 0.270035
11343.9, 0.269721
11368.8, 0.267763
11393.7, 0.264631
11418.8, 0.260872
11444.0, 0.256486
11469.4, 0.252022
11494.8, 0.247323
11520.3, 0.241762
11546.0, 0.235732
11571.8, 0.228919
11597.7, 0.221635
11623.7, 0.213725
11649.8, 0.204875
11676.0, 0.195086
11702.4, 0.185375
11728.9, 0.176447
11755.5, 0.169007
11782.2, 0.162506
11809.0, 0.156554
11836.0, 0.150681
11863.0, 0.144807
11890.3, 0.139403
11917.6, 0.133216
11945.0, 0.127186
11972.6, 0.121782
12000.4, 0.116691
12028.2, 0.111836
12056.2, 0.107215
12084.3, 0.103456
12112.5, 0.0998530
12140.9, 0.0961720
12169.4, 0.0924920
12198.0, 0.0893590
12226.8, 0.0866180
12255.7, 0.0833290
12284.7, 0.0802740
12313.9, 0.0776110
12343.2, 0.0754190
12372.7, 0.0728340
12402.3, 0.0703280
12432.0, 0.0684480
12461.9, 0.0663340
12491.9, 0.0639060
12522.1, 0.0617920
12552.4, 0.0602250
12582.9, 0.0593640
12613.5, 0.0591290
12644.3, 0.0588160
12675.2, 0.0574060
12706.3, 0.0553700
12737.5, 0.0532550
12768.9, 0.0512190
12800.4, 0.0494960
12832.1, 0.0477730
12863.9, 0.0461280
12895.9, 0.0448750
12928.1, 0.0440140
12960.4, 0.0444840
12992.9, 0.0465980
13025.5, 0.0486340
13058.3, 0.0494960
13091.3, 0.0489480
13124.4, 0.0469900
13157.8, 0.0443270
13191.2, 0.0416640
13224.9, 0.0393150
13258.7, 0.0375920
13292.7, 0.0367300
13326.9, 0.0361820
13361.2, 0.0365740
13395.7, 0.0372000
13430.4, 0.0374350
13465.3, 0.0360260
13500.4, 0.0335980
13535.7, 0.0314830
13571.1, 0.0296820
13606.7, 0.0270970
13642.5, 0.0258440
13678.5, 0.0252960
13714.7, 0.0246700
13751.1, 0.0246700
13787.6, 0.0249050
13824.4, 0.0239650
13861.4, 0.0227120
13898.5, 0.0216940
13935.9, 0.0200490
13973.5, 0.0184040
14011.2, 0.0181690
14049.2, 0.0182480
14087.4, 0.0189530
14125.8, 0.0204410
14164.3, 0.0216150
14203.2, 0.0220070
14242.2, 0.0220070
14281.4, 0.0210670
14320.9, 0.0202840
14360.5, 0.0206760
14400.4, 0.0223980
14440.5, 0.0258440
14480.9, 0.0314830
14521.4, 0.0394710
14562.2, 0.0497310
14603.3, 0.0616350
14644.5, 0.0733820
14686.0, 0.0838770
14727.7, 0.0941360
14769.7, 0.105257
14811.9, 0.117944
14854.3, 0.132120
14897.0, 0.147626
14939.9, 0.162585
14983.1, 0.178170
15026.5, 0.196104
15070.2, 0.212472
15114.2, 0.225629
15158.3, 0.236359
15202.8, 0.244504
15247.5, 0.250221
15292.5, 0.253823
15337.7, 0.255546
15383.2, 0.255546
15429.0, 0.255624
15475.1, 0.255781
15521.4, 0.254998
15568.0, 0.254841
15614.9, 0.255546
15662.1, 0.256564
15709.6, 0.257582
15757.3, 0.258757
15805.4, 0.259854
15853.7, 0.260402
15902.3, 0.261420
15951.2, 0.263456
16000.5, 0.265336
16050.0, 0.265336
16099.8, 0.263848
16150.0, 0.259775
16200.5, 0.253353
16251.3, 0.245130
16302.4, 0.234166
16353.8, 0.221400
16405.5, 0.209026
16457.6, 0.197279
16510.0, 0.185766
16562.8, 0.173784
16615.9, 0.162585
16669.3, 0.151934
16723.1, 0.141987
16777.2, 0.133138
16831.7, 0.125228
16886.5, 0.117709
16941.7, 0.111053
16997.2, 0.106902
17053.1, 0.105257
17109.4, 0.104552
17166.1, 0.102438
17223.1, 0.0981300
17280.5, 0.0923350
17338.3, 0.0856780
17396.5, 0.0791780
17455.1, 0.0769070
17514.0, 0.0811360
17573.4, 0.0876360
17633.2, 0.0918650
17693.4, 0.0933530
17754.0, 0.0936660
17815.0, 0.0950760
17876.4, 0.101811
17938.3, 0.117396
18000.5, 0.140421
18063.3, 0.160862
18126.4, 0.171669
18190.0, 0.175194
18254.1, 0.173001
18318.6, 0.166187
18383.5, 0.159452
18449.0, 0.153030
18514.9, 0.144963
18581.2, 0.135566
18648.0, 0.124993
18715.4, 0.116221
18783.2, 0.113480
18851.5, 0.117788
18920.3, 0.124131
18989.6, 0.126951
19059.4, 0.124601
19129.7, 0.118336
19200.6, 0.111444
19272.0, 0.107215
19343.9, 0.107685
19416.3, 0.110974
19489.3, 0.116065
19562.8, 0.122017
19637.0, 0.130397
19711.6, 0.140578
19786.8, 0.156163
19862.6, 0.176838
19939.0, 0.196574
20016.0, 0.209653
20093.6, 0.215683
20171.8, 0.217563
20250.6, 0.216545
20330.0, 0.213804
20410.0, 0.211767
20490.7, 0.218111
20572.0, 0.232521
20654.0, 0.246070
20736.6, 0.249359
20819.9, 0.239491
20903.8, 0.218816
20988.5, 0.196026
21073.8, 0.176917
21159.8, 0.168615
21246.5, 0.192267
21334.0, 0.235262
21422.1, 0.265414
21511.0, 0.277945
21600.7, 0.284445
21691.0, 0.291180
21782.1, 0.296192
21874.0, 0.295409
21966.7, 0.290084
22060.2, 0.283035
22154.5, 0.272854
22249.6, 0.263769
22345.5, 0.255076
22442.2, 0.243172
22539.8, 0.231033
22638.2, 0.219756
22737.5, 0.208948
22837.7, 0.198767
22938.7, 0.188351
23040.7, 0.177700
23143.5, 0.169476
23247.3, 0.168928
23352.1, 0.166109
23457.7, 0.158591
23564.4, 0.158042
23672.0, 0.169320
23780.5, 0.178874
23890.1, 0.170808
24000.7, 0.155771
24112.3, 0.142457
24225.0, 0.131258
24338.7, 0.127577
24453.5, 0.127812
24569.4, 0.130318
24686.4, 0.136192
24804.5, 0.142222
24923.8, 0.156163
