Database of Origin, USGS Spectral Database
Sample Description, See USGS database for additional info
Date Added,2016-08-03 20:51:33.490371

Data ID,USGS_alb04          
Sample ID, albite_hs143.524
Mineral Name, albite
Material Class,Tectosilicate

Wavelength
1607.49, 0.763201
1607.99, 0.763083
1608.49, 0.762965
1608.99, 0.763320
1609.49, 0.763675
1609.99, 0.764149
1610.49, 0.764031
1610.99, 0.764149
1611.49, 0.764860
1611.99, 0.765452
1612.49, 0.764978
1612.99, 0.765333
1613.49, 0.766044
1614.0, 0.765689
1614.5, 0.765452
1615.0, 0.765926
1615.51, 0.766754
1616.01, 0.767110
1616.51, 0.767110
1617.02, 0.766873
1617.52, 0.766518
1618.03, 0.767228
1618.53, 0.767228
1619.04, 0.766636
1619.54, 0.767110
1620.05, 0.767465
1620.55, 0.767465
1621.06, 0.768294
1621.57, 0.768176
1622.08, 0.767584
1622.58, 0.767820
1623.09, 0.767939
1623.6, 0.767820
1624.11, 0.768294
1624.62, 0.768294
1625.13, 0.767939
1625.64, 0.768176
1626.15, 0.768768
1626.66, 0.769005
1627.17, 0.769005
1627.68, 0.768650
1628.19, 0.768768
1628.7, 0.769005
1629.21, 0.769005
1629.72, 0.769360
1630.24, 0.769242
1630.75, 0.769123
1631.26, 0.769479
1631.78, 0.769005
1632.29, 0.768768
1632.8, 0.769479
1633.32, 0.770189
1633.83, 0.770426
1634.35, 0.770426
1634.86, 0.770308
1635.38, 0.770781
1635.9, 0.771018
1636.41, 0.770781
1636.93, 0.770900
1637.45, 0.771018
1637.96, 0.771374
1638.48, 0.771847
1639.0, 0.771966
1639.52, 0.771374
1640.04, 0.770663
1640.56, 0.770189
1641.08, 0.770900
1641.59, 0.771847
1642.11, 0.772203
1642.63, 0.771729
1643.16, 0.771374
1643.68, 0.771847
1644.2, 0.772676
1644.72, 0.772439
1645.24, 0.772321
1645.76, 0.772795
1646.29, 0.772795
1646.81, 0.772203
1647.33, 0.772321
1647.86, 0.772913
1648.38, 0.773505
1648.9, 0.773505
1649.43, 0.773624
1649.95, 0.773979
1650.48, 0.773742
1651.0, 0.773505
1651.53, 0.773505
1652.06, 0.773387
1652.58, 0.773269
1653.11, 0.773387
1653.64, 0.774098
1654.17, 0.774216
1654.69, 0.774098
1655.22, 0.773742
1655.75, 0.773387
1656.28, 0.773624
1656.81, 0.774098
1657.34, 0.774927
1657.87, 0.775164
1658.4, 0.774808
1658.93, 0.775164
1659.46, 0.775637
1659.99, 0.775637
1660.52, 0.775874
1661.05, 0.776111
1661.59, 0.776822
1662.12, 0.777295
1662.65, 0.777059
1663.19, 0.777532
1663.72, 0.777532
1664.26, 0.777177
1664.79, 0.777295
1665.32, 0.777888
1665.86, 0.777769
1666.39, 0.777177
1666.93, 0.777532
1667.47, 0.777651
1668.0, 0.777651
1668.54, 0.778006
1669.08, 0.778124
1669.61, 0.778361
1670.15, 0.778361
1670.69, 0.778243
1671.23, 0.778717
1671.77, 0.779782
1672.31, 0.779782
1672.85, 0.779072
1673.39, 0.779072
1673.93, 0.779546
1674.47, 0.779309
1675.01, 0.779901
1675.55, 0.780612
1676.09, 0.780256
1676.64, 0.780138
1677.18, 0.780493
1677.72, 0.780493
1678.26, 0.780849
1678.81, 0.781322
1679.35, 0.781440
1679.89, 0.781204
1680.44, 0.780967
1680.98, 0.781440
1681.53, 0.782033
1682.07, 0.782388
1682.62, 0.782388
1683.17, 0.782388
1683.71, 0.782862
1684.26, 0.783099
1684.81, 0.783336
1685.36, 0.783217
1685.9, 0.783217
1686.45, 0.783099
1687.0, 0.783336
1687.55, 0.783217
1688.1, 0.783099
1688.65, 0.784165
1689.2, 0.784875
1689.75, 0.784520
1690.3, 0.784402
1690.85, 0.784165
1691.41, 0.784283
1691.96, 0.784875
1692.51, 0.784875
1693.06, 0.784638
1693.61, 0.784757
1694.17, 0.785349
1694.72, 0.785112
1695.28, 0.785231
1695.83, 0.785112
1696.39, 0.784875
1696.94, 0.785586
1697.5, 0.786060
1698.05, 0.785941
1698.61, 0.786060
1699.17, 0.785704
1699.72, 0.785231
1700.28, 0.785704
1700.84, 0.786297
1701.4, 0.786297
1701.95, 0.785941
1702.51, 0.785467
1703.07, 0.785941
1703.63, 0.786297
1704.19, 0.786533
1704.75, 0.786652
1705.31, 0.786533
1705.88, 0.786297
1706.44, 0.786415
1707.0, 0.786770
1707.56, 0.787007
1708.12, 0.787126
1708.69, 0.787362
1709.25, 0.787126
1709.81, 0.787007
1710.38, 0.787126
1710.94, 0.787244
1711.51, 0.787362
1712.07, 0.787126
1712.64, 0.786889
1713.2, 0.787007
1713.77, 0.787599
1714.34, 0.788073
1714.9, 0.788073
1715.47, 0.788310
1716.04, 0.788428
1716.61, 0.787836
1717.18, 0.787955
1717.74, 0.788191
1718.31, 0.787836
1718.88, 0.788073
1719.45, 0.788784
1720.02, 0.788310
1720.59, 0.788191
1721.17, 0.788428
1721.74, 0.788073
1722.31, 0.787836
1722.88, 0.788191
1723.45, 0.788547
1724.03, 0.788784
1724.6, 0.788665
1725.18, 0.788547
1725.75, 0.789139
1726.33, 0.789613
1726.9, 0.789139
1727.48, 0.789139
1728.05, 0.789376
1728.63, 0.789494
1729.2, 0.789494
1729.78, 0.789731
1730.36, 0.790205
1730.94, 0.790323
1731.51, 0.790205
1732.09, 0.789968
1732.67, 0.790086
1733.25, 0.790323
1733.83, 0.790086
1734.41, 0.790205
1734.99, 0.791034
1735.57, 0.791152
1736.15, 0.790797
1736.73, 0.791152
1737.32, 0.791863
1737.9, 0.792100
1738.48, 0.791626
1739.07, 0.791626
1739.65, 0.791508
1740.23, 0.791389
1740.82, 0.792100
1741.4, 0.792810
1741.99, 0.793166
1742.57, 0.792810
1743.16, 0.792810
1743.74, 0.793166
1744.33, 0.793640
1744.92, 0.793284
1745.51, 0.793403
1746.09, 0.793995
1746.68, 0.794113
1747.27, 0.793758
1747.86, 0.793640
1748.45, 0.793876
1749.04, 0.793640
1749.63, 0.793876
1750.22, 0.794350
1750.81, 0.794705
1751.4, 0.794824
1751.99, 0.795535
1752.59, 0.795298
1753.18, 0.794469
1753.77, 0.794587
1754.37, 0.794942
1754.96, 0.795298
1755.56, 0.795771
1756.15, 0.795890
1756.74, 0.796127
1757.34, 0.796482
1757.94, 0.796127
1758.53, 0.796245
1759.13, 0.796600
1759.73, 0.796245
1760.32, 0.796482
1760.92, 0.796837
1761.52, 0.796956
1762.12, 0.796956
1762.72, 0.796837
1763.32, 0.797193
1763.92, 0.797666
1764.52, 0.798140
1765.12, 0.798377
1765.72, 0.798377
1766.32, 0.798495
1766.92, 0.798614
1767.53, 0.798614
1768.13, 0.798614
1768.73, 0.798851
1769.34, 0.798851
1769.94, 0.798377
1770.55, 0.798259
1771.15, 0.798732
1771.76, 0.799324
1772.36, 0.799443
1772.97, 0.799324
1773.57, 0.799561
1774.18, 0.800035
1774.79, 0.800153
1775.4, 0.799324
1776.0, 0.798732
1776.61, 0.799088
1777.22, 0.799443
1777.83, 0.799561
1778.44, 0.799798
1779.05, 0.800390
1779.66, 0.800390
1780.27, 0.800035
1780.88, 0.800153
1781.5, 0.800746
1782.11, 0.800272
1782.72, 0.800153
1783.33, 0.800272
1783.95, 0.800390
1784.56, 0.800509
1785.18, 0.800509
1785.79, 0.800864
1786.41, 0.800983
1787.02, 0.800864
1787.64, 0.800864
1788.26, 0.800746
1788.87, 0.800864
1789.49, 0.801338
1790.11, 0.800983
1790.73, 0.800035
1791.35, 0.800035
1791.96, 0.800864
1792.58, 0.801219
1793.21, 0.800746
1793.83, 0.800864
1794.45, 0.801338
1795.07, 0.800627
1795.69, 0.800509
1796.31, 0.800864
1796.93, 0.801101
1797.56, 0.801338
1798.18, 0.801575
1798.8, 0.801456
1799.43, 0.801456
1800.05, 0.801101
1800.68, 0.800983
1801.3, 0.801338
1801.93, 0.801456
1802.56, 0.801101
1803.18, 0.801575
1803.81, 0.802522
1804.44, 0.802522
1805.07, 0.802167
1805.7, 0.802404
1806.33, 0.802167
1806.95, 0.801575
1807.58, 0.801338
1808.22, 0.801338
1808.85, 0.801338
1809.48, 0.801693
1810.11, 0.802167
1810.74, 0.802522
1811.38, 0.802522
1812.01, 0.802285
1812.64, 0.802167
1813.28, 0.802641
1813.91, 0.802996
1814.55, 0.802759
1815.18, 0.802759
1815.82, 0.803114
1816.45, 0.803470
1817.09, 0.803470
1817.73, 0.803943
1818.36, 0.804062
1819.0, 0.803825
1819.64, 0.803825
1820.28, 0.803588
1820.92, 0.803351
1821.56, 0.803707
1822.2, 0.803707
1822.84, 0.804062
1823.48, 0.804180
1824.12, 0.804654
1824.76, 0.804772
1825.41, 0.804536
1826.05, 0.804536
1826.69, 0.804891
1827.34, 0.805365
1827.98, 0.805365
1828.63, 0.805128
1829.27, 0.805009
1829.92, 0.805128
1830.56, 0.805365
1831.21, 0.805246
1831.86, 0.805365
1832.5, 0.806194
1833.15, 0.806667
1833.8, 0.807023
1834.45, 0.807023
1835.1, 0.806667
1835.75, 0.806549
1836.4, 0.806667
1837.05, 0.806667
1837.7, 0.806549
1838.35, 0.807141
1839.01, 0.807615
1839.66, 0.807496
1840.31, 0.807260
1840.96, 0.807260
1841.62, 0.807615
1842.27, 0.807733
1842.93, 0.807970
1843.58, 0.808444
1844.24, 0.809155
1844.9, 0.809510
1845.55, 0.809391
1846.21, 0.808918
1846.87, 0.808563
1847.53, 0.808563
1848.18, 0.808918
1848.84, 0.809155
1849.5, 0.809510
1850.16, 0.809747
1850.82, 0.809747
1851.48, 0.809628
1852.14, 0.809865
1852.81, 0.810102
1853.47, 0.809510
1854.13, 0.809036
1854.8, 0.809628
1855.46, 0.810457
1856.12, 0.810457
1856.79, 0.810102
1857.45, 0.810102
1858.12, 0.810457
1858.79, 0.810813
1859.45, 0.810813
1860.12, 0.811050
1860.79, 0.811050
1861.46, 0.811287
1862.12, 0.811642
1862.79, 0.811405
1863.46, 0.811287
1864.13, 0.811050
1864.8, 0.811168
1865.48, 0.810931
1866.15, 0.810931
1866.82, 0.811287
1867.49, 0.810694
1868.16, 0.810339
1868.84, 0.811405
1869.51, 0.811523
1870.19, 0.811050
1870.86, 0.810576
1871.54, 0.810576
1872.21, 0.810694
1872.89, 0.810102
1873.56, 0.810339
1874.24, 0.811050
1874.92, 0.811287
1875.6, 0.810694
1876.28, 0.810694
1876.96, 0.810457
1877.64, 0.810221
1878.32, 0.810457
1879.0, 0.810694
1879.68, 0.810576
1880.36, 0.810457
1881.04, 0.810931
1881.73, 0.811168
1882.41, 0.810931
1883.09, 0.810457
1883.78, 0.810339
1884.46, 0.810102
1885.15, 0.810221
1885.83, 0.810339
1886.52, 0.810221
1887.21, 0.809865
1887.89, 0.809747
1888.58, 0.809510
1889.27, 0.809155
1889.96, 0.808444
1890.65, 0.808326
1891.34, 0.809273
1892.03, 0.809273
1892.72, 0.809036
1893.41, 0.809155
1894.1, 0.809155
1894.79, 0.808918
1895.49, 0.808563
1896.18, 0.808089
1896.87, 0.807852
1897.57, 0.807970
1898.26, 0.807970
1898.96, 0.807496
1899.65, 0.806786
1900.35, 0.807141
1901.05, 0.807378
1901.74, 0.807378
1902.44, 0.807023
1903.14, 0.806312
1903.84, 0.806431
1904.54, 0.806786
1905.24, 0.806549
1905.94, 0.806549
1906.64, 0.806667
1907.34, 0.806667
1908.04, 0.806904
1908.75, 0.807141
1909.45, 0.807023
1910.15, 0.806904
1910.86, 0.806786
1911.56, 0.806667
1912.27, 0.806667
1912.97, 0.806431
1913.68, 0.806312
1914.39, 0.806904
1915.09, 0.807141
1915.8, 0.807260
1916.51, 0.807378
1917.22, 0.807496
1917.93, 0.807733
1918.64, 0.807733
1919.35, 0.807615
1920.06, 0.807260
1920.77, 0.806786
1921.48, 0.807260
1922.19, 0.807852
1922.91, 0.808207
1923.62, 0.808207
1924.33, 0.807970
1925.05, 0.808326
1925.76, 0.808799
1926.48, 0.808918
1927.19, 0.808681
1927.91, 0.808681
1928.63, 0.808918
1929.35, 0.809036
1930.07, 0.809510
1930.78, 0.809865
1931.5, 0.810102
1932.22, 0.810339
1932.94, 0.809984
1933.66, 0.809984
1934.39, 0.810102
1935.11, 0.810339
1935.83, 0.810576
1936.55, 0.810576
1937.28, 0.810813
1938.0, 0.811050
1938.73, 0.811287
1939.45, 0.811642
1940.18, 0.811879
1940.9, 0.811642
1941.63, 0.812234
1942.36, 0.812471
1943.09, 0.812115
1943.81, 0.812352
1944.54, 0.812945
1945.27, 0.813182
1946.0, 0.813300
1946.73, 0.813063
1947.47, 0.812945
1948.2, 0.813182
1948.93, 0.813300
1949.66, 0.813300
1950.4, 0.813537
1951.13, 0.813774
1951.86, 0.813774
1952.6, 0.814366
1953.34, 0.814840
1954.07, 0.814721
1954.81, 0.814603
1955.55, 0.814603
1956.29, 0.814840
1957.02, 0.815076
1957.76, 0.814958
1958.5, 0.814603
1959.24, 0.814840
1959.98, 0.815550
1960.72, 0.815313
1961.47, 0.815195
1962.21, 0.815432
1962.95, 0.815313
1963.7, 0.814958
1964.44, 0.815076
1965.18, 0.815550
1965.93, 0.816024
1966.67, 0.816142
1967.42, 0.816142
1968.17, 0.815787
1968.92, 0.815550
1969.66, 0.815669
1970.41, 0.815787
1971.16, 0.815669
1971.91, 0.815550
1972.66, 0.815669
1973.41, 0.816142
1974.16, 0.816261
1974.92, 0.816261
1975.67, 0.816142
1976.42, 0.816261
1977.18, 0.816498
1977.93, 0.816734
1978.69, 0.816616
1979.44, 0.816498
1980.2, 0.816616
1980.95, 0.816734
1981.71, 0.817090
1982.47, 0.817208
1983.23, 0.816853
1983.99, 0.816498
1984.74, 0.816142
1985.51, 0.816142
1986.27, 0.816498
1987.03, 0.816734
1987.79, 0.816971
1988.55, 0.817208
1989.32, 0.817090
1990.08, 0.817208
1990.84, 0.817327
1991.61, 0.817327
1992.37, 0.817445
1993.14, 0.817327
1993.9, 0.817564
1994.67, 0.817682
1995.44, 0.817564
1996.21, 0.817682
1996.98, 0.817800
1997.75, 0.817800
1998.52, 0.817919
1999.29, 0.818156
2000.06, 0.818037
2000.83, 0.818156
2001.6, 0.818393
2002.38, 0.818630
2003.15, 0.818630
2003.93, 0.818274
2004.7, 0.818156
2005.48, 0.818393
2006.25, 0.818748
2007.03, 0.819103
2007.81, 0.819458
2008.58, 0.819577
2009.36, 0.819340
2010.14, 0.819458
2010.92, 0.819814
2011.7, 0.819932
2012.48, 0.820288
2013.26, 0.820525
2014.05, 0.820761
2014.83, 0.820880
2015.61, 0.820761
2016.4, 0.820880
2017.18, 0.820880
2017.97, 0.821117
2018.75, 0.821472
2019.54, 0.821353
2020.32, 0.821709
2021.11, 0.821946
2021.9, 0.822183
2022.69, 0.822538
2023.48, 0.822538
2024.27, 0.822419
2025.06, 0.822419
2025.85, 0.822775
2026.64, 0.823012
2027.44, 0.823130
2028.23, 0.823485
2029.02, 0.823604
2029.82, 0.823485
2030.61, 0.824077
2031.41, 0.824433
2032.2, 0.824551
2033.0, 0.824551
2033.8, 0.824433
2034.6, 0.824314
2035.4, 0.824670
2036.2, 0.825262
2037.0, 0.825617
2037.8, 0.825854
2038.6, 0.825973
2039.4, 0.825499
2040.2, 0.825854
2041.01, 0.826209
2041.81, 0.826209
2042.61, 0.826328
2043.42, 0.826683
2044.22, 0.827157
2045.03, 0.827631
2045.84, 0.827868
2046.65, 0.827749
2047.46, 0.827275
2048.26, 0.827038
2049.07, 0.827512
2049.88, 0.827868
2050.69, 0.827749
2051.51, 0.827394
2052.32, 0.827512
2053.13, 0.827631
2053.94, 0.827749
2054.76, 0.827868
2055.57, 0.828460
2056.39, 0.828815
2057.2, 0.828934
2058.02, 0.828815
2058.84, 0.828341
2059.66, 0.828223
2060.48, 0.828341
2061.29, 0.828460
2062.11, 0.828934
2062.94, 0.829052
2063.76, 0.828934
2064.58, 0.828815
2065.4, 0.828815
2066.22, 0.828578
2067.05, 0.828578
2067.87, 0.828460
2068.7, 0.828460
2069.52, 0.828578
2070.35, 0.828934
2071.18, 0.829170
2072.0, 0.829289
2072.83, 0.828815
2073.66, 0.828697
2074.49, 0.829052
2075.32, 0.829052
2076.15, 0.828815
2076.98, 0.828815
2077.82, 0.829052
2078.65, 0.829289
2079.48, 0.829052
2080.32, 0.828934
2081.15, 0.828815
2081.99, 0.828578
2082.83, 0.828460
2083.66, 0.828223
2084.5, 0.828460
2085.34, 0.828578
2086.18, 0.828460
2087.02, 0.828460
2087.86, 0.828815
2088.7, 0.828578
2089.54, 0.828341
2090.39, 0.828460
2091.23, 0.828223
2092.07, 0.828578
2092.92, 0.828815
2093.76, 0.828697
2094.61, 0.828578
2095.45, 0.828460
2096.3, 0.828460
2097.15, 0.828341
2098.0, 0.828341
2098.85, 0.828460
2099.7, 0.828460
2100.55, 0.828341
2101.4, 0.828341
2102.25, 0.828104
2103.1, 0.828223
2103.96, 0.828223
2104.81, 0.828578
2105.67, 0.828578
2106.52, 0.828697
2107.38, 0.828460
2108.24, 0.828578
2109.09, 0.828934
2109.95, 0.829289
2110.81, 0.829170
2111.67, 0.828815
2112.53, 0.828815
2113.39, 0.828697
2114.25, 0.828697
2115.12, 0.829289
2115.98, 0.829526
2116.84, 0.829644
2117.71, 0.829644
2118.58, 0.829407
2119.44, 0.829407
2120.31, 0.829526
2121.18, 0.829881
2122.04, 0.830236
2122.91, 0.829999
2123.78, 0.829762
2124.65, 0.830118
2125.52, 0.830236
2126.4, 0.830118
2127.27, 0.830473
2128.14, 0.830710
2129.02, 0.830355
2129.89, 0.830236
2130.77, 0.830592
2131.64, 0.831184
2132.52, 0.831539
2133.4, 0.831894
2134.27, 0.832013
2135.15, 0.832131
2136.03, 0.831894
2136.91, 0.832250
2137.79, 0.832487
2138.68, 0.832605
2139.56, 0.832723
2140.44, 0.832842
2141.33, 0.832960
2142.21, 0.833079
2143.1, 0.832842
2143.99, 0.832723
2144.87, 0.832960
2145.76, 0.833316
2146.65, 0.833789
2147.54, 0.833671
2148.43, 0.833316
2149.32, 0.833079
2150.21, 0.833434
2151.1, 0.833552
2151.99, 0.833552
2152.89, 0.833789
2153.78, 0.833789
2154.68, 0.834145
2155.57, 0.834618
2156.47, 0.834500
2157.37, 0.834263
2158.27, 0.834382
2159.16, 0.834500
2160.06, 0.834382
2160.96, 0.834737
2161.86, 0.835092
2162.77, 0.834855
2163.67, 0.834618
2164.57, 0.834855
2165.48, 0.834618
2166.38, 0.834382
2167.29, 0.834500
2168.2, 0.834500
2169.1, 0.834737
2170.01, 0.834737
2170.92, 0.834737
2171.83, 0.834737
2172.74, 0.834537
2173.65, 0.834537
2174.56, 0.834537
2175.47, 0.834237
2176.39, 0.834637
2177.3, 0.834637
2178.22, 0.834737
2179.13, 0.835236
2180.05, 0.834537
2180.96, 0.833737
2181.88, 0.833438
2182.8, 0.833538
2183.72, 0.833638
2184.64, 0.833038
2185.56, 0.832638
2186.48, 0.832238
2187.41, 0.832039
2188.33, 0.832039
2189.25, 0.832238
2190.18, 0.831739
2191.1, 0.831039
2192.03, 0.830240
2192.96, 0.830140
2193.89, 0.830240
2194.82, 0.830739
2195.74, 0.830340
2196.68, 0.830040
2197.61, 0.830839
2198.54, 0.830839
2199.47, 0.830240
2200.4, 0.830640
2201.34, 0.831339
2202.28, 0.831239
2203.21, 0.831339
2204.15, 0.832039
2205.08, 0.832738
2206.02, 0.832538
2206.96, 0.832738
2207.9, 0.832838
2208.84, 0.832638
2209.78, 0.832938
2210.73, 0.833638
2211.67, 0.834137
2212.61, 0.834237
2213.56, 0.834237
2214.5, 0.834437
2215.45, 0.834737
2216.4, 0.834437
2217.35, 0.834837
2218.3, 0.835536
2219.24, 0.835336
2220.2, 0.835336
2221.15, 0.835636
2222.1, 0.836036
2223.05, 0.836036
2224.0, 0.836136
2224.96, 0.836336
2225.91, 0.836436
2226.87, 0.836735
2227.83, 0.836336
2228.79, 0.835336
2229.74, 0.835037
2230.7, 0.835636
2231.66, 0.836036
2232.63, 0.835936
2233.59, 0.836236
2234.55, 0.836236
2235.51, 0.836136
2236.48, 0.836236
2237.44, 0.836236
2238.41, 0.836935
2239.38, 0.837235
2240.34, 0.836635
2241.31, 0.836136
2242.28, 0.835436
2243.25, 0.835836
2244.22, 0.836336
2245.19, 0.836236
2246.17, 0.835636
2247.14, 0.835536
2248.12, 0.835636
2249.09, 0.835536
2250.07, 0.835836
2251.04, 0.835936
2252.02, 0.836436
2253.0, 0.836536
2253.98, 0.836436
2254.96, 0.836635
2255.94, 0.836036
2256.92, 0.835636
2257.91, 0.835936
2258.89, 0.836436
2259.88, 0.836635
2260.86, 0.836536
2261.85, 0.836236
2262.83, 0.836436
2263.82, 0.836735
2264.81, 0.836635
2265.8, 0.836136
2266.79, 0.836536
2267.78, 0.837335
2268.78, 0.837735
2269.77, 0.837335
2270.76, 0.837135
2271.76, 0.836835
2272.75, 0.836536
2273.75, 0.837035
2274.75, 0.837135
2275.75, 0.837135
2276.75, 0.837335
2277.75, 0.836835
2278.75, 0.836436
2279.75, 0.836635
2280.75, 0.836735
2281.76, 0.836935
2282.76, 0.837435
2283.77, 0.837735
2284.77, 0.837735
2285.78, 0.837335
2286.79, 0.837235
2287.8, 0.837135
2288.81, 0.837035
2289.82, 0.837335
2290.83, 0.837135
2291.84, 0.836935
2292.86, 0.836835
2293.87, 0.836835
2294.89, 0.836436
2295.91, 0.836136
2296.92, 0.836536
2297.94, 0.836436
2298.96, 0.836635
2299.98, 0.836735
2301.0, 0.836735
2302.02, 0.836635
2303.04, 0.836635
2304.07, 0.836735
2305.09, 0.836735
2306.12, 0.836436
2307.15, 0.835736
2308.17, 0.835736
2309.2, 0.835636
2310.23, 0.835536
2311.26, 0.835836
2312.29, 0.836136
2313.32, 0.835536
2314.35, 0.835436
2315.39, 0.835536
2316.42, 0.835336
2317.46, 0.835236
2318.5, 0.835136
2319.53, 0.835436
2320.57, 0.835037
2321.61, 0.834737
2322.65, 0.834937
2323.69, 0.835037
2324.73, 0.834937
2325.78, 0.834637
2326.82, 0.833937
2327.86, 0.833538
2328.91, 0.833638
2329.96, 0.833638
2331.01, 0.833937
2332.05, 0.833737
2333.1, 0.833538
2334.15, 0.833638
2335.21, 0.833538
2336.26, 0.834037
2337.31, 0.833737
2338.36, 0.833538
2339.42, 0.833438
2340.48, 0.833138
2341.53, 0.832738
2342.59, 0.833038
2343.65, 0.833238
2344.71, 0.832838
2345.77, 0.833138
2346.83, 0.833138
2347.9, 0.833038
2348.96, 0.832738
2350.02, 0.832838
2351.09, 0.832838
2352.16, 0.833038
2353.23, 0.832938
2354.29, 0.832738
2355.36, 0.832838
2356.43, 0.832938
2357.51, 0.833338
2358.58, 0.834037
2359.65, 0.833638
2360.73, 0.833138
2361.8, 0.833238
2362.88, 0.833737
2363.96, 0.834137
2365.03, 0.833638
2366.11, 0.833338
2367.19, 0.833937
2368.27, 0.834037
2369.36, 0.833837
2370.44, 0.833937
2371.53, 0.834037
2372.61, 0.834037
2373.7, 0.834137
2374.78, 0.834137
2375.87, 0.834437
2376.96, 0.834537
2378.05, 0.834537
2379.14, 0.834737
2380.24, 0.835436
2381.33, 0.835037
2382.42, 0.834437
2383.52, 0.834137
2384.61, 0.834637
2385.71, 0.834837
2386.81, 0.835136
2387.91, 0.835136
2389.01, 0.835136
2390.11, 0.835136
2391.22, 0.835136
2392.32, 0.835236
2393.42, 0.835536
2394.53, 0.835736
2395.64, 0.835336
2396.74, 0.835037
2397.85, 0.835336
2398.96, 0.835536
2400.07, 0.835936
2401.18, 0.835836
2402.3, 0.835636
2403.41, 0.835436
2404.52, 0.835536
2405.64, 0.835736
2406.76, 0.835436
2407.88, 0.835336
2408.99, 0.835037
2410.11, 0.835236
2411.23, 0.834837
2412.36, 0.834137
2413.48, 0.834437
2414.6, 0.835136
2415.73, 0.835037
2416.85, 0.834637
2417.98, 0.834337
2419.11, 0.834237
2420.24, 0.834337
2421.37, 0.834637
2422.5, 0.834537
2423.64, 0.834037
2424.77, 0.834137
2425.9, 0.833638
2427.04, 0.832938
2428.18, 0.832938
2429.31, 0.833038
2430.45, 0.833438
2431.59, 0.833138
2432.73, 0.832338
2433.88, 0.832338
2435.02, 0.832338
2436.16, 0.832338
2437.31, 0.832039
2438.45, 0.832139
2439.6, 0.832139
2440.75, 0.831839
2441.9, 0.831639
2443.05, 0.831639
2444.2, 0.831339
2445.35, 0.831539
2446.51, 0.831239
2447.67, 0.831239
2448.82, 0.831139
2449.98, 0.831039
2451.14, 0.831139
2452.3, 0.831039
2453.46, 0.830739
2454.62, 0.830839
2455.78, 0.830839
2456.94, 0.831339
2458.11, 0.831539
2459.28, 0.831539
2460.44, 0.831439
2461.61, 0.831139
2462.78, 0.831139
2463.95, 0.831439
2465.12, 0.830939
2466.3, 0.830640
2467.47, 0.831239
2468.65, 0.831439
2469.82, 0.831639
2471.0, 0.832039
2472.18, 0.831939
2473.36, 0.831539
2474.54, 0.831239
2475.72, 0.831139
2476.9, 0.831139
2478.08, 0.831439
2479.27, 0.831239
2480.46, 0.830540
2481.64, 0.830440
2482.83, 0.830739
2484.02, 0.830739
2485.21, 0.830640
2486.4, 0.830540
2487.6, 0.830540
2488.79, 0.830739
2489.99, 0.830540
2491.18, 0.830040
2492.38, 0.830140
2493.58, 0.830440
2494.78, 0.830839
2495.98, 0.830540
2497.18, 0.830340
2498.39, 0.830240
2499.59, 0.830340
2500.8, 0.830440
2502.01, 0.830540
2503.21, 0.830140
2504.42, 0.830140
2505.63, 0.830140
2506.84, 0.829640
2508.06, 0.830140
2509.27, 0.830440
2510.49, 0.830240
2511.7, 0.830140
2512.92, 0.830440
2514.14, 0.830540
2515.36, 0.830240
2516.58, 0.829740
2517.8, 0.829640
2519.03, 0.829940
2520.25, 0.829940
2521.48, 0.829940
2522.7, 0.829840
2523.93, 0.830240
2525.16, 0.830040
2526.39, 0.829640
2527.62, 0.829740
2528.86, 0.830040
2530.09, 0.829740
2531.33, 0.829141
2532.56, 0.829141
2533.8, 0.829740
2535.04, 0.829640
2536.28, 0.829540
2537.52, 0.830440
2538.76, 0.830540
2540.01, 0.830240
2541.25, 0.829840
2542.5, 0.828941
2543.75, 0.828841
2544.99, 0.829540
2546.24, 0.829540
2547.49, 0.828841
2548.75, 0.829241
2550.0, 0.829440
2551.26, 0.828841
2552.51, 0.827841
2553.77, 0.828741
2555.03, 0.829940
2556.29, 0.830340
2557.55, 0.830839
2558.81, 0.829540
2560.08, 0.826442
2561.34, 0.823744
2562.61, 0.823444
2563.88, 0.824444
2565.14, 0.826642
2566.41, 0.829241
2567.68, 0.828841
2568.96, 0.826143
2570.23, 0.825943
2571.51, 0.827542
2572.78, 0.825243
2574.06, 0.824943
2575.34, 0.826642
2576.62, 0.825943
2577.9, 0.827142
2579.18, 0.828741
2580.47, 0.827442
2581.75, 0.825743
2583.04, 0.822245
2584.32, 0.821745
2585.61, 0.824744
2586.9, 0.824044
2588.2, 0.824044
2589.49, 0.825343
2590.78, 0.826742
2592.08, 0.825243
2593.37, 0.816549
2594.67, 0.807555
2595.97, 0.812552
2597.27, 0.821845
2598.57, 0.826342
2599.88, 0.826143
2601.18, 0.824444
2602.49, 0.822745
2603.79, 0.819947
2605.1, 0.815849
2606.41, 0.817149
2607.72, 0.820846
2609.03, 0.821845
2610.35, 0.822545
2611.66, 0.823544
2612.98, 0.823444
2614.3, 0.823344
2615.62, 0.819747
2616.94, 0.816749
2618.26, 0.818847
2619.58, 0.816549
2620.91, 0.816149
2622.23, 0.821346
2623.56, 0.823844
2624.89, 0.822145
2626.22, 0.817848
2627.55, 0.818448
2628.88, 0.817948
2630.21, 0.813451
2631.55, 0.815750
2632.89, 0.819147
2634.22, 0.820047
2635.56, 0.821246
2636.9, 0.821546
2638.25, 0.821745
2639.59, 0.821546
2640.93, 0.821246
2642.28, 0.820446
2643.63, 0.819947
2644.98, 0.818548
2646.33, 0.818448
2647.68, 0.819247
2649.03, 0.819447
2650.39, 0.818648
2651.74, 0.816149
2653.1, 0.814650
2654.46, 0.815150
2655.82, 0.815150
2657.18, 0.815949
2658.54, 0.813751
2659.9, 0.812152
2661.27, 0.812252
2662.64, 0.811852
2664.01, 0.805956
2665.38, 0.799161
2666.74, 0.797962
2668.12, 0.801759
2669.49, 0.796862
2670.87, 0.793665
2672.24, 0.801259
2673.62, 0.803858
2675.0, 0.799760
2676.38, 0.794364
2677.76, 0.793365
2679.15, 0.792665
2680.54, 0.794264
2681.92, 0.793465
2683.31, 0.790167
2684.7, 0.787369
2686.09, 0.784071
2687.48, 0.780573
2688.88, 0.776276
2690.27, 0.770780
2691.67, 0.763085
2693.07, 0.751593
2694.47, 0.742299
2695.87, 0.736103
2697.27, 0.729908
2698.67, 0.722113
2700.08, 0.712819
2701.49, 0.704525
2702.9, 0.699728
2704.31, 0.695731
2705.72, 0.692733
2707.13, 0.690034
2708.54, 0.686037
2709.96, 0.681240
2711.38, 0.679941
2712.8, 0.683239
2714.22, 0.683039
2715.64, 0.679242
2717.06, 0.673745
2718.49, 0.666051
2719.91, 0.654958
2721.34, 0.649362
2722.77, 0.644865
2724.2, 0.635871
2725.63, 0.631174
2727.07, 0.627776
2728.5, 0.621880
2729.94, 0.615385
2731.38, 0.609589
2732.82, 0.603992
2734.26, 0.597497
2735.7, 0.593999
2737.15, 0.590801
2738.59, 0.583206
2740.04, 0.577011
2741.49, 0.575312
2742.94, 0.575512
2744.39, 0.573513
2745.84, 0.570415
2747.3, 0.567117
2748.76, 0.563320
2750.21, 0.558623
2751.67, 0.553626
2753.14, 0.547631
2754.6, 0.539536
2756.06, 0.537138
2757.53, 0.540136
2759.0, 0.541834
2760.46, 0.542334
2761.94, 0.542034
2763.41, 0.544233
2764.88, 0.548730
2766.36, 0.551928
2767.83, 0.554526
2769.31, 0.557224
2770.79, 0.560122
2772.27, 0.564419
2773.76, 0.567917
2775.24, 0.569616
2776.73, 0.570615
2778.22, 0.572414
2779.71, 0.573613
2781.2, 0.574313
2782.69, 0.575112
2784.18, 0.575512
2785.68, 0.574213
2787.18, 0.573313
2788.68, 0.574512
2790.18, 0.575712
2791.68, 0.575412
2793.19, 0.575012
2794.69, 0.574712
2796.2, 0.573813
2797.71, 0.572913
2799.22, 0.572114
2800.73, 0.570415
2802.24, 0.567817
2803.76, 0.566718
2805.28, 0.566818
2806.8, 0.566118
2808.32, 0.565119
2809.84, 0.564519
2811.36, 0.563120
2812.89, 0.561121
2814.42, 0.559722
2815.94, 0.558823
2817.48, 0.557324
2819.01, 0.555525
2820.54, 0.554526
2822.08, 0.553626
2823.61, 0.552627
2825.15, 0.551728
2826.69, 0.550229
2828.23, 0.549030
2829.78, 0.548030
2831.32, 0.546931
2832.87, 0.545532
2834.42, 0.544433
2835.97, 0.543433
2837.52, 0.542634
2839.08, 0.542334
2840.63, 0.541735
2842.19, 0.540635
2843.75, 0.539736
2845.31, 0.538836
2846.87, 0.538137
2848.44, 0.537337
2850.0, 0.536738
2851.57, 0.536138
2853.14, 0.535039
2854.71, 0.534140
2856.28, 0.533640
2857.86, 0.533040
2859.43, 0.532441
2861.01, 0.531841
2862.59, 0.531242
2864.17, 0.530642
2865.76, 0.529643
2867.34, 0.528943
2868.93, 0.528244
2870.52, 0.527644
2872.11, 0.527244
2873.7, 0.526944
2875.29, 0.526345
2876.89, 0.525845
2878.49, 0.525346
2880.08, 0.524646
2881.69, 0.523747
2883.29, 0.523247
2884.89, 0.522847
2886.5, 0.522348
2888.11, 0.521748
2889.72, 0.521148
2891.33, 0.520449
2892.94, 0.519849
2894.56, 0.519549
2896.17, 0.519050
2897.79, 0.518450
2899.42, 0.517551
2901.04, 0.516352
2902.66, 0.516152
2904.29, 0.515652
2905.92, 0.515352
2907.55, 0.515052
2909.18, 0.514653
2910.81, 0.514153
2912.45, 0.513953
2914.08, 0.513953
2915.72, 0.513953
2917.36, 0.513953
2919.01, 0.514053
2920.65, 0.513953
2922.3, 0.514053
2923.94, 0.514253
2925.59, 0.514453
2927.25, 0.514453
2928.9, 0.514353
2930.56, 0.514653
2932.21, 0.515352
2933.87, 0.515552
2935.53, 0.515552
2937.2, 0.515652
2938.86, 0.515952
2940.53, 0.516651
2942.2, 0.517051
2943.87, 0.517551
2945.54, 0.517551
2947.22, 0.517950
2948.89, 0.518550
2950.57, 0.519250
2952.25, 0.519849
2953.93, 0.519849
2955.62, 0.520249
2957.3, 0.520749
2958.99, 0.521148
2960.68, 0.521848
2962.37, 0.522447
2964.07, 0.522947
2965.76, 0.523447
2967.46, 0.523547
2969.16, 0.523647
2970.86, 0.524246
2972.56, 0.524746
2974.27, 0.525146
2975.98, 0.525246
2977.69, 0.525545
2979.4, 0.526245
2981.11, 0.526745
2982.83, 0.527144
2984.54, 0.527444
2986.26, 0.527744
2987.98, 0.528044
2989.71, 0.528343
2991.43, 0.528643
2993.16, 0.529143
2994.89, 0.529543
2996.62, 0.529843
2998.35, 0.530342
3000.09, 0.531042
3001.83, 0.531441
3003.57, 0.532141
3005.31, 0.533040
3007.05, 0.533840
3008.79, 0.534939
3010.54, 0.536138
3012.29, 0.537238
3014.04, 0.538437
3015.8, 0.539836
3017.55, 0.540835
3019.31, 0.541834
3021.07, 0.542934
3022.83, 0.544233
3024.59, 0.545332
3026.36, 0.546431
3028.13, 0.547631
3029.9, 0.548530
3031.67, 0.549329
3033.44, 0.550129
3035.22, 0.551428
3037.0, 0.552427
3038.78, 0.553327
3040.56, 0.554026
3042.34, 0.554726
3044.13, 0.555425
3045.92, 0.556125
3047.71, 0.556824
3049.5, 0.557624
3051.3, 0.558123
3053.09, 0.558623
3054.89, 0.559223
3056.69, 0.559922
3058.5, 0.560522
3060.3, 0.560921
3062.11, 0.561421
3063.92, 0.562021
3065.73, 0.562720
3067.55, 0.563620
3069.36, 0.564219
3071.18, 0.564719
3073.0, 0.565219
3074.82, 0.566018
3076.65, 0.566818
3078.48, 0.567317
3080.31, 0.567917
3082.14, 0.569016
3083.97, 0.569915
3085.8, 0.570515
3087.64, 0.571315
3089.48, 0.572414
3091.33, 0.573213
3093.17, 0.573613
3095.02, 0.574612
3096.87, 0.575712
3098.72, 0.576811
3100.57, 0.577810
3102.43, 0.578610
3104.28, 0.579509
3106.14, 0.580408
3108.01, 0.581508
3109.87, 0.582707
3111.74, 0.583906
3113.61, 0.585205
3115.48, 0.586404
3117.35, 0.587404
3119.23, 0.588403
3121.1, 0.589602
3122.98, 0.590602
3124.87, 0.591601
3126.75, 0.592700
3128.64, 0.593599
3130.53, 0.594599
3132.42, 0.595798
3134.31, 0.597097
3136.21, 0.598296
3138.11, 0.599196
3140.01, 0.600395
3141.91, 0.601694
3143.82, 0.602793
3145.73, 0.603593
3147.64, 0.604592
3149.55, 0.605991
3151.46, 0.607290
3153.38, 0.608190
3155.3, 0.609289
3157.22, 0.610688
3159.14, 0.611787
3161.07, 0.612886
3163.0, 0.613886
3164.93, 0.615085
3166.86, 0.616184
3168.8, 0.617483
3170.74, 0.618982
3172.68, 0.620281
3174.62, 0.621381
3176.56, 0.622680
3178.51, 0.624179
3180.46, 0.625578
3182.42, 0.626877
3184.37, 0.627876
3186.33, 0.629175
3188.29, 0.630674
3190.25, 0.631874
3192.21, 0.633073
3194.18, 0.634572
3196.15, 0.635971
3198.12, 0.637270
3200.09, 0.638569
3202.07, 0.639568
3204.05, 0.640768
3206.03, 0.641967
3208.02, 0.643166
3210.0, 0.644465
3211.99, 0.645864
3213.98, 0.647363
3215.98, 0.648662
3217.97, 0.649762
3219.97, 0.651061
3221.97, 0.652160
3223.98, 0.653259
3225.98, 0.654259
3227.99, 0.655458
3230.0, 0.657057
3232.02, 0.658256
3234.03, 0.659155
3236.05, 0.660254
3238.07, 0.661354
3240.1, 0.662453
3242.12, 0.663452
3244.15, 0.664652
3246.18, 0.665751
3248.22, 0.666850
3250.25, 0.667849
3252.29, 0.668849
3254.33, 0.669848
3256.38, 0.670647
3258.43, 0.671947
3260.47, 0.672946
3262.53, 0.673645
3264.58, 0.674645
3266.64, 0.675644
3268.7, 0.676543
3270.76, 0.677343
3272.82, 0.678442
3274.89, 0.679442
3276.96, 0.680341
3279.04, 0.681440
3281.11, 0.682240
3283.19, 0.683039
3285.27, 0.684238
3287.35, 0.685438
3289.44, 0.686437
3291.53, 0.687136
3293.62, 0.687736
3295.71, 0.688336
3297.81, 0.689235
3299.91, 0.690234
3302.01, 0.691134
3304.11, 0.692033
3306.22, 0.692733
3308.33, 0.693532
3310.44, 0.694431
3312.56, 0.695331
3314.68, 0.696230
3316.8, 0.697030
3318.92, 0.697829
3321.05, 0.698529
3323.18, 0.699428
3325.31, 0.700527
3327.44, 0.701627
3329.58, 0.702226
3331.72, 0.702926
3333.86, 0.703925
3336.01, 0.704625
3338.16, 0.705224
3340.31, 0.705824
3342.46, 0.706823
3344.61, 0.707922
3346.77, 0.708322
3348.94, 0.708622
3351.1, 0.709122
3353.27, 0.709421
3355.44, 0.709621
3357.61, 0.709921
3359.79, 0.710321
3361.97, 0.710620
3364.15, 0.710920
3366.33, 0.711420
3368.52, 0.711720
3370.71, 0.712219
3372.9, 0.712619
3375.1, 0.713119
3377.3, 0.713818
3379.5, 0.714618
3381.71, 0.715417
3383.91, 0.716616
3386.12, 0.717516
3388.34, 0.718215
3390.55, 0.719015
3392.77, 0.719914
3394.99, 0.720314
3397.22, 0.720614
3399.45, 0.721213
3401.68, 0.721613
3403.91, 0.721913
3406.15, 0.722013
3408.39, 0.722313
3410.63, 0.722812
3412.87, 0.723312
3415.12, 0.723612
3417.37, 0.724411
3419.63, 0.725610
3421.88, 0.726909
3424.14, 0.727909
3426.41, 0.729108
3428.67, 0.730207
3430.94, 0.731107
3433.21, 0.732106
3435.49, 0.733005
3437.77, 0.733905
3440.05, 0.734904
3442.33, 0.735504
3444.62, 0.735903
3446.91, 0.736503
3449.2, 0.737203
3451.5, 0.738002
3453.8, 0.739001
3456.1, 0.740001
3458.41, 0.740800
3460.72, 0.741400
3463.03, 0.741999
3465.34, 0.742499
3467.66, 0.743099
3469.98, 0.743698
3472.31, 0.744098
3474.63, 0.744498
3476.96, 0.744797
3479.3, 0.745197
3481.64, 0.745597
3483.97, 0.745797
3486.32, 0.746297
3488.66, 0.746696
3491.01, 0.746696
3493.36, 0.746596
3495.72, 0.746496
3498.08, 0.746596
3500.44, 0.746696
3502.81, 0.746896
3505.18, 0.747196
3507.55, 0.747696
3509.92, 0.748295
3512.3, 0.748995
3514.68, 0.749894
3517.06, 0.750893
3519.45, 0.751393
3521.84, 0.751893
3524.24, 0.752592
3526.64, 0.753292
3529.04, 0.753891
3531.44, 0.754391
3533.85, 0.754991
3536.26, 0.755690
3538.67, 0.756190
3541.09, 0.756689
3543.51, 0.757289
3545.93, 0.757889
3548.36, 0.758089
3550.79, 0.758688
3553.22, 0.759088
3555.66, 0.759188
3558.1, 0.759488
3560.54, 0.759987
3562.99, 0.760187
3565.44, 0.760687
3567.9, 0.760887
3570.35, 0.761086
3572.81, 0.761286
3575.28, 0.761586
3577.75, 0.761586
3580.22, 0.761786
3582.69, 0.762086
3585.17, 0.762186
3587.65, 0.762186
3590.14, 0.762186
3592.62, 0.762286
3595.11, 0.762286
3597.61, 0.762286
3600.11, 0.762386
3602.61, 0.762586
3605.11, 0.762486
3607.62, 0.762386
3610.14, 0.762486
3612.65, 0.762586
3615.17, 0.762386
3617.69, 0.762286
3620.22, 0.762286
3622.75, 0.762286
3625.28, 0.761986
3627.82, 0.761886
3630.36, 0.761986
3632.9, 0.761786
3635.45, 0.761586
3638.0, 0.761186
3640.56, 0.760887
3643.12, 0.760787
3645.68, 0.760887
3648.24, 0.760787
3650.81, 0.760587
3653.39, 0.760287
3655.96, 0.760287
3658.54, 0.760087
3661.13, 0.759687
3663.71, 0.759488
3666.3, 0.759388
3668.9, 0.759088
3671.5, 0.758788
3674.1, 0.758588
3676.7, 0.758588
3679.31, 0.758488
3681.93, 0.758388
3684.54, 0.758188
3687.17, 0.757989
3689.79, 0.757689
3692.42, 0.757489
3695.05, 0.757489
3697.69, 0.757489
3700.32, 0.757389
3702.97, 0.757089
3705.61, 0.756889
3708.27, 0.756889
3710.92, 0.756789
3713.58, 0.756390
3716.24, 0.755890
3718.91, 0.755890
3721.58, 0.756190
3724.25, 0.756090
3726.93, 0.755690
3729.61, 0.755490
3732.29, 0.755290
3734.98, 0.755190
3737.67, 0.754891
3740.37, 0.754491
3743.07, 0.754191
3745.78, 0.754091
3748.49, 0.753691
3751.2, 0.753392
3753.91, 0.753092
3756.63, 0.752992
3759.36, 0.752592
3762.09, 0.752292
3764.82, 0.751693
3767.55, 0.751293
3770.29, 0.750993
3773.04, 0.750693
3775.78, 0.750094
3778.54, 0.749794
3781.29, 0.749095
3784.05, 0.748795
3786.82, 0.748395
3789.59, 0.747795
3792.36, 0.747296
3795.13, 0.746796
3797.92, 0.746297
3800.7, 0.745897
3803.49, 0.745397
3806.28, 0.744797
3809.08, 0.744298
3811.88, 0.743798
3814.68, 0.743298
3817.49, 0.742699
3820.31, 0.742099
3823.12, 0.741700
3825.94, 0.741200
3828.77, 0.740600
3831.6, 0.740001
3834.43, 0.739601
3837.27, 0.739101
3840.11, 0.738801
3842.96, 0.738502
3845.81, 0.738002
3848.67, 0.737602
3851.53, 0.737203
3854.39, 0.736603
3857.26, 0.736003
3860.13, 0.735404
3863.01, 0.735104
3865.89, 0.734604
3868.77, 0.734105
3871.66, 0.733605
3874.55, 0.733405
3877.45, 0.733005
3880.35, 0.732406
3883.26, 0.732006
3886.17, 0.731806
3889.09, 0.731406
3892.01, 0.731107
3894.93, 0.730707
3897.86, 0.730207
3900.79, 0.729808
3903.73, 0.729208
3906.67, 0.728708
3909.62, 0.728608
3912.57, 0.728109
3915.52, 0.727309
3918.48, 0.726710
3921.45, 0.726210
3924.42, 0.725810
3927.39, 0.725311
3930.37, 0.724911
3933.35, 0.724311
3936.34, 0.723912
3939.33, 0.723512
3942.32, 0.722712
3945.32, 0.722313
3948.33, 0.722113
3951.34, 0.721813
3954.35, 0.721213
3957.37, 0.720814
3960.39, 0.720314
3963.42, 0.720014
3966.45, 0.719614
3969.49, 0.719115
3972.53, 0.718815
3975.58, 0.718515
3978.63, 0.718415
3981.68, 0.718116
3984.75, 0.717816
3987.81, 0.717816
3990.88, 0.717816
3993.95, 0.717716
3997.03, 0.717416
4000.12, 0.717216
4003.21, 0.716816
4006.3, 0.716616
4009.4, 0.716517
4012.5, 0.716417
4015.61, 0.716317
4018.72, 0.716217
4021.84, 0.716017
4024.96, 0.716017
4028.09, 0.715817
4031.22, 0.715517
4034.36, 0.715317
4037.5, 0.715117
4040.65, 0.715018
4043.8, 0.714718
4046.96, 0.714418
4050.12, 0.714318
4053.29, 0.714118
4056.46, 0.713918
4059.64, 0.713619
4062.82, 0.713419
4066.0, 0.713019
4069.19, 0.712819
4072.39, 0.712519
4075.59, 0.712020
4078.8, 0.711620
4082.01, 0.711120
4085.23, 0.710920
4088.45, 0.710620
4091.68, 0.710121
4094.91, 0.709621
4098.15, 0.709221
4101.39, 0.708822
4104.63, 0.708222
4107.89, 0.707722
4111.14, 0.707023
4114.41, 0.706523
4117.67, 0.706224
4120.95, 0.705724
4124.23, 0.705224
4127.51, 0.704724
4130.8, 0.704125
4134.09, 0.703325
4137.39, 0.702626
4140.7, 0.702026
4144.01, 0.701327
4147.32, 0.700427
4150.64, 0.699428
4153.97, 0.698828
4157.3, 0.697929
4160.64, 0.696930
4163.98, 0.696030
4167.33, 0.694931
4170.68, 0.693732
4174.04, 0.692433
4177.4, 0.691433
4180.77, 0.690334
4184.14, 0.689035
4187.52, 0.687736
4190.91, 0.686337
4194.3, 0.684538
4197.69, 0.682839
4201.1, 0.681040
4204.5, 0.679142
4207.92, 0.676843
4211.34, 0.674445
4214.76, 0.671847
4218.19, 0.669049
4221.62, 0.666550
4225.06, 0.663852
4228.51, 0.661154
4231.96, 0.658456
4235.42, 0.655957
4238.88, 0.653659
4242.35, 0.651760
4245.83, 0.649762
4249.31, 0.647963
4252.79, 0.646364
4256.28, 0.644465
4259.78, 0.641867
4263.29, 0.638769
4266.79, 0.635771
4270.31, 0.632973
4273.83, 0.630075
4277.35, 0.627477
4280.89, 0.624778
4284.42, 0.622080
4287.97, 0.619282
4291.52, 0.616384
4295.07, 0.613486
4298.63, 0.610588
4302.2, 0.607690
4305.78, 0.604492
4309.35, 0.601294
4312.94, 0.598396
4316.53, 0.595298
4320.13, 0.592001
4323.73, 0.588703
4327.34, 0.585405
4330.96, 0.582207
4334.58, 0.578909
4338.21, 0.575712
4341.84, 0.572414
4345.48, 0.569116
4349.12, 0.565918
4352.77, 0.562720
4356.43, 0.559622
4360.1, 0.556624
4363.76, 0.553826
4367.44, 0.550728
4371.12, 0.547531
4374.81, 0.544433
4378.51, 0.541535
4382.21, 0.538537
4385.92, 0.535539
4389.63, 0.532541
4393.35, 0.529543
4397.08, 0.526445
4400.81, 0.523547
4404.55, 0.520749
4408.29, 0.518050
4412.04, 0.515552
4415.8, 0.512854
4419.57, 0.510056
4423.34, 0.507558
4427.12, 0.505259
4430.9, 0.502861
4434.69, 0.500562
4438.49, 0.498064
4442.29, 0.495566
4446.1, 0.492967
4449.92, 0.490269
4453.74, 0.487471
4457.57, 0.484173
4461.41, 0.480676
4465.25, 0.477178
4469.1, 0.473481
4472.95, 0.469683
4476.82, 0.465886
4480.69, 0.461788
4484.56, 0.457591
4488.44, 0.453294
4492.33, 0.448897
4496.23, 0.444500
4500.13, 0.440103
4504.04, 0.435706
4507.96, 0.431409
4511.88, 0.427212
4515.81, 0.422915
4519.75, 0.418518
4523.69, 0.414320
4527.65, 0.410423
4531.6, 0.406626
4535.57, 0.402928
4539.54, 0.399431
4543.52, 0.395833
4547.5, 0.392335
4551.5, 0.388938
4555.5, 0.385540
4559.5, 0.382042
4563.52, 0.378445
4567.54, 0.374847
4571.56, 0.371249
4575.6, 0.367852
4579.64, 0.364554
4583.69, 0.361156
4587.75, 0.357759
4591.81, 0.354361
4595.88, 0.350963
4599.96, 0.347565
4604.04, 0.343768
4608.14, 0.339871
4612.24, 0.335773
4616.34, 0.331476
4620.46, 0.327079
4624.58, 0.322682
4628.71, 0.318085
4632.84, 0.313788
4636.99, 0.309591
4641.14, 0.305494
4645.3, 0.301796
4649.47, 0.298798
4653.64, 0.296400
4657.82, 0.294102
4662.01, 0.292103
4666.21, 0.290104
4670.41, 0.288106
4674.62, 0.286007
4678.84, 0.283908
4683.07, 0.281810
4687.3, 0.279811
4691.54, 0.277613
4695.79, 0.275214
4700.05, 0.273016
4704.31, 0.270617
4708.59, 0.268119
4712.87, 0.265521
4717.15, 0.262723
4721.45, 0.260124
4725.76, 0.257726
4730.07, 0.255328
4734.39, 0.252929
4738.72, 0.250631
4743.05, 0.248232
4747.39, 0.245834
4751.75, 0.243336
4756.1, 0.240937
4760.47, 0.238439
4764.85, 0.235941
4769.23, 0.234242
4773.62, 0.233043
4778.02, 0.232443
4782.43, 0.232643
4786.85, 0.233742
4791.27, 0.235341
4795.7, 0.237240
4800.14, 0.239239
4804.59, 0.241037
4809.05, 0.242336
4813.51, 0.243336
4817.99, 0.244035
4822.47, 0.244235
4826.96, 0.243935
4831.46, 0.243036
4835.96, 0.241837
4840.48, 0.240038
4845.0, 0.237840
4849.54, 0.235441
4854.08, 0.232943
4858.63, 0.230445
4863.18, 0.228146
4867.75, 0.225948
4872.33, 0.223949
4876.91, 0.221850
4881.5, 0.219952
4886.1, 0.218053
4890.71, 0.216254
4895.33, 0.214555
4899.96, 0.213356
4904.59, 0.212956
4909.24, 0.213456
4913.89, 0.214755
4918.55, 0.216454
4923.22, 0.218153
4927.9, 0.219452
4932.59, 0.220251
4937.29, 0.220451
4942.0, 0.219552
4946.71, 0.217853
4951.44, 0.215355
4956.17, 0.212057
4960.91, 0.208259
4965.67, 0.204062
4970.43, 0.199865
4975.2, 0.196068
4979.98, 0.192270
4984.76, 0.188573
4989.56, 0.185375
4994.37, 0.182977
4999.18, 0.181078
5004.01, 0.179379
5008.84, 0.177980
5013.69, 0.176481
5018.54, 0.174882
5023.4, 0.173583
5028.28, 0.172084
5033.16, 0.170285
5038.05, 0.168386
5042.95, 0.166688
5047.86, 0.164989
5052.78, 0.163290
5057.71, 0.161591
5062.65, 0.159892
5067.6, 0.157993
5072.56, 0.155795
5077.53, 0.153197
5082.5, 0.150399
5087.49, 0.147600
5092.49, 0.144702
5097.5, 0.141904
5102.51, 0.139206
5107.54, 0.136308
5112.58, 0.133910
5117.62, 0.131811
5122.68, 0.129812
5127.75, 0.127914
5132.82, 0.126015
5137.91, 0.124116
5143.01, 0.122118
5148.12, 0.120219
5153.23, 0.118520
5158.36, 0.116821
5163.5, 0.114922
5168.65, 0.113224
5173.81, 0.111625
5178.98, 0.109826
5184.15, 0.108127
5189.34, 0.106728
5194.54, 0.105129
5199.75, 0.103830
5204.98, 0.102631
5210.21, 0.101232
5215.45, 0.0999330
5220.7, 0.0987330
5225.96, 0.0976340
5231.23, 0.0967350
5236.52, 0.0963350
5241.81, 0.0961350
5247.12, 0.0958350
5252.44, 0.0958350
5257.76, 0.0958350
5263.1, 0.0957350
5268.45, 0.0957350
5273.81, 0.0955360
5279.18, 0.0956350
5284.56, 0.0957350
5289.95, 0.0956350
5295.36, 0.0955360
5300.77, 0.0955360
5306.2, 0.0954360
5311.63, 0.0955360
5317.08, 0.0956350
5322.54, 0.0956350
5328.01, 0.0955360
5333.49, 0.0954360
5338.98, 0.0950360
5344.49, 0.0942360
5350.0, 0.0933370
5355.53, 0.0925380
5361.07, 0.0917380
5366.62, 0.0905390
5372.18, 0.0891400
5377.75, 0.0876410
5383.34, 0.0860420
5388.93, 0.0843430
5394.54, 0.0824440
5400.16, 0.0803460
5405.79, 0.0785470
5411.44, 0.0767480
5417.09, 0.0747500
5422.76, 0.0728510
5428.43, 0.0716520
5434.12, 0.0702530
5439.83, 0.0688540
5445.54, 0.0673550
5451.26, 0.0659560
5457.0, 0.0647560
5462.75, 0.0637570
5468.52, 0.0628580
5474.29, 0.0617580
5480.08, 0.0606590
5485.88, 0.0596600
5491.69, 0.0585600
5497.51, 0.0574610
5503.35, 0.0563620
5509.2, 0.0550630
5515.06, 0.0538640
5520.93, 0.0525650
5526.82, 0.0512650
5532.71, 0.0501660
5538.63, 0.0488670
5544.55, 0.0475680
5550.49, 0.0465690
5556.44, 0.0455690
5562.4, 0.0449700
5568.37, 0.0446700
5574.36, 0.0441700
5580.36, 0.0439700
5586.37, 0.0437700
5592.4, 0.0438700
5598.44, 0.0438700
5604.49, 0.0438700
5610.56, 0.0435710
5616.63, 0.0433710
5622.73, 0.0431710
5628.83, 0.0429710
5634.95, 0.0425710
5641.08, 0.0419720
5647.23, 0.0417720
5653.39, 0.0414720
5659.56, 0.0410720
5665.74, 0.0409720
5671.94, 0.0405730
5678.15, 0.0402730
5684.38, 0.0401730
5690.62, 0.0400730
5696.87, 0.0399730
5703.14, 0.0397730
5709.42, 0.0394730
5715.72, 0.0391740
5722.03, 0.0393730
5728.35, 0.0394730
5734.69, 0.0394730
5741.03, 0.0393730
5747.4, 0.0393730
5753.78, 0.0396730
5760.17, 0.0395730
5766.58, 0.0392740
5773.0, 0.0396730
5779.44, 0.0399730
5785.88, 0.0402730
5792.35, 0.0403730
5798.83, 0.0403730
5805.32, 0.0406730
5811.83, 0.0406730
5818.35, 0.0402730
5824.89, 0.0399730
5831.45, 0.0403730
5838.01, 0.0405730
5844.59, 0.0406730
5851.19, 0.0404730
5857.8, 0.0401730
5864.43, 0.0399730
5871.07, 0.0397730
5877.73, 0.0391740
5884.4, 0.0389740
5891.09, 0.0389740
5897.79, 0.0389740
5904.5, 0.0393730
5911.23, 0.0395730
5917.98, 0.0395730
5924.75, 0.0395730
5931.53, 0.0394730
5938.32, 0.0394730
5945.13, 0.0399730
5951.96, 0.0401730
5958.8, 0.0402730
5965.65, 0.0401730
5972.53, 0.0400730
5979.42, 0.0400730
5986.32, 0.0397730
5993.24, 0.0397730
6000.18, 0.0399730
6007.13, 0.0397730
6014.1, 0.0394730
6021.08, 0.0394730
6028.09, 0.0395730
6035.1, 0.0393730
6042.14, 0.0387740
6049.19, 0.0381740
6056.25, 0.0386740
6063.34, 0.0388740
6070.44, 0.0385740
6077.55, 0.0385740
6084.69, 0.0386740
6091.84, 0.0385740
6099.0, 0.0380740
6106.19, 0.0375750
6113.39, 0.0369750
6120.61, 0.0368750
6127.84, 0.0364750
6135.09, 0.0358760
6142.36, 0.0351760
6149.65, 0.0346770
6156.95, 0.0342770
6164.27, 0.0339770
6171.61, 0.0337770
6178.97, 0.0333770
6186.34, 0.0328780
6193.73, 0.0329780
6201.14, 0.0329780
6208.57, 0.0327780
6216.01, 0.0326780
6223.47, 0.0327780
6230.95, 0.0328780
6238.45, 0.0328780
6245.97, 0.0328780
6253.5, 0.0328780
6261.06, 0.0330780
6268.63, 0.0329780
6276.21, 0.0330780
6283.82, 0.0332780
6291.45, 0.0335770
6299.1, 0.0338770
6306.76, 0.0340770
6314.44, 0.0341770
6322.14, 0.0342770
6329.86, 0.0343770
6337.6, 0.0344770
6345.35, 0.0345770
6353.13, 0.0351760
6360.92, 0.0355760
6368.74, 0.0355760
6376.57, 0.0357760
6384.43, 0.0359760
6392.3, 0.0361760
6400.19, 0.0361760
6408.1, 0.0357760
6416.03, 0.0356760
6423.98, 0.0361760
6431.95, 0.0361760
6439.94, 0.0361760
6447.95, 0.0359760
6455.98, 0.0355760
6464.03, 0.0350760
6472.1, 0.0346770
6480.19, 0.0340770
6488.31, 0.0333770
6496.44, 0.0330780
6504.59, 0.0330780
6512.76, 0.0330780
6520.95, 0.0327780
6529.16, 0.0327780
6537.4, 0.0324780
6545.65, 0.0321780
6553.92, 0.0318780
6562.22, 0.0315790
6570.54, 0.0309790
6578.88, 0.0307790
6587.23, 0.0306790
6595.61, 0.0305790
6604.02, 0.0303800
6612.44, 0.0300800
6620.89, 0.0298800
6629.35, 0.0294800
6637.84, 0.0291800
6646.35, 0.0295800
6654.88, 0.0295800
6663.44, 0.0295800
6672.01, 0.0292800
6680.61, 0.0288810
6689.23, 0.0287810
6697.88, 0.0287810
6706.54, 0.0283810
6715.23, 0.0280810
6723.94, 0.0279810
6732.67, 0.0277810
6741.42, 0.0277810
6750.2, 0.0277810
6759.0, 0.0276810
6767.82, 0.0273820
6776.67, 0.0271820
6785.54, 0.0270820
6794.44, 0.0269820
6803.35, 0.0270820
6812.29, 0.0271820
6821.26, 0.0269820
6830.24, 0.0268820
6839.25, 0.0267820
6848.29, 0.0262820
6857.35, 0.0256830
6866.43, 0.0253830
6875.54, 0.0253830
6884.67, 0.0251830
6893.82, 0.0247830
6903.0, 0.0243840
6912.2, 0.0240840
6921.43, 0.0237840
6930.69, 0.0235840
6939.96, 0.0230840
6949.27, 0.0228850
6958.59, 0.0226850
6967.95, 0.0224850
6977.33, 0.0222850
6986.73, 0.0219850
6996.16, 0.0217850
7005.61, 0.0215850
7015.09, 0.0213860
7024.6, 0.0211860
7034.13, 0.0208860
7043.69, 0.0205860
7053.27, 0.0202860
7062.88, 0.0201860
7072.52, 0.0198870
7082.18, 0.0195870
7091.87, 0.0191870
7101.58, 0.0185870
7111.32, 0.0178880
7121.09, 0.0174880
7130.88, 0.0172880
7140.71, 0.0169890
7150.56, 0.0164890
7160.43, 0.0158890
7170.33, 0.0154900
7180.27, 0.0148900
7190.23, 0.0146900
7200.21, 0.0143900
7210.23, 0.0139910
7220.27, 0.0135910
7230.34, 0.0132910
7240.44, 0.0128910
7250.56, 0.0126910
7260.72, 0.0123920
7270.9, 0.0119920
7281.12, 0.0116920
7291.36, 0.0112920
7301.63, 0.0109930
7311.93, 0.0106930
7322.25, 0.0104930
7332.61, 0.0100930
7343.0, 0.00979300
7353.41, 0.00939400
7363.86, 0.00919400
7374.33, 0.00889400
7384.83, 0.00869400
7395.37, 0.00859400
7405.93, 0.00839400
7416.53, 0.00789500
7427.15, 0.00769500
7437.81, 0.00739500
7448.5, 0.00729500
7459.22, 0.00709500
7469.96, 0.00669500
7480.74, 0.00639600
7491.55, 0.00619600
7502.39, 0.00589600
7513.27, 0.00569600
7524.17, 0.00559600
7535.11, 0.00539600
7546.08, 0.00509700
7557.08, 0.00479700
7568.11, 0.00469700
7579.17, 0.00439700
7590.27, 0.00419700
7601.4, 0.00389700
7612.56, 0.00369800
7623.76, 0.00349800
7634.98, 0.00339800
7646.24, 0.00309800
7657.54, 0.00299800
7668.87, 0.00289800
7680.23, 0.00279800
7691.62, 0.00259800
7703.05, 0.00249800
7714.51, 0.00229800
7726.01, 0.00209900
7737.54, 0.00209900
7749.11, 0.00209900
7760.71, 0.00219900
7772.35, 0.00229800
7784.02, 0.00219900
7795.72, 0.00209900
7807.46, 0.00189900
7819.23, 0.00209900
7831.04, 0.00239800
7842.89, 0.00259800
7854.77, 0.00289800
7866.69, 0.00299800
7878.65, 0.00319800
7890.64, 0.00349800
7902.67, 0.00419700
7914.74, 0.00499700
7926.84, 0.00589600
7938.98, 0.00679500
7951.16, 0.00789500
7963.37, 0.00949400
7975.62, 0.0111920
7987.91, 0.0130910
8000.24, 0.0153900
8012.6, 0.0178880
8025.01, 0.0205860
8037.45, 0.0239840
8049.93, 0.0275810
8062.45, 0.0316790
8075.01, 0.0361760
8087.61, 0.0412720
8100.24, 0.0465690
8112.91, 0.0524650
8125.63, 0.0589600
8138.39, 0.0659560
8151.18, 0.0729510
8164.02, 0.0805460
8176.9, 0.0885400
8189.81, 0.0968350
8202.77, 0.105229
8215.77, 0.113423
8228.82, 0.121318
8241.9, 0.128313
8255.02, 0.134509
8268.19, 0.139606
8281.39, 0.143803
8294.65, 0.147101
8307.94, 0.149899
8321.28, 0.152097
8334.66, 0.153496
8348.08, 0.154396
8361.54, 0.155195
8375.05, 0.155295
8388.6, 0.155395
8402.2, 0.155295
8415.84, 0.154995
8429.52, 0.154796
8443.25, 0.154396
8457.02, 0.153896
8470.84, 0.153496
8484.7, 0.153197
8498.61, 0.152797
8512.57, 0.152297
8526.57, 0.152197
8540.62, 0.152397
8554.71, 0.152397
8568.85, 0.152497
8583.04, 0.152397
8597.27, 0.152197
8611.55, 0.151498
8625.88, 0.150698
8640.26, 0.149799
8654.68, 0.148700
8669.16, 0.147700
8683.68, 0.146701
8698.25, 0.144902
8712.87, 0.143303
8727.53, 0.141205
8742.25, 0.138806
8757.02, 0.136208
8771.83, 0.133710
8786.7, 0.131112
8801.62, 0.128114
8816.59, 0.125116
8831.61, 0.122118
8846.68, 0.119220
8861.8, 0.116322
8876.97, 0.113623
8892.2, 0.110525
8907.48, 0.107527
8922.81, 0.104829
8938.2, 0.102431
8953.63, 0.100033
8969.13, 0.0979340
8984.67, 0.0962350
9000.27, 0.0947360
9015.92, 0.0936370
9031.63, 0.0935370
9047.39, 0.0940370
9063.21, 0.0948360
9079.08, 0.0960350
9095.01, 0.0977340
9111.0, 0.0993330
9127.04, 0.100932
9143.13, 0.102431
9159.28, 0.103530
9175.49, 0.104330
9191.76, 0.104430
9208.09, 0.104230
9224.47, 0.104030
9240.92, 0.103530
9257.42, 0.103030
9273.98, 0.102831
9290.6, 0.102631
9307.28, 0.102631
9324.02, 0.102731
9340.82, 0.103330
9357.68, 0.103930
9374.6, 0.104629
9391.58, 0.105829
9408.62, 0.107727
9425.73, 0.110126
9442.9, 0.114023
9460.13, 0.118720
9477.42, 0.123816
9494.78, 0.129513
9512.2, 0.135608
9529.69, 0.141904
9547.24, 0.147900
9564.86, 0.153696
9582.54, 0.158293
9600.28, 0.162390
9618.1, 0.165288
9635.97, 0.167487
9653.92, 0.168786
9671.93, 0.168986
9690.01, 0.167487
9708.16, 0.163789
9726.37, 0.157993
9744.65, 0.152497
9763.0, 0.148300
9781.43, 0.146001
9799.92, 0.146501
9818.48, 0.149399
9837.1, 0.153197
9855.8, 0.156295
9874.58, 0.159093
9893.42, 0.160592
9912.34, 0.160991
9931.33, 0.160692
9950.39, 0.159392
9969.52, 0.156794
9988.74, 0.153596
10008.0, 0.149699
10027.4, 0.146201
10046.8, 0.142904
10066.3, 0.139906
10085.9, 0.136608
10105.6, 0.133210
10125.3, 0.130012
10145.1, 0.126714
10165.0, 0.123916
10185.0, 0.120818
10205.0, 0.117721
10225.2, 0.114623
10245.4, 0.112024
10265.7, 0.109026
10286.0, 0.105929
10306.5, 0.103030
10327.0, 0.100832
10347.6, 0.0985340
10368.3, 0.0963350
10389.1, 0.0947360
10409.9, 0.0932370
10430.9, 0.0917380
10451.9, 0.0903390
10473.0, 0.0892400
10494.2, 0.0886400
10515.5, 0.0876410
10536.9, 0.0865420
10558.4, 0.0856420
10579.9, 0.0846430
10601.5, 0.0839430
10623.3, 0.0832440
10645.1, 0.0831440
10667.0, 0.0824440
10689.0, 0.0817450
10711.1, 0.0812450
10733.2, 0.0807460
10755.5, 0.0798460
10777.9, 0.0794460
10800.3, 0.0785470
10822.9, 0.0779470
10845.5, 0.0773480
10868.2, 0.0767480
10891.1, 0.0760490
10914.0, 0.0751490
10937.0, 0.0744500
10960.2, 0.0739500
10983.4, 0.0733510
11006.7, 0.0726510
11030.1, 0.0719510
11053.6, 0.0710520
11077.3, 0.0703530
11101.0, 0.0698530
11124.8, 0.0694530
11148.7, 0.0686540
11172.7, 0.0680540
11196.9, 0.0671550
11221.1, 0.0665550
11245.4, 0.0655560
11269.9, 0.0648560
11294.4, 0.0641570
11319.1, 0.0635570
11343.9, 0.0627580
11368.8, 0.0620580
11393.7, 0.0610590
11418.8, 0.0603590
11444.0, 0.0598600
11469.4, 0.0590600
11494.8, 0.0582610
11520.3, 0.0575610
11546.0, 0.0568620
11571.8, 0.0560620
11597.7, 0.0556620
11623.7, 0.0548630
11649.8, 0.0542630
11676.0, 0.0537640
11702.4, 0.0534640
11728.9, 0.0526640
11755.5, 0.0522650
11782.2, 0.0514650
11809.0, 0.0511650
11836.0, 0.0505660
11863.0, 0.0500660
11890.3, 0.0494670
11917.6, 0.0488670
11945.0, 0.0486670
11972.6, 0.0480680
12000.4, 0.0469680
12028.2, 0.0462690
12056.2, 0.0451700
12084.3, 0.0438700
12112.5, 0.0430710
12140.9, 0.0423710
12169.4, 0.0411720
12198.0, 0.0393730
12226.8, 0.0385740
12255.7, 0.0374750
12284.7, 0.0364750
12313.9, 0.0352760
12343.2, 0.0337770
12372.7, 0.0326780
12402.3, 0.0318780
12432.0, 0.0305790
12461.9, 0.0298800
12491.9, 0.0289800
12522.1, 0.0279810
12552.4, 0.0279810
12582.9, 0.0293800
12613.5, 0.0321780
12644.3, 0.0348760
12675.2, 0.0370750
12706.3, 0.0372750
12737.5, 0.0362760
12768.9, 0.0349760
12800.4, 0.0337770
12832.1, 0.0327780
12863.9, 0.0327780
12895.9, 0.0322780
12928.1, 0.0329780
12960.4, 0.0339770
12992.9, 0.0358760
13025.5, 0.0391740
13058.3, 0.0434710
13091.3, 0.0467680
13124.4, 0.0476680
13157.8, 0.0466690
13191.2, 0.0446700
13224.9, 0.0428710
13258.7, 0.0414720
13292.7, 0.0406730
13326.9, 0.0403730
13361.2, 0.0414720
13395.7, 0.0421720
13430.4, 0.0432710
13465.3, 0.0438700
13500.4, 0.0433710
13535.7, 0.0415720
13571.1, 0.0401730
13606.7, 0.0390740
13642.5, 0.0380740
13678.5, 0.0380740
13714.7, 0.0392740
13751.1, 0.0402730
13787.6, 0.0420720
13824.4, 0.0435710
13861.4, 0.0439700
13898.5, 0.0430710
13935.9, 0.0416720
13973.5, 0.0411720
14011.2, 0.0399730
14049.2, 0.0390740
14087.4, 0.0384740
14125.8, 0.0374750
14164.3, 0.0365750
14203.2, 0.0362760
14242.2, 0.0354760
14281.4, 0.0352760
14320.9, 0.0339770
14360.5, 0.0329780
14400.4, 0.0319780
14440.5, 0.0313790
14480.9, 0.0310790
14521.4, 0.0306790
14562.2, 0.0301800
14603.3, 0.0296800
14644.5, 0.0292800
14686.0, 0.0292800
14727.7, 0.0284810
14769.7, 0.0273820
14811.9, 0.0275810
14854.3, 0.0273820
14897.0, 0.0277810
14939.9, 0.0281810
14983.1, 0.0298800
15026.5, 0.0323780
15070.2, 0.0365750
15114.2, 0.0420720
15158.3, 0.0492670
15202.8, 0.0571610
15247.5, 0.0631570
15292.5, 0.0659560
15337.7, 0.0670550
15383.2, 0.0639570
15429.0, 0.0583610
15475.1, 0.0521650
15521.4, 0.0468680
15568.0, 0.0441700
15614.9, 0.0422710
15662.1, 0.0410720
15709.6, 0.0402730
15757.3, 0.0407720
15805.4, 0.0421720
15853.7, 0.0446700
15902.3, 0.0484670
15951.2, 0.0544630
16000.5, 0.0603590
16050.0, 0.0674540
16099.8, 0.0728510
16150.0, 0.0765480
16200.5, 0.0779470
16251.3, 0.0780470
16302.4, 0.0787470
16353.8, 0.0816450
16405.5, 0.0858420
16457.6, 0.0901390
16510.0, 0.0938370
16562.8, 0.0958350
16615.9, 0.0965350
16669.3, 0.0970350
16723.1, 0.0974340
16777.2, 0.0971340
16831.7, 0.0972340
16886.5, 0.0952360
16941.7, 0.0938370
16997.2, 0.0921380
17053.1, 0.0901390
17109.4, 0.0869410
17166.1, 0.0844430
17223.1, 0.0810450
17280.5, 0.0775480
17338.3, 0.0738500
17396.5, 0.0706520
17455.1, 0.0671550
17514.0, 0.0638570
17573.4, 0.0609590
17633.2, 0.0576610
17693.4, 0.0561620
17754.0, 0.0531640
17815.0, 0.0511650
17876.4, 0.0500660
17938.3, 0.0468680
18000.5, 0.0445700
18063.3, 0.0446700
18126.4, 0.0446700
18190.0, 0.0458690
18254.1, 0.0470680
18318.6, 0.0521650
18383.5, 0.0584610
18449.0, 0.0666550
18514.9, 0.0735500
18581.2, 0.0784470
18648.0, 0.0800460
18715.4, 0.0784470
18783.2, 0.0749490
18851.5, 0.0713520
18920.3, 0.0680540
18989.6, 0.0642570
19059.4, 0.0608590
19129.7, 0.0555630
19200.6, 0.0526640
19272.0, 0.0501660
19343.9, 0.0490670
19416.3, 0.0467680
19489.3, 0.0460690
19562.8, 0.0452690
19637.0, 0.0436710
19711.6, 0.0406730
19786.8, 0.0381740
19862.6, 0.0361760
19939.0, 0.0371750
20016.0, 0.0351760
20093.6, 0.0345770
20171.8, 0.0342770
20250.6, 0.0327780
20330.0, 0.0359760
20410.0, 0.0423710
20490.7, 0.0492670
20572.0, 0.0553630
20654.0, 0.0646560
20736.6, 0.0713520
20819.9, 0.0727510
20903.8, 0.0696530
20988.5, 0.0664550
21073.8, 0.0615580
21159.8, 0.0599600
21246.5, 0.0565620
21334.0, 0.0576610
21422.1, 0.0604590
21511.0, 0.0608590
21600.7, 0.0615580
21691.0, 0.0622580
21782.1, 0.0612590
21874.0, 0.0595600
21966.7, 0.0609590
22060.2, 0.0664550
22154.5, 0.0770480
22249.6, 0.0876410
22345.5, 0.0963350
22442.2, 0.0983340
22539.8, 0.102931
22638.2, 0.103030
22737.5, 0.105929
22837.7, 0.108827
22938.7, 0.110825
23040.7, 0.111525
23143.5, 0.116222
23247.3, 0.115722
23352.1, 0.118920
23457.7, 0.119719
23564.4, 0.124116
23672.0, 0.128613
23780.5, 0.133310
23890.1, 0.134509
24000.7, 0.128014
24112.3, 0.122018
24225.0, 0.117221
24338.7, 0.118820
24453.5, 0.121818
24569.4, 0.119319
24686.4, 0.118120
24804.5, 0.125615
