Database of Origin,USGS Spectral Database
Sample Description,See USGS database for additional info
Date Added,2017-02-22 02:48:43.344319

Data ID,USGS_ver01          
Sample ID,vermiculite_gds13.23435
Mineral Name,vermiculite

Wavelength
236.1, 0.118239
242.1, 0.127000
248.1, 0.140489
253.6, 0.129294
258.6, 0.151042
263.6, 0.146301
268.6, 0.140293
273.1, 0.141567
277.1, 0.157801
281.1, 0.169168
285.1, 0.184699
289.1, 0.198389
293.1, 0.218847
297.1, 0.241324
301.1, 0.263484
305.1, 0.293445
309.1, 0.327268
313.1, 0.352090
317.1, 0.375212
321.1, 0.402320
325.1, 0.426892
329.1, 0.443504
333.1, 0.458065
337.1, 0.478620
341.1, 0.489447
345.1, 0.501763
349.1, 0.514787
353.1, 0.534095
357.1, 0.548285
360.6, 0.556302
363.6, 0.562155
366.6, 0.569918
369.6, 0.575921
372.6, 0.586264
375.6, 0.590632
378.6, 0.596603
381.1, 0.604297
383.1, 0.606230
385.1, 0.610516
387.1, 0.611638
389.1, 0.616061
391.1, 0.618025
393.1, 0.623553
395.1, 0.628105
397.1, 0.623467
399.1, 0.630108
401.1, 0.632113
403.1, 0.632350
405.1, 0.633491
407.1, 0.636464
409.1, 0.637993
411.1, 0.643580
412.8, 0.642913
415.8, 0.644772
418.8, 0.644812
421.8, 0.648099
424.8, 0.650907
427.8, 0.652757
430.8, 0.653783
433.8, 0.654942
436.8, 0.658220
439.8, 0.661386
442.8, 0.662355
445.8, 0.664791
448.8, 0.668830
451.3, 0.668861
453.3, 0.671498
455.3, 0.671977
457.3, 0.673576
459.3, 0.671983
461.3, 0.676096
463.3, 0.679256
465.3, 0.677760
467.3, 0.679553
469.3, 0.679004
471.3, 0.675804
473.3, 0.680509
475.3, 0.682566
477.3, 0.682000
479.3, 0.683928
481.3, 0.686944
483.3, 0.687697
485.3, 0.688585
487.3, 0.691055
489.3, 0.692702
491.3, 0.692463
493.3, 0.693867
495.3, 0.694572
497.3, 0.700540
499.3, 0.701894
501.3, 0.702039
503.3, 0.703698
505.3, 0.704603
507.3, 0.707950
509.3, 0.708508
511.3, 0.708211
513.3, 0.712060
515.3, 0.714260
517.3, 0.716945
519.3, 0.714754
521.3, 0.717108
523.3, 0.717561
525.3, 0.720896
527.3, 0.719221
529.3, 0.721076
531.3, 0.721046
533.3, 0.720494
535.3, 0.725426
537.3, 0.721267
539.3, 0.727217
541.3, 0.725576
543.3, 0.723398
545.3, 0.726837
547.3, 0.726387
549.3, 0.730138
551.3, 0.728299
553.3, 0.729182
555.3, 0.731407
557.3, 0.732715
559.3, 0.733085
561.3, 0.733088
563.3, 0.733156
565.3, 0.733333
567.3, 0.733589
569.3, 0.736001
571.3, 0.739113
573.3, 0.736860
575.3, 0.732214
577.3, 0.735374
579.3, 0.737838
581.3, 0.737988
583.3, 0.736451
585.3, 0.738741
587.3, 0.740077
589.3, 0.737804
591.3, 0.742601
593.3, 0.741092
595.3, 0.742486
597.3, 0.743618
599.3, 0.745595
601.1, 0.746826
602.7, 0.744046
604.3, 0.750839
605.9, 0.749654
607.5, 0.749599
609.1, 0.749207
610.7, 0.748196
612.3, 0.749679
613.9, 0.750279
615.5, 0.753955
617.1, 0.752282
618.7, 0.756396
620.3, 0.753638
621.9, 0.753442
623.5, 0.754431
625.1, 0.753507
626.7, 0.756808
628.3, 0.755159
629.9, 0.757431
631.7, 0.754902
633.7, 0.759197
635.7, 0.759358
637.7, 0.759260
639.7, 0.758419
641.7, 0.758512
643.7, 0.762696
645.7, 0.760754
647.7, 0.760311
649.7, 0.760798
651.7, 0.763434
653.7, 0.763681
655.7, 0.765026
657.7, 0.762232
659.7, 0.763986
661.7, 0.764961
663.7, 0.766979
665.7, 0.766611
667.7, 0.767183
670.2, 0.767495
673.2, 0.767514
676.2, 0.771717
679.2, 0.769794
682.2, 0.770799
685.2, 0.773095
688.2, 0.770820
691.2, 0.769416
694.2, 0.772206
697.2, 0.773901
700.2, 0.773279
702.0, 0.776356
704.0, 0.776197
706.0, 0.775106
708.0, 0.776196
710.0, 0.777246
712.0, 0.776703
714.0, 0.771129
716.0, 0.775105
718.0, 0.773731
720.0, 0.778531
722.0, 0.773760
724.0, 0.774374
726.0, 0.775557
728.0, 0.775655
730.0, 0.775524
732.0, 0.777072
734.0, 0.773841
736.0, 0.780625
738.0, 0.779069
740.0, 0.778110
742.0, 0.778125
744.0, 0.776485
746.0, 0.780850
748.0, 0.775845
750.5, 0.776262
753.5, 0.779012
756.5, 0.778617
759.5, 0.780003
762.5, 0.775163
765.5, 0.781183
768.5, 0.779847
771.5, 0.777545
774.5, 0.777967
777.5, 0.781552
781.0, 0.776884
785.0, 0.776251
789.0, 0.778735
793.0, 0.775961
797.0, 0.778952
801.5, 0.777530
806.5, 0.780713
811.5, 0.776735
816.5, 0.777626
822.0, 0.776764
828.0, 0.780559
835.0, 0.776016
843.0, 0.776923
851.0, 0.767313
859.0, 0.770046
871.0, 0.772445
883.0, 0.769362
894.0, 0.771445
904.0, 0.763362
914.0, 0.772985
924.0, 0.776087
933.0, 0.770068
941.0, 0.768790
949.0, 0.751945
957.0, 0.764453
964.0, 0.755944
970.0, 0.756069
976.0, 0.756773
982.0, 0.758292
988.0, 0.754051
994.0, 0.758759
1000.0, 0.760881
1006.0, 0.756839
1012.0, 0.762174
1018.0, 0.761358
1023.5, 0.763657
1028.5, 0.758932
1033.5, 0.765378
1038.5, 0.761326
1043.5, 0.760676
1048.5, 0.759807
1053.5, 0.758916
1058.5, 0.761388
1063.5, 0.758739
1068.5, 0.757769
1073.5, 0.764712
1078.5, 0.758391
1083.5, 0.762049
1088.5, 0.762016
1093.5, 0.756471
1098.5, 0.759141
1103.5, 0.758486
1108.5, 0.759055
1113.5, 0.757227
1118.5, 0.757025
1123.5, 0.754621
1128.5, 0.751967
1133.5, 0.749079
1138.5, 0.748909
1143.5, 0.739163
1148.5, 0.745395
1153.5, 0.740374
1158.5, 0.734428
1163.5, 0.736049
1168.5, 0.728054
1173.5, 0.733740
1178.5, 0.729680
1183.5, 0.730748
1188.5, 0.727081
1193.5, 0.729531
1198.5, 0.732252
1203.5, 0.734559
1208.5, 0.730530
1213.5, 0.732571
1218.5, 0.729327
1223.5, 0.734683
1228.5, 0.730619
1233.5, 0.727138
1238.5, 0.728063
1243.5, 0.734020
1248.5, 0.726031
1253.5, 0.728096
1258.5, 0.731148
1263.5, 0.724974
1268.5, 0.729089
1273.5, 0.727115
1278.5, 0.725892
1283.5, 0.724798
1288.5, 0.726311
1293.5, 0.723952
1298.5, 0.720643
1303.5, 0.716226
1308.5, 0.712688
1313.5, 0.716803
1318.5, 0.718299
1323.5, 0.711972
1328.5, 0.704044
1333.5, 0.701457
1338.5, 0.700523
1343.5, 0.695255
1348.5, 0.688205
1353.5, 0.683279
1358.5, 0.680521
1363.5, 0.681585
1368.5, 0.671605
1373.5, 0.662836
1378.5, 0.643897
1383.5, 0.589855
1388.5, 0.483898
1393.5, 0.507904
1398.5, 0.547917
1403.5, 0.529501
1408.5, 0.518575
1413.5, 0.510799
1418.5, 0.502683
1423.5, 0.497520
1428.5, 0.490371
1433.5, 0.488896
1438.5, 0.490109
1443.5, 0.490923
1448.5, 0.494964
1453.5, 0.496193
1458.5, 0.496152
1463.5, 0.499776
1468.5, 0.498810
1473.5, 0.505397
1478.5, 0.509785
1483.5, 0.513325
1488.5, 0.509102
1493.5, 0.520601
1498.5, 0.517711
1503.5, 0.525446
1508.5, 0.526155
1513.5, 0.530862
1518.5, 0.533412
1523.5, 0.536408
1528.5, 0.543235
1534.0, 0.545202
1540.0, 0.551016
1546.0, 0.549825
1552.0, 0.555529
1558.0, 0.555872
1564.0, 0.557525
1570.5, 0.563720
1577.5, 0.559450
1584.5, 0.562163
1591.5, 0.563906
1598.5, 0.560722
1605.5, 0.560345
1612.5, 0.562080
1619.5, 0.549297
1626.5, 0.554888
1633.5, 0.556472
1640.5, 0.555386
1647.5, 0.551045
1654.5, 0.541257
1661.5, 0.545191
1668.5, 0.540597
1676.0, 0.539144
1684.0, 0.513007
1692.0, 0.518452
1700.0, 0.523294
1708.0, 0.514949
1716.0, 0.500223
1724.0, 0.505809
1732.0, 0.512653
1740.0, 0.514392
1748.0, 0.513285
1756.0, 0.525781
1764.0, 0.524835
1772.0, 0.524034
1780.0, 0.526886
1788.0, 0.521163
1796.0, 0.524721
1805.0, 0.523103
1815.0, 0.523267
1825.0, 0.530574
1835.0, 0.525654
1845.0, 0.521276
1855.0, 0.513367
1865.0, 0.496741
1875.0, 0.471047
1885.0, 0.428622
1895.0, 0.364093
1905.0, 0.304065
1915.0, 0.268758
1925.0, 0.254792
1935.0, 0.261033
1945.0, 0.272365
1955.0, 0.283285
1965.0, 0.272020
1975.0, 0.277888
1985.0, 0.286092
1995.0, 0.296586
2005.0, 0.304047
2015.0, 0.312399
2025.0, 0.322078
2035.0, 0.330635
2045.0, 0.342782
2055.0, 0.344389
2065.0, 0.354801
2075.0, 0.357822
2085.0, 0.369761
2095.0, 0.373092
2105.0, 0.384062
2115.0, 0.390443
2125.0, 0.396270
2135.0, 0.408040
2145.0, 0.412539
2155.0, 0.405153
2165.0, 0.409692
2175.0, 0.426634
2185.0, 0.431467
2195.0, 0.433868
2205.0, 0.441499
2215.0, 0.424061
2225.0, 0.418652
2235.0, 0.407273
2245.0, 0.375237
2255.0, 0.420929
2265.0, 0.405373
2275.0, 0.393331
2285.0, 0.340338
2295.0, 0.318000
2305.0, 0.310000
2315.0, 0.286655
2325.0, 0.279345
2335.0, 0.288680
2345.0, 0.298851
2355.0, 0.299368
2365.0, 0.297778
2375.0, 0.276796
2386.0, 0.273483
2400.0, 0.264894
2418.0, 0.259726
2440.0, 0.245973
2466.0, 0.227160
2496.0, 0.189691
2528.0, 0.186630
2560.0, 0.185552
2592.0, 0.183205
2624.0, 0.170885
2656.0, 0.168734
2688.0, 0.108088
2720.0, 0.0605840
2752.0, 0.0220630
2784.0, 0.0344430
2816.0, 0.0575790
2848.0, 0.0136820
2880.0, 0.0449210
2912.0, 0.0958610
2944.0, 0.0308210
2976.0, 0.129031
