Database of Origin, USGS Spectral Database
Sample Description, See USGS database for additional info
Date Added,2016-08-10 02:57:19.940825

Data ID,USGS_hor02          
Sample ID, hornblende_hs115.10084
Mineral Name, hornblende
Material Class,Inosilicate

Wavelength
1602.52, 0.382933
1603.02, 0.383553
1603.51, 0.383966
1604.01, 0.384586
1604.5, 0.384999
1605.0, 0.385206
1605.5, 0.385688
1606.0, 0.385826
1606.49, 0.386308
1606.99, 0.386859
1607.49, 0.387479
1607.99, 0.388030
1608.49, 0.388374
1608.99, 0.389132
1609.49, 0.389201
1609.99, 0.389270
1610.49, 0.389614
1610.99, 0.390165
1611.49, 0.390372
1611.99, 0.390785
1612.49, 0.391129
1612.99, 0.391336
1613.49, 0.392093
1614.0, 0.392438
1614.5, 0.392576
1615.0, 0.393126
1615.51, 0.393609
1616.01, 0.394160
1616.51, 0.394504
1617.02, 0.394779
1617.52, 0.395193
1618.03, 0.395813
1618.53, 0.396295
1619.04, 0.396295
1619.54, 0.396708
1620.05, 0.397397
1620.55, 0.397603
1621.06, 0.397672
1621.57, 0.397948
1622.08, 0.398705
1622.58, 0.399050
1623.09, 0.399463
1623.6, 0.400220
1624.11, 0.400702
1624.62, 0.401047
1625.13, 0.401253
1625.64, 0.401253
1626.15, 0.401460
1626.66, 0.402011
1627.17, 0.402287
1627.68, 0.402424
1628.19, 0.402906
1628.7, 0.403940
1629.21, 0.404422
1629.72, 0.404490
1630.24, 0.404422
1630.75, 0.404422
1631.26, 0.404697
1631.78, 0.405455
1632.29, 0.406143
1632.8, 0.406419
1633.32, 0.406970
1633.83, 0.407521
1634.35, 0.407728
1634.86, 0.407796
1635.38, 0.408003
1635.9, 0.408485
1636.41, 0.408761
1636.93, 0.408967
1637.45, 0.409380
1637.96, 0.409725
1638.48, 0.410069
1639.0, 0.410689
1639.52, 0.411033
1640.04, 0.411102
1640.56, 0.411309
1641.08, 0.411791
1641.59, 0.412135
1642.11, 0.412342
1642.63, 0.412755
1643.16, 0.413100
1643.68, 0.413444
1644.2, 0.413926
1644.72, 0.414064
1645.24, 0.413926
1645.76, 0.414202
1646.29, 0.414821
1646.81, 0.415510
1647.33, 0.415786
1647.86, 0.415923
1648.38, 0.416337
1648.9, 0.416543
1649.43, 0.416612
1649.95, 0.417439
1650.48, 0.417714
1651.0, 0.417852
1651.53, 0.418265
1652.06, 0.418816
1652.58, 0.419367
1653.11, 0.419505
1653.64, 0.419849
1654.17, 0.420056
1654.69, 0.420400
1655.22, 0.420469
1655.75, 0.420469
1656.28, 0.421020
1656.81, 0.421915
1657.34, 0.422260
1657.87, 0.422397
1658.4, 0.422466
1658.93, 0.422673
1659.46, 0.423155
1659.99, 0.423568
1660.52, 0.423706
1661.05, 0.423844
1661.59, 0.424395
1662.12, 0.425084
1662.65, 0.425290
1663.19, 0.425566
1663.72, 0.425841
1664.26, 0.426048
1664.79, 0.426186
1665.32, 0.426736
1665.86, 0.426943
1666.39, 0.427287
1666.93, 0.427976
1667.47, 0.428527
1668.0, 0.428321
1668.54, 0.428252
1669.08, 0.428665
1669.61, 0.429009
1670.15, 0.429422
1670.69, 0.429973
1671.23, 0.430249
1671.77, 0.430938
1672.31, 0.431144
1672.85, 0.431420
1673.39, 0.431902
1673.93, 0.431902
1674.47, 0.431971
1675.01, 0.432109
1675.55, 0.432315
1676.09, 0.432728
1676.64, 0.433624
1677.18, 0.434175
1677.72, 0.433761
1678.26, 0.433761
1678.81, 0.434450
1679.35, 0.434795
1679.89, 0.435208
1680.44, 0.435828
1680.98, 0.436034
1681.53, 0.436172
1682.07, 0.436723
1682.62, 0.436999
1683.17, 0.437343
1683.71, 0.437550
1684.26, 0.437687
1684.81, 0.437756
1685.36, 0.438169
1685.9, 0.438651
1686.45, 0.438858
1687.0, 0.438996
1687.55, 0.439271
1688.1, 0.439685
1688.65, 0.440029
1689.2, 0.440029
1689.75, 0.440304
1690.3, 0.440924
1690.85, 0.441062
1691.41, 0.441338
1691.96, 0.441682
1692.51, 0.442026
1693.06, 0.442164
1693.61, 0.442233
1694.17, 0.442715
1694.72, 0.443266
1695.28, 0.443541
1695.83, 0.443748
1696.39, 0.443817
1696.94, 0.444024
1697.5, 0.444575
1698.05, 0.444781
1698.61, 0.444988
1699.17, 0.445401
1699.72, 0.445539
1700.28, 0.445539
1700.84, 0.445745
1701.4, 0.446021
1701.95, 0.446159
1702.51, 0.446365
1703.07, 0.446778
1703.63, 0.446916
1704.19, 0.447192
1704.75, 0.447467
1705.31, 0.447743
1705.88, 0.448294
1706.44, 0.448569
1707.0, 0.448431
1707.56, 0.448707
1708.12, 0.449189
1708.69, 0.449258
1709.25, 0.449327
1709.81, 0.449602
1710.38, 0.449740
1710.94, 0.449878
1711.51, 0.450153
1712.07, 0.450360
1712.64, 0.450773
1713.2, 0.451186
1713.77, 0.451324
1714.34, 0.451668
1714.9, 0.452013
1715.47, 0.452151
1716.04, 0.452426
1716.61, 0.452564
1717.18, 0.452770
1717.74, 0.452839
1718.31, 0.452977
1718.88, 0.453252
1719.45, 0.453528
1720.02, 0.453735
1720.59, 0.454079
1721.17, 0.454286
1721.74, 0.454492
1722.31, 0.454699
1722.88, 0.455112
1723.45, 0.455250
1724.03, 0.455250
1724.6, 0.455319
1725.18, 0.455732
1725.75, 0.456214
1726.33, 0.456421
1726.9, 0.456490
1727.48, 0.456765
1728.05, 0.456972
1728.63, 0.457178
1729.2, 0.457316
1729.78, 0.457592
1730.36, 0.457936
1730.94, 0.458211
1731.51, 0.458418
1732.09, 0.458556
1732.67, 0.458762
1733.25, 0.458831
1733.83, 0.459038
1734.41, 0.459244
1734.99, 0.459520
1735.57, 0.460140
1736.15, 0.460484
1736.73, 0.460829
1737.32, 0.460966
1737.9, 0.460966
1738.48, 0.461035
1739.07, 0.461173
1739.65, 0.461379
1740.23, 0.461793
1740.82, 0.462206
1741.4, 0.462550
1741.99, 0.462481
1742.57, 0.462826
1743.16, 0.463239
1743.74, 0.463377
1744.33, 0.463308
1744.92, 0.463583
1745.51, 0.463928
1746.09, 0.464479
1746.68, 0.464685
1747.27, 0.464685
1747.86, 0.464892
1748.45, 0.465236
1749.04, 0.465168
1749.63, 0.465099
1750.22, 0.465305
1750.81, 0.465994
1751.4, 0.466269
1751.99, 0.466407
1752.59, 0.466683
1753.18, 0.466958
1753.77, 0.467371
1754.37, 0.467716
1754.96, 0.467854
1755.56, 0.467991
1756.15, 0.468405
1756.74, 0.468818
1757.34, 0.468887
1757.94, 0.468887
1758.53, 0.469162
1759.13, 0.469506
1759.73, 0.469713
1760.32, 0.469851
1760.92, 0.470264
1761.52, 0.470540
1762.12, 0.470264
1762.72, 0.470264
1763.32, 0.470540
1763.92, 0.470677
1764.52, 0.471297
1765.12, 0.471642
1765.72, 0.471642
1766.32, 0.471779
1766.92, 0.471986
1767.53, 0.472468
1768.13, 0.472537
1768.73, 0.472744
1769.34, 0.472950
1769.94, 0.473088
1770.55, 0.473363
1771.15, 0.473708
1771.76, 0.473845
1772.36, 0.473777
1772.97, 0.473983
1773.57, 0.474328
1774.18, 0.474603
1774.79, 0.474603
1775.4, 0.474603
1776.0, 0.475016
1776.61, 0.475430
1777.22, 0.475636
1777.83, 0.475774
1778.44, 0.475981
1779.05, 0.476118
1779.66, 0.476187
1780.27, 0.476256
1780.88, 0.476256
1781.5, 0.476325
1782.11, 0.476600
1782.72, 0.476876
1783.33, 0.476807
1783.95, 0.476738
1784.56, 0.476945
1785.18, 0.477289
1785.79, 0.477702
1786.41, 0.477771
1787.02, 0.477771
1787.64, 0.477909
1788.26, 0.477771
1788.87, 0.478116
1789.49, 0.478804
1790.11, 0.478735
1790.73, 0.478391
1791.35, 0.478598
1791.96, 0.479011
1792.58, 0.479286
1793.21, 0.479218
1793.83, 0.479218
1794.45, 0.479837
1795.07, 0.479769
1795.69, 0.479631
1796.31, 0.479975
1796.93, 0.480320
1797.56, 0.480320
1798.18, 0.480388
1798.8, 0.480595
1799.43, 0.480595
1800.05, 0.480595
1800.68, 0.480802
1801.3, 0.480871
1801.93, 0.480939
1802.56, 0.481077
1803.18, 0.481284
1803.81, 0.481284
1804.44, 0.481559
1805.07, 0.481628
1805.7, 0.481628
1806.33, 0.481766
1806.95, 0.482041
1807.58, 0.482041
1808.22, 0.482110
1808.85, 0.482455
1809.48, 0.482799
1810.11, 0.482868
1810.74, 0.482868
1811.38, 0.482937
1812.01, 0.483074
1812.64, 0.483281
1813.28, 0.483625
1813.91, 0.483694
1814.55, 0.483625
1815.18, 0.483281
1815.82, 0.483488
1816.45, 0.483901
1817.09, 0.483970
1817.73, 0.484039
1818.36, 0.484383
1819.0, 0.484659
1819.64, 0.484659
1820.28, 0.484245
1820.92, 0.484452
1821.56, 0.484590
1822.2, 0.485072
1822.84, 0.485347
1823.48, 0.485692
1824.12, 0.485829
1824.76, 0.485967
1825.41, 0.485692
1826.05, 0.485347
1826.69, 0.485898
1827.34, 0.486449
1827.98, 0.486380
1828.63, 0.486725
1829.27, 0.486862
1829.92, 0.486656
1830.56, 0.486312
1831.21, 0.486656
1831.86, 0.487276
1832.5, 0.487345
1833.15, 0.487551
1833.8, 0.487964
1834.45, 0.487827
1835.1, 0.487551
1835.75, 0.487276
1836.4, 0.487551
1837.05, 0.487896
1837.7, 0.487758
1838.35, 0.488515
1839.01, 0.488584
1839.66, 0.488309
1840.31, 0.488722
1840.96, 0.488791
1841.62, 0.488171
1842.27, 0.488722
1842.93, 0.489480
1843.58, 0.489893
1844.24, 0.490031
1844.9, 0.490168
1845.55, 0.490306
1846.21, 0.489549
1846.87, 0.488860
1847.53, 0.489204
1848.18, 0.489755
1848.84, 0.490582
1849.5, 0.491133
1850.16, 0.490926
1850.82, 0.490651
1851.48, 0.490857
1852.14, 0.491201
1852.81, 0.490926
1853.47, 0.490375
1854.13, 0.490651
1854.8, 0.491477
1855.46, 0.491821
1856.12, 0.491408
1856.79, 0.491270
1857.45, 0.491890
1858.12, 0.492303
1858.79, 0.492097
1859.45, 0.491201
1860.12, 0.491408
1860.79, 0.492097
1861.46, 0.492717
1862.12, 0.492717
1862.79, 0.492510
1863.46, 0.492441
1864.13, 0.492579
1864.8, 0.492786
1865.48, 0.492854
1866.15, 0.492923
1866.82, 0.492717
1867.49, 0.492028
1868.16, 0.492303
1868.84, 0.492717
1869.51, 0.492854
1870.19, 0.492303
1870.86, 0.491821
1871.54, 0.492854
1872.21, 0.492717
1872.89, 0.491890
1873.56, 0.492648
1874.24, 0.493474
1874.92, 0.493405
1875.6, 0.493543
1876.28, 0.493337
1876.96, 0.493130
1877.64, 0.493474
1878.32, 0.493750
1879.0, 0.494094
1879.68, 0.494163
1880.36, 0.493956
1881.04, 0.493956
1881.73, 0.494232
1882.41, 0.494370
1883.09, 0.494025
1883.78, 0.493750
1884.46, 0.493819
1885.15, 0.493956
1885.83, 0.494163
1886.52, 0.494094
1887.21, 0.494370
1887.89, 0.494645
1888.58, 0.494783
1889.27, 0.494301
1889.96, 0.493612
1890.65, 0.493888
1891.34, 0.494025
1892.03, 0.493956
1892.72, 0.494094
1893.41, 0.494163
1894.1, 0.494301
1894.79, 0.494301
1895.49, 0.494163
1896.18, 0.494094
1896.87, 0.494025
1897.57, 0.493819
1898.26, 0.493750
1898.96, 0.493061
1899.65, 0.492717
1900.35, 0.493061
1901.05, 0.493681
1901.74, 0.493888
1902.44, 0.493405
1903.14, 0.493337
1903.84, 0.493681
1904.54, 0.493130
1905.24, 0.492579
1905.94, 0.492992
1906.64, 0.493268
1907.34, 0.493750
1908.04, 0.493819
1908.75, 0.493888
1909.45, 0.494094
1910.15, 0.494094
1910.86, 0.493888
1911.56, 0.493956
1912.27, 0.494232
1912.97, 0.493956
1913.68, 0.493750
1914.39, 0.494232
1915.09, 0.494370
1915.8, 0.494370
1916.51, 0.494714
1917.22, 0.494852
1917.93, 0.494852
1918.64, 0.494852
1919.35, 0.494645
1920.06, 0.494094
1920.77, 0.494301
1921.48, 0.495127
1922.19, 0.495403
1922.91, 0.495403
1923.62, 0.495334
1924.33, 0.495609
1925.05, 0.495816
1925.76, 0.495747
1926.48, 0.495885
1927.19, 0.496023
1927.91, 0.495678
1928.63, 0.495609
1929.35, 0.496091
1930.07, 0.496436
1930.78, 0.496574
1931.5, 0.496711
1932.22, 0.496780
1932.94, 0.496918
1933.66, 0.496987
1934.39, 0.496987
1935.11, 0.496987
1935.83, 0.497056
1936.55, 0.497262
1937.28, 0.497538
1938.0, 0.497538
1938.73, 0.497400
1939.45, 0.497400
1940.18, 0.497538
1940.9, 0.497676
1941.63, 0.497607
1942.36, 0.497676
1943.09, 0.497744
1943.81, 0.497744
1944.54, 0.498020
1945.27, 0.498158
1946.0, 0.498158
1946.73, 0.498226
1947.47, 0.498295
1948.2, 0.498364
1948.93, 0.498295
1949.66, 0.498226
1950.4, 0.498571
1951.13, 0.498502
1951.86, 0.498158
1952.6, 0.498226
1953.34, 0.498364
1954.07, 0.498364
1954.81, 0.498226
1955.55, 0.498089
1956.29, 0.498089
1957.02, 0.498089
1957.76, 0.498089
1958.5, 0.497951
1959.24, 0.497951
1959.98, 0.498020
1960.72, 0.497813
1961.47, 0.497744
1962.21, 0.497951
1962.95, 0.498020
1963.7, 0.497882
1964.44, 0.497607
1965.18, 0.497676
1965.93, 0.497676
1966.67, 0.497400
1967.42, 0.497262
1968.17, 0.497400
1968.92, 0.497469
1969.66, 0.497400
1970.41, 0.497469
1971.16, 0.497193
1971.91, 0.496780
1972.66, 0.496711
1973.41, 0.496711
1974.16, 0.496574
1974.92, 0.496436
1975.67, 0.496298
1976.42, 0.496091
1977.18, 0.496091
1977.93, 0.496091
1978.69, 0.496023
1979.44, 0.495816
1980.2, 0.496023
1980.95, 0.495816
1981.71, 0.495747
1982.47, 0.495678
1983.23, 0.495609
1983.99, 0.495265
1984.74, 0.495265
1985.51, 0.495403
1986.27, 0.495196
1987.03, 0.495127
1987.79, 0.495058
1988.55, 0.494783
1989.32, 0.494438
1990.08, 0.494232
1990.84, 0.494232
1991.61, 0.494232
1992.37, 0.494232
1993.14, 0.494163
1993.9, 0.494025
1994.67, 0.493888
1995.44, 0.493888
1996.21, 0.493819
1996.98, 0.493750
1997.75, 0.493681
1998.52, 0.493405
1999.29, 0.493405
2000.06, 0.493405
2000.83, 0.493268
2001.6, 0.493337
2002.38, 0.493337
2003.15, 0.493268
2003.93, 0.493337
2004.7, 0.493268
2005.48, 0.493268
2006.25, 0.493337
2007.03, 0.493199
2007.81, 0.493199
2008.58, 0.493268
2009.36, 0.493130
2010.14, 0.493268
2010.92, 0.493405
2011.7, 0.493268
2012.48, 0.493061
2013.26, 0.493061
2014.05, 0.493199
2014.83, 0.493268
2015.61, 0.493199
2016.4, 0.493405
2017.18, 0.493543
2017.97, 0.493405
2018.75, 0.493405
2019.54, 0.493474
2020.32, 0.493543
2021.11, 0.493405
2021.9, 0.493268
2022.69, 0.493681
2023.48, 0.493750
2024.27, 0.493543
2025.06, 0.493543
2025.85, 0.493612
2026.64, 0.493750
2027.44, 0.493681
2028.23, 0.493612
2029.02, 0.493819
2029.82, 0.493888
2030.61, 0.493888
2031.41, 0.493888
2032.2, 0.493956
2033.0, 0.493956
2033.8, 0.494025
2034.6, 0.494163
2035.4, 0.493956
2036.2, 0.494094
2037.0, 0.494370
2037.8, 0.494370
2038.6, 0.494232
2039.4, 0.494094
2040.2, 0.494370
2041.01, 0.494438
2041.81, 0.494438
2042.61, 0.494438
2043.42, 0.494370
2044.22, 0.494232
2045.03, 0.494025
2045.84, 0.494094
2046.65, 0.494025
2047.46, 0.493956
2048.26, 0.494025
2049.07, 0.493956
2049.88, 0.493819
2050.69, 0.493750
2051.51, 0.493474
2052.32, 0.493337
2053.13, 0.493474
2053.94, 0.493543
2054.76, 0.493337
2055.57, 0.492923
2056.39, 0.492717
2057.2, 0.492923
2058.02, 0.492717
2058.84, 0.492303
2059.66, 0.492235
2060.48, 0.492235
2061.29, 0.491959
2062.11, 0.491752
2062.94, 0.491684
2063.76, 0.491477
2064.58, 0.491408
2065.4, 0.491201
2066.22, 0.490926
2067.05, 0.490926
2067.87, 0.490719
2068.7, 0.490444
2069.52, 0.490100
2070.35, 0.489962
2071.18, 0.489617
2072.0, 0.489204
2072.83, 0.489066
2073.66, 0.488860
2074.49, 0.488515
2075.32, 0.488447
2076.15, 0.488171
2076.98, 0.487896
2077.82, 0.487758
2078.65, 0.487620
2079.48, 0.487276
2080.32, 0.487069
2081.15, 0.486794
2081.99, 0.486518
2082.83, 0.486312
2083.66, 0.486174
2084.5, 0.485829
2085.34, 0.485485
2086.18, 0.485210
2087.02, 0.484727
2087.86, 0.484521
2088.7, 0.484314
2089.54, 0.483901
2090.39, 0.483625
2091.23, 0.483350
2092.07, 0.483143
2092.92, 0.483006
2093.76, 0.482592
2094.61, 0.482248
2095.45, 0.481766
2096.3, 0.481422
2097.15, 0.481284
2098.0, 0.481008
2098.85, 0.480871
2099.7, 0.480802
2100.55, 0.480457
2101.4, 0.480251
2102.25, 0.480113
2103.1, 0.479769
2103.96, 0.479424
2104.81, 0.479149
2105.67, 0.478529
2106.52, 0.477909
2107.38, 0.477565
2108.24, 0.477083
2109.09, 0.476256
2109.95, 0.475774
2110.81, 0.475636
2111.67, 0.475498
2112.53, 0.475223
2113.39, 0.475223
2114.25, 0.475154
2115.12, 0.474947
2115.98, 0.474810
2116.84, 0.474741
2117.71, 0.474534
2118.58, 0.474190
2119.44, 0.474052
2120.31, 0.473983
2121.18, 0.473914
2122.04, 0.473777
2122.91, 0.473708
2123.78, 0.473708
2124.65, 0.473639
2125.52, 0.473777
2126.4, 0.474121
2127.27, 0.474121
2128.14, 0.474052
2129.02, 0.473914
2129.89, 0.474121
2130.77, 0.474121
2131.64, 0.474190
2132.52, 0.474328
2133.4, 0.474672
2134.27, 0.474879
2135.15, 0.475154
2136.03, 0.475223
2136.91, 0.475567
2137.79, 0.475843
2138.68, 0.475912
2139.56, 0.476187
2140.44, 0.476394
2141.33, 0.476600
2142.21, 0.476738
2143.1, 0.476876
2143.99, 0.477014
2144.87, 0.477014
2145.76, 0.476945
2146.65, 0.477083
2147.54, 0.477220
2148.43, 0.477289
2149.32, 0.477427
2150.21, 0.477427
2151.1, 0.477496
2151.99, 0.477702
2152.89, 0.477840
2153.78, 0.477840
2154.68, 0.478047
2155.57, 0.478322
2156.47, 0.478322
2157.37, 0.478391
2158.27, 0.478391
2159.16, 0.478391
2160.06, 0.478391
2160.96, 0.478460
2161.86, 0.478529
2162.77, 0.478529
2163.67, 0.478529
2164.57, 0.478942
2165.48, 0.479080
2166.38, 0.478804
2167.29, 0.478598
2168.2, 0.478476
2169.1, 0.478537
2170.01, 0.478537
2170.92, 0.478476
2171.83, 0.478232
2172.74, 0.478110
2173.65, 0.477562
2174.56, 0.477440
2175.47, 0.477623
2176.39, 0.477562
2177.3, 0.477379
2178.22, 0.477257
2179.13, 0.477379
2180.05, 0.477379
2180.96, 0.477014
2181.88, 0.476648
2182.8, 0.476770
2183.72, 0.477136
2184.64, 0.477196
2185.56, 0.477136
2186.48, 0.477014
2187.41, 0.476526
2188.33, 0.476344
2189.25, 0.476404
2190.18, 0.476161
2191.1, 0.476100
2192.03, 0.476222
2192.96, 0.475795
2193.89, 0.475369
2194.82, 0.475064
2195.74, 0.475064
2196.68, 0.475247
2197.61, 0.475247
2198.54, 0.474942
2199.47, 0.474211
2200.4, 0.473968
2201.34, 0.474029
2202.28, 0.474150
2203.21, 0.474150
2204.15, 0.473968
2205.08, 0.473602
2206.02, 0.472993
2206.96, 0.472566
2207.9, 0.472871
2208.84, 0.472810
2209.78, 0.472749
2210.73, 0.472810
2211.67, 0.472749
2212.61, 0.472140
2213.56, 0.472079
2214.5, 0.472323
2215.45, 0.472140
2216.4, 0.471348
2217.35, 0.470800
2218.3, 0.470800
2219.24, 0.470739
2220.2, 0.470008
2221.15, 0.469399
2222.1, 0.469399
2223.05, 0.469399
2224.0, 0.468789
2224.96, 0.468058
2225.91, 0.467266
2226.87, 0.466718
2227.83, 0.466231
2228.79, 0.465317
2229.74, 0.464342
2230.7, 0.463916
2231.66, 0.463185
2232.63, 0.461722
2233.59, 0.460443
2234.55, 0.459225
2235.51, 0.457702
2236.48, 0.455448
2237.44, 0.453620
2238.41, 0.451244
2239.38, 0.448564
2240.34, 0.445883
2241.31, 0.442715
2242.28, 0.438816
2243.25, 0.434978
2244.22, 0.431201
2245.19, 0.427363
2246.17, 0.423525
2247.14, 0.419504
2248.12, 0.416397
2249.09, 0.413838
2250.07, 0.411889
2251.04, 0.410792
2252.02, 0.411341
2253.0, 0.412620
2253.98, 0.414326
2254.96, 0.416336
2255.94, 0.419017
2256.92, 0.422002
2257.91, 0.424621
2258.89, 0.426754
2259.88, 0.428764
2260.86, 0.430592
2261.85, 0.431810
2262.83, 0.432480
2263.82, 0.433150
2264.81, 0.433211
2265.8, 0.432785
2266.79, 0.432907
2267.78, 0.433089
2268.78, 0.432298
2269.77, 0.431079
2270.76, 0.430043
2271.76, 0.429069
2272.75, 0.428094
2273.75, 0.426876
2274.75, 0.425474
2275.75, 0.423464
2276.75, 0.421210
2277.75, 0.419382
2278.75, 0.417189
2279.75, 0.414569
2280.75, 0.412072
2281.76, 0.409208
2282.76, 0.406406
2283.77, 0.403786
2284.77, 0.400923
2285.78, 0.397999
2286.79, 0.395136
2287.8, 0.392516
2288.81, 0.389592
2289.82, 0.386363
2290.83, 0.383195
2291.84, 0.379905
2292.86, 0.376433
2293.87, 0.372960
2294.89, 0.369853
2295.91, 0.366503
2296.92, 0.363274
2297.94, 0.360593
2298.96, 0.358217
2299.98, 0.356511
2301.0, 0.355354
2302.02, 0.354501
2303.04, 0.353587
2304.07, 0.352003
2305.09, 0.350176
2306.12, 0.348348
2307.15, 0.346338
2308.17, 0.344083
2309.2, 0.341525
2310.23, 0.339027
2311.26, 0.336042
2312.29, 0.333727
2313.32, 0.331534
2314.35, 0.329584
2315.39, 0.328305
2316.42, 0.327513
2317.46, 0.327086
2318.5, 0.326477
2319.53, 0.326112
2320.57, 0.326477
2321.61, 0.327208
2322.65, 0.328183
2323.69, 0.329767
2324.73, 0.332082
2325.78, 0.334641
2326.82, 0.337382
2327.86, 0.340185
2328.91, 0.343048
2329.96, 0.345789
2331.01, 0.348409
2332.05, 0.351089
2333.1, 0.353587
2334.15, 0.356024
2335.21, 0.358034
2336.26, 0.360471
2337.31, 0.363213
2338.36, 0.366076
2339.42, 0.368757
2340.48, 0.371254
2341.53, 0.373752
2342.59, 0.375823
2343.65, 0.377834
2344.71, 0.380027
2345.77, 0.382220
2346.83, 0.384109
2347.9, 0.385632
2348.96, 0.386972
2350.02, 0.388008
2351.09, 0.388861
2352.16, 0.389653
2353.23, 0.390323
2354.29, 0.390749
2355.36, 0.390871
2356.43, 0.390749
2357.51, 0.390627
2358.58, 0.390262
2359.65, 0.389714
2360.73, 0.388982
2361.8, 0.387886
2362.88, 0.386363
2363.96, 0.384596
2365.03, 0.382525
2366.11, 0.380393
2367.19, 0.377956
2368.27, 0.375214
2369.36, 0.372046
2370.44, 0.369000
2371.53, 0.366137
2372.61, 0.363030
2373.7, 0.359801
2374.78, 0.356877
2375.87, 0.354135
2376.96, 0.351455
2378.05, 0.349079
2379.14, 0.347069
2380.24, 0.345241
2381.33, 0.343596
2382.42, 0.342195
2383.52, 0.341159
2384.61, 0.340489
2385.71, 0.340611
2386.81, 0.341159
2387.91, 0.341708
2389.01, 0.342682
2390.11, 0.343718
2391.22, 0.345180
2392.32, 0.347130
2393.42, 0.349140
2394.53, 0.351333
2395.64, 0.353770
2396.74, 0.356511
2397.85, 0.358948
2398.96, 0.361568
2400.07, 0.364187
2401.18, 0.366746
2402.3, 0.369549
2403.41, 0.371985
2404.52, 0.374422
2405.64, 0.376737
2406.76, 0.378930
2407.88, 0.380941
2408.99, 0.383012
2410.11, 0.385266
2411.23, 0.387338
2412.36, 0.388982
2413.48, 0.390262
2414.6, 0.390993
2415.73, 0.392089
2416.85, 0.393125
2417.98, 0.393856
2419.11, 0.394709
2420.24, 0.395867
2421.37, 0.396841
2422.5, 0.397633
2423.64, 0.398364
2424.77, 0.399095
2425.9, 0.399400
2427.04, 0.399948
2428.18, 0.400375
2429.31, 0.400679
2430.45, 0.400740
2431.59, 0.400923
2432.73, 0.400923
2433.88, 0.400862
2435.02, 0.400984
2436.16, 0.400984
2437.31, 0.400801
2438.45, 0.400618
2439.6, 0.400436
2440.75, 0.399948
2441.9, 0.399705
2443.05, 0.399948
2444.2, 0.399766
2445.35, 0.399522
2446.51, 0.399705
2447.67, 0.399644
2448.82, 0.399522
2449.98, 0.399522
2451.14, 0.399644
2452.3, 0.399400
2453.46, 0.399095
2454.62, 0.398913
2455.78, 0.398608
2456.94, 0.398303
2458.11, 0.397816
2459.28, 0.397390
2460.44, 0.397146
2461.61, 0.397024
2462.78, 0.397024
2463.95, 0.396841
2465.12, 0.396902
2466.3, 0.397207
2467.47, 0.397390
2468.65, 0.397268
2469.82, 0.397024
2471.0, 0.396963
2472.18, 0.397207
2473.36, 0.397694
2474.54, 0.397755
2475.72, 0.397755
2476.9, 0.397511
2478.08, 0.397511
2479.27, 0.397694
2480.46, 0.397877
2481.64, 0.398182
2482.83, 0.398182
2484.02, 0.398121
2485.21, 0.398425
2486.4, 0.398547
2487.6, 0.398791
2488.79, 0.399156
2489.99, 0.399278
2491.18, 0.399278
2492.38, 0.399583
2493.58, 0.399826
2494.78, 0.400070
2495.98, 0.400314
2497.18, 0.400497
2498.39, 0.400557
2499.59, 0.400801
2500.8, 0.401106
2502.01, 0.401776
2503.21, 0.402263
2504.42, 0.402751
2505.63, 0.402994
2506.84, 0.403786
2508.06, 0.404456
2509.27, 0.404883
2510.49, 0.405066
2511.7, 0.405370
2512.92, 0.405919
2514.14, 0.405979
2515.36, 0.406284
2516.58, 0.406832
2517.8, 0.407503
2519.03, 0.408051
2520.25, 0.408234
2521.48, 0.408416
2522.7, 0.408538
2523.93, 0.408660
2525.16, 0.409026
2526.39, 0.409026
2527.62, 0.408965
2528.86, 0.409086
2530.09, 0.408843
2531.33, 0.407990
2532.56, 0.407320
2533.8, 0.407442
2535.04, 0.407015
2536.28, 0.406893
2537.52, 0.407381
2538.76, 0.407381
2540.01, 0.407015
2541.25, 0.406345
2542.5, 0.405370
2543.75, 0.405492
2544.99, 0.405858
2546.24, 0.405248
2547.49, 0.404335
2548.75, 0.404639
2550.0, 0.404091
2551.26, 0.402933
2552.51, 0.402385
2553.77, 0.403238
2555.03, 0.403543
2556.29, 0.403360
2557.55, 0.403238
2558.81, 0.402141
2560.08, 0.399339
2561.34, 0.397207
2562.61, 0.397085
2563.88, 0.397268
2565.14, 0.399705
2566.41, 0.402202
2567.68, 0.401715
2568.96, 0.399522
2570.23, 0.400131
2571.51, 0.401289
2572.78, 0.398182
2574.06, 0.399522
2575.34, 0.401593
2576.62, 0.401045
2577.9, 0.402933
2579.18, 0.404396
2580.47, 0.403238
2581.75, 0.403177
2583.04, 0.400192
2584.32, 0.400557
2585.61, 0.403786
2586.9, 0.402994
2588.2, 0.404030
2589.49, 0.406223
2590.78, 0.408294
2592.08, 0.407381
2593.37, 0.398486
2594.67, 0.390932
2595.97, 0.398730
2597.27, 0.407685
2598.57, 0.411097
2599.88, 0.410792
2601.18, 0.409269
2602.49, 0.408355
2603.79, 0.405919
2605.1, 0.402385
2606.41, 0.405309
2607.72, 0.409147
2609.03, 0.410305
2610.35, 0.412011
2611.66, 0.413534
2612.98, 0.413656
2614.3, 0.414326
2615.62, 0.410731
2616.94, 0.408965
2618.26, 0.412620
2619.58, 0.410244
2620.91, 0.411584
2622.23, 0.417676
2623.56, 0.419199
2624.89, 0.417189
2626.22, 0.413046
2627.55, 0.415240
2628.88, 0.413777
2630.21, 0.409269
2631.55, 0.413229
2632.89, 0.415544
2634.22, 0.415544
2635.56, 0.417250
2636.9, 0.417311
2638.25, 0.417311
2639.59, 0.416824
2640.93, 0.416153
2642.28, 0.415788
2643.63, 0.416032
2644.98, 0.414752
2646.33, 0.415483
2647.68, 0.417189
2649.03, 0.417859
2650.39, 0.417372
2651.74, 0.415300
2653.1, 0.415300
2654.46, 0.416519
2655.82, 0.417067
2657.18, 0.418651
2658.54, 0.416824
2659.9, 0.415605
2661.27, 0.415971
2662.64, 0.415300
2664.01, 0.408234
2665.38, 0.401776
2666.74, 0.400375
2668.12, 0.401715
2669.49, 0.391663
2670.87, 0.384231
2672.24, 0.383195
2673.62, 0.371011
2675.0, 0.349993
2676.38, 0.324832
2677.76, 0.300708
2679.15, 0.275852
2680.54, 0.253920
2681.92, 0.232171
2683.31, 0.211823
2684.7, 0.194156
2686.09, 0.178621
2687.48, 0.164366
2688.88, 0.151877
2690.27, 0.140789
2691.67, 0.131285
2693.07, 0.123000
2694.47, 0.118187
2695.87, 0.115750
2697.27, 0.113984
2698.67, 0.111973
2700.08, 0.110755
2701.49, 0.110146
2702.9, 0.109354
2704.31, 0.107404
2705.72, 0.106003
2707.13, 0.105211
2708.54, 0.104846
2709.96, 0.104541
2711.38, 0.105820
2712.8, 0.108074
2714.22, 0.109110
2715.64, 0.108988
2717.06, 0.107465
2718.49, 0.103688
2719.91, 0.0961340
2721.34, 0.0899810
2722.77, 0.0878490
2724.2, 0.0885190
2725.63, 0.0922960
2727.07, 0.0953420
2728.5, 0.0959510
2729.94, 0.0946110
2731.38, 0.0930880
2732.82, 0.0926610
2734.26, 0.0935140
2735.7, 0.0968040
2737.15, 0.100216
2738.59, 0.101495
2740.04, 0.102835
2741.49, 0.105698
2742.94, 0.109354
2744.39, 0.112156
2745.84, 0.114410
2747.3, 0.115994
2748.76, 0.117334
2750.21, 0.118857
2751.67, 0.120624
2753.14, 0.122086
2754.6, 0.122208
2756.06, 0.124584
2757.53, 0.128605
2759.0, 0.131529
2760.46, 0.133966
2761.94, 0.136098
2763.41, 0.139753
2764.88, 0.144201
2766.36, 0.147612
2767.83, 0.150902
2769.31, 0.154496
2770.79, 0.158152
2772.27, 0.162721
2773.76, 0.166863
2775.24, 0.169970
2776.73, 0.172285
2778.22, 0.174235
2779.71, 0.175758
2781.2, 0.176976
2782.69, 0.178195
2784.18, 0.178682
2785.68, 0.177890
2787.18, 0.177586
2788.68, 0.178560
2790.18, 0.179291
2791.68, 0.179413
2793.19, 0.179352
2794.69, 0.179352
2796.2, 0.179109
2797.71, 0.179048
2799.22, 0.178987
2800.73, 0.178378
2802.24, 0.177464
2803.76, 0.177768
2805.28, 0.178865
2806.8, 0.179230
2808.32, 0.179352
2809.84, 0.179779
2811.36, 0.180266
2812.89, 0.180449
2814.42, 0.180814
2815.94, 0.181667
2817.48, 0.182216
2819.01, 0.182398
2820.54, 0.182947
2822.08, 0.183921
2823.61, 0.184896
2825.15, 0.185627
2826.69, 0.186297
2828.23, 0.187211
2829.78, 0.188003
2831.32, 0.188734
2832.87, 0.189526
2834.42, 0.190257
2835.97, 0.190866
2837.52, 0.191597
2839.08, 0.192511
2840.63, 0.193547
2842.19, 0.194339
2843.75, 0.195070
2845.31, 0.195740
2846.87, 0.196288
2848.44, 0.196898
2850.0, 0.197568
2851.57, 0.198177
2853.14, 0.198421
2854.71, 0.198969
2856.28, 0.199761
2857.86, 0.200187
2859.43, 0.200553
2861.01, 0.200979
2862.59, 0.201284
2864.17, 0.201406
2865.76, 0.201649
2867.34, 0.202076
2868.93, 0.202502
2870.52, 0.202807
2872.11, 0.203112
2873.7, 0.203355
2875.29, 0.203721
2876.89, 0.204025
2878.49, 0.204208
2880.08, 0.204147
2881.69, 0.203965
2883.29, 0.203843
2884.89, 0.203721
2886.5, 0.203599
2888.11, 0.203599
2889.72, 0.203538
2891.33, 0.203294
2892.94, 0.202990
2894.56, 0.202746
2896.17, 0.202502
2897.79, 0.202381
2899.42, 0.202198
2901.04, 0.201954
2902.66, 0.201771
2904.29, 0.201649
2905.92, 0.201528
2907.55, 0.201345
2909.18, 0.201101
2910.81, 0.200918
2912.45, 0.201040
2914.08, 0.201223
2915.72, 0.201162
2917.36, 0.201101
2919.01, 0.200979
2920.65, 0.201040
2922.3, 0.201284
2923.94, 0.201467
2925.59, 0.201710
2927.25, 0.202015
2928.9, 0.202259
2930.56, 0.202502
2932.21, 0.202807
2933.87, 0.203173
2935.53, 0.203538
2937.2, 0.204025
2938.86, 0.204452
2940.53, 0.205000
2942.2, 0.205609
2943.87, 0.206097
2945.54, 0.206706
2947.22, 0.207376
2948.89, 0.207985
2950.57, 0.208716
2952.25, 0.209265
2953.93, 0.209752
2955.62, 0.210605
2957.3, 0.211458
2958.99, 0.212250
2960.68, 0.213164
2962.37, 0.214077
2964.07, 0.214808
2965.76, 0.215540
2967.46, 0.216453
2969.16, 0.217489
2970.86, 0.218525
2972.56, 0.219499
2974.27, 0.220535
2975.98, 0.221753
2977.69, 0.222728
2979.4, 0.223764
2981.11, 0.225043
2982.83, 0.226201
2984.54, 0.227419
2986.26, 0.228759
2987.98, 0.229795
2989.71, 0.230892
2991.43, 0.232232
2993.16, 0.233572
2994.89, 0.234852
2996.62, 0.236070
2998.35, 0.237288
3000.09, 0.238507
3001.83, 0.239908
3003.57, 0.241309
3005.31, 0.242528
3007.05, 0.243929
3008.79, 0.245391
3010.54, 0.246914
3012.29, 0.248437
3014.04, 0.249777
3015.8, 0.251118
3017.55, 0.252519
3019.31, 0.254103
3021.07, 0.255443
3022.83, 0.256905
3024.59, 0.258611
3026.36, 0.260073
3028.13, 0.261535
3029.9, 0.262997
3031.67, 0.264520
3033.44, 0.265982
3035.22, 0.267323
3037.0, 0.268785
3038.78, 0.270247
3040.56, 0.271587
3042.34, 0.273049
3044.13, 0.274450
3045.92, 0.275852
3047.71, 0.277253
3049.5, 0.278593
3051.3, 0.279994
3053.09, 0.281274
3054.89, 0.282736
3056.69, 0.284259
3058.5, 0.285538
3060.3, 0.286939
3062.11, 0.288280
3063.92, 0.289498
3065.73, 0.290655
3067.55, 0.291874
3069.36, 0.292971
3071.18, 0.294189
3073.0, 0.295529
3074.82, 0.296869
3076.65, 0.297966
3078.48, 0.298880
3080.31, 0.299916
3082.14, 0.301195
3083.97, 0.302413
3085.8, 0.303327
3087.64, 0.304302
3089.48, 0.305216
3091.33, 0.306190
3093.17, 0.307165
3095.02, 0.308262
3096.87, 0.309297
3098.72, 0.310211
3100.57, 0.311308
3102.43, 0.312283
3104.28, 0.313135
3106.14, 0.314110
3108.01, 0.314963
3109.87, 0.315877
3111.74, 0.316973
3113.61, 0.318131
3115.48, 0.319228
3117.35, 0.320385
3119.23, 0.321482
3121.1, 0.322883
3122.98, 0.324162
3124.87, 0.325320
3126.75, 0.326538
3128.64, 0.327696
3130.53, 0.328975
3132.42, 0.330254
3134.31, 0.331412
3136.21, 0.332691
3138.11, 0.333910
3140.01, 0.335067
3141.91, 0.336346
3143.82, 0.337565
3145.73, 0.338540
3147.64, 0.339636
3149.55, 0.340916
3151.46, 0.342073
3153.38, 0.343048
3155.3, 0.344023
3157.22, 0.344936
3159.14, 0.345850
3161.07, 0.346825
3163.0, 0.347739
3164.93, 0.348653
3166.86, 0.349445
3168.8, 0.350176
3170.74, 0.351029
3172.68, 0.352064
3174.62, 0.353100
3176.56, 0.354075
3178.51, 0.355049
3180.46, 0.355963
3182.42, 0.356877
3184.37, 0.357730
3186.33, 0.358766
3188.29, 0.359801
3190.25, 0.360654
3192.21, 0.361507
3194.18, 0.362360
3196.15, 0.363274
3198.12, 0.364127
3200.09, 0.364919
3202.07, 0.365528
3204.05, 0.366320
3206.03, 0.366990
3208.02, 0.367599
3210.0, 0.368147
3211.99, 0.368696
3213.98, 0.369244
3215.98, 0.369792
3217.97, 0.370219
3219.97, 0.370706
3221.97, 0.371254
3223.98, 0.371742
3225.98, 0.372168
3227.99, 0.372716
3230.0, 0.373326
3232.02, 0.374118
3234.03, 0.374788
3236.05, 0.375336
3238.07, 0.375884
3240.1, 0.376676
3242.12, 0.377407
3244.15, 0.377956
3246.18, 0.378565
3248.22, 0.379296
3250.25, 0.380149
3252.29, 0.380880
3254.33, 0.381489
3256.38, 0.382159
3258.43, 0.382890
3260.47, 0.383621
3262.53, 0.384231
3264.58, 0.385023
3266.64, 0.385754
3268.7, 0.386485
3270.76, 0.387094
3272.82, 0.387642
3274.89, 0.388130
3276.96, 0.388617
3279.04, 0.388982
3281.11, 0.389348
3283.19, 0.389653
3285.27, 0.389835
3287.35, 0.390018
3289.44, 0.390018
3291.53, 0.390079
3293.62, 0.390018
3295.71, 0.390018
3297.81, 0.390140
3299.91, 0.390018
3302.01, 0.390018
3304.11, 0.390018
3306.22, 0.389957
3308.33, 0.389835
3310.44, 0.389774
3312.56, 0.389592
3314.68, 0.389470
3316.8, 0.389409
3318.92, 0.389165
3321.05, 0.388922
3323.18, 0.388861
3325.31, 0.388678
3327.44, 0.388069
3329.58, 0.387459
3331.72, 0.386607
3333.86, 0.385449
3336.01, 0.383865
3338.16, 0.381855
3340.31, 0.379418
3342.46, 0.376555
3344.61, 0.373813
3346.77, 0.371681
3348.94, 0.370462
3351.1, 0.370341
3353.27, 0.370767
3355.44, 0.371559
3357.61, 0.372716
3359.79, 0.373996
3361.97, 0.375031
3364.15, 0.375884
3366.33, 0.376676
3368.52, 0.377225
3370.71, 0.377773
3372.9, 0.378078
3375.1, 0.378382
3377.3, 0.378870
3379.5, 0.379540
3381.71, 0.380271
3383.91, 0.381124
3386.12, 0.381794
3388.34, 0.382586
3390.55, 0.383560
3392.77, 0.384352
3394.99, 0.384962
3397.22, 0.385510
3399.45, 0.385997
3401.68, 0.386485
3403.91, 0.386911
3406.15, 0.387399
3408.39, 0.387886
3410.63, 0.388190
3412.87, 0.388495
3415.12, 0.388922
3417.37, 0.389592
3419.63, 0.390323
3421.88, 0.391054
3424.14, 0.391907
3426.41, 0.392638
3428.67, 0.393430
3430.94, 0.394161
3433.21, 0.394892
3435.49, 0.395501
3437.77, 0.395988
3440.05, 0.396293
3442.33, 0.396780
3444.62, 0.397329
3446.91, 0.397694
3449.2, 0.398121
3451.5, 0.398547
3453.8, 0.398852
3456.1, 0.398913
3458.41, 0.398913
3460.72, 0.398608
3463.03, 0.397877
3465.34, 0.396415
3467.66, 0.394404
3469.98, 0.392150
3472.31, 0.390262
3474.63, 0.388800
3476.96, 0.387886
3479.3, 0.388069
3481.64, 0.388739
3483.97, 0.389409
3486.32, 0.390140
3488.66, 0.391054
3491.01, 0.392029
3493.36, 0.392942
3495.72, 0.393795
3498.08, 0.394709
3500.44, 0.395440
3502.81, 0.396232
3505.18, 0.397451
3507.55, 0.398852
3509.92, 0.400253
3512.3, 0.401776
3514.68, 0.403543
3517.06, 0.405797
3519.45, 0.408294
3521.84, 0.411219
3524.24, 0.414326
3526.64, 0.417311
3529.04, 0.419809
3531.44, 0.422063
3533.85, 0.424134
3536.26, 0.425840
3538.67, 0.427302
3541.09, 0.428581
3543.51, 0.429739
3545.93, 0.430592
3548.36, 0.431506
3550.79, 0.432298
3553.22, 0.432907
3555.66, 0.433577
3558.1, 0.434064
3560.54, 0.434491
3562.99, 0.434856
3565.44, 0.435039
3567.9, 0.435222
3570.35, 0.435404
3572.81, 0.435648
3575.28, 0.436196
3577.75, 0.436684
3580.22, 0.437293
3582.69, 0.438146
3585.17, 0.438816
3587.65, 0.439364
3590.14, 0.439791
3592.62, 0.440156
3595.11, 0.440583
3597.61, 0.441009
3600.11, 0.441375
3602.61, 0.441679
3605.11, 0.441923
3607.62, 0.442045
3610.14, 0.442228
3612.65, 0.442410
3615.17, 0.442593
3617.69, 0.442715
3620.22, 0.442837
3622.75, 0.443081
3625.28, 0.443141
3627.82, 0.443141
3630.36, 0.443141
3632.9, 0.443202
3635.45, 0.443324
3638.0, 0.443446
3640.56, 0.443446
3643.12, 0.443507
3645.68, 0.443385
3648.24, 0.443324
3650.81, 0.443263
3653.39, 0.443263
3655.96, 0.443263
3658.54, 0.443202
3661.13, 0.443263
3663.71, 0.443324
3666.3, 0.443385
3668.9, 0.443385
3671.5, 0.443446
3674.1, 0.443385
3676.7, 0.443446
3679.31, 0.443629
3681.93, 0.443629
3684.54, 0.443446
3687.17, 0.443263
3689.79, 0.442776
3692.42, 0.442349
3695.05, 0.442654
3697.69, 0.442959
3700.32, 0.443081
3702.97, 0.443202
3705.61, 0.443263
3708.27, 0.443385
3710.92, 0.443568
3713.58, 0.443690
3716.24, 0.443690
3718.91, 0.443568
3721.58, 0.443568
3724.25, 0.443568
3726.93, 0.443568
3729.61, 0.443507
3732.29, 0.443385
3734.98, 0.443202
3737.67, 0.443081
3740.37, 0.443020
3743.07, 0.442837
3745.78, 0.442776
3748.49, 0.442776
3751.2, 0.442593
3753.91, 0.442410
3756.63, 0.442228
3759.36, 0.442167
3762.09, 0.442106
3764.82, 0.441740
3767.55, 0.441436
3770.29, 0.441375
3773.04, 0.441131
3775.78, 0.440827
3778.54, 0.440400
3781.29, 0.440035
3784.05, 0.439547
3786.82, 0.438938
3789.59, 0.438024
3792.36, 0.436927
3795.13, 0.435587
3797.92, 0.434125
3800.7, 0.432724
3803.49, 0.431079
3806.28, 0.429495
3809.08, 0.428094
3811.88, 0.426632
3814.68, 0.425413
3817.49, 0.424012
3820.31, 0.422550
3823.12, 0.421210
3825.94, 0.419809
3828.77, 0.418590
3831.6, 0.417189
3834.43, 0.415727
3837.27, 0.414387
3840.11, 0.413351
3842.96, 0.412742
3845.81, 0.412193
3848.67, 0.411706
3851.53, 0.411280
3854.39, 0.410975
3857.26, 0.410792
3860.13, 0.410549
3863.01, 0.410244
3865.89, 0.409939
3868.77, 0.409696
3871.66, 0.409574
3874.55, 0.409452
3877.45, 0.409330
3880.35, 0.409086
3883.26, 0.408843
3886.17, 0.408477
3889.09, 0.408234
3892.01, 0.408051
3894.93, 0.407807
3897.86, 0.407442
3900.79, 0.407076
3903.73, 0.406711
3906.67, 0.406345
3909.62, 0.405797
3912.57, 0.405431
3915.52, 0.405005
3918.48, 0.404517
3921.45, 0.403908
3924.42, 0.403055
3927.39, 0.402141
3930.37, 0.401471
3933.35, 0.401106
3936.34, 0.400375
3939.33, 0.398730
3942.32, 0.395988
3945.32, 0.392881
3948.33, 0.389774
3951.34, 0.386911
3954.35, 0.384291
3957.37, 0.381855
3960.39, 0.379662
3963.42, 0.377773
3966.45, 0.376311
3969.49, 0.375214
3972.53, 0.374361
3975.58, 0.373752
3978.63, 0.373326
3981.68, 0.373021
3984.75, 0.373326
3987.81, 0.374544
3990.88, 0.376128
3993.95, 0.378260
3997.03, 0.380819
4000.12, 0.383500
4003.21, 0.386424
4006.3, 0.389592
4009.4, 0.392942
4012.5, 0.396171
4015.61, 0.398852
4018.72, 0.400862
4021.84, 0.402446
4024.96, 0.403969
4028.09, 0.405370
4031.22, 0.406893
4034.36, 0.408234
4037.5, 0.409696
4040.65, 0.411462
4043.8, 0.413168
4046.96, 0.414569
4050.12, 0.415788
4053.29, 0.416641
4056.46, 0.417250
4059.64, 0.417676
4062.82, 0.417981
4066.0, 0.418164
4069.19, 0.418347
4072.39, 0.418529
4075.59, 0.418651
4078.8, 0.418834
4082.01, 0.418895
4085.23, 0.418895
4088.45, 0.418895
4091.68, 0.418834
4094.91, 0.418834
4098.15, 0.418773
4101.39, 0.418712
4104.63, 0.418590
4107.89, 0.418468
4111.14, 0.418407
4114.41, 0.418286
4117.67, 0.418103
4120.95, 0.417981
4124.23, 0.417859
4127.51, 0.417676
4130.8, 0.417555
4134.09, 0.417311
4137.39, 0.417128
4140.7, 0.416945
4144.01, 0.416702
4147.32, 0.416580
4150.64, 0.416458
4153.97, 0.416275
4157.3, 0.416032
4160.64, 0.415666
4163.98, 0.415300
4167.33, 0.415118
4170.68, 0.414874
4174.04, 0.414691
4177.4, 0.414569
4180.77, 0.414326
4184.14, 0.414021
4187.52, 0.413777
4190.91, 0.413412
4194.3, 0.413168
4197.69, 0.412864
4201.1, 0.412559
4204.5, 0.412254
4207.92, 0.411828
4211.34, 0.411341
4214.76, 0.410975
4218.19, 0.410366
4221.62, 0.409878
4225.06, 0.409452
4228.51, 0.409086
4231.96, 0.408721
4235.42, 0.408416
4238.88, 0.408234
4242.35, 0.407929
4245.83, 0.407807
4249.31, 0.407929
4252.79, 0.407990
4256.28, 0.407746
4259.78, 0.407259
4263.29, 0.406650
4266.79, 0.406223
4270.31, 0.405979
4273.83, 0.405675
4277.35, 0.405248
4280.89, 0.405066
4284.42, 0.404761
4287.97, 0.404396
4291.52, 0.404152
4295.07, 0.403847
4298.63, 0.403482
4302.2, 0.403177
4305.78, 0.402933
4309.35, 0.402568
4312.94, 0.402385
4316.53, 0.402081
4320.13, 0.401837
4323.73, 0.401593
4327.34, 0.401289
4330.96, 0.401045
4334.58, 0.400740
4338.21, 0.400497
4341.84, 0.400131
4345.48, 0.399766
4349.12, 0.399583
4352.77, 0.399400
4356.43, 0.399035
4360.1, 0.398608
4363.76, 0.398303
4367.44, 0.397999
4371.12, 0.397633
4374.81, 0.397085
4378.51, 0.396719
4382.21, 0.396415
4385.92, 0.395988
4389.63, 0.395440
4393.35, 0.395014
4397.08, 0.394465
4400.81, 0.393917
4404.55, 0.393369
4408.29, 0.392881
4412.04, 0.392211
4415.8, 0.391541
4419.57, 0.390932
4423.34, 0.390262
4427.12, 0.389531
4430.9, 0.388739
4434.69, 0.387825
4438.49, 0.386972
4442.29, 0.386180
4446.1, 0.385327
4449.92, 0.384413
4453.74, 0.383439
4457.57, 0.382281
4461.41, 0.381185
4465.25, 0.380149
4469.1, 0.379052
4472.95, 0.378017
4476.82, 0.376920
4480.69, 0.375763
4484.56, 0.374666
4488.44, 0.373508
4492.33, 0.372351
4496.23, 0.371193
4500.13, 0.370097
4504.04, 0.368878
4507.96, 0.367721
4511.88, 0.366624
4515.81, 0.365589
4519.75, 0.364370
4523.69, 0.363091
4527.65, 0.361872
4531.6, 0.360593
4535.57, 0.359192
4539.54, 0.357730
4543.52, 0.356329
4547.5, 0.354745
4551.5, 0.352917
4555.5, 0.351150
4559.5, 0.349323
4563.52, 0.347312
4567.54, 0.345180
4571.56, 0.343048
4575.6, 0.340794
4579.64, 0.338601
4583.69, 0.336346
4587.75, 0.333910
4591.81, 0.331534
4595.88, 0.329219
4599.96, 0.326904
4604.04, 0.324406
4608.14, 0.321908
4612.24, 0.319349
4616.34, 0.316730
4620.46, 0.313806
4624.58, 0.310881
4628.71, 0.308140
4632.84, 0.305277
4636.99, 0.302291
4641.14, 0.299306
4645.3, 0.296382
4649.47, 0.293397
4653.64, 0.290473
4657.82, 0.287792
4662.01, 0.285112
4666.21, 0.282431
4670.41, 0.279872
4674.62, 0.277436
4678.84, 0.274999
4683.07, 0.272562
4687.3, 0.270369
4691.54, 0.268115
4695.79, 0.265982
4700.05, 0.263911
4704.31, 0.261962
4708.59, 0.259890
4712.87, 0.257880
4717.15, 0.256113
4721.45, 0.254164
4725.76, 0.252214
4730.07, 0.250143
4734.39, 0.248071
4738.72, 0.246061
4743.05, 0.244112
4747.39, 0.242101
4751.75, 0.240030
4756.1, 0.237837
4760.47, 0.235887
4764.85, 0.233877
4769.23, 0.231745
4773.62, 0.229551
4778.02, 0.227541
4782.43, 0.225470
4786.85, 0.223459
4791.27, 0.221571
4795.7, 0.219621
4800.14, 0.217672
4804.59, 0.215783
4809.05, 0.214016
4813.51, 0.212372
4817.99, 0.210849
4822.47, 0.209326
4826.96, 0.207803
4831.46, 0.206401
4835.96, 0.205000
4840.48, 0.203538
4845.0, 0.202137
4849.54, 0.200797
4854.08, 0.199395
4858.63, 0.197872
4863.18, 0.196471
4867.75, 0.194948
4872.33, 0.193364
4876.91, 0.191780
4881.5, 0.190196
4886.1, 0.188551
4890.71, 0.186846
4895.33, 0.185140
4899.96, 0.183434
4904.59, 0.181789
4909.24, 0.180144
4913.89, 0.178438
4918.55, 0.176794
4923.22, 0.175149
4927.9, 0.173565
4932.59, 0.171981
4937.29, 0.170519
4942.0, 0.169118
4946.71, 0.167899
4951.44, 0.166681
4956.17, 0.165462
4960.91, 0.164427
4965.67, 0.163452
4970.43, 0.162416
4975.2, 0.161441
4979.98, 0.160589
4984.76, 0.159614
4989.56, 0.158639
4994.37, 0.157786
4999.18, 0.157055
5004.01, 0.156263
5008.84, 0.155410
5013.69, 0.154496
5018.54, 0.153583
5023.4, 0.152852
5028.28, 0.152181
5033.16, 0.151511
5038.05, 0.150780
5042.95, 0.150171
5047.86, 0.149562
5052.78, 0.148953
5057.71, 0.148343
5062.65, 0.147795
5067.6, 0.147247
5072.56, 0.146698
5077.53, 0.146150
5082.5, 0.145602
5087.49, 0.145236
5092.49, 0.144810
5097.5, 0.144201
5102.51, 0.143896
5107.54, 0.143835
5112.58, 0.143713
5117.62, 0.143470
5122.68, 0.143409
5127.75, 0.143409
5132.82, 0.143409
5137.91, 0.143531
5143.01, 0.143591
5148.12, 0.143835
5153.23, 0.144566
5158.36, 0.145175
5163.5, 0.145724
5168.65, 0.146333
5173.81, 0.146881
5178.98, 0.147430
5184.15, 0.148039
5189.34, 0.148587
5194.54, 0.149013
5199.75, 0.149379
5204.98, 0.149745
5210.21, 0.149562
5215.45, 0.149440
5220.7, 0.149805
5225.96, 0.149745
5231.23, 0.149196
5236.52, 0.148465
5241.81, 0.147978
5247.12, 0.147430
5252.44, 0.146698
5257.76, 0.146028
5263.1, 0.145480
5268.45, 0.144932
5273.81, 0.144323
5279.18, 0.143774
5284.56, 0.143287
5289.95, 0.142434
5295.36, 0.141764
5300.77, 0.141398
5306.2, 0.140667
5311.63, 0.139753
5317.08, 0.138901
5322.54, 0.138048
5328.01, 0.137317
5333.49, 0.136707
5338.98, 0.136159
5344.49, 0.135245
5350.0, 0.134392
5355.53, 0.134636
5361.07, 0.135063
5366.62, 0.135123
5372.18, 0.135184
5377.75, 0.135245
5383.34, 0.135306
5388.93, 0.135306
5394.54, 0.135245
5400.16, 0.135063
5405.79, 0.134758
5411.44, 0.134331
5417.09, 0.133174
5422.76, 0.132077
5428.43, 0.132626
5434.12, 0.132504
5439.83, 0.131712
5445.54, 0.131103
5451.26, 0.130493
5457.0, 0.129397
5462.75, 0.127935
5468.52, 0.127447
5474.29, 0.126899
5480.08, 0.126168
5485.88, 0.126046
5491.69, 0.125681
5497.51, 0.125315
5503.35, 0.124767
5509.2, 0.124219
5515.06, 0.123427
5520.93, 0.122635
5526.82, 0.121964
5532.71, 0.121112
5538.63, 0.119771
5544.55, 0.117944
5550.49, 0.115629
5556.44, 0.113862
5562.4, 0.112765
5568.37, 0.111730
5574.36, 0.109841
5580.36, 0.108988
5586.37, 0.109841
5592.4, 0.110268
5598.44, 0.109780
5604.49, 0.109110
5610.56, 0.108379
5616.63, 0.107465
5622.73, 0.106490
5628.83, 0.105211
5634.95, 0.103323
5641.08, 0.101373
5647.23, 0.100947
5653.39, 0.100337
5659.56, 0.0996670
5665.74, 0.0990580
5671.94, 0.0974740
5678.15, 0.0964990
5684.38, 0.0960120
5690.62, 0.0949760
5696.87, 0.0944280
5703.14, 0.0933920
5709.42, 0.0918690
5715.72, 0.0913820
5722.03, 0.0910770
5728.35, 0.0906510
5734.69, 0.0898590
5741.03, 0.0889450
5747.4, 0.0879700
5753.78, 0.0876660
5760.17, 0.0859600
5766.58, 0.0841930
5773.0, 0.0850460
5779.44, 0.0855330
5785.88, 0.0852290
5792.35, 0.0849240
5798.83, 0.0843760
5805.32, 0.0839500
5811.83, 0.0830360
5818.35, 0.0809640
5824.89, 0.0802940
5831.45, 0.0809640
5838.01, 0.0812690
5844.59, 0.0810250
5851.19, 0.0803550
5857.8, 0.0795020
5864.43, 0.0787710
5871.07, 0.0781010
5877.73, 0.0756640
5884.4, 0.0751770
5891.09, 0.0752380
5897.79, 0.0745680
5904.5, 0.0755420
5911.23, 0.0754810
5917.98, 0.0749940
5924.75, 0.0743850
5931.53, 0.0724350
5938.32, 0.0716430
5945.13, 0.0729840
5951.96, 0.0734100
5958.8, 0.0732270
5965.65, 0.0722530
5972.53, 0.0722530
5979.42, 0.0724350
5986.32, 0.0717040
5993.24, 0.0718260
6000.18, 0.0724960
6007.13, 0.0720700
6014.1, 0.0714610
6021.08, 0.0716430
6028.09, 0.0715220
6035.1, 0.0708510
6042.14, 0.0685970
6049.19, 0.0665870
6056.25, 0.0681710
6063.34, 0.0687190
6070.44, 0.0674400
6077.55, 0.0673180
6084.69, 0.0676840
6091.84, 0.0673180
6099.0, 0.0667700
6106.19, 0.0655510
6113.39, 0.0643330
6120.61, 0.0647590
6127.84, 0.0650640
6135.09, 0.0645770
6142.36, 0.0640890
6149.65, 0.0638460
6156.95, 0.0633580
6164.27, 0.0631750
6171.61, 0.0632970
6178.97, 0.0624440
6186.34, 0.0618350
6193.73, 0.0628100
6201.14, 0.0631140
6208.57, 0.0630540
6216.01, 0.0630540
6223.47, 0.0631750
6230.95, 0.0632970
6238.45, 0.0634190
6245.97, 0.0636020
6253.5, 0.0638460
6261.06, 0.0640890
6268.63, 0.0644550
6276.21, 0.0646980
6283.82, 0.0650640
6291.45, 0.0655510
6299.1, 0.0659780
6306.76, 0.0664040
6314.44, 0.0669520
6322.14, 0.0675620
6329.86, 0.0682930
6337.6, 0.0679880
6345.35, 0.0681100
6353.13, 0.0699990
6360.92, 0.0709120
6368.74, 0.0710950
6376.57, 0.0722530
6384.43, 0.0733490
6392.3, 0.0740800
6400.19, 0.0742630
6408.1, 0.0726180
6416.03, 0.0727400
6423.98, 0.0756030
6431.95, 0.0772480
6439.94, 0.0786490
6447.95, 0.0796240
6455.98, 0.0804770
6464.03, 0.0810250
6472.1, 0.0808430
6480.19, 0.0804770
6488.31, 0.0796850
6496.44, 0.0804770
6504.59, 0.0833400
6512.76, 0.0844370
6520.95, 0.0844980
6529.16, 0.0857160
6537.4, 0.0864470
6545.65, 0.0864470
6553.92, 0.0864470
6562.22, 0.0863860
6570.54, 0.0855940
6578.88, 0.0864470
6587.23, 0.0873000
6595.61, 0.0875440
6604.02, 0.0879700
6612.44, 0.0878490
6620.89, 0.0874830
6629.35, 0.0857770
6637.84, 0.0844370
6646.35, 0.0861430
6654.88, 0.0874830
6663.44, 0.0869960
6672.01, 0.0859600
6680.61, 0.0852290
6689.23, 0.0857770
6697.88, 0.0858380
6706.54, 0.0847420
6715.23, 0.0843760
6723.94, 0.0845590
6732.67, 0.0846200
6741.42, 0.0842540
6750.2, 0.0838280
6759.0, 0.0834010
6767.82, 0.0824870
6776.67, 0.0813910
6785.54, 0.0801120
6794.44, 0.0798070
6803.35, 0.0804160
6812.29, 0.0802330
6821.26, 0.0791370
6830.24, 0.0785880
6839.25, 0.0785280
6848.29, 0.0774920
6857.35, 0.0755420
6866.43, 0.0749940
6875.54, 0.0761520
6884.67, 0.0761520
6893.82, 0.0756640
6903.0, 0.0749330
6912.2, 0.0746900
6921.43, 0.0744460
6930.69, 0.0739580
6939.96, 0.0734710
6949.27, 0.0726180
6958.59, 0.0712780
6967.95, 0.0714610
6977.33, 0.0715830
6986.73, 0.0709730
6996.16, 0.0704860
7005.61, 0.0702420
7015.09, 0.0696940
7024.6, 0.0690850
7034.13, 0.0682930
7043.69, 0.0671350
7053.27, 0.0670130
7062.88, 0.0671960
7072.52, 0.0668310
7082.18, 0.0662210
7091.87, 0.0653690
7101.58, 0.0644550
7111.32, 0.0633580
7121.09, 0.0622620
7130.88, 0.0613480
7140.71, 0.0603120
7150.56, 0.0595200
7160.43, 0.0587890
7170.33, 0.0578750
7180.27, 0.0577530
7190.23, 0.0574490
7200.21, 0.0566570
7210.23, 0.0558650
7220.27, 0.0555600
7230.34, 0.0551950
7240.44, 0.0547070
7250.56, 0.0539760
7260.72, 0.0534280
7270.9, 0.0526970
7281.12, 0.0520880
7291.36, 0.0516610
7301.63, 0.0511740
7311.93, 0.0506870
7322.25, 0.0501380
7332.61, 0.0493460
7343.0, 0.0488590
7353.41, 0.0484930
7363.86, 0.0481890
7374.33, 0.0475800
7384.83, 0.0469700
7395.37, 0.0464220
7405.93, 0.0458130
7416.53, 0.0453250
7427.15, 0.0448990
7437.81, 0.0444120
7448.5, 0.0439240
7459.22, 0.0433150
7469.96, 0.0428890
7480.74, 0.0425230
7491.55, 0.0421580
7502.39, 0.0417920
7513.27, 0.0414260
7524.17, 0.0409390
7535.11, 0.0405130
7546.08, 0.0399640
7557.08, 0.0396600
7568.11, 0.0392940
7579.17, 0.0388070
7590.27, 0.0383190
7601.4, 0.0378320
7612.56, 0.0374060
7623.76, 0.0370400
7634.98, 0.0366140
7646.24, 0.0361870
7657.54, 0.0357000
7668.87, 0.0352130
7680.23, 0.0347250
7691.62, 0.0341770
7703.05, 0.0336290
7714.51, 0.0332020
7726.01, 0.0327760
7737.54, 0.0322270
7749.11, 0.0316790
7760.71, 0.0311920
7772.35, 0.0308260
7784.02, 0.0302780
7795.72, 0.0296080
7807.46, 0.0290590
7819.23, 0.0285720
7831.04, 0.0280850
7842.89, 0.0275360
7854.77, 0.0271100
7866.69, 0.0266230
7878.65, 0.0260130
7890.64, 0.0254650
7902.67, 0.0249780
7914.74, 0.0244290
7926.84, 0.0240030
7938.98, 0.0234550
7951.16, 0.0227850
7963.37, 0.0221750
7975.62, 0.0215050
7987.91, 0.0208960
8000.24, 0.0203480
8012.6, 0.0197990
8025.01, 0.0194340
8037.45, 0.0187030
8049.93, 0.0181550
8062.45, 0.0176060
8075.01, 0.0171190
8087.61, 0.0166920
8100.24, 0.0162660
8112.91, 0.0156570
8125.63, 0.0151080
8138.39, 0.0146820
8151.18, 0.0141340
8164.02, 0.0137070
8176.9, 0.0133420
8189.81, 0.0127930
8202.77, 0.0123670
8215.77, 0.0119410
8228.82, 0.0115140
8241.9, 0.0110270
8255.02, 0.0106610
8268.19, 0.0102960
8281.39, 0.00993000
8294.65, 0.00950400
8307.94, 0.00913800
8321.28, 0.00883400
8334.66, 0.00859000
8348.08, 0.00828500
8361.54, 0.00816300
8375.05, 0.00792000
8388.6, 0.00773700
8402.2, 0.00767600
8415.84, 0.00761500
8429.52, 0.00761500
8443.25, 0.00761500
8457.02, 0.00773700
8470.84, 0.00798100
8484.7, 0.00846800
8498.61, 0.00889500
8512.57, 0.00944300
8526.57, 0.0104180
8540.62, 0.0116970
8554.71, 0.0131590
8568.85, 0.0149870
8583.04, 0.0172410
8597.27, 0.0200430
8611.55, 0.0235160
8625.88, 0.0275970
8640.26, 0.0324100
8654.68, 0.0380150
8669.16, 0.0442900
8683.68, 0.0512350
8698.25, 0.0584840
8712.87, 0.0654900
8727.53, 0.0718260
8742.25, 0.0770050
8757.02, 0.0807820
8771.83, 0.0831580
8786.7, 0.0842540
8801.62, 0.0844370
8816.59, 0.0841320
8831.61, 0.0832790
8846.68, 0.0823050
8861.8, 0.0813300
8876.97, 0.0807820
8892.2, 0.0805380
8907.48, 0.0802940
8922.81, 0.0796850
8938.2, 0.0785280
8953.63, 0.0771260
8969.13, 0.0756030
8984.67, 0.0741410
9000.27, 0.0730450
9015.92, 0.0724350
9031.63, 0.0723140
9047.39, 0.0728010
9063.21, 0.0738370
9079.08, 0.0752990
9095.01, 0.0770050
9111.0, 0.0790150
9127.04, 0.0810860
9143.13, 0.0834010
9159.28, 0.0856550
9175.49, 0.0877880
9191.76, 0.0898590
9208.09, 0.0921130
9224.47, 0.0945500
9240.92, 0.0970480
9257.42, 0.0996060
9273.98, 0.102287
9290.6, 0.104846
9307.28, 0.107282
9324.02, 0.109841
9340.82, 0.112400
9357.68, 0.114898
9374.6, 0.117213
9391.58, 0.119589
9408.62, 0.122208
9425.73, 0.124889
9442.9, 0.127143
9460.13, 0.129458
9477.42, 0.131834
9494.78, 0.133539
9512.2, 0.134758
9529.69, 0.135915
9547.24, 0.136890
9564.86, 0.137499
9582.54, 0.137804
9600.28, 0.137865
9618.1, 0.137378
9635.97, 0.136586
9653.92, 0.135611
9671.93, 0.134392
9690.01, 0.132991
9708.16, 0.131712
9726.37, 0.130615
9744.65, 0.129762
9763.0, 0.129823
9781.43, 0.130493
9799.92, 0.131895
9818.48, 0.133661
9837.1, 0.135672
9855.8, 0.138048
9874.58, 0.140789
9893.42, 0.143896
9912.34, 0.147369
9931.33, 0.150963
9950.39, 0.154557
9969.52, 0.158274
9988.74, 0.162172
10008.0, 0.165889
10027.4, 0.169483
10046.8, 0.172590
10066.3, 0.175088
10085.9, 0.176976
10105.6, 0.178499
10125.3, 0.179352
10145.1, 0.179170
10165.0, 0.178378
10185.0, 0.177098
10205.0, 0.175636
10225.2, 0.174296
10245.4, 0.172773
10265.7, 0.170884
10286.0, 0.168935
10306.5, 0.166803
10327.0, 0.164548
10347.6, 0.161990
10368.3, 0.159187
10389.1, 0.156385
10409.9, 0.153644
10430.9, 0.150841
10451.9, 0.147856
10473.0, 0.144383
10494.2, 0.140911
10515.5, 0.137256
10536.9, 0.133235
10558.4, 0.129031
10579.9, 0.124645
10601.5, 0.120198
10623.3, 0.116116
10645.1, 0.112765
10667.0, 0.109597
10689.0, 0.106490
10711.1, 0.103505
10733.2, 0.100642
10755.5, 0.0980830
10777.9, 0.0957680
10800.3, 0.0939410
10822.9, 0.0927220
10845.5, 0.0923570
10868.2, 0.0925390
10891.1, 0.0929050
10914.0, 0.0929050
10937.0, 0.0924180
10960.2, 0.0915650
10983.4, 0.0905900
11006.7, 0.0895540
11030.1, 0.0882750
11053.6, 0.0869350
11077.3, 0.0856550
11101.0, 0.0845590
11124.8, 0.0831580
11148.7, 0.0818170
11172.7, 0.0809030
11196.9, 0.0799900
11221.1, 0.0788930
11245.4, 0.0780400
11269.9, 0.0771870
11294.4, 0.0759080
11319.1, 0.0746290
11343.9, 0.0732880
11368.8, 0.0720090
11393.7, 0.0705470
11418.8, 0.0693280
11444.0, 0.0680490
11469.4, 0.0669520
11494.8, 0.0661000
11520.3, 0.0652470
11546.0, 0.0646370
11571.8, 0.0639060
11597.7, 0.0631140
11623.7, 0.0621400
11649.8, 0.0613480
11676.0, 0.0606170
11702.4, 0.0595810
11728.9, 0.0587890
11755.5, 0.0582410
11782.2, 0.0575100
11809.0, 0.0566570
11836.0, 0.0560480
11863.0, 0.0551340
11890.3, 0.0540980
11917.6, 0.0533670
11945.0, 0.0526360
11972.6, 0.0516000
12000.4, 0.0507470
12028.2, 0.0498950
12056.2, 0.0489200
12084.3, 0.0479450
12112.5, 0.0472750
12140.9, 0.0465440
12169.4, 0.0456910
12198.0, 0.0448380
12226.8, 0.0439850
12255.7, 0.0432540
12284.7, 0.0425840
12313.9, 0.0420970
12343.2, 0.0414260
12372.7, 0.0406950
12402.3, 0.0400860
12432.0, 0.0395990
12461.9, 0.0389900
12491.9, 0.0387460
12522.1, 0.0381980
12552.4, 0.0372230
12582.9, 0.0366140
12613.5, 0.0363090
12644.3, 0.0358220
12675.2, 0.0351520
12706.3, 0.0346030
12737.5, 0.0341770
12768.9, 0.0336890
12800.4, 0.0327760
12832.1, 0.0318620
12863.9, 0.0310090
12895.9, 0.0304000
12928.1, 0.0297300
12960.4, 0.0290590
12992.9, 0.0286940
13025.5, 0.0283890
13058.3, 0.0279630
13091.3, 0.0279020
13124.4, 0.0281460
13157.8, 0.0285720
13191.2, 0.0288770
13224.9, 0.0293030
13258.7, 0.0293640
13292.7, 0.0294250
13326.9, 0.0297910
13361.2, 0.0299730
13395.7, 0.0297910
13430.4, 0.0298510
13465.3, 0.0296690
13500.4, 0.0291200
13535.7, 0.0288770
13571.1, 0.0288770
13606.7, 0.0285720
13642.5, 0.0283280
13678.5, 0.0282070
13714.7, 0.0280240
13751.1, 0.0275360
13787.6, 0.0268050
13824.4, 0.0263790
13861.4, 0.0261960
13898.5, 0.0258310
13935.9, 0.0251600
13973.5, 0.0244290
14011.2, 0.0242470
14049.2, 0.0240640
14087.4, 0.0240640
14125.8, 0.0242470
14164.3, 0.0244290
14203.2, 0.0250390
14242.2, 0.0255260
14281.4, 0.0259520
14320.9, 0.0264400
14360.5, 0.0270490
14400.4, 0.0276580
14440.5, 0.0282070
14480.9, 0.0284500
14521.4, 0.0288770
14562.2, 0.0293640
14603.3, 0.0293030
14644.5, 0.0290590
14686.0, 0.0286940
14727.7, 0.0282670
14769.7, 0.0278410
14811.9, 0.0271710
14854.3, 0.0265620
14897.0, 0.0262570
14939.9, 0.0263180
14983.1, 0.0265010
15026.5, 0.0265620
15070.2, 0.0265620
15114.2, 0.0265010
15158.3, 0.0260740
15202.8, 0.0254650
15247.5, 0.0249780
15292.5, 0.0243690
15337.7, 0.0236980
15383.2, 0.0232110
15429.0, 0.0226630
15475.1, 0.0216880
15521.4, 0.0215050
15568.0, 0.0213830
15614.9, 0.0210180
15662.1, 0.0208350
15709.6, 0.0203480
15757.3, 0.0197990
15805.4, 0.0192510
15853.7, 0.0186420
15902.3, 0.0181550
15951.2, 0.0175450
16000.5, 0.0174230
16050.0, 0.0171190
16099.8, 0.0164490
16150.0, 0.0157180
16200.5, 0.0154740
16251.3, 0.0159610
16302.4, 0.0162050
16353.8, 0.0160220
16405.5, 0.0161440
16457.6, 0.0166320
16510.0, 0.0169970
16562.8, 0.0176670
16615.9, 0.0187640
16669.3, 0.0201650
16723.1, 0.0219320
16777.2, 0.0239420
16831.7, 0.0261350
16886.5, 0.0286940
16941.7, 0.0321660
16997.2, 0.0372840
17053.1, 0.0439240
17109.4, 0.0519660
17166.1, 0.0615910
17223.1, 0.0725570
17280.5, 0.0841930
17338.3, 0.0959510
17396.5, 0.108074
17455.1, 0.120685
17514.0, 0.133357
17573.4, 0.145602
17633.2, 0.157786
17693.4, 0.169422
17754.0, 0.179109
17815.0, 0.187272
17876.4, 0.193242
17938.3, 0.197080
18000.5, 0.198908
18063.3, 0.199213
18126.4, 0.199334
18190.0, 0.199639
18254.1, 0.200614
18318.6, 0.202624
18383.5, 0.206097
18449.0, 0.211397
18514.9, 0.216941
18581.2, 0.221997
18648.0, 0.226932
18715.4, 0.231196
18783.2, 0.234547
18851.5, 0.236253
18920.3, 0.236009
18989.6, 0.234973
19059.4, 0.233633
19129.7, 0.231257
19200.6, 0.227724
19272.0, 0.222911
19343.9, 0.218768
19416.3, 0.215905
19489.3, 0.212189
19562.8, 0.208412
19637.0, 0.204756
19711.6, 0.201893
19786.8, 0.200187
19862.6, 0.198908
19939.0, 0.197751
20016.0, 0.197507
20093.6, 0.197263
20171.8, 0.195984
20250.6, 0.195253
20330.0, 0.195375
20410.0, 0.197568
20490.7, 0.199700
20572.0, 0.202015
20654.0, 0.203660
20736.6, 0.203721
20819.9, 0.202381
20903.8, 0.200248
20988.5, 0.198360
21073.8, 0.195375
21159.8, 0.193669
21246.5, 0.193608
21334.0, 0.193425
21422.1, 0.193973
21511.0, 0.194583
21600.7, 0.193242
21691.0, 0.192511
21782.1, 0.193181
21874.0, 0.193121
21966.7, 0.193060
22060.2, 0.190805
22154.5, 0.187577
22249.6, 0.184531
22345.5, 0.181667
22442.2, 0.178865
22539.8, 0.175819
22638.2, 0.171128
22737.5, 0.166681
22837.7, 0.160649
22938.7, 0.155715
23040.7, 0.152486
23143.5, 0.147734
23247.3, 0.143652
23352.1, 0.140119
23457.7, 0.135672
23564.4, 0.131590
23672.0, 0.130737
23780.5, 0.130128
23890.1, 0.128300
24000.7, 0.127569
24112.3, 0.126899
24225.0, 0.126229
24338.7, 0.124523
24453.5, 0.121477
24569.4, 0.116725
24686.4, 0.115385
24804.5, 0.116238
