Database of Origin,USGS Spectral Database
Sample Description,See USGS database for additional info
Date Added,2017-07-03 05:44:39.842362

Data ID,USGS_alu04          
Sample ID,alunite_gds82.979
Mineral Name,alunite
Material Class,Sulfate

Wavelength
1299.94, 0.687280
1300.26, 0.684407
1300.59, 0.684785
1300.92, 0.681836
1301.24, 0.681534
1301.57, 0.688187
1301.9, 0.683726
1302.22, 0.678661
1302.55, 0.683651
1302.88, 0.683500
1303.21, 0.691967
1303.53, 0.700207
1303.86, 0.703458
1304.19, 0.705575
1304.52, 0.703987
1304.85, 0.693857
1305.17, 0.697712
1305.5, 0.693479
1305.83, 0.699451
1306.16, 0.698468
1306.49, 0.698242
1306.82, 0.701644
1307.15, 0.695974
1307.48, 0.692723
1307.81, 0.696578
1308.14, 0.696881
1308.47, 0.695066
1308.8, 0.685692
1309.13, 0.679946
1309.46, 0.685087
1309.79, 0.699073
1310.12, 0.701417
1310.45, 0.699376
1310.79, 0.694235
1311.12, 0.695520
1311.45, 0.696805
1311.78, 0.695822
1312.11, 0.692950
1312.44, 0.696730
1312.78, 0.697410
1313.11, 0.700812
1313.44, 0.704365
1313.77, 0.708826
1314.11, 0.703231
1314.44, 0.703080
1314.77, 0.706028
1315.11, 0.697486
1315.44, 0.687053
1315.78, 0.688036
1316.11, 0.689396
1316.44, 0.699905
1316.78, 0.698998
1317.11, 0.696125
1317.45, 0.691664
1317.78, 0.696049
1318.12, 0.699073
1318.45, 0.704441
1318.79, 0.706558
1319.12, 0.706709
1319.46, 0.705046
1319.8, 0.708221
1320.13, 0.707994
1320.47, 0.700510
1320.8, 0.688111
1321.14, 0.702324
1321.48, 0.702022
1321.81, 0.706482
1322.15, 0.704138
1322.49, 0.693479
1322.83, 0.682970
1323.16, 0.688867
1323.5, 0.697561
1323.84, 0.705348
1324.18, 0.716008
1324.52, 0.720997
1324.85, 0.715327
1325.19, 0.711472
1325.53, 0.711320
1325.87, 0.703458
1326.21, 0.699527
1326.55, 0.704819
1326.89, 0.704138
1327.23, 0.703836
1327.57, 0.705499
1327.91, 0.712001
1328.25, 0.714949
1328.59, 0.714949
1328.93, 0.711320
1329.27, 0.706709
1329.61, 0.707540
1329.95, 0.720619
1330.29, 0.722660
1330.64, 0.707238
1330.98, 0.698998
1331.32, 0.700207
1331.66, 0.710035
1332.0, 0.714571
1332.34, 0.709582
1332.69, 0.706709
1333.03, 0.705575
1333.37, 0.710338
1333.72, 0.705877
1334.06, 0.705121
1334.4, 0.705272
1334.75, 0.711472
1335.09, 0.714496
1335.43, 0.722509
1335.78, 0.719258
1336.12, 0.712757
1336.47, 0.715705
1336.81, 0.714420
1337.16, 0.709960
1337.5, 0.711094
1337.85, 0.709960
1338.19, 0.715554
1338.54, 0.716159
1338.88, 0.718578
1339.23, 0.722358
1339.58, 0.719258
1339.92, 0.713513
1340.27, 0.724248
1340.61, 0.722282
1340.96, 0.725155
1341.31, 0.721602
1341.66, 0.713059
1342.0, 0.714042
1342.35, 0.723643
1342.7, 0.723492
1343.05, 0.724248
1343.39, 0.721829
1343.74, 0.722207
1344.09, 0.723719
1344.44, 0.720014
1344.79, 0.724021
1345.14, 0.726289
1345.48, 0.719939
1345.83, 0.716612
1346.18, 0.715705
1346.53, 0.722963
1346.88, 0.718805
1347.23, 0.719636
1347.58, 0.729767
1347.93, 0.733471
1348.28, 0.721451
1348.64, 0.716461
1348.99, 0.716688
1349.34, 0.724626
1349.69, 0.726970
1350.04, 0.731657
1350.39, 0.725911
1350.74, 0.723416
1351.1, 0.715252
1351.45, 0.719788
1351.8, 0.730825
1352.15, 0.731808
1352.51, 0.722131
1352.86, 0.724853
1353.21, 0.723643
1353.56, 0.726214
1353.92, 0.721829
1354.27, 0.717746
1354.63, 0.719561
1354.98, 0.726743
1355.33, 0.719334
1355.69, 0.720241
1356.04, 0.717973
1356.4, 0.722812
1356.75, 0.721224
1357.11, 0.726365
1357.46, 0.730220
1357.82, 0.733698
1358.18, 0.741712
1358.53, 0.738688
1358.89, 0.726516
1359.24, 0.720997
1359.6, 0.714042
1359.96, 0.725458
1360.31, 0.733169
1360.67, 0.734908
1361.03, 0.733244
1361.39, 0.735059
1361.74, 0.732564
1362.1, 0.728406
1362.46, 0.723568
1362.82, 0.725155
1363.18, 0.727348
1363.53, 0.729389
1363.89, 0.723794
1364.25, 0.731959
1364.61, 0.735664
1364.97, 0.729389
1365.33, 0.729767
1365.69, 0.731884
1366.05, 0.733320
1366.41, 0.736646
1366.77, 0.737478
1367.13, 0.735890
1367.49, 0.733018
1367.85, 0.732791
1368.21, 0.732866
1368.57, 0.732866
1368.93, 0.736420
1369.3, 0.732791
1369.66, 0.729238
1370.02, 0.730220
1370.38, 0.731808
1370.74, 0.738612
1371.11, 0.743526
1371.47, 0.740956
1371.83, 0.735739
1372.19, 0.732564
1372.56, 0.736646
1372.92, 0.739519
1373.29, 0.731732
1373.65, 0.734000
1374.01, 0.730825
1374.38, 0.733320
1374.74, 0.740426
1375.11, 0.741334
1375.47, 0.740502
1375.84, 0.739670
1376.2, 0.740578
1376.57, 0.741107
1376.93, 0.728255
1377.3, 0.727045
1377.67, 0.733320
1378.03, 0.740275
1378.4, 0.734303
1378.76, 0.729389
1379.13, 0.730220
1379.5, 0.736646
1379.87, 0.735134
1380.23, 0.732186
1380.6, 0.734983
1380.97, 0.741863
1381.34, 0.743753
1381.7, 0.737402
1382.07, 0.730750
1382.44, 0.726289
1382.81, 0.734303
1383.18, 0.733396
1383.55, 0.726743
1383.92, 0.726289
1384.29, 0.727272
1384.66, 0.730447
1385.03, 0.729540
1385.4, 0.728633
1385.77, 0.716688
1386.14, 0.712379
1386.51, 0.723568
1386.88, 0.734227
1387.25, 0.743375
1387.62, 0.757663
1387.99, 0.750406
1388.36, 0.741485
1388.74, 0.729767
1389.11, 0.710111
1389.48, 0.710035
1389.85, 0.728860
1390.23, 0.730901
1390.6, 0.722509
1390.97, 0.723341
1391.35, 0.731581
1391.72, 0.716990
1392.09, 0.704668
1392.47, 0.714722
1396.59, 0.741938
1396.97, 0.730976
1397.35, 0.734756
1397.72, 0.735437
1398.1, 0.727045
1398.48, 0.717671
1398.85, 0.728104
1399.23, 0.719410
1399.61, 0.726062
1399.99, 0.732942
1400.37, 0.726138
1400.74, 0.710338
1401.12, 0.729162
1401.5, 0.741031
1401.88, 0.729389
1402.26, 0.714420
1402.64, 0.709355
1403.02, 0.712228
1403.4, 0.738612
1403.78, 0.749650
1404.16, 0.747608
1404.54, 0.738007
1404.92, 0.728255
1405.3, 0.725760
1405.68, 0.730674
1406.06, 0.729464
1406.44, 0.722736
1406.83, 0.721526
1407.21, 0.722812
1407.59, 0.721602
1407.97, 0.723643
1408.35, 0.720090
1408.74, 0.719334
1409.12, 0.721678
1409.5, 0.723568
1409.89, 0.722963
1410.27, 0.727877
1410.65, 0.723416
1411.04, 0.722358
1411.42, 0.723568
1411.81, 0.721526
1412.19, 0.717217
1412.58, 0.720241
1412.96, 0.725684
1413.35, 0.725836
1413.73, 0.721904
1414.12, 0.718124
1414.5, 0.710867
1414.89, 0.711018
1415.28, 0.714798
1415.66, 0.720317
1416.05, 0.722660
1416.44, 0.723719
1416.82, 0.725458
1417.21, 0.721451
1417.6, 0.717444
1417.98, 0.716386
1418.37, 0.715781
1418.76, 0.717671
1419.15, 0.715327
1419.54, 0.715176
1419.93, 0.714344
1420.32, 0.718729
1420.71, 0.719485
1421.09, 0.719636
1421.48, 0.719410
1421.88, 0.719485
1422.27, 0.716159
1422.66, 0.716310
1423.05, 0.719410
1423.44, 0.720922
1423.83, 0.720846
1424.22, 0.719636
1424.61, 0.715176
1425.0, 0.712757
1425.39, 0.711018
1425.78, 0.713815
1426.18, 0.717217
1426.57, 0.720544
1426.96, 0.717671
1427.36, 0.711169
1427.75, 0.703458
1428.14, 0.705197
1428.54, 0.708901
1428.93, 0.708826
1429.32, 0.705877
1429.72, 0.706180
1430.11, 0.704441
1430.51, 0.704290
1430.9, 0.704668
1431.3, 0.702324
1431.69, 0.698468
1432.09, 0.700888
1432.48, 0.699980
1432.88, 0.702400
1433.28, 0.699678
1433.67, 0.698922
1434.07, 0.698015
1434.46, 0.696125
1434.86, 0.695444
1435.26, 0.698771
1435.66, 0.694840
1436.05, 0.694235
1436.45, 0.697864
1436.85, 0.699149
1437.25, 0.697864
1437.65, 0.701039
1438.05, 0.701492
1438.44, 0.701644
1438.84, 0.700812
1439.24, 0.699527
1439.64, 0.700736
1440.04, 0.703382
1440.44, 0.700434
1440.84, 0.697334
1441.24, 0.699300
1441.65, 0.698846
1442.05, 0.696805
1442.45, 0.702929
1442.85, 0.705802
1443.25, 0.704516
1443.65, 0.703912
1444.05, 0.708145
1444.46, 0.712228
1444.86, 0.714647
1445.26, 0.711245
1445.67, 0.709960
1446.07, 0.711396
1446.47, 0.713588
1446.88, 0.713210
1447.28, 0.713966
1447.68, 0.711774
1448.09, 0.714798
1448.49, 0.713891
1448.9, 0.713740
1449.3, 0.712832
1449.71, 0.710413
1450.11, 0.713286
1450.52, 0.714798
1450.93, 0.710564
1451.33, 0.713664
1451.74, 0.720695
1452.14, 0.722207
1452.55, 0.722509
1452.96, 0.725382
1453.36, 0.719636
1453.77, 0.715252
1454.18, 0.715932
1454.59, 0.721753
1455.0, 0.722660
1455.41, 0.719561
1455.81, 0.717142
1456.22, 0.719032
1456.63, 0.721451
1457.04, 0.721451
1457.45, 0.721224
1457.86, 0.722358
1458.27, 0.720695
1458.68, 0.719939
1459.09, 0.720544
1459.5, 0.723265
1459.91, 0.720922
1460.32, 0.722056
1460.74, 0.719712
1461.15, 0.718956
1461.56, 0.717293
1461.97, 0.716688
1462.39, 0.720090
1462.8, 0.720317
1463.21, 0.717142
1463.62, 0.716688
1464.04, 0.718578
1464.45, 0.720922
1464.86, 0.720014
1465.28, 0.717368
1465.69, 0.719863
1466.11, 0.723265
1466.52, 0.720922
1466.94, 0.719107
1467.35, 0.717520
1467.77, 0.717293
1468.18, 0.716612
1468.6, 0.717898
1469.02, 0.720166
1469.43, 0.722056
1469.85, 0.718578
1470.27, 0.716234
1470.68, 0.715403
1471.1, 0.716764
1471.52, 0.717368
1471.94, 0.715705
1472.35, 0.713588
1472.77, 0.714344
1473.19, 0.716461
1473.61, 0.714798
1474.03, 0.714722
1474.45, 0.717293
1474.87, 0.718729
1475.29, 0.718578
1475.71, 0.716612
1476.13, 0.714193
1476.55, 0.713740
1476.97, 0.718200
1477.39, 0.716990
1477.81, 0.717293
1478.23, 0.716612
1478.65, 0.715705
1479.07, 0.714042
1479.5, 0.716310
1479.92, 0.716688
1480.34, 0.713740
1480.76, 0.713437
1481.19, 0.714722
1481.61, 0.712152
1482.03, 0.713740
1482.46, 0.713588
1482.88, 0.713286
1483.31, 0.714042
1483.73, 0.713740
1484.16, 0.710942
1484.58, 0.712606
1485.01, 0.711320
1485.43, 0.713513
1485.86, 0.712832
1486.28, 0.713891
1486.71, 0.714798
1487.14, 0.712379
1487.56, 0.709808
1487.99, 0.709582
1488.42, 0.707540
1488.84, 0.706784
1489.27, 0.709204
1489.7, 0.716461
1490.13, 0.713362
1490.56, 0.711018
1490.98, 0.709657
1491.41, 0.710111
1491.84, 0.712379
1492.27, 0.713588
1492.7, 0.713286
1493.13, 0.711547
1493.56, 0.711169
1493.99, 0.713740
1494.42, 0.712076
1494.85, 0.712228
1495.29, 0.710867
1495.72, 0.711094
1496.15, 0.714269
1496.58, 0.717671
1497.01, 0.714344
1497.44, 0.713286
1497.88, 0.716612
1498.31, 0.715781
1498.74, 0.713588
1499.18, 0.715856
1499.61, 0.716310
1500.04, 0.715554
1500.48, 0.715176
1500.91, 0.719258
1501.35, 0.720241
1501.78, 0.721753
1502.22, 0.721829
1502.65, 0.720997
1503.09, 0.721148
1503.53, 0.723870
1503.96, 0.725155
1504.4, 0.728860
1504.83, 0.729011
1505.27, 0.726138
1505.71, 0.727574
1506.15, 0.729767
1506.58, 0.728708
1507.02, 0.732110
1507.46, 0.731959
1507.9, 0.731354
1508.34, 0.728935
1508.78, 0.727952
1509.21, 0.732488
1509.66, 0.736495
1510.09, 0.735664
1510.53, 0.734454
1510.97, 0.734378
1511.42, 0.735512
1511.86, 0.735361
1512.3, 0.735664
1512.74, 0.734227
1513.18, 0.737176
1513.62, 0.738385
1514.06, 0.741485
1514.51, 0.739292
1514.95, 0.739292
1515.39, 0.742468
1515.83, 0.742165
1516.28, 0.737856
1516.72, 0.733849
1517.16, 0.736798
1517.61, 0.744206
1518.05, 0.743375
1518.5, 0.741258
1518.94, 0.740880
1519.39, 0.741334
1519.83, 0.740426
1520.28, 0.741938
1520.73, 0.742921
1521.17, 0.742846
1521.62, 0.740426
1522.07, 0.740124
1522.51, 0.740124
1522.96, 0.738990
1523.41, 0.740804
1523.85, 0.745870
1524.3, 0.746474
1524.75, 0.747004
1525.2, 0.746701
1525.65, 0.745718
1526.1, 0.746021
1526.55, 0.746701
1527.0, 0.747230
1527.45, 0.748516
1527.9, 0.747306
1528.35, 0.747533
1528.8, 0.748969
1529.25, 0.748213
1529.7, 0.746172
1530.15, 0.747306
1530.6, 0.749120
1531.05, 0.748667
1531.51, 0.748440
1531.96, 0.748364
1532.41, 0.748062
1532.87, 0.748591
1533.32, 0.748894
1533.77, 0.752069
1534.23, 0.751010
1534.68, 0.749196
1535.14, 0.750179
1535.59, 0.752220
1536.05, 0.752220
1536.5, 0.754790
1536.96, 0.754337
1537.41, 0.753581
1537.87, 0.753203
1538.32, 0.752220
1538.78, 0.752825
1539.24, 0.754261
1539.7, 0.754110
1540.15, 0.754790
1540.61, 0.752674
1541.07, 0.754942
1541.53, 0.755168
1541.98, 0.752447
1542.44, 0.752220
1542.9, 0.751918
1543.36, 0.751993
1543.82, 0.754639
1544.28, 0.755698
1544.74, 0.755849
1545.2, 0.756454
1545.66, 0.758192
1546.12, 0.757814
1546.59, 0.757814
1547.05, 0.756680
1547.51, 0.753883
1547.97, 0.754110
1548.43, 0.756680
1548.9, 0.758419
1549.36, 0.756000
1549.82, 0.754639
1550.29, 0.756605
1550.75, 0.756151
1551.21, 0.758117
1551.68, 0.757663
1552.14, 0.754942
1552.61, 0.753808
1553.07, 0.753052
1553.54, 0.754639
1554.0, 0.757890
1554.47, 0.755773
1554.93, 0.754337
1555.4, 0.754866
1555.87, 0.757285
1556.34, 0.756302
1556.8, 0.756529
1557.27, 0.758192
1557.74, 0.758948
1558.21, 0.755773
1558.68, 0.752749
1559.14, 0.751993
1559.61, 0.753203
1560.08, 0.756907
1560.55, 0.756151
1561.02, 0.755546
1561.49, 0.757512
1561.96, 0.757814
1562.43, 0.755924
1562.9, 0.755017
1563.38, 0.757663
1563.85, 0.758948
1564.32, 0.757436
1564.79, 0.756302
1565.26, 0.756832
1565.74, 0.756529
1566.21, 0.758041
1566.68, 0.758797
1567.16, 0.759402
1567.63, 0.757588
1568.1, 0.757058
1568.58, 0.756680
1569.05, 0.758797
1569.53, 0.757966
1570.0, 0.756378
1570.48, 0.756378
1570.96, 0.758495
1571.43, 0.756680
1571.91, 0.757134
1572.39, 0.757739
1572.86, 0.759326
1573.34, 0.759629
1573.82, 0.760914
1574.3, 0.760082
1574.77, 0.759402
1575.25, 0.756907
1575.73, 0.757814
1576.21, 0.756680
1576.69, 0.757134
1577.17, 0.756907
1577.65, 0.756680
1578.13, 0.757512
1578.61, 0.758495
1579.09, 0.757512
1579.57, 0.757134
1580.05, 0.759478
1580.54, 0.761216
1581.02, 0.760309
1581.5, 0.759931
1581.98, 0.759478
1582.47, 0.758948
1582.95, 0.757512
1583.43, 0.758041
1583.92, 0.756907
1584.4, 0.757814
1584.88, 0.759402
1585.37, 0.759100
1585.85, 0.757210
1586.34, 0.757285
1586.82, 0.758495
1587.31, 0.759175
1587.8, 0.758268
1588.28, 0.758948
1588.77, 0.760385
1589.26, 0.760460
1589.74, 0.760082
1590.23, 0.760536
1590.72, 0.759402
1591.21, 0.759100
1591.7, 0.755017
1592.19, 0.755395
1592.67, 0.759931
1593.16, 0.761292
1593.65, 0.759931
1594.14, 0.760990
1594.63, 0.759553
1595.12, 0.758041
1595.61, 0.757588
1596.11, 0.759704
1596.6, 0.758873
1597.09, 0.758722
1597.58, 0.759478
1598.08, 0.759704
1598.57, 0.760763
1599.06, 0.762124
1599.55, 0.761368
1600.05, 0.759856
1600.54, 0.760158
1601.04, 0.760763
1601.53, 0.759780
1602.03, 0.759478
1602.52, 0.760460
1603.02, 0.762275
1603.51, 0.761746
1604.01, 0.760687
1604.5, 0.759251
1605.0, 0.760082
1605.5, 0.760309
1606.0, 0.761443
1606.49, 0.760385
1606.99, 0.759100
1607.49, 0.759326
1607.99, 0.759780
1608.49, 0.759478
1608.99, 0.758495
1609.49, 0.758041
1609.99, 0.759402
1610.49, 0.759478
1610.99, 0.759175
1611.49, 0.759931
1611.99, 0.761292
1612.49, 0.759478
1612.99, 0.758570
1613.49, 0.759326
1614.0, 0.759704
1614.5, 0.761141
1615.0, 0.761065
1615.51, 0.759100
1616.01, 0.758646
1616.51, 0.759251
1617.02, 0.759553
1617.52, 0.760007
1618.03, 0.760007
1618.53, 0.759024
1619.04, 0.759478
1619.54, 0.760385
1620.05, 0.760309
1620.55, 0.758419
1621.06, 0.758646
1621.57, 0.758646
1622.08, 0.760990
1622.58, 0.760385
1623.09, 0.759478
1623.6, 0.760158
1624.11, 0.761292
1624.62, 0.759780
1625.13, 0.758797
1625.64, 0.759704
1626.15, 0.760612
1626.66, 0.758873
1627.17, 0.757814
1627.68, 0.756907
1628.19, 0.757890
1628.7, 0.757966
1629.21, 0.758419
1629.72, 0.758570
1630.24, 0.758495
1630.75, 0.756907
1631.26, 0.757663
1631.78, 0.757663
1632.29, 0.758570
1632.8, 0.761141
1633.32, 0.759856
1633.83, 0.757134
1634.35, 0.757512
1634.86, 0.758419
1635.38, 0.758495
1635.9, 0.757210
1636.41, 0.757739
1636.93, 0.757436
1637.45, 0.758344
1637.96, 0.758722
1638.48, 0.758268
1639.0, 0.756907
1639.52, 0.756151
1640.04, 0.759629
1640.56, 0.760914
1641.08, 0.759704
1641.59, 0.759553
1642.11, 0.760460
1642.63, 0.759478
1643.16, 0.757739
1643.68, 0.758948
1644.2, 0.758419
1644.72, 0.758797
1645.24, 0.758948
1645.76, 0.758722
1646.29, 0.758570
1646.81, 0.759024
1647.33, 0.756529
1647.86, 0.755320
1648.38, 0.755320
1648.9, 0.756227
1649.43, 0.757058
1649.95, 0.756907
1650.48, 0.757210
1651.0, 0.759175
1651.53, 0.760158
1652.06, 0.759478
1652.58, 0.757814
1653.11, 0.756227
1653.64, 0.755849
1654.17, 0.755471
1654.69, 0.756529
1655.22, 0.757361
1655.75, 0.757588
1656.28, 0.756302
1656.81, 0.755168
1657.34, 0.754942
1657.87, 0.754639
1658.4, 0.755849
1658.93, 0.755849
1659.46, 0.754942
1659.99, 0.754715
1660.52, 0.755244
1661.05, 0.755244
1661.59, 0.756605
1662.12, 0.757890
1662.65, 0.757361
1663.19, 0.756227
1663.72, 0.757663
1664.26, 0.757285
1664.79, 0.756000
1665.32, 0.755017
1665.86, 0.756302
1666.39, 0.756832
1666.93, 0.757588
1667.47, 0.756907
1668.0, 0.755924
1668.54, 0.754337
1669.08, 0.752144
1669.61, 0.754639
1670.15, 0.757210
1670.69, 0.756302
1671.23, 0.756000
1671.77, 0.755244
1672.31, 0.755773
1672.85, 0.756907
1673.39, 0.756680
1673.93, 0.755924
1674.47, 0.755698
1675.01, 0.754186
1675.55, 0.754261
1676.09, 0.753959
1676.64, 0.753732
1677.18, 0.754790
1677.72, 0.754715
1678.26, 0.754110
1678.81, 0.754110
1679.35, 0.752674
1679.89, 0.752976
1680.44, 0.753959
1680.98, 0.754488
1681.53, 0.753959
1682.07, 0.754261
1682.62, 0.753656
1683.17, 0.754034
1683.71, 0.754110
1684.26, 0.752749
1684.81, 0.752220
1685.36, 0.753581
1685.9, 0.751993
1686.45, 0.751162
1687.0, 0.751237
1687.55, 0.751691
1688.1, 0.752674
1688.65, 0.752447
1689.2, 0.751842
1689.75, 0.751540
1690.3, 0.750935
1690.85, 0.751237
1691.41, 0.749498
1691.96, 0.749801
1692.51, 0.749876
1693.06, 0.749272
1693.61, 0.748591
1694.17, 0.749876
1694.72, 0.751010
1695.28, 0.751162
1695.83, 0.751993
1696.39, 0.752371
1696.94, 0.751313
1697.5, 0.751237
1698.05, 0.749498
1698.61, 0.747911
1699.17, 0.749347
1699.72, 0.750254
1700.28, 0.749347
1700.84, 0.748062
1701.4, 0.748742
1701.95, 0.749272
1702.51, 0.748062
1703.07, 0.747230
1703.63, 0.746626
1704.19, 0.746701
1704.75, 0.747306
1705.31, 0.747608
1705.88, 0.747608
1706.44, 0.747230
1707.0, 0.747457
1707.56, 0.748213
1708.12, 0.747911
1708.69, 0.747457
1709.25, 0.746021
1709.81, 0.745945
1710.38, 0.745416
1710.94, 0.745870
1711.51, 0.747986
1712.07, 0.746928
1712.64, 0.745416
1713.2, 0.744736
1713.77, 0.744206
1714.34, 0.745114
1714.9, 0.744509
1715.47, 0.743980
1716.04, 0.743904
1716.61, 0.743299
1717.18, 0.742014
1717.74, 0.741334
1718.31, 0.741863
1718.88, 0.742090
1719.45, 0.740200
1720.02, 0.739141
1720.59, 0.741258
1721.17, 0.739973
1721.74, 0.739141
1722.31, 0.738839
1722.88, 0.739217
1723.45, 0.739670
1724.03, 0.741938
1724.6, 0.741258
1725.18, 0.738536
1725.75, 0.737176
1726.33, 0.736268
1726.9, 0.734000
1727.48, 0.734983
1728.05, 0.735815
1728.63, 0.736798
1729.2, 0.735739
1729.78, 0.735059
1730.36, 0.735588
1730.94, 0.735361
1731.51, 0.731884
1732.09, 0.730220
1732.67, 0.731430
1733.25, 0.730069
1733.83, 0.729389
1734.41, 0.729238
1734.99, 0.729011
1735.57, 0.727423
1736.15, 0.726440
1736.73, 0.727196
1737.32, 0.727045
1737.9, 0.724248
1738.48, 0.721753
1739.07, 0.722207
1739.65, 0.723643
1740.23, 0.724399
1740.82, 0.723719
1741.4, 0.720770
1741.99, 0.718502
1742.57, 0.721224
1743.16, 0.718276
1743.74, 0.713437
1744.33, 0.716764
1744.92, 0.724626
1745.51, 0.723038
1746.09, 0.714722
1746.68, 0.712530
1747.27, 0.714420
1747.86, 0.713664
1748.45, 0.713740
1749.04, 0.716234
1749.63, 0.714193
1750.22, 0.708448
1750.81, 0.708599
1751.4, 0.711320
1751.99, 0.714420
1752.59, 0.715630
1753.18, 0.708750
1753.77, 0.702702
1754.37, 0.706633
1754.96, 0.712001
1755.56, 0.711169
1756.15, 0.711169
1756.74, 0.712757
1757.34, 0.708750
1757.94, 0.704970
1758.53, 0.704365
1759.13, 0.705877
1759.73, 0.705197
1760.32, 0.705197
1760.92, 0.704894
1761.52, 0.702097
1762.12, 0.704441
1762.72, 0.705197
1763.32, 0.705953
1763.92, 0.705499
1764.52, 0.704743
1765.12, 0.702475
1765.72, 0.702022
1766.32, 0.703080
1766.92, 0.705424
1767.53, 0.706936
1768.13, 0.705953
1768.73, 0.703307
1769.34, 0.703987
1769.94, 0.702626
1770.55, 0.701568
1771.15, 0.703080
1771.76, 0.704592
1772.36, 0.706406
1772.97, 0.708221
1773.57, 0.706784
1774.18, 0.706633
1774.79, 0.707540
1775.4, 0.707843
1776.0, 0.709506
1776.61, 0.710489
1777.22, 0.708674
1777.83, 0.709128
1778.44, 0.709808
1779.05, 0.711774
1779.66, 0.712681
1780.27, 0.713740
1780.88, 0.714193
1781.5, 0.715403
1782.11, 0.717217
1782.72, 0.718049
1783.33, 0.717746
1783.95, 0.717293
1784.56, 0.717293
1785.18, 0.718427
1785.79, 0.719485
1786.41, 0.720997
1787.02, 0.722434
1787.64, 0.723416
1788.26, 0.722509
1788.87, 0.722434
1789.49, 0.724324
1790.11, 0.725231
1790.73, 0.725155
1791.35, 0.726440
1791.96, 0.725987
1792.58, 0.727045
1793.21, 0.729011
1793.83, 0.729011
1794.45, 0.729086
1795.07, 0.728935
1795.69, 0.729691
1796.31, 0.730750
1796.93, 0.730825
1797.56, 0.731128
1798.18, 0.730976
1798.8, 0.731657
1799.43, 0.731657
1800.05, 0.732337
1800.68, 0.731732
1801.3, 0.731203
1801.93, 0.731959
1802.56, 0.733849
1803.18, 0.734000
1803.81, 0.734076
1804.44, 0.733622
1805.07, 0.733471
1805.7, 0.732791
1806.33, 0.733698
1806.95, 0.734681
1807.58, 0.735361
1808.22, 0.734303
1808.85, 0.734076
1809.48, 0.734983
1810.11, 0.735210
1810.74, 0.734681
1811.38, 0.734303
1812.01, 0.735134
1812.64, 0.734832
1813.28, 0.734908
1813.91, 0.735512
1814.55, 0.734908
1815.18, 0.734530
1815.82, 0.733547
1816.45, 0.733622
1817.09, 0.735210
1817.73, 0.736344
1818.36, 0.735966
1819.0, 0.735739
1819.64, 0.734908
1820.28, 0.733169
1820.92, 0.733093
1821.56, 0.733169
1822.2, 0.733849
1822.84, 0.736117
1823.48, 0.735361
1824.12, 0.734227
1824.76, 0.734756
1825.41, 0.734378
1826.05, 0.733320
1826.69, 0.734832
1827.34, 0.735286
1827.98, 0.734454
1828.63, 0.733774
1829.27, 0.734454
1829.92, 0.734605
1830.56, 0.733018
1831.21, 0.732488
1831.86, 0.734454
1832.5, 0.734983
1833.15, 0.733698
1833.8, 0.733093
1834.45, 0.731506
1835.1, 0.729767
1835.75, 0.730447
1836.4, 0.731506
1837.05, 0.732035
1837.7, 0.730069
1838.35, 0.730220
1839.01, 0.730145
1839.66, 0.729389
1840.31, 0.730372
1840.96, 0.730069
1841.62, 0.727045
1842.27, 0.728406
1842.93, 0.730372
1843.58, 0.731354
1844.24, 0.730372
1844.9, 0.730069
1845.55, 0.730069
1846.21, 0.729540
1846.87, 0.727499
1847.53, 0.727423
1848.18, 0.727726
1848.84, 0.727272
1849.5, 0.727196
1850.16, 0.727952
1850.82, 0.727348
1851.48, 0.726818
1852.14, 0.725533
1852.81, 0.723719
1853.47, 0.723114
1854.13, 0.724550
1854.8, 0.725609
1855.46, 0.724853
1856.12, 0.722887
1856.79, 0.722736
1857.45, 0.722963
1858.12, 0.722887
1858.79, 0.721602
1859.45, 0.720241
1860.12, 0.720392
1860.79, 0.720392
1861.46, 0.719939
1862.12, 0.721148
1862.79, 0.720392
1863.46, 0.718956
1864.13, 0.718351
1864.8, 0.718200
1865.48, 0.717520
1866.15, 0.717217
1866.82, 0.716537
1867.49, 0.714949
1868.16, 0.714798
1868.84, 0.715025
1869.51, 0.713513
1870.19, 0.712001
1870.86, 0.710413
1871.54, 0.711547
1872.21, 0.711774
1872.89, 0.709128
1873.56, 0.708448
1874.24, 0.709506
1874.92, 0.708901
1875.6, 0.709430
1876.28, 0.708977
1876.96, 0.707011
1877.64, 0.704365
1878.32, 0.703382
1879.0, 0.703912
1879.68, 0.703760
1880.36, 0.702097
1881.04, 0.700358
1881.73, 0.698393
1882.41, 0.698090
1883.09, 0.696956
1883.78, 0.694764
1884.46, 0.693328
1885.15, 0.692194
1885.83, 0.692042
1886.52, 0.691664
1887.21, 0.690304
1887.89, 0.688716
1888.58, 0.687204
1889.27, 0.684482
1889.96, 0.682441
1890.65, 0.682290
1891.34, 0.681080
1892.03, 0.680249
1892.72, 0.678737
1893.41, 0.677376
1894.1, 0.674881
1894.79, 0.672613
1895.49, 0.671328
1896.18, 0.670572
1896.87, 0.668304
1897.57, 0.665960
1898.26, 0.663768
1898.96, 0.661273
1899.65, 0.659912
1900.35, 0.657796
1901.05, 0.656284
1901.74, 0.655906
1902.44, 0.654091
1903.14, 0.652126
1903.84, 0.650765
1904.54, 0.648950
1905.24, 0.647363
1905.94, 0.646153
1906.64, 0.643810
1907.34, 0.642751
1908.04, 0.642676
1908.75, 0.642222
1909.45, 0.640710
1910.15, 0.638064
1910.86, 0.636930
1911.56, 0.635494
1912.27, 0.634133
1912.97, 0.632772
1913.68, 0.631109
1914.39, 0.631562
1915.09, 0.629748
1915.8, 0.627631
1916.51, 0.627480
1917.22, 0.627631
1917.93, 0.625741
1918.64, 0.624305
1919.35, 0.624002
1920.06, 0.623851
1920.77, 0.623095
1921.48, 0.623095
1922.19, 0.623322
1922.91, 0.623020
1923.62, 0.621961
1924.33, 0.622566
1925.05, 0.623246
1925.76, 0.623700
1926.48, 0.623322
1927.19, 0.622415
1927.91, 0.622188
1928.63, 0.623171
1929.35, 0.623020
1930.07, 0.622717
1930.78, 0.622037
1931.5, 0.622188
1932.22, 0.623095
1932.94, 0.624532
1933.66, 0.623700
1934.39, 0.622642
1935.11, 0.623095
1935.83, 0.624305
1936.55, 0.624380
1937.28, 0.623246
1938.0, 0.623549
1938.73, 0.625061
1939.45, 0.625514
1940.18, 0.626119
1940.9, 0.626573
1941.63, 0.627178
1942.36, 0.626800
1943.09, 0.627253
1943.81, 0.627707
1944.54, 0.627934
1945.27, 0.627707
1946.0, 0.627782
1946.73, 0.627934
1947.47, 0.628236
1948.2, 0.627934
1948.93, 0.627858
1949.66, 0.628690
1950.4, 0.628992
1951.13, 0.628841
1951.86, 0.628841
1952.6, 0.628614
1953.34, 0.629446
1954.07, 0.629446
1954.81, 0.629143
1955.55, 0.630050
1956.29, 0.629824
1957.02, 0.629672
1957.76, 0.629975
1958.5, 0.629370
1959.24, 0.629294
1959.98, 0.628916
1960.72, 0.629143
1961.47, 0.629672
1962.21, 0.630504
1962.95, 0.630655
1963.7, 0.630353
1964.44, 0.630353
1965.18, 0.630806
1965.93, 0.631184
1966.67, 0.630882
1967.42, 0.630504
1968.17, 0.630806
1968.92, 0.630428
1969.66, 0.629975
1970.41, 0.629521
1971.16, 0.629219
1971.91, 0.630202
1972.66, 0.631638
1973.41, 0.631109
1974.16, 0.630806
1974.92, 0.630655
1975.67, 0.630731
1976.42, 0.630655
1977.18, 0.631487
1977.93, 0.631638
1978.69, 0.631487
1979.44, 0.631940
1980.2, 0.631260
1980.95, 0.630504
1981.71, 0.630806
1982.47, 0.631638
1983.23, 0.632092
1983.99, 0.631562
1984.74, 0.631714
1985.51, 0.631562
1986.27, 0.631638
1987.03, 0.630958
1987.79, 0.630655
1988.55, 0.630806
1989.32, 0.629975
1990.08, 0.629219
1990.84, 0.629370
1991.61, 0.629521
1992.37, 0.629597
1993.14, 0.629824
1993.9, 0.629899
1994.67, 0.629975
1995.44, 0.630202
1996.21, 0.629672
1996.98, 0.629446
1997.75, 0.628992
1998.52, 0.628690
1999.29, 0.628538
2000.06, 0.628916
2000.83, 0.629219
2001.6, 0.628690
2002.38, 0.628387
2003.15, 0.628312
2003.93, 0.628614
2004.7, 0.628690
2005.48, 0.627858
2006.25, 0.628009
2007.03, 0.628085
2007.81, 0.627556
2008.58, 0.627026
2009.36, 0.627631
2010.14, 0.627253
2010.92, 0.626875
2011.7, 0.626875
2012.48, 0.627556
2013.26, 0.627631
2014.05, 0.627178
2014.83, 0.626573
2015.61, 0.626724
2016.4, 0.627026
2017.18, 0.627782
2017.97, 0.627556
2018.75, 0.627102
2019.54, 0.626724
2020.32, 0.626951
2021.11, 0.627102
2021.9, 0.626875
2022.69, 0.626951
2023.48, 0.627253
2024.27, 0.626951
2025.06, 0.627404
2025.85, 0.627631
2026.64, 0.627329
2027.44, 0.627026
2028.23, 0.626875
2029.02, 0.625817
2029.82, 0.625590
2030.61, 0.626422
2031.41, 0.626044
2032.2, 0.625439
2033.0, 0.625741
2033.8, 0.624985
2034.6, 0.624380
2035.4, 0.624910
2036.2, 0.625212
2037.0, 0.624683
2037.8, 0.624229
2038.6, 0.624002
2039.4, 0.623398
2040.2, 0.622944
2041.01, 0.623398
2041.81, 0.622868
2042.61, 0.621583
2043.42, 0.621054
2044.22, 0.621356
2045.03, 0.621659
2045.84, 0.621583
2046.65, 0.621356
2047.46, 0.621356
2048.26, 0.620676
2049.07, 0.621356
2049.88, 0.621281
2050.69, 0.619844
2051.51, 0.619618
2052.32, 0.619769
2053.13, 0.619466
2053.94, 0.619542
2054.76, 0.619466
2055.57, 0.619391
2056.39, 0.618559
2057.2, 0.617652
2058.02, 0.618332
2058.84, 0.619315
2059.66, 0.618786
2060.48, 0.618030
2061.29, 0.617501
2062.11, 0.617803
2062.94, 0.617879
2063.76, 0.617274
2064.58, 0.616518
2065.4, 0.616442
2066.22, 0.616594
2067.05, 0.616745
2067.87, 0.616669
2068.7, 0.616896
2069.52, 0.616518
2070.35, 0.616064
2071.18, 0.615384
2072.0, 0.614477
2072.83, 0.614552
2073.66, 0.615611
2074.49, 0.614704
2075.32, 0.614477
2076.15, 0.614326
2076.98, 0.613343
2077.82, 0.613040
2078.65, 0.613418
2079.48, 0.613494
2080.32, 0.613267
2081.15, 0.613418
2081.99, 0.613948
2082.83, 0.613040
2083.66, 0.612814
2084.5, 0.612587
2085.34, 0.611906
2086.18, 0.612436
2087.02, 0.612058
2087.86, 0.611453
2088.7, 0.610772
2089.54, 0.610168
2090.39, 0.610697
2091.23, 0.610697
2092.07, 0.610319
2092.92, 0.610243
2093.76, 0.610092
2094.61, 0.609790
2095.45, 0.610016
2096.3, 0.609638
2097.15, 0.609109
2098.0, 0.608882
2098.85, 0.608051
2099.7, 0.607144
2100.55, 0.606614
2101.4, 0.605858
2102.25, 0.606463
2103.1, 0.606085
2103.96, 0.605254
2104.81, 0.604573
2105.67, 0.605102
2106.52, 0.604271
2107.38, 0.603137
2108.24, 0.602230
2109.09, 0.602381
2109.95, 0.602154
2110.81, 0.601549
2111.67, 0.600491
2112.53, 0.599735
2113.39, 0.598752
2114.25, 0.598223
2115.12, 0.597240
2115.98, 0.596484
2116.84, 0.595501
2117.71, 0.594140
2118.58, 0.592855
2119.44, 0.592099
2120.31, 0.591041
2121.18, 0.589151
2122.04, 0.588470
2122.91, 0.587110
2123.78, 0.585371
2124.65, 0.584539
2125.52, 0.582649
2126.4, 0.580457
2127.27, 0.579247
2128.14, 0.577433
2129.02, 0.575240
2129.89, 0.574182
2130.77, 0.572443
2131.64, 0.570251
2132.52, 0.568588
2133.4, 0.566395
2134.27, 0.563900
2135.15, 0.562162
2136.03, 0.560650
2136.91, 0.558986
2137.79, 0.556643
2138.68, 0.554602
2139.56, 0.552334
2140.44, 0.550292
2141.33, 0.548402
2142.21, 0.546664
2143.1, 0.543866
2143.99, 0.541674
2144.87, 0.539482
2145.76, 0.537138
2146.65, 0.535097
2147.54, 0.532980
2148.43, 0.530561
2149.32, 0.528368
2150.21, 0.526025
2151.1, 0.523379
2151.99, 0.520884
2152.89, 0.518692
2153.78, 0.516348
2154.68, 0.514760
2155.57, 0.512417
2156.47, 0.510451
2157.37, 0.508712
2158.27, 0.507503
2159.16, 0.505386
2160.06, 0.503874
2160.96, 0.503194
2161.86, 0.502438
2162.77, 0.501001
2163.67, 0.499792
2164.57, 0.498960
2165.48, 0.497977
2166.38, 0.497070
2167.29, 0.496163
2168.2, 0.495256
2169.1, 0.494878
2170.01, 0.494424
2170.92, 0.494046
2171.83, 0.493517
2172.74, 0.493366
2173.65, 0.493139
2174.56, 0.493290
2175.47, 0.494273
2176.39, 0.495104
2177.3, 0.494726
2178.22, 0.495407
2179.13, 0.496314
2180.05, 0.497372
2180.96, 0.497826
2181.88, 0.498884
2182.8, 0.500396
2183.72, 0.501984
2184.64, 0.503118
2185.56, 0.504101
2186.48, 0.505462
2187.41, 0.507200
2188.33, 0.508334
2189.25, 0.509544
2190.18, 0.510678
2191.1, 0.512719
2192.03, 0.514382
2192.96, 0.515819
2193.89, 0.517331
2194.82, 0.519372
2195.74, 0.521413
2196.68, 0.523454
2197.61, 0.525269
2198.54, 0.527537
2199.47, 0.529427
2200.4, 0.530636
2201.34, 0.531544
2202.28, 0.532073
2203.21, 0.533207
2204.15, 0.534719
2205.08, 0.535399
2206.02, 0.535702
2206.96, 0.536155
2207.9, 0.536760
2208.84, 0.536458
2209.78, 0.536836
2210.73, 0.538272
2211.67, 0.539406
2212.61, 0.539330
2213.56, 0.539330
2214.5, 0.540238
2215.45, 0.541750
2216.4, 0.543337
2217.35, 0.545076
2218.3, 0.546966
2219.24, 0.549385
2220.2, 0.552031
2221.15, 0.555282
2222.1, 0.558155
2223.05, 0.560423
2224.0, 0.562993
2224.96, 0.565790
2225.91, 0.568210
2226.87, 0.570251
2227.83, 0.572519
2228.79, 0.574484
2229.74, 0.575921
2230.7, 0.577282
2231.66, 0.579323
2232.63, 0.581818
2233.59, 0.583103
2234.55, 0.584615
2235.51, 0.586202
2236.48, 0.588244
2237.44, 0.590058
2238.41, 0.591116
2239.38, 0.592855
2240.34, 0.594670
2241.31, 0.596560
2242.28, 0.598072
2243.25, 0.597996
2244.22, 0.598752
2245.19, 0.599810
2246.17, 0.601096
2247.14, 0.601625
2248.12, 0.602532
2249.09, 0.603137
2250.07, 0.603515
2251.04, 0.604195
2252.02, 0.605405
2253.0, 0.605329
2253.98, 0.605329
2254.96, 0.605329
2255.94, 0.605405
2256.92, 0.605405
2257.91, 0.605632
2258.89, 0.605707
2259.88, 0.605254
2260.86, 0.605556
2261.85, 0.605707
2262.83, 0.604951
2263.82, 0.605102
2264.81, 0.605254
2265.8, 0.605480
2266.79, 0.605178
2267.78, 0.605027
2268.78, 0.604724
2269.77, 0.604120
2270.76, 0.603439
2271.76, 0.602834
2272.75, 0.602381
2273.75, 0.602305
2274.75, 0.601020
2275.75, 0.600944
2276.75, 0.600793
2277.75, 0.599735
2278.75, 0.597920
2279.75, 0.597769
2280.75, 0.598223
2281.76, 0.596635
2282.76, 0.595048
2283.77, 0.595048
2284.77, 0.594518
2285.78, 0.593687
2286.79, 0.592780
2287.8, 0.591948
2288.81, 0.591192
2289.82, 0.590285
2290.83, 0.588924
2291.84, 0.588395
2292.86, 0.587488
2293.87, 0.586127
2294.89, 0.584388
2295.91, 0.582649
2296.92, 0.581440
2297.94, 0.580003
2298.96, 0.578491
2299.98, 0.577206
2301.0, 0.575694
2302.02, 0.574258
2303.04, 0.571687
2304.07, 0.569646
2305.09, 0.567680
2306.12, 0.565337
2307.15, 0.564127
2308.17, 0.562540
2309.2, 0.559591
2310.23, 0.556870
2311.26, 0.554148
2312.29, 0.551426
2313.32, 0.548629
2314.35, 0.546059
2315.39, 0.543337
2316.42, 0.540842
2317.46, 0.538877
2318.5, 0.537138
2319.53, 0.534870
2320.57, 0.532753
2321.61, 0.531166
2322.65, 0.529200
2323.69, 0.527537
2324.73, 0.527310
2325.78, 0.527083
2326.82, 0.526478
2327.86, 0.526025
2328.91, 0.525571
2329.96, 0.525571
2331.01, 0.525949
2332.05, 0.525571
2333.1, 0.525496
2334.15, 0.525344
2335.21, 0.526100
2336.26, 0.526554
2337.31, 0.526554
2338.36, 0.526252
2339.42, 0.526327
2340.48, 0.526856
2341.53, 0.527764
2342.59, 0.528066
2343.65, 0.527461
2344.71, 0.527537
2345.77, 0.527764
2346.83, 0.528671
2347.9, 0.529427
2348.96, 0.529276
2350.02, 0.529124
2351.09, 0.528746
2352.16, 0.528595
2353.23, 0.528595
2354.29, 0.528822
2355.36, 0.528293
2356.43, 0.527688
2357.51, 0.527537
2358.58, 0.527159
2359.65, 0.526478
2360.73, 0.525193
2361.8, 0.524513
2362.88, 0.524588
2363.96, 0.523606
2365.03, 0.522547
2366.11, 0.521867
2367.19, 0.520733
2368.27, 0.519599
2369.36, 0.518087
2370.44, 0.515894
2371.53, 0.514307
2372.61, 0.512795
2373.7, 0.511207
2374.78, 0.509393
2375.87, 0.507578
2376.96, 0.505386
2378.05, 0.503118
2379.14, 0.501304
2380.24, 0.499036
2381.33, 0.496541
2382.42, 0.494273
2383.52, 0.491098
2384.61, 0.488300
2385.71, 0.485654
2386.81, 0.483538
2387.91, 0.481421
2389.01, 0.478775
2390.11, 0.475978
2391.22, 0.473558
2392.32, 0.471064
2393.42, 0.468342
2394.53, 0.466376
2395.64, 0.464713
2396.74, 0.462899
2397.85, 0.461084
2398.96, 0.459346
2400.07, 0.458212
2401.18, 0.456926
2402.3, 0.456019
2403.41, 0.454961
2404.52, 0.453449
2405.64, 0.452239
2406.76, 0.451181
2407.88, 0.450198
2408.99, 0.449442
2410.11, 0.448232
2411.23, 0.447325
2412.36, 0.446720
2413.48, 0.445511
2414.6, 0.443848
2415.73, 0.442336
2416.85, 0.441353
2417.98, 0.440370
2419.11, 0.439160
2420.24, 0.437119
2421.37, 0.434549
2422.5, 0.432281
2423.64, 0.430240
2424.77, 0.428803
2425.9, 0.426913
2427.04, 0.424494
2428.18, 0.422075
2429.31, 0.419656
2430.45, 0.416556
2431.59, 0.413532
2432.73, 0.410735
2433.88, 0.407635
2435.02, 0.405292
2436.16, 0.402872
2437.31, 0.400075
2438.45, 0.397732
2439.6, 0.396068
2440.75, 0.393725
2441.9, 0.391457
2443.05, 0.389642
2444.2, 0.388130
2445.35, 0.386845
2446.51, 0.385484
2447.67, 0.383972
2448.82, 0.382536
2449.98, 0.381856
2451.14, 0.381931
2452.3, 0.381251
2453.46, 0.380192
2454.62, 0.379966
2455.78, 0.379966
2456.94, 0.379436
2458.11, 0.379285
2459.28, 0.379436
2460.44, 0.379058
2461.61, 0.378378
2462.78, 0.377773
2463.95, 0.377698
2465.12, 0.377244
2466.3, 0.376639
2467.47, 0.376337
2468.65, 0.376639
2469.82, 0.376412
2471.0, 0.375883
2472.18, 0.375278
2473.36, 0.374976
2474.54, 0.374144
2475.72, 0.373918
2476.9, 0.373464
2478.08, 0.373010
2479.27, 0.372859
2480.46, 0.372028
2481.64, 0.371347
2482.83, 0.370742
2484.02, 0.370213
2485.21, 0.369684
2486.4, 0.368777
2487.6, 0.367945
2488.79, 0.367567
2489.99, 0.367114
2491.18, 0.365980
2492.38, 0.364846
2493.58, 0.364014
2494.78, 0.362578
2495.98, 0.360688
2497.18, 0.359705
2498.39, 0.358571
2499.59, 0.357512
2500.8, 0.356227
2502.01, 0.354715
2503.21, 0.353732
2504.42, 0.352750
2505.63, 0.351767
2506.84, 0.351011
2508.06, 0.349801
2509.27, 0.348667
2510.49, 0.347306
2511.7, 0.346097
2512.92, 0.345190
2514.14, 0.343753
2515.36, 0.342090
2516.58, 0.340578
2517.8, 0.338839
2519.03, 0.337176
2520.25, 0.336118
2521.48, 0.335362
2522.7, 0.334454
2523.93, 0.333698
2525.16, 0.333320
2526.39, 0.333245
2527.62, 0.333396
2528.86, 0.334076
2530.09, 0.334757
2531.33, 0.335362
2532.56, 0.336344
2533.8, 0.337856
2535.04, 0.338915
2536.28, 0.340502
2537.52, 0.342468
2538.76, 0.344131
2540.01, 0.345946
2541.25, 0.347080
2542.5, 0.347231
2543.75, 0.348667
2544.99, 0.350179
2546.24, 0.350935
2547.49, 0.350708
2548.75, 0.352069
2550.0, 0.352296
2551.26, 0.351616
2552.51, 0.351994
2553.77, 0.353808
2555.03, 0.354791
2556.29, 0.355169
2557.55, 0.355244
2558.81, 0.354640
2560.08, 0.351994
2561.34, 0.350104
2562.61, 0.349952
2563.88, 0.350482
2565.14, 0.353203
2566.41, 0.355244
2567.68, 0.354186
2568.96, 0.351767
2570.23, 0.352447
2571.51, 0.353581
2572.78, 0.350330
2574.06, 0.351616
2575.34, 0.352976
2576.62, 0.351842
2577.9, 0.353808
2579.18, 0.355169
2580.47, 0.353657
2581.75, 0.352901
2583.04, 0.348894
2584.32, 0.349423
2585.61, 0.352296
2586.9, 0.350784
2588.2, 0.351767
2589.49, 0.352901
2590.78, 0.353581
2592.08, 0.351842
2593.37, 0.342166
2594.67, 0.335437
2595.97, 0.343829
2597.27, 0.352069
2598.57, 0.354942
2599.88, 0.354640
2601.18, 0.353354
2602.49, 0.352901
2603.79, 0.350708
2605.1, 0.347458
2606.41, 0.351238
2607.72, 0.355622
2609.03, 0.356756
2610.35, 0.358420
2611.66, 0.359780
2612.98, 0.359554
2614.3, 0.359780
2615.62, 0.355698
2616.94, 0.354564
2618.26, 0.358042
2619.58, 0.354488
2620.91, 0.355698
2622.23, 0.361217
2623.56, 0.362351
2624.89, 0.359932
2626.22, 0.355622
2627.55, 0.357890
2628.88, 0.356152
2630.21, 0.351842
2631.55, 0.356227
2632.89, 0.358117
2634.22, 0.357890
2635.56, 0.359478
2636.9, 0.359251
2638.25, 0.358495
2639.59, 0.357588
2640.93, 0.356378
2642.28, 0.355244
2643.63, 0.354262
2644.98, 0.351464
2646.33, 0.350784
2647.68, 0.350633
2649.03, 0.349348
2650.39, 0.346777
2651.74, 0.342695
2653.1, 0.341107
2654.46, 0.340427
2655.82, 0.338612
2657.18, 0.337705
2658.54, 0.333925
2659.9, 0.331052
2661.27, 0.329238
2662.64, 0.326138
2664.01, 0.317369
2665.38, 0.310565
2666.74, 0.308675
2668.12, 0.309204
2669.49, 0.300283
2670.87, 0.296881
2672.24, 0.301568
2673.62, 0.298696
2675.0, 0.291514
2676.38, 0.284785
2677.76, 0.281232
2679.15, 0.277376
2680.54, 0.275638
2681.92, 0.270724
2683.31, 0.264222
2684.7, 0.258098
2686.09, 0.250992
2687.48, 0.243130
2688.88, 0.234587
2690.27, 0.224910
2691.67, 0.213116
2693.07, 0.199357
2694.47, 0.188546
2695.87, 0.179474
2697.27, 0.171083
2698.67, 0.162389
2700.08, 0.154224
2701.49, 0.147647
2702.9, 0.142582
2704.31, 0.138197
2705.72, 0.135097
2707.13, 0.133132
2708.54, 0.131544
2709.96, 0.129654
2711.38, 0.129956
2712.8, 0.131998
2714.22, 0.131317
2715.64, 0.129200
2717.06, 0.126554
2718.49, 0.122850
2719.91, 0.117860
2721.34, 0.116046
2722.77, 0.113627
2724.2, 0.109696
2725.63, 0.108259
2727.07, 0.106747
2728.5, 0.104706
2729.94, 0.102816
2731.38, 0.101153
2732.82, 0.0988090
2734.26, 0.0958610
2735.7, 0.0939710
2737.15, 0.0920810
2738.59, 0.0888300
2740.04, 0.0864860
2741.49, 0.0857300
2742.94, 0.0851260
2744.39, 0.0834620
2745.84, 0.0815720
2747.3, 0.0793800
2748.76, 0.0768850
2750.21, 0.0746930
2751.67, 0.0721980
2753.14, 0.0696280
2754.6, 0.0664520
2756.06, 0.0645620
2757.53, 0.0635040
2759.0, 0.0613870
2760.46, 0.0595730
2761.94, 0.0585900
2763.41, 0.0585900
2764.88, 0.0588170
2766.36, 0.0579850
2767.83, 0.0571540
2769.31, 0.0564730
2770.79, 0.0551880
2772.27, 0.0539780
2773.76, 0.0526180
2775.24, 0.0511810
2776.73, 0.0498200
2778.22, 0.0483840
2779.71, 0.0468720
2781.2, 0.0455110
2782.69, 0.0444530
2784.18, 0.0432430
2785.68, 0.0419580
2787.18, 0.0410510
2788.68, 0.0401440
2790.18, 0.0389340
2791.68, 0.0376490
2793.19, 0.0368170
2794.69, 0.0359100
2796.2, 0.0347760
2797.71, 0.0337930
2799.22, 0.0325840
2800.73, 0.0313740
2802.24, 0.0303160
2803.76, 0.0297110
2805.28, 0.0290300
2806.8, 0.0281990
2808.32, 0.0272920
2809.84, 0.0262330
2811.36, 0.0250990
2812.89, 0.0244190
2814.42, 0.0238900
2815.94, 0.0226800
2817.48, 0.0214700
2819.01, 0.0204880
2820.54, 0.0195050
2822.08, 0.0185220
2823.61, 0.0175390
2825.15, 0.0166320
2826.69, 0.0158000
2828.23, 0.0148930
2829.78, 0.0139860
2831.32, 0.0132300
2832.87, 0.0123230
2834.42, 0.0117940
2835.97, 0.0112640
2837.52, 0.0107350
2839.08, 0.0102060
2840.63, 0.00960100
2842.19, 0.00907200
2843.75, 0.00846700
2845.31, 0.00831600
2846.87, 0.00831600
2848.44, 0.00786200
2850.0, 0.00718200
2851.57, 0.00680400
2853.14, 0.00672800
2854.71, 0.00680400
2856.28, 0.00672800
2857.86, 0.00672800
2859.43, 0.00725800
2861.01, 0.00740900
2862.59, 0.00748400
2864.17, 0.00778700
2865.76, 0.00786200
2867.34, 0.00824000
2868.93, 0.00877000
2870.52, 0.00907200
2872.11, 0.00907200
2873.7, 0.00922300
2875.29, 0.00922300
2876.89, 0.00907200
2878.49, 0.00899600
2880.08, 0.00914800
2881.69, 0.00899600
2883.29, 0.00899600
2884.89, 0.00922300
2886.5, 0.00952600
2888.11, 0.0100550
2889.72, 0.0102060
2891.33, 0.0104330
2892.94, 0.0109620
2894.56, 0.0116420
2896.17, 0.0122470
2897.79, 0.0130790
2899.42, 0.0134570
2901.04, 0.0137590
2902.66, 0.0143640
2904.29, 0.0151200
2905.92, 0.0157250
2907.55, 0.0166320
2909.18, 0.0170860
2910.81, 0.0176900
2912.45, 0.0182200
2914.08, 0.0189000
2915.72, 0.0198070
2917.36, 0.0205630
2919.01, 0.0208660
2920.65, 0.0213950
2922.3, 0.0220000
2923.94, 0.0227560
2925.59, 0.0235120
2927.25, 0.0240410
2928.9, 0.0244940
2930.56, 0.0251750
2932.21, 0.0257800
2933.87, 0.0263090
2935.53, 0.0266110
2937.2, 0.0270650
2938.86, 0.0275180
2940.53, 0.0279720
2942.2, 0.0285770
2943.87, 0.0287280
2945.54, 0.0288790
2947.22, 0.0292570
2948.89, 0.0297110
2950.57, 0.0300890
2952.25, 0.0303910
2953.93, 0.0306940
2955.62, 0.0310720
2957.3, 0.0312230
2958.99, 0.0313740
2960.68, 0.0316760
2962.37, 0.0318280
2964.07, 0.0321300
2965.76, 0.0323570
2967.46, 0.0326590
2969.16, 0.0326590
2970.86, 0.0329620
2972.56, 0.0332640
2974.27, 0.0334150
2975.98, 0.0334150
2977.69, 0.0338690
2979.4, 0.0343980
2981.11, 0.0345490
2982.83, 0.0345490
2984.54, 0.0347760
2986.26, 0.0351540
2987.98, 0.0352300
2989.71, 0.0350780
2991.43, 0.0354560
2993.16, 0.0359100
2994.89, 0.0361370
2996.62, 0.0362120
2998.35, 0.0365150
3000.09, 0.0368930
3001.83, 0.0369680
3003.57, 0.0369680
3005.31, 0.0369680
3007.05, 0.0373460
3008.79, 0.0378000
3010.54, 0.0380270
3012.29, 0.0382540
3014.04, 0.0384800
3015.8, 0.0386320
3017.55, 0.0387830
3019.31, 0.0392360
3021.07, 0.0393880
3022.83, 0.0392360
3024.59, 0.0393120
3026.36, 0.0397660
3028.13, 0.0399920
3029.9, 0.0399920
3031.67, 0.0402190
3033.44, 0.0403700
3035.22, 0.0409000
3037.0, 0.0413530
3038.78, 0.0411260
3040.56, 0.0409750
3042.34, 0.0412780
3044.13, 0.0414290
3045.92, 0.0413530
3047.71, 0.0415040
3049.5, 0.0415040
3051.3, 0.0414290
3053.09, 0.0415040
3054.89, 0.0418070
3056.69, 0.0419580
3058.5, 0.0423360
3060.3, 0.0424870
3062.11, 0.0422600
3063.92, 0.0421090
3065.73, 0.0422600
3067.55, 0.0422600
3069.36, 0.0423360
3071.18, 0.0422600
3073.0, 0.0423360
3074.82, 0.0424870
3076.65, 0.0424120
3078.48, 0.0424120
3080.31, 0.0426380
3082.14, 0.0426380
3083.97, 0.0425630
3085.8, 0.0424120
3087.64, 0.0424120
3089.48, 0.0423360
3091.33, 0.0421850
3093.17, 0.0422600
3095.02, 0.0427140
3096.87, 0.0427140
3098.72, 0.0427140
3100.57, 0.0429410
3102.43, 0.0430160
3104.28, 0.0429410
3106.14, 0.0430160
3108.01, 0.0432430
3109.87, 0.0432430
3111.74, 0.0433190
3113.61, 0.0435460
3115.48, 0.0435460
3117.35, 0.0433940
3119.23, 0.0435460
3121.1, 0.0436970
3122.98, 0.0437720
3124.87, 0.0439990
3126.75, 0.0442260
3128.64, 0.0443770
3130.53, 0.0441500
3132.42, 0.0441500
3134.31, 0.0445280
3136.21, 0.0447550
3138.11, 0.0450580
3140.01, 0.0454360
3141.91, 0.0455870
3143.82, 0.0457380
3145.73, 0.0458140
3147.64, 0.0460400
3149.55, 0.0461920
3151.46, 0.0463430
3153.38, 0.0467210
3155.3, 0.0469480
3157.22, 0.0470230
3159.14, 0.0473260
3161.07, 0.0476280
3163.0, 0.0476280
3164.93, 0.0479300
3166.86, 0.0480060
3168.8, 0.0478550
3170.74, 0.0479300
3172.68, 0.0483080
3174.62, 0.0486110
3176.56, 0.0489130
3178.51, 0.0492910
3180.46, 0.0494420
3182.42, 0.0494420
3184.37, 0.0496690
3186.33, 0.0498960
3188.29, 0.0501230
3190.25, 0.0505010
3192.21, 0.0507280
3194.18, 0.0510300
3196.15, 0.0511060
3198.12, 0.0512570
3200.09, 0.0514840
3202.07, 0.0515590
3204.05, 0.0515590
3206.03, 0.0517860
3208.02, 0.0520130
3210.0, 0.0521640
3211.99, 0.0525420
3213.98, 0.0532220
3215.98, 0.0534490
3217.97, 0.0534490
3219.97, 0.0536000
3221.97, 0.0536760
3223.98, 0.0537520
3225.98, 0.0539780
3227.99, 0.0542810
3230.0, 0.0545080
3232.02, 0.0546590
3234.03, 0.0548860
3236.05, 0.0551120
3238.07, 0.0553390
3240.1, 0.0555660
3242.12, 0.0557930
3244.15, 0.0560950
3246.18, 0.0563220
3248.22, 0.0565490
3250.25, 0.0565490
3252.29, 0.0567760
3254.33, 0.0572290
3256.38, 0.0577580
3258.43, 0.0579100
3260.47, 0.0581360
3262.53, 0.0584390
3264.58, 0.0585900
3266.64, 0.0588170
3268.7, 0.0591190
3270.76, 0.0594220
3272.82, 0.0597240
3274.89, 0.0598750
3276.96, 0.0601780
3279.04, 0.0604800
3281.11, 0.0607820
3283.19, 0.0610850
3285.27, 0.0613870
3287.35, 0.0618410
3289.44, 0.0620680
3291.53, 0.0622190
3293.62, 0.0625970
3295.71, 0.0632020
3297.81, 0.0633530
3299.91, 0.0635040
3302.01, 0.0640330
3304.11, 0.0644110
3306.22, 0.0645620
3308.33, 0.0650920
3310.44, 0.0653180
3312.56, 0.0655450
3314.68, 0.0659230
3316.8, 0.0663010
3318.92, 0.0666790
3321.05, 0.0671330
3323.18, 0.0673600
3325.31, 0.0675860
3327.44, 0.0680400
3329.58, 0.0683420
3331.72, 0.0685690
3333.86, 0.0690230
3336.01, 0.0693250
3338.16, 0.0697790
3340.31, 0.0699300
3342.46, 0.0700810
3344.61, 0.0703840
3346.77, 0.0709130
3348.94, 0.0713660
3351.1, 0.0715180
3353.27, 0.0718200
3355.44, 0.0722740
3357.61, 0.0726520
3359.79, 0.0731050
3361.97, 0.0734080
3364.15, 0.0737100
3366.33, 0.0738610
3368.52, 0.0745420
3370.71, 0.0751460
3372.9, 0.0755240
3375.1, 0.0757510
3377.3, 0.0757510
3379.5, 0.0760540
3381.71, 0.0766580
3383.91, 0.0771120
3386.12, 0.0775660
3388.34, 0.0780950
3390.55, 0.0782460
3392.77, 0.0785480
3394.99, 0.0792290
3397.22, 0.0799090
3399.45, 0.0802870
3401.68, 0.0802870
3403.91, 0.0807410
3406.15, 0.0814970
3408.39, 0.0820260
3410.63, 0.0822530
3412.87, 0.0826310
3415.12, 0.0830090
3417.37, 0.0834620
3419.63, 0.0835380
3421.88, 0.0839160
3424.14, 0.0845210
3426.41, 0.0851260
3428.67, 0.0858820
3430.94, 0.0864110
3433.21, 0.0861840
3435.49, 0.0864860
3437.77, 0.0872420
3440.05, 0.0879230
3442.33, 0.0884520
3444.62, 0.0884520
3446.91, 0.0886790
3449.2, 0.0892080
3451.5, 0.0895860
3453.8, 0.0899640
3456.1, 0.0901910
3458.41, 0.0904930
3460.72, 0.0909470
3463.03, 0.0914000
3465.34, 0.0918540
3467.66, 0.0923830
3469.98, 0.0927610
3472.31, 0.0931390
3474.63, 0.0934420
3476.96, 0.0939710
3479.3, 0.0943490
3481.64, 0.0946510
3483.97, 0.0951050
3486.32, 0.0952560
3488.66, 0.0957850
3491.01, 0.0965410
3493.36, 0.0969190
3495.72, 0.0972220
3498.08, 0.0976000
3500.44, 0.0979780
3502.81, 0.0984310
3505.18, 0.0988850
3507.55, 0.0994140
3509.92, 0.0999430
3512.3, 0.100094
3514.68, 0.100397
3517.06, 0.100850
3519.45, 0.101380
3521.84, 0.101984
3524.24, 0.102287
3526.64, 0.102589
3529.04, 0.102967
3531.44, 0.103345
3533.85, 0.103723
3536.26, 0.104328
3538.67, 0.104933
3541.09, 0.105084
3543.51, 0.105386
3545.93, 0.105916
3548.36, 0.106445
3550.79, 0.106823
3553.22, 0.107201
3555.66, 0.107503
3558.1, 0.108108
3560.54, 0.108486
3562.99, 0.109015
3565.44, 0.109469
3567.9, 0.109847
3570.35, 0.110225
3572.81, 0.110527
3575.28, 0.110981
3577.75, 0.111510
3580.22, 0.112039
3582.69, 0.112266
3585.17, 0.112493
3587.65, 0.113022
3590.14, 0.113778
3592.62, 0.114232
3595.11, 0.114610
3597.61, 0.114988
3600.11, 0.115290
3602.61, 0.115592
3605.11, 0.115895
3607.62, 0.116348
3610.14, 0.116953
3612.65, 0.117634
3615.17, 0.117936
3617.69, 0.117936
3620.22, 0.118238
3622.75, 0.118692
3625.28, 0.119070
3627.82, 0.119448
3630.36, 0.119826
3632.9, 0.120204
3635.45, 0.120658
3638.0, 0.121111
3640.56, 0.121489
3643.12, 0.121792
3645.68, 0.122170
3648.24, 0.122623
3650.81, 0.123001
3653.39, 0.123228
3655.96, 0.123455
3658.54, 0.123757
3661.13, 0.124211
3663.71, 0.124664
3666.3, 0.125042
3668.9, 0.125496
3671.5, 0.125798
3674.1, 0.126025
3676.7, 0.126025
3679.31, 0.126403
3681.93, 0.127008
3684.54, 0.127310
3687.17, 0.127537
3689.79, 0.127688
3692.42, 0.127991
3695.05, 0.128293
3697.69, 0.128520
3700.32, 0.128898
3702.97, 0.129200
3705.61, 0.129654
3708.27, 0.130032
3710.92, 0.130334
3713.58, 0.130334
3716.24, 0.130561
3718.91, 0.130712
3721.58, 0.130788
3724.25, 0.131166
3726.93, 0.131468
3729.61, 0.131468
3732.29, 0.131771
3734.98, 0.131998
3737.67, 0.132224
3740.37, 0.132451
3743.07, 0.132678
3745.78, 0.132980
3748.49, 0.133283
3751.2, 0.133434
3753.91, 0.133661
3756.63, 0.133812
3759.36, 0.134039
3762.09, 0.134266
3764.82, 0.134266
3767.55, 0.134266
3770.29, 0.134492
3773.04, 0.134568
3775.78, 0.134795
3778.54, 0.134946
3781.29, 0.135173
3784.05, 0.135248
3786.82, 0.135324
3789.59, 0.135400
3792.36, 0.135475
3795.13, 0.135475
3797.92, 0.135475
3800.7, 0.135702
3803.49, 0.135853
3806.28, 0.136004
3809.08, 0.136231
3811.88, 0.136231
3814.68, 0.136231
3817.49, 0.136156
3820.31, 0.136458
3823.12, 0.136609
3825.94, 0.136534
3828.77, 0.136534
3831.6, 0.136534
3834.43, 0.136458
3837.27, 0.136458
3840.11, 0.136382
3842.96, 0.136534
3845.81, 0.136760
3848.67, 0.136836
3851.53, 0.136836
3854.39, 0.136760
3857.26, 0.136912
3860.13, 0.137063
3863.01, 0.136987
3865.89, 0.136912
3868.77, 0.136836
3871.66, 0.136836
3874.55, 0.136685
3877.45, 0.136685
3880.35, 0.136685
3883.26, 0.136534
3886.17, 0.136534
3889.09, 0.136458
3892.01, 0.136231
3894.93, 0.136004
3897.86, 0.136004
3900.79, 0.136080
3903.73, 0.136156
3906.67, 0.136382
3909.62, 0.136685
3912.57, 0.136836
3915.52, 0.136987
3918.48, 0.137063
3921.45, 0.137138
3924.42, 0.137063
3927.39, 0.137138
3930.37, 0.137138
3933.35, 0.137138
3936.34, 0.137138
3939.33, 0.137214
3942.32, 0.137138
3945.32, 0.137063
3948.33, 0.136987
3951.34, 0.136912
3954.35, 0.136836
3957.37, 0.136685
3960.39, 0.136609
3963.42, 0.136382
3966.45, 0.136307
3969.49, 0.136156
3972.53, 0.135929
3975.58, 0.135626
3978.63, 0.135097
3981.68, 0.134719
3984.75, 0.134644
3987.81, 0.134492
3990.88, 0.133888
3993.95, 0.133434
3997.03, 0.133207
4000.12, 0.132602
4003.21, 0.132224
4006.3, 0.131922
4009.4, 0.131393
4012.5, 0.130864
4015.61, 0.130486
4018.72, 0.129881
4021.84, 0.129427
4024.96, 0.128898
4028.09, 0.128369
4031.22, 0.127764
4034.36, 0.127008
4037.5, 0.126630
4040.65, 0.126328
4043.8, 0.125874
4046.96, 0.125496
4050.12, 0.125042
4053.29, 0.124589
4056.46, 0.123984
4059.64, 0.123228
4062.82, 0.122472
4066.0, 0.121792
4069.19, 0.121414
4072.39, 0.120809
4075.59, 0.120053
4078.8, 0.119372
4082.01, 0.118465
4085.23, 0.117709
4088.45, 0.117104
4091.68, 0.116424
4094.91, 0.115517
4098.15, 0.114761
4101.39, 0.114156
4104.63, 0.113400
4107.89, 0.112644
4111.14, 0.111964
4114.41, 0.111208
4117.67, 0.110452
4120.95, 0.109847
4124.23, 0.109091
4127.51, 0.108486
4130.8, 0.108032
4134.09, 0.107579
4137.39, 0.107125
4140.7, 0.106672
4144.01, 0.106142
4147.32, 0.105689
4150.64, 0.105311
4153.97, 0.104857
4157.3, 0.104404
4160.64, 0.104026
4163.98, 0.103723
4167.33, 0.103345
4170.68, 0.102967
4174.04, 0.102589
4177.4, 0.102287
4180.77, 0.101909
4184.14, 0.101304
4187.52, 0.101002
4190.91, 0.100850
4194.3, 0.100397
4197.69, 0.0999430
4201.1, 0.0994900
4204.5, 0.0988850
4207.92, 0.0982040
4211.34, 0.0974480
4214.76, 0.0967680
4218.19, 0.0960120
4221.62, 0.0951050
4225.06, 0.0941980
4228.51, 0.0932150
4231.96, 0.0925340
4235.42, 0.0920050
4238.88, 0.0912490
4242.35, 0.0903420
4245.83, 0.0898130
4249.31, 0.0894350
4252.79, 0.0889060
4256.28, 0.0880740
4259.78, 0.0867890
4263.29, 0.0854280
4266.79, 0.0842180
4270.31, 0.0833110
4273.83, 0.0823280
4277.35, 0.0811940
4280.89, 0.0802870
4284.42, 0.0791530
4287.97, 0.0778680
4291.52, 0.0767340
4295.07, 0.0757510
4298.63, 0.0749200
4302.2, 0.0741640
4305.78, 0.0732560
4309.35, 0.0725760
4312.94, 0.0718200
4316.53, 0.0712150
4320.13, 0.0708370
4323.73, 0.0703840
4327.34, 0.0697790
4330.96, 0.0693250
4334.58, 0.0690980
4338.21, 0.0689470
4341.84, 0.0688720
4345.48, 0.0687960
4349.12, 0.0687960
4352.77, 0.0687960
4356.43, 0.0687960
4360.1, 0.0688720
4363.76, 0.0689470
4367.44, 0.0688720
4371.12, 0.0685690
4374.81, 0.0682670
4378.51, 0.0678890
4382.21, 0.0674350
4385.92, 0.0669820
4389.63, 0.0666040
4393.35, 0.0663770
4397.08, 0.0661500
4400.81, 0.0657720
4404.55, 0.0653180
4408.29, 0.0648650
4412.04, 0.0644870
4415.8, 0.0642600
4419.57, 0.0640330
4423.34, 0.0636550
4427.12, 0.0632020
4430.9, 0.0628990
4434.69, 0.0626720
4438.49, 0.0622940
4442.29, 0.0619160
4446.1, 0.0616900
4449.92, 0.0612360
4453.74, 0.0606310
4457.57, 0.0602530
4461.41, 0.0598750
4465.25, 0.0594970
4469.1, 0.0591190
4472.95, 0.0587410
4476.82, 0.0585140
4480.69, 0.0581360
4484.56, 0.0579100
4488.44, 0.0578340
4492.33, 0.0578340
4496.23, 0.0579100
4500.13, 0.0577580
4504.04, 0.0576830
4507.96, 0.0576830
4511.88, 0.0576070
4515.81, 0.0574560
4519.75, 0.0575320
4523.69, 0.0575320
4527.65, 0.0574560
4531.6, 0.0574560
4535.57, 0.0576070
4539.54, 0.0576070
4543.52, 0.0576830
4547.5, 0.0579100
4551.5, 0.0578340
4555.5, 0.0577580
4559.5, 0.0577580
4563.52, 0.0578340
4567.54, 0.0578340
4571.56, 0.0578340
4575.6, 0.0579850
4579.64, 0.0581360
4583.69, 0.0585140
4587.75, 0.0589680
4591.81, 0.0592700
4595.88, 0.0594220
4599.96, 0.0598750
4604.04, 0.0602530
4608.14, 0.0606310
4612.24, 0.0609340
4616.34, 0.0610850
4620.46, 0.0616140
4624.58, 0.0623700
4628.71, 0.0632770
4632.84, 0.0640330
4636.99, 0.0647140
4641.14, 0.0652430
4645.3, 0.0654700
4649.47, 0.0656960
4653.64, 0.0658480
4657.82, 0.0658480
4662.01, 0.0656960
4666.21, 0.0656210
4670.41, 0.0656960
4674.62, 0.0657720
4678.84, 0.0657720
4683.07, 0.0661500
4687.3, 0.0669060
4691.54, 0.0680400
4695.79, 0.0694010
4700.05, 0.0707620
4704.31, 0.0722740
4708.59, 0.0737100
4712.87, 0.0752980
4717.15, 0.0770360
4721.45, 0.0785480
4725.76, 0.0800600
4730.07, 0.0817240
4734.39, 0.0836890
4738.72, 0.0857300
4743.05, 0.0879230
4747.39, 0.0900400
4751.75, 0.0922320
4756.1, 0.0944240
4760.47, 0.0963900
4764.85, 0.0982800
4769.23, 0.100019
4773.62, 0.101455
4778.02, 0.102589
4782.43, 0.103572
4786.85, 0.104555
4791.27, 0.105311
4795.7, 0.105916
4800.14, 0.106369
4804.59, 0.106520
4809.05, 0.106520
4813.51, 0.106520
4817.99, 0.106898
4822.47, 0.107428
4826.96, 0.108032
4831.46, 0.108713
4835.96, 0.109544
4840.48, 0.110149
4845.0, 0.110754
4849.54, 0.111434
4854.08, 0.111964
4858.63, 0.112115
4863.18, 0.112115
4867.75, 0.112039
4872.33, 0.111888
4876.91, 0.111888
4881.5, 0.111888
4886.1, 0.111586
4890.71, 0.111586
4895.33, 0.111434
4899.96, 0.111056
4904.59, 0.110678
4909.24, 0.110452
4913.89, 0.110074
4918.55, 0.109771
4923.22, 0.109544
4927.9, 0.109091
4932.59, 0.108788
4937.29, 0.108637
4942.0, 0.108486
4946.71, 0.108184
4951.44, 0.107806
4956.17, 0.107352
4960.91, 0.106823
4965.67, 0.106294
4970.43, 0.105840
4975.2, 0.105386
4979.98, 0.105008
4984.76, 0.104630
4989.56, 0.103950
4994.37, 0.103572
4999.18, 0.103345
5004.01, 0.102967
5008.84, 0.102589
5013.69, 0.102287
5018.54, 0.102060
5023.4, 0.101984
5028.28, 0.101606
5033.16, 0.101531
5038.05, 0.101380
5042.95, 0.100926
5047.86, 0.100699
5052.78, 0.100548
5057.71, 0.100246
5062.65, 0.0998680
5067.6, 0.0996410
5072.56, 0.0994900
5077.53, 0.0993380
5082.5, 0.0992630
5087.49, 0.0993380
5092.49, 0.0992630
5097.5, 0.0988850
5102.51, 0.0988090
5107.54, 0.0987340
5112.58, 0.0985070
5117.62, 0.0982040
5122.68, 0.0980530
5127.75, 0.0977510
5132.82, 0.0972220
5137.91, 0.0967680
5143.01, 0.0963900
5148.12, 0.0961630
5153.23, 0.0963140
5158.36, 0.0960880
5163.5, 0.0957850
5168.65, 0.0955580
5173.81, 0.0952560
5178.98, 0.0949540
5184.15, 0.0946510
5189.34, 0.0945760
5194.54, 0.0941980
5199.75, 0.0936680
5204.98, 0.0934420
5210.21, 0.0927610
5215.45, 0.0923080
5220.7, 0.0919300
5225.96, 0.0910980
5231.23, 0.0905690
5236.52, 0.0898880
5241.81, 0.0892080
5247.12, 0.0886790
5252.44, 0.0880740
5257.76, 0.0873180
5263.1, 0.0866380
5268.45, 0.0860330
5273.81, 0.0854280
5279.18, 0.0848230
5284.56, 0.0843700
5289.95, 0.0835380
5295.36, 0.0831600
5300.77, 0.0831600
