Database of Origin, USGS Spectral Database
Sample Description, See USGS database for additional info
Date Added,2016-08-03 21:05:13.883973

Data ID,USGS_bas02          
Sample ID, bassanite_gds145.3433
Mineral Name, bassanite
Material Class,Sulfate

Wavelength
1523.41, 0.568673
1523.85, 0.569332
1524.3, 0.569200
1524.75, 0.568673
1525.2, 0.568542
1525.65, 0.568015
1526.1, 0.568015
1526.55, 0.568871
1527.0, 0.569134
1527.45, 0.568937
1527.9, 0.569266
1528.35, 0.569530
1528.8, 0.569398
1529.25, 0.569003
1529.7, 0.569003
1530.15, 0.569266
1530.6, 0.570057
1531.05, 0.570386
1531.51, 0.569925
1531.96, 0.569793
1532.41, 0.570057
1532.87, 0.570320
1533.32, 0.570189
1533.77, 0.570057
1534.23, 0.569727
1534.68, 0.569530
1535.14, 0.570057
1535.59, 0.570847
1536.05, 0.571111
1536.5, 0.571045
1536.96, 0.571177
1537.41, 0.571704
1537.87, 0.572231
1538.32, 0.572297
1538.78, 0.572165
1539.24, 0.572692
1539.7, 0.573087
1540.15, 0.573351
1540.61, 0.574010
1541.07, 0.574010
1541.53, 0.574010
1541.98, 0.574537
1542.44, 0.574800
1542.9, 0.575130
1543.36, 0.575591
1543.82, 0.575920
1544.28, 0.575723
1544.74, 0.575986
1545.2, 0.576381
1545.66, 0.577106
1546.12, 0.578226
1546.59, 0.577831
1547.05, 0.577633
1547.51, 0.578094
1547.97, 0.579017
1548.43, 0.579807
1548.9, 0.580136
1549.36, 0.580268
1549.82, 0.580268
1550.29, 0.580532
1550.75, 0.581256
1551.21, 0.581915
1551.68, 0.582969
1552.14, 0.583430
1552.61, 0.583496
1553.07, 0.583892
1553.54, 0.584353
1554.0, 0.585143
1554.47, 0.585275
1554.93, 0.585539
1555.4, 0.585868
1555.87, 0.586329
1556.34, 0.586724
1556.8, 0.587581
1557.27, 0.588240
1557.74, 0.588635
1558.21, 0.588964
1558.68, 0.589096
1559.14, 0.589491
1559.61, 0.589952
1560.08, 0.590150
1560.55, 0.590743
1561.02, 0.591270
1561.49, 0.591929
1561.96, 0.592127
1562.43, 0.592522
1562.9, 0.593181
1563.38, 0.593378
1563.85, 0.593312
1564.32, 0.593708
1564.79, 0.594366
1565.26, 0.594762
1565.74, 0.595618
1566.21, 0.595618
1566.68, 0.595948
1567.16, 0.596804
1567.63, 0.597595
1568.1, 0.597265
1568.58, 0.597397
1569.05, 0.597990
1569.53, 0.598385
1570.0, 0.598912
1570.48, 0.599439
1570.96, 0.599637
1571.43, 0.600032
1571.91, 0.600361
1572.39, 0.600691
1572.86, 0.600757
1573.34, 0.601745
1573.82, 0.602404
1574.3, 0.602272
1574.77, 0.602272
1575.25, 0.602733
1575.73, 0.603260
1576.21, 0.603590
1576.69, 0.603721
1577.17, 0.604117
1577.65, 0.604446
1578.13, 0.604907
1578.61, 0.605171
1579.09, 0.605105
1579.57, 0.605830
1580.05, 0.606752
1580.54, 0.607081
1581.02, 0.607279
1581.5, 0.607674
1581.98, 0.608333
1582.47, 0.608399
1582.95, 0.608465
1583.43, 0.609124
1583.92, 0.609453
1584.4, 0.609453
1584.88, 0.609782
1585.37, 0.610441
1585.85, 0.610968
1586.34, 0.611232
1586.82, 0.611298
1587.31, 0.611890
1587.8, 0.612286
1588.28, 0.612615
1588.77, 0.612681
1589.26, 0.612945
1589.74, 0.613472
1590.23, 0.613603
1590.72, 0.613735
1591.21, 0.614526
1591.7, 0.615250
1592.19, 0.615580
1592.67, 0.615909
1593.16, 0.616107
1593.65, 0.616436
1594.14, 0.616831
1594.63, 0.617293
1595.12, 0.617622
1595.61, 0.617490
1596.11, 0.618017
1596.6, 0.618478
1597.09, 0.618808
1597.58, 0.619269
1598.08, 0.619467
1598.57, 0.619730
1599.06, 0.620389
1599.55, 0.620652
1600.05, 0.620521
1600.54, 0.620916
1601.04, 0.621443
1601.53, 0.621970
1602.03, 0.622431
1602.52, 0.622497
1603.02, 0.623024
1603.51, 0.623683
1604.01, 0.624210
1604.5, 0.624539
1605.0, 0.624605
1605.5, 0.624342
1606.0, 0.624737
1606.49, 0.625659
1606.99, 0.626252
1607.49, 0.626516
1607.99, 0.626845
1608.49, 0.626911
1608.99, 0.626911
1609.49, 0.627504
1609.99, 0.627899
1610.49, 0.628492
1610.99, 0.628821
1611.49, 0.628756
1611.99, 0.628953
1612.49, 0.629151
1612.99, 0.629151
1613.49, 0.629941
1614.0, 0.630403
1614.5, 0.630666
1615.0, 0.631061
1615.51, 0.631391
1616.01, 0.631852
1616.51, 0.632050
1617.02, 0.632247
1617.52, 0.632577
1618.03, 0.632379
1618.53, 0.632774
1619.04, 0.633697
1619.54, 0.633762
1620.05, 0.634092
1620.55, 0.634355
1621.06, 0.634553
1621.57, 0.634817
1622.08, 0.635475
1622.58, 0.635871
1623.09, 0.636200
1623.6, 0.636529
1624.11, 0.636464
1624.62, 0.636925
1625.13, 0.637583
1625.64, 0.637715
1626.15, 0.637518
1626.66, 0.637913
1627.17, 0.638242
1627.68, 0.638308
1628.19, 0.638572
1628.7, 0.639230
1629.21, 0.639758
1629.72, 0.639626
1630.24, 0.639626
1630.75, 0.640219
1631.26, 0.640416
1631.78, 0.640614
1632.29, 0.640680
1632.8, 0.641075
1633.32, 0.641668
1633.83, 0.641734
1634.35, 0.641800
1634.86, 0.642261
1635.38, 0.642920
1635.9, 0.642920
1636.41, 0.642986
1636.93, 0.643513
1637.45, 0.644040
1637.96, 0.644369
1638.48, 0.644764
1639.0, 0.644633
1639.52, 0.644501
1640.04, 0.644435
1640.56, 0.644699
1641.08, 0.645094
1641.59, 0.645489
1642.11, 0.645884
1642.63, 0.645819
1643.16, 0.645819
1643.68, 0.646148
1644.2, 0.646543
1644.72, 0.646609
1645.24, 0.646938
1645.76, 0.647466
1646.29, 0.647400
1646.81, 0.647795
1647.33, 0.648256
1647.86, 0.648322
1648.38, 0.648520
1648.9, 0.649112
1649.43, 0.649442
1649.95, 0.649508
1650.48, 0.649244
1651.0, 0.649112
1651.53, 0.649442
1652.06, 0.649442
1652.58, 0.649705
1653.11, 0.649969
1653.64, 0.650101
1654.17, 0.650430
1654.69, 0.650628
1655.22, 0.650759
1655.75, 0.651089
1656.28, 0.651352
1656.81, 0.651616
1657.34, 0.651879
1657.87, 0.652143
1658.4, 0.652011
1658.93, 0.652077
1659.46, 0.652143
1659.99, 0.652802
1660.52, 0.653197
1661.05, 0.653197
1661.59, 0.653395
1662.12, 0.653263
1662.65, 0.653131
1663.19, 0.653395
1663.72, 0.653329
1664.26, 0.653395
1664.79, 0.653724
1665.32, 0.654119
1665.86, 0.654053
1666.39, 0.654185
1666.93, 0.654185
1667.47, 0.654317
1668.0, 0.654515
1668.54, 0.654646
1669.08, 0.654844
1669.61, 0.655107
1670.15, 0.655305
1670.69, 0.655700
1671.23, 0.655898
1671.77, 0.655437
1672.31, 0.655503
1672.85, 0.656030
1673.39, 0.656162
1673.93, 0.656293
1674.47, 0.656096
1675.01, 0.656293
1675.55, 0.656623
1676.09, 0.656754
1676.64, 0.656952
1677.18, 0.657216
1677.72, 0.657084
1678.26, 0.657216
1678.81, 0.657150
1679.35, 0.657216
1679.89, 0.657216
1680.44, 0.657216
1680.98, 0.657479
1681.53, 0.657545
1682.07, 0.657743
1682.62, 0.658006
1683.17, 0.657940
1683.71, 0.658006
1684.26, 0.658270
1684.81, 0.658467
1685.36, 0.658467
1685.9, 0.658731
1686.45, 0.659192
1687.0, 0.658863
1687.55, 0.658533
1688.1, 0.658665
1688.65, 0.658863
1689.2, 0.659390
1689.75, 0.659324
1690.3, 0.658994
1690.85, 0.658994
1691.41, 0.659324
1691.96, 0.659653
1692.51, 0.659587
1693.06, 0.659719
1693.61, 0.659521
1694.17, 0.659390
1694.72, 0.659587
1695.28, 0.659521
1695.83, 0.659521
1696.39, 0.659719
1696.94, 0.659719
1697.5, 0.659719
1698.05, 0.659785
1698.61, 0.660048
1699.17, 0.660048
1699.72, 0.659587
1700.28, 0.659719
1700.84, 0.659719
1701.4, 0.659587
1701.95, 0.659587
1702.51, 0.659390
1703.07, 0.659390
1703.63, 0.659521
1704.19, 0.659785
1704.75, 0.659653
1705.31, 0.659521
1705.88, 0.659719
1706.44, 0.659719
1707.0, 0.659456
1707.56, 0.659324
1708.12, 0.659258
1708.69, 0.659390
1709.25, 0.659192
1709.81, 0.658929
1710.38, 0.659126
1710.94, 0.658863
1711.51, 0.658401
1712.07, 0.658336
1712.64, 0.658204
1713.2, 0.658072
1713.77, 0.658204
1714.34, 0.658072
1714.9, 0.657940
1715.47, 0.657677
1716.04, 0.657479
1716.61, 0.657347
1717.18, 0.657216
1717.74, 0.656886
1718.31, 0.656491
1718.88, 0.656491
1719.45, 0.655898
1720.02, 0.655569
1720.59, 0.655700
1721.17, 0.655635
1721.74, 0.655371
1722.31, 0.655042
1722.88, 0.654910
1723.45, 0.654844
1724.03, 0.654515
1724.6, 0.654053
1725.18, 0.654053
1725.75, 0.653658
1726.33, 0.653131
1726.9, 0.652933
1727.48, 0.652670
1728.05, 0.652209
1728.63, 0.651682
1729.2, 0.651221
1729.78, 0.650694
1730.36, 0.650628
1730.94, 0.650298
1731.51, 0.649837
1732.09, 0.649705
1732.67, 0.649442
1733.25, 0.649178
1733.83, 0.648454
1734.41, 0.647861
1734.99, 0.647466
1735.57, 0.647334
1736.15, 0.647202
1736.73, 0.646938
1737.32, 0.646543
1737.9, 0.645819
1738.48, 0.645291
1739.07, 0.644764
1739.65, 0.644435
1740.23, 0.644171
1740.82, 0.643776
1741.4, 0.643579
1741.99, 0.643052
1742.57, 0.642590
1743.16, 0.642129
1743.74, 0.641536
1744.33, 0.641075
1744.92, 0.641075
1745.51, 0.640746
1746.09, 0.640285
1746.68, 0.639823
1747.27, 0.639296
1747.86, 0.638967
1748.45, 0.638769
1749.04, 0.638572
1749.63, 0.638045
1750.22, 0.637979
1750.81, 0.637518
1751.4, 0.637386
1751.99, 0.637452
1752.59, 0.637188
1753.18, 0.636727
1753.77, 0.636793
1754.37, 0.636925
1754.96, 0.636595
1755.56, 0.636332
1756.15, 0.636068
1756.74, 0.636068
1757.34, 0.636002
1757.94, 0.636134
1758.53, 0.636266
1759.13, 0.635739
1759.73, 0.635805
1760.32, 0.636200
1760.92, 0.636200
1761.52, 0.635739
1762.12, 0.635212
1762.72, 0.635409
1763.32, 0.635805
1763.92, 0.635805
1764.52, 0.635739
1765.12, 0.635475
1765.72, 0.635739
1766.32, 0.635936
1766.92, 0.635871
1767.53, 0.636068
1768.13, 0.636200
1768.73, 0.636134
1769.34, 0.636200
1769.94, 0.636266
1770.55, 0.636266
1771.15, 0.636398
1771.76, 0.636398
1772.36, 0.636134
1772.97, 0.636068
1773.57, 0.636134
1774.18, 0.636134
1774.79, 0.636595
1775.4, 0.637056
1776.0, 0.636859
1776.61, 0.636661
1777.22, 0.636661
1777.83, 0.636661
1778.44, 0.636859
1779.05, 0.637056
1779.66, 0.637386
1780.27, 0.637715
1780.88, 0.637979
1781.5, 0.638176
1782.11, 0.638374
1782.72, 0.638703
1783.33, 0.639165
1783.95, 0.639626
1784.56, 0.639955
1785.18, 0.640482
1785.79, 0.640812
1786.41, 0.640877
1787.02, 0.641273
1787.64, 0.641800
1788.26, 0.642327
1788.87, 0.642854
1789.49, 0.643381
1790.11, 0.643908
1790.73, 0.644040
1791.35, 0.644369
1791.96, 0.644896
1792.58, 0.645555
1793.21, 0.645950
1793.83, 0.646346
1794.45, 0.646938
1795.07, 0.647531
1795.69, 0.647992
1796.31, 0.648388
1796.93, 0.649047
1797.56, 0.649442
1798.18, 0.649574
1798.8, 0.650101
1799.43, 0.650562
1800.05, 0.651155
1800.68, 0.651484
1801.3, 0.651748
1801.93, 0.652077
1802.56, 0.652472
1803.18, 0.653197
1803.81, 0.653724
1804.44, 0.654053
1805.07, 0.654515
1805.7, 0.654712
1806.33, 0.655042
1806.95, 0.655437
1807.58, 0.656096
1808.22, 0.656557
1808.85, 0.656952
1809.48, 0.657479
1810.11, 0.657611
1810.74, 0.657940
1811.38, 0.658533
1812.01, 0.658599
1812.64, 0.658863
1813.28, 0.659456
1813.91, 0.659653
1814.55, 0.659587
1815.18, 0.659587
1815.82, 0.659851
1816.45, 0.660114
1817.09, 0.660707
1817.73, 0.660905
1818.36, 0.661037
1819.0, 0.661432
1819.64, 0.661103
1820.28, 0.660641
1820.92, 0.661103
1821.56, 0.661432
1822.2, 0.661827
1822.84, 0.662420
1823.48, 0.662815
1824.12, 0.662750
1824.76, 0.662750
1825.41, 0.662354
1826.05, 0.661761
1826.69, 0.662486
1827.34, 0.662947
1827.98, 0.662486
1828.63, 0.662354
1829.27, 0.662288
1829.92, 0.662091
1830.56, 0.661893
1831.21, 0.662025
1831.86, 0.662288
1832.5, 0.662354
1833.15, 0.662552
1833.8, 0.662420
1834.45, 0.661498
1835.1, 0.661037
1835.75, 0.660839
1836.4, 0.660905
1837.05, 0.660707
1837.7, 0.660378
1838.35, 0.661103
1839.01, 0.660576
1839.66, 0.659456
1840.31, 0.659785
1840.96, 0.659456
1841.62, 0.658401
1842.27, 0.658731
1842.93, 0.659324
1843.58, 0.659390
1844.24, 0.659390
1844.9, 0.659390
1845.55, 0.658797
1846.21, 0.657347
1846.87, 0.656162
1847.53, 0.656359
1848.18, 0.656557
1848.84, 0.657150
1849.5, 0.657018
1850.16, 0.656623
1850.82, 0.656227
1851.48, 0.656359
1852.14, 0.655832
1852.81, 0.654778
1853.47, 0.653592
1854.13, 0.653856
1854.8, 0.654383
1855.46, 0.653922
1856.12, 0.652341
1856.79, 0.651748
1857.45, 0.651945
1858.12, 0.651682
1858.79, 0.650430
1859.45, 0.648849
1860.12, 0.648717
1860.79, 0.648981
1861.46, 0.648783
1862.12, 0.648058
1862.79, 0.647400
1863.46, 0.646609
1864.13, 0.645753
1864.8, 0.645094
1865.48, 0.644435
1866.15, 0.643710
1866.82, 0.641866
1867.49, 0.639626
1868.16, 0.639033
1868.84, 0.638835
1869.51, 0.637847
1870.19, 0.635936
1870.86, 0.634224
1871.54, 0.634092
1872.21, 0.632445
1872.89, 0.630139
1873.56, 0.629480
1874.24, 0.629151
1874.92, 0.627833
1875.6, 0.626516
1876.28, 0.624342
1876.96, 0.622234
1877.64, 0.620982
1878.32, 0.619664
1879.0, 0.618017
1879.68, 0.616041
1880.36, 0.613933
1881.04, 0.611825
1881.73, 0.609914
1882.41, 0.607674
1883.09, 0.604973
1883.78, 0.602140
1884.46, 0.600361
1885.15, 0.598517
1885.83, 0.595816
1886.52, 0.592917
1887.21, 0.590480
1887.89, 0.588042
1888.58, 0.585012
1889.27, 0.581718
1889.96, 0.578226
1890.65, 0.575130
1891.34, 0.572033
1892.03, 0.568805
1892.72, 0.565314
1893.41, 0.561493
1894.1, 0.557737
1894.79, 0.553916
1895.49, 0.549898
1896.18, 0.545484
1896.87, 0.540806
1897.57, 0.535404
1898.26, 0.530200
1898.96, 0.524534
1899.65, 0.518802
1900.35, 0.513664
1901.05, 0.508130
1901.74, 0.502003
1902.44, 0.495086
1903.14, 0.488498
1903.84, 0.481910
1904.54, 0.474400
1905.24, 0.466494
1905.94, 0.458984
1906.64, 0.451078
1907.34, 0.443502
1908.04, 0.435465
1908.75, 0.426769
1909.45, 0.417809
1910.15, 0.408718
1910.86, 0.399824
1911.56, 0.390996
1912.27, 0.382102
1912.97, 0.373077
1913.68, 0.364842
1914.39, 0.357529
1915.09, 0.350480
1915.8, 0.344419
1916.51, 0.339346
1917.22, 0.335591
1917.93, 0.333219
1918.64, 0.332099
1919.35, 0.331902
1920.06, 0.333285
1920.77, 0.336711
1921.48, 0.341784
1922.19, 0.347449
1922.91, 0.353972
1923.62, 0.360559
1924.33, 0.368004
1925.05, 0.375975
1925.76, 0.383617
1926.48, 0.390864
1927.19, 0.397518
1927.91, 0.403250
1928.63, 0.408915
1929.35, 0.413988
1930.07, 0.418204
1930.78, 0.421893
1931.5, 0.424726
1932.22, 0.427032
1932.94, 0.428943
1933.66, 0.430326
1934.39, 0.431644
1935.11, 0.432566
1935.83, 0.433291
1936.55, 0.434147
1937.28, 0.435004
1938.0, 0.435794
1938.73, 0.436453
1939.45, 0.437309
1940.18, 0.438429
1940.9, 0.439681
1941.63, 0.441262
1942.36, 0.442975
1943.09, 0.444424
1943.81, 0.445940
1944.54, 0.447652
1945.27, 0.449563
1946.0, 0.451671
1946.73, 0.453384
1947.47, 0.455426
1948.2, 0.457666
1948.93, 0.459906
1949.66, 0.462344
1950.4, 0.465045
1951.13, 0.467877
1951.86, 0.471040
1952.6, 0.474531
1953.34, 0.478089
1954.07, 0.481976
1954.81, 0.485863
1955.55, 0.489684
1956.29, 0.493439
1957.02, 0.497326
1957.76, 0.501015
1958.5, 0.504375
1959.24, 0.507669
1959.98, 0.510633
1960.72, 0.513137
1961.47, 0.515377
1962.21, 0.517221
1962.95, 0.518671
1963.7, 0.519988
1964.44, 0.521240
1965.18, 0.522228
1965.93, 0.523019
1966.67, 0.523809
1967.42, 0.524402
1968.17, 0.524732
1968.92, 0.525456
1969.66, 0.526247
1970.41, 0.526708
1971.16, 0.527367
1971.91, 0.528223
1972.66, 0.529343
1973.41, 0.530529
1974.16, 0.531517
1974.92, 0.532505
1975.67, 0.533691
1976.42, 0.534943
1977.18, 0.536129
1977.93, 0.537446
1978.69, 0.538698
1979.44, 0.539752
1980.2, 0.541136
1980.95, 0.542453
1981.71, 0.543903
1982.47, 0.545220
1983.23, 0.546208
1983.99, 0.547394
1984.74, 0.548778
1985.51, 0.550161
1986.27, 0.551676
1987.03, 0.553126
1987.79, 0.554707
1988.55, 0.556288
1989.32, 0.558199
1990.08, 0.560241
1990.84, 0.562415
1991.61, 0.564721
1992.37, 0.567158
1993.14, 0.569793
1993.9, 0.572560
1994.67, 0.575261
1995.44, 0.578226
1996.21, 0.581059
1996.98, 0.583826
1997.75, 0.586659
1998.52, 0.589228
1999.29, 0.591731
2000.06, 0.594366
2000.83, 0.596541
2001.6, 0.598715
2002.38, 0.600823
2003.15, 0.602733
2003.93, 0.604512
2004.7, 0.606291
2005.48, 0.608069
2006.25, 0.609782
2007.03, 0.611232
2007.81, 0.612615
2008.58, 0.614196
2009.36, 0.615580
2010.14, 0.616700
2010.92, 0.617885
2011.7, 0.619203
2012.48, 0.620323
2013.26, 0.621114
2014.05, 0.621970
2014.83, 0.622826
2015.61, 0.623815
2016.4, 0.624803
2017.18, 0.625725
2017.97, 0.626516
2018.75, 0.627174
2019.54, 0.627702
2020.32, 0.628294
2021.11, 0.629019
2021.9, 0.629480
2022.69, 0.629744
2023.48, 0.630403
2024.27, 0.631259
2025.06, 0.631786
2025.85, 0.632050
2026.64, 0.632313
2027.44, 0.632972
2028.23, 0.633631
2029.02, 0.633762
2029.82, 0.633828
2030.61, 0.634290
2031.41, 0.634817
2032.2, 0.635146
2033.0, 0.635212
2033.8, 0.635278
2034.6, 0.635541
2035.4, 0.636068
2036.2, 0.636464
2037.0, 0.636727
2037.8, 0.636925
2038.6, 0.637056
2039.4, 0.637188
2040.2, 0.637386
2041.01, 0.637715
2041.81, 0.637847
2042.61, 0.638045
2043.42, 0.638242
2044.22, 0.638242
2045.03, 0.638242
2045.84, 0.638374
2046.65, 0.638374
2047.46, 0.638572
2048.26, 0.638835
2049.07, 0.638703
2049.88, 0.638703
2050.69, 0.638769
2051.51, 0.638638
2052.32, 0.638440
2053.13, 0.638374
2053.94, 0.638176
2054.76, 0.637847
2055.57, 0.637649
2056.39, 0.637583
2057.2, 0.637452
2058.02, 0.637122
2058.84, 0.636727
2059.66, 0.636464
2060.48, 0.636200
2061.29, 0.635805
2062.11, 0.635541
2062.94, 0.635080
2063.76, 0.634487
2064.58, 0.634290
2065.4, 0.633960
2066.22, 0.633762
2067.05, 0.633433
2067.87, 0.632972
2068.7, 0.632643
2069.52, 0.632379
2070.35, 0.632115
2071.18, 0.631852
2072.0, 0.631786
2072.83, 0.631457
2073.66, 0.631127
2074.49, 0.631127
2075.32, 0.630666
2076.15, 0.629941
2076.98, 0.629810
2077.82, 0.629678
2078.65, 0.629349
2079.48, 0.629085
2080.32, 0.628756
2081.15, 0.628294
2081.99, 0.627833
2082.83, 0.627504
2083.66, 0.627109
2084.5, 0.626647
2085.34, 0.626120
2086.18, 0.625462
2087.02, 0.624737
2087.86, 0.623946
2088.7, 0.623222
2089.54, 0.622497
2090.39, 0.621772
2091.23, 0.620916
2092.07, 0.620125
2092.92, 0.619467
2093.76, 0.618742
2094.61, 0.618083
2095.45, 0.617622
2096.3, 0.617161
2097.15, 0.616700
2098.0, 0.616370
2098.85, 0.616304
2099.7, 0.616304
2100.55, 0.615777
2101.4, 0.615382
2102.25, 0.615448
2103.1, 0.615448
2103.96, 0.615250
2104.81, 0.615053
2105.67, 0.615119
2106.52, 0.615053
2107.38, 0.614921
2108.24, 0.614855
2109.09, 0.614789
2109.95, 0.614657
2110.81, 0.614592
2111.67, 0.614592
2112.53, 0.614723
2113.39, 0.614789
2114.25, 0.614592
2115.12, 0.614328
2115.98, 0.614262
2116.84, 0.614328
2117.71, 0.614394
2118.58, 0.614328
2119.44, 0.614262
2120.31, 0.614262
2121.18, 0.614065
2122.04, 0.614130
2122.91, 0.614130
2123.78, 0.613933
2124.65, 0.613801
2125.52, 0.613669
2126.4, 0.613669
2127.27, 0.613472
2128.14, 0.613340
2129.02, 0.613142
2129.89, 0.613142
2130.77, 0.612945
2131.64, 0.612813
2132.52, 0.612681
2133.4, 0.612747
2134.27, 0.612813
2135.15, 0.612681
2136.03, 0.612813
2136.91, 0.612945
2137.79, 0.612747
2138.68, 0.612747
2139.56, 0.612813
2140.44, 0.612549
2141.33, 0.612418
2142.21, 0.612352
2143.1, 0.612352
2143.99, 0.612352
2144.87, 0.612220
2145.76, 0.612022
2146.65, 0.611956
2147.54, 0.611759
2148.43, 0.611693
2149.32, 0.611429
2150.21, 0.611363
2151.1, 0.611232
2151.99, 0.610639
2152.89, 0.610309
2153.78, 0.610046
2154.68, 0.609716
2155.57, 0.609387
2156.47, 0.609058
2157.37, 0.608794
2158.27, 0.608465
2159.16, 0.608069
2160.06, 0.607740
2160.96, 0.607476
2161.86, 0.607213
2162.77, 0.606884
2163.67, 0.606620
2164.57, 0.606357
2165.48, 0.606159
2166.38, 0.606027
2167.29, 0.605895
2168.2, 0.605764
2169.1, 0.605632
2170.01, 0.605434
2170.92, 0.605500
2171.83, 0.605237
2172.74, 0.604973
2173.65, 0.604841
2174.56, 0.604841
2175.47, 0.604775
2176.39, 0.604644
2177.3, 0.604763
2178.22, 0.604524
2179.13, 0.603569
2180.05, 0.603091
2180.96, 0.602971
2181.88, 0.602553
2182.8, 0.602195
2183.72, 0.601657
2184.64, 0.601239
2185.56, 0.600463
2186.48, 0.599746
2187.41, 0.599448
2188.33, 0.598671
2189.25, 0.598373
2190.18, 0.598253
2191.1, 0.597835
2192.03, 0.597118
2192.96, 0.596641
2193.89, 0.596700
2194.82, 0.596760
2195.74, 0.596223
2196.68, 0.595745
2197.61, 0.595267
2198.54, 0.594789
2199.47, 0.594013
2200.4, 0.593953
2201.34, 0.593356
2202.28, 0.592639
2203.21, 0.592639
2204.15, 0.592102
2205.08, 0.591206
2206.02, 0.590609
2206.96, 0.590131
2207.9, 0.589235
2208.84, 0.588757
2209.78, 0.588399
2210.73, 0.587622
2211.67, 0.587383
2212.61, 0.586726
2213.56, 0.586070
2214.5, 0.585651
2215.45, 0.585353
2216.4, 0.584995
2217.35, 0.584099
2218.3, 0.583800
2219.24, 0.583800
2220.2, 0.583740
2221.15, 0.583621
2222.1, 0.583501
2223.05, 0.583561
2224.0, 0.583561
2224.96, 0.583681
2225.91, 0.583860
2226.87, 0.584099
2227.83, 0.584039
2228.79, 0.584218
2229.74, 0.584278
2230.7, 0.584039
2231.66, 0.583740
2232.63, 0.583800
2233.59, 0.583979
2234.55, 0.583919
2235.51, 0.583203
2236.48, 0.582904
2237.44, 0.582665
2238.41, 0.582426
2239.38, 0.582128
2240.34, 0.581829
2241.31, 0.581471
2242.28, 0.581053
2243.25, 0.580754
2244.22, 0.580814
2245.19, 0.580157
2246.17, 0.579739
2247.14, 0.579560
2248.12, 0.578903
2249.09, 0.578305
2250.07, 0.578126
2251.04, 0.577828
2252.02, 0.577589
2253.0, 0.577230
2253.98, 0.577051
2254.96, 0.576454
2255.94, 0.575797
2256.92, 0.575618
2257.91, 0.575439
2258.89, 0.574841
2259.88, 0.574304
2260.86, 0.573766
2261.85, 0.573946
2262.83, 0.573647
2263.82, 0.573348
2264.81, 0.573050
2265.8, 0.572990
2266.79, 0.572751
2267.78, 0.572094
2268.78, 0.572034
2269.77, 0.572034
2270.76, 0.571855
2271.76, 0.571796
2272.75, 0.571497
2273.75, 0.571497
2274.75, 0.571975
2275.75, 0.571855
2276.75, 0.571557
2277.75, 0.571736
2278.75, 0.571855
2279.75, 0.572273
2280.75, 0.572333
2281.76, 0.572393
2282.76, 0.572751
2283.77, 0.572930
2284.77, 0.572691
2285.78, 0.572990
2286.79, 0.573050
2287.8, 0.572632
2288.81, 0.572393
2289.82, 0.572572
2290.83, 0.572572
2291.84, 0.572811
2292.86, 0.572930
2293.87, 0.572512
2294.89, 0.572034
2295.91, 0.571676
2296.92, 0.571736
2297.94, 0.571616
2298.96, 0.571616
2299.98, 0.571437
2301.0, 0.571437
2302.02, 0.571139
2303.04, 0.571079
2304.07, 0.570959
2305.09, 0.570840
2306.12, 0.570661
2307.15, 0.570601
2308.17, 0.570840
2309.2, 0.570780
2310.23, 0.570422
2311.26, 0.570243
2312.29, 0.570064
2313.32, 0.569825
2314.35, 0.569765
2315.39, 0.569347
2316.42, 0.568989
2317.46, 0.568690
2318.5, 0.568391
2319.53, 0.568212
2320.57, 0.568272
2321.61, 0.567615
2322.65, 0.567137
2323.69, 0.566958
2324.73, 0.566659
2325.78, 0.566241
2326.82, 0.565823
2327.86, 0.564987
2328.91, 0.564211
2329.96, 0.563554
2331.01, 0.562897
2332.05, 0.562240
2333.1, 0.561463
2334.15, 0.560627
2335.21, 0.560149
2336.26, 0.559731
2337.31, 0.559134
2338.36, 0.558298
2339.42, 0.557402
2340.48, 0.556446
2341.53, 0.555431
2342.59, 0.554356
2343.65, 0.553520
2344.71, 0.552565
2345.77, 0.551489
2346.83, 0.550474
2347.9, 0.549519
2348.96, 0.548145
2350.02, 0.546831
2351.09, 0.545756
2352.16, 0.544502
2353.23, 0.542889
2354.29, 0.541396
2355.36, 0.540082
2356.43, 0.538589
2357.51, 0.536917
2358.58, 0.535722
2359.65, 0.533990
2360.73, 0.532557
2361.8, 0.531422
2362.88, 0.530467
2363.96, 0.529093
2365.03, 0.527719
2366.11, 0.526704
2367.19, 0.525510
2368.27, 0.523957
2369.36, 0.522822
2370.44, 0.521568
2371.53, 0.520493
2372.61, 0.519239
2373.7, 0.517745
2374.78, 0.516073
2375.87, 0.514461
2376.96, 0.513147
2378.05, 0.511654
2379.14, 0.509742
2380.24, 0.507951
2381.33, 0.506159
2382.42, 0.504367
2383.52, 0.502337
2384.61, 0.500127
2385.71, 0.497977
2386.81, 0.495588
2387.91, 0.493438
2389.01, 0.491228
2390.11, 0.488959
2391.22, 0.486570
2392.32, 0.483822
2393.42, 0.481613
2394.53, 0.479522
2395.64, 0.477193
2396.74, 0.474804
2397.85, 0.472117
2398.96, 0.469310
2400.07, 0.466682
2401.18, 0.464173
2402.3, 0.461844
2403.41, 0.459216
2404.52, 0.456409
2405.64, 0.453722
2406.76, 0.451153
2407.88, 0.448705
2408.99, 0.446376
2410.11, 0.443569
2411.23, 0.440463
2412.36, 0.437955
2413.48, 0.435506
2414.6, 0.432938
2415.73, 0.430310
2416.85, 0.427503
2417.98, 0.424875
2419.11, 0.422426
2420.24, 0.420037
2421.37, 0.417708
2422.5, 0.415140
2423.64, 0.412452
2424.77, 0.409884
2425.9, 0.407436
2427.04, 0.405106
2428.18, 0.402897
2429.31, 0.400388
2430.45, 0.397999
2431.59, 0.395551
2432.73, 0.393042
2433.88, 0.390653
2435.02, 0.388264
2436.16, 0.386055
2437.31, 0.383964
2438.45, 0.381635
2439.6, 0.379366
2440.75, 0.377215
2441.9, 0.375125
2443.05, 0.372915
2444.2, 0.370646
2445.35, 0.368436
2446.51, 0.366286
2447.67, 0.364435
2448.82, 0.362643
2449.98, 0.360971
2451.14, 0.358940
2452.3, 0.357268
2453.46, 0.355536
2454.62, 0.354043
2455.78, 0.352729
2456.94, 0.351474
2458.11, 0.350101
2459.28, 0.349086
2460.44, 0.348249
2461.61, 0.347294
2462.78, 0.345980
2463.95, 0.344905
2465.12, 0.344009
2466.3, 0.343233
2467.47, 0.342516
2468.65, 0.341859
2469.82, 0.341142
2471.0, 0.340485
2472.18, 0.339649
2473.36, 0.338932
2474.54, 0.338216
2475.72, 0.337619
2476.9, 0.336782
2478.08, 0.336185
2479.27, 0.335707
2480.46, 0.335289
2481.64, 0.334931
2482.83, 0.334931
2484.02, 0.334931
2485.21, 0.334991
2486.4, 0.335110
2487.6, 0.335349
2488.79, 0.335648
2489.99, 0.336125
2491.18, 0.336544
2492.38, 0.336603
2493.58, 0.337021
2494.78, 0.337619
2495.98, 0.338216
2497.18, 0.338932
2498.39, 0.339470
2499.59, 0.339888
2500.8, 0.340366
2502.01, 0.341083
2503.21, 0.341799
2504.42, 0.342516
2505.63, 0.343472
2506.84, 0.344726
2508.06, 0.346099
2509.27, 0.347234
2510.49, 0.348309
2511.7, 0.349623
2512.92, 0.350698
2514.14, 0.352012
2515.36, 0.353206
2516.58, 0.354341
2517.8, 0.355357
2519.03, 0.356611
2520.25, 0.357984
2521.48, 0.359119
2522.7, 0.359597
2523.93, 0.360194
2525.16, 0.360971
2526.39, 0.361866
2527.62, 0.362822
2528.86, 0.363419
2530.09, 0.363778
2531.33, 0.364196
2532.56, 0.364793
2533.8, 0.365808
2535.04, 0.366047
2536.28, 0.366465
2537.52, 0.367660
2538.76, 0.368854
2540.01, 0.369511
2541.25, 0.369511
2542.5, 0.369212
2543.75, 0.370228
2544.99, 0.371601
2546.24, 0.372139
2547.49, 0.372139
2548.75, 0.373513
2550.0, 0.373990
2551.26, 0.373572
2552.51, 0.373811
2553.77, 0.376021
2555.03, 0.377872
2556.29, 0.378589
2557.55, 0.379067
2558.81, 0.378649
2560.08, 0.375842
2561.34, 0.373572
2562.61, 0.373990
2563.88, 0.375125
2565.14, 0.377872
2566.41, 0.380679
2567.68, 0.380261
2568.96, 0.377813
2570.23, 0.378649
2571.51, 0.380321
2572.78, 0.376618
2574.06, 0.377454
2575.34, 0.379246
2576.62, 0.377992
2577.9, 0.379664
2579.18, 0.381038
2580.47, 0.379007
2581.75, 0.378410
2583.04, 0.374528
2584.32, 0.374408
2585.61, 0.377454
2586.9, 0.376081
2588.2, 0.376738
2589.49, 0.378291
2590.78, 0.379306
2592.08, 0.377215
2593.37, 0.367062
2594.67, 0.358462
2595.97, 0.366047
2597.27, 0.374050
2598.57, 0.376260
2599.88, 0.374946
2601.18, 0.372318
2602.49, 0.370288
2603.79, 0.366525
2605.1, 0.362046
2606.41, 0.363300
2607.72, 0.365450
2609.03, 0.364853
2610.35, 0.364793
2611.66, 0.364793
2612.98, 0.363240
2614.3, 0.362225
2615.62, 0.356611
2616.94, 0.352669
2618.26, 0.354341
2619.58, 0.350220
2620.91, 0.349862
2622.23, 0.353684
2623.56, 0.353027
2624.89, 0.349145
2626.22, 0.343233
2627.55, 0.343412
2628.88, 0.340366
2630.21, 0.334274
2631.55, 0.336424
2632.89, 0.336782
2634.22, 0.334931
2635.56, 0.334871
2636.9, 0.333199
2638.25, 0.331109
2639.59, 0.328899
2640.93, 0.326570
2642.28, 0.324240
2643.63, 0.322270
2644.98, 0.318626
2646.33, 0.316894
2647.68, 0.316715
2649.03, 0.315401
2650.39, 0.312415
2651.74, 0.308115
2653.1, 0.306204
2654.46, 0.305009
2655.82, 0.303158
2657.18, 0.302202
2658.54, 0.298320
2659.9, 0.295334
2661.27, 0.293423
2662.64, 0.290676
2664.01, 0.283270
2665.38, 0.276641
2666.74, 0.274550
2668.12, 0.275028
2669.49, 0.267921
2670.87, 0.264576
2672.24, 0.268458
2673.62, 0.266726
2675.0, 0.261053
2676.38, 0.255140
2677.76, 0.252393
2679.15, 0.249645
2680.54, 0.249048
2681.92, 0.246241
2683.31, 0.241642
2684.7, 0.237820
2686.09, 0.234058
2687.48, 0.230414
2688.88, 0.226592
2690.27, 0.222352
2691.67, 0.217036
2693.07, 0.209869
2694.47, 0.205032
2695.87, 0.202105
2697.27, 0.199000
2698.67, 0.194819
2700.08, 0.189324
2701.49, 0.183949
2702.9, 0.179948
2704.31, 0.175170
2705.72, 0.170034
2707.13, 0.164658
2708.54, 0.158507
2709.96, 0.152116
2711.38, 0.147936
2712.8, 0.145786
2714.22, 0.142023
2715.64, 0.137245
2717.06, 0.131930
2718.49, 0.126256
2719.91, 0.119567
2721.34, 0.115685
2722.77, 0.112102
2724.2, 0.106428
2725.63, 0.102665
2727.07, 0.0992010
2728.5, 0.0946020
2729.94, 0.0898840
2731.38, 0.0852260
2732.82, 0.0800300
2734.26, 0.0742960
2735.7, 0.0698170
2737.15, 0.0659950
2738.59, 0.0606790
2740.04, 0.0557820
2741.49, 0.0520190
2742.94, 0.0490330
2744.39, 0.0459280
2745.84, 0.0425230
2747.3, 0.0392980
2748.76, 0.0365510
2750.21, 0.0341620
2751.67, 0.0321310
2753.14, 0.0303400
2754.6, 0.0286080
2756.06, 0.0275920
2757.53, 0.0272340
2759.0, 0.0268160
2760.46, 0.0262780
2761.94, 0.0257410
2763.41, 0.0255020
2764.88, 0.0255620
2766.36, 0.0255620
2767.83, 0.0256220
2769.31, 0.0259800
2770.79, 0.0264580
2772.27, 0.0271740
2773.76, 0.0280700
2775.24, 0.0291450
2776.73, 0.0301610
2778.22, 0.0311760
2779.71, 0.0323110
2781.2, 0.0336840
2782.69, 0.0349380
2784.18, 0.0360130
2785.68, 0.0366700
2787.18, 0.0372680
2788.68, 0.0381630
2790.18, 0.0389400
2791.68, 0.0390590
2793.19, 0.0388200
2794.69, 0.0381630
2796.2, 0.0371480
2797.71, 0.0358340
2799.22, 0.0344610
2800.73, 0.0331470
2802.24, 0.0319520
2803.76, 0.0313550
2805.28, 0.0311760
2806.8, 0.0311160
2808.32, 0.0312950
2809.84, 0.0315340
2811.36, 0.0319520
2812.89, 0.0324900
2814.42, 0.0330870
2815.94, 0.0341620
2817.48, 0.0354160
2819.01, 0.0366700
2820.54, 0.0381040
2822.08, 0.0398360
2823.61, 0.0414480
2825.15, 0.0428220
2826.69, 0.0441960
2828.23, 0.0456290
2829.78, 0.0469430
2831.32, 0.0480780
2832.87, 0.0491530
2834.42, 0.0501080
2835.97, 0.0511830
2837.52, 0.0520790
2839.08, 0.0527960
2840.63, 0.0535720
2842.19, 0.0545280
2843.75, 0.0553640
2845.31, 0.0560210
2846.87, 0.0566180
2848.44, 0.0570360
2850.0, 0.0573950
2851.57, 0.0577530
2853.14, 0.0582310
2854.71, 0.0586490
2856.28, 0.0590670
2857.86, 0.0594850
2859.43, 0.0600820
2861.01, 0.0606790
2862.59, 0.0612770
2864.17, 0.0619340
2865.76, 0.0625310
2867.34, 0.0631880
2868.93, 0.0641430
2870.52, 0.0650390
2872.11, 0.0656360
2873.7, 0.0663530
2875.29, 0.0671300
2876.89, 0.0677270
2878.49, 0.0682640
2880.08, 0.0689210
2881.69, 0.0695180
2883.29, 0.0698170
2884.89, 0.0700560
2886.5, 0.0704740
2888.11, 0.0708320
2889.72, 0.0710710
2891.33, 0.0713700
2892.94, 0.0716690
2894.56, 0.0719070
2896.17, 0.0721460
2897.79, 0.0722660
2899.42, 0.0724450
2901.04, 0.0726840
2902.66, 0.0729820
2904.29, 0.0733410
2905.92, 0.0735200
2907.55, 0.0736990
2909.18, 0.0737590
2910.81, 0.0738190
2912.45, 0.0740570
2914.08, 0.0742960
2915.72, 0.0744160
2917.36, 0.0745950
2919.01, 0.0748340
2920.65, 0.0750730
2922.3, 0.0752520
2923.94, 0.0754910
2925.59, 0.0758490
2927.25, 0.0761480
2928.9, 0.0761480
2930.56, 0.0762670
2932.21, 0.0763270
2933.87, 0.0766260
2935.53, 0.0769840
2937.2, 0.0771630
2938.86, 0.0774020
2940.53, 0.0775810
2942.2, 0.0778200
2943.87, 0.0781190
2945.54, 0.0785970
2947.22, 0.0791940
2948.89, 0.0799100
2950.57, 0.0806270
2952.25, 0.0811050
2953.93, 0.0817020
2955.62, 0.0823590
2957.3, 0.0831360
2958.99, 0.0842110
2960.68, 0.0852260
2962.37, 0.0858830
2964.07, 0.0866590
2965.76, 0.0875550
2967.46, 0.0883910
2969.16, 0.0893470
2970.86, 0.0902430
2972.56, 0.0909000
2974.27, 0.0917360
2975.98, 0.0923330
2977.69, 0.0929900
2979.4, 0.0935870
2981.11, 0.0941250
2982.83, 0.0945430
2984.54, 0.0951400
2986.26, 0.0957370
2987.98, 0.0963340
2989.71, 0.0966930
2991.43, 0.0969910
2993.16, 0.0976480
2994.89, 0.0983650
2996.62, 0.0989030
2998.35, 0.0995600
3000.09, 0.100037
3001.83, 0.100515
3003.57, 0.101172
3005.31, 0.101829
3007.05, 0.102546
3008.79, 0.103203
3010.54, 0.103800
3012.29, 0.104576
3014.04, 0.105353
3015.8, 0.105950
3017.55, 0.106607
3019.31, 0.107383
3021.07, 0.108220
3022.83, 0.109056
3024.59, 0.109653
3026.36, 0.110310
3028.13, 0.111146
3029.9, 0.111922
3031.67, 0.112699
3033.44, 0.113654
3035.22, 0.114431
3037.0, 0.115267
3038.78, 0.116103
3040.56, 0.116700
3042.34, 0.117238
3044.13, 0.118014
3045.92, 0.118731
3047.71, 0.119328
3049.5, 0.119985
3051.3, 0.120642
3053.09, 0.121239
3054.89, 0.121837
3056.69, 0.122434
3058.5, 0.123031
3060.3, 0.123628
3062.11, 0.123987
3063.92, 0.124464
3065.73, 0.124882
3067.55, 0.125062
3069.36, 0.125181
3071.18, 0.124942
3073.0, 0.124584
3074.82, 0.124225
3076.65, 0.123807
3078.48, 0.123569
3080.31, 0.123330
3082.14, 0.123569
3083.97, 0.124166
3085.8, 0.124882
3087.64, 0.125898
3089.48, 0.126973
3091.33, 0.128108
3093.17, 0.129242
3095.02, 0.130377
3096.87, 0.131273
3098.72, 0.131930
3100.57, 0.132527
3102.43, 0.133184
3104.28, 0.133602
3106.14, 0.133960
3108.01, 0.134438
3109.87, 0.134797
3111.74, 0.135334
3113.61, 0.136290
3115.48, 0.137424
3117.35, 0.138738
3119.23, 0.140351
3121.1, 0.142322
3122.98, 0.144293
3124.87, 0.146443
3126.75, 0.148772
3128.64, 0.151101
3130.53, 0.153490
3132.42, 0.155999
3134.31, 0.158567
3136.21, 0.161075
3138.11, 0.163464
3140.01, 0.166032
3141.91, 0.168361
3143.82, 0.170691
3145.73, 0.173139
3147.64, 0.175528
3149.55, 0.177678
3151.46, 0.179828
3153.38, 0.182158
3155.3, 0.184547
3157.22, 0.186876
3159.14, 0.189205
3161.07, 0.191594
3163.0, 0.193983
3164.93, 0.196193
3166.86, 0.198402
3168.8, 0.200612
3170.74, 0.202762
3172.68, 0.204972
3174.62, 0.207122
3176.56, 0.209093
3178.51, 0.211064
3180.46, 0.213094
3182.42, 0.215185
3184.37, 0.217096
3186.33, 0.219007
3188.29, 0.220739
3190.25, 0.222531
3192.21, 0.224442
3194.18, 0.226353
3196.15, 0.228145
3198.12, 0.229817
3200.09, 0.231609
3202.07, 0.233520
3204.05, 0.235312
3206.03, 0.236984
3208.02, 0.238776
3210.0, 0.240627
3211.99, 0.242240
3213.98, 0.243972
3215.98, 0.245704
3217.97, 0.247615
3219.97, 0.249466
3221.97, 0.251318
3223.98, 0.253109
3225.98, 0.254722
3227.99, 0.256334
3230.0, 0.258067
3232.02, 0.259798
3234.03, 0.261471
3236.05, 0.263024
3238.07, 0.264696
3240.1, 0.266547
3242.12, 0.268279
3244.15, 0.270071
3246.18, 0.271684
3248.22, 0.273416
3250.25, 0.275147
3252.29, 0.276760
3254.33, 0.278253
3256.38, 0.279925
3258.43, 0.281538
3260.47, 0.283091
3262.53, 0.284763
3264.58, 0.286435
3266.64, 0.288167
3268.7, 0.289840
3270.76, 0.291392
3272.82, 0.292885
3274.89, 0.294438
3276.96, 0.295991
3279.04, 0.297544
3281.11, 0.299156
3283.19, 0.300709
3285.27, 0.302143
3287.35, 0.303397
3289.44, 0.304711
3291.53, 0.306025
3293.62, 0.307279
3295.71, 0.308294
3297.81, 0.309429
3299.91, 0.310623
3302.01, 0.311639
3304.11, 0.312475
3306.22, 0.313430
3308.33, 0.314386
3310.44, 0.315222
3312.56, 0.316058
3314.68, 0.316656
3316.8, 0.317133
3318.92, 0.317671
3321.05, 0.318089
3323.18, 0.318447
3325.31, 0.318746
3327.44, 0.319104
3329.58, 0.319522
3331.72, 0.319821
3333.86, 0.320299
3336.01, 0.320776
3338.16, 0.321254
3340.31, 0.321792
3342.46, 0.322449
3344.61, 0.323046
3346.77, 0.323643
3348.94, 0.324300
3351.1, 0.324718
3353.27, 0.325017
3355.44, 0.325196
3357.61, 0.324957
3359.79, 0.324181
3361.97, 0.323046
3364.15, 0.321553
3366.33, 0.319642
3368.52, 0.317790
3370.71, 0.316237
3372.9, 0.315103
3375.1, 0.314446
3377.3, 0.314326
3379.5, 0.314625
3381.71, 0.315700
3383.91, 0.317253
3386.12, 0.319044
3388.34, 0.320776
3390.55, 0.322389
3392.77, 0.323942
3394.99, 0.325554
3397.22, 0.326629
3399.45, 0.327167
3401.68, 0.327346
3403.91, 0.327525
3406.15, 0.327824
3408.39, 0.328242
3410.63, 0.329078
3412.87, 0.330511
3415.12, 0.332363
3417.37, 0.334632
3419.63, 0.337499
3421.88, 0.340485
3424.14, 0.343352
3426.41, 0.346398
3428.67, 0.349324
3430.94, 0.351952
3433.21, 0.354282
3435.49, 0.356790
3437.77, 0.359298
3440.05, 0.361687
3442.33, 0.364076
3444.62, 0.366286
3446.91, 0.368137
3449.2, 0.369869
3451.5, 0.371601
3453.8, 0.373095
3456.1, 0.374647
3458.41, 0.376260
3460.72, 0.377753
3463.03, 0.379007
3465.34, 0.379843
3467.66, 0.379903
3469.98, 0.379127
3472.31, 0.377932
3474.63, 0.376917
3476.96, 0.376558
3479.3, 0.377395
3481.64, 0.379067
3483.97, 0.381157
3486.32, 0.383427
3488.66, 0.385756
3491.01, 0.388085
3493.36, 0.390594
3495.72, 0.392863
3498.08, 0.394834
3500.44, 0.396865
3502.81, 0.399015
3505.18, 0.401045
3507.55, 0.403016
3509.92, 0.404927
3512.3, 0.407077
3514.68, 0.409466
3517.06, 0.411975
3519.45, 0.414483
3521.84, 0.416932
3524.24, 0.419560
3526.64, 0.422128
3529.04, 0.424517
3531.44, 0.426786
3533.85, 0.429115
3536.26, 0.431265
3538.67, 0.433296
3541.09, 0.435207
3543.51, 0.437118
3545.93, 0.439089
3548.36, 0.440941
3550.79, 0.442613
3553.22, 0.444226
3555.66, 0.446077
3558.1, 0.447869
3560.54, 0.449421
3562.99, 0.450795
3565.44, 0.452109
3567.9, 0.453542
3570.35, 0.454976
3572.81, 0.456290
3575.28, 0.457305
3577.75, 0.458320
3580.22, 0.459276
3582.69, 0.460291
3585.17, 0.461127
3587.65, 0.461784
3590.14, 0.462680
3592.62, 0.463516
3595.11, 0.464233
3597.61, 0.464950
3600.11, 0.465726
3602.61, 0.466323
3605.11, 0.466921
3607.62, 0.467458
3610.14, 0.468115
3612.65, 0.468653
3615.17, 0.469130
3617.69, 0.469608
3620.22, 0.470146
3622.75, 0.470862
3625.28, 0.471519
3627.82, 0.472057
3630.36, 0.472594
3632.9, 0.472953
3635.45, 0.473311
3638.0, 0.473789
3640.56, 0.474207
3643.12, 0.474685
3645.68, 0.475043
3648.24, 0.475461
3650.81, 0.476058
3653.39, 0.476835
3655.96, 0.477611
3658.54, 0.478208
3661.13, 0.478746
3663.71, 0.479582
3666.3, 0.480299
3668.9, 0.481075
3671.5, 0.481792
3674.1, 0.482508
3676.7, 0.483285
3679.31, 0.484061
3681.93, 0.484778
3684.54, 0.485554
3687.17, 0.486570
3689.79, 0.487585
3692.42, 0.488421
3695.05, 0.489377
3697.69, 0.490452
3700.32, 0.491587
3702.97, 0.492781
3705.61, 0.493856
3708.27, 0.494812
3710.92, 0.495707
3713.58, 0.496544
3716.24, 0.497320
3718.91, 0.498096
3721.58, 0.498753
3724.25, 0.499351
3726.93, 0.499948
3729.61, 0.500545
3732.29, 0.501023
3734.98, 0.501441
3737.67, 0.501799
3740.37, 0.502158
3743.07, 0.502456
3745.78, 0.502815
3748.49, 0.502994
3751.2, 0.503053
3753.91, 0.502994
3756.63, 0.502934
3759.36, 0.502635
3762.09, 0.502098
3764.82, 0.501381
3767.55, 0.500426
3770.29, 0.498992
3773.04, 0.497260
3775.78, 0.495648
3778.54, 0.494453
3781.29, 0.493199
3784.05, 0.491885
3786.82, 0.490810
3789.59, 0.490034
3792.36, 0.489556
3795.13, 0.489496
3797.92, 0.489735
3800.7, 0.490213
3803.49, 0.491049
3806.28, 0.492064
3809.08, 0.493080
3811.88, 0.494214
3814.68, 0.495349
3817.49, 0.496424
3820.31, 0.497499
3823.12, 0.498514
3825.94, 0.499291
3828.77, 0.500008
3831.6, 0.500485
3834.43, 0.500784
3837.27, 0.501023
3840.11, 0.501142
3842.96, 0.501202
3845.81, 0.501202
3848.67, 0.500963
3851.53, 0.500844
3854.39, 0.500426
3857.26, 0.499948
3860.13, 0.499351
3863.01, 0.498574
3865.89, 0.497738
3868.77, 0.497201
3871.66, 0.496842
3874.55, 0.496842
3877.45, 0.496962
3880.35, 0.497081
3883.26, 0.497141
3886.17, 0.497081
3889.09, 0.496842
3892.01, 0.496484
3894.93, 0.495946
3897.86, 0.495409
3900.79, 0.494752
3903.73, 0.494214
3906.67, 0.493498
3909.62, 0.492662
3912.57, 0.491766
3915.52, 0.490810
3918.48, 0.489556
3921.45, 0.488302
3924.42, 0.487286
3927.39, 0.486629
3930.37, 0.486271
3933.35, 0.486331
3936.34, 0.486271
3939.33, 0.485793
3942.32, 0.484897
3945.32, 0.483763
3948.33, 0.482389
3951.34, 0.481015
3954.35, 0.479403
3957.37, 0.478029
3960.39, 0.476835
3963.42, 0.475700
3966.45, 0.474625
3969.49, 0.473968
3972.53, 0.473729
3975.58, 0.474028
3978.63, 0.474685
3981.68, 0.475282
3984.75, 0.475521
3987.81, 0.475521
3990.88, 0.475043
3993.95, 0.474326
3997.03, 0.473610
4000.12, 0.472953
4003.21, 0.472236
4006.3, 0.471758
4009.4, 0.471280
4012.5, 0.470982
4015.61, 0.470743
4018.72, 0.470504
4021.84, 0.470205
4024.96, 0.469907
4028.09, 0.469608
4031.22, 0.469429
4034.36, 0.469130
4037.5, 0.468772
4040.65, 0.468414
4043.8, 0.467996
4046.96, 0.467279
4050.12, 0.466443
4053.29, 0.465487
4056.46, 0.464591
4059.64, 0.463516
4062.82, 0.462322
4066.0, 0.461008
4069.19, 0.459575
4072.39, 0.458022
4075.59, 0.456469
4078.8, 0.454976
4082.01, 0.453304
4085.23, 0.451631
4088.45, 0.449899
4091.68, 0.447869
4094.91, 0.445838
4098.15, 0.443927
4101.39, 0.442016
4104.63, 0.439866
4107.89, 0.437716
4111.14, 0.435566
4114.41, 0.433356
4117.67, 0.431086
4120.95, 0.428817
4124.23, 0.426428
4127.51, 0.424039
4130.8, 0.421590
4134.09, 0.419321
4137.39, 0.416932
4140.7, 0.414543
4144.01, 0.412154
4147.32, 0.409825
4150.64, 0.407316
4153.97, 0.404868
4157.3, 0.402359
4160.64, 0.399851
4163.98, 0.397163
4167.33, 0.394356
4170.68, 0.391370
4174.04, 0.388264
4177.4, 0.384980
4180.77, 0.381635
4184.14, 0.378052
4187.52, 0.374289
4190.91, 0.370288
4194.3, 0.366226
4197.69, 0.362165
4201.1, 0.357925
4204.5, 0.353625
4207.92, 0.349324
4211.34, 0.345024
4214.76, 0.340665
4218.19, 0.336245
4221.62, 0.331885
4225.06, 0.327525
4228.51, 0.323106
4231.96, 0.318746
4235.42, 0.314326
4238.88, 0.309907
4242.35, 0.305487
4245.83, 0.301127
4249.31, 0.296648
4252.79, 0.292288
4256.28, 0.287869
4259.78, 0.283330
4263.29, 0.279030
4266.79, 0.275088
4270.31, 0.271624
4273.83, 0.268518
4277.35, 0.265651
4280.89, 0.263024
4284.42, 0.260635
4287.97, 0.258246
4291.52, 0.255916
4295.07, 0.253647
4298.63, 0.251437
4302.2, 0.249466
4305.78, 0.247495
4309.35, 0.245524
4312.94, 0.243374
4316.53, 0.241165
4320.13, 0.238835
4323.73, 0.236446
4327.34, 0.234117
4330.96, 0.231967
4334.58, 0.229817
4338.21, 0.227667
4341.84, 0.225696
4345.48, 0.223904
4349.12, 0.222232
4352.77, 0.220500
4356.43, 0.218888
4360.1, 0.217275
4363.76, 0.215722
4367.44, 0.214289
4371.12, 0.212796
4374.81, 0.211422
4378.51, 0.210049
4382.21, 0.208615
4385.92, 0.207301
4389.63, 0.206047
4393.35, 0.204912
4397.08, 0.203778
4400.81, 0.202822
4404.55, 0.201926
4408.29, 0.201030
4412.04, 0.200075
4415.8, 0.199000
4419.57, 0.197925
4423.34, 0.196730
4427.12, 0.195416
4430.9, 0.193923
4434.69, 0.192490
4438.49, 0.190997
4442.29, 0.189444
4446.1, 0.187772
4449.92, 0.185801
4453.74, 0.183710
4457.57, 0.181620
4461.41, 0.179351
4465.25, 0.176782
4469.1, 0.173975
4472.95, 0.171109
4476.82, 0.168361
4480.69, 0.166032
4484.56, 0.163942
4488.44, 0.162210
4492.33, 0.160836
4496.23, 0.159821
4500.13, 0.159224
4504.04, 0.158865
4507.96, 0.158626
4511.88, 0.158447
4515.81, 0.158447
4519.75, 0.158865
4523.69, 0.159642
4527.65, 0.160538
4531.6, 0.161672
4535.57, 0.163046
4539.54, 0.164539
4543.52, 0.166331
4547.5, 0.168242
4551.5, 0.170153
4555.5, 0.171945
4559.5, 0.173916
4563.52, 0.176006
4567.54, 0.178276
4571.56, 0.180306
4575.6, 0.181978
4579.64, 0.183173
4583.69, 0.183770
4587.75, 0.183591
4591.81, 0.182874
4595.88, 0.181978
4599.96, 0.180903
4604.04, 0.179888
4608.14, 0.178873
4612.24, 0.177559
4616.34, 0.175827
4620.46, 0.174035
4624.58, 0.172184
4628.71, 0.170153
4632.84, 0.168003
4636.99, 0.165793
4641.14, 0.163643
4645.3, 0.161613
4649.47, 0.159881
4653.64, 0.158447
4657.82, 0.157133
4662.01, 0.155760
4666.21, 0.154386
4670.41, 0.153072
4674.62, 0.151997
4678.84, 0.151161
4683.07, 0.150444
4687.3, 0.149847
4691.54, 0.149728
4695.79, 0.150026
4700.05, 0.150922
4704.31, 0.152475
4708.59, 0.154505
4712.87, 0.156775
4717.15, 0.159164
4721.45, 0.161254
4725.76, 0.162986
4730.07, 0.164420
4734.39, 0.165614
4738.72, 0.166809
4743.05, 0.168182
4747.39, 0.169616
4751.75, 0.171109
4756.1, 0.172661
4760.47, 0.174393
4764.85, 0.175887
4769.23, 0.176902
4773.62, 0.177499
4778.02, 0.178335
4782.43, 0.180187
4786.85, 0.183949
4791.27, 0.189742
4795.7, 0.197208
4800.14, 0.205390
4804.59, 0.213333
4809.05, 0.220799
4813.51, 0.227667
4817.99, 0.234058
4822.47, 0.239910
4826.96, 0.245166
4831.46, 0.249586
4835.96, 0.253468
4840.48, 0.256812
4845.0, 0.259798
4849.54, 0.262486
4854.08, 0.264696
4858.63, 0.266726
4863.18, 0.268518
4867.75, 0.269952
4872.33, 0.271206
4876.91, 0.272340
4881.5, 0.273236
4886.1, 0.273953
4890.71, 0.274610
4895.33, 0.275147
4899.96, 0.275745
4904.59, 0.276461
4909.24, 0.277118
4913.89, 0.277716
4918.55, 0.278313
4923.22, 0.278791
4927.9, 0.279149
4932.59, 0.279388
4937.29, 0.279806
4942.0, 0.279985
4946.71, 0.279746
4951.44, 0.278850
4956.17, 0.276879
4960.91, 0.274550
4965.67, 0.272938
4970.43, 0.273057
4975.2, 0.275566
4979.98, 0.280224
4984.76, 0.286376
4989.56, 0.292348
4994.37, 0.297604
4999.18, 0.301904
5004.01, 0.305487
5008.84, 0.308533
5013.69, 0.310982
5018.54, 0.312893
5023.4, 0.315162
5028.28, 0.317492
5033.16, 0.319582
5038.05, 0.321433
5042.95, 0.323165
5047.86, 0.324897
5052.78, 0.326510
5057.71, 0.328003
5062.65, 0.329616
5067.6, 0.331049
5072.56, 0.332482
5077.53, 0.333617
5082.5, 0.334632
5087.49, 0.336305
5092.49, 0.337857
5097.5, 0.339112
5102.51, 0.340366
5107.54, 0.341620
5112.58, 0.342635
5117.62, 0.343591
5122.68, 0.344726
5127.75, 0.345741
5132.82, 0.346517
5137.91, 0.347174
5143.01, 0.347533
5148.12, 0.348011
5153.23, 0.349743
5158.36, 0.351116
5163.5, 0.352251
5168.65, 0.353147
5173.81, 0.354043
5178.98, 0.355058
5184.15, 0.356073
5189.34, 0.356790
5194.54, 0.357268
5199.75, 0.357507
5204.98, 0.358522
5210.21, 0.358223
5215.45, 0.358641
5220.7, 0.360493
5225.96, 0.361209
5231.23, 0.361329
5236.52, 0.361329
5241.81, 0.361747
5247.12, 0.362165
5252.44, 0.362225
5257.76, 0.362165
5263.1, 0.361866
5268.45, 0.361448
5273.81, 0.360732
5279.18, 0.360433
5284.56, 0.359955
5289.95, 0.358462
5295.36, 0.358223
5300.77, 0.358462
5306.2, 0.357925
5311.63, 0.357447
5317.08, 0.356850
5322.54, 0.356073
5328.01, 0.355118
5333.49, 0.354341
5338.98, 0.353206
5344.49, 0.350579
5350.0, 0.347592
5355.53, 0.347652
5361.07, 0.347652
5366.62, 0.346338
5372.18, 0.344367
5377.75, 0.342277
5383.34, 0.339888
5388.93, 0.337559
5394.54, 0.334752
5400.16, 0.331825
5405.79, 0.328421
5411.44, 0.324778
5417.09, 0.319283
5422.76, 0.314625
5428.43, 0.314744
5434.12, 0.313729
5439.83, 0.311041
5445.54, 0.308832
5451.26, 0.307159
5457.0, 0.304890
5462.75, 0.301665
5468.52, 0.301247
5474.29, 0.300829
5480.08, 0.299933
5485.88, 0.300769
5491.69, 0.300650
5497.51, 0.299754
5503.35, 0.298918
5509.2, 0.298380
5515.06, 0.297066
5520.93, 0.295394
5526.82, 0.294498
5532.71, 0.293722
5538.63, 0.292348
5544.55, 0.290198
5550.49, 0.287391
5556.44, 0.285360
5562.4, 0.284166
5568.37, 0.282314
5574.36, 0.278134
5580.36, 0.275088
5586.37, 0.275446
5592.4, 0.274670
5598.44, 0.272400
5604.49, 0.270967
5610.56, 0.270011
5616.63, 0.268578
5622.73, 0.268220
5628.83, 0.267264
5634.95, 0.264397
5641.08, 0.260336
5647.23, 0.260814
5653.39, 0.260336
5659.56, 0.259560
5665.74, 0.258365
5671.94, 0.254125
5678.15, 0.251198
5684.38, 0.249407
5690.62, 0.245405
5696.87, 0.242359
5703.14, 0.237163
5709.42, 0.229459
5715.72, 0.223845
5722.03, 0.218470
5728.35, 0.212079
5734.69, 0.205151
5741.03, 0.198343
5747.4, 0.192191
5753.78, 0.188847
5760.17, 0.182874
5766.58, 0.176723
5773.0, 0.177320
5779.44, 0.177260
5785.88, 0.176125
5792.35, 0.174931
5798.83, 0.173617
5805.32, 0.172841
5811.83, 0.171348
5818.35, 0.167525
5824.89, 0.166749
5831.45, 0.168302
5838.01, 0.168720
5844.59, 0.167227
5851.19, 0.163763
5857.8, 0.158567
5864.43, 0.153012
5871.07, 0.147100
5877.73, 0.136947
5884.4, 0.129660
5891.09, 0.123569
5897.79, 0.114909
5904.5, 0.108996
5911.23, 0.101411
5917.98, 0.0934080
5924.75, 0.0867190
5931.53, 0.0804480
5938.32, 0.0774620
5945.13, 0.0795520
5951.96, 0.0820600
5958.8, 0.0849270
5965.65, 0.0867790
5972.53, 0.0897050
5979.42, 0.0921540
5986.32, 0.0926320
5993.24, 0.0933480
6000.18, 0.0941840
6007.13, 0.0929300
6014.1, 0.0907200
6021.08, 0.0888690
6028.09, 0.0864200
6035.1, 0.0825380
6042.14, 0.0764460
6049.19, 0.0702950
6056.25, 0.0682640
6063.34, 0.0648600
6070.44, 0.0590670
6077.55, 0.0543490
6084.69, 0.0503470
6091.84, 0.0455100
6099.0, 0.0406720
6106.19, 0.0355360
6113.39, 0.0306980
6120.61, 0.0273530
6127.84, 0.0247260
6135.09, 0.0222770
6142.36, 0.0207240
6149.65, 0.0202460
6156.95, 0.0204850
6164.27, 0.0215600
6171.61, 0.0231730
6178.97, 0.0244870
6186.34, 0.0264580
6193.73, 0.0296830
6201.14, 0.0331470
6208.57, 0.0367300
6216.01, 0.0406120
6223.47, 0.0448530
6230.95, 0.0490330
6238.45, 0.0532140
6245.97, 0.0574540
6253.5, 0.0615750
6261.06, 0.0653980
6268.63, 0.0691000
6276.21, 0.0727440
6283.82, 0.0763270
6291.45, 0.0796120
6299.1, 0.0829560
6306.76, 0.0860020
6314.44, 0.0891680
6322.14, 0.0920340
6329.86, 0.0946620
6337.6, 0.0957970
6345.35, 0.0977680
6353.13, 0.102426
6360.92, 0.105293
6368.74, 0.106607
6376.57, 0.109653
6384.43, 0.112460
6392.3, 0.114550
6400.19, 0.115386
6408.1, 0.112818
6416.03, 0.113177
6423.98, 0.118193
6431.95, 0.120941
6439.94, 0.123210
6447.95, 0.124703
6455.98, 0.125778
6464.03, 0.126495
6472.1, 0.126137
6480.19, 0.125420
6488.31, 0.123688
6496.44, 0.124703
6504.59, 0.129183
6512.76, 0.130377
6520.95, 0.129840
6529.16, 0.131691
6537.4, 0.132647
6545.65, 0.132408
6553.92, 0.132408
6562.22, 0.132706
6570.54, 0.131751
6578.88, 0.133781
6587.23, 0.135752
6595.61, 0.137066
6604.02, 0.138858
6612.44, 0.139455
6620.89, 0.139395
6629.35, 0.136767
6637.84, 0.135095
6646.35, 0.138918
6654.88, 0.141665
6663.44, 0.140829
6672.01, 0.138858
6680.61, 0.136947
6689.23, 0.137006
6697.88, 0.136290
6706.54, 0.133065
6715.23, 0.130735
6723.94, 0.129899
6732.67, 0.129362
6741.42, 0.128227
6750.2, 0.126614
6759.0, 0.125300
6767.82, 0.123389
6776.67, 0.121359
6785.54, 0.118970
6794.44, 0.118193
6803.35, 0.119030
6812.29, 0.118492
6821.26, 0.116760
6830.24, 0.115984
6839.25, 0.115924
6848.29, 0.113893
6857.35, 0.109892
6866.43, 0.108279
6875.54, 0.109593
6884.67, 0.108876
6893.82, 0.107443
6903.0, 0.105771
6912.2, 0.105054
6921.43, 0.104517
6930.69, 0.103740
6939.96, 0.102844
6949.27, 0.101053
6958.59, 0.0983050
6967.95, 0.0979470
6977.33, 0.0979470
6986.73, 0.0973500
6996.16, 0.0970510
7005.61, 0.0970510
7015.09, 0.0963340
7024.6, 0.0954980
7034.13, 0.0942440
7043.69, 0.0923930
7053.27, 0.0920940
7062.88, 0.0921540
7072.52, 0.0913180
7082.18, 0.0900040
7091.87, 0.0885700
7101.58, 0.0871370
7111.32, 0.0856440
7121.09, 0.0844490
7130.88, 0.0835540
7140.71, 0.0820600
7150.56, 0.0806870
7160.43, 0.0794330
7170.33, 0.0779400
7180.27, 0.0770440
7190.23, 0.0757890
7200.21, 0.0739980
7210.23, 0.0725640
7220.27, 0.0718480
7230.34, 0.0708920
7240.44, 0.0698170
7250.56, 0.0685030
7260.72, 0.0673090
7270.9, 0.0659350
7281.12, 0.0646210
7291.36, 0.0633070
7301.63, 0.0618140
7311.93, 0.0603210
7322.25, 0.0588280
7332.61, 0.0569760
7343.0, 0.0554240
7353.41, 0.0542290
7363.86, 0.0529150
7374.33, 0.0514820
7384.83, 0.0500490
7395.37, 0.0486150
7405.93, 0.0473010
7416.53, 0.0459870
7427.15, 0.0446140
7437.81, 0.0433000
7448.5, 0.0419860
7459.22, 0.0405520
7469.96, 0.0392390
7480.74, 0.0380440
7491.55, 0.0367900
7502.39, 0.0354760
7513.27, 0.0343410
7524.17, 0.0330870
7535.11, 0.0317730
7546.08, 0.0304590
7557.08, 0.0293240
7568.11, 0.0281300
7579.17, 0.0269350
7590.27, 0.0257410
7601.4, 0.0246660
7612.56, 0.0234710
7623.76, 0.0223370
7634.98, 0.0212020
7646.24, 0.0201870
7657.54, 0.0191710
7668.87, 0.0181560
7680.23, 0.0171410
7691.62, 0.0161850
7703.05, 0.0151700
7714.51, 0.0145130
7726.01, 0.0138560
7737.54, 0.0131390
7749.11, 0.0124820
7760.71, 0.0118250
7772.35, 0.0111680
7784.02, 0.0107500
7795.72, 0.0102720
7807.46, 0.00997400
7819.23, 0.00967500
7831.04, 0.00949600
7842.89, 0.00943600
7854.77, 0.00949600
7866.69, 0.00955600
7878.65, 0.00979500
7890.64, 0.0102130
7902.67, 0.0107500
7914.74, 0.0113480
7926.84, 0.0121840
7938.98, 0.0130200
7951.16, 0.0141550
7963.37, 0.0154090
7975.62, 0.0169620
7987.91, 0.0186340
8000.24, 0.0206050
8012.6, 0.0229940
8025.01, 0.0259800
8037.45, 0.0293840
8049.93, 0.0332660
8062.45, 0.0379250
8075.01, 0.0434790
8087.61, 0.0496300
8100.24, 0.0564990
8112.91, 0.0640240
8125.63, 0.0722060
8138.39, 0.0807470
8151.18, 0.0894660
8164.02, 0.0978870
8176.9, 0.105353
8189.81, 0.111146
8202.77, 0.115446
8215.77, 0.119268
8228.82, 0.124046
8241.9, 0.129780
8255.02, 0.134617
8268.19, 0.137484
8281.39, 0.139156
8294.65, 0.141247
8307.94, 0.144890
8321.28, 0.150026
8334.66, 0.156417
8348.08, 0.163882
8361.54, 0.171168
8375.05, 0.177200
8388.6, 0.181501
8402.2, 0.184367
8415.84, 0.186577
8429.52, 0.188130
8443.25, 0.189085
8457.02, 0.189444
8470.84, 0.190280
8484.7, 0.193087
8498.61, 0.197089
8512.57, 0.200254
8526.57, 0.201807
8540.62, 0.201090
8554.71, 0.197745
8568.85, 0.193206
8583.04, 0.191056
8597.27, 0.193565
8611.55, 0.197925
8625.88, 0.200851
8640.26, 0.201329
8654.68, 0.199059
8669.16, 0.193326
8683.68, 0.184188
8698.25, 0.173438
8712.87, 0.164002
8727.53, 0.156058
8742.25, 0.147219
8757.02, 0.136409
8771.83, 0.125181
8786.7, 0.115625
8801.62, 0.108996
8816.59, 0.104935
8831.61, 0.102426
8846.68, 0.100873
8861.8, 0.100276
8876.97, 0.100396
8892.2, 0.101053
8907.48, 0.102307
8922.81, 0.103979
8938.2, 0.105890
8953.63, 0.107264
8969.13, 0.107144
8984.67, 0.104875
9000.27, 0.100814
9015.92, 0.0953190
9031.63, 0.0895860
9047.39, 0.0848680
9063.21, 0.0824790
9079.08, 0.0830160
9095.01, 0.0860620
9111.0, 0.0906610
9127.04, 0.0953190
9143.13, 0.0990820
9159.28, 0.102008
9175.49, 0.103621
9191.76, 0.103322
9208.09, 0.101172
9224.47, 0.0984850
9240.92, 0.0962750
9257.42, 0.0948410
9273.98, 0.0941840
9290.6, 0.0941840
9307.28, 0.0942440
9324.02, 0.0945430
9340.82, 0.0950210
9357.68, 0.0954980
9374.6, 0.0956780
9391.58, 0.0958570
9408.62, 0.0959160
9425.73, 0.0957370
9442.9, 0.0954980
9460.13, 0.0953790
9477.42, 0.0953190
9494.78, 0.0956180
9512.2, 0.0963940
9529.69, 0.0972300
9547.24, 0.0978280
9564.86, 0.0983650
9582.54, 0.0985440
9600.28, 0.0983050
9618.1, 0.0978280
9635.97, 0.0974690
9653.92, 0.0972900
9671.93, 0.0969320
9690.01, 0.0965730
9708.16, 0.0961550
9726.37, 0.0952590
9744.65, 0.0942440
9763.0, 0.0925120
9781.43, 0.0898840
9799.92, 0.0858830
9818.48, 0.0797910
9837.1, 0.0723850
9855.8, 0.0664730
9874.58, 0.0631280
9893.42, 0.0603810
9912.34, 0.0596040
9931.33, 0.0630090
9950.39, 0.0693390
9969.52, 0.0762670
9988.74, 0.0821200
10008.0, 0.0859430
10027.4, 0.0883910
10046.8, 0.0900040
10066.3, 0.0912580
10085.9, 0.0922730
10105.6, 0.0928110
10125.3, 0.0929900
10145.1, 0.0932290
10165.0, 0.0936470
10185.0, 0.0942440
10205.0, 0.0949610
10225.2, 0.0955580
10245.4, 0.0959160
10265.7, 0.0961550
10286.0, 0.0964540
10306.5, 0.0964540
10327.0, 0.0966930
10347.6, 0.0970510
10368.3, 0.0972900
10389.1, 0.0973500
10409.9, 0.0976480
10430.9, 0.0977080
10451.9, 0.0978280
10473.0, 0.0981260
10494.2, 0.0981260
10515.5, 0.0979470
10536.9, 0.0978280
10558.4, 0.0977680
10579.9, 0.0977680
10601.5, 0.0978280
10623.3, 0.0975890
10645.1, 0.0974090
10667.0, 0.0974690
10689.0, 0.0973500
10711.1, 0.0972900
10733.2, 0.0972300
10755.5, 0.0968720
10777.9, 0.0966930
10800.3, 0.0966330
10822.9, 0.0965140
10845.5, 0.0961550
10868.2, 0.0957970
10891.1, 0.0956780
10914.0, 0.0953190
10937.0, 0.0950800
10960.2, 0.0946020
10983.4, 0.0941250
11006.7, 0.0938260
11030.1, 0.0935870
11053.6, 0.0932890
11077.3, 0.0929300
11101.0, 0.0926910
11124.8, 0.0923930
11148.7, 0.0920940
11172.7, 0.0916760
11196.9, 0.0913770
11221.1, 0.0911390
11245.4, 0.0908400
11269.9, 0.0904820
11294.4, 0.0898840
11319.1, 0.0895260
11343.9, 0.0894070
11368.8, 0.0890480
11393.7, 0.0887500
11418.8, 0.0884510
11444.0, 0.0880330
11469.4, 0.0875550
11494.8, 0.0869580
11520.3, 0.0864200
11546.0, 0.0860020
11571.8, 0.0856440
11597.7, 0.0852260
11623.7, 0.0845690
11649.8, 0.0840910
11676.0, 0.0835540
11702.4, 0.0832550
11728.9, 0.0833150
11755.5, 0.0834940
11782.2, 0.0836730
11809.0, 0.0832550
11836.0, 0.0826580
11863.0, 0.0823590
11890.3, 0.0825380
11917.6, 0.0825980
11945.0, 0.0822990
11972.6, 0.0821200
12000.4, 0.0819410
12028.2, 0.0815830
12056.2, 0.0812840
12084.3, 0.0809850
12112.5, 0.0806870
12140.9, 0.0802690
12169.4, 0.0798510
12198.0, 0.0793130
12226.8, 0.0788350
12255.7, 0.0786560
12284.7, 0.0781780
12313.9, 0.0776410
12343.2, 0.0771030
12372.7, 0.0766850
12402.3, 0.0763870
12432.0, 0.0759690
12461.9, 0.0756100
12491.9, 0.0751920
12522.1, 0.0748940
12552.4, 0.0745350
12582.9, 0.0740570
12613.5, 0.0735800
12644.3, 0.0732810
12675.2, 0.0729820
12706.3, 0.0724450
12737.5, 0.0720270
12768.9, 0.0717280
12800.4, 0.0713700
12832.1, 0.0708920
12863.9, 0.0703550
12895.9, 0.0700560
12928.1, 0.0698170
12960.4, 0.0693390
12992.9, 0.0686230
13025.5, 0.0678460
13058.3, 0.0668910
13091.3, 0.0662340
13124.4, 0.0656360
13157.8, 0.0647410
13191.2, 0.0637850
13224.9, 0.0627700
13258.7, 0.0616950
13292.7, 0.0609180
13326.9, 0.0604400
13361.2, 0.0598430
13395.7, 0.0592460
13430.4, 0.0588280
13465.3, 0.0580520
13500.4, 0.0572150
13535.7, 0.0565580
13571.1, 0.0560210
13606.7, 0.0551250
13642.5, 0.0542290
13678.5, 0.0532140
13714.7, 0.0520790
13751.1, 0.0511240
13787.6, 0.0503470
13824.4, 0.0496300
13861.4, 0.0486750
13898.5, 0.0474800
13935.9, 0.0459870
13973.5, 0.0446730
14011.2, 0.0435980
14049.2, 0.0427620
14087.4, 0.0419260
14125.8, 0.0407320
14164.3, 0.0394770
14203.2, 0.0378650
14242.2, 0.0363720
14281.4, 0.0351770
14320.9, 0.0341620
14360.5, 0.0327880
14400.4, 0.0315340
14440.5, 0.0303400
14480.9, 0.0292650
14521.4, 0.0285480
14562.2, 0.0279510
14603.3, 0.0280100
14644.5, 0.0288470
14686.0, 0.0298620
14727.7, 0.0313550
14769.7, 0.0344010
14811.9, 0.0394180
14854.3, 0.0453900
14897.0, 0.0501680
14939.9, 0.0533330
14983.1, 0.0591860
15026.5, 0.0673680
15070.2, 0.0741770
15114.2, 0.0782980
15158.3, 0.0801490
15202.8, 0.0788950
15247.5, 0.0748940
15292.5, 0.0702950
15337.7, 0.0665920
15383.2, 0.0633670
15429.0, 0.0602610
15475.1, 0.0572150
15521.4, 0.0542890
15568.0, 0.0515420
15614.9, 0.0483760
15662.1, 0.0447930
15709.6, 0.0410300
15757.3, 0.0367300
15805.4, 0.0327290
15853.7, 0.0299220
15902.3, 0.0289660
15951.2, 0.0292050
16000.5, 0.0288470
16050.0, 0.0275920
16099.8, 0.0257410
16150.0, 0.0242480
16200.5, 0.0240690
16251.3, 0.0247850
16302.4, 0.0262780
16353.8, 0.0281300
16405.5, 0.0300410
16457.6, 0.0326090
16510.0, 0.0369690
16562.8, 0.0437180
16615.9, 0.0530350
16669.3, 0.0628290
16723.1, 0.0698770
16777.2, 0.0714300
16831.7, 0.0688020
16886.5, 0.0655770
16941.7, 0.0628890
16997.2, 0.0603210
17053.1, 0.0586490
17109.4, 0.0573350
17166.1, 0.0560810
17223.1, 0.0550060
17280.5, 0.0544680
17338.3, 0.0541100
17396.5, 0.0536320
17455.1, 0.0531540
17514.0, 0.0527960
17573.4, 0.0524370
17633.2, 0.0519600
17693.4, 0.0515420
17754.0, 0.0514820
17815.0, 0.0504670
17876.4, 0.0489740
17938.3, 0.0484960
18000.5, 0.0477190
18063.3, 0.0467640
18126.4, 0.0464650
18190.0, 0.0457480
18254.1, 0.0450910
18318.6, 0.0441960
18383.5, 0.0430010
18449.0, 0.0425830
18514.9, 0.0423440
18581.2, 0.0417470
18648.0, 0.0411500
18715.4, 0.0401340
18783.2, 0.0394180
18851.5, 0.0393580
18920.3, 0.0388200
18989.6, 0.0375660
19059.4, 0.0368500
19129.7, 0.0364320
19200.6, 0.0362520
19272.0, 0.0359540
19343.9, 0.0352970
19416.3, 0.0342810
19489.3, 0.0340430
19562.8, 0.0336240
19637.0, 0.0334450
19711.6, 0.0335650
19786.8, 0.0330270
19862.6, 0.0333100
19939.0, 0.0343560
20016.0, 0.0340710
20093.6, 0.0327390
20171.8, 0.0314060
20250.6, 0.0308350
20330.0, 0.0302640
20410.0, 0.0291220
20490.7, 0.0295980
20572.0, 0.0310250
20654.0, 0.0303590
20736.6, 0.0300740
20819.9, 0.0304540
20903.8, 0.0304540
20988.5, 0.0297880
21073.8, 0.0306450
21159.8, 0.0321670
21246.5, 0.0333100
21334.0, 0.0321670
21422.1, 0.0317870
21511.0, 0.0310250
21600.7, 0.0297880
21691.0, 0.0294080
21782.1, 0.0314060
21874.0, 0.0332140
21966.7, 0.0324530
22060.2, 0.0335000
22154.5, 0.0339760
22249.6, 0.0335000
22345.5, 0.0329290
22442.2, 0.0322630
22539.8, 0.0320720
22638.2, 0.0319770
22737.5, 0.0305500
22837.7, 0.0308350
22938.7, 0.0316920
23040.7, 0.0315010
23143.5, 0.0319770
23247.3, 0.0319770
23352.1, 0.0308350
23457.7, 0.0304540
23564.4, 0.0330240
23672.0, 0.0338810
23780.5, 0.0331190
23890.1, 0.0323580
24000.7, 0.0309300
24112.3, 0.0314060
24225.0, 0.0338810
24338.7, 0.0306450
24453.5, 0.0278850
24569.4, 0.0307400
24686.4, 0.0335000
24804.5, 0.0331190
24923.8, 0.0322630
25044.2, 0.0319770
25165.8, 0.0316920
25288.6, 0.0328340
25412.5, 0.0343560
25537.7, 0.0333100
25664.1, 0.0321670
25791.8, 0.0312160
25920.8, 0.0321670
26051.1, 0.0342610
26182.6, 0.0349270
26315.5, 0.0348320
26449.8, 0.0341660
26585.4, 0.0338810
26722.5, 0.0342610
26860.9, 0.0335000
27000.8, 0.0331190
27142.1, 0.0326430
27285.0, 0.0306450
27429.4, 0.0316920
27575.3, 0.0340710
27722.7, 0.0338810
27871.8, 0.0323580
28022.4, 0.0313110
28174.7, 0.0311210
28328.7, 0.0307400
28484.4, 0.0315010
28641.7, 0.0320720
28800.9, 0.0330240
28961.8, 0.0345470
29124.5, 0.0340710
29289.0, 0.0323580
29455.4, 0.0320720
29623.8, 0.0324530
29794.0, 0.0339760
29966.3, 0.0355940
30140.5, 0.0365450
30316.7, 0.0370210
30495.1, 0.0382580
30675.5, 0.0394000
30858.1, 0.0415890
31042.8, 0.0448250
31229.8, 0.0469190
31419.1, 0.0496790
31610.7, 0.0535810
31804.6, 0.0567210
32000.9, 0.0573880
32199.7, 0.0597670
32400.9, 0.0634780
32604.8, 0.0662380
32811.1, 0.0684270
33020.1, 0.0721390
33231.8, 0.0772780
33446.2, 0.0809900
33663.4, 0.0845110
33883.4, 0.0870810
34106.3, 0.0898410
34332.1, 0.0938380
34561.0, 0.0995480
34792.9, 0.105163
35028.0, 0.107257
35266.3, 0.109065
35507.8, 0.114585
35752.7, 0.120105
36001.0, 0.125815
36252.8, 0.131240
36508.1, 0.134856
36767.0, 0.141137
37029.7, 0.146372
37296.1, 0.149417
37566.3, 0.152558
37840.5, 0.154747
38118.8, 0.155318
38401.2, 0.154747
38687.8, 0.152938
38978.6, 0.152558
39273.9, 0.152462
39573.7, 0.156079
39878.1, 0.160742
40187.3, 0.160266
40501.2, 0.161408
40820.0, 0.165596
41144.0, 0.169403
41473.2, 0.171211
41807.6, 0.172639
42147.5, 0.174542
42493.0, 0.173114
42844.2, 0.169117
43201.2, 0.167690
43564.3, 0.162931
43933.5, 0.157792
44309.0, 0.157697
44691.0, 0.156174
45079.6, 0.150369
45475.0, 0.145610
45877.5, 0.143992
46287.1, 0.142279
46704.2, 0.141899
47128.7, 0.142470
47561.1, 0.141803
48001.5, 0.137711
48450.1, 0.132667
48907.2, 0.133333
49373.0, 0.135142
49847.7, 0.136188
50331.5, 0.137806
50825.0, 0.137711
51328.2, 0.137997
51841.5, 0.137616
52365.1, 0.135998
52899.4, 0.134761
53444.8, 0.135142
54001.5, 0.135237
54570.1, 0.131811
55150.6, 0.127338
55743.6, 0.130193
56349.5, 0.133619
56968.7, 0.136569
57601.7, 0.135713
58248.9, 0.134095
58910.9, 0.134475
59588.1, 0.135998
60281.0, 0.136093
60990.2, 0.135427
61716.3, 0.136569
62459.8, 0.139234
63221.6, 0.140947
64002.1, 0.140947
64802.1, 0.139900
65622.1, 0.135713
66463.4, 0.130097
67326.6, 0.134190
68212.4, 0.136759
69121.9, 0.131430
70056.0, 0.125149
71015.7, 0.124292
72002.0, 0.123436
73016.3, 0.122579
74059.4, 0.116488
75132.7, 0.109636
76237.6, 0.104687
77375.5, 0.101166
78547.9, 0.0983110
79756.3, 0.0980250
81002.5, 0.0990720
82288.5, 0.102689
83615.7, 0.102689
84986.5, 0.109160
86402.9, 0.119629
87867.4, 0.118487
89382.4, 0.115822
90950.5, 0.141042
92574.6, 0.146372
94257.2, 0.124482
96002.7, 0.123626
97814.1, 0.124673
99695.1, 0.122960
101650.0, 0.116964
103683.0, 0.113919
105799.0, 0.117821
108003.0, 0.115061
110301.0, 0.110112
112699.0, 0.114204
115204.0, 0.121532
117822.0, 0.128670
120562.0, 0.127528
123433.0, 0.127718
126443.0, 0.128860
129604.0, 0.137426
132926.0, 0.133524
136424.0, 0.137711
140111.0, 0.148465
144003.0, 0.139234
148118.0, 0.127528
152474.0, 0.135332
157095.0, 0.137616
162004.0, 0.147418
167231.0, 0.146181
172805.0, 0.124292
178764.0, 0.100024
185148.0, 0.0864140
192005.0, 0.0848920
199390.0, 0.0635740
207366.0, 0.123245
216006.0, 0.201094
