Database of Origin, USGS Spectral Database
Sample Description, See USGS database for additional info
Date Added,2016-08-10 05:18:01.520739

Data ID,USGS_oli02          
Sample ID, oligoclase_hs110.16239
Mineral Name, oligoclase
Material Class,Tectosilicate

Wavelength
1602.52, 0.695444
1603.02, 0.695971
1603.51, 0.695971
1604.01, 0.696287
1604.5, 0.696813
1605.0, 0.697024
1605.5, 0.697762
1606.0, 0.698605
1606.49, 0.698816
1606.99, 0.698921
1607.49, 0.699237
1607.99, 0.700185
1608.49, 0.701344
1608.99, 0.701344
1609.49, 0.701239
1609.99, 0.701766
1610.49, 0.702820
1610.99, 0.703452
1611.49, 0.703346
1611.99, 0.703030
1612.49, 0.703030
1612.99, 0.702820
1613.49, 0.703979
1614.0, 0.704400
1614.5, 0.704400
1615.0, 0.705243
1615.51, 0.705770
1616.01, 0.705559
1616.51, 0.705981
1617.02, 0.706508
1617.52, 0.706718
1618.03, 0.707245
1618.53, 0.707877
1619.04, 0.708193
1619.54, 0.708826
1620.05, 0.709353
1620.55, 0.709879
1621.06, 0.709669
1621.57, 0.709353
1622.08, 0.709353
1622.58, 0.710090
1623.09, 0.710722
1623.6, 0.711249
1624.11, 0.711460
1624.62, 0.711249
1625.13, 0.711987
1625.64, 0.712408
1626.15, 0.712935
1626.66, 0.713146
1627.17, 0.713251
1627.68, 0.713251
1628.19, 0.713673
1628.7, 0.713989
1629.21, 0.714516
1629.72, 0.714832
1630.24, 0.715043
1630.75, 0.715253
1631.26, 0.715253
1631.78, 0.715780
1632.29, 0.716623
1632.8, 0.716728
1633.32, 0.716728
1633.83, 0.716939
1634.35, 0.717150
1634.86, 0.717677
1635.38, 0.717888
1635.9, 0.717677
1636.41, 0.718098
1636.93, 0.719363
1637.45, 0.719995
1637.96, 0.720206
1638.48, 0.720100
1639.0, 0.720100
1639.52, 0.720522
1640.04, 0.720627
1640.56, 0.720522
1641.08, 0.720522
1641.59, 0.721049
1642.11, 0.721576
1642.63, 0.721892
1643.16, 0.722418
1643.68, 0.722735
1644.2, 0.722840
1644.72, 0.722735
1645.24, 0.722735
1645.76, 0.723156
1646.29, 0.723788
1646.81, 0.724210
1647.33, 0.724631
1647.86, 0.725158
1648.38, 0.725369
1648.9, 0.724842
1649.43, 0.724947
1649.95, 0.725474
1650.48, 0.726212
1651.0, 0.726844
1651.53, 0.726739
1652.06, 0.726106
1652.58, 0.726423
1653.11, 0.727055
1653.64, 0.727371
1654.17, 0.727582
1654.69, 0.727792
1655.22, 0.728109
1655.75, 0.728003
1656.28, 0.728530
1656.81, 0.729373
1657.34, 0.729584
1657.87, 0.729689
1658.4, 0.730005
1658.93, 0.730321
1659.46, 0.730427
1659.99, 0.730743
1660.52, 0.730427
1661.05, 0.730321
1661.59, 0.731059
1662.12, 0.731586
1662.65, 0.731691
1663.19, 0.731902
1663.72, 0.732534
1664.26, 0.733272
1664.79, 0.733588
1665.32, 0.733482
1665.86, 0.733904
1666.39, 0.734641
1666.93, 0.734536
1667.47, 0.734641
1668.0, 0.735063
1668.54, 0.735168
1669.08, 0.735801
1669.61, 0.735906
1670.15, 0.735590
1670.69, 0.736011
1671.23, 0.736643
1671.77, 0.737065
1672.31, 0.737381
1672.85, 0.737276
1673.39, 0.737381
1673.93, 0.737803
1674.47, 0.737908
1675.01, 0.738119
1675.55, 0.738645
1676.09, 0.739383
1676.64, 0.739488
1677.18, 0.739699
1677.72, 0.740121
1678.26, 0.740647
1678.81, 0.741174
1679.35, 0.741280
1679.89, 0.741280
1680.44, 0.741596
1680.98, 0.742017
1681.53, 0.742334
1682.07, 0.742017
1682.62, 0.742017
1683.17, 0.742860
1683.71, 0.743387
1684.26, 0.743071
1684.81, 0.742966
1685.36, 0.743598
1685.9, 0.743914
1686.45, 0.743914
1687.0, 0.743914
1687.55, 0.744335
1688.1, 0.744862
1688.65, 0.744862
1689.2, 0.744862
1689.75, 0.744968
1690.3, 0.745389
1690.85, 0.745495
1691.41, 0.745600
1691.96, 0.746337
1692.51, 0.746548
1693.06, 0.746548
1693.61, 0.746759
1694.17, 0.747180
1694.72, 0.747602
1695.28, 0.747813
1695.83, 0.747918
1696.39, 0.747918
1696.94, 0.748656
1697.5, 0.748972
1698.05, 0.748972
1698.61, 0.748866
1699.17, 0.749393
1699.72, 0.749393
1700.28, 0.749499
1700.84, 0.749604
1701.4, 0.750025
1701.95, 0.750658
1702.51, 0.750447
1703.07, 0.750447
1703.63, 0.750974
1704.19, 0.751395
1704.75, 0.751185
1705.31, 0.750763
1705.88, 0.751079
1706.44, 0.751395
1707.0, 0.751501
1707.56, 0.751922
1708.12, 0.752238
1708.69, 0.751922
1709.25, 0.751922
1709.81, 0.752238
1710.38, 0.752344
1710.94, 0.752660
1711.51, 0.753081
1712.07, 0.752870
1712.64, 0.752870
1713.2, 0.753503
1713.77, 0.753608
1714.34, 0.753397
1714.9, 0.754030
1715.47, 0.754346
1716.04, 0.754135
1716.61, 0.754556
1717.18, 0.754978
1717.74, 0.754873
1718.31, 0.754767
1718.88, 0.754240
1719.45, 0.754451
1720.02, 0.755294
1720.59, 0.755610
1721.17, 0.755715
1721.74, 0.756242
1722.31, 0.756032
1722.88, 0.756242
1723.45, 0.756348
1724.03, 0.756137
1724.6, 0.756348
1725.18, 0.756875
1725.75, 0.756980
1726.33, 0.756980
1726.9, 0.757191
1727.48, 0.756980
1728.05, 0.756875
1728.63, 0.757296
1729.2, 0.757401
1729.78, 0.757507
1730.36, 0.757823
1730.94, 0.757823
1731.51, 0.757823
1732.09, 0.757928
1732.67, 0.758034
1733.25, 0.758350
1733.83, 0.758560
1734.41, 0.759087
1734.99, 0.759509
1735.57, 0.759720
1736.15, 0.759930
1736.73, 0.760246
1737.32, 0.760036
1737.9, 0.760246
1738.48, 0.760562
1739.07, 0.761089
1739.65, 0.761195
1740.23, 0.761195
1740.82, 0.761089
1741.4, 0.761300
1741.99, 0.761827
1742.57, 0.762248
1743.16, 0.762248
1743.74, 0.762248
1744.33, 0.762565
1744.92, 0.762565
1745.51, 0.762565
1746.09, 0.762881
1746.68, 0.763407
1747.27, 0.763407
1747.86, 0.763302
1748.45, 0.763618
1749.04, 0.763724
1749.63, 0.764145
1750.22, 0.764251
1750.81, 0.764461
1751.4, 0.764356
1751.99, 0.764567
1752.59, 0.764777
1753.18, 0.765620
1753.77, 0.766042
1754.37, 0.765726
1754.96, 0.765831
1755.56, 0.766042
1756.15, 0.766147
1756.74, 0.766463
1757.34, 0.766569
1757.94, 0.766358
1758.53, 0.766674
1759.13, 0.767095
1759.73, 0.767201
1760.32, 0.767095
1760.92, 0.767306
1761.52, 0.767728
1762.12, 0.767622
1762.72, 0.767833
1763.32, 0.768676
1763.92, 0.769098
1764.52, 0.769203
1765.12, 0.769098
1765.72, 0.768887
1766.32, 0.768781
1766.92, 0.768992
1767.53, 0.769624
1768.13, 0.769835
1768.73, 0.769835
1769.34, 0.769940
1769.94, 0.770151
1770.55, 0.770362
1771.15, 0.770783
1771.76, 0.770994
1772.36, 0.770783
1772.97, 0.770889
1773.57, 0.771205
1774.18, 0.770783
1774.79, 0.770994
1775.4, 0.771310
1776.0, 0.771521
1776.61, 0.771732
1777.22, 0.772153
1777.83, 0.772680
1778.44, 0.772575
1779.05, 0.772680
1779.66, 0.772785
1780.27, 0.772575
1780.88, 0.772575
1781.5, 0.772996
1782.11, 0.773312
1782.72, 0.772996
1783.33, 0.772259
1783.95, 0.772575
1784.56, 0.773207
1785.18, 0.773312
1785.79, 0.773523
1786.41, 0.773523
1787.02, 0.773523
1787.64, 0.773945
1788.26, 0.773734
1788.87, 0.773628
1789.49, 0.773628
1790.11, 0.773207
1790.73, 0.772785
1791.35, 0.773102
1791.96, 0.774050
1792.58, 0.774155
1793.21, 0.773102
1793.83, 0.773734
1794.45, 0.774471
1795.07, 0.774050
1795.69, 0.774050
1796.31, 0.774155
1796.93, 0.774577
1797.56, 0.774787
1798.18, 0.774787
1798.8, 0.774893
1799.43, 0.774787
1800.05, 0.774998
1800.68, 0.774682
1801.3, 0.774366
1801.93, 0.774998
1802.56, 0.775630
1803.18, 0.775314
1803.81, 0.774893
1804.44, 0.775104
1805.07, 0.775209
1805.7, 0.775314
1806.33, 0.775314
1806.95, 0.775104
1807.58, 0.774998
1808.22, 0.775314
1808.85, 0.775525
1809.48, 0.775947
1810.11, 0.776263
1810.74, 0.776263
1811.38, 0.776263
1812.01, 0.776052
1812.64, 0.775630
1813.28, 0.776052
1813.91, 0.776473
1814.55, 0.776263
1815.18, 0.776052
1815.82, 0.776157
1816.45, 0.776684
1817.09, 0.776895
1817.73, 0.776790
1818.36, 0.777106
1819.0, 0.777632
1819.64, 0.777738
1820.28, 0.777106
1820.92, 0.776790
1821.56, 0.776895
1822.2, 0.777632
1822.84, 0.777949
1823.48, 0.778159
1824.12, 0.778159
1824.76, 0.778581
1825.41, 0.778475
1826.05, 0.777843
1826.69, 0.778475
1827.34, 0.779213
1827.98, 0.779213
1828.63, 0.779108
1829.27, 0.778686
1829.92, 0.778897
1830.56, 0.779108
1831.21, 0.779318
1831.86, 0.779634
1832.5, 0.779740
1833.15, 0.779845
1833.8, 0.780477
1834.45, 0.780267
1835.1, 0.779740
1835.75, 0.779318
1836.4, 0.779529
1837.05, 0.780161
1837.7, 0.780477
1838.35, 0.780899
1839.01, 0.781004
1839.66, 0.780477
1840.31, 0.780583
1840.96, 0.781110
1841.62, 0.780899
1842.27, 0.781215
1842.93, 0.782058
1843.58, 0.782585
1844.24, 0.782901
1844.9, 0.783322
1845.55, 0.783322
1846.21, 0.782163
1846.87, 0.781004
1847.53, 0.781004
1848.18, 0.781742
1848.84, 0.782585
1849.5, 0.783533
1850.16, 0.783955
1850.82, 0.784165
1851.48, 0.784165
1852.14, 0.783955
1852.81, 0.783533
1853.47, 0.782901
1854.13, 0.783112
1854.8, 0.784060
1855.46, 0.784587
1856.12, 0.783955
1856.79, 0.783849
1857.45, 0.784376
1858.12, 0.784692
1858.79, 0.784482
1859.45, 0.783849
1860.12, 0.784165
1860.79, 0.784587
1861.46, 0.785008
1862.12, 0.784903
1862.79, 0.784903
1863.46, 0.785219
1864.13, 0.785114
1864.8, 0.785008
1865.48, 0.785219
1866.15, 0.785219
1866.82, 0.785114
1867.49, 0.784165
1868.16, 0.784060
1868.84, 0.784482
1869.51, 0.784587
1870.19, 0.783744
1870.86, 0.782796
1871.54, 0.783744
1872.21, 0.783955
1872.89, 0.782585
1873.56, 0.783006
1874.24, 0.783955
1874.92, 0.784376
1875.6, 0.784271
1876.28, 0.783849
1876.96, 0.783217
1877.64, 0.783322
1878.32, 0.783533
1879.0, 0.783322
1879.68, 0.783217
1880.36, 0.783006
1881.04, 0.782690
1881.73, 0.782480
1882.41, 0.782269
1883.09, 0.781953
1883.78, 0.781215
1884.46, 0.781215
1885.15, 0.781426
1885.83, 0.780899
1886.52, 0.780477
1887.21, 0.780056
1887.89, 0.779845
1888.58, 0.779845
1889.27, 0.779002
1889.96, 0.778159
1890.65, 0.777949
1891.34, 0.777843
1892.03, 0.777316
1892.72, 0.777106
1893.41, 0.776895
1894.1, 0.776473
1894.79, 0.775947
1895.49, 0.775525
1896.18, 0.775209
1896.87, 0.774261
1897.57, 0.773523
1898.26, 0.773207
1898.96, 0.772259
1899.65, 0.771626
1900.35, 0.771732
1901.05, 0.771416
1901.74, 0.771205
1902.44, 0.770257
1903.14, 0.769835
1903.84, 0.770046
1904.54, 0.769414
1905.24, 0.768465
1905.94, 0.768360
1906.64, 0.767833
1907.34, 0.767938
1908.04, 0.767833
1908.75, 0.767517
1909.45, 0.767517
1910.15, 0.767306
1910.86, 0.766779
1911.56, 0.766358
1912.27, 0.766147
1912.97, 0.765620
1913.68, 0.765304
1914.39, 0.765726
1915.09, 0.765936
1915.8, 0.765620
1916.51, 0.765620
1917.22, 0.765304
1917.93, 0.765199
1918.64, 0.765093
1919.35, 0.764672
1920.06, 0.764251
1920.77, 0.764145
1921.48, 0.764777
1922.19, 0.765304
1922.91, 0.765093
1923.62, 0.764672
1924.33, 0.764883
1925.05, 0.765199
1925.76, 0.765093
1926.48, 0.765093
1927.19, 0.765093
1927.91, 0.765199
1928.63, 0.765620
1929.35, 0.765831
1930.07, 0.765936
1930.78, 0.766042
1931.5, 0.766358
1932.22, 0.766569
1932.94, 0.766463
1933.66, 0.766674
1934.39, 0.766885
1935.11, 0.766779
1935.83, 0.766885
1936.55, 0.767306
1937.28, 0.767938
1938.0, 0.768360
1938.73, 0.768044
1939.45, 0.767833
1940.18, 0.767938
1940.9, 0.768149
1941.63, 0.768571
1942.36, 0.768676
1943.09, 0.768887
1943.81, 0.768887
1944.54, 0.768992
1945.27, 0.769519
1946.0, 0.769835
1946.73, 0.769624
1947.47, 0.769835
1948.2, 0.769940
1948.93, 0.770257
1949.66, 0.770678
1950.4, 0.770889
1951.13, 0.771100
1951.86, 0.771521
1952.6, 0.771521
1953.34, 0.771521
1954.07, 0.771943
1954.81, 0.772048
1955.55, 0.772153
1956.29, 0.772680
1957.02, 0.772680
1957.76, 0.772680
1958.5, 0.772891
1959.24, 0.772996
1959.98, 0.773102
1960.72, 0.772891
1961.47, 0.773312
1962.21, 0.773312
1962.95, 0.773418
1963.7, 0.773523
1964.44, 0.773523
1965.18, 0.773628
1965.93, 0.773945
1966.67, 0.774261
1967.42, 0.774893
1968.17, 0.774787
1968.92, 0.774577
1969.66, 0.774998
1970.41, 0.775209
1971.16, 0.775104
1971.91, 0.775104
1972.66, 0.775314
1973.41, 0.775420
1974.16, 0.775736
1974.92, 0.775947
1975.67, 0.776157
1976.42, 0.776473
1977.18, 0.776895
1977.93, 0.777106
1978.69, 0.777106
1979.44, 0.777106
1980.2, 0.777106
1980.95, 0.777211
1981.71, 0.777316
1982.47, 0.777316
1983.23, 0.777632
1983.99, 0.777843
1984.74, 0.777843
1985.51, 0.777843
1986.27, 0.778054
1987.03, 0.778475
1987.79, 0.778159
1988.55, 0.778370
1989.32, 0.778581
1990.08, 0.778792
1990.84, 0.778792
1991.61, 0.778897
1992.37, 0.779002
1993.14, 0.779002
1993.9, 0.779213
1994.67, 0.779424
1995.44, 0.779213
1996.21, 0.779318
1996.98, 0.779845
1997.75, 0.780056
1998.52, 0.779845
1999.29, 0.780161
2000.06, 0.780372
2000.83, 0.780583
2001.6, 0.780583
2002.38, 0.780688
2003.15, 0.781110
2003.93, 0.781531
2004.7, 0.781531
2005.48, 0.781531
2006.25, 0.781742
2007.03, 0.782480
2007.81, 0.782690
2008.58, 0.782480
2009.36, 0.782690
2010.14, 0.783006
2010.92, 0.783112
2011.7, 0.783006
2012.48, 0.783217
2013.26, 0.783744
2014.05, 0.784271
2014.83, 0.784692
2015.61, 0.784271
2016.4, 0.783849
2017.18, 0.784271
2017.97, 0.784798
2018.75, 0.784692
2019.54, 0.785114
2020.32, 0.785535
2021.11, 0.785430
2021.9, 0.785430
2022.69, 0.785746
2023.48, 0.785957
2024.27, 0.785746
2025.06, 0.785957
2025.85, 0.786589
2026.64, 0.786905
2027.44, 0.787116
2028.23, 0.787327
2029.02, 0.787327
2029.82, 0.787537
2030.61, 0.788064
2031.41, 0.788591
2032.2, 0.788696
2033.0, 0.788696
2033.8, 0.788591
2034.6, 0.788696
2035.4, 0.788907
2036.2, 0.789539
2037.0, 0.789645
2037.8, 0.789539
2038.6, 0.789961
2039.4, 0.790277
2040.2, 0.790382
2041.01, 0.790698
2041.81, 0.790593
2042.61, 0.790277
2043.42, 0.790909
2044.22, 0.791541
2045.03, 0.791647
2045.84, 0.791436
2046.65, 0.791331
2047.46, 0.791541
2048.26, 0.792068
2049.07, 0.792595
2049.88, 0.792279
2050.69, 0.792279
2051.51, 0.792384
2052.32, 0.792279
2053.13, 0.792384
2053.94, 0.792911
2054.76, 0.793122
2055.57, 0.793122
2056.39, 0.793227
2057.2, 0.793122
2058.02, 0.793122
2058.84, 0.793859
2059.66, 0.794070
2060.48, 0.793754
2061.29, 0.793333
2062.11, 0.793122
2062.94, 0.793649
2063.76, 0.793859
2064.58, 0.793965
2065.4, 0.793965
2066.22, 0.794386
2067.05, 0.794597
2067.87, 0.794492
2068.7, 0.794281
2069.52, 0.793859
2070.35, 0.794070
2071.18, 0.794281
2072.0, 0.794386
2072.83, 0.794386
2073.66, 0.794597
2074.49, 0.794386
2075.32, 0.794281
2076.15, 0.794176
2076.98, 0.793965
2077.82, 0.794070
2078.65, 0.794386
2079.48, 0.794492
2080.32, 0.794176
2081.15, 0.793859
2081.99, 0.793965
2082.83, 0.794070
2083.66, 0.794176
2084.5, 0.794070
2085.34, 0.793859
2086.18, 0.793438
2087.02, 0.793333
2087.86, 0.793649
2088.7, 0.793754
2089.54, 0.793859
2090.39, 0.793438
2091.23, 0.793333
2092.07, 0.793438
2092.92, 0.793649
2093.76, 0.793649
2094.61, 0.793333
2095.45, 0.793227
2096.3, 0.792806
2097.15, 0.792700
2098.0, 0.792911
2098.85, 0.792806
2099.7, 0.792806
2100.55, 0.793122
2101.4, 0.793122
2102.25, 0.792911
2103.1, 0.792806
2103.96, 0.793017
2104.81, 0.792595
2105.67, 0.792490
2106.52, 0.792700
2107.38, 0.792384
2108.24, 0.792279
2109.09, 0.792384
2109.95, 0.792490
2110.81, 0.792595
2111.67, 0.792384
2112.53, 0.792384
2113.39, 0.792384
2114.25, 0.792384
2115.12, 0.792490
2115.98, 0.792384
2116.84, 0.792384
2117.71, 0.792279
2118.58, 0.792490
2119.44, 0.792700
2120.31, 0.792806
2121.18, 0.792806
2122.04, 0.792911
2122.91, 0.792806
2123.78, 0.792806
2124.65, 0.793122
2125.52, 0.793333
2126.4, 0.793333
2127.27, 0.793543
2128.14, 0.793543
2129.02, 0.793543
2129.89, 0.793438
2130.77, 0.793438
2131.64, 0.793754
2132.52, 0.793859
2133.4, 0.793754
2134.27, 0.793649
2135.15, 0.793859
2136.03, 0.794281
2136.91, 0.794386
2137.79, 0.794386
2138.68, 0.794281
2139.56, 0.794492
2140.44, 0.794597
2141.33, 0.794597
2142.21, 0.794492
2143.1, 0.794913
2143.99, 0.795335
2144.87, 0.795335
2145.76, 0.795124
2146.65, 0.795124
2147.54, 0.795229
2148.43, 0.795019
2149.32, 0.794913
2150.21, 0.794913
2151.1, 0.795124
2151.99, 0.795335
2152.89, 0.795335
2153.78, 0.795440
2154.68, 0.795545
2155.57, 0.795545
2156.47, 0.795440
2157.37, 0.795545
2158.27, 0.795545
2159.16, 0.795440
2160.06, 0.795545
2160.96, 0.795862
2161.86, 0.795756
2162.77, 0.795487
2163.67, 0.795936
2164.57, 0.796025
2165.48, 0.795936
2166.38, 0.796205
2167.29, 0.796025
2168.2, 0.795666
2169.1, 0.795576
2170.01, 0.795217
2170.92, 0.794858
2171.83, 0.794948
2172.74, 0.794409
2173.65, 0.793960
2174.56, 0.793511
2175.47, 0.793601
2176.39, 0.793332
2177.3, 0.792793
2178.22, 0.792254
2179.13, 0.792164
2180.05, 0.791895
2180.96, 0.791177
2181.88, 0.790368
2182.8, 0.789560
2183.72, 0.789201
2184.64, 0.788483
2185.56, 0.787675
2186.48, 0.786866
2187.41, 0.786777
2188.33, 0.786148
2189.25, 0.785250
2190.18, 0.784711
2191.1, 0.784622
2192.03, 0.784622
2192.96, 0.784262
2193.89, 0.782916
2194.82, 0.782107
2195.74, 0.781748
2196.68, 0.781479
2197.61, 0.781479
2198.54, 0.781569
2199.47, 0.780940
2200.4, 0.780671
2201.34, 0.780760
2202.28, 0.780940
2203.21, 0.781748
2204.15, 0.781928
2205.08, 0.781389
2206.02, 0.781658
2206.96, 0.782018
2207.9, 0.781928
2208.84, 0.781928
2209.78, 0.782107
2210.73, 0.782556
2211.67, 0.783544
2212.61, 0.783634
2213.56, 0.783903
2214.5, 0.784532
2215.45, 0.785160
2216.4, 0.785160
2217.35, 0.784981
2218.3, 0.785609
2219.24, 0.785968
2220.2, 0.786328
2221.15, 0.786777
2222.1, 0.787764
2223.05, 0.788124
2224.0, 0.787854
2224.96, 0.787944
2225.91, 0.788303
2226.87, 0.788303
2227.83, 0.788213
2228.79, 0.788483
2229.74, 0.787944
2230.7, 0.787585
2231.66, 0.788034
2232.63, 0.787764
2233.59, 0.787136
2234.55, 0.787495
2235.51, 0.787675
2236.48, 0.788124
2237.44, 0.788213
2238.41, 0.788034
2239.38, 0.788124
2240.34, 0.788213
2241.31, 0.788124
2242.28, 0.788124
2243.25, 0.788393
2244.22, 0.788573
2245.19, 0.788213
2246.17, 0.788124
2247.14, 0.788034
2248.12, 0.788213
2249.09, 0.788303
2250.07, 0.788483
2251.04, 0.788483
2252.02, 0.788393
2253.0, 0.788393
2253.98, 0.788213
2254.96, 0.787675
2255.94, 0.787675
2256.92, 0.787764
2257.91, 0.787585
2258.89, 0.787764
2259.88, 0.788034
2260.86, 0.788303
2261.85, 0.788213
2262.83, 0.788124
2263.82, 0.788124
2264.81, 0.787854
2265.8, 0.787764
2266.79, 0.788303
2267.78, 0.788573
2268.78, 0.788662
2269.77, 0.788393
2270.76, 0.788303
2271.76, 0.788842
2272.75, 0.788483
2273.75, 0.788213
2274.75, 0.788303
2275.75, 0.788303
2276.75, 0.787944
2277.75, 0.787585
2278.75, 0.787764
2279.75, 0.788393
2280.75, 0.788303
2281.76, 0.787315
2282.76, 0.787046
2283.77, 0.787405
2284.77, 0.787315
2285.78, 0.786777
2286.79, 0.786597
2287.8, 0.786597
2288.81, 0.786777
2289.82, 0.787315
2290.83, 0.787675
2291.84, 0.787136
2292.86, 0.786328
2293.87, 0.785968
2294.89, 0.786148
2295.91, 0.786417
2296.92, 0.786328
2297.94, 0.785789
2298.96, 0.785430
2299.98, 0.785340
2301.0, 0.785430
2302.02, 0.785340
2303.04, 0.785160
2304.07, 0.785071
2305.09, 0.784532
2306.12, 0.784262
2307.15, 0.784442
2308.17, 0.784083
2309.2, 0.783993
2310.23, 0.783903
2311.26, 0.783364
2312.29, 0.783364
2313.32, 0.782916
2314.35, 0.782197
2315.39, 0.781748
2316.42, 0.781299
2317.46, 0.781030
2318.5, 0.780940
2319.53, 0.780581
2320.57, 0.780132
2321.61, 0.779773
2322.65, 0.779593
2323.69, 0.779144
2324.73, 0.778695
2325.78, 0.777887
2326.82, 0.777348
2327.86, 0.776361
2328.91, 0.775463
2329.96, 0.775283
2331.01, 0.775373
2332.05, 0.775283
2333.1, 0.774565
2334.15, 0.774026
2335.21, 0.773487
2336.26, 0.772589
2337.31, 0.772499
2338.36, 0.772769
2339.42, 0.772140
2340.48, 0.771781
2341.53, 0.771422
2342.59, 0.770793
2343.65, 0.770793
2344.71, 0.770704
2345.77, 0.770075
2346.83, 0.769716
2347.9, 0.769716
2348.96, 0.769177
2350.02, 0.768728
2351.09, 0.768908
2352.16, 0.769177
2353.23, 0.768099
2354.29, 0.767291
2355.36, 0.768099
2356.43, 0.767830
2357.51, 0.767202
2358.58, 0.767291
2359.65, 0.767651
2360.73, 0.768099
2361.8, 0.768279
2362.88, 0.768369
2363.96, 0.768459
2365.03, 0.768459
2366.11, 0.768997
2367.19, 0.769267
2368.27, 0.769806
2369.36, 0.770165
2370.44, 0.769895
2371.53, 0.770075
2372.61, 0.770524
2373.7, 0.770973
2374.78, 0.771063
2375.87, 0.771063
2376.96, 0.771152
2378.05, 0.770883
2379.14, 0.770434
2380.24, 0.770524
2381.33, 0.770614
2382.42, 0.770434
2383.52, 0.770524
2384.61, 0.770883
2385.71, 0.770704
2386.81, 0.770255
2387.91, 0.769985
2389.01, 0.770165
2390.11, 0.770434
2391.22, 0.770793
2392.32, 0.770704
2393.42, 0.770075
2394.53, 0.770165
2395.64, 0.770075
2396.74, 0.769716
2397.85, 0.769985
2398.96, 0.770344
2400.07, 0.770524
2401.18, 0.770434
2402.3, 0.769895
2403.41, 0.769267
2404.52, 0.769177
2405.64, 0.769177
2406.76, 0.769087
2407.88, 0.768728
2408.99, 0.768369
2410.11, 0.768099
2411.23, 0.768010
2412.36, 0.767651
2413.48, 0.767381
2414.6, 0.767291
2415.73, 0.767202
2416.85, 0.766842
2417.98, 0.766393
2419.11, 0.766034
2420.24, 0.766124
2421.37, 0.766034
2422.5, 0.765585
2423.64, 0.764777
2424.77, 0.764597
2425.9, 0.764418
2427.04, 0.763969
2428.18, 0.763251
2429.31, 0.763251
2430.45, 0.763340
2431.59, 0.762891
2432.73, 0.762622
2433.88, 0.762532
2435.02, 0.762353
2436.16, 0.762263
2437.31, 0.761724
2438.45, 0.761096
2439.6, 0.761006
2440.75, 0.761006
2441.9, 0.761006
2443.05, 0.760736
2444.2, 0.760287
2445.35, 0.760198
2446.51, 0.759928
2447.67, 0.759659
2448.82, 0.759749
2449.98, 0.759569
2451.14, 0.759120
2452.3, 0.759210
2453.46, 0.759749
2454.62, 0.759389
2455.78, 0.758851
2456.94, 0.758851
2458.11, 0.759479
2459.28, 0.759569
2460.44, 0.759210
2461.61, 0.759210
2462.78, 0.758851
2463.95, 0.758402
2465.12, 0.758132
2466.3, 0.758581
2467.47, 0.759120
2468.65, 0.758581
2469.82, 0.758222
2471.0, 0.757953
2472.18, 0.758132
2473.36, 0.758132
2474.54, 0.757953
2475.72, 0.758222
2476.9, 0.758581
2478.08, 0.758851
2479.27, 0.758761
2480.46, 0.758402
2481.64, 0.758222
2482.83, 0.758043
2484.02, 0.757683
2485.21, 0.757683
2486.4, 0.757773
2487.6, 0.757953
2488.79, 0.757953
2489.99, 0.757594
2491.18, 0.757234
2492.38, 0.757594
2493.58, 0.757863
2494.78, 0.757683
2495.98, 0.757145
2497.18, 0.757145
2498.39, 0.756965
2499.59, 0.756696
2500.8, 0.756516
2502.01, 0.756606
2503.21, 0.756696
2504.42, 0.756785
2505.63, 0.756247
2506.84, 0.755888
2508.06, 0.755708
2509.27, 0.755888
2510.49, 0.755977
2511.7, 0.755528
2512.92, 0.755079
2514.14, 0.754900
2515.36, 0.755349
2516.58, 0.755618
2517.8, 0.755528
2519.03, 0.755618
2520.25, 0.755439
2521.48, 0.755259
2522.7, 0.754990
2523.93, 0.754720
2525.16, 0.754900
2526.39, 0.755349
2527.62, 0.754720
2528.86, 0.754271
2530.09, 0.753822
2531.33, 0.753104
2532.56, 0.752924
2533.8, 0.753643
2535.04, 0.753194
2536.28, 0.753014
2537.52, 0.753732
2538.76, 0.754181
2540.01, 0.754361
2541.25, 0.753553
2542.5, 0.752475
2543.75, 0.752385
2544.99, 0.752834
2546.24, 0.752745
2547.49, 0.752116
2548.75, 0.752385
2550.0, 0.751847
2551.26, 0.751398
2552.51, 0.750769
2553.77, 0.751936
2555.03, 0.753194
2556.29, 0.753194
2557.55, 0.753194
2558.81, 0.752116
2560.08, 0.748794
2561.34, 0.746010
2562.61, 0.745471
2563.88, 0.746010
2565.14, 0.748435
2566.41, 0.751308
2567.68, 0.750949
2568.96, 0.747716
2570.23, 0.747806
2571.51, 0.749243
2572.78, 0.745651
2574.06, 0.746100
2575.34, 0.747447
2576.62, 0.746190
2577.9, 0.747716
2579.18, 0.749153
2580.47, 0.747357
2581.75, 0.746369
2583.04, 0.741969
2584.32, 0.741251
2585.61, 0.744933
2586.9, 0.743945
2588.2, 0.744304
2589.49, 0.746010
2590.78, 0.747267
2592.08, 0.745561
2593.37, 0.734696
2594.67, 0.724639
2595.97, 0.732182
2597.27, 0.742329
2598.57, 0.746100
2599.88, 0.745741
2601.18, 0.743496
2602.49, 0.741790
2603.79, 0.738288
2605.1, 0.733170
2606.41, 0.734876
2607.72, 0.738737
2609.03, 0.739904
2610.35, 0.740982
2611.66, 0.741790
2612.98, 0.741071
2614.3, 0.740982
2615.62, 0.736582
2616.94, 0.733259
2618.26, 0.735953
2619.58, 0.733080
2620.91, 0.733798
2622.23, 0.739994
2623.56, 0.741610
2624.89, 0.739006
2626.22, 0.734157
2627.55, 0.735953
2628.88, 0.734606
2630.21, 0.729308
2631.55, 0.732990
2632.89, 0.736312
2634.22, 0.736761
2635.56, 0.738647
2636.9, 0.739276
2638.25, 0.739006
2639.59, 0.738108
2640.93, 0.737659
2642.28, 0.736941
2643.63, 0.736761
2644.98, 0.734965
2646.33, 0.734337
2647.68, 0.735414
2649.03, 0.735504
2650.39, 0.733708
2651.74, 0.730565
2653.1, 0.729668
2654.46, 0.730117
2655.82, 0.729578
2657.18, 0.729937
2658.54, 0.727513
2659.9, 0.725896
2661.27, 0.725447
2662.64, 0.724370
2664.01, 0.716737
2665.38, 0.709643
2666.74, 0.708656
2668.12, 0.712427
2669.49, 0.705693
2670.87, 0.703538
2672.24, 0.712427
2673.62, 0.714223
2675.0, 0.709643
2676.38, 0.704256
2677.76, 0.703807
2679.15, 0.703538
2680.54, 0.706052
2681.92, 0.705693
2683.31, 0.702819
2684.7, 0.700574
2686.09, 0.698419
2687.48, 0.696803
2688.88, 0.695007
2690.27, 0.692672
2691.67, 0.688183
2693.07, 0.680281
2694.47, 0.675971
2695.87, 0.675163
2697.27, 0.674175
2698.67, 0.670763
2700.08, 0.664387
2701.49, 0.658281
2702.9, 0.654510
2704.31, 0.649302
2705.72, 0.643016
2707.13, 0.634665
2708.54, 0.624249
2709.96, 0.612037
2711.38, 0.602968
2712.8, 0.598119
2714.22, 0.589499
2715.64, 0.578185
2717.06, 0.565524
2718.49, 0.550798
2719.91, 0.532839
2721.34, 0.522153
2722.77, 0.512545
2724.2, 0.498897
2725.63, 0.490546
2727.07, 0.483542
2728.5, 0.474652
2729.94, 0.465313
2731.38, 0.457142
2732.82, 0.449240
2734.26, 0.440979
2735.7, 0.435951
2737.15, 0.431192
2738.59, 0.422212
2740.04, 0.414939
2741.49, 0.411886
2742.94, 0.410449
2744.39, 0.407217
2745.84, 0.403176
2747.3, 0.399225
2748.76, 0.395005
2750.21, 0.390335
2751.67, 0.385307
2753.14, 0.379470
2754.6, 0.372377
2756.06, 0.370311
2757.53, 0.371748
2759.0, 0.371389
2760.46, 0.369862
2761.94, 0.367528
2763.41, 0.367168
2764.88, 0.368426
2766.36, 0.368875
2767.83, 0.369324
2769.31, 0.369772
2770.79, 0.370132
2772.27, 0.372197
2773.76, 0.373993
2775.24, 0.374621
2776.73, 0.374532
2778.22, 0.374891
2779.71, 0.374621
2781.2, 0.373813
2782.69, 0.373813
2784.18, 0.373723
2785.68, 0.371838
2787.18, 0.370401
2788.68, 0.370850
2790.18, 0.370850
2791.68, 0.370132
2793.19, 0.369234
2794.69, 0.368426
2796.2, 0.367348
2797.71, 0.366091
2799.22, 0.364834
2800.73, 0.363128
2802.24, 0.360793
2803.76, 0.359446
2805.28, 0.359446
2806.8, 0.358997
2808.32, 0.358099
2809.84, 0.357112
2811.36, 0.355944
2812.89, 0.354777
2814.42, 0.353610
2815.94, 0.352532
2817.48, 0.351544
2819.01, 0.349838
2820.54, 0.348401
2822.08, 0.347683
2823.61, 0.346785
2825.15, 0.345528
2826.69, 0.343822
2828.23, 0.342206
2829.78, 0.340949
2831.32, 0.339242
2832.87, 0.337087
2834.42, 0.335292
2835.97, 0.333855
2837.52, 0.332059
2839.08, 0.330443
2840.63, 0.329365
2842.19, 0.327928
2843.75, 0.326312
2845.31, 0.325324
2846.87, 0.323888
2848.44, 0.322092
2850.0, 0.320835
2851.57, 0.319757
2853.14, 0.318500
2854.71, 0.317602
2856.28, 0.316884
2857.86, 0.315627
2859.43, 0.314010
2861.01, 0.312753
2862.59, 0.311855
2864.17, 0.311227
2865.76, 0.310329
2867.34, 0.309790
2868.93, 0.309072
2870.52, 0.308174
2872.11, 0.307186
2873.7, 0.306647
2875.29, 0.306288
2876.89, 0.306019
2878.49, 0.305570
2880.08, 0.304761
2881.69, 0.303864
2883.29, 0.303594
2884.89, 0.303325
2886.5, 0.302786
2888.11, 0.301978
2889.72, 0.301529
2891.33, 0.301080
2892.94, 0.300182
2894.56, 0.299464
2896.17, 0.298745
2897.79, 0.298027
2899.42, 0.297039
2901.04, 0.296231
2902.66, 0.295872
2904.29, 0.295423
2905.92, 0.295064
2907.55, 0.294435
2909.18, 0.293986
2910.81, 0.293896
2912.45, 0.293896
2914.08, 0.293358
2915.72, 0.292998
2917.36, 0.293088
2919.01, 0.293178
2920.65, 0.292819
2922.3, 0.292460
2923.94, 0.292011
2925.59, 0.291831
2927.25, 0.291831
2928.9, 0.291652
2930.56, 0.291741
2932.21, 0.291741
2933.87, 0.291382
2935.53, 0.291382
2937.2, 0.291562
2938.86, 0.291831
2940.53, 0.291921
2942.2, 0.291921
2943.87, 0.292100
2945.54, 0.292370
2947.22, 0.292639
2948.89, 0.292909
2950.57, 0.293358
2952.25, 0.293447
2953.93, 0.293447
2955.62, 0.293537
2957.3, 0.293896
2958.99, 0.294256
2960.68, 0.294345
2962.37, 0.294794
2964.07, 0.295423
2965.76, 0.295782
2967.46, 0.296051
2969.16, 0.296500
2970.86, 0.296949
2972.56, 0.297578
2974.27, 0.298386
2975.98, 0.299104
2977.69, 0.299374
2979.4, 0.299643
2981.11, 0.300002
2982.83, 0.300811
2984.54, 0.301349
2986.26, 0.301708
2987.98, 0.302157
2989.71, 0.302786
2991.43, 0.303235
2993.16, 0.303774
2994.89, 0.304402
2996.62, 0.304941
2998.35, 0.305749
3000.09, 0.306468
3001.83, 0.307096
3003.57, 0.307994
3005.31, 0.308712
3007.05, 0.309700
3008.79, 0.310688
3010.54, 0.312035
3012.29, 0.313112
3014.04, 0.314280
3015.8, 0.315537
3017.55, 0.316704
3019.31, 0.317782
3021.07, 0.318769
3022.83, 0.319937
3024.59, 0.321014
3026.36, 0.322271
3028.13, 0.323439
3029.9, 0.324606
3031.67, 0.325773
3033.44, 0.326761
3035.22, 0.327749
3037.0, 0.328647
3038.78, 0.329455
3040.56, 0.330443
3042.34, 0.331430
3044.13, 0.332149
3045.92, 0.332867
3047.71, 0.333675
3049.5, 0.334394
3051.3, 0.335112
3053.09, 0.336010
3054.89, 0.336638
3056.69, 0.337177
3058.5, 0.337806
3060.3, 0.338434
3062.11, 0.339063
3063.92, 0.339691
3065.73, 0.340410
3067.55, 0.341308
3069.36, 0.341757
3071.18, 0.342295
3073.0, 0.343014
3074.82, 0.343912
3076.65, 0.344540
3078.48, 0.345259
3080.31, 0.345887
3082.14, 0.346785
3083.97, 0.347863
3085.8, 0.348671
3087.64, 0.349479
3089.48, 0.350557
3091.33, 0.351634
3093.17, 0.352532
3095.02, 0.353520
3096.87, 0.354507
3098.72, 0.355675
3100.57, 0.357022
3102.43, 0.358099
3104.28, 0.359177
3106.14, 0.360254
3108.01, 0.361511
3109.87, 0.362679
3111.74, 0.363936
3113.61, 0.365373
3115.48, 0.366630
3117.35, 0.367887
3119.23, 0.369054
3121.1, 0.370221
3122.98, 0.371568
3124.87, 0.373095
3126.75, 0.374621
3128.64, 0.376148
3130.53, 0.377405
3132.42, 0.378752
3134.31, 0.380368
3136.21, 0.381984
3138.11, 0.383331
3140.01, 0.384589
3141.91, 0.386295
3143.82, 0.388090
3145.73, 0.389527
3147.64, 0.390964
3149.55, 0.392670
3151.46, 0.394376
3153.38, 0.395992
3155.3, 0.397698
3157.22, 0.399674
3159.14, 0.401380
3161.07, 0.403266
3163.0, 0.405151
3164.93, 0.407127
3166.86, 0.409192
3168.8, 0.411347
3170.74, 0.413502
3172.68, 0.415388
3174.62, 0.417184
3176.56, 0.419249
3178.51, 0.421494
3180.46, 0.423649
3182.42, 0.425804
3184.37, 0.428228
3186.33, 0.430384
3188.29, 0.432359
3190.25, 0.434514
3192.21, 0.436400
3194.18, 0.438465
3196.15, 0.440620
3198.12, 0.442775
3200.09, 0.444840
3202.07, 0.446816
3204.05, 0.448971
3206.03, 0.451306
3208.02, 0.453281
3210.0, 0.455077
3211.99, 0.457142
3213.98, 0.459118
3215.98, 0.461093
3217.97, 0.463158
3219.97, 0.465134
3221.97, 0.467109
3223.98, 0.469175
3225.98, 0.471060
3227.99, 0.472856
3230.0, 0.474562
3232.02, 0.476538
3234.03, 0.478513
3236.05, 0.480309
3238.07, 0.482015
3240.1, 0.483991
3242.12, 0.485966
3244.15, 0.487762
3246.18, 0.489289
3248.22, 0.490995
3250.25, 0.492880
3252.29, 0.494497
3254.33, 0.495844
3256.38, 0.497639
3258.43, 0.499525
3260.47, 0.500962
3262.53, 0.502578
3264.58, 0.504284
3266.64, 0.505990
3268.7, 0.507696
3270.76, 0.509313
3272.82, 0.510839
3274.89, 0.512366
3276.96, 0.513982
3279.04, 0.515598
3281.11, 0.517125
3283.19, 0.518741
3285.27, 0.520268
3287.35, 0.521884
3289.44, 0.523231
3291.53, 0.524937
3293.62, 0.526553
3295.71, 0.527900
3297.81, 0.529427
3299.91, 0.530953
3302.01, 0.532480
3304.11, 0.533916
3306.22, 0.535533
3308.33, 0.537059
3310.44, 0.538406
3312.56, 0.539663
3314.68, 0.540920
3316.8, 0.542536
3318.92, 0.543973
3321.05, 0.545141
3323.18, 0.546398
3325.31, 0.547745
3327.44, 0.549181
3329.58, 0.550618
3331.72, 0.551965
3333.86, 0.553132
3336.01, 0.554030
3338.16, 0.554838
3340.31, 0.555916
3342.46, 0.556724
3344.61, 0.557442
3346.77, 0.558430
3348.94, 0.559328
3351.1, 0.560406
3353.27, 0.561483
3355.44, 0.562650
3357.61, 0.563908
3359.79, 0.564985
3361.97, 0.565973
3364.15, 0.566961
3366.33, 0.567589
3368.52, 0.568218
3370.71, 0.568936
3372.9, 0.569834
3375.1, 0.570822
3377.3, 0.571630
3379.5, 0.572618
3381.71, 0.573964
3383.91, 0.575311
3386.12, 0.576658
3388.34, 0.578005
3390.55, 0.579083
3392.77, 0.579891
3394.99, 0.580609
3397.22, 0.581148
3399.45, 0.581507
3401.68, 0.581777
3403.91, 0.581866
3406.15, 0.582046
3408.39, 0.582405
3410.63, 0.582764
3412.87, 0.582944
3415.12, 0.583303
3417.37, 0.583932
3419.63, 0.584740
3421.88, 0.585727
3424.14, 0.586985
3426.41, 0.588781
3428.67, 0.590936
3430.94, 0.593360
3433.21, 0.595784
3435.49, 0.598029
3437.77, 0.599915
3440.05, 0.601621
3442.33, 0.603148
3444.62, 0.604764
3446.91, 0.606021
3449.2, 0.607278
3451.5, 0.608715
3453.8, 0.610062
3456.1, 0.611229
3458.41, 0.612307
3460.72, 0.613384
3463.03, 0.614282
3465.34, 0.615090
3467.66, 0.615719
3469.98, 0.616078
3472.31, 0.616437
3474.63, 0.617066
3476.96, 0.617784
3479.3, 0.618233
3481.64, 0.618862
3483.97, 0.619580
3486.32, 0.619939
3488.66, 0.620208
3491.01, 0.620568
3493.36, 0.620568
3495.72, 0.620478
3498.08, 0.620298
3500.44, 0.620208
3502.81, 0.620388
3505.18, 0.620478
3507.55, 0.621286
3509.92, 0.623082
3512.3, 0.625865
3514.68, 0.628649
3517.06, 0.631074
3519.45, 0.633139
3521.84, 0.634935
3524.24, 0.636641
3526.64, 0.638078
3529.04, 0.639335
3531.44, 0.640412
3533.85, 0.641579
3536.26, 0.642657
3538.67, 0.643375
3541.09, 0.644004
3543.51, 0.644632
3545.93, 0.645620
3548.36, 0.646518
3550.79, 0.647237
3553.22, 0.647955
3555.66, 0.648494
3558.1, 0.649032
3560.54, 0.649571
3562.99, 0.649930
3565.44, 0.650559
3567.9, 0.651098
3570.35, 0.651636
3572.81, 0.652175
3575.28, 0.652624
3577.75, 0.653073
3580.22, 0.653612
3582.69, 0.654061
3585.17, 0.654600
3587.65, 0.654869
3590.14, 0.655138
3592.62, 0.655677
3595.11, 0.655947
3597.61, 0.656306
3600.11, 0.656665
3602.61, 0.656844
3605.11, 0.657114
3607.62, 0.657473
3610.14, 0.657742
3612.65, 0.657922
3615.17, 0.658281
3617.69, 0.658551
3620.22, 0.658730
3622.75, 0.659089
3625.28, 0.659269
3627.82, 0.659269
3630.36, 0.659359
3632.9, 0.659538
3635.45, 0.659718
3638.0, 0.659808
3640.56, 0.659628
3643.12, 0.659718
3645.68, 0.659898
3648.24, 0.660077
3650.81, 0.660077
3653.39, 0.660077
3655.96, 0.660257
3658.54, 0.660346
3661.13, 0.660436
3663.71, 0.660526
3666.3, 0.660436
3668.9, 0.660526
3671.5, 0.660706
3674.1, 0.660616
3676.7, 0.660526
3679.31, 0.660616
3681.93, 0.660616
3684.54, 0.660526
3687.17, 0.660526
3689.79, 0.660616
3692.42, 0.660526
3695.05, 0.660526
3697.69, 0.660346
3700.32, 0.660257
3702.97, 0.660257
3705.61, 0.660257
3708.27, 0.660346
3710.92, 0.660257
3713.58, 0.660077
3716.24, 0.659898
3718.91, 0.659718
3721.58, 0.659808
3724.25, 0.659808
3726.93, 0.659718
3729.61, 0.659628
3732.29, 0.659449
3734.98, 0.659179
3737.67, 0.658910
3740.37, 0.658820
3743.07, 0.658910
3745.78, 0.659000
3748.49, 0.658820
3751.2, 0.658640
3753.91, 0.658551
3756.63, 0.658371
3759.36, 0.658281
3762.09, 0.658102
3764.82, 0.657922
3767.55, 0.657653
3770.29, 0.657383
3773.04, 0.657293
3775.78, 0.656934
3778.54, 0.656755
3781.29, 0.656575
3784.05, 0.656306
3786.82, 0.655857
3789.59, 0.655498
3792.36, 0.655228
3795.13, 0.654779
3797.92, 0.654240
3800.7, 0.653881
3803.49, 0.653432
3806.28, 0.652894
3809.08, 0.652265
3811.88, 0.651726
3814.68, 0.651187
3817.49, 0.650739
3820.31, 0.650290
3823.12, 0.649661
3825.94, 0.649032
3828.77, 0.648494
3831.6, 0.647865
3834.43, 0.647416
3837.27, 0.646877
3840.11, 0.646339
3842.96, 0.645979
3845.81, 0.645530
3848.67, 0.644992
3851.53, 0.644632
3854.39, 0.644273
3857.26, 0.644094
3860.13, 0.643824
3863.01, 0.643286
3865.89, 0.642747
3868.77, 0.642388
3871.66, 0.642118
3874.55, 0.641759
3877.45, 0.641490
3880.35, 0.641131
3883.26, 0.640771
3886.17, 0.640412
3889.09, 0.640053
3892.01, 0.639694
3894.93, 0.639335
3897.86, 0.638975
3900.79, 0.638616
3903.73, 0.638257
3906.67, 0.637898
3909.62, 0.637629
3912.57, 0.637269
3915.52, 0.636820
3918.48, 0.636282
3921.45, 0.635563
3924.42, 0.635204
3927.39, 0.634845
3930.37, 0.634127
3933.35, 0.633408
3936.34, 0.632869
3939.33, 0.632331
3942.32, 0.631523
3945.32, 0.630625
3948.33, 0.629816
3951.34, 0.629188
3954.35, 0.628559
3957.37, 0.627751
3960.39, 0.626943
3963.42, 0.626404
3966.45, 0.625865
3969.49, 0.625417
3972.53, 0.624878
3975.58, 0.624339
3978.63, 0.623890
3981.68, 0.623531
3984.75, 0.623172
3987.81, 0.622992
3990.88, 0.622813
3993.95, 0.622813
3997.03, 0.622813
4000.12, 0.622543
4003.21, 0.622364
4006.3, 0.622453
4009.4, 0.622364
4012.5, 0.622274
4015.61, 0.622274
4018.72, 0.622184
4021.84, 0.622094
4024.96, 0.622094
4028.09, 0.622094
4031.22, 0.622004
4034.36, 0.621915
4037.5, 0.621825
4040.65, 0.621915
4043.8, 0.621825
4046.96, 0.621825
4050.12, 0.621735
4053.29, 0.621555
4056.46, 0.621376
4059.64, 0.621017
4062.82, 0.620657
4066.0, 0.620298
4069.19, 0.619939
4072.39, 0.619490
4075.59, 0.619131
4078.8, 0.618772
4082.01, 0.618502
4085.23, 0.618053
4088.45, 0.617425
4091.68, 0.616886
4094.91, 0.616437
4098.15, 0.615898
4101.39, 0.615360
4104.63, 0.614821
4107.89, 0.614282
4111.14, 0.613653
4114.41, 0.612845
4117.67, 0.612307
4120.95, 0.611768
4124.23, 0.611319
4127.51, 0.610600
4130.8, 0.609882
4134.09, 0.609164
4137.39, 0.608445
4140.7, 0.607547
4144.01, 0.606829
4147.32, 0.606021
4150.64, 0.605033
4153.97, 0.604315
4157.3, 0.603507
4160.64, 0.602519
4163.98, 0.601531
4167.33, 0.600454
4170.68, 0.599286
4174.04, 0.598388
4177.4, 0.597311
4180.77, 0.596144
4184.14, 0.594886
4187.52, 0.593719
4190.91, 0.592552
4194.3, 0.591295
4197.69, 0.589768
4201.1, 0.588421
4204.5, 0.587254
4207.92, 0.586087
4211.34, 0.584830
4214.76, 0.583662
4218.19, 0.582315
4221.62, 0.581058
4225.06, 0.579532
4228.51, 0.578005
4231.96, 0.576299
4235.42, 0.574324
4238.88, 0.572438
4242.35, 0.570283
4245.83, 0.567948
4249.31, 0.565524
4252.79, 0.563099
4256.28, 0.560855
4259.78, 0.558789
4263.29, 0.557083
4266.79, 0.555377
4270.31, 0.553491
4273.83, 0.551247
4277.35, 0.549002
4280.89, 0.546847
4284.42, 0.544602
4287.97, 0.542267
4291.52, 0.539932
4295.07, 0.537598
4298.63, 0.535084
4302.2, 0.532569
4305.78, 0.530055
4309.35, 0.527451
4312.94, 0.524847
4316.53, 0.522243
4320.13, 0.519549
4323.73, 0.517035
4327.34, 0.514521
4330.96, 0.511827
4334.58, 0.508954
4338.21, 0.506349
4341.84, 0.503745
4345.48, 0.500962
4349.12, 0.498358
4352.77, 0.495754
4356.43, 0.492880
4360.1, 0.490007
4363.76, 0.487313
4367.44, 0.484709
4371.12, 0.482015
4374.81, 0.479321
4378.51, 0.476538
4382.21, 0.473844
4385.92, 0.471330
4389.63, 0.468636
4393.35, 0.465942
4397.08, 0.463248
4400.81, 0.460644
4404.55, 0.458130
4408.29, 0.455616
4412.04, 0.453102
4415.8, 0.450497
4419.57, 0.447893
4423.34, 0.445379
4427.12, 0.442955
4430.9, 0.440530
4434.69, 0.438106
4438.49, 0.435502
4442.29, 0.432898
4446.1, 0.430473
4449.92, 0.427690
4453.74, 0.424816
4457.57, 0.421943
4461.41, 0.419249
4465.25, 0.416286
4469.1, 0.413502
4472.95, 0.410808
4476.82, 0.408115
4480.69, 0.405241
4484.56, 0.402278
4488.44, 0.399315
4492.33, 0.396531
4496.23, 0.393748
4500.13, 0.390964
4504.04, 0.388180
4507.96, 0.385397
4511.88, 0.382433
4515.81, 0.379740
4519.75, 0.377136
4523.69, 0.374532
4527.65, 0.371748
4531.6, 0.369054
4535.57, 0.366270
4539.54, 0.363577
4543.52, 0.360883
4547.5, 0.358099
4551.5, 0.355316
4555.5, 0.352442
4559.5, 0.349659
4563.52, 0.346965
4567.54, 0.344181
4571.56, 0.341218
4575.6, 0.338345
4579.64, 0.335561
4583.69, 0.332508
4587.75, 0.329634
4591.81, 0.326671
4595.88, 0.323708
4599.96, 0.320745
4604.04, 0.318051
4608.14, 0.315357
4612.24, 0.312484
4616.34, 0.309431
4620.46, 0.306557
4624.58, 0.303774
4628.71, 0.300900
4632.84, 0.298296
4636.99, 0.295602
4641.14, 0.292998
4645.3, 0.290484
4649.47, 0.288060
4653.64, 0.285725
4657.82, 0.283480
4662.01, 0.281235
4666.21, 0.279080
4670.41, 0.277105
4674.62, 0.275219
4678.84, 0.273423
4683.07, 0.271627
4687.3, 0.270101
4691.54, 0.268574
4695.79, 0.267048
4700.05, 0.265611
4704.31, 0.264175
4708.59, 0.262738
4712.87, 0.261570
4717.15, 0.260044
4721.45, 0.258607
4725.76, 0.257171
4730.07, 0.255554
4734.39, 0.254118
4738.72, 0.252771
4743.05, 0.251514
4747.39, 0.250346
4751.75, 0.249179
4756.1, 0.248101
4760.47, 0.247114
4764.85, 0.246216
4769.23, 0.245408
4773.62, 0.244689
4778.02, 0.244150
4782.43, 0.243791
4786.85, 0.243342
4791.27, 0.242714
4795.7, 0.242355
4800.14, 0.242085
4804.59, 0.241726
4809.05, 0.241187
4813.51, 0.240559
4817.99, 0.239930
4822.47, 0.239302
4826.96, 0.238583
4831.46, 0.237685
4835.96, 0.236697
4840.48, 0.235710
4845.0, 0.234902
4849.54, 0.233824
4854.08, 0.232747
4858.63, 0.231849
4863.18, 0.230591
4867.75, 0.229155
4872.33, 0.227718
4876.91, 0.226371
4881.5, 0.224934
4886.1, 0.223588
4890.71, 0.222241
4895.33, 0.220984
4899.96, 0.219637
4904.59, 0.218379
4909.24, 0.217302
4913.89, 0.216135
4918.55, 0.215237
4923.22, 0.214339
4927.9, 0.213351
4932.59, 0.212633
4937.29, 0.211645
4942.0, 0.210388
4946.71, 0.209131
4951.44, 0.207694
4956.17, 0.206078
4960.91, 0.204282
4965.67, 0.202486
4970.43, 0.200510
4975.2, 0.198715
4979.98, 0.196829
4984.76, 0.194764
4989.56, 0.192788
4994.37, 0.191082
4999.18, 0.189286
5004.01, 0.187490
5008.84, 0.185605
5013.69, 0.183809
5018.54, 0.182013
5023.4, 0.180217
5028.28, 0.178421
5033.16, 0.176446
5038.05, 0.174650
5042.95, 0.172764
5047.86, 0.170789
5052.78, 0.168813
5057.71, 0.166927
5062.65, 0.164772
5067.6, 0.162707
5072.56, 0.160642
5077.53, 0.158487
5082.5, 0.156332
5087.49, 0.154356
5092.49, 0.152381
5097.5, 0.150495
5102.51, 0.148520
5107.54, 0.146634
5112.58, 0.144838
5117.62, 0.143042
5122.68, 0.141246
5127.75, 0.139450
5132.82, 0.137654
5137.91, 0.135948
5143.01, 0.134242
5148.12, 0.132626
5153.23, 0.131279
5158.36, 0.129842
5163.5, 0.128406
5168.65, 0.126969
5173.81, 0.125442
5178.98, 0.124006
5184.15, 0.122569
5189.34, 0.121132
5194.54, 0.119785
5199.75, 0.118439
5204.98, 0.117092
5210.21, 0.115655
5215.45, 0.114398
5220.7, 0.113320
5225.96, 0.112333
5231.23, 0.111165
5236.52, 0.110088
5241.81, 0.109190
5247.12, 0.108471
5252.44, 0.107753
5257.76, 0.107214
5263.1, 0.106676
5268.45, 0.106137
5273.81, 0.105688
5279.18, 0.105329
5284.56, 0.104790
5289.95, 0.104251
5295.36, 0.103982
5300.77, 0.103712
5306.2, 0.103263
5311.63, 0.102904
5317.08, 0.102186
5322.54, 0.101647
5328.01, 0.101288
5333.49, 0.100749
5338.98, 0.0998510
5344.49, 0.0992230
5350.0, 0.0984140
5355.53, 0.0976960
5361.07, 0.0970680
5366.62, 0.0964390
5372.18, 0.0956310
5377.75, 0.0947330
5383.34, 0.0939250
5388.93, 0.0931170
5394.54, 0.0923080
5400.16, 0.0914100
5405.79, 0.0904230
5411.44, 0.0894350
5417.09, 0.0882680
5422.76, 0.0869210
5428.43, 0.0863820
5434.12, 0.0855740
5439.83, 0.0845860
5445.54, 0.0835090
5451.26, 0.0824310
5457.0, 0.0814430
5462.75, 0.0801860
5468.52, 0.0791090
5474.29, 0.0780310
5480.08, 0.0769540
5485.88, 0.0760560
5491.69, 0.0749780
5497.51, 0.0739900
5503.35, 0.0730030
5509.2, 0.0719250
5515.06, 0.0707580
5520.93, 0.0696800
5526.82, 0.0687820
5532.71, 0.0678840
5538.63, 0.0668070
5544.55, 0.0658190
5550.49, 0.0649210
5556.44, 0.0642030
5562.4, 0.0636640
5568.37, 0.0630360
5574.36, 0.0621380
5580.36, 0.0615090
5586.37, 0.0615090
5592.4, 0.0612400
5598.44, 0.0607910
5604.49, 0.0605210
5610.56, 0.0602520
5616.63, 0.0598930
5622.73, 0.0596230
5628.83, 0.0592640
5634.95, 0.0587250
5641.08, 0.0581870
5647.23, 0.0583660
5653.39, 0.0586360
5659.56, 0.0587250
5665.74, 0.0587250
5671.94, 0.0584560
5678.15, 0.0583660
5684.38, 0.0585460
5690.62, 0.0584560
5696.87, 0.0582760
5703.14, 0.0580070
5709.42, 0.0575580
5715.72, 0.0576480
5722.03, 0.0576480
5728.35, 0.0576480
5734.69, 0.0574680
5741.03, 0.0571990
5747.4, 0.0569300
5753.78, 0.0571090
5760.17, 0.0565700
5766.58, 0.0560320
5773.0, 0.0564810
5779.44, 0.0567500
5785.88, 0.0567500
5792.35, 0.0568400
5798.83, 0.0566600
5805.32, 0.0563010
5811.83, 0.0558520
5818.35, 0.0550440
5824.89, 0.0547740
5831.45, 0.0551340
5838.01, 0.0550440
5844.59, 0.0549540
5851.19, 0.0545950
5857.8, 0.0543250
5864.43, 0.0541460
5871.07, 0.0539660
5877.73, 0.0527990
5884.4, 0.0526190
5891.09, 0.0527090
5897.79, 0.0524400
5904.5, 0.0528890
5911.23, 0.0529790
5917.98, 0.0528890
5924.75, 0.0527090
5931.53, 0.0518110
5938.32, 0.0512720
5945.13, 0.0519910
5951.96, 0.0522600
5958.8, 0.0521700
5965.65, 0.0517210
5972.53, 0.0517210
5979.42, 0.0516320
5986.32, 0.0512720
5993.24, 0.0511830
6000.18, 0.0514520
6007.13, 0.0512720
6014.1, 0.0510030
6021.08, 0.0510030
6028.09, 0.0509130
6035.1, 0.0505540
6042.14, 0.0494770
6049.19, 0.0485790
6056.25, 0.0494770
6063.34, 0.0498360
6070.44, 0.0492970
6077.55, 0.0491170
6084.69, 0.0492970
6091.84, 0.0492070
6099.0, 0.0486680
6106.19, 0.0479500
6113.39, 0.0472320
6120.61, 0.0474110
6127.84, 0.0475910
6135.09, 0.0472320
6142.36, 0.0466030
6149.65, 0.0462440
6156.95, 0.0459750
6164.27, 0.0457950
6171.61, 0.0455260
6178.97, 0.0449870
6186.34, 0.0444480
6193.73, 0.0447180
6201.14, 0.0447180
6208.57, 0.0445380
6216.01, 0.0444480
6223.47, 0.0444480
6230.95, 0.0442690
6238.45, 0.0442690
6245.97, 0.0442690
6253.5, 0.0442690
6261.06, 0.0442690
6268.63, 0.0443580
6276.21, 0.0443580
6283.82, 0.0445380
6291.45, 0.0446280
6299.1, 0.0447180
6306.76, 0.0448070
6314.44, 0.0448070
6322.14, 0.0448970
6329.86, 0.0451660
6337.6, 0.0449870
6345.35, 0.0447180
6353.13, 0.0453460
6360.92, 0.0456150
6368.74, 0.0456150
6376.57, 0.0459750
6384.43, 0.0463340
6392.3, 0.0463340
6400.19, 0.0461540
6408.1, 0.0454360
6416.03, 0.0451660
6423.98, 0.0458850
6431.95, 0.0461540
6439.94, 0.0462440
6447.95, 0.0461540
6455.98, 0.0459750
6464.03, 0.0457050
6472.1, 0.0450770
6480.19, 0.0443580
6488.31, 0.0436400
6496.44, 0.0432810
6504.59, 0.0437300
6512.76, 0.0436400
6520.95, 0.0431910
6529.16, 0.0432810
6537.4, 0.0428320
6545.65, 0.0422930
6553.92, 0.0420240
6562.22, 0.0417540
6570.54, 0.0411260
6578.88, 0.0410360
6587.23, 0.0408560
6595.61, 0.0405870
6604.02, 0.0405870
6612.44, 0.0402280
6620.89, 0.0399580
6629.35, 0.0392400
6637.84, 0.0386110
6646.35, 0.0390600
6654.88, 0.0393300
6663.44, 0.0389710
6672.01, 0.0386110
6680.61, 0.0383420
6689.23, 0.0381630
6697.88, 0.0378930
6706.54, 0.0374440
6715.23, 0.0372650
6723.94, 0.0371750
6732.67, 0.0371750
6741.42, 0.0369950
6750.2, 0.0365460
6759.0, 0.0361870
6767.82, 0.0358280
6776.67, 0.0356480
6785.54, 0.0353790
6794.44, 0.0352890
6803.35, 0.0353790
6812.29, 0.0351100
6821.26, 0.0346610
6830.24, 0.0343010
6839.25, 0.0342120
6848.29, 0.0338520
6857.35, 0.0331340
6866.43, 0.0325950
6875.54, 0.0327750
6884.67, 0.0327750
6893.82, 0.0324160
6903.0, 0.0319670
6912.2, 0.0316080
6921.43, 0.0313380
6930.69, 0.0310690
6939.96, 0.0305300
6949.27, 0.0300810
6958.59, 0.0296320
6967.95, 0.0294520
6977.33, 0.0291830
6986.73, 0.0287340
6996.16, 0.0284650
7005.61, 0.0281060
7015.09, 0.0277460
7024.6, 0.0272970
7034.13, 0.0269380
7043.69, 0.0264890
7053.27, 0.0262200
7062.88, 0.0259510
7072.52, 0.0255020
7082.18, 0.0251420
7091.87, 0.0246040
7101.58, 0.0240650
7111.32, 0.0237060
7121.09, 0.0232570
7130.88, 0.0228080
7140.71, 0.0222690
7150.56, 0.0219100
7160.43, 0.0215510
7170.33, 0.0210120
7180.27, 0.0204730
7190.23, 0.0200240
7200.21, 0.0194850
7210.23, 0.0190360
7220.27, 0.0186770
7230.34, 0.0182280
7240.44, 0.0176890
7250.56, 0.0173300
7260.72, 0.0169710
7270.9, 0.0166120
7281.12, 0.0161630
7291.36, 0.0158040
7301.63, 0.0154450
7311.93, 0.0149060
7322.25, 0.0143670
7332.61, 0.0139180
7343.0, 0.0134690
7353.41, 0.0132000
7363.86, 0.0130200
7374.33, 0.0125710
7384.83, 0.0122120
7395.37, 0.0118530
7405.93, 0.0114940
7416.53, 0.0112240
7427.15, 0.0107750
7437.81, 0.0104160
7448.5, 0.0100570
7459.22, 0.00978800
7469.96, 0.00951800
7480.74, 0.00933900
7491.55, 0.00906900
7502.39, 0.00862000
7513.27, 0.00799200
7524.17, 0.00772200
7535.11, 0.00763300
7546.08, 0.00754300
7557.08, 0.00718400
7568.11, 0.00673500
7579.17, 0.00655500
7590.27, 0.00610600
7601.4, 0.00574700
7612.56, 0.00556700
7623.76, 0.00529800
7634.98, 0.00502800
7646.24, 0.00493900
7657.54, 0.00484900
7668.87, 0.00466900
7680.23, 0.00466900
7691.62, 0.00449000
7703.05, 0.00422000
7714.51, 0.00404100
7726.01, 0.00422000
7737.54, 0.00422000
7749.11, 0.00413100
7760.71, 0.00413100
7772.35, 0.00431000
7784.02, 0.00440000
7795.72, 0.00466900
7807.46, 0.00493900
7819.23, 0.00511800
7831.04, 0.00520800
7842.89, 0.00547700
7854.77, 0.00601600
7866.69, 0.00655500
7878.65, 0.00727300
7890.64, 0.00790200
7902.67, 0.00897900
7914.74, 0.0103260
7926.84, 0.0118530
7938.98, 0.0134690
7951.16, 0.0154450
7963.37, 0.0177790
7975.62, 0.0202930
7987.91, 0.0231670
8000.24, 0.0263990
8012.6, 0.0302610
8025.01, 0.0345710
8037.45, 0.0392400
8049.93, 0.0445380
8062.45, 0.0506440
8075.01, 0.0572890
8087.61, 0.0646520
8100.24, 0.0728230
8112.91, 0.0817130
8125.63, 0.0911410
8138.39, 0.101108
8151.18, 0.111884
8164.02, 0.123198
8176.9, 0.134871
8189.81, 0.146634
8202.77, 0.158307
8215.77, 0.169711
8228.82, 0.180666
8241.9, 0.190453
8255.02, 0.198445
8268.19, 0.204731
8281.39, 0.209131
8294.65, 0.211914
8307.94, 0.213351
8321.28, 0.213710
8334.66, 0.213082
8348.08, 0.211914
8361.54, 0.210388
8375.05, 0.208771
8388.6, 0.207065
8402.2, 0.205180
8415.84, 0.203204
8429.52, 0.201319
8443.25, 0.199702
8457.02, 0.198445
8470.84, 0.197008
8484.7, 0.195662
8498.61, 0.194494
8512.57, 0.193327
8526.57, 0.192519
8540.62, 0.191800
8554.71, 0.190992
8568.85, 0.190005
8583.04, 0.189196
8597.27, 0.188298
8611.55, 0.187311
8625.88, 0.186862
8640.26, 0.187131
8654.68, 0.187849
8669.16, 0.188298
8683.68, 0.188837
8698.25, 0.188837
8712.87, 0.188478
8727.53, 0.187760
8742.25, 0.186413
8757.02, 0.184796
8771.83, 0.182911
8786.7, 0.180666
8801.62, 0.178511
8816.59, 0.175907
8831.61, 0.173123
8846.68, 0.170340
8861.8, 0.167466
8876.97, 0.164683
8892.2, 0.161899
8907.48, 0.159115
8922.81, 0.156332
8938.2, 0.153997
8953.63, 0.151573
8969.13, 0.148969
8984.67, 0.146544
9000.27, 0.144299
9015.92, 0.142054
9031.63, 0.139989
9047.39, 0.138103
9063.21, 0.136218
9079.08, 0.134602
9095.01, 0.133255
9111.0, 0.132177
9127.04, 0.131279
9143.13, 0.130471
9159.28, 0.129214
9175.49, 0.127867
9191.76, 0.126789
9208.09, 0.125802
9224.47, 0.124365
9240.92, 0.122659
9257.42, 0.120953
9273.98, 0.119336
9290.6, 0.118169
9307.28, 0.117181
9324.02, 0.116463
9340.82, 0.116014
9357.68, 0.115745
9374.6, 0.116104
9391.58, 0.117361
9408.62, 0.119247
9425.73, 0.122120
9442.9, 0.125981
9460.13, 0.130651
9477.42, 0.136038
9494.78, 0.142144
9512.2, 0.148789
9529.69, 0.155613
9547.24, 0.161989
9564.86, 0.168185
9582.54, 0.173842
9600.28, 0.178241
9618.1, 0.181923
9635.97, 0.184796
9653.92, 0.186682
9671.93, 0.187400
9690.01, 0.187400
9708.16, 0.187041
9726.37, 0.186682
9744.65, 0.186233
9763.0, 0.185784
9781.43, 0.185874
9799.92, 0.186413
9818.48, 0.186862
9837.1, 0.187221
9855.8, 0.187221
9874.58, 0.186772
9893.42, 0.185874
9912.34, 0.184527
9931.33, 0.183001
9950.39, 0.181025
9969.52, 0.178601
9988.74, 0.176356
10008.0, 0.174021
10027.4, 0.171597
10046.8, 0.169172
10066.3, 0.166838
10085.9, 0.164593
10105.6, 0.162527
10125.3, 0.160103
10145.1, 0.157768
10165.0, 0.155254
10185.0, 0.152560
10205.0, 0.149867
10225.2, 0.147173
10245.4, 0.144299
10265.7, 0.141426
10286.0, 0.138732
10306.5, 0.136038
10327.0, 0.133434
10347.6, 0.131100
10368.3, 0.128944
10389.1, 0.126969
10409.9, 0.125263
10430.9, 0.123467
10451.9, 0.121761
10473.0, 0.120773
10494.2, 0.119965
10515.5, 0.118888
10536.9, 0.117810
10558.4, 0.117002
10579.9, 0.116104
10601.5, 0.115475
10623.3, 0.114757
10645.1, 0.114128
10667.0, 0.113590
10689.0, 0.112602
10711.1, 0.111794
10733.2, 0.111075
10755.5, 0.109908
10777.9, 0.109100
10800.3, 0.108382
10822.9, 0.107394
10845.5, 0.106316
10868.2, 0.105508
10891.1, 0.104700
10914.0, 0.104161
10937.0, 0.103353
10960.2, 0.102365
10983.4, 0.101557
11006.7, 0.100929
11030.1, 0.100210
11053.6, 0.0990430
11077.3, 0.0982350
11101.0, 0.0976060
11124.8, 0.0967080
11148.7, 0.0957210
11172.7, 0.0949120
11196.9, 0.0941940
11221.1, 0.0933860
11245.4, 0.0923980
11269.9, 0.0910510
11294.4, 0.0898840
11319.1, 0.0888960
11343.9, 0.0879980
11368.8, 0.0867410
11393.7, 0.0856640
11418.8, 0.0848560
11444.0, 0.0840470
11469.4, 0.0828800
11494.8, 0.0817130
11520.3, 0.0810840
11546.0, 0.0801860
11571.8, 0.0790190
11597.7, 0.0781210
11623.7, 0.0772230
11649.8, 0.0765050
11676.0, 0.0758760
11702.4, 0.0752480
11728.9, 0.0744390
11755.5, 0.0736310
11782.2, 0.0728230
11809.0, 0.0721050
11836.0, 0.0712970
11863.0, 0.0703090
11890.3, 0.0693210
11917.6, 0.0685130
11945.0, 0.0677950
11972.6, 0.0667170
12000.4, 0.0653700
12028.2, 0.0639330
12056.2, 0.0627660
12084.3, 0.0615090
12112.5, 0.0601620
12140.9, 0.0582760
12169.4, 0.0563910
12198.0, 0.0545050
12226.8, 0.0525300
12255.7, 0.0506440
12284.7, 0.0486680
12313.9, 0.0469620
12343.2, 0.0457950
12372.7, 0.0448070
12402.3, 0.0441790
12432.0, 0.0435500
12461.9, 0.0427420
12491.9, 0.0420240
12522.1, 0.0415750
12552.4, 0.0418440
12582.9, 0.0424730
12613.5, 0.0439990
12644.3, 0.0464240
12675.2, 0.0492070
12706.3, 0.0510030
12737.5, 0.0519910
12768.9, 0.0526190
12800.4, 0.0521700
12832.1, 0.0518110
12863.9, 0.0511830
12895.9, 0.0500150
12928.1, 0.0493870
12960.4, 0.0495660
12992.9, 0.0500150
13025.5, 0.0510030
13058.3, 0.0526190
13091.3, 0.0543250
13124.4, 0.0561210
13157.8, 0.0573780
13191.2, 0.0582760
13224.9, 0.0586360
13258.7, 0.0584560
13292.7, 0.0580070
13326.9, 0.0573780
13361.2, 0.0569300
13395.7, 0.0570190
13430.4, 0.0571990
13465.3, 0.0571990
13500.4, 0.0571090
13535.7, 0.0567500
13571.1, 0.0559420
13606.7, 0.0556720
13642.5, 0.0548640
13678.5, 0.0538770
13714.7, 0.0536070
13751.1, 0.0539660
13787.6, 0.0545950
13824.4, 0.0546850
13861.4, 0.0544150
13898.5, 0.0539660
13935.9, 0.0535170
13973.5, 0.0529790
14011.2, 0.0523500
14049.2, 0.0514520
14087.4, 0.0501950
14125.8, 0.0492970
14164.3, 0.0487580
14203.2, 0.0479500
14242.2, 0.0474110
14281.4, 0.0466030
14320.9, 0.0453460
14360.5, 0.0437300
14400.4, 0.0430110
14440.5, 0.0425620
14480.9, 0.0414850
14521.4, 0.0404070
14562.2, 0.0392400
14603.3, 0.0387010
14644.5, 0.0383420
14686.0, 0.0376240
14727.7, 0.0369950
14769.7, 0.0361870
14811.9, 0.0352890
14854.3, 0.0345710
14897.0, 0.0345710
14939.9, 0.0350200
14983.1, 0.0360970
15026.5, 0.0379830
15070.2, 0.0413050
15114.2, 0.0467830
15158.3, 0.0537870
15202.8, 0.0616890
15247.5, 0.0703090
15292.5, 0.0784800
15337.7, 0.0856640
15383.2, 0.0913210
15429.0, 0.0939250
15475.1, 0.0933860
15521.4, 0.0909620
15568.0, 0.0875490
15614.9, 0.0832390
15662.1, 0.0787500
15709.6, 0.0748880
15757.3, 0.0725540
15805.4, 0.0728230
15853.7, 0.0758760
15902.3, 0.0813540
15951.2, 0.0890760
16000.5, 0.0976060
16050.0, 0.106137
16099.8, 0.113590
16150.0, 0.119785
16200.5, 0.124904
16251.3, 0.127598
16302.4, 0.128765
16353.8, 0.129483
16405.5, 0.129753
16457.6, 0.130561
16510.0, 0.132087
16562.8, 0.133793
16615.9, 0.135410
16669.3, 0.137475
16723.1, 0.139450
16777.2, 0.140528
16831.7, 0.140618
16886.5, 0.139450
16941.7, 0.137206
16997.2, 0.134242
17053.1, 0.131908
17109.4, 0.128585
17166.1, 0.124365
17223.1, 0.120504
17280.5, 0.116373
17338.3, 0.111973
17396.5, 0.108202
17455.1, 0.104341
17514.0, 0.100031
17573.4, 0.0959900
17633.2, 0.0924880
17693.4, 0.0888960
17754.0, 0.0859330
17815.0, 0.0837780
17876.4, 0.0813540
17938.3, 0.0796470
18000.5, 0.0793780
18063.3, 0.0804560
18126.4, 0.0825210
18190.0, 0.0871000
18254.1, 0.0942840
18318.6, 0.103712
18383.5, 0.112153
18449.0, 0.118259
18514.9, 0.120953
18581.2, 0.119606
18648.0, 0.116463
18715.4, 0.113051
18783.2, 0.109100
18851.5, 0.104071
18920.3, 0.0990430
18989.6, 0.0936550
19059.4, 0.0888060
19129.7, 0.0846760
19200.6, 0.0813540
19272.0, 0.0791980
19343.9, 0.0768640
19416.3, 0.0748880
19489.3, 0.0729130
19562.8, 0.0710270
19637.0, 0.0708480
19711.6, 0.0704880
19786.8, 0.0697700
19862.6, 0.0689620
19939.0, 0.0684230
20016.0, 0.0663580
20093.6, 0.0654600
20171.8, 0.0652800
20250.6, 0.0643820
20330.0, 0.0647420
20410.0, 0.0670760
20490.7, 0.0688720
20572.0, 0.0726440
20654.0, 0.0789290
20736.6, 0.0854840
20819.9, 0.0903330
20903.8, 0.0936550
20988.5, 0.0943740
21073.8, 0.0917700
21159.8, 0.0917700
21246.5, 0.0920390
21334.0, 0.0897040
21422.1, 0.0879090
21511.0, 0.0901530
21600.7, 0.0890760
21691.0, 0.0845860
21782.1, 0.0812640
21874.0, 0.0797370
21966.7, 0.0814430
22060.2, 0.0839580
22154.5, 0.0882680
22249.6, 0.0948230
22345.5, 0.102725
22442.2, 0.112422
22539.8, 0.120953
22638.2, 0.128944
22737.5, 0.135679
22837.7, 0.140797
22938.7, 0.145287
23040.7, 0.149777
23143.5, 0.153997
23247.3, 0.153907
23352.1, 0.153728
23457.7, 0.154446
23564.4, 0.154087
23672.0, 0.154356
23780.5, 0.155524
23890.1, 0.156691
24000.7, 0.157319
24112.3, 0.157409
24225.0, 0.157050
24338.7, 0.157050
24453.5, 0.158217
24569.4, 0.160911
24686.4, 0.158217
24804.5, 0.158936
