Database of Origin,USGS Spectral Database
Sample Description,See USGS database for additional info
Date Added,2017-07-03 05:44:44.944589

Data ID,USGS_thu04          
Sample ID,thuringite_smr15.21824
Mineral Name,thuringite

Wavelength
1299.94, 0.167153
1300.26, 0.167512
1300.59, 0.168803
1300.92, 0.169521
1301.24, 0.169521
1301.57, 0.169952
1301.9, 0.170885
1302.22, 0.171818
1302.55, 0.173181
1302.88, 0.173612
1303.21, 0.173540
1303.53, 0.174473
1303.86, 0.175909
1304.19, 0.176267
1304.52, 0.176052
1304.85, 0.176555
1305.17, 0.177272
1305.5, 0.178492
1305.83, 0.179425
1306.16, 0.179425
1306.49, 0.179425
1306.82, 0.180645
1307.15, 0.182224
1307.48, 0.182799
1307.81, 0.183014
1308.14, 0.184162
1308.47, 0.184449
1308.8, 0.185095
1309.13, 0.185669
1309.46, 0.186100
1309.79, 0.186531
1310.12, 0.187105
1310.45, 0.187464
1310.79, 0.188612
1311.12, 0.189186
1311.45, 0.189258
1311.78, 0.190550
1312.11, 0.191698
1312.44, 0.191913
1312.78, 0.192775
1313.11, 0.192918
1313.44, 0.193349
1313.77, 0.194066
1314.11, 0.194641
1314.44, 0.195430
1314.77, 0.195932
1315.11, 0.196148
1315.44, 0.197368
1315.78, 0.197296
1316.11, 0.197727
1316.44, 0.199019
1316.78, 0.199449
1317.11, 0.199880
1317.45, 0.200239
1317.78, 0.200598
1318.12, 0.201531
1318.45, 0.201961
1318.79, 0.202320
1319.12, 0.203253
1319.46, 0.204688
1319.8, 0.205191
1320.13, 0.205047
1320.47, 0.205765
1320.8, 0.205765
1321.14, 0.206483
1321.48, 0.207631
1321.81, 0.208205
1322.15, 0.207918
1322.49, 0.208492
1322.83, 0.209641
1323.16, 0.209999
1323.5, 0.210645
1323.84, 0.210861
1324.18, 0.211650
1324.52, 0.212440
1324.85, 0.213157
1325.19, 0.213373
1325.53, 0.213803
1325.87, 0.214377
1326.21, 0.214952
1326.55, 0.215598
1326.89, 0.215669
1327.23, 0.215885
1327.57, 0.217105
1327.91, 0.218038
1328.25, 0.218181
1328.59, 0.218540
1328.93, 0.218325
1329.27, 0.218971
1329.61, 0.220334
1329.95, 0.220765
1330.29, 0.221052
1330.64, 0.221267
1330.98, 0.221554
1331.32, 0.221483
1331.66, 0.221626
1332.0, 0.222416
1332.34, 0.222703
1332.69, 0.222918
1333.03, 0.224353
1333.37, 0.224999
1333.72, 0.224712
1334.06, 0.225717
1334.4, 0.226148
1334.75, 0.226004
1335.09, 0.226148
1335.43, 0.226578
1335.78, 0.227798
1336.12, 0.228516
1336.47, 0.228516
1336.81, 0.228588
1337.16, 0.228731
1337.5, 0.229377
1337.85, 0.229952
1338.19, 0.230454
1338.54, 0.230597
1338.88, 0.231961
1339.23, 0.232822
1339.58, 0.232535
1339.92, 0.232176
1340.27, 0.232894
1340.61, 0.233181
1340.96, 0.233325
1341.31, 0.234330
1341.66, 0.234617
1342.0, 0.234545
1342.35, 0.235047
1342.7, 0.235765
1343.05, 0.236339
1343.39, 0.236483
1343.74, 0.236411
1344.09, 0.236985
1344.44, 0.237631
1344.79, 0.238062
1345.14, 0.238564
1345.48, 0.238851
1345.83, 0.238707
1346.18, 0.238707
1346.53, 0.239856
1346.88, 0.240143
1347.23, 0.240645
1347.58, 0.240502
1347.93, 0.240574
1348.28, 0.240215
1348.64, 0.240574
1348.99, 0.241219
1349.34, 0.241794
1349.69, 0.242081
1350.04, 0.242081
1350.39, 0.243014
1350.74, 0.243301
1351.1, 0.244090
1351.45, 0.244377
1351.8, 0.243947
1352.15, 0.244090
1352.51, 0.244736
1352.86, 0.245095
1353.21, 0.245597
1353.56, 0.245956
1353.92, 0.246100
1354.27, 0.246530
1354.63, 0.246674
1354.98, 0.246961
1355.33, 0.247463
1355.69, 0.247535
1356.04, 0.247751
1356.4, 0.248612
1356.75, 0.249114
1357.11, 0.249114
1357.46, 0.248827
1357.82, 0.248396
1358.18, 0.249114
1358.53, 0.249688
1358.89, 0.249975
1359.24, 0.250047
1359.6, 0.250765
1359.96, 0.251052
1360.31, 0.250837
1360.67, 0.250621
1361.03, 0.250693
1361.39, 0.251052
1361.74, 0.251554
1362.1, 0.252128
1362.46, 0.252344
1362.82, 0.252344
1363.18, 0.251913
1363.53, 0.252559
1363.89, 0.252846
1364.25, 0.253133
1364.61, 0.253492
1364.97, 0.254210
1365.33, 0.254569
1365.69, 0.254353
1366.05, 0.254282
1366.41, 0.254425
1366.77, 0.254784
1367.13, 0.255071
1367.49, 0.254784
1367.85, 0.254640
1368.21, 0.255502
1368.57, 0.256506
1368.93, 0.256506
1369.3, 0.256363
1369.66, 0.256506
1370.02, 0.256148
1370.38, 0.256435
1370.74, 0.256937
1371.11, 0.257152
1371.47, 0.257152
1371.83, 0.257152
1372.19, 0.257798
1372.56, 0.257655
1372.92, 0.258229
1373.29, 0.258947
1373.65, 0.259377
1374.01, 0.259018
1374.38, 0.259162
1374.74, 0.260095
1375.11, 0.260023
1375.47, 0.259664
1375.84, 0.260239
1376.2, 0.260454
1376.57, 0.260669
1376.93, 0.260526
1377.3, 0.260095
1377.67, 0.260239
1378.03, 0.260310
1378.4, 0.260526
1378.76, 0.261243
1379.13, 0.261387
1379.5, 0.261459
1379.87, 0.261602
1380.23, 0.262176
1380.6, 0.262607
1380.97, 0.262320
1381.34, 0.262392
1381.7, 0.262176
1382.07, 0.262248
1382.44, 0.262607
1382.81, 0.263109
1383.18, 0.263540
1383.55, 0.264186
1383.92, 0.264832
1384.29, 0.264258
1384.66, 0.264473
1385.03, 0.264904
1385.4, 0.264401
1385.77, 0.263827
1386.14, 0.263827
1386.51, 0.264473
1386.88, 0.264975
1387.25, 0.265047
1387.62, 0.265621
1387.99, 0.265908
1388.36, 0.265550
1388.74, 0.265119
1389.11, 0.265765
1389.48, 0.266267
1389.85, 0.265908
1390.23, 0.265406
1390.6, 0.265191
1390.97, 0.264904
1391.35, 0.264473
1391.72, 0.264832
1392.09, 0.265837
1392.47, 0.266052
1392.84, 0.265908
1393.21, 0.265980
1393.59, 0.265550
1393.96, 0.265191
1394.34, 0.265047
1394.71, 0.265047
1395.09, 0.264688
1395.46, 0.263971
1395.84, 0.263755
1396.22, 0.263612
1396.59, 0.263540
1396.97, 0.262966
1397.35, 0.262535
1397.72, 0.262607
1398.1, 0.262248
1398.48, 0.261602
1398.85, 0.261315
1399.23, 0.261387
1399.61, 0.261530
1399.99, 0.260813
1400.37, 0.259736
1400.74, 0.259018
1401.12, 0.258301
1401.5, 0.257511
1401.88, 0.256794
1402.26, 0.255861
1402.64, 0.254784
1403.02, 0.253492
1403.4, 0.252272
1403.78, 0.250908
1404.16, 0.250406
1404.54, 0.250334
1404.92, 0.249545
1405.3, 0.248038
1405.68, 0.247176
1406.06, 0.247176
1406.44, 0.246889
1406.83, 0.246674
1407.21, 0.246674
1407.59, 0.246459
1407.97, 0.246459
1408.35, 0.246459
1408.74, 0.245884
1409.12, 0.245167
1409.5, 0.245023
1409.89, 0.244880
1410.27, 0.243875
1410.65, 0.242727
1411.04, 0.242009
1411.42, 0.241722
1411.81, 0.241076
1412.19, 0.240574
1412.58, 0.240215
1412.96, 0.239999
1413.35, 0.239999
1413.73, 0.240071
1414.12, 0.240286
1414.5, 0.240717
1414.89, 0.241650
1415.28, 0.243014
1415.66, 0.244090
1416.05, 0.244952
1416.44, 0.246387
1416.82, 0.248181
1417.21, 0.250119
1417.6, 0.252057
1417.98, 0.253779
1418.37, 0.255143
1418.76, 0.256291
1419.15, 0.257798
1419.54, 0.259664
1419.93, 0.260813
1420.32, 0.261817
1420.71, 0.262966
1421.09, 0.263899
1421.48, 0.264904
1421.88, 0.265693
1422.27, 0.266626
1422.66, 0.267918
1423.05, 0.268636
1423.44, 0.269066
1423.83, 0.269856
1424.22, 0.270215
1424.61, 0.270430
1425.0, 0.271148
1425.39, 0.271794
1425.78, 0.272368
1426.18, 0.272655
1426.57, 0.272942
1426.96, 0.273444
1427.36, 0.273875
1427.75, 0.273516
1428.14, 0.273516
1428.54, 0.274162
1428.93, 0.274664
1429.32, 0.274664
1429.72, 0.274090
1430.11, 0.274305
1430.51, 0.274593
1430.9, 0.274880
1431.3, 0.274808
1431.69, 0.274880
1432.09, 0.275023
1432.48, 0.275597
1432.88, 0.276243
1433.28, 0.276172
1433.67, 0.276028
1434.07, 0.276100
1434.46, 0.276100
1434.86, 0.275956
1435.26, 0.275956
1435.66, 0.276387
1436.05, 0.276315
1436.45, 0.275813
1436.85, 0.276243
1437.25, 0.277033
1437.65, 0.277248
1438.05, 0.276817
1438.44, 0.276530
1438.84, 0.276315
1439.24, 0.276459
1439.64, 0.276315
1440.04, 0.276459
1440.44, 0.277248
1440.84, 0.277535
1441.24, 0.277320
1441.65, 0.277392
1442.05, 0.277607
1442.45, 0.277894
1442.85, 0.277750
1443.25, 0.277750
1443.65, 0.277966
1444.05, 0.277822
1444.46, 0.277966
1444.86, 0.278181
1445.26, 0.278540
1445.67, 0.279042
1446.07, 0.279760
1446.47, 0.279545
1446.88, 0.279329
1447.28, 0.279258
1447.68, 0.279832
1448.09, 0.279616
1448.49, 0.279186
1448.9, 0.279473
1449.3, 0.280262
1449.71, 0.280693
1450.11, 0.280549
1450.52, 0.280765
1450.93, 0.280837
1451.33, 0.280765
1451.74, 0.281052
1452.14, 0.281411
1452.55, 0.281554
1452.96, 0.281482
1453.36, 0.281554
1453.77, 0.282200
1454.18, 0.282703
1454.59, 0.282918
1455.0, 0.283061
1455.41, 0.283277
1455.81, 0.283205
1456.22, 0.282990
1456.63, 0.283564
1457.04, 0.284210
1457.45, 0.284282
1457.86, 0.284210
1458.27, 0.284353
1458.68, 0.284784
1459.09, 0.285215
1459.5, 0.285143
1459.91, 0.284856
1460.32, 0.284784
1460.74, 0.285430
1461.15, 0.286148
1461.56, 0.286148
1461.97, 0.286148
1462.39, 0.286578
1462.8, 0.286937
1463.21, 0.286722
1463.62, 0.286865
1464.04, 0.287081
1464.45, 0.287439
1464.86, 0.287798
1465.28, 0.288014
1465.69, 0.288588
1466.11, 0.288444
1466.52, 0.288444
1466.94, 0.288803
1467.35, 0.288588
1467.77, 0.288301
1468.18, 0.288875
1468.6, 0.289234
1469.02, 0.289736
1469.43, 0.290382
1469.85, 0.290813
1470.27, 0.291100
1470.68, 0.290813
1471.1, 0.291028
1471.52, 0.291171
1471.94, 0.291459
1472.35, 0.291459
1472.77, 0.291315
1473.19, 0.291817
1473.61, 0.292176
1474.03, 0.292248
1474.45, 0.292822
1474.87, 0.293253
1475.29, 0.293181
1475.71, 0.293109
1476.13, 0.293827
1476.55, 0.293827
1476.97, 0.293612
1477.39, 0.294042
1477.81, 0.294473
1478.23, 0.294329
1478.65, 0.294616
1479.07, 0.294975
1479.5, 0.295047
1479.92, 0.294975
1480.34, 0.295119
1480.76, 0.295765
1481.19, 0.296411
1481.61, 0.296770
1482.03, 0.296913
1482.46, 0.296841
1482.88, 0.296554
1483.31, 0.296482
1483.73, 0.296985
1484.16, 0.297846
1484.58, 0.297990
1485.01, 0.297846
1485.43, 0.297990
1485.86, 0.298348
1486.28, 0.298564
1486.71, 0.298564
1487.14, 0.298564
1487.56, 0.298923
1487.99, 0.299497
1488.42, 0.300143
1488.84, 0.300071
1489.27, 0.299856
1489.7, 0.299999
1490.13, 0.300214
1490.56, 0.300789
1490.98, 0.300932
1491.41, 0.300789
1491.84, 0.301076
1492.27, 0.301363
1492.7, 0.301793
1493.13, 0.302368
1493.56, 0.302583
1493.99, 0.302224
1494.42, 0.302296
1494.85, 0.302655
1495.29, 0.303157
1495.72, 0.303301
1496.15, 0.303229
1496.58, 0.303588
1497.01, 0.304090
1497.44, 0.304377
1497.88, 0.304162
1498.31, 0.304090
1498.74, 0.304449
1499.18, 0.304808
1499.61, 0.305095
1500.04, 0.305454
1500.48, 0.305310
1500.91, 0.305310
1501.35, 0.305669
1501.78, 0.305813
1502.22, 0.305741
1502.65, 0.306171
1503.09, 0.306387
1503.53, 0.306746
1503.96, 0.307463
1504.4, 0.307535
1504.83, 0.307679
1505.27, 0.307822
1505.71, 0.307607
1506.15, 0.307607
1506.58, 0.307750
1507.02, 0.308253
1507.46, 0.308612
1507.9, 0.308612
1508.34, 0.308755
1508.78, 0.309114
1509.21, 0.309616
1509.66, 0.310047
1510.09, 0.310047
1510.53, 0.310047
1510.97, 0.310262
1511.42, 0.310262
1511.86, 0.310262
1512.3, 0.310621
1512.74, 0.310980
1513.18, 0.311052
1513.62, 0.311339
1514.06, 0.311626
1514.51, 0.311626
1514.95, 0.311482
1515.39, 0.311482
1515.83, 0.312128
1516.28, 0.312272
1516.72, 0.312272
1517.16, 0.312415
1517.61, 0.312774
1518.05, 0.313133
1518.5, 0.313133
1518.94, 0.313133
1519.39, 0.313348
1519.83, 0.313779
1520.28, 0.313635
1520.73, 0.313779
1521.17, 0.314281
1521.62, 0.314497
1522.07, 0.314425
1522.51, 0.314138
1522.96, 0.314569
1523.41, 0.314856
1523.85, 0.314927
1524.3, 0.315286
1524.75, 0.315645
1525.2, 0.316004
1525.65, 0.315860
1526.1, 0.315573
1526.55, 0.315860
1527.0, 0.316506
1527.45, 0.316506
1527.9, 0.316793
1528.35, 0.317009
1528.8, 0.317224
1529.25, 0.317942
1529.7, 0.318013
1530.15, 0.317942
1530.6, 0.318229
1531.05, 0.318588
1531.51, 0.318731
1531.96, 0.318803
1532.41, 0.318946
1532.87, 0.319234
1533.32, 0.319234
1533.77, 0.319305
1534.23, 0.319664
1534.68, 0.319880
1535.14, 0.320310
1535.59, 0.320525
1536.05, 0.320525
1536.5, 0.320597
1536.96, 0.320597
1537.41, 0.321028
1537.87, 0.321674
1538.32, 0.322104
1538.78, 0.322176
1539.24, 0.322320
1539.7, 0.322391
1540.15, 0.322607
1540.61, 0.322750
1541.07, 0.322679
1541.53, 0.323109
1541.98, 0.323468
1542.44, 0.323683
1542.9, 0.324257
1543.36, 0.324545
1543.82, 0.324473
1544.28, 0.324688
1544.74, 0.325119
1545.2, 0.325262
1545.66, 0.325262
1546.12, 0.325406
1546.59, 0.325478
1547.05, 0.325765
1547.51, 0.326124
1547.97, 0.326339
1548.43, 0.326626
1548.9, 0.327057
1549.36, 0.327272
1549.82, 0.327846
1550.29, 0.328277
1550.75, 0.328779
1551.21, 0.328635
1551.68, 0.328492
1552.14, 0.328707
1552.61, 0.329281
1553.07, 0.329568
1553.54, 0.329712
1554.0, 0.329856
1554.47, 0.330143
1554.93, 0.330358
1555.4, 0.330789
1555.87, 0.331147
1556.34, 0.331435
1556.8, 0.331793
1557.27, 0.331865
1557.74, 0.332152
1558.21, 0.332511
1558.68, 0.333013
1559.14, 0.333301
1559.61, 0.333516
1560.08, 0.333588
1560.55, 0.334018
1561.02, 0.334234
1561.49, 0.334449
1561.96, 0.334449
1562.43, 0.334736
1562.9, 0.334951
1563.38, 0.335167
1563.85, 0.335525
1564.32, 0.335884
1564.79, 0.336171
1565.26, 0.336243
1565.74, 0.336530
1566.21, 0.336817
1566.68, 0.337248
1567.16, 0.337822
1567.63, 0.337894
1568.1, 0.338037
1568.58, 0.338181
1569.05, 0.338396
1569.53, 0.338827
1570.0, 0.339186
1570.48, 0.339401
1570.96, 0.339760
1571.43, 0.339832
1571.91, 0.339903
1572.39, 0.340190
1572.86, 0.340765
1573.34, 0.341482
1573.82, 0.341985
1574.3, 0.342344
1574.77, 0.342344
1575.25, 0.342272
1575.73, 0.342631
1576.21, 0.342846
1576.69, 0.343061
1577.17, 0.343277
1577.65, 0.343492
1578.13, 0.344138
1578.61, 0.344568
1579.09, 0.344712
1579.57, 0.344784
1580.05, 0.344999
1580.54, 0.345501
1581.02, 0.345789
1581.5, 0.345717
1581.98, 0.346004
1582.47, 0.346650
1582.95, 0.347080
1583.43, 0.347152
1583.92, 0.347583
1584.4, 0.347798
1584.88, 0.348157
1585.37, 0.348444
1585.85, 0.348229
1586.34, 0.348372
1586.82, 0.348946
1587.31, 0.349521
1587.8, 0.349879
1588.28, 0.349879
1588.77, 0.349951
1589.26, 0.349951
1589.74, 0.350525
1590.23, 0.351315
1590.72, 0.351602
1591.21, 0.351889
1591.7, 0.351889
1592.19, 0.352248
1592.67, 0.352678
1593.16, 0.352966
1593.65, 0.353181
1594.14, 0.353540
1594.63, 0.353755
1595.12, 0.354257
1595.61, 0.354832
1596.11, 0.354903
1596.6, 0.355047
1597.09, 0.355190
1597.58, 0.355621
1598.08, 0.356123
1598.57, 0.356554
1599.06, 0.356698
1599.55, 0.356698
1600.05, 0.357200
1600.54, 0.357846
1601.04, 0.358277
1601.53, 0.358348
1602.03, 0.358707
1602.52, 0.359210
1603.02, 0.359712
1603.51, 0.359855
1604.01, 0.359927
1604.5, 0.360214
1605.0, 0.360430
1605.5, 0.360860
1606.0, 0.361434
1606.49, 0.361937
1606.99, 0.362224
1607.49, 0.362367
1607.99, 0.362439
1608.49, 0.362655
1608.99, 0.363157
1609.49, 0.363516
1609.99, 0.363946
1610.49, 0.364521
1610.99, 0.365023
1611.49, 0.365095
1611.99, 0.364951
1612.49, 0.365310
1612.99, 0.365741
1613.49, 0.366243
1614.0, 0.366745
1614.5, 0.367032
1615.0, 0.367176
1615.51, 0.367463
1616.01, 0.368109
1616.51, 0.368827
1617.02, 0.369186
1617.52, 0.369401
1618.03, 0.369473
1618.53, 0.369544
1619.04, 0.370047
1619.54, 0.370549
1620.05, 0.370980
1620.55, 0.371482
1621.06, 0.371698
1621.57, 0.371985
1622.08, 0.372343
1622.58, 0.372559
1623.09, 0.372774
1623.6, 0.373492
1624.11, 0.373851
1624.62, 0.373922
1625.13, 0.373922
1625.64, 0.374425
1626.15, 0.375071
1626.66, 0.375501
1627.17, 0.375788
1627.68, 0.376147
1628.19, 0.376578
1628.7, 0.377367
1629.21, 0.377654
1629.72, 0.377583
1630.24, 0.377367
1630.75, 0.377654
1631.26, 0.378085
1631.78, 0.378516
1632.29, 0.379018
1632.8, 0.379449
1633.32, 0.380023
1633.83, 0.380382
1634.35, 0.380597
1634.86, 0.380812
1635.38, 0.381243
1635.9, 0.381458
1636.41, 0.381602
1636.93, 0.382032
1637.45, 0.382391
1637.96, 0.382678
1638.48, 0.382965
1639.0, 0.383540
1639.52, 0.383827
1640.04, 0.384186
1640.56, 0.384329
1641.08, 0.384616
1641.59, 0.384616
1642.11, 0.385047
1642.63, 0.385836
1643.16, 0.386339
1643.68, 0.386769
1644.2, 0.386985
1644.72, 0.387200
1645.24, 0.387487
1645.76, 0.387631
1646.29, 0.387989
1646.81, 0.388205
1647.33, 0.388348
1647.86, 0.388348
1648.38, 0.388779
1648.9, 0.389209
1649.43, 0.389568
1649.95, 0.390286
1650.48, 0.390645
1651.0, 0.390788
1651.53, 0.390860
1652.06, 0.391004
1652.58, 0.391363
1653.11, 0.391793
1653.64, 0.391937
1654.17, 0.392224
1654.69, 0.392511
1655.22, 0.392870
1655.75, 0.393229
1656.28, 0.393587
1656.81, 0.393946
1657.34, 0.394090
1657.87, 0.394377
1658.4, 0.394808
1658.93, 0.395095
1659.46, 0.395238
1659.99, 0.395525
1660.52, 0.396028
1661.05, 0.396387
1661.59, 0.396817
1662.12, 0.397176
1662.65, 0.397463
1663.19, 0.397965
1663.72, 0.398181
1664.26, 0.398468
1664.79, 0.398898
1665.32, 0.399042
1665.86, 0.399329
1666.39, 0.399616
1666.93, 0.399975
1667.47, 0.400047
1668.0, 0.400262
1668.54, 0.401052
1669.08, 0.401626
1669.61, 0.401554
1670.15, 0.401913
1670.69, 0.402200
1671.23, 0.402631
1671.77, 0.403205
1672.31, 0.403492
1672.85, 0.403635
1673.39, 0.403779
1673.93, 0.404138
1674.47, 0.404281
1675.01, 0.404568
1675.55, 0.404999
1676.09, 0.405430
1676.64, 0.405860
1677.18, 0.406219
1677.72, 0.406363
1678.26, 0.406506
1678.81, 0.406937
1679.35, 0.407439
1679.89, 0.407654
1680.44, 0.408013
1680.98, 0.408516
1681.53, 0.409090
1682.07, 0.409449
1682.62, 0.409807
1683.17, 0.409951
1683.71, 0.410166
1684.26, 0.410669
1684.81, 0.410884
1685.36, 0.411028
1685.9, 0.411315
1686.45, 0.411530
1687.0, 0.412032
1687.55, 0.412391
1688.1, 0.412750
1688.65, 0.413037
1689.2, 0.413540
1689.75, 0.413898
1690.3, 0.414042
1690.85, 0.414185
1691.41, 0.414616
1691.96, 0.415118
1692.51, 0.415406
1693.06, 0.415908
1693.61, 0.416482
1694.17, 0.416626
1694.72, 0.416841
1695.28, 0.417415
1695.83, 0.417630
1696.39, 0.417918
1696.94, 0.418061
1697.5, 0.418205
1698.05, 0.418563
1698.61, 0.418922
1699.17, 0.419568
1699.72, 0.420358
1700.28, 0.420429
1700.84, 0.420358
1701.4, 0.420645
1701.95, 0.421075
1702.51, 0.421362
1703.07, 0.421721
1703.63, 0.422152
1704.19, 0.422367
1704.75, 0.422798
1705.31, 0.423300
1705.88, 0.423444
1706.44, 0.423731
1707.0, 0.424449
1707.56, 0.424879
1708.12, 0.424951
1708.69, 0.424951
1709.25, 0.425023
1709.81, 0.425812
1710.38, 0.426243
1710.94, 0.426243
1711.51, 0.426171
1712.07, 0.426530
1712.64, 0.427032
1713.2, 0.427606
1713.77, 0.427894
1714.34, 0.428109
1714.9, 0.428181
1715.47, 0.428324
1716.04, 0.428540
1716.61, 0.428970
1717.18, 0.429401
1717.74, 0.429760
1718.31, 0.430118
1718.88, 0.430262
1719.45, 0.430621
1720.02, 0.430980
1720.59, 0.431267
1721.17, 0.431554
1721.74, 0.431626
1722.31, 0.431841
1722.88, 0.431984
1723.45, 0.432200
1724.03, 0.432559
1724.6, 0.432989
1725.18, 0.433420
1725.75, 0.433707
1726.33, 0.434066
1726.9, 0.434138
1727.48, 0.434209
1728.05, 0.434425
1728.63, 0.434784
1729.2, 0.435071
1729.78, 0.435429
1730.36, 0.435932
1730.94, 0.436219
1731.51, 0.436434
1732.09, 0.436506
1732.67, 0.436578
1733.25, 0.436865
1733.83, 0.437439
1734.41, 0.437726
1734.99, 0.437870
1735.57, 0.438013
1736.15, 0.438803
1736.73, 0.439162
1737.32, 0.439305
1737.9, 0.439449
1738.48, 0.439736
1739.07, 0.439807
1739.65, 0.440023
1740.23, 0.440597
1740.82, 0.440812
1741.4, 0.441243
1741.99, 0.441602
1742.57, 0.441745
1743.16, 0.442032
1743.74, 0.442319
1744.33, 0.442678
1744.92, 0.443181
1745.51, 0.443468
1746.09, 0.443539
1746.68, 0.443898
1747.27, 0.444185
1747.86, 0.444831
1748.45, 0.444975
1749.04, 0.444975
1749.63, 0.445118
1750.22, 0.445405
1750.81, 0.445908
1751.4, 0.446339
1751.99, 0.446554
1752.59, 0.446913
1753.18, 0.447271
1753.77, 0.447630
1754.37, 0.447774
1754.96, 0.448133
1755.56, 0.448420
1756.15, 0.448707
1756.74, 0.448779
1757.34, 0.448994
1757.94, 0.449568
1758.53, 0.450286
1759.13, 0.450501
1759.73, 0.450573
1760.32, 0.450716
1760.92, 0.451004
1761.52, 0.451434
1762.12, 0.451721
1762.72, 0.451865
1763.32, 0.452080
1763.92, 0.452439
1764.52, 0.452798
1765.12, 0.453157
1765.72, 0.453516
1766.32, 0.453803
1766.92, 0.454233
1767.53, 0.454377
1768.13, 0.454807
1768.73, 0.455382
1769.34, 0.455669
1769.94, 0.455812
1770.55, 0.456027
1771.15, 0.456243
1771.76, 0.456315
1772.36, 0.456602
1772.97, 0.456961
1773.57, 0.457463
1774.18, 0.457965
1774.79, 0.457965
1775.4, 0.458252
1776.0, 0.458468
1776.61, 0.458826
1777.22, 0.459257
1777.83, 0.459401
1778.44, 0.459544
1779.05, 0.459831
1779.66, 0.460047
1780.27, 0.460549
1780.88, 0.460908
1781.5, 0.461123
1782.11, 0.461338
1782.72, 0.461554
1783.33, 0.461769
1783.95, 0.462128
1784.56, 0.462487
1785.18, 0.462702
1785.79, 0.462989
1786.41, 0.463204
1787.02, 0.463563
1787.64, 0.463635
1788.26, 0.463707
1788.87, 0.463922
1789.49, 0.464281
1790.11, 0.464712
1790.73, 0.464855
1791.35, 0.464783
1791.96, 0.464855
1792.58, 0.465429
1793.21, 0.465788
1793.83, 0.465932
1794.45, 0.466075
1795.07, 0.466291
1795.69, 0.466578
1796.31, 0.466865
1796.93, 0.467152
1797.56, 0.467224
1798.18, 0.467439
1798.8, 0.467870
1799.43, 0.467941
1800.05, 0.468085
1800.68, 0.468372
1801.3, 0.468515
1801.93, 0.468731
1802.56, 0.469018
1803.18, 0.469305
1803.81, 0.469305
1804.44, 0.469520
1805.07, 0.469879
1805.7, 0.470094
1806.33, 0.470310
1806.95, 0.470381
1807.58, 0.470310
1808.22, 0.470597
1808.85, 0.470740
1809.48, 0.470812
1810.11, 0.471243
1810.74, 0.471673
1811.38, 0.471673
1812.01, 0.471673
1812.64, 0.471889
1813.28, 0.472176
1813.91, 0.472606
1814.55, 0.472678
1815.18, 0.472893
1815.82, 0.472965
1816.45, 0.473109
1817.09, 0.473468
1817.73, 0.473468
1818.36, 0.473755
1819.0, 0.473826
1819.64, 0.474042
1820.28, 0.474544
1820.92, 0.474688
1821.56, 0.474975
1822.2, 0.475190
1822.84, 0.475047
1823.48, 0.475262
1824.12, 0.475477
1824.76, 0.475692
1825.41, 0.476195
1826.05, 0.476984
1826.69, 0.477128
1827.34, 0.476984
1827.98, 0.477128
1828.63, 0.477200
1829.27, 0.477558
1829.92, 0.477917
1830.56, 0.478276
1831.21, 0.478420
1831.86, 0.478492
1832.5, 0.478635
1833.15, 0.478635
1833.8, 0.478707
1834.45, 0.479209
1835.1, 0.479783
1835.75, 0.480286
1836.4, 0.480429
1837.05, 0.480501
1837.7, 0.480788
1838.35, 0.480573
1839.01, 0.481003
1839.66, 0.481649
1840.31, 0.481434
1840.96, 0.481506
1841.62, 0.482295
1842.27, 0.482367
1842.93, 0.482080
1843.58, 0.481936
1844.24, 0.481936
1844.9, 0.482224
1845.55, 0.482295
1846.21, 0.482870
1846.87, 0.483803
1847.53, 0.483946
1848.18, 0.483803
1848.84, 0.483515
1849.5, 0.483659
1850.16, 0.483874
1850.82, 0.483946
1851.48, 0.484161
1852.14, 0.484305
1852.81, 0.484879
1853.47, 0.485597
1854.13, 0.485525
1854.8, 0.485023
1855.46, 0.485023
1856.12, 0.485525
1856.79, 0.485956
1857.45, 0.485884
1858.12, 0.485597
1858.79, 0.485812
1859.45, 0.486673
1860.12, 0.486745
1860.79, 0.486386
1861.46, 0.486171
1862.12, 0.486099
1862.79, 0.486314
1863.46, 0.486602
1864.13, 0.486889
1864.8, 0.487104
1865.48, 0.486889
1866.15, 0.486817
1866.82, 0.487247
1867.49, 0.487822
1868.16, 0.487893
1868.84, 0.487822
1869.51, 0.487965
1870.19, 0.488324
1870.86, 0.488611
1871.54, 0.488109
1872.21, 0.488324
1872.89, 0.488683
1873.56, 0.488468
1874.24, 0.488181
1874.92, 0.488109
1875.6, 0.488252
1876.28, 0.488611
1876.96, 0.488755
1877.64, 0.488468
1878.32, 0.488396
1879.0, 0.488468
1879.68, 0.488755
1880.36, 0.488970
1881.04, 0.488970
1881.73, 0.488898
1882.41, 0.488898
1883.09, 0.489185
1883.78, 0.489688
1884.46, 0.489759
1885.15, 0.489759
1885.83, 0.489544
1886.52, 0.489759
1887.21, 0.490334
1887.89, 0.490405
1888.58, 0.490405
1889.27, 0.490764
1889.96, 0.491051
1890.65, 0.490621
1891.34, 0.490692
1892.03, 0.491195
1892.72, 0.491338
1893.41, 0.491482
1894.1, 0.491769
1894.79, 0.491984
1895.49, 0.492128
1896.18, 0.492343
1896.87, 0.492271
1897.57, 0.492487
1898.26, 0.492917
1898.96, 0.493707
1899.65, 0.493994
1900.35, 0.493850
1901.05, 0.493707
1901.74, 0.493994
1902.44, 0.494783
1903.14, 0.495070
1903.84, 0.494783
1904.54, 0.495214
1905.24, 0.495932
1905.94, 0.496075
1906.64, 0.496219
1907.34, 0.496147
1908.04, 0.496219
1908.75, 0.496075
1909.45, 0.496219
1910.15, 0.496865
1910.86, 0.497511
1911.56, 0.497798
1912.27, 0.497941
1912.97, 0.498659
1913.68, 0.499018
1914.39, 0.498874
1915.09, 0.498946
1915.8, 0.499305
1916.51, 0.499520
1917.22, 0.499807
1917.93, 0.500023
1918.64, 0.500381
1919.35, 0.501027
1920.06, 0.501530
1920.77, 0.501673
1921.48, 0.501673
1922.19, 0.502032
1922.91, 0.502247
1923.62, 0.502606
1924.33, 0.502893
1925.05, 0.502965
1925.76, 0.503252
1926.48, 0.503396
1927.19, 0.503898
1927.91, 0.504544
1928.63, 0.504975
1929.35, 0.504831
1930.07, 0.505046
1930.78, 0.505118
1931.5, 0.505262
1932.22, 0.505549
1932.94, 0.505692
1933.66, 0.506051
1934.39, 0.506195
1935.11, 0.506338
1935.83, 0.506554
1936.55, 0.506697
1937.28, 0.506625
1938.0, 0.506913
1938.73, 0.507128
1939.45, 0.507415
1940.18, 0.507917
1940.9, 0.507989
1941.63, 0.507846
1942.36, 0.507774
1943.09, 0.507917
1943.81, 0.507917
1944.54, 0.507774
1945.27, 0.507702
1946.0, 0.508061
1946.73, 0.508276
1947.47, 0.507989
1948.2, 0.507917
1948.93, 0.507917
1949.66, 0.508061
1950.4, 0.507989
1951.13, 0.507630
1951.86, 0.507702
1952.6, 0.508061
1953.34, 0.507846
1954.07, 0.507343
1954.81, 0.507271
1955.55, 0.507343
1956.29, 0.507343
1957.02, 0.507271
1957.76, 0.507271
1958.5, 0.507200
1959.24, 0.507200
1959.98, 0.507056
1960.72, 0.507056
1961.47, 0.507200
1962.21, 0.507200
1962.95, 0.506913
1963.7, 0.506913
1964.44, 0.507056
1965.18, 0.506984
1965.93, 0.506913
1966.67, 0.506913
1967.42, 0.506984
1968.17, 0.506913
1968.92, 0.506841
1969.66, 0.506625
1970.41, 0.506482
1971.16, 0.506338
1971.91, 0.506482
1972.66, 0.506554
1973.41, 0.506338
1974.16, 0.506051
1974.92, 0.505836
1975.67, 0.505621
1976.42, 0.505621
1977.18, 0.505621
1977.93, 0.505334
1978.69, 0.504903
1979.44, 0.504759
1980.2, 0.504616
1980.95, 0.504329
1981.71, 0.504113
1982.47, 0.503898
1983.23, 0.503611
1983.99, 0.503109
1984.74, 0.502893
1985.51, 0.502678
1986.27, 0.502319
1987.03, 0.501889
1987.79, 0.501386
1988.55, 0.500812
1989.32, 0.500740
1990.08, 0.500453
1990.84, 0.500166
1991.61, 0.500094
1992.37, 0.499951
1993.14, 0.499592
1993.9, 0.499448
1994.67, 0.499233
1995.44, 0.499018
1996.21, 0.498731
1996.98, 0.498444
1997.75, 0.498300
1998.52, 0.498085
1999.29, 0.497798
2000.06, 0.497582
2000.83, 0.497582
2001.6, 0.497582
2002.38, 0.497511
2003.15, 0.497582
2003.93, 0.497869
2004.7, 0.497798
2005.48, 0.497654
2006.25, 0.497798
2007.03, 0.497798
2007.81, 0.497941
2008.58, 0.498228
2009.36, 0.498300
2010.14, 0.498587
2010.92, 0.498874
2011.7, 0.499161
2012.48, 0.499592
2013.26, 0.499807
2014.05, 0.500238
2014.83, 0.500812
2015.61, 0.501027
2016.4, 0.501171
2017.18, 0.501673
2017.97, 0.502176
2018.75, 0.502750
2019.54, 0.503396
2020.32, 0.503898
2021.11, 0.504329
2021.9, 0.504831
2022.69, 0.505405
2023.48, 0.505980
2024.27, 0.506769
2025.06, 0.507702
2025.85, 0.508348
2026.64, 0.509137
2027.44, 0.509855
2028.23, 0.510573
2029.02, 0.511721
2029.82, 0.512511
2030.61, 0.512941
2031.41, 0.513802
2032.2, 0.514664
2033.0, 0.515525
2033.8, 0.516530
2034.6, 0.517247
2035.4, 0.517822
2036.2, 0.518898
2037.0, 0.519831
2037.8, 0.520692
2038.6, 0.521554
2039.4, 0.522271
2040.2, 0.523061
2041.01, 0.524137
2041.81, 0.525070
2042.61, 0.525716
2043.42, 0.526506
2044.22, 0.527439
2045.03, 0.528444
2045.84, 0.529161
2046.65, 0.529735
2047.46, 0.530668
2048.26, 0.531314
2049.07, 0.531889
2049.88, 0.532822
2050.69, 0.533539
2051.51, 0.534185
2052.32, 0.534831
2053.13, 0.535692
2053.94, 0.536338
2054.76, 0.536984
2055.57, 0.537630
2056.39, 0.538204
2057.2, 0.538635
2058.02, 0.539209
2058.84, 0.539783
2059.66, 0.540070
2060.48, 0.540644
2061.29, 0.541290
2062.11, 0.541793
2062.94, 0.542511
2063.76, 0.543228
2064.58, 0.543515
2065.4, 0.543874
2066.22, 0.544448
2067.05, 0.544951
2067.87, 0.545453
2068.7, 0.546027
2069.52, 0.546601
2070.35, 0.547032
2071.18, 0.547319
2072.0, 0.547391
2072.83, 0.547893
2073.66, 0.548324
2074.49, 0.548683
2075.32, 0.548970
2076.15, 0.549616
2076.98, 0.550046
2077.82, 0.550405
2078.65, 0.550836
2079.48, 0.551195
2080.32, 0.551554
2081.15, 0.551625
2081.99, 0.551984
2082.83, 0.552487
2083.66, 0.552774
2084.5, 0.553204
2085.34, 0.553563
2086.18, 0.553850
2087.02, 0.553994
2087.86, 0.554209
2088.7, 0.554353
2089.54, 0.554568
2090.39, 0.555070
2091.23, 0.555214
2092.07, 0.555644
2092.92, 0.555788
2093.76, 0.556075
2094.61, 0.556362
2095.45, 0.556577
2096.3, 0.556793
2097.15, 0.556936
2098.0, 0.557008
2098.85, 0.557152
2099.7, 0.557295
2100.55, 0.557367
2101.4, 0.557726
2102.25, 0.558013
2103.1, 0.558156
2103.96, 0.558300
2104.81, 0.558443
2105.67, 0.558372
2106.52, 0.558587
2107.38, 0.558659
2108.24, 0.558659
2109.09, 0.558659
2109.95, 0.558587
2110.81, 0.558515
2111.67, 0.558372
2112.53, 0.558443
2113.39, 0.558372
2114.25, 0.558372
2115.12, 0.558443
2115.98, 0.558085
2116.84, 0.557941
2117.71, 0.558013
2118.58, 0.558085
2119.44, 0.557726
2120.31, 0.557582
2121.18, 0.557582
2122.04, 0.557726
2122.91, 0.557654
2123.78, 0.557367
2124.65, 0.557295
2125.52, 0.557223
2126.4, 0.557080
2127.27, 0.556936
2128.14, 0.557152
2129.02, 0.557295
2129.89, 0.557295
2130.77, 0.557080
2131.64, 0.557223
2132.52, 0.557367
2133.4, 0.557367
2134.27, 0.557367
2135.15, 0.557367
2136.03, 0.557439
2136.91, 0.557654
2137.79, 0.558013
2138.68, 0.558156
2139.56, 0.558156
2140.44, 0.558228
2141.33, 0.558443
2142.21, 0.558731
2143.1, 0.558874
2143.99, 0.558946
2144.87, 0.558874
2145.76, 0.558946
2146.65, 0.559018
2147.54, 0.559233
2148.43, 0.559448
2149.32, 0.559448
2150.21, 0.559520
2151.1, 0.559807
2151.99, 0.559879
2152.89, 0.559879
2153.78, 0.560022
2154.68, 0.559879
2155.57, 0.559735
2156.47, 0.559879
2157.37, 0.559879
2158.27, 0.559807
2159.16, 0.559879
2160.06, 0.559735
2160.96, 0.559520
2161.86, 0.559592
2162.77, 0.559664
2163.67, 0.560022
2164.57, 0.559879
2165.48, 0.560094
2166.38, 0.560237
2167.29, 0.560094
2168.2, 0.559448
2169.1, 0.558874
2170.01, 0.559161
2170.92, 0.559305
2171.83, 0.559018
2172.74, 0.558301
2173.65, 0.558229
2174.56, 0.558229
2175.47, 0.558014
2176.39, 0.558085
2177.3, 0.558301
2178.22, 0.558372
2179.13, 0.558229
2180.05, 0.558229
2180.96, 0.557870
2181.88, 0.557296
2182.8, 0.557153
2183.72, 0.557440
2184.64, 0.557081
2185.56, 0.556866
2186.48, 0.557081
2187.41, 0.556794
2188.33, 0.556077
2189.25, 0.555933
2190.18, 0.555862
2191.1, 0.555646
2192.03, 0.555073
2192.96, 0.554499
2193.89, 0.553997
2194.82, 0.553279
2195.74, 0.552921
2196.68, 0.552634
2197.61, 0.551916
2198.54, 0.551271
2199.47, 0.550769
2200.4, 0.550769
2201.34, 0.549980
2202.28, 0.548904
2203.21, 0.548043
2204.15, 0.547325
2205.08, 0.546536
2206.02, 0.545604
2206.96, 0.544743
2207.9, 0.544313
2208.84, 0.543237
2209.78, 0.542376
2210.73, 0.541443
2211.67, 0.540869
2212.61, 0.539937
2213.56, 0.539865
2214.5, 0.539004
2215.45, 0.537857
2216.4, 0.536996
2217.35, 0.536207
2218.3, 0.534413
2219.24, 0.533266
2220.2, 0.532405
2221.15, 0.531185
2222.1, 0.530038
2223.05, 0.528746
2224.0, 0.526881
2224.96, 0.524945
2225.91, 0.522864
2226.87, 0.520712
2227.83, 0.518991
2228.79, 0.516982
2229.74, 0.514328
2230.7, 0.511674
2231.66, 0.509235
2232.63, 0.506437
2233.59, 0.502922
2234.55, 0.499192
2235.51, 0.495462
2236.48, 0.492449
2237.44, 0.489078
2238.41, 0.484774
2239.38, 0.479896
2240.34, 0.474731
2241.31, 0.469495
2242.28, 0.464402
2243.25, 0.458663
2244.22, 0.452924
2245.19, 0.447257
2246.17, 0.441662
2247.14, 0.435421
2248.12, 0.428965
2249.09, 0.422438
2250.07, 0.416484
2251.04, 0.411032
2252.02, 0.405939
2253.0, 0.400918
2253.98, 0.396327
2254.96, 0.392381
2255.94, 0.389082
2256.92, 0.386284
2257.91, 0.384562
2258.89, 0.383128
2259.88, 0.381908
2260.86, 0.381478
2261.85, 0.381693
2262.83, 0.382769
2263.82, 0.384706
2264.81, 0.386571
2265.8, 0.388580
2266.79, 0.391736
2267.78, 0.394964
2268.78, 0.397690
2269.77, 0.401348
2270.76, 0.405509
2271.76, 0.409239
2272.75, 0.412323
2273.75, 0.415264
2274.75, 0.417918
2275.75, 0.420501
2276.75, 0.423657
2277.75, 0.425881
2278.75, 0.427531
2279.75, 0.429683
2280.75, 0.431691
2281.76, 0.433341
2282.76, 0.434848
2283.77, 0.436282
2284.77, 0.437430
2285.78, 0.438578
2286.79, 0.439295
2287.8, 0.439725
2288.81, 0.440586
2289.82, 0.441662
2290.83, 0.441734
2291.84, 0.441088
2292.86, 0.441017
2293.87, 0.440873
2294.89, 0.440371
2295.91, 0.440371
2296.92, 0.439582
2297.94, 0.438865
2298.96, 0.438578
2299.98, 0.438004
2301.0, 0.437215
2302.02, 0.436354
2303.04, 0.435206
2304.07, 0.433987
2305.09, 0.432696
2306.12, 0.432050
2307.15, 0.430615
2308.17, 0.428965
2309.2, 0.427889
2310.23, 0.426885
2311.26, 0.425092
2312.29, 0.423155
2313.32, 0.421290
2314.35, 0.420070
2315.39, 0.419066
2316.42, 0.417847
2317.46, 0.416269
2318.5, 0.414977
2319.53, 0.413973
2320.57, 0.412897
2321.61, 0.411534
2322.65, 0.410100
2323.69, 0.408665
2324.73, 0.407087
2325.78, 0.405652
2326.82, 0.403787
2327.86, 0.402568
2328.91, 0.401276
2329.96, 0.399124
2331.01, 0.397474
2332.05, 0.396183
2333.1, 0.394533
2334.15, 0.392597
2335.21, 0.390516
2336.26, 0.388580
2337.31, 0.386858
2338.36, 0.384634
2339.42, 0.382267
2340.48, 0.380258
2341.53, 0.378609
2342.59, 0.376744
2343.65, 0.374807
2344.71, 0.373229
2345.77, 0.371794
2346.83, 0.369857
2347.9, 0.367992
2348.96, 0.366486
2350.02, 0.365481
2351.09, 0.364764
2352.16, 0.363832
2353.23, 0.362899
2354.29, 0.362325
2355.36, 0.361680
2356.43, 0.361249
2357.51, 0.361680
2358.58, 0.361966
2359.65, 0.361895
2360.73, 0.361751
2361.8, 0.361823
2362.88, 0.362827
2363.96, 0.363903
2365.03, 0.364979
2366.11, 0.366486
2367.19, 0.368064
2368.27, 0.369929
2369.36, 0.372296
2370.44, 0.374018
2371.53, 0.376241
2372.61, 0.378680
2373.7, 0.381263
2374.78, 0.384132
2375.87, 0.387073
2376.96, 0.390158
2378.05, 0.393314
2379.14, 0.396398
2380.24, 0.399913
2381.33, 0.403285
2382.42, 0.406154
2383.52, 0.409382
2384.61, 0.412969
2385.71, 0.415766
2386.81, 0.418421
2387.91, 0.421075
2389.01, 0.423729
2390.11, 0.425809
2391.22, 0.427961
2392.32, 0.430113
2393.42, 0.432337
2394.53, 0.434489
2395.64, 0.436282
2396.74, 0.437573
2397.85, 0.438936
2398.96, 0.440443
2400.07, 0.441375
2401.18, 0.442380
2402.3, 0.443456
2403.41, 0.444460
2404.52, 0.445321
2405.64, 0.445751
2406.76, 0.446612
2407.88, 0.447114
2408.99, 0.446970
2410.11, 0.447257
2411.23, 0.447831
2412.36, 0.448046
2413.48, 0.448333
2414.6, 0.448764
2415.73, 0.448764
2416.85, 0.448477
2417.98, 0.448262
2419.11, 0.447975
2420.24, 0.448046
2421.37, 0.448262
2422.5, 0.448405
2423.64, 0.448333
2424.77, 0.448405
2425.9, 0.447975
2427.04, 0.448046
2428.18, 0.448333
2429.31, 0.448190
2430.45, 0.447903
2431.59, 0.447760
2432.73, 0.447760
2433.88, 0.447544
2435.02, 0.447329
2436.16, 0.447329
2437.31, 0.447257
2438.45, 0.447257
2439.6, 0.447042
2440.75, 0.447042
2441.9, 0.447042
2443.05, 0.446684
2444.2, 0.446755
2445.35, 0.446540
2446.51, 0.446181
2447.67, 0.446110
2448.82, 0.445966
2449.98, 0.445894
2451.14, 0.445679
2452.3, 0.445177
2453.46, 0.444388
2454.62, 0.444173
2455.78, 0.443886
2456.94, 0.443240
2458.11, 0.442595
2459.28, 0.441949
2460.44, 0.441017
2461.61, 0.440156
2462.78, 0.439223
2463.95, 0.438219
2465.12, 0.437071
2466.3, 0.435995
2467.47, 0.434776
2468.65, 0.433915
2469.82, 0.432982
2471.0, 0.431548
2472.18, 0.429970
2473.36, 0.428822
2474.54, 0.427602
2475.72, 0.425953
2476.9, 0.424590
2478.08, 0.423585
2479.27, 0.422294
2480.46, 0.420860
2481.64, 0.419640
2482.83, 0.418492
2484.02, 0.417273
2485.21, 0.416412
2486.4, 0.414977
2487.6, 0.413614
2488.79, 0.412610
2489.99, 0.411893
2491.18, 0.410817
2492.38, 0.409669
2493.58, 0.408593
2494.78, 0.407589
2495.98, 0.406656
2497.18, 0.405652
2498.39, 0.404863
2499.59, 0.404217
2500.8, 0.403428
2502.01, 0.402854
2503.21, 0.402209
2504.42, 0.401420
2505.63, 0.400631
2506.84, 0.399985
2508.06, 0.399483
2509.27, 0.398909
2510.49, 0.398694
2511.7, 0.398192
2512.92, 0.397403
2514.14, 0.397188
2515.36, 0.396685
2516.58, 0.395825
2517.8, 0.395466
2519.03, 0.395179
2520.25, 0.394533
2521.48, 0.394175
2522.7, 0.393888
2523.93, 0.393386
2525.16, 0.393027
2526.39, 0.392310
2527.62, 0.391592
2528.86, 0.390947
2530.09, 0.390588
2531.33, 0.389942
2532.56, 0.389512
2533.8, 0.389225
2535.04, 0.388508
2536.28, 0.388077
2537.52, 0.387575
2538.76, 0.387073
2540.01, 0.386571
2541.25, 0.385710
2542.5, 0.385136
2543.75, 0.384921
2544.99, 0.384491
2546.24, 0.383702
2547.49, 0.382984
2548.75, 0.382482
2550.0, 0.381621
2551.26, 0.380976
2552.51, 0.380474
2553.77, 0.380258
2555.03, 0.379613
2556.29, 0.379039
2557.55, 0.378322
2558.81, 0.377676
2560.08, 0.377461
2561.34, 0.377174
2562.61, 0.376528
2563.88, 0.376098
2565.14, 0.375668
2566.41, 0.375022
2567.68, 0.374161
2568.96, 0.373946
2570.23, 0.373802
2571.51, 0.373229
2572.78, 0.372870
2574.06, 0.372726
2575.34, 0.371866
2576.62, 0.371507
2577.9, 0.371148
2579.18, 0.370646
2580.47, 0.370144
2581.75, 0.369714
2583.04, 0.369355
2584.32, 0.369857
2585.61, 0.369283
2586.9, 0.368996
2588.2, 0.368709
2589.49, 0.367992
2590.78, 0.367346
2592.08, 0.366773
2593.37, 0.366342
2594.67, 0.367275
2595.97, 0.367418
2597.27, 0.366199
2598.57, 0.365410
2599.88, 0.365051
2601.18, 0.364549
2602.49, 0.364262
2603.79, 0.364047
2605.1, 0.364047
2606.41, 0.364047
2607.72, 0.363616
2609.03, 0.363042
2610.35, 0.362397
2611.66, 0.361608
2612.98, 0.361680
2614.3, 0.361751
2615.62, 0.361464
2616.94, 0.361536
2618.26, 0.360747
2619.58, 0.360173
2620.91, 0.360460
2622.23, 0.359743
2623.56, 0.359025
2624.89, 0.358595
2626.22, 0.358380
2627.55, 0.358021
2628.88, 0.357160
2630.21, 0.356945
2631.55, 0.356658
2632.89, 0.355224
2634.22, 0.354148
2635.56, 0.353143
2636.9, 0.352211
2638.25, 0.351135
2639.59, 0.349987
2640.93, 0.348839
2642.28, 0.347763
2643.63, 0.346687
2644.98, 0.345468
2646.33, 0.344177
2647.68, 0.342814
2649.03, 0.341379
2650.39, 0.339729
2651.74, 0.338079
2653.1, 0.336716
2654.46, 0.335282
2655.82, 0.333919
2657.18, 0.332412
2658.54, 0.330906
2659.9, 0.329543
2661.27, 0.328108
2662.64, 0.326674
2664.01, 0.325669
2665.38, 0.325024
2666.74, 0.323661
2668.12, 0.321939
2669.49, 0.320576
2670.87, 0.319716
2672.24, 0.317707
2673.62, 0.315268
2675.0, 0.313260
2676.38, 0.311681
2677.76, 0.309816
2679.15, 0.307593
2680.54, 0.305082
2681.92, 0.301997
2683.31, 0.299128
2684.7, 0.295972
2686.09, 0.292242
2687.48, 0.287794
2688.88, 0.282629
2690.27, 0.277106
2691.67, 0.270793
2693.07, 0.263477
2694.47, 0.255299
2695.87, 0.245974
2697.27, 0.236074
2698.67, 0.225673
2700.08, 0.215989
2701.49, 0.208170
2702.9, 0.203364
2704.31, 0.202073
2705.72, 0.203723
2707.13, 0.206592
2708.54, 0.208959
2709.96, 0.210250
2711.38, 0.210466
2712.8, 0.208314
2714.22, 0.204297
2715.64, 0.199347
2717.06, 0.193537
2718.49, 0.186794
2719.91, 0.179405
2721.34, 0.171514
2722.77, 0.163839
2724.2, 0.156235
2725.63, 0.149277
2727.07, 0.142391
2728.5, 0.135504
2729.94, 0.128977
2731.38, 0.123597
2732.82, 0.118647
2734.26, 0.113984
2735.7, 0.109250
2737.15, 0.104731
2738.59, 0.0999960
2740.04, 0.0954050
2741.49, 0.0910300
2742.94, 0.0872280
2744.39, 0.0841430
2745.84, 0.0816330
2747.3, 0.0796240
2748.76, 0.0780460
2750.21, 0.0766110
2751.67, 0.0749610
2753.14, 0.0733110
2754.6, 0.0715180
2756.06, 0.0694380
2757.53, 0.0674290
2759.0, 0.0658510
2760.46, 0.0650620
2761.94, 0.0651340
2763.41, 0.0659950
2764.88, 0.0669270
2766.36, 0.0680750
2767.83, 0.0693660
2769.31, 0.0700120
2770.79, 0.0702990
2772.27, 0.0701550
2773.76, 0.0696530
2775.24, 0.0690070
2776.73, 0.0679310
2778.22, 0.0666400
2779.71, 0.0656360
2781.2, 0.0643450
2782.69, 0.0627670
2784.18, 0.0618340
2785.68, 0.0606150
2787.18, 0.0593230
2788.68, 0.0578170
2790.18, 0.0564540
2791.68, 0.0552350
2793.19, 0.0541590
2794.69, 0.0529390
2796.2, 0.0519350
2797.71, 0.0512180
2799.22, 0.0505000
2800.73, 0.0497110
2802.24, 0.0487790
2803.76, 0.0481330
2805.28, 0.0477030
2806.8, 0.0473440
2808.32, 0.0469850
2809.84, 0.0466270
2811.36, 0.0464830
2812.89, 0.0462680
2814.42, 0.0458380
2815.94, 0.0456220
2817.48, 0.0454790
2819.01, 0.0453350
2820.54, 0.0452640
2822.08, 0.0451920
2823.61, 0.0450490
2825.15, 0.0449770
2826.69, 0.0451920
2828.23, 0.0454070
2829.78, 0.0454790
2831.32, 0.0455510
2832.87, 0.0458380
2834.42, 0.0459810
2835.97, 0.0461960
2837.52, 0.0465550
2839.08, 0.0468420
2840.63, 0.0469140
2842.19, 0.0469850
2843.75, 0.0471290
2845.31, 0.0473440
2846.87, 0.0474160
2848.44, 0.0476310
2850.0, 0.0479180
2851.57, 0.0480610
2853.14, 0.0479900
2854.71, 0.0481330
2856.28, 0.0481330
2857.86, 0.0481330
2859.43, 0.0482770
2861.01, 0.0484200
2862.59, 0.0481330
2864.17, 0.0482050
2865.76, 0.0484200
2867.34, 0.0483480
2868.93, 0.0480610
2870.52, 0.0479900
2872.11, 0.0478460
2873.7, 0.0474870
2875.29, 0.0472010
2876.89, 0.0469850
2878.49, 0.0470570
2880.08, 0.0468420
2881.69, 0.0463400
2883.29, 0.0459090
2884.89, 0.0456940
2886.5, 0.0453350
2888.11, 0.0451920
2889.72, 0.0449770
2891.33, 0.0445460
2892.94, 0.0441880
2894.56, 0.0439730
2896.17, 0.0437570
2897.79, 0.0433990
2899.42, 0.0431120
2901.04, 0.0430400
2902.66, 0.0426100
2904.29, 0.0423940
2905.92, 0.0422510
2907.55, 0.0421070
2909.18, 0.0419640
2910.81, 0.0417490
2912.45, 0.0415340
2914.08, 0.0413180
2915.72, 0.0411030
2917.36, 0.0411030
2919.01, 0.0410310
2920.65, 0.0406730
2922.3, 0.0406730
2923.94, 0.0407450
2925.59, 0.0407450
2927.25, 0.0408880
2928.9, 0.0408880
2930.56, 0.0406010
2932.21, 0.0404580
2933.87, 0.0403860
2935.53, 0.0403140
2937.2, 0.0404580
2938.86, 0.0403860
2940.53, 0.0403140
2942.2, 0.0402420
2943.87, 0.0401710
2945.54, 0.0402420
2947.22, 0.0405290
2948.89, 0.0406730
2950.57, 0.0406730
2952.25, 0.0406010
2953.93, 0.0405290
2955.62, 0.0406730
2957.3, 0.0408160
2958.99, 0.0410310
2960.68, 0.0411750
2962.37, 0.0412470
2964.07, 0.0413180
2965.76, 0.0414620
2967.46, 0.0416050
2969.16, 0.0418210
2970.86, 0.0418920
2972.56, 0.0420360
2974.27, 0.0420360
2975.98, 0.0420360
2977.69, 0.0422510
2979.4, 0.0426810
2981.11, 0.0427530
2982.83, 0.0427530
2984.54, 0.0430400
2986.26, 0.0433270
2987.98, 0.0434700
2989.71, 0.0436140
2991.43, 0.0438290
2993.16, 0.0441160
2994.89, 0.0444750
2996.62, 0.0446900
2998.35, 0.0448330
3000.09, 0.0451200
3001.83, 0.0454070
3003.57, 0.0455510
3005.31, 0.0458380
3007.05, 0.0460530
3008.79, 0.0466270
3010.54, 0.0470570
3012.29, 0.0470570
3014.04, 0.0472720
3015.8, 0.0477030
3017.55, 0.0480610
3019.31, 0.0482050
3021.07, 0.0484920
3022.83, 0.0490660
3024.59, 0.0496390
3026.36, 0.0498550
3028.13, 0.0501420
3029.9, 0.0506440
3031.67, 0.0509310
3033.44, 0.0512890
3035.22, 0.0517910
3037.0, 0.0523650
3038.78, 0.0528670
3040.56, 0.0531540
3042.34, 0.0535850
3044.13, 0.0540870
3045.92, 0.0544460
3047.71, 0.0548040
3049.5, 0.0553060
3051.3, 0.0560240
3053.09, 0.0565260
3054.89, 0.0567410
3056.69, 0.0569560
3058.5, 0.0578170
3060.3, 0.0586780
3062.11, 0.0591080
3063.92, 0.0593950
3065.73, 0.0598260
3067.55, 0.0603990
3069.36, 0.0610450
3071.18, 0.0615470
3073.0, 0.0620490
3074.82, 0.0626230
3076.65, 0.0632690
3078.48, 0.0636990
3080.31, 0.0642730
3082.14, 0.0650620
3083.97, 0.0657080
3085.8, 0.0662820
3087.64, 0.0669990
3089.48, 0.0675010
3091.33, 0.0680750
3093.17, 0.0687920
3095.02, 0.0695810
3096.87, 0.0702270
3098.72, 0.0708730
3100.57, 0.0715900
3102.43, 0.0723070
3104.28, 0.0729530
3106.14, 0.0736700
3108.01, 0.0743160
3109.87, 0.0747460
3111.74, 0.0753920
3113.61, 0.0761090
3115.48, 0.0768260
3117.35, 0.0775440
3119.23, 0.0782610
3121.1, 0.0789070
3122.98, 0.0795520
3124.87, 0.0804130
3126.75, 0.0812740
3128.64, 0.0819910
3130.53, 0.0827090
3132.42, 0.0832820
3134.31, 0.0841430
3136.21, 0.0850040
3138.11, 0.0855780
3140.01, 0.0862950
3141.91, 0.0870130
3143.82, 0.0875860
3145.73, 0.0883750
3147.64, 0.0893080
3149.55, 0.0899540
3151.46, 0.0905270
3153.38, 0.0913880
3155.3, 0.0923930
3157.22, 0.0933250
3159.14, 0.0940420
3161.07, 0.0947600
3163.0, 0.0955490
3164.93, 0.0964100
3166.86, 0.0970550
3168.8, 0.0977730
3170.74, 0.0986330
3172.68, 0.0994940
3174.62, 0.100211
3176.56, 0.101072
3178.51, 0.102077
3180.46, 0.102866
3182.42, 0.103583
3184.37, 0.104444
3186.33, 0.105376
3188.29, 0.106309
3190.25, 0.107098
3192.21, 0.107887
3194.18, 0.108748
3196.15, 0.109537
3198.12, 0.110254
3200.09, 0.111187
3202.07, 0.112191
3204.05, 0.112980
3206.03, 0.113697
3208.02, 0.114486
3210.0, 0.115491
3211.99, 0.116638
3213.98, 0.117643
3215.98, 0.118432
3217.97, 0.119221
3219.97, 0.120082
3221.97, 0.121086
3223.98, 0.122090
3225.98, 0.122951
3227.99, 0.123883
3230.0, 0.124673
3232.02, 0.125462
3234.03, 0.126179
3236.05, 0.127040
3238.07, 0.127829
3240.1, 0.128690
3242.12, 0.129622
3244.15, 0.130626
3246.18, 0.131487
3248.22, 0.132276
3250.25, 0.133209
3252.29, 0.134070
3254.33, 0.135002
3256.38, 0.135791
3258.43, 0.136509
3260.47, 0.137369
3262.53, 0.138230
3264.58, 0.139019
3266.64, 0.140023
3268.7, 0.140884
3270.76, 0.141602
3272.82, 0.142319
3274.89, 0.143108
3276.96, 0.143969
3279.04, 0.144758
3281.11, 0.145547
3283.19, 0.146408
3285.27, 0.147269
3287.35, 0.148058
3289.44, 0.148847
3291.53, 0.149636
3293.62, 0.150497
3295.71, 0.151286
3297.81, 0.152146
3299.91, 0.153079
3302.01, 0.153868
3304.11, 0.154729
3306.22, 0.155590
3308.33, 0.156450
3310.44, 0.157168
3312.56, 0.157957
3314.68, 0.158746
3316.8, 0.159535
3318.92, 0.160324
3321.05, 0.161113
3323.18, 0.162189
3325.31, 0.163050
3327.44, 0.163767
3329.58, 0.164556
3331.72, 0.165417
3333.86, 0.166278
3336.01, 0.167139
3338.16, 0.167928
3340.31, 0.168645
3342.46, 0.169362
3344.61, 0.170152
3346.77, 0.170725
3348.94, 0.171371
3351.1, 0.172017
3353.27, 0.172734
3355.44, 0.173451
3357.61, 0.174240
3359.79, 0.174886
3361.97, 0.175531
3364.15, 0.176177
3366.33, 0.176823
3368.52, 0.177540
3370.71, 0.178257
3372.9, 0.179262
3375.1, 0.180122
3377.3, 0.180840
3379.5, 0.181557
3381.71, 0.182274
3383.91, 0.182992
3386.12, 0.183781
3388.34, 0.184642
3390.55, 0.185359
3392.77, 0.186220
3394.99, 0.186937
3397.22, 0.187511
3399.45, 0.188228
3401.68, 0.188874
3403.91, 0.189663
3406.15, 0.190380
3408.39, 0.190954
3410.63, 0.191815
3412.87, 0.192747
3415.12, 0.193465
3417.37, 0.194182
3419.63, 0.195186
3421.88, 0.196119
3424.14, 0.196765
3426.41, 0.197482
3428.67, 0.198343
3430.94, 0.199132
3433.21, 0.199921
3435.49, 0.200638
3437.77, 0.201356
3440.05, 0.202216
3442.33, 0.202934
3444.62, 0.203651
3446.91, 0.204440
3449.2, 0.205014
3451.5, 0.205731
3453.8, 0.206520
3456.1, 0.207094
3458.41, 0.207812
3460.72, 0.208457
3463.03, 0.209246
3465.34, 0.209964
3467.66, 0.210537
3469.98, 0.211111
3472.31, 0.211900
3474.63, 0.212546
3476.96, 0.213120
3479.3, 0.213981
3481.64, 0.214626
3483.97, 0.215272
3486.32, 0.216061
3488.66, 0.216635
3491.01, 0.217352
3493.36, 0.218069
3495.72, 0.218643
3498.08, 0.219361
3500.44, 0.220006
3502.81, 0.220652
3505.18, 0.221441
3507.55, 0.222230
3509.92, 0.222804
3512.3, 0.223521
3514.68, 0.224382
3517.06, 0.225171
3519.45, 0.225745
3521.84, 0.226319
3524.24, 0.226964
3526.64, 0.227610
3529.04, 0.228542
3531.44, 0.229188
3533.85, 0.229834
3536.26, 0.230623
3538.67, 0.231412
3541.09, 0.232057
3543.51, 0.232703
3545.93, 0.233420
3548.36, 0.234138
3550.79, 0.235070
3553.22, 0.235931
3555.66, 0.236864
3558.1, 0.237653
3560.54, 0.238442
3562.99, 0.239374
3565.44, 0.240450
3567.9, 0.241383
3570.35, 0.242243
3572.81, 0.243319
3575.28, 0.244180
3577.75, 0.245113
3580.22, 0.246189
3582.69, 0.247337
3585.17, 0.248269
3587.65, 0.249273
3590.14, 0.250278
3592.62, 0.251354
3595.11, 0.252430
3597.61, 0.253290
3600.11, 0.254151
3602.61, 0.255012
3605.11, 0.256016
3607.62, 0.257092
3610.14, 0.258097
3612.65, 0.259029
3615.17, 0.259818
3617.69, 0.260751
3620.22, 0.261612
3622.75, 0.262329
3625.28, 0.263118
3627.82, 0.263907
3630.36, 0.264696
3632.9, 0.265557
3635.45, 0.266346
3638.0, 0.267063
3640.56, 0.267781
3643.12, 0.268498
3645.68, 0.269287
3648.24, 0.270004
3650.81, 0.270793
3653.39, 0.271511
3655.96, 0.272156
3658.54, 0.272874
3661.13, 0.273806
3663.71, 0.274380
3666.3, 0.275026
3668.9, 0.275743
3671.5, 0.276460
3674.1, 0.277106
3676.7, 0.277823
3679.31, 0.278684
3681.93, 0.279330
3684.54, 0.279975
3687.17, 0.280621
3689.79, 0.281123
3692.42, 0.281553
3695.05, 0.282127
3697.69, 0.282773
3700.32, 0.283562
3702.97, 0.284279
3705.61, 0.284853
3708.27, 0.285499
3710.92, 0.286144
3713.58, 0.286862
3716.24, 0.287436
3718.91, 0.287938
3721.58, 0.288440
3724.25, 0.289014
3726.93, 0.289731
3729.61, 0.290448
3732.29, 0.290950
3734.98, 0.291381
3737.67, 0.291811
3740.37, 0.292457
3743.07, 0.293174
3745.78, 0.293748
3748.49, 0.294250
3751.2, 0.295111
3753.91, 0.295900
3756.63, 0.296474
3759.36, 0.296904
3762.09, 0.297478
3764.82, 0.298124
3767.55, 0.298698
3770.29, 0.299272
3773.04, 0.299702
3775.78, 0.300204
3778.54, 0.300706
3781.29, 0.301280
3784.05, 0.301854
3786.82, 0.302356
3789.59, 0.302786
3792.36, 0.303217
3795.13, 0.303647
3797.92, 0.304221
3800.7, 0.304652
3803.49, 0.305225
3806.28, 0.305656
3809.08, 0.306086
3811.88, 0.306517
3814.68, 0.307019
3817.49, 0.307664
3820.31, 0.308166
3823.12, 0.308525
3825.94, 0.308884
3828.77, 0.309458
3831.6, 0.309960
3834.43, 0.310605
3837.27, 0.311036
3840.11, 0.311538
3842.96, 0.312040
3845.81, 0.312470
3848.67, 0.312901
3851.53, 0.313475
3854.39, 0.313977
3857.26, 0.314551
3860.13, 0.314909
3863.01, 0.315340
3865.89, 0.315914
3868.77, 0.316488
3871.66, 0.316846
3874.55, 0.317277
3877.45, 0.317635
3880.35, 0.318066
3883.26, 0.318496
3886.17, 0.318926
3889.09, 0.319285
3892.01, 0.319644
3894.93, 0.320074
3897.86, 0.320505
3900.79, 0.321007
3903.73, 0.321437
3906.67, 0.321724
3909.62, 0.322011
3912.57, 0.322226
3915.52, 0.322441
3918.48, 0.322728
3921.45, 0.323015
3924.42, 0.323230
3927.39, 0.323446
3930.37, 0.323661
3933.35, 0.323948
3936.34, 0.324235
3939.33, 0.324522
3942.32, 0.324737
3945.32, 0.324952
3948.33, 0.325024
3951.34, 0.325167
3954.35, 0.325239
3957.37, 0.325382
3960.39, 0.325526
3963.42, 0.325813
3966.45, 0.326028
3969.49, 0.326243
3972.53, 0.326387
3975.58, 0.326602
3978.63, 0.326745
3981.68, 0.326745
3984.75, 0.326817
3987.81, 0.327104
3990.88, 0.327463
3993.95, 0.327678
3997.03, 0.327750
4000.12, 0.327965
4003.21, 0.328037
4006.3, 0.328252
4009.4, 0.328324
4012.5, 0.328395
4015.61, 0.328539
4018.72, 0.328610
4021.84, 0.328754
4024.96, 0.328826
4028.09, 0.328969
4031.22, 0.329041
4034.36, 0.329113
4037.5, 0.329184
4040.65, 0.329256
4043.8, 0.329328
4046.96, 0.329400
4050.12, 0.329471
4053.29, 0.329471
4056.46, 0.329471
4059.64, 0.329471
4062.82, 0.329543
4066.0, 0.329471
4069.19, 0.329328
4072.39, 0.329471
4075.59, 0.329328
4078.8, 0.329184
4082.01, 0.329113
4085.23, 0.328897
4088.45, 0.328897
4091.68, 0.328969
4094.91, 0.328897
4098.15, 0.328682
4101.39, 0.328539
4104.63, 0.328395
4107.89, 0.328180
4111.14, 0.327965
4114.41, 0.327821
4117.67, 0.327678
4120.95, 0.327463
4124.23, 0.327248
4127.51, 0.327176
4130.8, 0.326889
4134.09, 0.326602
4137.39, 0.326315
4140.7, 0.326028
4144.01, 0.325885
4147.32, 0.325741
4150.64, 0.325454
4153.97, 0.325096
4157.3, 0.324809
4160.64, 0.324378
4163.98, 0.324020
4167.33, 0.323948
4170.68, 0.323589
4174.04, 0.323230
4177.4, 0.322872
4180.77, 0.322513
4184.14, 0.322083
4187.52, 0.321796
4190.91, 0.321437
4194.3, 0.321007
4197.69, 0.320576
4201.1, 0.320074
4204.5, 0.319429
4207.92, 0.318783
4211.34, 0.318209
4214.76, 0.317492
4218.19, 0.316559
4221.62, 0.315842
4225.06, 0.315268
4228.51, 0.314766
4231.96, 0.314335
4235.42, 0.313905
4238.88, 0.313403
4242.35, 0.313044
4245.83, 0.312829
4249.31, 0.312829
4252.79, 0.312829
4256.28, 0.312542
4259.78, 0.311753
4263.29, 0.310821
4266.79, 0.309960
4270.31, 0.309242
4273.83, 0.308740
4277.35, 0.308166
4280.89, 0.307664
4284.42, 0.307234
4287.97, 0.306732
4291.52, 0.306230
4295.07, 0.305728
4298.63, 0.305225
4302.2, 0.304652
4305.78, 0.304221
4309.35, 0.303647
4312.94, 0.303289
4316.53, 0.302786
4320.13, 0.302213
4323.73, 0.301710
4327.34, 0.301280
4330.96, 0.300706
4334.58, 0.299989
4338.21, 0.299200
4341.84, 0.298554
4345.48, 0.297909
4349.12, 0.297048
4352.77, 0.296259
4356.43, 0.295613
4360.1, 0.294896
4363.76, 0.294035
4367.44, 0.293318
4371.12, 0.292529
4374.81, 0.291740
4378.51, 0.290950
4382.21, 0.290090
4385.92, 0.289301
4389.63, 0.288440
4393.35, 0.287651
4397.08, 0.286933
4400.81, 0.286073
4404.55, 0.285140
4408.29, 0.284207
4412.04, 0.283347
4415.8, 0.282414
4419.57, 0.281553
4423.34, 0.280764
4427.12, 0.279760
4430.9, 0.278899
4434.69, 0.277967
4438.49, 0.277034
4442.29, 0.276030
4446.1, 0.275026
4449.92, 0.274021
4453.74, 0.273089
4457.57, 0.272085
4461.41, 0.271009
4465.25, 0.270004
4469.1, 0.268928
4472.95, 0.267709
4476.82, 0.266776
4480.69, 0.265629
4484.56, 0.264409
4488.44, 0.263333
4492.33, 0.262185
4496.23, 0.261038
4500.13, 0.260033
4504.04, 0.258886
4507.96, 0.257594
4511.88, 0.256303
4515.81, 0.255012
4519.75, 0.253577
4523.69, 0.252214
4527.65, 0.250780
4531.6, 0.249273
4535.57, 0.247910
4539.54, 0.246691
4543.52, 0.245472
4547.5, 0.244539
4551.5, 0.243248
4555.5, 0.241598
4559.5, 0.240163
4563.52, 0.238872
4567.54, 0.237437
4571.56, 0.236003
4575.6, 0.234568
4579.64, 0.233205
4583.69, 0.231770
4587.75, 0.230192
4591.81, 0.228471
4595.88, 0.226606
4599.96, 0.224812
4604.04, 0.223019
4608.14, 0.221297
4612.24, 0.219504
4616.34, 0.217711
4620.46, 0.216133
4624.58, 0.214483
4628.71, 0.213120
4632.84, 0.211829
4636.99, 0.210609
4641.14, 0.209605
4645.3, 0.208601
4649.47, 0.207596
4653.64, 0.206664
4657.82, 0.205731
4662.01, 0.204799
4666.21, 0.203723
4670.41, 0.202718
4674.62, 0.201642
4678.84, 0.200351
4683.07, 0.199204
4687.3, 0.198056
4691.54, 0.196836
4695.79, 0.195617
4700.05, 0.194254
4704.31, 0.193034
4708.59, 0.191887
4712.87, 0.190667
4717.15, 0.189376
4721.45, 0.188013
4725.76, 0.186650
4730.07, 0.185216
4734.39, 0.183853
4738.72, 0.182490
4743.05, 0.180983
4747.39, 0.179333
4751.75, 0.177755
4756.1, 0.176249
4760.47, 0.174671
4764.85, 0.173093
4769.23, 0.171514
4773.62, 0.170080
4778.02, 0.168645
4782.43, 0.167139
4786.85, 0.165776
4791.27, 0.164556
4795.7, 0.163193
4800.14, 0.161902
4804.59, 0.160683
4809.05, 0.159391
4813.51, 0.158459
4817.99, 0.157598
4822.47, 0.156737
4826.96, 0.155661
4831.46, 0.154657
4835.96, 0.153725
4840.48, 0.152864
4845.0, 0.152075
4849.54, 0.151214
4854.08, 0.150281
4858.63, 0.149277
4863.18, 0.148273
4867.75, 0.147197
4872.33, 0.146193
4876.91, 0.145260
4881.5, 0.144543
4886.1, 0.143825
4890.71, 0.143036
4895.33, 0.142104
4899.96, 0.141315
4904.59, 0.140526
4909.24, 0.139450
4913.89, 0.138302
4918.55, 0.137441
4923.22, 0.136652
4927.9, 0.135719
4932.59, 0.134859
4937.29, 0.134141
4942.0, 0.133496
4946.71, 0.132707
4951.44, 0.131702
4956.17, 0.130913
4960.91, 0.130124
4965.67, 0.129407
4970.43, 0.128618
4975.2, 0.127901
4979.98, 0.127255
4984.76, 0.126825
4989.56, 0.126394
4994.37, 0.125964
4999.18, 0.125605
5004.01, 0.125103
5008.84, 0.124673
5013.69, 0.124386
5018.54, 0.124314
5023.4, 0.124386
5028.28, 0.124457
5033.16, 0.124529
5038.05, 0.124601
5042.95, 0.124673
5047.86, 0.124744
5052.78, 0.124744
5057.71, 0.124673
5062.65, 0.124601
5067.6, 0.124457
5072.56, 0.124386
5077.53, 0.124170
5082.5, 0.123955
5087.49, 0.123740
5092.49, 0.123453
5097.5, 0.123310
5102.51, 0.123238
5107.54, 0.123023
5112.58, 0.122664
5117.62, 0.122521
5122.68, 0.122377
5127.75, 0.122162
5132.82, 0.121875
5137.91, 0.121731
5143.01, 0.121516
5148.12, 0.121301
5153.23, 0.121086
5158.36, 0.121014
5163.5, 0.120942
5168.65, 0.120799
5173.81, 0.120584
5178.98, 0.120440
5184.15, 0.120369
5189.34, 0.120297
5194.54, 0.120225
5199.75, 0.120225
5204.98, 0.120153
5210.21, 0.120010
5215.45, 0.119866
5220.7, 0.119579
5225.96, 0.119364
5231.23, 0.119149
5236.52, 0.119006
5241.81, 0.118790
5247.12, 0.118575
5252.44, 0.118217
5257.76, 0.117930
5263.1, 0.117714
5268.45, 0.117499
5273.81, 0.117284
5279.18, 0.117069
5284.56, 0.116710
5289.95, 0.116423
5295.36, 0.116136
5300.77, 0.115921
