Database of Origin, USGS Spectral Database
Sample Description, See USGS database for additional info
Date Added,2017-07-03 06:06:54.432609

Data ID,USGS_mus25          
Sample ID, muscovite_hs24.15524
Mineral Name, muscovite
Material Class,Phyllosilicate

Wavelength
1499.61, 0.455996
1500.04, 0.455436
1500.48, 0.454939
1500.91, 0.454068
1501.35, 0.454814
1501.78, 0.455436
1502.22, 0.455001
1502.65, 0.454503
1503.09, 0.454130
1503.53, 0.454565
1503.96, 0.454068
1504.4, 0.453757
1504.83, 0.454254
1505.27, 0.454939
1505.71, 0.454814
1506.15, 0.454254
1506.58, 0.453384
1507.02, 0.452637
1507.46, 0.452824
1507.9, 0.453384
1508.34, 0.453819
1508.78, 0.453943
1509.21, 0.453819
1509.66, 0.453259
1510.09, 0.453073
1510.53, 0.453322
1510.97, 0.453135
1511.42, 0.452700
1511.86, 0.452762
1512.3, 0.452700
1512.74, 0.453135
1513.18, 0.453197
1513.62, 0.453446
1514.06, 0.453259
1514.51, 0.453011
1514.95, 0.452451
1515.39, 0.452762
1515.83, 0.453508
1516.28, 0.452886
1516.72, 0.452637
1517.16, 0.453011
1517.61, 0.453259
1518.05, 0.453570
1518.5, 0.453508
1518.94, 0.453384
1519.39, 0.453135
1519.83, 0.452762
1520.28, 0.452451
1520.73, 0.453073
1521.17, 0.453508
1521.62, 0.453197
1522.07, 0.453259
1522.51, 0.453757
1522.96, 0.453881
1523.41, 0.453570
1523.85, 0.453943
1524.3, 0.454565
1524.75, 0.454503
1525.2, 0.454441
1525.65, 0.454814
1526.1, 0.455063
1526.55, 0.455685
1527.0, 0.455623
1527.45, 0.455063
1527.9, 0.455063
1528.35, 0.455249
1528.8, 0.455623
1529.25, 0.455934
1529.7, 0.456245
1530.15, 0.456245
1530.6, 0.456245
1531.05, 0.456120
1531.51, 0.456182
1531.96, 0.456245
1532.41, 0.455809
1532.87, 0.456058
1533.32, 0.456618
1533.77, 0.457177
1534.23, 0.457551
1534.68, 0.457675
1535.14, 0.457613
1535.59, 0.457675
1536.05, 0.458110
1536.5, 0.458048
1536.96, 0.457986
1537.41, 0.458048
1537.87, 0.458546
1538.32, 0.459354
1538.78, 0.459790
1539.24, 0.459603
1539.7, 0.459665
1540.15, 0.460411
1540.61, 0.460722
1541.07, 0.460722
1541.53, 0.460785
1541.98, 0.461033
1542.44, 0.460785
1542.9, 0.460722
1543.36, 0.460971
1543.82, 0.461593
1544.28, 0.462339
1544.74, 0.462588
1545.2, 0.462402
1545.66, 0.462526
1546.12, 0.463086
1546.59, 0.463770
1547.05, 0.463956
1547.51, 0.463832
1547.97, 0.464081
1548.43, 0.464267
1548.9, 0.464330
1549.36, 0.464516
1549.82, 0.464392
1550.29, 0.464267
1550.75, 0.464765
1551.21, 0.465014
1551.68, 0.465014
1552.14, 0.465263
1552.61, 0.465884
1553.07, 0.466133
1553.54, 0.466195
1554.0, 0.466506
1554.47, 0.467190
1554.93, 0.467253
1555.4, 0.467315
1555.87, 0.467439
1556.34, 0.467688
1556.8, 0.468061
1557.27, 0.468621
1557.74, 0.468807
1558.21, 0.468870
1558.68, 0.469118
1559.14, 0.469616
1559.61, 0.469927
1560.08, 0.470362
1560.55, 0.470860
1561.02, 0.470798
1561.49, 0.470673
1561.96, 0.470860
1562.43, 0.471295
1562.9, 0.471606
1563.38, 0.471668
1563.85, 0.472166
1564.32, 0.472539
1564.79, 0.472601
1565.26, 0.472726
1565.74, 0.472912
1566.21, 0.472974
1566.68, 0.473348
1567.16, 0.473969
1567.63, 0.474218
1568.1, 0.474280
1568.58, 0.474343
1569.05, 0.474591
1569.53, 0.474529
1570.0, 0.474778
1570.48, 0.475400
1570.96, 0.475711
1571.43, 0.475960
1571.91, 0.476457
1572.39, 0.476519
1572.86, 0.476706
1573.34, 0.476706
1573.82, 0.476955
1574.3, 0.477266
1574.77, 0.477390
1575.25, 0.477577
1575.73, 0.478074
1576.21, 0.478385
1576.69, 0.478385
1577.17, 0.478572
1577.65, 0.478945
1578.13, 0.479194
1578.61, 0.479380
1579.09, 0.479629
1579.57, 0.480127
1580.05, 0.480251
1580.54, 0.480189
1581.02, 0.480562
1581.5, 0.480997
1581.98, 0.481184
1582.47, 0.481308
1582.95, 0.481122
1583.43, 0.481619
1583.92, 0.482179
1584.4, 0.482303
1584.88, 0.482365
1585.37, 0.482987
1585.85, 0.483609
1586.34, 0.483671
1586.82, 0.483734
1587.31, 0.483858
1587.8, 0.484107
1588.28, 0.484231
1588.77, 0.484667
1589.26, 0.485040
1589.74, 0.485040
1590.23, 0.485040
1590.72, 0.485351
1591.21, 0.485973
1591.7, 0.486221
1592.19, 0.486408
1592.67, 0.486284
1593.16, 0.486532
1593.65, 0.486843
1594.14, 0.487279
1594.63, 0.487527
1595.12, 0.487465
1595.61, 0.487590
1596.11, 0.487465
1596.6, 0.487838
1597.09, 0.488460
1597.58, 0.488958
1598.08, 0.489082
1598.57, 0.488958
1599.06, 0.489580
1599.55, 0.489642
1600.05, 0.489829
1600.54, 0.490326
1601.04, 0.490575
1601.53, 0.490637
1602.03, 0.490824
1602.52, 0.490886
1603.02, 0.491197
1603.51, 0.491632
1604.01, 0.492067
1604.5, 0.492130
1605.0, 0.492503
1605.5, 0.492876
1606.0, 0.492689
1606.49, 0.493063
1606.99, 0.493374
1607.49, 0.493498
1607.99, 0.493498
1608.49, 0.493498
1608.99, 0.493747
1609.49, 0.494058
1609.99, 0.494493
1610.49, 0.494991
1610.99, 0.494991
1611.49, 0.494866
1611.99, 0.495239
1612.49, 0.495612
1612.99, 0.495737
1613.49, 0.495675
1614.0, 0.496110
1614.5, 0.496359
1615.0, 0.496297
1615.51, 0.496670
1616.01, 0.496856
1616.51, 0.497292
1617.02, 0.497540
1617.52, 0.497976
1618.03, 0.497976
1618.53, 0.497851
1619.04, 0.497789
1619.54, 0.498162
1620.05, 0.498722
1620.55, 0.498847
1621.06, 0.498909
1621.57, 0.499095
1622.08, 0.499220
1622.58, 0.499779
1623.09, 0.499966
1623.6, 0.499966
1624.11, 0.500215
1624.62, 0.500712
1625.13, 0.500774
1625.64, 0.500774
1626.15, 0.500899
1626.66, 0.500961
1627.17, 0.501396
1627.68, 0.501770
1628.19, 0.502081
1628.7, 0.501894
1629.21, 0.502018
1629.72, 0.502329
1630.24, 0.502143
1630.75, 0.502267
1631.26, 0.502827
1631.78, 0.503449
1632.29, 0.503698
1632.8, 0.503387
1633.32, 0.503449
1633.83, 0.503635
1634.35, 0.504008
1634.86, 0.504195
1635.38, 0.504319
1635.9, 0.504195
1636.41, 0.504257
1636.93, 0.504817
1637.45, 0.505190
1637.96, 0.505252
1638.48, 0.505004
1639.0, 0.505128
1639.52, 0.505439
1640.04, 0.505501
1640.56, 0.505377
1641.08, 0.505999
1641.59, 0.506683
1642.11, 0.506994
1642.63, 0.506683
1643.16, 0.506745
1643.68, 0.506994
1644.2, 0.507243
1644.72, 0.507491
1645.24, 0.507429
1645.76, 0.507305
1646.29, 0.507180
1646.81, 0.507180
1647.33, 0.507616
1647.86, 0.508113
1648.38, 0.508238
1648.9, 0.508424
1649.43, 0.508611
1649.95, 0.508797
1650.48, 0.508673
1651.0, 0.508735
1651.53, 0.509046
1652.06, 0.509233
1652.58, 0.509606
1653.11, 0.509730
1653.64, 0.510041
1654.17, 0.510103
1654.69, 0.510166
1655.22, 0.510352
1655.75, 0.510476
1656.28, 0.510725
1656.81, 0.510601
1657.34, 0.510663
1657.87, 0.510912
1658.4, 0.511161
1658.93, 0.511223
1659.46, 0.511347
1659.99, 0.511596
1660.52, 0.511534
1661.05, 0.511472
1661.59, 0.511969
1662.12, 0.512156
1662.65, 0.512156
1663.19, 0.512280
1663.72, 0.512840
1664.26, 0.512778
1664.79, 0.512715
1665.32, 0.513026
1665.86, 0.513026
1666.39, 0.513213
1666.93, 0.513400
1667.47, 0.513213
1668.0, 0.513648
1668.54, 0.514084
1669.08, 0.513648
1669.61, 0.513648
1670.15, 0.514395
1670.69, 0.514581
1671.23, 0.514519
1671.77, 0.514643
1672.31, 0.514892
1672.85, 0.515017
1673.39, 0.514954
1673.93, 0.515265
1674.47, 0.515576
1675.01, 0.515576
1675.55, 0.515825
1676.09, 0.515639
1676.64, 0.515452
1677.18, 0.515763
1677.72, 0.515949
1678.26, 0.516074
1678.81, 0.516385
1679.35, 0.516696
1679.89, 0.516571
1680.44, 0.516509
1680.98, 0.516696
1681.53, 0.516944
1682.07, 0.517255
1682.62, 0.517380
1683.17, 0.517504
1683.71, 0.517691
1684.26, 0.517940
1684.81, 0.518313
1685.36, 0.518126
1685.9, 0.518126
1686.45, 0.518188
1687.0, 0.518375
1687.55, 0.518375
1688.1, 0.518499
1688.65, 0.518375
1689.2, 0.518437
1689.75, 0.518562
1690.3, 0.518624
1690.85, 0.518748
1691.41, 0.519059
1691.96, 0.519183
1692.51, 0.519183
1693.06, 0.519681
1693.61, 0.520116
1694.17, 0.520178
1694.72, 0.519930
1695.28, 0.519557
1695.83, 0.519805
1696.39, 0.519930
1696.94, 0.520241
1697.5, 0.520427
1698.05, 0.520676
1698.61, 0.520552
1699.17, 0.520800
1699.72, 0.520925
1700.28, 0.520738
1700.84, 0.520552
1701.4, 0.520987
1701.95, 0.521111
1702.51, 0.520800
1703.07, 0.520925
1703.63, 0.521298
1704.19, 0.521360
1704.75, 0.521298
1705.31, 0.521485
1705.88, 0.521733
1706.44, 0.521796
1707.0, 0.521858
1707.56, 0.521733
1708.12, 0.521858
1708.69, 0.521858
1709.25, 0.522044
1709.81, 0.522107
1710.38, 0.522169
1710.94, 0.522417
1711.51, 0.522417
1712.07, 0.522293
1712.64, 0.522417
1713.2, 0.522542
1713.77, 0.522355
1714.34, 0.522542
1714.9, 0.522791
1715.47, 0.522666
1716.04, 0.522604
1716.61, 0.522791
1717.18, 0.522977
1717.74, 0.523164
1718.31, 0.523350
1718.88, 0.523039
1719.45, 0.522853
1720.02, 0.522915
1720.59, 0.523039
1721.17, 0.523350
1721.74, 0.523413
1722.31, 0.523226
1722.88, 0.523350
1723.45, 0.523724
1724.03, 0.523724
1724.6, 0.523661
1725.18, 0.523910
1725.75, 0.524221
1726.33, 0.524532
1726.9, 0.524408
1727.48, 0.524345
1728.05, 0.524283
1728.63, 0.524345
1729.2, 0.524408
1729.78, 0.524656
1730.36, 0.524719
1730.94, 0.524532
1731.51, 0.524719
1732.09, 0.525216
1732.67, 0.525340
1733.25, 0.525092
1733.83, 0.525092
1734.41, 0.525278
1734.99, 0.525714
1735.57, 0.525527
1736.15, 0.525714
1736.73, 0.525776
1737.32, 0.525589
1737.9, 0.525714
1738.48, 0.525838
1739.07, 0.525900
1739.65, 0.525900
1740.23, 0.525900
1740.82, 0.526273
1741.4, 0.526584
1741.99, 0.526460
1742.57, 0.526336
1743.16, 0.526709
1743.74, 0.527082
1744.33, 0.527082
1744.92, 0.527144
1745.51, 0.527082
1746.09, 0.527020
1746.68, 0.527082
1747.27, 0.527331
1747.86, 0.527455
1748.45, 0.527642
1749.04, 0.527517
1749.63, 0.527766
1750.22, 0.527953
1750.81, 0.528388
1751.4, 0.528326
1751.99, 0.528450
1752.59, 0.528450
1753.18, 0.528388
1753.77, 0.528637
1754.37, 0.528761
1754.96, 0.528948
1755.56, 0.529134
1756.15, 0.529196
1756.74, 0.529134
1757.34, 0.529321
1757.94, 0.529445
1758.53, 0.529694
1759.13, 0.529881
1759.73, 0.530005
1760.32, 0.530005
1760.92, 0.530129
1761.52, 0.530316
1762.12, 0.530440
1762.72, 0.530627
1763.32, 0.530751
1763.92, 0.530751
1764.52, 0.530689
1765.12, 0.530689
1765.72, 0.530876
1766.32, 0.531373
1766.92, 0.531498
1767.53, 0.531622
1768.13, 0.531560
1768.73, 0.531622
1769.34, 0.531435
1769.94, 0.531746
1770.55, 0.531995
1771.15, 0.532306
1771.76, 0.532244
1772.36, 0.532057
1772.97, 0.532368
1773.57, 0.532741
1774.18, 0.532741
1774.79, 0.532866
1775.4, 0.532990
1776.0, 0.533052
1776.61, 0.532990
1777.22, 0.532990
1777.83, 0.533052
1778.44, 0.533177
1779.05, 0.533426
1779.66, 0.533550
1780.27, 0.533550
1780.88, 0.533799
1781.5, 0.534110
1782.11, 0.533799
1782.72, 0.533488
1783.33, 0.533488
1783.95, 0.533674
1784.56, 0.533861
1785.18, 0.534172
1785.79, 0.534047
1786.41, 0.533923
1787.02, 0.534172
1787.64, 0.534607
1788.26, 0.534421
1788.87, 0.534607
1789.49, 0.535167
1790.11, 0.534856
1790.73, 0.534358
1791.35, 0.534421
1791.96, 0.534669
1792.58, 0.534980
1793.21, 0.534794
1793.83, 0.534980
1794.45, 0.535416
1795.07, 0.535478
1795.69, 0.535478
1796.31, 0.535167
1796.93, 0.535105
1797.56, 0.535540
1798.18, 0.535913
1798.8, 0.535727
1799.43, 0.535664
1800.05, 0.535664
1800.68, 0.535664
1801.3, 0.535664
1801.93, 0.535789
1802.56, 0.535851
1803.18, 0.535913
1803.81, 0.535975
1804.44, 0.536038
1805.07, 0.536038
1805.7, 0.536162
1806.33, 0.536286
1806.95, 0.536411
1807.58, 0.536597
1808.22, 0.536784
1808.85, 0.536784
1809.48, 0.536722
1810.11, 0.536411
1810.74, 0.536597
1811.38, 0.536970
1812.01, 0.537157
1812.64, 0.537033
1813.28, 0.536908
1813.91, 0.537157
1814.55, 0.537219
1815.18, 0.536970
1815.82, 0.537033
1816.45, 0.537468
1817.09, 0.537592
1817.73, 0.537655
1818.36, 0.537655
1819.0, 0.537592
1819.64, 0.537406
1820.28, 0.536970
1820.92, 0.537157
1821.56, 0.537468
1822.2, 0.537717
1822.84, 0.538152
1823.48, 0.538525
1824.12, 0.538588
1824.76, 0.538463
1825.41, 0.538214
1826.05, 0.537530
1826.69, 0.537966
1827.34, 0.538774
1827.98, 0.538588
1828.63, 0.538463
1829.27, 0.538463
1829.92, 0.538463
1830.56, 0.538152
1831.21, 0.538152
1831.86, 0.538712
1832.5, 0.539023
1833.15, 0.539458
1833.8, 0.539583
1834.45, 0.539272
1835.1, 0.539147
1835.75, 0.538588
1836.4, 0.538152
1837.05, 0.538712
1837.7, 0.538899
1838.35, 0.539520
1839.01, 0.539520
1839.66, 0.538899
1840.31, 0.539023
1840.96, 0.539272
1841.62, 0.538588
1842.27, 0.538961
1842.93, 0.539831
1843.58, 0.540267
1844.24, 0.540329
1844.9, 0.540515
1845.55, 0.540826
1846.21, 0.540080
1846.87, 0.538836
1847.53, 0.538961
1848.18, 0.539458
1848.84, 0.540142
1849.5, 0.540764
1850.16, 0.541137
1850.82, 0.541386
1851.48, 0.541573
1852.14, 0.541635
1852.81, 0.541262
1853.47, 0.540640
1854.13, 0.540764
1854.8, 0.541635
1855.46, 0.542070
1856.12, 0.541573
1856.79, 0.541386
1857.45, 0.542132
1858.12, 0.542692
1858.79, 0.542754
1859.45, 0.541884
1860.12, 0.542070
1860.79, 0.542754
1861.46, 0.543376
1862.12, 0.543687
1862.79, 0.543750
1863.46, 0.543687
1864.13, 0.543501
1864.8, 0.543687
1865.48, 0.544123
1866.15, 0.544371
1866.82, 0.543812
1867.49, 0.543128
1868.16, 0.543439
1868.84, 0.543936
1869.51, 0.543812
1870.19, 0.543376
1870.86, 0.542754
1871.54, 0.543563
1872.21, 0.543750
1872.89, 0.542817
1873.56, 0.543314
1874.24, 0.544247
1874.92, 0.544309
1875.6, 0.544558
1876.28, 0.544309
1876.96, 0.543812
1877.64, 0.544434
1878.32, 0.544993
1879.0, 0.545242
1879.68, 0.545242
1880.36, 0.545118
1881.04, 0.544993
1881.73, 0.544869
1882.41, 0.545056
1883.09, 0.544931
1883.78, 0.544496
1884.46, 0.544869
1885.15, 0.545242
1885.83, 0.545180
1886.52, 0.545118
1887.21, 0.545304
1887.89, 0.545304
1888.58, 0.545180
1889.27, 0.544869
1889.96, 0.544558
1890.65, 0.544807
1891.34, 0.544993
1892.03, 0.545056
1892.72, 0.545180
1893.41, 0.545180
1894.1, 0.545304
1894.79, 0.545677
1895.49, 0.545926
1896.18, 0.545864
1896.87, 0.545677
1897.57, 0.545367
1898.26, 0.545304
1898.96, 0.544931
1899.65, 0.544371
1900.35, 0.544993
1901.05, 0.545553
1901.74, 0.545615
1902.44, 0.544869
1903.14, 0.544807
1903.84, 0.545553
1904.54, 0.545242
1905.24, 0.544745
1905.94, 0.544993
1906.64, 0.544993
1907.34, 0.545491
1908.04, 0.545864
1908.75, 0.546051
1909.45, 0.546051
1910.15, 0.546051
1910.86, 0.546237
1911.56, 0.546175
1912.27, 0.546299
1912.97, 0.545926
1913.68, 0.545615
1914.39, 0.546237
1915.09, 0.546797
1915.8, 0.546735
1916.51, 0.546735
1917.22, 0.546921
1917.93, 0.546921
1918.64, 0.546983
1919.35, 0.546610
1920.06, 0.546113
1920.77, 0.546175
1921.48, 0.547170
1922.19, 0.547730
1922.91, 0.547730
1923.62, 0.547481
1924.33, 0.547543
1925.05, 0.548041
1925.76, 0.548290
1926.48, 0.548290
1927.19, 0.548290
1927.91, 0.548227
1928.63, 0.548290
1929.35, 0.548538
1930.07, 0.548725
1930.78, 0.548787
1931.5, 0.549036
1932.22, 0.549347
1932.94, 0.549533
1933.66, 0.549533
1934.39, 0.549658
1935.11, 0.549844
1935.83, 0.549720
1936.55, 0.549720
1937.28, 0.550031
1938.0, 0.550342
1938.73, 0.550466
1939.45, 0.550591
1940.18, 0.550715
1940.9, 0.550777
1941.63, 0.550839
1942.36, 0.551026
1943.09, 0.550964
1943.81, 0.551150
1944.54, 0.551399
1945.27, 0.551586
1946.0, 0.551710
1946.73, 0.551959
1947.47, 0.551835
1948.2, 0.551772
1948.93, 0.552021
1949.66, 0.552208
1950.4, 0.552332
1951.13, 0.552519
1951.86, 0.552394
1952.6, 0.552519
1953.34, 0.552705
1954.07, 0.552767
1954.81, 0.552767
1955.55, 0.552767
1956.29, 0.552892
1957.02, 0.552767
1957.76, 0.552954
1958.5, 0.553327
1959.24, 0.553389
1959.98, 0.553203
1960.72, 0.553078
1961.47, 0.553265
1962.21, 0.553265
1962.95, 0.553265
1963.7, 0.553265
1964.44, 0.553327
1965.18, 0.553514
1965.93, 0.553700
1966.67, 0.553700
1967.42, 0.553700
1968.17, 0.553762
1968.92, 0.553825
1969.66, 0.553825
1970.41, 0.553887
1971.16, 0.553887
1971.91, 0.553762
1972.66, 0.553762
1973.41, 0.553825
1974.16, 0.554074
1974.92, 0.554011
1975.67, 0.553887
1976.42, 0.553887
1977.18, 0.554074
1977.93, 0.554074
1978.69, 0.553949
1979.44, 0.554011
1980.2, 0.554136
1980.95, 0.554136
1981.71, 0.554260
1982.47, 0.554384
1983.23, 0.554198
1983.99, 0.554074
1984.74, 0.554198
1985.51, 0.554260
1986.27, 0.554074
1987.03, 0.553949
1987.79, 0.554011
1988.55, 0.554074
1989.32, 0.554136
1990.08, 0.554011
1990.84, 0.554074
1991.61, 0.554322
1992.37, 0.554447
1993.14, 0.554447
1993.9, 0.554260
1994.67, 0.554260
1995.44, 0.554322
1996.21, 0.554322
1996.98, 0.554322
1997.75, 0.554198
1998.52, 0.554198
1999.29, 0.554384
2000.06, 0.554571
2000.83, 0.554633
2001.6, 0.554509
2002.38, 0.554509
2003.15, 0.554384
2003.93, 0.554509
2004.7, 0.554384
2005.48, 0.554384
2006.25, 0.554384
2007.03, 0.554509
2007.81, 0.554758
2008.58, 0.555006
2009.36, 0.555069
2010.14, 0.554944
2010.92, 0.555006
2011.7, 0.554944
2012.48, 0.554882
2013.26, 0.554944
2014.05, 0.555006
2014.83, 0.555006
2015.61, 0.555069
2016.4, 0.555255
2017.18, 0.555317
2017.97, 0.555504
2018.75, 0.555442
2019.54, 0.555628
2020.32, 0.555877
2021.11, 0.555815
2021.9, 0.555691
2022.69, 0.555815
2023.48, 0.556001
2024.27, 0.555939
2025.06, 0.555815
2025.85, 0.555939
2026.64, 0.556188
2027.44, 0.556312
2028.23, 0.556375
2029.02, 0.556499
2029.82, 0.556748
2030.61, 0.556934
2031.41, 0.556810
2032.2, 0.556748
2033.0, 0.556810
2033.8, 0.556934
2034.6, 0.556997
2035.4, 0.557059
2036.2, 0.557370
2037.0, 0.557494
2037.8, 0.557556
2038.6, 0.557432
2039.4, 0.557245
2040.2, 0.557432
2041.01, 0.557618
2041.81, 0.557556
2042.61, 0.557618
2043.42, 0.557743
2044.22, 0.557805
2045.03, 0.557681
2045.84, 0.557867
2046.65, 0.557992
2047.46, 0.557992
2048.26, 0.558178
2049.07, 0.558427
2049.88, 0.558303
2050.69, 0.558303
2051.51, 0.558427
2052.32, 0.558676
2053.13, 0.558862
2053.94, 0.558676
2054.76, 0.558738
2055.57, 0.558800
2056.39, 0.558924
2057.2, 0.558800
2058.02, 0.558800
2058.84, 0.558924
2059.66, 0.558738
2060.48, 0.558738
2061.29, 0.558738
2062.11, 0.558738
2062.94, 0.558800
2063.76, 0.558924
2064.58, 0.558862
2065.4, 0.558987
2066.22, 0.559111
2067.05, 0.558987
2067.87, 0.558987
2068.7, 0.559235
2069.52, 0.559173
2070.35, 0.558987
2071.18, 0.558862
2072.0, 0.558738
2072.83, 0.558676
2073.66, 0.558800
2074.49, 0.558800
2075.32, 0.558862
2076.15, 0.558738
2076.98, 0.558614
2077.82, 0.558614
2078.65, 0.558614
2079.48, 0.558551
2080.32, 0.558489
2081.15, 0.558489
2081.99, 0.558427
2082.83, 0.558116
2083.66, 0.557992
2084.5, 0.557867
2085.34, 0.557556
2086.18, 0.557307
2087.02, 0.557059
2087.86, 0.556934
2088.7, 0.556934
2089.54, 0.556810
2090.39, 0.556437
2091.23, 0.556126
2092.07, 0.555939
2092.92, 0.555815
2093.76, 0.555504
2094.61, 0.555255
2095.45, 0.554944
2096.3, 0.554758
2097.15, 0.554571
2098.0, 0.554260
2098.85, 0.553825
2099.7, 0.553389
2100.55, 0.553203
2101.4, 0.553016
2102.25, 0.552581
2103.1, 0.552332
2103.96, 0.552083
2104.81, 0.551835
2105.67, 0.551586
2106.52, 0.551275
2107.38, 0.550839
2108.24, 0.550591
2109.09, 0.550529
2109.95, 0.550280
2110.81, 0.549907
2111.67, 0.549533
2112.53, 0.549222
2113.39, 0.548974
2114.25, 0.548787
2115.12, 0.548663
2115.98, 0.548414
2116.84, 0.548290
2117.71, 0.547979
2118.58, 0.547792
2119.44, 0.547543
2120.31, 0.547419
2121.18, 0.547419
2122.04, 0.547294
2122.91, 0.547046
2123.78, 0.546983
2124.65, 0.546983
2125.52, 0.546859
2126.4, 0.546797
2127.27, 0.546983
2128.14, 0.547046
2129.02, 0.546921
2129.89, 0.546983
2130.77, 0.547170
2131.64, 0.547357
2132.52, 0.547357
2133.4, 0.547294
2134.27, 0.547232
2135.15, 0.547419
2136.03, 0.547481
2136.91, 0.547294
2137.79, 0.547419
2138.68, 0.547543
2139.56, 0.547543
2140.44, 0.547543
2141.33, 0.547543
2142.21, 0.547605
2143.1, 0.547792
2143.99, 0.547792
2144.87, 0.547605
2145.76, 0.547419
2146.65, 0.547294
2147.54, 0.547046
2148.43, 0.546797
2149.32, 0.546859
2150.21, 0.546735
2151.1, 0.546673
2151.99, 0.546548
2152.89, 0.546175
2153.78, 0.545864
2154.68, 0.545864
2155.57, 0.545740
2156.47, 0.545429
2157.37, 0.544993
2158.27, 0.544682
2159.16, 0.544434
2160.06, 0.544060
2160.96, 0.543750
2161.86, 0.543376
2162.77, 0.542941
2163.67, 0.542381
2164.57, 0.541822
2165.48, 0.541013
2166.38, 0.540578
2167.29, 0.540018
2168.2, 0.539458
2169.1, 0.538836
2170.01, 0.538152
2170.92, 0.537219
2171.83, 0.536349
2172.74, 0.535727
2173.65, 0.534856
2174.56, 0.533550
2175.47, 0.532182
2176.39, 0.530876
2177.3, 0.529756
2178.22, 0.528388
2179.13, 0.526833
2180.05, 0.525154
2180.96, 0.523226
2181.88, 0.521236
2182.8, 0.519121
2183.72, 0.516944
2184.64, 0.514457
2185.56, 0.511783
2186.48, 0.508984
2187.41, 0.506185
2188.33, 0.503076
2189.25, 0.499904
2190.18, 0.496608
2191.1, 0.493000
2192.03, 0.489393
2192.96, 0.485786
2193.89, 0.482055
2194.82, 0.478634
2195.74, 0.475338
2196.68, 0.471979
2197.61, 0.468621
2198.54, 0.465387
2199.47, 0.462277
2200.4, 0.459292
2201.34, 0.456680
2202.28, 0.454192
2203.21, 0.451642
2204.15, 0.449652
2205.08, 0.448097
2206.02, 0.446791
2206.96, 0.445361
2207.9, 0.444241
2208.84, 0.443495
2209.78, 0.442873
2210.73, 0.442624
2211.67, 0.442749
2212.61, 0.443060
2213.56, 0.443682
2214.5, 0.444552
2215.45, 0.445672
2216.4, 0.447040
2217.35, 0.448533
2218.3, 0.450398
2219.24, 0.452700
2220.2, 0.455187
2221.15, 0.457613
2222.1, 0.460163
2223.05, 0.462713
2224.0, 0.465138
2224.96, 0.467564
2225.91, 0.469865
2226.87, 0.472041
2227.83, 0.473969
2228.79, 0.475773
2229.74, 0.477514
2230.7, 0.478945
2231.66, 0.480127
2232.63, 0.480997
2233.59, 0.481744
2234.55, 0.482365
2235.51, 0.482739
2236.48, 0.483485
2237.44, 0.484107
2238.41, 0.484480
2239.38, 0.484791
2240.34, 0.485289
2241.31, 0.486221
2242.28, 0.487092
2243.25, 0.487652
2244.22, 0.488274
2245.19, 0.489207
2246.17, 0.490326
2247.14, 0.491570
2248.12, 0.492814
2249.09, 0.494058
2250.07, 0.495675
2251.04, 0.497354
2252.02, 0.499157
2253.0, 0.500899
2253.98, 0.502640
2254.96, 0.504568
2255.94, 0.506558
2256.92, 0.508362
2257.91, 0.510290
2258.89, 0.512156
2259.88, 0.513835
2260.86, 0.515079
2261.85, 0.516509
2262.83, 0.517940
2263.82, 0.519308
2264.81, 0.520490
2265.8, 0.521485
2266.79, 0.522293
2267.78, 0.523164
2268.78, 0.524097
2269.77, 0.524594
2270.76, 0.525092
2271.76, 0.525651
2272.75, 0.525962
2273.75, 0.526273
2274.75, 0.526647
2275.75, 0.527206
2276.75, 0.527704
2277.75, 0.527890
2278.75, 0.528015
2279.75, 0.528264
2280.75, 0.528512
2281.76, 0.528512
2282.76, 0.528823
2283.77, 0.529010
2284.77, 0.529134
2285.78, 0.529196
2286.79, 0.529134
2287.8, 0.529196
2288.81, 0.529321
2289.82, 0.529321
2290.83, 0.529157
2291.84, 0.528939
2292.86, 0.528503
2293.87, 0.528231
2294.89, 0.527686
2295.91, 0.527305
2296.92, 0.527141
2297.94, 0.526487
2298.96, 0.525997
2299.98, 0.525343
2301.0, 0.524417
2302.02, 0.523981
2303.04, 0.523381
2304.07, 0.522183
2305.09, 0.521311
2306.12, 0.520439
2307.15, 0.518968
2308.17, 0.517932
2309.2, 0.517387
2310.23, 0.516407
2311.26, 0.514935
2312.29, 0.513791
2313.32, 0.512483
2314.35, 0.511066
2315.39, 0.509486
2316.42, 0.508070
2317.46, 0.506762
2318.5, 0.505073
2319.53, 0.503656
2320.57, 0.502185
2321.61, 0.500986
2322.65, 0.499406
2323.69, 0.497880
2324.73, 0.495918
2325.78, 0.494120
2326.82, 0.492267
2327.86, 0.490687
2328.91, 0.489107
2329.96, 0.487309
2331.01, 0.485456
2332.05, 0.483985
2333.1, 0.482023
2334.15, 0.480279
2335.21, 0.478427
2336.26, 0.476411
2337.31, 0.474558
2338.36, 0.473196
2339.42, 0.471942
2340.48, 0.470417
2341.53, 0.468782
2342.59, 0.467529
2343.65, 0.466439
2344.71, 0.465077
2345.77, 0.464096
2346.83, 0.463387
2347.9, 0.462788
2348.96, 0.462515
2350.02, 0.462134
2351.09, 0.461589
2352.16, 0.461426
2353.23, 0.461371
2354.29, 0.461317
2355.36, 0.461535
2356.43, 0.461862
2357.51, 0.462461
2358.58, 0.463006
2359.65, 0.463333
2360.73, 0.463769
2361.8, 0.464150
2362.88, 0.464259
2363.96, 0.464423
2365.03, 0.465185
2366.11, 0.465894
2367.19, 0.465839
2368.27, 0.465730
2369.36, 0.465676
2370.44, 0.465785
2371.53, 0.465894
2372.61, 0.465839
2373.7, 0.466003
2374.78, 0.465948
2375.87, 0.465839
2376.96, 0.465730
2378.05, 0.465676
2379.14, 0.465785
2380.24, 0.465894
2381.33, 0.466330
2382.42, 0.466766
2383.52, 0.466875
2384.61, 0.466984
2385.71, 0.467474
2386.81, 0.468073
2387.91, 0.468291
2389.01, 0.468727
2390.11, 0.469599
2391.22, 0.470308
2392.32, 0.470852
2393.42, 0.471452
2394.53, 0.471942
2395.64, 0.472433
2396.74, 0.472596
2397.85, 0.472869
2398.96, 0.472923
2400.07, 0.473359
2401.18, 0.473414
2402.3, 0.473577
2403.41, 0.473849
2404.52, 0.473958
2405.64, 0.473904
2406.76, 0.473795
2407.88, 0.473468
2408.99, 0.473468
2410.11, 0.473305
2411.23, 0.472978
2412.36, 0.472433
2413.48, 0.471888
2414.6, 0.471452
2415.73, 0.470798
2416.85, 0.470144
2417.98, 0.469817
2419.11, 0.469327
2420.24, 0.468618
2421.37, 0.468237
2422.5, 0.467365
2423.64, 0.466548
2424.77, 0.466112
2425.9, 0.465403
2427.04, 0.464368
2428.18, 0.463496
2429.31, 0.462624
2430.45, 0.461862
2431.59, 0.461208
2432.73, 0.460826
2433.88, 0.460172
2435.02, 0.459028
2436.16, 0.458429
2437.31, 0.458211
2438.45, 0.457557
2439.6, 0.457012
2440.75, 0.456794
2441.9, 0.456521
2443.05, 0.456521
2444.2, 0.456413
2445.35, 0.456249
2446.51, 0.456304
2447.67, 0.456521
2448.82, 0.456739
2449.98, 0.457121
2451.14, 0.457448
2452.3, 0.457829
2453.46, 0.458211
2454.62, 0.458810
2455.78, 0.459355
2456.94, 0.459736
2458.11, 0.460390
2459.28, 0.461099
2460.44, 0.461862
2461.61, 0.462352
2462.78, 0.463115
2463.95, 0.463987
2465.12, 0.464859
2466.3, 0.465730
2467.47, 0.466657
2468.65, 0.467583
2469.82, 0.468291
2471.0, 0.468782
2472.18, 0.469327
2473.36, 0.470417
2474.54, 0.471506
2475.72, 0.472051
2476.9, 0.472487
2478.08, 0.473141
2479.27, 0.473958
2480.46, 0.474558
2481.64, 0.474994
2482.83, 0.475593
2484.02, 0.476029
2485.21, 0.476628
2486.4, 0.477282
2487.6, 0.477773
2488.79, 0.477991
2489.99, 0.478318
2491.18, 0.478754
2492.38, 0.479407
2493.58, 0.479625
2494.78, 0.480007
2495.98, 0.480497
2497.18, 0.480770
2498.39, 0.481097
2499.59, 0.481805
2500.8, 0.482186
2502.01, 0.482513
2503.21, 0.482840
2504.42, 0.483331
2505.63, 0.483821
2506.84, 0.484203
2508.06, 0.484584
2509.27, 0.485129
2510.49, 0.485892
2511.7, 0.486382
2512.92, 0.486873
2514.14, 0.487363
2515.36, 0.487581
2516.58, 0.488180
2517.8, 0.488889
2519.03, 0.489379
2520.25, 0.490033
2521.48, 0.490469
2522.7, 0.490633
2523.93, 0.491232
2525.16, 0.491668
2526.39, 0.491940
2527.62, 0.492322
2528.86, 0.492867
2530.09, 0.493139
2531.33, 0.493303
2532.56, 0.493520
2533.8, 0.494120
2535.04, 0.494174
2536.28, 0.494283
2537.52, 0.495373
2538.76, 0.496136
2540.01, 0.496463
2541.25, 0.496300
2542.5, 0.495537
2543.75, 0.495918
2544.99, 0.496735
2546.24, 0.496626
2547.49, 0.495755
2548.75, 0.496245
2550.0, 0.496082
2551.26, 0.495155
2552.51, 0.494392
2553.77, 0.495428
2555.03, 0.496681
2556.29, 0.497062
2557.55, 0.496844
2558.81, 0.495373
2560.08, 0.491341
2561.34, 0.488072
2562.61, 0.487418
2563.88, 0.487854
2565.14, 0.490524
2566.41, 0.492867
2567.68, 0.491504
2568.96, 0.487963
2570.23, 0.488126
2571.51, 0.489216
2572.78, 0.484911
2574.06, 0.485183
2575.34, 0.486382
2576.62, 0.484639
2577.9, 0.486164
2579.18, 0.487254
2580.47, 0.484802
2581.75, 0.483440
2583.04, 0.478863
2584.32, 0.478372
2585.61, 0.481478
2586.9, 0.479680
2588.2, 0.480170
2589.49, 0.481751
2590.78, 0.483058
2592.08, 0.481097
2593.37, 0.469763
2594.67, 0.459791
2595.97, 0.467692
2597.27, 0.477718
2598.57, 0.481042
2599.88, 0.480007
2601.18, 0.477882
2602.49, 0.476138
2603.79, 0.472433
2605.1, 0.467583
2606.41, 0.469817
2607.72, 0.473523
2609.03, 0.474558
2610.35, 0.475811
2611.66, 0.476792
2612.98, 0.476193
2614.3, 0.476519
2615.62, 0.471561
2616.94, 0.468618
2618.26, 0.472160
2619.58, 0.469109
2620.91, 0.469926
2622.23, 0.476519
2623.56, 0.478372
2624.89, 0.475975
2626.22, 0.471070
2627.55, 0.473141
2628.88, 0.472051
2630.21, 0.467147
2631.55, 0.471724
2632.89, 0.475048
2634.22, 0.475539
2635.56, 0.477882
2636.9, 0.478699
2638.25, 0.478917
2639.59, 0.478590
2640.93, 0.478209
2642.28, 0.477827
2643.63, 0.477773
2644.98, 0.475648
2646.33, 0.475811
2647.68, 0.477282
2649.03, 0.477609
2650.39, 0.475920
2651.74, 0.472378
2653.1, 0.471397
2654.46, 0.471670
2655.82, 0.470961
2657.18, 0.471561
2658.54, 0.468509
2659.9, 0.466275
2661.27, 0.465567
2662.64, 0.463987
2664.01, 0.455704
2665.38, 0.448130
2666.74, 0.447040
2668.12, 0.450255
2669.49, 0.442572
2670.87, 0.440174
2672.24, 0.448457
2673.62, 0.449056
2675.0, 0.443880
2676.38, 0.438322
2677.76, 0.437177
2679.15, 0.436360
2680.54, 0.438812
2681.92, 0.437777
2683.31, 0.434344
2684.7, 0.432110
2686.09, 0.429985
2687.48, 0.427968
2688.88, 0.426225
2690.27, 0.423718
2691.67, 0.418978
2693.07, 0.410804
2694.47, 0.406881
2695.87, 0.406554
2697.27, 0.406118
2698.67, 0.403393
2700.08, 0.397890
2701.49, 0.392495
2702.9, 0.388572
2704.31, 0.382360
2705.72, 0.374404
2707.13, 0.363997
2708.54, 0.350537
2709.96, 0.334463
2711.38, 0.321004
2712.8, 0.310596
2714.22, 0.295883
2715.64, 0.278011
2717.06, 0.258448
2718.49, 0.237579
2719.91, 0.214311
2721.34, 0.195457
2722.77, 0.178729
2724.2, 0.160366
2725.63, 0.145544
2727.07, 0.132848
2728.5, 0.120914
2729.94, 0.109853
2731.38, 0.100426
2732.82, 0.0923610
2734.26, 0.0853870
2735.7, 0.0800470
2737.15, 0.0757420
2738.59, 0.0712190
2740.04, 0.0676770
2741.49, 0.0654980
2742.94, 0.0639720
2744.39, 0.0622830
2745.84, 0.0607570
2747.3, 0.0595040
2748.76, 0.0585770
2750.21, 0.0574870
2751.67, 0.0560710
2753.14, 0.0548720
2754.6, 0.0533460
2756.06, 0.0530740
2757.53, 0.0538370
2759.0, 0.0545450
2760.46, 0.0551990
2761.94, 0.0554170
2763.41, 0.0562340
2764.88, 0.0578140
2766.36, 0.0590680
2767.83, 0.0603210
2769.31, 0.0620100
2770.79, 0.0636990
2772.27, 0.0657160
2773.76, 0.0678410
2775.24, 0.0698020
2776.73, 0.0714370
2778.22, 0.0732350
2779.71, 0.0753060
2781.2, 0.0776490
2782.69, 0.0803740
2784.18, 0.0833160
2785.68, 0.0861490
2787.18, 0.0895820
2788.68, 0.0941600
2790.18, 0.0991180
2791.68, 0.104186
2793.19, 0.109635
2794.69, 0.115356
2796.2, 0.121132
2797.71, 0.127617
2799.22, 0.134646
2800.73, 0.141294
2802.24, 0.147778
2803.76, 0.155625
2805.28, 0.164452
2806.8, 0.173443
2808.32, 0.182489
2809.84, 0.191970
2811.36, 0.201669
2812.89, 0.211369
2814.42, 0.220959
2815.94, 0.231094
2817.48, 0.240521
2819.01, 0.249512
2820.54, 0.258775
2822.08, 0.267984
2823.61, 0.276921
2825.15, 0.285203
2826.69, 0.292669
2828.23, 0.299589
2829.78, 0.306400
2831.32, 0.312122
2832.87, 0.316917
2834.42, 0.321440
2835.97, 0.325635
2837.52, 0.329395
2839.08, 0.332828
2840.63, 0.335771
2842.19, 0.338277
2843.75, 0.340348
2845.31, 0.342037
2846.87, 0.343508
2848.44, 0.344652
2850.0, 0.346015
2851.57, 0.347159
2853.14, 0.347758
2854.71, 0.348358
2856.28, 0.349339
2857.86, 0.350210
2859.43, 0.350701
2861.01, 0.351028
2862.59, 0.351409
2864.17, 0.351464
2865.76, 0.351518
2867.34, 0.351627
2868.93, 0.351682
2870.52, 0.351300
2872.11, 0.351191
2873.7, 0.351300
2875.29, 0.351355
2876.89, 0.351028
2878.49, 0.350701
2880.08, 0.350374
2881.69, 0.350156
2883.29, 0.349829
2884.89, 0.349502
2886.5, 0.349230
2888.11, 0.348957
2889.72, 0.348576
2891.33, 0.348358
2892.94, 0.348194
2894.56, 0.348140
2896.17, 0.347922
2897.79, 0.347486
2899.42, 0.346941
2901.04, 0.346723
2902.66, 0.346996
2904.29, 0.346996
2905.92, 0.346941
2907.55, 0.347105
2909.18, 0.347377
2910.81, 0.347595
2912.45, 0.347813
2914.08, 0.348031
2915.72, 0.348303
2917.36, 0.348685
2919.01, 0.349230
2920.65, 0.349775
2922.3, 0.350156
2923.94, 0.350755
2925.59, 0.351573
2927.25, 0.352336
2928.9, 0.353153
2930.56, 0.353861
2932.21, 0.354679
2933.87, 0.355333
2935.53, 0.356259
2937.2, 0.357240
2938.86, 0.358003
2940.53, 0.358820
2942.2, 0.359583
2943.87, 0.360509
2945.54, 0.361327
2947.22, 0.362035
2948.89, 0.362852
2950.57, 0.363888
2952.25, 0.364814
2953.93, 0.365522
2955.62, 0.366340
2957.3, 0.367211
2958.99, 0.368029
2960.68, 0.368792
2962.37, 0.369500
2964.07, 0.370318
2965.76, 0.371080
2967.46, 0.371898
2969.16, 0.372606
2970.86, 0.373151
2972.56, 0.373750
2974.27, 0.374459
2975.98, 0.375222
2977.69, 0.375876
2979.4, 0.376584
2981.11, 0.377238
2982.83, 0.377946
2984.54, 0.378546
2986.26, 0.378982
2987.98, 0.379690
2989.71, 0.380126
2991.43, 0.380671
2993.16, 0.381270
2994.89, 0.381815
2996.62, 0.382196
2998.35, 0.382905
3000.09, 0.383504
3001.83, 0.384049
3003.57, 0.384485
3005.31, 0.384866
3007.05, 0.385139
3008.79, 0.385520
3010.54, 0.386120
3012.29, 0.386610
3014.04, 0.386883
3015.8, 0.387264
3017.55, 0.387754
3019.31, 0.388190
3021.07, 0.388681
3022.83, 0.389062
3024.59, 0.389280
3026.36, 0.389498
3028.13, 0.389934
3029.9, 0.390261
3031.67, 0.390588
3033.44, 0.390915
3035.22, 0.391351
3037.0, 0.391896
3038.78, 0.392277
3040.56, 0.392604
3042.34, 0.392931
3044.13, 0.393367
3045.92, 0.393912
3047.71, 0.394293
3049.5, 0.394511
3051.3, 0.394893
3053.09, 0.395274
3054.89, 0.395710
3056.69, 0.396201
3058.5, 0.396636
3060.3, 0.397127
3062.11, 0.397563
3063.92, 0.398108
3065.73, 0.398544
3067.55, 0.398980
3069.36, 0.399524
3071.18, 0.399797
3073.0, 0.400124
3074.82, 0.400669
3076.65, 0.401050
3078.48, 0.401486
3080.31, 0.401976
3082.14, 0.402467
3083.97, 0.403012
3085.8, 0.403557
3087.64, 0.403884
3089.48, 0.404211
3091.33, 0.404810
3093.17, 0.405355
3095.02, 0.405627
3096.87, 0.405954
3098.72, 0.406499
3100.57, 0.407099
3102.43, 0.407589
3104.28, 0.408025
3106.14, 0.408515
3108.01, 0.409060
3109.87, 0.409333
3111.74, 0.409769
3113.61, 0.410314
3115.48, 0.410967
3117.35, 0.411458
3119.23, 0.411894
3121.1, 0.412275
3122.98, 0.412820
3124.87, 0.413528
3126.75, 0.414128
3128.64, 0.414782
3130.53, 0.415490
3132.42, 0.415981
3134.31, 0.416525
3136.21, 0.417179
3138.11, 0.417724
3140.01, 0.418160
3141.91, 0.418705
3143.82, 0.419413
3145.73, 0.419904
3147.64, 0.420503
3149.55, 0.421048
3151.46, 0.421811
3153.38, 0.422410
3155.3, 0.423064
3157.22, 0.423718
3159.14, 0.424263
3161.07, 0.424863
3163.0, 0.425462
3164.93, 0.426061
3166.86, 0.426552
3168.8, 0.427042
3170.74, 0.427587
3172.68, 0.428077
3174.62, 0.428622
3176.56, 0.429222
3178.51, 0.429876
3180.46, 0.430421
3182.42, 0.431129
3184.37, 0.431619
3186.33, 0.432110
3188.29, 0.432546
3190.25, 0.433145
3192.21, 0.433744
3194.18, 0.434344
3196.15, 0.434889
3198.12, 0.435434
3200.09, 0.436033
3202.07, 0.436632
3204.05, 0.437177
3206.03, 0.437613
3208.02, 0.438158
3210.0, 0.438812
3211.99, 0.439629
3213.98, 0.440174
3215.98, 0.440774
3217.97, 0.441373
3219.97, 0.442027
3221.97, 0.442517
3223.98, 0.443008
3225.98, 0.443662
3227.99, 0.444479
3230.0, 0.445133
3232.02, 0.445732
3234.03, 0.446386
3236.05, 0.446986
3238.07, 0.447422
3240.1, 0.447912
3242.12, 0.448511
3244.15, 0.449220
3246.18, 0.449765
3248.22, 0.450146
3250.25, 0.450800
3252.29, 0.451454
3254.33, 0.452162
3256.38, 0.452816
3258.43, 0.453252
3260.47, 0.453633
3262.53, 0.454178
3264.58, 0.454832
3266.64, 0.455214
3268.7, 0.455813
3270.76, 0.456304
3272.82, 0.456794
3274.89, 0.457339
3276.96, 0.457938
3279.04, 0.458538
3281.11, 0.458919
3283.19, 0.459355
3285.27, 0.459791
3287.35, 0.460336
3289.44, 0.460772
3291.53, 0.461262
3293.62, 0.461753
3295.71, 0.462134
3297.81, 0.462461
3299.91, 0.462951
3302.01, 0.463496
3304.11, 0.463932
3306.22, 0.464423
3308.33, 0.464804
3310.44, 0.465131
3312.56, 0.465512
3314.68, 0.465839
3316.8, 0.466275
3318.92, 0.466439
3321.05, 0.466766
3323.18, 0.467256
3325.31, 0.467583
3327.44, 0.467910
3329.58, 0.468291
3331.72, 0.468618
3333.86, 0.468945
3336.01, 0.469381
3338.16, 0.469654
3340.31, 0.469763
3342.46, 0.469981
3344.61, 0.470144
3346.77, 0.470199
3348.94, 0.470090
3351.1, 0.470144
3353.27, 0.470253
3355.44, 0.470090
3357.61, 0.469817
3359.79, 0.469708
3361.97, 0.469654
3364.15, 0.469054
3366.33, 0.468509
3368.52, 0.468073
3370.71, 0.467583
3372.9, 0.467093
3375.1, 0.466875
3377.3, 0.466875
3379.5, 0.466875
3381.71, 0.467038
3383.91, 0.467202
3386.12, 0.467583
3388.34, 0.467910
3390.55, 0.468182
3392.77, 0.468346
3394.99, 0.468509
3397.22, 0.468346
3399.45, 0.467965
3401.68, 0.467583
3403.91, 0.467093
3406.15, 0.466657
3408.39, 0.466166
3410.63, 0.465730
3412.87, 0.465512
3415.12, 0.465621
3417.37, 0.466221
3419.63, 0.467147
3421.88, 0.468346
3424.14, 0.469654
3426.41, 0.471179
3428.67, 0.472651
3430.94, 0.474176
3433.21, 0.475484
3435.49, 0.476519
3437.77, 0.477609
3440.05, 0.478699
3442.33, 0.479625
3444.62, 0.480606
3446.91, 0.481587
3449.2, 0.482459
3451.5, 0.483276
3453.8, 0.484039
3456.1, 0.484802
3458.41, 0.485456
3460.72, 0.486055
3463.03, 0.486491
3465.34, 0.486818
3467.66, 0.487091
3469.98, 0.487200
3472.31, 0.487200
3474.63, 0.487145
3476.96, 0.487036
3479.3, 0.487036
3481.64, 0.487091
3483.97, 0.486982
3486.32, 0.487363
3488.66, 0.487745
3491.01, 0.487908
3493.36, 0.488072
3495.72, 0.488072
3498.08, 0.487908
3500.44, 0.488072
3502.81, 0.488671
3505.18, 0.489434
3507.55, 0.490469
3509.92, 0.491831
3512.3, 0.493085
3514.68, 0.494447
3517.06, 0.495809
3519.45, 0.496953
3521.84, 0.498098
3524.24, 0.499297
3526.64, 0.500223
3529.04, 0.501095
3531.44, 0.501912
3533.85, 0.502566
3536.26, 0.503165
3538.67, 0.503765
3541.09, 0.504364
3543.51, 0.504855
3545.93, 0.505181
3548.36, 0.505454
3550.79, 0.505781
3553.22, 0.506162
3555.66, 0.506489
3558.1, 0.506816
3560.54, 0.507034
3562.99, 0.507361
3565.44, 0.507743
3567.9, 0.508015
3570.35, 0.508233
3572.81, 0.508505
3575.28, 0.508832
3577.75, 0.509105
3580.22, 0.509377
3582.69, 0.509650
3585.17, 0.510086
3587.65, 0.510413
3590.14, 0.510576
3592.62, 0.510794
3595.11, 0.511012
3597.61, 0.511176
3600.11, 0.511284
3602.61, 0.511393
3605.11, 0.511557
3607.62, 0.511611
3610.14, 0.511557
3612.65, 0.511448
3615.17, 0.511448
3617.69, 0.511393
3620.22, 0.511284
3622.75, 0.511230
3625.28, 0.511121
3627.82, 0.510903
3630.36, 0.510576
3632.9, 0.510304
3635.45, 0.510140
3638.0, 0.510086
3640.56, 0.509813
3643.12, 0.509486
3645.68, 0.509159
3648.24, 0.508941
3650.81, 0.508723
3653.39, 0.508614
3655.96, 0.508451
3658.54, 0.508233
3661.13, 0.508070
3663.71, 0.508015
3666.3, 0.508070
3668.9, 0.507852
3671.5, 0.507634
3674.1, 0.507634
3676.7, 0.507743
3679.31, 0.507906
3681.93, 0.507906
3684.54, 0.507852
3687.17, 0.508015
3689.79, 0.508070
3692.42, 0.508287
3695.05, 0.508505
3697.69, 0.508560
3700.32, 0.508723
3702.97, 0.508996
3705.61, 0.509159
3708.27, 0.509323
3710.92, 0.509595
3713.58, 0.509922
3716.24, 0.510086
3718.91, 0.510413
3721.58, 0.510849
3724.25, 0.511339
3726.93, 0.511666
3729.61, 0.511993
3732.29, 0.512483
3734.98, 0.512919
3737.67, 0.513246
3740.37, 0.513682
3743.07, 0.514281
3745.78, 0.514881
3748.49, 0.515426
3751.2, 0.516080
3753.91, 0.516733
3756.63, 0.517224
3759.36, 0.517878
3762.09, 0.518477
3764.82, 0.518913
3767.55, 0.519349
3770.29, 0.519839
3773.04, 0.520275
3775.78, 0.520820
3778.54, 0.521147
3781.29, 0.521311
3784.05, 0.521692
3786.82, 0.521965
3789.59, 0.522183
3792.36, 0.522455
3795.13, 0.522673
3797.92, 0.522836
3800.7, 0.523000
3803.49, 0.523218
3806.28, 0.523218
3809.08, 0.523272
3811.88, 0.523327
3814.68, 0.523436
3817.49, 0.523490
3820.31, 0.523436
3823.12, 0.523327
3825.94, 0.523272
3828.77, 0.523272
3831.6, 0.523163
3834.43, 0.523109
3837.27, 0.523109
3840.11, 0.523054
3842.96, 0.523000
3845.81, 0.522836
3848.67, 0.522673
3851.53, 0.522673
3854.39, 0.522673
3857.26, 0.522510
3860.13, 0.522455
3863.01, 0.522400
3865.89, 0.522346
3868.77, 0.522128
3871.66, 0.522074
3874.55, 0.522019
3877.45, 0.521910
3880.35, 0.521747
3883.26, 0.521583
3886.17, 0.521420
3889.09, 0.521365
3892.01, 0.521311
3894.93, 0.521147
3897.86, 0.521038
3900.79, 0.520929
3903.73, 0.520657
3906.67, 0.520493
3909.62, 0.520439
3912.57, 0.520330
3915.52, 0.520112
3918.48, 0.519894
3921.45, 0.519730
3924.42, 0.519676
3927.39, 0.519567
3930.37, 0.519349
3933.35, 0.518968
3936.34, 0.518750
3939.33, 0.518586
3942.32, 0.518368
3945.32, 0.518041
3948.33, 0.517714
3951.34, 0.517333
3954.35, 0.516897
3957.37, 0.516516
3960.39, 0.516352
3963.42, 0.516080
3966.45, 0.515698
3969.49, 0.515426
3972.53, 0.515262
3975.58, 0.515044
3978.63, 0.514935
3981.68, 0.514881
3984.75, 0.514935
3987.81, 0.515044
3990.88, 0.515153
3993.95, 0.515262
3997.03, 0.515535
4000.12, 0.515862
4003.21, 0.516025
4006.3, 0.516243
4009.4, 0.516516
4012.5, 0.516733
4015.61, 0.516842
4018.72, 0.516842
4021.84, 0.516842
4024.96, 0.516842
4028.09, 0.516897
4031.22, 0.516952
4034.36, 0.517115
4037.5, 0.517060
4040.65, 0.517060
4043.8, 0.517115
4046.96, 0.517060
4050.12, 0.517060
4053.29, 0.517006
4056.46, 0.516897
4059.64, 0.516788
4062.82, 0.516788
4066.0, 0.516788
4069.19, 0.516733
4072.39, 0.516679
4075.59, 0.516570
4078.8, 0.516570
4082.01, 0.516407
4085.23, 0.516352
4088.45, 0.516243
4091.68, 0.516025
4094.91, 0.515807
4098.15, 0.515753
4101.39, 0.515807
4104.63, 0.515807
4107.89, 0.515644
4111.14, 0.515535
4114.41, 0.515371
4117.67, 0.515317
4120.95, 0.515153
4124.23, 0.515099
4127.51, 0.514990
4130.8, 0.514990
4134.09, 0.514881
4137.39, 0.514772
4140.7, 0.514663
4144.01, 0.514608
4147.32, 0.514554
4150.64, 0.514554
4153.97, 0.514390
4157.3, 0.514172
4160.64, 0.514118
4163.98, 0.514009
4167.33, 0.514063
4170.68, 0.513900
4174.04, 0.513846
4177.4, 0.513682
4180.77, 0.513355
4184.14, 0.513246
4187.52, 0.513192
4190.91, 0.513137
4194.3, 0.513028
4197.69, 0.512810
4201.1, 0.512701
4204.5, 0.512483
4207.92, 0.512320
4211.34, 0.512102
4214.76, 0.511938
4218.19, 0.511720
4221.62, 0.511339
4225.06, 0.511066
4228.51, 0.510849
4231.96, 0.510794
4235.42, 0.510740
4238.88, 0.510631
4242.35, 0.510576
4245.83, 0.510576
4249.31, 0.510631
4252.79, 0.510685
4256.28, 0.510631
4259.78, 0.510467
4263.29, 0.510249
4266.79, 0.509922
4270.31, 0.509650
4273.83, 0.509486
4277.35, 0.509377
4280.89, 0.509268
4284.42, 0.509268
4287.97, 0.509214
4291.52, 0.509105
4295.07, 0.509050
4298.63, 0.508996
4302.2, 0.508887
4305.78, 0.508832
4309.35, 0.508723
4312.94, 0.508669
4316.53, 0.508669
4320.13, 0.508505
4323.73, 0.508342
4327.34, 0.508287
4330.96, 0.508179
4334.58, 0.507906
4338.21, 0.507852
4341.84, 0.507797
4345.48, 0.507743
4349.12, 0.507579
4352.77, 0.507361
4356.43, 0.507089
4360.1, 0.506762
4363.76, 0.506544
4367.44, 0.506380
4371.12, 0.506108
4374.81, 0.505781
4378.51, 0.505345
4382.21, 0.504909
4385.92, 0.504473
4389.63, 0.504037
4393.35, 0.503601
4397.08, 0.503165
4400.81, 0.502566
4404.55, 0.501912
4408.29, 0.501204
4412.04, 0.500495
4415.8, 0.499787
4419.57, 0.498915
4423.34, 0.498098
4427.12, 0.497280
4430.9, 0.496409
4434.69, 0.495482
4438.49, 0.494556
4442.29, 0.493575
4446.1, 0.492540
4449.92, 0.491613
4453.74, 0.490633
4457.57, 0.489652
4461.41, 0.488671
4465.25, 0.487690
4469.1, 0.486764
4472.95, 0.485892
4476.82, 0.484857
4480.69, 0.484039
4484.56, 0.483167
4488.44, 0.482132
4492.33, 0.481206
4496.23, 0.480334
4500.13, 0.479407
4504.04, 0.478645
4507.96, 0.477718
4511.88, 0.476792
4515.81, 0.475811
4519.75, 0.474939
4523.69, 0.474176
4527.65, 0.473250
4531.6, 0.472215
4535.57, 0.471234
4539.54, 0.470362
4543.52, 0.469490
4547.5, 0.468509
4551.5, 0.467638
4555.5, 0.466820
4559.5, 0.465894
4563.52, 0.464804
4567.54, 0.463823
4571.56, 0.462897
4575.6, 0.461916
4579.64, 0.460935
4583.69, 0.459900
4587.75, 0.458865
4591.81, 0.457720
4595.88, 0.456576
4599.96, 0.455377
4604.04, 0.454233
4608.14, 0.452980
4612.24, 0.451726
4616.34, 0.450473
4620.46, 0.449056
4624.58, 0.447694
4628.71, 0.446223
4632.84, 0.444806
4636.99, 0.443335
4641.14, 0.442027
4645.3, 0.440774
4649.47, 0.439466
4653.64, 0.438049
4657.82, 0.436687
4662.01, 0.435434
4666.21, 0.434235
4670.41, 0.433145
4674.62, 0.431946
4678.84, 0.430747
4683.07, 0.429658
4687.3, 0.428677
4691.54, 0.427859
4695.79, 0.427042
4700.05, 0.426225
4704.31, 0.425298
4708.59, 0.424372
4712.87, 0.423446
4717.15, 0.422628
4721.45, 0.421757
4725.76, 0.420885
4730.07, 0.419958
4734.39, 0.419141
4738.72, 0.418106
4743.05, 0.417125
4747.39, 0.416035
4751.75, 0.415000
4756.1, 0.414073
4760.47, 0.413147
4764.85, 0.412166
4769.23, 0.411240
4773.62, 0.410368
4778.02, 0.409442
4782.43, 0.408515
4786.85, 0.407698
4791.27, 0.406990
4795.7, 0.406227
4800.14, 0.405627
4804.59, 0.405191
4809.05, 0.404701
4813.51, 0.404211
4817.99, 0.403775
4822.47, 0.403448
4826.96, 0.403175
4831.46, 0.402794
4835.96, 0.402467
4840.48, 0.402140
4845.0, 0.401813
4849.54, 0.401541
4854.08, 0.401050
4858.63, 0.400669
4863.18, 0.400178
4867.75, 0.399579
4872.33, 0.398925
4876.91, 0.398326
4881.5, 0.397563
4886.1, 0.396800
4890.71, 0.396037
4895.33, 0.395220
4899.96, 0.394348
4904.59, 0.393585
4909.24, 0.392822
4913.89, 0.392168
4918.55, 0.391514
4923.22, 0.390915
4927.9, 0.390479
4932.59, 0.390098
4937.29, 0.389825
4942.0, 0.389771
4946.71, 0.389607
4951.44, 0.389389
4956.17, 0.389062
4960.91, 0.389008
4965.67, 0.389117
4970.43, 0.389117
4975.2, 0.389008
4979.98, 0.388899
4984.76, 0.388899
4989.56, 0.388790
4994.37, 0.388790
4999.18, 0.388844
5004.01, 0.389008
5008.84, 0.389171
5013.69, 0.389008
5018.54, 0.388572
5023.4, 0.388790
5028.28, 0.389117
5033.16, 0.389280
5038.05, 0.389389
5042.95, 0.389226
5047.86, 0.389062
5052.78, 0.388953
5057.71, 0.388735
5062.65, 0.388517
5067.6, 0.388299
5072.56, 0.388027
5077.53, 0.387482
5082.5, 0.386828
5087.49, 0.386610
5092.49, 0.386338
5097.5, 0.385793
5102.51, 0.385030
5107.54, 0.384104
5112.58, 0.382905
5117.62, 0.381543
5122.68, 0.380071
5127.75, 0.378382
5132.82, 0.376420
5137.91, 0.374186
5143.01, 0.371625
5148.12, 0.368901
5153.23, 0.367157
5158.36, 0.364977
5163.5, 0.362307
5168.65, 0.359474
5173.81, 0.356640
5178.98, 0.353861
5184.15, 0.351082
5189.34, 0.348303
5194.54, 0.345197
5199.75, 0.341928
5204.98, 0.339203
5210.21, 0.335607
5215.45, 0.332610
5220.7, 0.330866
5225.96, 0.328251
5231.23, 0.325145
5236.52, 0.321930
5241.81, 0.319205
5247.12, 0.316481
5252.44, 0.313538
5257.76, 0.310596
5263.1, 0.307653
5268.45, 0.304547
5273.81, 0.301333
5279.18, 0.298499
5284.56, 0.295774
5289.95, 0.292396
5295.36, 0.289835
5300.77, 0.287764
5306.2, 0.285421
5311.63, 0.283133
5317.08, 0.280899
5322.54, 0.278719
5328.01, 0.276648
5333.49, 0.274632
5338.98, 0.272671
5344.49, 0.269892
5350.0, 0.267221
5355.53, 0.266513
5361.07, 0.266023
5366.62, 0.265042
5372.18, 0.263789
5377.75, 0.262481
5383.34, 0.261391
5388.93, 0.260247
5394.54, 0.259102
5400.16, 0.257958
5405.79, 0.256487
5411.44, 0.254798
5417.09, 0.251801
5422.76, 0.249240
5428.43, 0.249893
5434.12, 0.249349
5439.83, 0.247605
5445.54, 0.245916
5451.26, 0.244390
5457.0, 0.242210
5462.75, 0.239377
5468.52, 0.238287
5474.29, 0.237197
5480.08, 0.235671
5485.88, 0.235290
5491.69, 0.234364
5497.51, 0.233274
5503.35, 0.232130
5509.2, 0.231421
5515.06, 0.230168
5520.93, 0.229078
5526.82, 0.228533
5532.71, 0.228370
5538.63, 0.227770
5544.55, 0.226898
5550.49, 0.225536
5556.44, 0.225046
5562.4, 0.225209
5568.37, 0.224991
5574.36, 0.223139
5580.36, 0.222485
5586.37, 0.224446
5592.4, 0.225754
5598.44, 0.225373
5604.49, 0.225373
5610.56, 0.225754
5616.63, 0.225809
5622.73, 0.226408
5628.83, 0.226517
5634.95, 0.224937
5641.08, 0.223084
5647.23, 0.224937
5653.39, 0.226408
5659.56, 0.227661
5665.74, 0.228915
5671.94, 0.227934
5678.15, 0.228097
5684.38, 0.229351
5690.62, 0.229187
5696.87, 0.230004
5703.14, 0.229677
5709.42, 0.227879
5715.72, 0.228806
5722.03, 0.230277
5728.35, 0.231421
5734.69, 0.231748
5741.03, 0.231585
5747.4, 0.231094
5753.78, 0.232783
5760.17, 0.230549
5766.58, 0.227552
5773.0, 0.231748
5779.44, 0.234963
5785.88, 0.236216
5792.35, 0.237088
5798.83, 0.237143
5805.32, 0.237415
5811.83, 0.236107
5818.35, 0.231857
5824.89, 0.231203
5831.45, 0.234364
5838.01, 0.236271
5844.59, 0.236761
5851.19, 0.235835
5857.8, 0.234200
5864.43, 0.232892
5871.07, 0.231966
5877.73, 0.225754
5884.4, 0.225373
5891.09, 0.226681
5897.79, 0.225536
5904.5, 0.229841
5911.23, 0.231040
5917.98, 0.230168
5924.75, 0.229078
5931.53, 0.223956
5938.32, 0.221940
5945.13, 0.227389
5951.96, 0.229895
5958.8, 0.230168
5965.65, 0.227879
5972.53, 0.228533
5979.42, 0.230168
5986.32, 0.228915
5993.24, 0.230113
6000.18, 0.233328
6007.13, 0.233437
6014.1, 0.233001
6021.08, 0.235290
6028.09, 0.236979
6035.1, 0.236761
6042.14, 0.230767
6049.19, 0.225918
6056.25, 0.234473
6063.34, 0.239268
6070.44, 0.237524
6077.55, 0.239922
6084.69, 0.244771
6091.84, 0.246951
6099.0, 0.247932
6106.19, 0.246025
6113.39, 0.244335
6120.61, 0.249730
6127.84, 0.254525
6135.09, 0.255778
6142.36, 0.256596
6149.65, 0.258122
6156.95, 0.258394
6164.27, 0.260628
6171.61, 0.263680
6178.97, 0.261718
6186.34, 0.261010
6193.73, 0.266731
6201.14, 0.269892
6208.57, 0.270927
6216.01, 0.272017
6223.47, 0.273597
6230.95, 0.274796
6238.45, 0.275667
6245.97, 0.276594
6253.5, 0.277575
6261.06, 0.278174
6268.63, 0.278719
6276.21, 0.279264
6283.82, 0.279809
6291.45, 0.280081
6299.1, 0.280354
6306.76, 0.280354
6314.44, 0.280408
6322.14, 0.280245
6329.86, 0.279809
6337.6, 0.275504
6345.35, 0.272616
6353.13, 0.277139
6360.92, 0.277793
6368.74, 0.274741
6376.57, 0.275559
6384.43, 0.276485
6392.3, 0.275940
6400.19, 0.273433
6408.1, 0.263843
6416.03, 0.260192
6423.98, 0.266731
6431.95, 0.269129
6439.94, 0.270436
6447.95, 0.270545
6455.98, 0.269783
6464.03, 0.268366
6472.1, 0.264824
6480.19, 0.260901
6488.31, 0.255125
6496.44, 0.254035
6504.59, 0.259756
6512.76, 0.260301
6520.95, 0.257250
6529.16, 0.257904
6537.4, 0.256977
6545.65, 0.254089
6553.92, 0.251201
6562.22, 0.248640
6570.54, 0.243791
6578.88, 0.243791
6587.23, 0.244117
6595.61, 0.242973
6604.02, 0.242483
6612.44, 0.240467
6620.89, 0.237688
6629.35, 0.231149
6637.84, 0.225972
6646.35, 0.229296
6654.88, 0.231530
6663.44, 0.228969
6672.01, 0.225046
6680.61, 0.221667
6689.23, 0.221558
6697.88, 0.220796
6706.54, 0.216981
6715.23, 0.214638
6723.94, 0.213821
6732.67, 0.213112
6741.42, 0.211423
6750.2, 0.209135
6759.0, 0.207173
6767.82, 0.204394
6776.67, 0.200961
6785.54, 0.196929
6794.44, 0.195403
6803.35, 0.196275
6812.29, 0.194913
6821.26, 0.191589
6830.24, 0.189572
6839.25, 0.189028
6848.29, 0.186085
6857.35, 0.180527
6866.43, 0.178293
6875.54, 0.180854
6884.67, 0.180908
6893.82, 0.179546
6903.0, 0.177639
6912.2, 0.176931
6921.43, 0.176495
6930.69, 0.175732
6939.96, 0.174806
6949.27, 0.172844
6958.59, 0.169956
6967.95, 0.170773
6977.33, 0.171645
6986.73, 0.170773
6996.16, 0.170010
7005.61, 0.169901
7015.09, 0.169139
7024.6, 0.168376
7034.13, 0.167068
7043.69, 0.164616
7053.27, 0.164997
7062.88, 0.166087
7072.52, 0.165815
7082.18, 0.165215
7091.87, 0.164452
7101.58, 0.163635
7111.32, 0.162436
7121.09, 0.161401
7130.88, 0.160529
7140.71, 0.158840
7150.56, 0.157423
7160.43, 0.156388
7170.33, 0.155189
7180.27, 0.155134
7190.23, 0.154535
7200.21, 0.152846
7210.23, 0.151429
7220.27, 0.151157
7230.34, 0.150176
7240.44, 0.149032
7250.56, 0.147778
7260.72, 0.146470
7270.9, 0.144781
7281.12, 0.143582
7291.36, 0.142765
7301.63, 0.141566
7311.93, 0.140368
7322.25, 0.139114
7332.61, 0.137480
7343.0, 0.136335
7353.41, 0.135463
7363.86, 0.134483
7374.33, 0.133338
7384.83, 0.132139
7395.37, 0.130886
7405.93, 0.129687
7416.53, 0.128434
7427.15, 0.127344
7437.81, 0.126037
7448.5, 0.124783
7459.22, 0.123203
7469.96, 0.121786
7480.74, 0.120533
7491.55, 0.119334
7502.39, 0.117972
7513.27, 0.116501
7524.17, 0.114975
7535.11, 0.113504
7546.08, 0.111869
7557.08, 0.110125
7568.11, 0.108491
7579.17, 0.106747
7590.27, 0.105058
7601.4, 0.103314
7612.56, 0.101516
7623.76, 0.0998270
7634.98, 0.0980280
7646.24, 0.0962300
7657.54, 0.0944320
7668.87, 0.0926880
7680.23, 0.0907810
7691.62, 0.0889290
7703.05, 0.0870760
7714.51, 0.0851690
7726.01, 0.0832610
7737.54, 0.0814090
7749.11, 0.0795020
7760.71, 0.0774860
7772.35, 0.0755240
7784.02, 0.0736170
7795.72, 0.0716550
7807.46, 0.0698020
7819.23, 0.0678950
7831.04, 0.0659880
7842.89, 0.0640810
7854.77, 0.0622280
7866.69, 0.0602670
7878.65, 0.0584680
7890.64, 0.0566700
7902.67, 0.0548720
7914.74, 0.0529650
7926.84, 0.0511670
7938.98, 0.0493140
7951.16, 0.0474610
7963.37, 0.0456090
7975.62, 0.0438650
7987.91, 0.0420120
8000.24, 0.0402140
8012.6, 0.0383070
8025.01, 0.0365630
8037.45, 0.0347650
8049.93, 0.0331850
8062.45, 0.0316040
8075.01, 0.0301330
8087.61, 0.0286620
8100.24, 0.0273540
8112.91, 0.0261550
8125.63, 0.0250660
8138.39, 0.0239210
8151.18, 0.0229410
8164.02, 0.0219600
8176.9, 0.0212510
8189.81, 0.0206520
8202.77, 0.0202160
8215.77, 0.0198350
8228.82, 0.0196710
8241.9, 0.0194530
8255.02, 0.0195080
8268.19, 0.0197260
8281.39, 0.0201070
8294.65, 0.0207060
8307.94, 0.0216870
8321.28, 0.0228860
8334.66, 0.0243570
8348.08, 0.0260460
8361.54, 0.0281170
8375.05, 0.0306240
8388.6, 0.0335120
8402.2, 0.0365630
8415.84, 0.0401600
8429.52, 0.0441370
8443.25, 0.0486060
8457.02, 0.0535100
8470.84, 0.0589040
8484.7, 0.0647890
8498.61, 0.0709470
8512.57, 0.0775940
8526.57, 0.0848420
8540.62, 0.0923610
8554.71, 0.100426
8568.85, 0.108709
8583.04, 0.117155
8597.27, 0.125928
8611.55, 0.135191
8625.88, 0.144509
8640.26, 0.154317
8654.68, 0.164616
8669.16, 0.175078
8683.68, 0.185540
8698.25, 0.195948
8712.87, 0.205756
8727.53, 0.214747
8742.25, 0.222485
8757.02, 0.228751
8771.83, 0.233601
8786.7, 0.237306
8801.62, 0.240739
8816.59, 0.244008
8831.61, 0.247114
8846.68, 0.250275
8861.8, 0.253544
8876.97, 0.256650
8892.2, 0.259647
8907.48, 0.262699
8922.81, 0.265478
8938.2, 0.268093
8953.63, 0.270709
8969.13, 0.273270
8984.67, 0.275559
9000.27, 0.277629
9015.92, 0.279591
9031.63, 0.281552
9047.39, 0.283405
9063.21, 0.284985
9079.08, 0.286184
9095.01, 0.286729
9111.0, 0.286566
9127.04, 0.285312
9143.13, 0.282479
9159.28, 0.278446
9175.49, 0.273433
9191.76, 0.267439
9208.09, 0.261173
9224.47, 0.254961
9240.92, 0.248204
9257.42, 0.241121
9273.98, 0.234091
9290.6, 0.226789
9307.28, 0.219270
9324.02, 0.211805
9340.82, 0.204884
9357.68, 0.198890
9374.6, 0.194150
9391.58, 0.191698
9408.62, 0.192460
9425.73, 0.196711
9442.9, 0.204775
9460.13, 0.216654
9477.42, 0.231639
9494.78, 0.248531
9512.2, 0.265314
9529.69, 0.280517
9547.24, 0.293050
9564.86, 0.302095
9582.54, 0.306891
9600.28, 0.307599
9618.1, 0.304656
9635.97, 0.298553
9653.92, 0.289835
9671.93, 0.279809
9690.01, 0.269074
9708.16, 0.258067
9726.37, 0.247932
9744.65, 0.238832
9763.0, 0.230767
9781.43, 0.224065
9799.92, 0.218234
9818.48, 0.213276
9837.1, 0.209026
9855.8, 0.205266
9874.58, 0.201996
9893.42, 0.199054
9912.34, 0.196602
9931.33, 0.194477
9950.39, 0.192351
9969.52, 0.190499
9988.74, 0.188755
10008.0, 0.186684
10027.4, 0.184450
10046.8, 0.182598
10066.3, 0.180636
10085.9, 0.178947
10105.6, 0.177312
10125.3, 0.175514
10145.1, 0.173552
10165.0, 0.171645
10185.0, 0.169520
10205.0, 0.167122
10225.2, 0.164616
10245.4, 0.161728
10265.7, 0.158458
10286.0, 0.155080
10306.5, 0.151865
10327.0, 0.148541
10347.6, 0.145217
10368.3, 0.142329
10389.1, 0.139714
10409.9, 0.137589
10430.9, 0.135245
10451.9, 0.133011
10473.0, 0.130832
10494.2, 0.128489
10515.5, 0.126037
10536.9, 0.123475
10558.4, 0.120751
10579.9, 0.117972
10601.5, 0.114757
10623.3, 0.111324
10645.1, 0.108327
10667.0, 0.105821
10689.0, 0.103096
10711.1, 0.100753
10733.2, 0.0990090
10755.5, 0.0975380
10777.9, 0.0965570
10800.3, 0.0960120
10822.9, 0.0956850
10845.5, 0.0956310
10868.2, 0.0958490
10891.1, 0.0964480
10914.0, 0.0972110
10937.0, 0.0981370
10960.2, 0.0994450
10983.4, 0.100753
11006.7, 0.101734
11030.1, 0.102824
11053.6, 0.103804
11077.3, 0.104513
11101.0, 0.104894
11124.8, 0.105058
11148.7, 0.105112
11172.7, 0.104949
11196.9, 0.104622
11221.1, 0.104131
11245.4, 0.103859
11269.9, 0.103913
11294.4, 0.103859
11319.1, 0.103859
11343.9, 0.103968
11368.8, 0.104186
11393.7, 0.104458
11418.8, 0.104949
11444.0, 0.105494
11469.4, 0.106093
11494.8, 0.106965
11520.3, 0.107891
11546.0, 0.108545
11571.8, 0.109199
11597.7, 0.110180
11623.7, 0.111106
11649.8, 0.111760
11676.0, 0.112305
11702.4, 0.112795
11728.9, 0.113340
11755.5, 0.113449
11782.2, 0.113286
11809.0, 0.112795
11836.0, 0.112032
11863.0, 0.111106
11890.3, 0.109853
11917.6, 0.108436
11945.0, 0.107183
11972.6, 0.105603
12000.4, 0.103586
12028.2, 0.101516
12056.2, 0.0997720
12084.3, 0.0983010
12112.5, 0.0973200
12140.9, 0.0967750
12169.4, 0.0962300
12198.0, 0.0958490
12226.8, 0.0953040
12255.7, 0.0943780
12284.7, 0.0933420
12313.9, 0.0918710
12343.2, 0.0898550
12372.7, 0.0877840
12402.3, 0.0860410
12432.0, 0.0845150
12461.9, 0.0835880
12491.9, 0.0830440
12522.1, 0.0829890
12552.4, 0.0830980
12582.9, 0.0832610
12613.5, 0.0836430
12644.3, 0.0842970
12675.2, 0.0848420
12706.3, 0.0851140
12737.5, 0.0851140
12768.9, 0.0848960
12800.4, 0.0841330
12832.1, 0.0830980
12863.9, 0.0816810
12895.9, 0.0800470
12928.1, 0.0783570
12960.4, 0.0762320
12992.9, 0.0731810
13025.5, 0.0695840
13058.3, 0.0662600
13091.3, 0.0632090
13124.4, 0.0608660
13157.8, 0.0592860
13191.2, 0.0581410
13224.9, 0.0577050
13258.7, 0.0578690
13292.7, 0.0585230
13326.9, 0.0595580
13361.2, 0.0607570
13395.7, 0.0621740
13430.4, 0.0636990
13465.3, 0.0648980
13500.4, 0.0658790
13535.7, 0.0670230
13571.1, 0.0679500
13606.7, 0.0683310
13642.5, 0.0688760
13678.5, 0.0695300
13714.7, 0.0698020
13751.1, 0.0696390
13787.6, 0.0696930
13824.4, 0.0692030
13861.4, 0.0685490
13898.5, 0.0678410
13935.9, 0.0672410
13973.5, 0.0663690
14011.2, 0.0651160
14049.2, 0.0640810
14087.4, 0.0633180
14125.8, 0.0624460
14164.3, 0.0609750
14203.2, 0.0594490
14242.2, 0.0580870
14281.4, 0.0565610
14320.9, 0.0555800
14360.5, 0.0546540
14400.4, 0.0534550
14440.5, 0.0523110
14480.9, 0.0516030
14521.4, 0.0509490
14562.2, 0.0504040
14603.3, 0.0500770
14644.5, 0.0497500
14686.0, 0.0494770
14727.7, 0.0490960
14769.7, 0.0484420
14811.9, 0.0481150
14854.3, 0.0477880
14897.0, 0.0471890
14939.9, 0.0461530
14983.1, 0.0448460
15026.5, 0.0437010
15070.2, 0.0424480
15114.2, 0.0409770
15158.3, 0.0393420
15202.8, 0.0374350
15247.5, 0.0358550
15292.5, 0.0345470
15337.7, 0.0333480
15383.2, 0.0326400
15429.0, 0.0324220
15475.1, 0.0325850
15521.4, 0.0331300
15568.0, 0.0344380
15614.9, 0.0363450
15662.1, 0.0384160
15709.6, 0.0410860
15757.3, 0.0438100
15805.4, 0.0461530
15853.7, 0.0490410
15902.3, 0.0523650
15951.2, 0.0549810
16000.5, 0.0577050
16050.0, 0.0606480
16099.8, 0.0636450
16150.0, 0.0669140
16200.5, 0.0706200
16251.3, 0.0749240
16302.4, 0.0799920
16353.8, 0.0856590
16405.5, 0.0921980
16457.6, 0.0991180
16510.0, 0.106965
16562.8, 0.115574
16615.9, 0.124184
16669.3, 0.132684
16723.1, 0.141512
16777.2, 0.149849
16831.7, 0.158186
16886.5, 0.166577
16941.7, 0.175132
16997.2, 0.183197
17053.1, 0.190880
17109.4, 0.197528
17166.1, 0.203577
17223.1, 0.209625
17280.5, 0.214965
17338.3, 0.219379
17396.5, 0.224501
17455.1, 0.230386
17514.0, 0.236380
17573.4, 0.242537
17633.2, 0.248749
17693.4, 0.254907
17754.0, 0.261173
17815.0, 0.266731
17876.4, 0.270818
17938.3, 0.274087
18000.5, 0.277411
18063.3, 0.279427
18126.4, 0.280408
18190.0, 0.281334
18254.1, 0.283187
18318.6, 0.284386
18383.5, 0.284822
18449.0, 0.285966
18514.9, 0.286729
18581.2, 0.285530
18648.0, 0.283405
18715.4, 0.280790
18783.2, 0.277248
18851.5, 0.272779
18920.3, 0.267221
18989.6, 0.260138
19059.4, 0.253272
19129.7, 0.246025
19200.6, 0.238505
19272.0, 0.231149
19343.9, 0.224228
19416.3, 0.217853
19489.3, 0.212077
19562.8, 0.207990
19637.0, 0.205429
19711.6, 0.203849
19786.8, 0.204721
19862.6, 0.207718
19939.0, 0.210824
20016.0, 0.215183
20093.6, 0.219651
20171.8, 0.224174
20250.6, 0.229405
20330.0, 0.234200
20410.0, 0.239377
20490.7, 0.244662
20572.0, 0.249131
20654.0, 0.252400
20736.6, 0.255724
20819.9, 0.258339
20903.8, 0.259920
20988.5, 0.259647
21073.8, 0.257195
21159.8, 0.253108
21246.5, 0.248041
21334.0, 0.242374
21422.1, 0.236652
21511.0, 0.230767
21600.7, 0.224337
21691.0, 0.217908
21782.1, 0.211914
21874.0, 0.206737
21966.7, 0.203359
22060.2, 0.200307
22154.5, 0.196874
22249.6, 0.192842
22345.5, 0.189572
22442.2, 0.186521
22539.8, 0.184178
22638.2, 0.182216
22737.5, 0.182216
22837.7, 0.181671
22938.7, 0.181671
23040.7, 0.181676
23143.5, 0.181655
23247.3, 0.181770
23352.1, 0.182212
23457.7, 0.182991
23564.4, 0.184086
23672.0, 0.185528
23780.5, 0.187332
23890.1, 0.189357
24000.7, 0.191414
24112.3, 0.193303
24225.0, 0.194879
24338.7, 0.196262
24453.5, 0.197619
24569.4, 0.199033
24686.4, 0.200595
24804.5, 0.202533
24923.8, 0.205028
25044.2, 0.207911
25165.8, 0.210918
25288.6, 0.213806
25412.5, 0.216341
25537.7, 0.218316
25664.1, 0.219586
25791.8, 0.220242
25920.8, 0.220428
26051.1, 0.220242
26182.6, 0.219759
26315.5, 0.218998
26449.8, 0.218003
26585.4, 0.216978
26722.5, 0.216112
26860.9, 0.215357
27000.8, 0.214585
27142.1, 0.213619
27285.0, 0.212277
27429.4, 0.210425
27575.3, 0.207935
27722.7, 0.204647
27871.8, 0.200646
28022.4, 0.197061
28174.7, 0.195118
28328.7, 0.195134
28484.4, 0.197062
28641.7, 0.200325
28800.9, 0.204260
28961.8, 0.208522
29124.5, 0.212876
29289.0, 0.217236
29455.4, 0.221534
29623.8, 0.225621
29794.0, 0.229352
29966.3, 0.232692
30140.5, 0.235633
30316.7, 0.238141
30495.1, 0.240215
30675.5, 0.242016
30858.1, 0.243774
31042.8, 0.245798
31229.8, 0.248324
31419.1, 0.251175
31610.7, 0.254076
31804.6, 0.256836
32000.9, 0.259351
32199.7, 0.261792
32400.9, 0.264369
32604.8, 0.267123
32811.1, 0.270065
33020.1, 0.273255
33231.8, 0.276670
33446.2, 0.279855
33663.4, 0.282363
33883.4, 0.284364
34106.3, 0.286072
34332.1, 0.287182
34561.0, 0.287322
34792.9, 0.286477
35028.0, 0.284709
35266.3, 0.282015
35507.8, 0.278260
35752.7, 0.272854
36001.0, 0.265280
36252.8, 0.255943
36508.1, 0.245525
36767.0, 0.234736
37029.7, 0.224387
37296.1, 0.215570
37566.3, 0.209401
37840.5, 0.206573
38118.8, 0.207355
38401.2, 0.210635
38687.8, 0.215060
38978.6, 0.220078
39273.9, 0.225407
39573.7, 0.231070
39878.1, 0.237085
40187.3, 0.243096
40501.2, 0.248832
40820.0, 0.254886
41144.0, 0.261854
41473.2, 0.269236
41807.6, 0.276320
42147.5, 0.282906
42493.0, 0.288925
42844.2, 0.294321
43201.2, 0.299024
43564.3, 0.302918
43933.5, 0.305952
44309.0, 0.308438
44691.0, 0.310647
45079.6, 0.312196
45475.0, 0.312639
45877.5, 0.312102
46287.1, 0.310795
46704.2, 0.308579
47128.7, 0.305270
47561.1, 0.300944
48001.5, 0.295822
48450.1, 0.290421
48907.2, 0.285002
49373.0, 0.278254
49847.7, 0.268939
50331.5, 0.258289
50825.0, 0.248051
51328.2, 0.238891
51841.5, 0.230977
52365.1, 0.223413
52899.4, 0.215583
53444.8, 0.209532
54001.5, 0.207516
54570.1, 0.208968
55150.6, 0.212364
55743.6, 0.215662
56349.5, 0.217024
56968.7, 0.216649
57601.7, 0.214889
58248.9, 0.210214
58910.9, 0.201229
59588.1, 0.189828
60281.0, 0.178811
60990.2, 0.170237
61716.3, 0.165706
62459.8, 0.165188
63221.6, 0.167863
64002.1, 0.171576
64802.1, 0.174107
65622.1, 0.175311
66463.4, 0.175542
67326.6, 0.174724
68212.4, 0.172756
69121.9, 0.169980
70056.0, 0.166644
71015.7, 0.161900
72002.0, 0.155032
73016.3, 0.147573
74059.4, 0.141202
75132.7, 0.134771
76237.6, 0.126719
77375.5, 0.117766
78547.9, 0.109004
79756.3, 0.0998690
81002.5, 0.0894690
82288.5, 0.0778610
83615.7, 0.0657510
84986.5, 0.0554040
86402.9, 0.0493270
87867.4, 0.0481030
89382.4, 0.0513950
90950.5, 0.0572180
92574.6, 0.0633590
94257.2, 0.0698540
96002.7, 0.0771190
97814.1, 0.0842030
99695.1, 0.0898980
101650.0, 0.0942790
103683.0, 0.0978920
105799.0, 0.101536
108003.0, 0.105955
110301.0, 0.110838
112699.0, 0.115502
115204.0, 0.119294
117822.0, 0.121782
120562.0, 0.123850
123433.0, 0.126492
126443.0, 0.128618
129604.0, 0.128454
132926.0, 0.124928
136424.0, 0.117986
140111.0, 0.111777
144003.0, 0.111015
148118.0, 0.113139
152474.0, 0.113518
157095.0, 0.111918
162004.0, 0.109480
167231.0, 0.106610
172805.0, 0.106610
178764.0, 0.106610
185148.0, 0.106610
192005.0, 0.106610
199390.0, 0.106610
207366.0, 0.106610
216006.0, 0.106610
