Database of Origin, USGS Spectral Database
Sample Description, See USGS database for additional info
Date Added,2017-07-03 06:06:55.557364

Data ID,USGS_hol02          
Sample ID, holmquistite_hs291.9912
Mineral Name, holmquistite
Material Class,Inosilicate

Wavelength
1523.85, 0.330025
1524.3, 0.328244
1524.75, 0.327702
1525.2, 0.326851
1525.65, 0.326619
1526.1, 0.326231
1526.55, 0.325690
1527.0, 0.324606
1527.45, 0.323754
1527.9, 0.323677
1528.35, 0.323986
1528.8, 0.321741
1529.25, 0.320967
1529.7, 0.321664
1530.15, 0.322128
1530.6, 0.320193
1531.05, 0.319187
1531.51, 0.319109
1531.96, 0.319187
1532.41, 0.318954
1532.87, 0.318877
1533.32, 0.317793
1533.77, 0.316787
1534.23, 0.315006
1534.68, 0.315471
1535.14, 0.316787
1535.59, 0.317174
1536.05, 0.317329
1536.5, 0.316477
1536.96, 0.315393
1537.41, 0.315006
1537.87, 0.313922
1538.32, 0.314542
1538.78, 0.314851
1539.24, 0.314000
1539.7, 0.313768
1540.15, 0.314155
1540.61, 0.313380
1541.07, 0.313071
1541.53, 0.312684
1541.98, 0.312684
1542.44, 0.312451
1542.9, 0.313613
1543.36, 0.314232
1543.82, 0.315084
1544.28, 0.314387
1544.74, 0.313922
1545.2, 0.313922
1545.66, 0.314155
1546.12, 0.312529
1546.59, 0.312064
1547.05, 0.312529
1547.51, 0.313303
1547.97, 0.312993
1548.43, 0.313690
1548.9, 0.314000
1549.36, 0.314000
1549.82, 0.313535
1550.29, 0.314077
1550.75, 0.313845
1551.21, 0.313613
1551.68, 0.314387
1552.14, 0.314696
1552.61, 0.314774
1553.07, 0.314619
1553.54, 0.314232
1554.0, 0.313613
1554.47, 0.313226
1554.93, 0.314464
1555.4, 0.314619
1555.87, 0.314387
1556.34, 0.314155
1556.8, 0.314155
1557.27, 0.313922
1557.74, 0.313690
1558.21, 0.313768
1558.68, 0.315084
1559.14, 0.314542
1559.61, 0.314077
1560.08, 0.314387
1560.55, 0.315084
1561.02, 0.314774
1561.49, 0.315238
1561.96, 0.315393
1562.43, 0.315393
1562.9, 0.315084
1563.38, 0.314696
1563.85, 0.314000
1564.32, 0.314309
1564.79, 0.315316
1565.26, 0.316245
1565.74, 0.315548
1566.21, 0.314929
1566.68, 0.314774
1567.16, 0.316245
1567.63, 0.316555
1568.1, 0.316477
1568.58, 0.315548
1569.05, 0.315703
1569.53, 0.316322
1570.0, 0.317406
1570.48, 0.317096
1570.96, 0.317251
1571.43, 0.317638
1571.91, 0.318103
1572.39, 0.317638
1572.86, 0.317329
1573.34, 0.317329
1573.82, 0.317716
1574.3, 0.317329
1574.77, 0.317871
1575.25, 0.318103
1575.73, 0.318645
1576.21, 0.318877
1576.69, 0.318800
1577.17, 0.318258
1577.65, 0.319032
1578.13, 0.319264
1578.61, 0.319806
1579.09, 0.319341
1579.57, 0.319341
1580.05, 0.319806
1580.54, 0.320270
1581.02, 0.320270
1581.5, 0.320425
1581.98, 0.321045
1582.47, 0.321587
1582.95, 0.321277
1583.43, 0.321664
1583.92, 0.321741
1584.4, 0.321974
1584.88, 0.322051
1585.37, 0.322283
1585.85, 0.321819
1586.34, 0.322128
1586.82, 0.322051
1587.31, 0.322361
1587.8, 0.322825
1588.28, 0.323367
1588.77, 0.322748
1589.26, 0.323677
1589.74, 0.323986
1590.23, 0.324374
1590.72, 0.324064
1591.21, 0.324219
1591.7, 0.323909
1592.19, 0.323986
1592.67, 0.323986
1593.16, 0.323909
1593.65, 0.323677
1594.14, 0.324683
1594.63, 0.325148
1595.12, 0.326077
1595.61, 0.326231
1596.11, 0.325999
1596.6, 0.325844
1597.09, 0.326619
1597.58, 0.326464
1598.08, 0.326851
1598.57, 0.326696
1599.06, 0.327006
1599.55, 0.326928
1600.05, 0.327315
1600.54, 0.327780
1601.04, 0.328322
1601.53, 0.328399
1602.03, 0.328786
1602.52, 0.328786
1603.02, 0.329560
1603.51, 0.329173
1604.01, 0.328786
1604.5, 0.328786
1605.0, 0.329483
1605.5, 0.330102
1606.0, 0.330722
1606.49, 0.330489
1606.99, 0.330180
1607.49, 0.330102
1607.99, 0.330335
1608.49, 0.330489
1608.99, 0.331418
1609.49, 0.331651
1609.99, 0.332502
1610.49, 0.332502
1610.99, 0.332502
1611.49, 0.332347
1611.99, 0.332038
1612.49, 0.332115
1612.99, 0.332734
1613.49, 0.332347
1614.0, 0.332812
1614.5, 0.332889
1615.0, 0.333276
1615.51, 0.333276
1616.01, 0.334051
1616.51, 0.334051
1617.02, 0.334128
1617.52, 0.333741
1618.03, 0.333663
1618.53, 0.333586
1619.04, 0.334747
1619.54, 0.334825
1620.05, 0.335134
1620.55, 0.334825
1621.06, 0.335057
1621.57, 0.334670
1622.08, 0.335367
1622.58, 0.335754
1623.09, 0.336218
1623.6, 0.336063
1624.11, 0.336063
1624.62, 0.336296
1625.13, 0.336837
1625.64, 0.336683
1626.15, 0.337147
1626.66, 0.337147
1627.17, 0.337612
1627.68, 0.337302
1628.19, 0.337147
1628.7, 0.337302
1629.21, 0.337921
1629.72, 0.338386
1630.24, 0.338773
1630.75, 0.339005
1631.26, 0.339315
1631.78, 0.339160
1632.29, 0.339392
1632.8, 0.338695
1633.32, 0.338773
1633.83, 0.339160
1634.35, 0.340321
1634.86, 0.340012
1635.38, 0.339779
1635.9, 0.339702
1636.41, 0.339857
1636.93, 0.340708
1637.45, 0.341095
1637.96, 0.340553
1638.48, 0.340863
1639.0, 0.340631
1639.52, 0.340631
1640.04, 0.340941
1640.56, 0.341250
1641.08, 0.341018
1641.59, 0.341792
1642.11, 0.342102
1642.63, 0.342179
1643.16, 0.341870
1643.68, 0.342411
1644.2, 0.341947
1644.72, 0.342102
1645.24, 0.342257
1645.76, 0.342721
1646.29, 0.342876
1646.81, 0.343340
1647.33, 0.343340
1647.86, 0.343805
1648.38, 0.343495
1648.9, 0.342876
1649.43, 0.343186
1649.95, 0.344115
1650.48, 0.344269
1651.0, 0.344347
1651.53, 0.344347
1652.06, 0.344424
1652.58, 0.344424
1653.11, 0.344657
1653.64, 0.344657
1654.17, 0.345353
1654.69, 0.345276
1655.22, 0.345585
1655.75, 0.345585
1656.28, 0.345663
1656.81, 0.346282
1657.34, 0.346669
1657.87, 0.346050
1658.4, 0.345276
1658.93, 0.345121
1659.46, 0.346205
1659.99, 0.346824
1660.52, 0.347056
1661.05, 0.346824
1661.59, 0.347444
1662.12, 0.347444
1662.65, 0.347444
1663.19, 0.347521
1663.72, 0.347985
1664.26, 0.348295
1664.79, 0.348914
1665.32, 0.348527
1665.86, 0.348605
1666.39, 0.348605
1666.93, 0.348837
1667.47, 0.349147
1668.0, 0.349456
1668.54, 0.349069
1669.08, 0.349301
1669.61, 0.349611
1670.15, 0.349998
1670.69, 0.349921
1671.23, 0.350308
1671.77, 0.350385
1672.31, 0.350540
1672.85, 0.350618
1673.39, 0.350618
1673.93, 0.350618
1674.47, 0.351005
1675.01, 0.350850
1675.55, 0.351392
1676.09, 0.351701
1676.64, 0.351934
1677.18, 0.351856
1677.72, 0.352011
1678.26, 0.351934
1678.81, 0.352321
1679.35, 0.352011
1679.89, 0.352553
1680.44, 0.352863
1680.98, 0.353405
1681.53, 0.353482
1682.07, 0.353637
1682.62, 0.353869
1683.17, 0.354411
1683.71, 0.354179
1684.26, 0.354101
1684.81, 0.353946
1685.36, 0.354179
1685.9, 0.354643
1686.45, 0.354721
1687.0, 0.354334
1687.55, 0.354101
1688.1, 0.354024
1688.65, 0.355185
1689.2, 0.355263
1689.75, 0.355185
1690.3, 0.355108
1690.85, 0.355882
1691.41, 0.355959
1691.96, 0.355495
1692.51, 0.355185
1693.06, 0.356037
1693.61, 0.356501
1694.17, 0.356424
1694.72, 0.356269
1695.28, 0.356656
1695.83, 0.356579
1696.39, 0.356114
1696.94, 0.355804
1697.5, 0.355882
1698.05, 0.355959
1698.61, 0.356346
1699.17, 0.356656
1699.72, 0.356966
1700.28, 0.357198
1700.84, 0.357353
1701.4, 0.357353
1701.95, 0.358127
1702.51, 0.357972
1703.07, 0.357508
1703.63, 0.357198
1704.19, 0.357662
1704.75, 0.357740
1705.31, 0.357972
1705.88, 0.358050
1706.44, 0.358050
1707.0, 0.357895
1707.56, 0.357972
1708.12, 0.357817
1708.69, 0.358591
1709.25, 0.358591
1709.81, 0.358591
1710.38, 0.358591
1710.94, 0.359056
1711.51, 0.358901
1712.07, 0.358824
1712.64, 0.358901
1713.2, 0.359133
1713.77, 0.359133
1714.34, 0.359288
1714.9, 0.359288
1715.47, 0.359133
1716.04, 0.358746
1716.61, 0.359366
1717.18, 0.359908
1717.74, 0.360295
1718.31, 0.360140
1718.88, 0.360682
1719.45, 0.360372
1720.02, 0.360062
1720.59, 0.360372
1721.17, 0.360682
1721.74, 0.360527
1722.31, 0.360836
1722.88, 0.360682
1723.45, 0.360914
1724.03, 0.361069
1724.6, 0.361146
1725.18, 0.360527
1725.75, 0.360991
1726.33, 0.361224
1726.9, 0.361766
1727.48, 0.361688
1728.05, 0.361533
1728.63, 0.361378
1729.2, 0.361611
1729.78, 0.362075
1730.36, 0.362153
1730.94, 0.362230
1731.51, 0.362695
1732.09, 0.362307
1732.67, 0.362462
1733.25, 0.362540
1733.83, 0.362617
1734.41, 0.362695
1734.99, 0.363314
1735.57, 0.363546
1736.15, 0.363778
1736.73, 0.363546
1737.32, 0.363778
1737.9, 0.363623
1738.48, 0.363778
1739.07, 0.363933
1739.65, 0.363856
1740.23, 0.363701
1740.82, 0.363856
1741.4, 0.364243
1741.99, 0.364475
1742.57, 0.364320
1743.16, 0.364165
1743.74, 0.363933
1744.33, 0.364475
1744.92, 0.364630
1745.51, 0.365172
1746.09, 0.365172
1746.68, 0.365249
1747.27, 0.365094
1747.86, 0.365327
1748.45, 0.365559
1749.04, 0.365559
1749.63, 0.365404
1750.22, 0.365559
1750.81, 0.365791
1751.4, 0.365869
1751.99, 0.365869
1752.59, 0.366643
1753.18, 0.366410
1753.77, 0.366178
1754.37, 0.366720
1754.96, 0.366643
1755.56, 0.366488
1756.15, 0.366875
1756.74, 0.366875
1757.34, 0.367107
1757.94, 0.367030
1758.53, 0.367262
1759.13, 0.367494
1759.73, 0.367881
1760.32, 0.367727
1760.92, 0.367649
1761.52, 0.367881
1762.12, 0.368191
1762.72, 0.368114
1763.32, 0.368423
1763.92, 0.368423
1764.52, 0.368423
1765.12, 0.368656
1765.72, 0.368965
1766.32, 0.368965
1766.92, 0.369275
1767.53, 0.368965
1768.13, 0.368965
1768.73, 0.369197
1769.34, 0.369430
1769.94, 0.369585
1770.55, 0.369739
1771.15, 0.369430
1771.76, 0.369739
1772.36, 0.370204
1772.97, 0.370436
1773.57, 0.370049
1774.18, 0.369894
1774.79, 0.369585
1775.4, 0.369894
1776.0, 0.369894
1776.61, 0.370281
1777.22, 0.370668
1777.83, 0.370978
1778.44, 0.370591
1779.05, 0.370591
1779.66, 0.370746
1780.27, 0.370978
1780.88, 0.370668
1781.5, 0.370514
1782.11, 0.370436
1782.72, 0.370514
1783.33, 0.370746
1783.95, 0.371442
1784.56, 0.371442
1785.18, 0.371210
1785.79, 0.370823
1786.41, 0.371365
1787.02, 0.371675
1787.64, 0.371752
1788.26, 0.371520
1788.87, 0.371752
1789.49, 0.371830
1790.11, 0.372139
1790.73, 0.371907
1791.35, 0.371907
1791.96, 0.371752
1792.58, 0.371830
1793.21, 0.371752
1793.83, 0.372217
1794.45, 0.372294
1795.07, 0.372294
1795.69, 0.372449
1796.31, 0.372913
1796.93, 0.372991
1797.56, 0.372449
1798.18, 0.372217
1798.8, 0.372371
1799.43, 0.372371
1800.05, 0.372681
1800.68, 0.372759
1801.3, 0.372836
1801.93, 0.372913
1802.56, 0.373223
1803.18, 0.373300
1803.81, 0.373610
1804.44, 0.373378
1805.07, 0.373765
1805.7, 0.373842
1806.33, 0.373765
1806.95, 0.373455
1807.58, 0.373610
1808.22, 0.373842
1808.85, 0.373997
1809.48, 0.373765
1810.11, 0.373997
1810.74, 0.374307
1811.38, 0.374462
1812.01, 0.374617
1812.64, 0.374771
1813.28, 0.374617
1813.91, 0.374771
1814.55, 0.374771
1815.18, 0.374694
1815.82, 0.374539
1816.45, 0.374694
1817.09, 0.375004
1817.73, 0.375236
1818.36, 0.374849
1819.0, 0.374849
1819.64, 0.375081
1820.28, 0.375158
1820.92, 0.375313
1821.56, 0.375468
1822.2, 0.375081
1822.84, 0.375468
1823.48, 0.375855
1824.12, 0.375700
1824.76, 0.375623
1825.41, 0.375933
1826.05, 0.375700
1826.69, 0.376087
1827.34, 0.376087
1827.98, 0.376165
1828.63, 0.376242
1829.27, 0.376552
1829.92, 0.376784
1830.56, 0.376862
1831.21, 0.376784
1831.86, 0.377016
1832.5, 0.377249
1833.15, 0.377404
1833.8, 0.377326
1834.45, 0.377326
1835.1, 0.377171
1835.75, 0.377171
1836.4, 0.377016
1837.05, 0.377791
1837.7, 0.378100
1838.35, 0.378333
1839.01, 0.378487
1839.66, 0.378487
1840.31, 0.378333
1840.96, 0.378410
1841.62, 0.378410
1842.27, 0.378487
1842.93, 0.378487
1843.58, 0.378720
1844.24, 0.378874
1844.9, 0.379029
1845.55, 0.379107
1846.21, 0.379107
1846.87, 0.378642
1847.53, 0.378797
1848.18, 0.379029
1848.84, 0.379494
1849.5, 0.379416
1850.16, 0.379339
1850.82, 0.379494
1851.48, 0.379571
1852.14, 0.379339
1852.81, 0.379494
1853.47, 0.379262
1854.13, 0.379184
1854.8, 0.379571
1855.46, 0.380191
1856.12, 0.380191
1856.79, 0.380191
1857.45, 0.380113
1858.12, 0.380268
1858.79, 0.380191
1859.45, 0.379803
1860.12, 0.379726
1860.79, 0.380113
1861.46, 0.380191
1862.12, 0.380268
1862.79, 0.380113
1863.46, 0.380655
1864.13, 0.380655
1864.8, 0.380655
1865.48, 0.380732
1866.15, 0.380887
1866.82, 0.380655
1867.49, 0.380423
1868.16, 0.380268
1868.84, 0.380578
1869.51, 0.380500
1870.19, 0.380578
1870.86, 0.380423
1871.54, 0.380500
1872.21, 0.380578
1872.89, 0.380578
1873.56, 0.380655
1874.24, 0.381042
1874.92, 0.381042
1875.6, 0.380810
1876.28, 0.380423
1876.96, 0.380423
1877.64, 0.380423
1878.32, 0.380655
1879.0, 0.380578
1879.68, 0.380655
1880.36, 0.380500
1881.04, 0.380113
1881.73, 0.380113
1882.41, 0.380500
1883.09, 0.380345
1883.78, 0.380345
1884.46, 0.380191
1885.15, 0.379958
1885.83, 0.379803
1886.52, 0.380036
1887.21, 0.380036
1887.89, 0.379958
1888.58, 0.379649
1889.27, 0.379571
1889.96, 0.379494
1890.65, 0.379803
1891.34, 0.379726
1892.03, 0.379494
1892.72, 0.379339
1893.41, 0.379649
1894.1, 0.379416
1894.79, 0.379184
1895.49, 0.378797
1896.18, 0.378797
1896.87, 0.378720
1897.57, 0.378565
1898.26, 0.378255
1898.96, 0.378178
1899.65, 0.378023
1900.35, 0.378023
1901.05, 0.377868
1901.74, 0.377945
1902.44, 0.377636
1903.14, 0.377713
1903.84, 0.377558
1904.54, 0.377481
1905.24, 0.377326
1905.94, 0.377016
1906.64, 0.376784
1907.34, 0.377094
1908.04, 0.376939
1908.75, 0.376862
1909.45, 0.376707
1910.15, 0.376707
1910.86, 0.376784
1911.56, 0.376862
1912.27, 0.376862
1912.97, 0.376784
1913.68, 0.376629
1914.39, 0.377326
1915.09, 0.377558
1915.8, 0.377636
1916.51, 0.377713
1917.22, 0.377945
1917.93, 0.377791
1918.64, 0.378023
1919.35, 0.377945
1920.06, 0.377791
1920.77, 0.377713
1921.48, 0.378255
1922.19, 0.378565
1922.91, 0.378797
1923.62, 0.378952
1924.33, 0.379184
1925.05, 0.379107
1925.76, 0.379416
1926.48, 0.379649
1927.19, 0.379803
1927.91, 0.379958
1928.63, 0.380345
1929.35, 0.380113
1930.07, 0.380113
1930.78, 0.380036
1931.5, 0.380191
1932.22, 0.380578
1932.94, 0.380732
1933.66, 0.380423
1934.39, 0.380732
1935.11, 0.381197
1935.83, 0.381352
1936.55, 0.381429
1937.28, 0.381816
1938.0, 0.381739
1938.73, 0.381584
1939.45, 0.381584
1940.18, 0.381816
1940.9, 0.381429
1941.63, 0.381352
1942.36, 0.381429
1943.09, 0.381739
1943.81, 0.381816
1944.54, 0.381894
1945.27, 0.381971
1946.0, 0.382049
1946.73, 0.382049
1947.47, 0.382358
1948.2, 0.382436
1948.93, 0.382281
1949.66, 0.381971
1950.4, 0.382203
1951.13, 0.382281
1951.86, 0.382358
1952.6, 0.382203
1953.34, 0.382281
1954.07, 0.382513
1954.81, 0.382823
1955.55, 0.382668
1956.29, 0.382900
1957.02, 0.383055
1957.76, 0.383287
1958.5, 0.383132
1959.24, 0.382823
1959.98, 0.382823
1960.72, 0.383132
1961.47, 0.383055
1962.21, 0.383055
1962.95, 0.383132
1963.7, 0.383365
1964.44, 0.383210
1965.18, 0.383210
1965.93, 0.383132
1966.67, 0.383287
1967.42, 0.383210
1968.17, 0.383442
1968.92, 0.383287
1969.66, 0.383597
1970.41, 0.383597
1971.16, 0.383519
1971.91, 0.383519
1972.66, 0.383597
1973.41, 0.383442
1974.16, 0.383674
1974.92, 0.383597
1975.67, 0.383365
1976.42, 0.383132
1977.18, 0.383442
1977.93, 0.383519
1978.69, 0.383519
1979.44, 0.383365
1980.2, 0.383442
1980.95, 0.383365
1981.71, 0.383674
1982.47, 0.383519
1983.23, 0.383365
1983.99, 0.383365
1984.74, 0.383674
1985.51, 0.383674
1986.27, 0.383442
1987.03, 0.383365
1987.79, 0.383597
1988.55, 0.383519
1989.32, 0.383442
1990.08, 0.383442
1990.84, 0.383674
1991.61, 0.383597
1992.37, 0.383752
1993.14, 0.383519
1993.9, 0.383674
1994.67, 0.383674
1995.44, 0.383674
1996.21, 0.383907
1996.98, 0.384139
1997.75, 0.383984
1998.52, 0.383984
1999.29, 0.383829
2000.06, 0.383674
2000.83, 0.383752
2001.6, 0.384061
2002.38, 0.384139
2003.15, 0.384216
2003.93, 0.384139
2004.7, 0.384294
2005.48, 0.384371
2006.25, 0.384603
2007.03, 0.384603
2007.81, 0.384603
2008.58, 0.384371
2009.36, 0.384526
2010.14, 0.384681
2010.92, 0.384913
2011.7, 0.384836
2012.48, 0.384913
2013.26, 0.384836
2014.05, 0.385068
2014.83, 0.385300
2015.61, 0.385377
2016.4, 0.385300
2017.18, 0.385455
2017.97, 0.385455
2018.75, 0.385532
2019.54, 0.385842
2020.32, 0.386074
2021.11, 0.385919
2021.9, 0.385997
2022.69, 0.386152
2023.48, 0.386539
2024.27, 0.386384
2025.06, 0.386306
2025.85, 0.386229
2026.64, 0.386461
2027.44, 0.386616
2028.23, 0.386771
2029.02, 0.386848
2029.82, 0.386926
2030.61, 0.386848
2031.41, 0.386926
2032.2, 0.387003
2033.0, 0.387390
2033.8, 0.387622
2034.6, 0.387855
2035.4, 0.387622
2036.2, 0.387545
2037.0, 0.387390
2037.8, 0.387700
2038.6, 0.387932
2039.4, 0.388087
2040.2, 0.388010
2041.01, 0.388010
2041.81, 0.387855
2042.61, 0.388319
2043.42, 0.388242
2044.22, 0.388397
2045.03, 0.388474
2045.84, 0.388629
2046.65, 0.388474
2047.46, 0.388551
2048.26, 0.388474
2049.07, 0.388861
2049.88, 0.389093
2050.69, 0.389326
2051.51, 0.389248
2052.32, 0.389171
2053.13, 0.389093
2053.94, 0.389171
2054.76, 0.389093
2055.57, 0.389403
2056.39, 0.389480
2057.2, 0.389558
2058.02, 0.389403
2058.84, 0.389558
2059.66, 0.389790
2060.48, 0.389558
2061.29, 0.389403
2062.11, 0.389558
2062.94, 0.389403
2063.76, 0.389480
2064.58, 0.389480
2065.4, 0.389635
2066.22, 0.389171
2067.05, 0.389248
2067.87, 0.389558
2068.7, 0.389635
2069.52, 0.389326
2070.35, 0.389403
2071.18, 0.389326
2072.0, 0.389558
2072.83, 0.389558
2073.66, 0.389403
2074.49, 0.389171
2075.32, 0.389093
2076.15, 0.389093
2076.98, 0.389248
2077.82, 0.389093
2078.65, 0.389248
2079.48, 0.389093
2080.32, 0.389171
2081.15, 0.388861
2081.99, 0.388706
2082.83, 0.388551
2083.66, 0.388784
2084.5, 0.388784
2085.34, 0.388629
2086.18, 0.388706
2087.02, 0.388784
2087.86, 0.388242
2088.7, 0.388087
2089.54, 0.388164
2090.39, 0.388319
2091.23, 0.388242
2092.07, 0.388551
2092.92, 0.388397
2093.76, 0.388087
2094.61, 0.387932
2095.45, 0.388242
2096.3, 0.388242
2097.15, 0.388087
2098.0, 0.387700
2098.85, 0.387700
2099.7, 0.387777
2100.55, 0.387700
2101.4, 0.387468
2102.25, 0.387622
2103.1, 0.387777
2103.96, 0.387855
2104.81, 0.387545
2105.67, 0.387700
2106.52, 0.387468
2107.38, 0.387390
2108.24, 0.387390
2109.09, 0.387622
2109.95, 0.387700
2110.81, 0.387545
2111.67, 0.387158
2112.53, 0.387158
2113.39, 0.387235
2114.25, 0.387468
2115.12, 0.387390
2115.98, 0.387390
2116.84, 0.387081
2117.71, 0.387158
2118.58, 0.387081
2119.44, 0.387158
2120.31, 0.387313
2121.18, 0.387390
2122.04, 0.387313
2122.91, 0.387468
2123.78, 0.387468
2124.65, 0.387468
2125.52, 0.387468
2126.4, 0.387622
2127.27, 0.387468
2128.14, 0.387468
2129.02, 0.387622
2129.89, 0.387855
2130.77, 0.387855
2131.64, 0.387700
2132.52, 0.387468
2133.4, 0.387700
2134.27, 0.387700
2135.15, 0.387855
2136.03, 0.387777
2136.91, 0.387777
2137.79, 0.387777
2138.68, 0.387932
2139.56, 0.388010
2140.44, 0.388164
2141.33, 0.388087
2142.21, 0.388164
2143.1, 0.388087
2143.99, 0.388319
2144.87, 0.388319
2145.76, 0.388474
2146.65, 0.388397
2147.54, 0.388474
2148.43, 0.388474
2149.32, 0.388164
2150.21, 0.388164
2151.1, 0.388551
2151.99, 0.388397
2152.89, 0.388242
2153.78, 0.388010
2154.68, 0.388319
2155.57, 0.388474
2156.47, 0.388397
2157.37, 0.388242
2158.27, 0.388474
2159.16, 0.388319
2160.06, 0.388242
2160.96, 0.388010
2161.86, 0.388087
2162.77, 0.387932
2163.67, 0.388010
2164.57, 0.387932
2165.48, 0.387855
2166.38, 0.387468
2167.29, 0.387313
2168.2, 0.387545
2169.1, 0.387622
2170.01, 0.387081
2170.92, 0.387081
2171.83, 0.386926
2172.74, 0.387003
2173.65, 0.386539
2174.56, 0.386384
2175.47, 0.386074
2176.39, 0.385842
2177.3, 0.385455
2178.22, 0.385223
2179.13, 0.384913
2180.05, 0.384603
2180.96, 0.384216
2181.88, 0.383984
2182.8, 0.383442
2183.72, 0.383210
2184.64, 0.382668
2185.56, 0.382358
2186.48, 0.382049
2187.41, 0.381584
2188.33, 0.380810
2189.25, 0.380345
2190.18, 0.379726
2191.1, 0.379416
2192.03, 0.378874
2192.96, 0.378410
2193.89, 0.377868
2194.82, 0.377326
2195.74, 0.376939
2196.68, 0.376862
2197.61, 0.376397
2198.54, 0.376010
2199.47, 0.375623
2200.4, 0.375313
2201.34, 0.374694
2202.28, 0.374384
2203.21, 0.374075
2204.15, 0.373920
2205.08, 0.373455
2206.02, 0.373378
2206.96, 0.373146
2207.9, 0.372759
2208.84, 0.372139
2209.78, 0.371597
2210.73, 0.371055
2211.67, 0.370978
2212.61, 0.370668
2213.56, 0.370204
2214.5, 0.369585
2215.45, 0.369352
2216.4, 0.369120
2217.35, 0.368965
2218.3, 0.368191
2219.24, 0.367959
2220.2, 0.367727
2221.15, 0.367727
2222.1, 0.367262
2223.05, 0.367107
2224.0, 0.367030
2224.96, 0.366798
2225.91, 0.366488
2226.87, 0.366643
2227.83, 0.366488
2228.79, 0.366333
2229.74, 0.366178
2230.7, 0.366410
2231.66, 0.366178
2232.63, 0.365791
2233.59, 0.365481
2234.55, 0.365327
2235.51, 0.365094
2236.48, 0.365094
2237.44, 0.364398
2238.41, 0.363778
2239.38, 0.363159
2240.34, 0.362927
2241.31, 0.362385
2242.28, 0.361766
2243.25, 0.360836
2244.22, 0.360140
2245.19, 0.359520
2246.17, 0.358746
2247.14, 0.358050
2248.12, 0.357895
2249.09, 0.357508
2250.07, 0.357120
2251.04, 0.356656
2252.02, 0.356579
2253.0, 0.356579
2253.98, 0.356888
2254.96, 0.357198
2255.94, 0.357895
2256.92, 0.358282
2257.91, 0.358669
2258.89, 0.359211
2259.88, 0.359675
2260.86, 0.360217
2261.85, 0.360991
2262.83, 0.361456
2263.82, 0.362075
2264.81, 0.362385
2265.8, 0.362695
2266.79, 0.363082
2267.78, 0.363469
2268.78, 0.363469
2269.77, 0.363235
2270.76, 0.363469
2271.76, 0.363585
2272.75, 0.363294
2273.75, 0.363235
2274.75, 0.363585
2275.75, 0.364052
2276.75, 0.363585
2277.75, 0.363294
2278.75, 0.363410
2279.75, 0.363585
2280.75, 0.363702
2281.76, 0.363527
2282.76, 0.363002
2283.77, 0.362302
2284.77, 0.361368
2285.78, 0.360960
2286.79, 0.360259
2287.8, 0.359734
2288.81, 0.358917
2289.82, 0.358042
2290.83, 0.357167
2291.84, 0.356116
2292.86, 0.354949
2293.87, 0.354132
2294.89, 0.352907
2295.91, 0.351857
2296.92, 0.350982
2297.94, 0.350340
2298.96, 0.349406
2299.98, 0.348239
2301.0, 0.347072
2302.02, 0.345905
2303.04, 0.344855
2304.07, 0.343921
2305.09, 0.342929
2306.12, 0.341937
2307.15, 0.341062
2308.17, 0.339836
2309.2, 0.338494
2310.23, 0.337211
2311.26, 0.335869
2312.29, 0.334935
2313.32, 0.334235
2314.35, 0.333126
2315.39, 0.332251
2316.42, 0.331726
2317.46, 0.330792
2318.5, 0.329683
2319.53, 0.328458
2320.57, 0.327349
2321.61, 0.326532
2322.65, 0.325891
2323.69, 0.324840
2324.73, 0.323615
2325.78, 0.322331
2326.82, 0.321573
2327.86, 0.320931
2328.91, 0.320522
2329.96, 0.320172
2331.01, 0.319355
2332.05, 0.318713
2333.1, 0.318072
2334.15, 0.317255
2335.21, 0.316321
2336.26, 0.316146
2337.31, 0.316029
2338.36, 0.315796
2339.42, 0.315387
2340.48, 0.315154
2341.53, 0.315154
2342.59, 0.315154
2343.65, 0.315504
2344.71, 0.315446
2345.77, 0.315679
2346.83, 0.315971
2347.9, 0.316204
2348.96, 0.316846
2350.02, 0.317546
2351.09, 0.317896
2352.16, 0.318888
2353.23, 0.319880
2354.29, 0.320289
2355.36, 0.320989
2356.43, 0.322390
2357.51, 0.323557
2358.58, 0.324257
2359.65, 0.325015
2360.73, 0.326474
2361.8, 0.327874
2362.88, 0.328983
2363.96, 0.330034
2365.03, 0.330967
2366.11, 0.332017
2367.19, 0.333184
2368.27, 0.333535
2369.36, 0.334235
2370.44, 0.334935
2371.53, 0.335635
2372.61, 0.336219
2373.7, 0.336627
2374.78, 0.336977
2375.87, 0.337502
2376.96, 0.337736
2378.05, 0.337911
2379.14, 0.338261
2380.24, 0.338436
2381.33, 0.338494
2382.42, 0.338611
2383.52, 0.338611
2384.61, 0.338903
2385.71, 0.339020
2386.81, 0.339136
2387.91, 0.339370
2389.01, 0.339486
2390.11, 0.339603
2391.22, 0.339836
2392.32, 0.340128
2393.42, 0.340653
2394.53, 0.341003
2395.64, 0.341412
2396.74, 0.341762
2397.85, 0.341995
2398.96, 0.342346
2400.07, 0.342987
2401.18, 0.343396
2402.3, 0.343454
2403.41, 0.343338
2404.52, 0.343921
2405.64, 0.344505
2406.76, 0.344796
2407.88, 0.345030
2408.99, 0.345205
2410.11, 0.345205
2411.23, 0.345613
2412.36, 0.345672
2413.48, 0.346197
2414.6, 0.346664
2415.73, 0.346722
2416.85, 0.346664
2417.98, 0.346722
2419.11, 0.346897
2420.24, 0.346955
2421.37, 0.346780
2422.5, 0.347189
2423.64, 0.347305
2424.77, 0.347189
2425.9, 0.347014
2427.04, 0.347072
2428.18, 0.347130
2429.31, 0.347130
2430.45, 0.346664
2431.59, 0.346430
2432.73, 0.346313
2433.88, 0.346313
2435.02, 0.345963
2436.16, 0.346022
2437.31, 0.345788
2438.45, 0.345788
2439.6, 0.345613
2440.75, 0.345205
2441.9, 0.345263
2443.05, 0.345438
2444.2, 0.345497
2445.35, 0.345497
2446.51, 0.345205
2447.67, 0.344738
2448.82, 0.344563
2449.98, 0.344621
2451.14, 0.344621
2452.3, 0.344913
2453.46, 0.344796
2454.62, 0.344505
2455.78, 0.344330
2456.94, 0.344680
2458.11, 0.344621
2459.28, 0.344446
2460.44, 0.344388
2461.61, 0.344271
2462.78, 0.344213
2463.95, 0.344330
2465.12, 0.344388
2466.3, 0.344563
2467.47, 0.344446
2468.65, 0.344505
2469.82, 0.344680
2471.0, 0.344680
2472.18, 0.344446
2473.36, 0.344213
2474.54, 0.344038
2475.72, 0.344330
2476.9, 0.344563
2478.08, 0.344388
2479.27, 0.344213
2480.46, 0.344446
2481.64, 0.344271
2482.83, 0.344271
2484.02, 0.344446
2485.21, 0.344563
2486.4, 0.344796
2487.6, 0.344796
2488.79, 0.344505
2489.99, 0.344621
2491.18, 0.344680
2492.38, 0.344855
2493.58, 0.344621
2494.78, 0.344154
2495.98, 0.344213
2497.18, 0.344505
2498.39, 0.344271
2499.59, 0.344271
2500.8, 0.344213
2502.01, 0.344213
2503.21, 0.344330
2504.42, 0.344330
2505.63, 0.344096
2506.84, 0.344271
2508.06, 0.344388
2509.27, 0.344096
2510.49, 0.343921
2511.7, 0.343921
2512.92, 0.343688
2514.14, 0.343804
2515.36, 0.343513
2516.58, 0.343221
2517.8, 0.343338
2519.03, 0.343454
2520.25, 0.343396
2521.48, 0.343454
2522.7, 0.343162
2523.93, 0.343279
2525.16, 0.343338
2526.39, 0.343221
2527.62, 0.342987
2528.86, 0.342871
2530.09, 0.342871
2531.33, 0.342754
2532.56, 0.342346
2533.8, 0.342404
2535.04, 0.342229
2536.28, 0.342229
2537.52, 0.342871
2538.76, 0.343279
2540.01, 0.343162
2541.25, 0.342812
2542.5, 0.342229
2543.75, 0.342521
2544.99, 0.343104
2546.24, 0.343046
2547.49, 0.342404
2548.75, 0.342462
2550.0, 0.342462
2551.26, 0.342229
2552.51, 0.341704
2553.77, 0.342346
2555.03, 0.343279
2556.29, 0.343396
2557.55, 0.343221
2558.81, 0.342521
2560.08, 0.340653
2561.34, 0.338961
2562.61, 0.338786
2563.88, 0.339545
2565.14, 0.340945
2566.41, 0.342579
2567.68, 0.342171
2568.96, 0.340420
2570.23, 0.340245
2571.51, 0.341237
2572.78, 0.338903
2574.06, 0.338903
2575.34, 0.340303
2576.62, 0.339661
2577.9, 0.340712
2579.18, 0.341645
2580.47, 0.340537
2581.75, 0.339953
2583.04, 0.337736
2584.32, 0.337444
2585.61, 0.339486
2586.9, 0.338903
2588.2, 0.339311
2589.49, 0.340595
2590.78, 0.341470
2592.08, 0.340478
2593.37, 0.335227
2594.67, 0.330267
2595.97, 0.334060
2597.27, 0.339311
2598.57, 0.341354
2599.88, 0.341062
2601.18, 0.340012
2602.49, 0.339195
2603.79, 0.337619
2605.1, 0.335343
2606.41, 0.336102
2607.72, 0.337969
2609.03, 0.338378
2610.35, 0.339195
2611.66, 0.339836
2612.98, 0.339370
2614.3, 0.339253
2615.62, 0.336861
2616.94, 0.335110
2618.26, 0.337094
2619.58, 0.335869
2620.91, 0.335869
2622.23, 0.338903
2623.56, 0.339720
2624.89, 0.338553
2626.22, 0.335752
2627.55, 0.336452
2628.88, 0.336160
2630.21, 0.333535
2631.55, 0.335460
2632.89, 0.337036
2634.22, 0.336977
2635.56, 0.337911
2636.9, 0.338203
2638.25, 0.338028
2639.59, 0.337619
2640.93, 0.337094
2642.28, 0.336802
2643.63, 0.336627
2644.98, 0.335460
2646.33, 0.335343
2647.68, 0.336160
2649.03, 0.336044
2650.39, 0.335227
2651.74, 0.333359
2653.1, 0.332659
2654.46, 0.332951
2655.82, 0.332601
2657.18, 0.332834
2658.54, 0.331726
2659.9, 0.330500
2661.27, 0.330209
2662.64, 0.329508
2664.01, 0.325599
2665.38, 0.321573
2666.74, 0.320172
2668.12, 0.320814
2669.49, 0.316146
2670.87, 0.312587
2672.24, 0.315679
2673.62, 0.314746
2675.0, 0.310369
2676.38, 0.305293
2677.76, 0.302492
2679.15, 0.298932
2680.54, 0.295665
2681.92, 0.289771
2683.31, 0.281719
2684.7, 0.273608
2686.09, 0.264680
2687.48, 0.255403
2688.88, 0.246592
2690.27, 0.237956
2691.67, 0.229086
2693.07, 0.219283
2694.47, 0.211931
2695.87, 0.206913
2697.27, 0.202536
2698.67, 0.198335
2700.08, 0.194601
2701.49, 0.191683
2702.9, 0.190399
2704.31, 0.188824
2705.72, 0.186957
2707.13, 0.184331
2708.54, 0.180480
2709.96, 0.175812
2711.38, 0.172894
2712.8, 0.171494
2714.22, 0.168810
2715.64, 0.165133
2717.06, 0.161107
2718.49, 0.156381
2719.91, 0.150196
2721.34, 0.146403
2722.77, 0.143427
2724.2, 0.138875
2725.63, 0.136075
2727.07, 0.133332
2728.5, 0.129423
2729.94, 0.124813
2731.38, 0.120845
2732.82, 0.117986
2734.26, 0.115944
2735.7, 0.114893
2737.15, 0.113668
2738.59, 0.110050
2740.04, 0.106374
2741.49, 0.104448
2742.94, 0.103515
2744.39, 0.102231
2745.84, 0.101531
2747.3, 0.101239
2748.76, 0.100772
2750.21, 0.0995470
2751.67, 0.0976800
2753.14, 0.0954620
2754.6, 0.0928950
2756.06, 0.0921360
2757.53, 0.0933620
2759.0, 0.0941200
2760.46, 0.0944120
2761.94, 0.0938870
2763.41, 0.0934780
2764.88, 0.0932450
2766.36, 0.0926030
2767.83, 0.0920200
2769.31, 0.0925450
2770.79, 0.0936530
2772.27, 0.0949370
2773.76, 0.0958120
2775.24, 0.0964540
2776.73, 0.0969210
2778.22, 0.0976800
2779.71, 0.0982630
2781.2, 0.0989050
2782.69, 0.100014
2784.18, 0.101356
2785.68, 0.101881
2787.18, 0.102931
2788.68, 0.104682
2790.18, 0.106374
2791.68, 0.107774
2793.19, 0.109525
2794.69, 0.111100
2796.2, 0.112501
2797.71, 0.113901
2799.22, 0.115418
2800.73, 0.116527
2802.24, 0.117461
2803.76, 0.119036
2805.28, 0.121195
2806.8, 0.123179
2808.32, 0.124871
2809.84, 0.126563
2811.36, 0.128431
2812.89, 0.129831
2814.42, 0.130823
2815.94, 0.131698
2817.48, 0.132632
2819.01, 0.133507
2820.54, 0.134441
2822.08, 0.135549
2823.61, 0.136541
2825.15, 0.137067
2826.69, 0.137592
2828.23, 0.138117
2829.78, 0.138584
2831.32, 0.138934
2832.87, 0.139109
2834.42, 0.139167
2835.97, 0.139167
2837.52, 0.139226
2839.08, 0.139401
2840.63, 0.139226
2842.19, 0.139109
2843.75, 0.138875
2845.31, 0.138409
2846.87, 0.138059
2848.44, 0.137767
2850.0, 0.137767
2851.57, 0.137708
2853.14, 0.137242
2854.71, 0.137008
2856.28, 0.137067
2857.86, 0.137125
2859.43, 0.136775
2861.01, 0.136366
2862.59, 0.136016
2864.17, 0.136075
2865.76, 0.135900
2867.34, 0.135783
2868.93, 0.135841
2870.52, 0.135783
2872.11, 0.135608
2873.7, 0.135725
2875.29, 0.135783
2876.89, 0.136016
2878.49, 0.136191
2880.08, 0.136075
2881.69, 0.135958
2883.29, 0.136250
2884.89, 0.136425
2886.5, 0.136600
2888.11, 0.136658
2889.72, 0.136775
2891.33, 0.136833
2892.94, 0.137008
2894.56, 0.137008
2896.17, 0.137125
2897.79, 0.137242
2899.42, 0.137183
2901.04, 0.137125
2902.66, 0.137417
2904.29, 0.137592
2905.92, 0.137708
2907.55, 0.137942
2909.18, 0.138175
2910.81, 0.138350
2912.45, 0.138467
2914.08, 0.138584
2915.72, 0.138759
2917.36, 0.138642
2919.01, 0.138525
2920.65, 0.138350
2922.3, 0.138350
2923.94, 0.138525
2925.59, 0.138700
2927.25, 0.138875
2928.9, 0.138934
2930.56, 0.138875
2932.21, 0.138817
2933.87, 0.138525
2935.53, 0.138584
2937.2, 0.138875
2938.86, 0.138992
2940.53, 0.138992
2942.2, 0.138875
2943.87, 0.138934
2945.54, 0.139109
2947.22, 0.139342
2948.89, 0.139634
2950.57, 0.139809
2952.25, 0.139867
2953.93, 0.139984
2955.62, 0.140393
2957.3, 0.140626
2958.99, 0.140918
2960.68, 0.141268
2962.37, 0.141735
2964.07, 0.142143
2965.76, 0.142668
2967.46, 0.143135
2969.16, 0.143602
2970.86, 0.144010
2972.56, 0.144711
2974.27, 0.145236
2975.98, 0.146053
2977.69, 0.146753
2979.4, 0.147336
2981.11, 0.147803
2982.83, 0.148620
2984.54, 0.149379
2986.26, 0.149904
2987.98, 0.150429
2989.71, 0.151129
2991.43, 0.151888
2993.16, 0.152821
2994.89, 0.153463
2996.62, 0.154105
2998.35, 0.154864
3000.09, 0.155681
3001.83, 0.156264
3003.57, 0.157023
3005.31, 0.157606
3007.05, 0.158306
3008.79, 0.159123
3010.54, 0.159940
3012.29, 0.160757
3014.04, 0.161574
3015.8, 0.162216
3017.55, 0.162858
3019.31, 0.163441
3021.07, 0.164025
3022.83, 0.164608
3024.59, 0.165309
3026.36, 0.165950
3028.13, 0.166651
3029.9, 0.167409
3031.67, 0.167993
3033.44, 0.168459
3035.22, 0.169043
3037.0, 0.169510
3038.78, 0.170210
3040.56, 0.170793
3042.34, 0.171435
3044.13, 0.172019
3045.92, 0.172661
3047.71, 0.173244
3049.5, 0.173769
3051.3, 0.174295
3053.09, 0.174878
3054.89, 0.175462
3056.69, 0.176162
3058.5, 0.176804
3060.3, 0.177387
3062.11, 0.177912
3063.92, 0.178554
3065.73, 0.179196
3067.55, 0.179721
3069.36, 0.180130
3071.18, 0.180888
3073.0, 0.181530
3074.82, 0.182347
3076.65, 0.183047
3078.48, 0.183631
3080.31, 0.184273
3082.14, 0.184914
3083.97, 0.185615
3085.8, 0.186373
3087.64, 0.187132
3089.48, 0.187774
3091.33, 0.188416
3093.17, 0.189232
3095.02, 0.189991
3096.87, 0.190633
3098.72, 0.191333
3100.57, 0.192033
3102.43, 0.192850
3104.28, 0.193842
3106.14, 0.194659
3108.01, 0.195418
3109.87, 0.196118
3111.74, 0.196876
3113.61, 0.197868
3115.48, 0.198919
3117.35, 0.199911
3119.23, 0.200786
3121.1, 0.201603
3122.98, 0.202536
3124.87, 0.203353
3126.75, 0.204112
3128.64, 0.204987
3130.53, 0.206096
3132.42, 0.207030
3134.31, 0.207963
3136.21, 0.208722
3138.11, 0.209422
3140.01, 0.210356
3141.91, 0.211231
3143.82, 0.211873
3145.73, 0.212573
3147.64, 0.213390
3149.55, 0.214265
3151.46, 0.214849
3153.38, 0.215490
3155.3, 0.216191
3157.22, 0.217066
3159.14, 0.217883
3161.07, 0.218525
3163.0, 0.219167
3164.93, 0.219925
3166.86, 0.220684
3168.8, 0.221384
3170.74, 0.221909
3172.68, 0.222726
3174.62, 0.223601
3176.56, 0.224418
3178.51, 0.225060
3180.46, 0.225760
3182.42, 0.226577
3184.37, 0.227394
3186.33, 0.228153
3188.29, 0.228911
3190.25, 0.229670
3192.21, 0.230487
3194.18, 0.231362
3196.15, 0.232237
3198.12, 0.232937
3200.09, 0.233813
3202.07, 0.234688
3204.05, 0.235505
3206.03, 0.236263
3208.02, 0.237022
3210.0, 0.237722
3211.99, 0.238656
3213.98, 0.239531
3215.98, 0.240406
3217.97, 0.241107
3219.97, 0.241748
3221.97, 0.242565
3223.98, 0.243324
3225.98, 0.244082
3227.99, 0.244841
3230.0, 0.245600
3232.02, 0.246300
3234.03, 0.247000
3236.05, 0.247700
3238.07, 0.248400
3240.1, 0.249101
3242.12, 0.249801
3244.15, 0.250501
3246.18, 0.251085
3248.22, 0.251668
3250.25, 0.252135
3252.29, 0.252835
3254.33, 0.253477
3256.38, 0.254177
3258.43, 0.254761
3260.47, 0.255344
3262.53, 0.255811
3264.58, 0.256453
3266.64, 0.257153
3268.7, 0.257853
3270.76, 0.258378
3272.82, 0.259079
3274.89, 0.259720
3276.96, 0.260421
3279.04, 0.261121
3281.11, 0.261704
3283.19, 0.262346
3285.27, 0.262988
3287.35, 0.263572
3289.44, 0.264330
3291.53, 0.265089
3293.62, 0.265672
3295.71, 0.266256
3297.81, 0.266781
3299.91, 0.267423
3302.01, 0.268181
3304.11, 0.268765
3306.22, 0.269232
3308.33, 0.269699
3310.44, 0.270282
3312.56, 0.270807
3314.68, 0.271216
3316.8, 0.271682
3318.92, 0.272091
3321.05, 0.272499
3323.18, 0.272966
3325.31, 0.273258
3327.44, 0.273666
3329.58, 0.274133
3331.72, 0.274542
3333.86, 0.275067
3336.01, 0.275592
3338.16, 0.275825
3340.31, 0.275942
3342.46, 0.276292
3344.61, 0.276642
3346.77, 0.276934
3348.94, 0.277284
3351.1, 0.277693
3353.27, 0.278043
3355.44, 0.278218
3357.61, 0.278626
3359.79, 0.279035
3361.97, 0.279443
3364.15, 0.279735
3366.33, 0.280027
3368.52, 0.280377
3370.71, 0.280844
3372.9, 0.281135
3375.1, 0.281485
3377.3, 0.281894
3379.5, 0.282244
3381.71, 0.282652
3383.91, 0.283178
3386.12, 0.283644
3388.34, 0.284111
3390.55, 0.284520
3392.77, 0.284811
3394.99, 0.285162
3397.22, 0.285512
3399.45, 0.285687
3401.68, 0.285920
3403.91, 0.286270
3406.15, 0.286620
3408.39, 0.287029
3410.63, 0.287321
3412.87, 0.287671
3415.12, 0.288079
3417.37, 0.288429
3419.63, 0.289013
3421.88, 0.289830
3424.14, 0.290471
3426.41, 0.290997
3428.67, 0.291639
3430.94, 0.292280
3433.21, 0.292922
3435.49, 0.293506
3437.77, 0.294148
3440.05, 0.294614
3442.33, 0.295023
3444.62, 0.295665
3446.91, 0.296423
3449.2, 0.296890
3451.5, 0.297299
3453.8, 0.297765
3456.1, 0.298174
3458.41, 0.298582
3460.72, 0.299049
3463.03, 0.299399
3465.34, 0.299808
3467.66, 0.300216
3469.98, 0.300625
3472.31, 0.300741
3474.63, 0.300916
3476.96, 0.301266
3479.3, 0.301617
3481.64, 0.301967
3483.97, 0.302375
3486.32, 0.302609
3488.66, 0.303017
3491.01, 0.303484
3493.36, 0.303834
3495.72, 0.304126
3498.08, 0.304592
3500.44, 0.304943
3502.81, 0.305468
3505.18, 0.305935
3507.55, 0.306285
3509.92, 0.306868
3512.3, 0.307510
3514.68, 0.307977
3517.06, 0.308560
3519.45, 0.309144
3521.84, 0.309844
3524.24, 0.310428
3526.64, 0.311011
3529.04, 0.311478
3531.44, 0.312003
3533.85, 0.312411
3536.26, 0.312703
3538.67, 0.313112
3541.09, 0.313578
3543.51, 0.313929
3545.93, 0.314220
3548.36, 0.314454
3550.79, 0.314804
3553.22, 0.315096
3555.66, 0.315446
3558.1, 0.315679
3560.54, 0.316088
3562.99, 0.316379
3565.44, 0.316613
3567.9, 0.316788
3570.35, 0.317138
3572.81, 0.317430
3575.28, 0.317780
3577.75, 0.318013
3580.22, 0.318305
3582.69, 0.318538
3585.17, 0.318830
3587.65, 0.319005
3590.14, 0.319180
3592.62, 0.319472
3595.11, 0.319764
3597.61, 0.319939
3600.11, 0.320289
3602.61, 0.320522
3605.11, 0.320756
3607.62, 0.320989
3610.14, 0.321222
3612.65, 0.321339
3615.17, 0.321398
3617.69, 0.321631
3620.22, 0.321981
3622.75, 0.322214
3625.28, 0.322448
3627.82, 0.322565
3630.36, 0.322681
3632.9, 0.322798
3635.45, 0.322973
3638.0, 0.323148
3640.56, 0.323265
3643.12, 0.323323
3645.68, 0.323498
3648.24, 0.323557
3650.81, 0.323673
3653.39, 0.323732
3655.96, 0.323790
3658.54, 0.323848
3661.13, 0.323848
3663.71, 0.323848
3666.3, 0.323907
3668.9, 0.323907
3671.5, 0.324082
3674.1, 0.324140
3676.7, 0.324198
3679.31, 0.324373
3681.93, 0.324432
3684.54, 0.324373
3687.17, 0.324490
3689.79, 0.324549
3692.42, 0.324724
3695.05, 0.324782
3697.69, 0.324840
3700.32, 0.324957
3702.97, 0.324957
3705.61, 0.324957
3708.27, 0.325249
3710.92, 0.325365
3713.58, 0.325424
3716.24, 0.325365
3718.91, 0.325540
3721.58, 0.325716
3724.25, 0.326007
3726.93, 0.326182
3729.61, 0.326357
3732.29, 0.326357
3734.98, 0.326591
3737.67, 0.326824
3740.37, 0.326941
3743.07, 0.327058
3745.78, 0.327291
3748.49, 0.327524
3751.2, 0.327758
3753.91, 0.328050
3756.63, 0.328225
3759.36, 0.328283
3762.09, 0.328458
3764.82, 0.328633
3767.55, 0.328691
3770.29, 0.328808
3773.04, 0.329042
3775.78, 0.329158
3778.54, 0.329158
3781.29, 0.329217
3784.05, 0.329275
3786.82, 0.329333
3789.59, 0.329392
3792.36, 0.329217
3795.13, 0.329100
3797.92, 0.328983
3800.7, 0.328866
3803.49, 0.328691
3806.28, 0.328516
3809.08, 0.328458
3811.88, 0.328400
3814.68, 0.328108
3817.49, 0.327933
3820.31, 0.327816
3823.12, 0.327641
3825.94, 0.327466
3828.77, 0.327233
3831.6, 0.326883
3834.43, 0.326766
3837.27, 0.326649
3840.11, 0.326591
3842.96, 0.326474
3845.81, 0.326416
3848.67, 0.326182
3851.53, 0.326066
3854.39, 0.326066
3857.26, 0.326007
3860.13, 0.325891
3863.01, 0.325832
3865.89, 0.325891
3868.77, 0.325832
3871.66, 0.325716
3874.55, 0.325540
3877.45, 0.325424
3880.35, 0.325365
3883.26, 0.325307
3886.17, 0.325365
3889.09, 0.325424
3892.01, 0.325365
3894.93, 0.325190
3897.86, 0.325074
3900.79, 0.325074
3903.73, 0.325015
3906.67, 0.324899
3909.62, 0.324840
3912.57, 0.324665
3915.52, 0.324432
3918.48, 0.324198
3921.45, 0.324082
3924.42, 0.323790
3927.39, 0.323615
3930.37, 0.323498
3933.35, 0.323206
3936.34, 0.322798
3939.33, 0.322506
3942.32, 0.322156
3945.32, 0.321748
3948.33, 0.321281
3951.34, 0.320931
3954.35, 0.320581
3957.37, 0.320172
3960.39, 0.319705
3963.42, 0.319297
3966.45, 0.319005
3969.49, 0.318655
3972.53, 0.318422
3975.58, 0.318188
3978.63, 0.317896
3981.68, 0.317721
3984.75, 0.317488
3987.81, 0.317255
3990.88, 0.317255
3993.95, 0.317371
3997.03, 0.317488
4000.12, 0.317721
4003.21, 0.317896
4006.3, 0.318130
4009.4, 0.318305
4012.5, 0.318480
4015.61, 0.318538
4018.72, 0.318655
4021.84, 0.318655
4024.96, 0.318830
4028.09, 0.318888
4031.22, 0.318947
4034.36, 0.319005
4037.5, 0.319180
4040.65, 0.319239
4043.8, 0.319355
4046.96, 0.319355
4050.12, 0.319472
4053.29, 0.319355
4056.46, 0.319297
4059.64, 0.319239
4062.82, 0.319180
4066.0, 0.319122
4069.19, 0.319063
4072.39, 0.318772
4075.59, 0.318480
4078.8, 0.318305
4082.01, 0.318247
4085.23, 0.318013
4088.45, 0.317896
4091.68, 0.317663
4094.91, 0.317430
4098.15, 0.317196
4101.39, 0.316905
4104.63, 0.316496
4107.89, 0.316263
4111.14, 0.316029
4114.41, 0.315854
4117.67, 0.315562
4120.95, 0.315212
4124.23, 0.314921
4127.51, 0.314804
4130.8, 0.314454
4134.09, 0.314162
4137.39, 0.313812
4140.7, 0.313462
4144.01, 0.313170
4147.32, 0.312937
4150.64, 0.312703
4153.97, 0.312470
4157.3, 0.312003
4160.64, 0.311595
4163.98, 0.311244
4167.33, 0.310953
4170.68, 0.310603
4174.04, 0.310369
4177.4, 0.309961
4180.77, 0.309552
4184.14, 0.309085
4187.52, 0.308560
4190.91, 0.307977
4194.3, 0.307627
4197.69, 0.307393
4201.1, 0.306985
4204.5, 0.306518
4207.92, 0.305935
4211.34, 0.305176
4214.76, 0.304534
4218.19, 0.303775
4221.62, 0.303075
4225.06, 0.302492
4228.51, 0.301967
4231.96, 0.301441
4235.42, 0.301033
4238.88, 0.300683
4242.35, 0.300566
4245.83, 0.300449
4249.31, 0.300274
4252.79, 0.300099
4256.28, 0.299808
4259.78, 0.298991
4263.29, 0.298057
4266.79, 0.297240
4270.31, 0.296540
4273.83, 0.296015
4277.35, 0.295431
4280.89, 0.294789
4284.42, 0.294206
4287.97, 0.293681
4291.52, 0.293214
4295.07, 0.292747
4298.63, 0.292339
4302.2, 0.291930
4305.78, 0.291639
4309.35, 0.291230
4312.94, 0.290705
4316.53, 0.290121
4320.13, 0.289713
4323.73, 0.289129
4327.34, 0.288546
4330.96, 0.287846
4334.58, 0.287204
4338.21, 0.286445
4341.84, 0.285745
4345.48, 0.284986
4349.12, 0.284228
4352.77, 0.283353
4356.43, 0.282477
4360.1, 0.281485
4363.76, 0.280552
4367.44, 0.279560
4371.12, 0.278510
4374.81, 0.277459
4378.51, 0.276467
4382.21, 0.275300
4385.92, 0.274192
4389.63, 0.273025
4393.35, 0.272033
4397.08, 0.270982
4400.81, 0.269815
4404.55, 0.268707
4408.29, 0.267715
4412.04, 0.266606
4415.8, 0.265556
4419.57, 0.264564
4423.34, 0.263572
4427.12, 0.262463
4430.9, 0.261354
4434.69, 0.260246
4438.49, 0.259195
4442.29, 0.258262
4446.1, 0.257270
4449.92, 0.255986
4453.74, 0.254819
4457.57, 0.253652
4461.41, 0.252368
4465.25, 0.251260
4469.1, 0.250209
4472.95, 0.249334
4476.82, 0.248459
4480.69, 0.247583
4484.56, 0.246767
4488.44, 0.245891
4492.33, 0.244958
4496.23, 0.244257
4500.13, 0.243674
4504.04, 0.243032
4507.96, 0.242449
4511.88, 0.241923
4515.81, 0.241340
4519.75, 0.240698
4523.69, 0.240056
4527.65, 0.239356
4531.6, 0.238539
4535.57, 0.237605
4539.54, 0.236672
4543.52, 0.235797
4547.5, 0.234921
4551.5, 0.233813
4555.5, 0.232704
4559.5, 0.231420
4563.52, 0.230020
4567.54, 0.228678
4571.56, 0.227394
4575.6, 0.226169
4579.64, 0.224768
4583.69, 0.223368
4587.75, 0.222026
4591.81, 0.220509
4595.88, 0.218933
4599.96, 0.217474
4604.04, 0.215957
4608.14, 0.214440
4612.24, 0.212923
4616.34, 0.211464
4620.46, 0.209947
4624.58, 0.208372
4628.71, 0.206796
4632.84, 0.205337
4636.99, 0.203820
4641.14, 0.202245
4645.3, 0.200669
4649.47, 0.199210
4653.64, 0.197810
4657.82, 0.196585
4662.01, 0.195359
4666.21, 0.194076
4670.41, 0.192850
4674.62, 0.191625
4678.84, 0.190516
4683.07, 0.189466
4687.3, 0.188591
4691.54, 0.187774
4695.79, 0.187015
4700.05, 0.186315
4704.31, 0.185498
4708.59, 0.184681
4712.87, 0.183689
4717.15, 0.182814
4721.45, 0.181763
4725.76, 0.180655
4730.07, 0.179429
4734.39, 0.178379
4738.72, 0.177154
4743.05, 0.175928
4747.39, 0.174703
4751.75, 0.173419
4756.1, 0.172136
4760.47, 0.170793
4764.85, 0.169568
4769.23, 0.168109
4773.62, 0.167059
4778.02, 0.166009
4782.43, 0.165309
4786.85, 0.164550
4791.27, 0.163966
4795.7, 0.163441
4800.14, 0.162974
4804.59, 0.162624
4809.05, 0.162158
4813.51, 0.161516
4817.99, 0.160932
4822.47, 0.160290
4826.96, 0.159648
4831.46, 0.158773
4835.96, 0.157781
4840.48, 0.156614
4845.0, 0.155447
4849.54, 0.154338
4854.08, 0.153055
4858.63, 0.151596
4863.18, 0.150137
4867.75, 0.148737
4872.33, 0.147453
4876.91, 0.145936
4881.5, 0.144477
4886.1, 0.143077
4890.71, 0.141676
4895.33, 0.140276
4899.96, 0.139109
4904.59, 0.137883
4909.24, 0.136950
4913.89, 0.136250
4918.55, 0.135725
4923.22, 0.135258
4927.9, 0.134908
4932.59, 0.134616
4937.29, 0.134207
4942.0, 0.133566
4946.71, 0.132865
4951.44, 0.131990
4956.17, 0.131056
4960.91, 0.130064
4965.67, 0.128956
4970.43, 0.127847
4975.2, 0.126738
4979.98, 0.125805
4984.76, 0.124930
4989.56, 0.124288
4994.37, 0.123763
4999.18, 0.123179
5004.01, 0.122712
5008.84, 0.122362
5013.69, 0.121954
5018.54, 0.121487
5023.4, 0.121078
5028.28, 0.120612
5033.16, 0.120261
5038.05, 0.119795
5042.95, 0.119386
5047.86, 0.118803
5052.78, 0.118278
5057.71, 0.117694
5062.65, 0.117227
5067.6, 0.116702
5072.56, 0.116177
5077.53, 0.115477
5082.5, 0.114835
5087.49, 0.114310
5092.49, 0.113785
5097.5, 0.113201
5102.51, 0.112734
5107.54, 0.112267
5112.58, 0.111684
5117.62, 0.111100
5122.68, 0.110692
5127.75, 0.110283
5132.82, 0.109875
5137.91, 0.109350
5143.01, 0.108708
5148.12, 0.108183
5153.23, 0.107891
5158.36, 0.107483
5163.5, 0.106957
5168.65, 0.106432
5173.81, 0.105965
5178.98, 0.105440
5184.15, 0.104857
5189.34, 0.104390
5194.54, 0.103865
5199.75, 0.103165
5204.98, 0.102639
5210.21, 0.101823
5215.45, 0.101064
5220.7, 0.100597
5225.96, 0.100014
5231.23, 0.0991970
5236.52, 0.0984970
5241.81, 0.0979710
5247.12, 0.0973880
5252.44, 0.0968630
5257.76, 0.0965710
5263.1, 0.0961630
5268.45, 0.0956960
5273.81, 0.0951710
5279.18, 0.0948200
5284.56, 0.0944120
5289.95, 0.0938280
5295.36, 0.0934780
5300.77, 0.0933030
5306.2, 0.0928950
5311.63, 0.0924860
5317.08, 0.0921360
5322.54, 0.0916690
5328.01, 0.0912610
5333.49, 0.0909690
5338.98, 0.0905020
5344.49, 0.0898020
5350.0, 0.0890440
5355.53, 0.0888690
5361.07, 0.0886350
5366.62, 0.0883430
5372.18, 0.0879930
5377.75, 0.0875850
5383.34, 0.0871760
5388.93, 0.0867680
5394.54, 0.0864180
5400.16, 0.0861260
5405.79, 0.0857180
5411.44, 0.0853090
5417.09, 0.0844340
5422.76, 0.0838500
5428.43, 0.0840250
5434.12, 0.0839090
5439.83, 0.0834420
5445.54, 0.0830340
5451.26, 0.0824500
5457.0, 0.0816910
5462.75, 0.0808750
5468.52, 0.0805830
5474.29, 0.0801740
5480.08, 0.0795320
5485.88, 0.0792990
5491.69, 0.0788320
5497.51, 0.0781900
5503.35, 0.0775490
5509.2, 0.0770230
5515.06, 0.0763820
5520.93, 0.0756810
5526.82, 0.0751560
5532.71, 0.0745730
5538.63, 0.0739890
5544.55, 0.0732310
5550.49, 0.0725890
5556.44, 0.0720640
5562.4, 0.0717130
5568.37, 0.0713050
5574.36, 0.0705460
5580.36, 0.0701380
5586.37, 0.0702550
5592.4, 0.0703130
5598.44, 0.0701380
5604.49, 0.0700800
5610.56, 0.0699630
5616.63, 0.0696710
5622.73, 0.0694960
5628.83, 0.0692040
5634.95, 0.0686210
5641.08, 0.0679790
5647.23, 0.0682120
5653.39, 0.0683290
5659.56, 0.0685040
5665.74, 0.0686210
5671.94, 0.0682120
5678.15, 0.0681540
5684.38, 0.0683290
5690.62, 0.0681540
5696.87, 0.0682120
5703.14, 0.0678620
5709.42, 0.0671620
5715.72, 0.0669870
5722.03, 0.0671040
5728.35, 0.0671620
5734.69, 0.0669870
5741.03, 0.0666950
5747.4, 0.0663450
5753.78, 0.0663450
5760.17, 0.0655870
5766.58, 0.0646530
5773.0, 0.0651780
5779.44, 0.0654700
5785.88, 0.0653530
5792.35, 0.0651200
5798.83, 0.0648280
5805.32, 0.0644780
5811.83, 0.0638940
5818.35, 0.0627270
5824.89, 0.0622020
5831.45, 0.0624940
5838.01, 0.0626110
5844.59, 0.0624360
5851.19, 0.0620270
5857.8, 0.0615020
5864.43, 0.0609770
5871.07, 0.0605680
5877.73, 0.0591680
5884.4, 0.0588760
5891.09, 0.0589350
5897.79, 0.0585840
5904.5, 0.0591680
5911.23, 0.0591100
5917.98, 0.0587010
5924.75, 0.0582340
5931.53, 0.0571840
5938.32, 0.0566590
5945.13, 0.0572420
5951.96, 0.0573010
5958.8, 0.0570670
5965.65, 0.0563670
5972.53, 0.0563090
5979.42, 0.0562500
5986.32, 0.0557250
5993.24, 0.0554920
6000.18, 0.0557250
6007.13, 0.0554920
6014.1, 0.0550830
6021.08, 0.0550830
6028.09, 0.0550830
6035.1, 0.0546170
6042.14, 0.0530990
6049.19, 0.0519910
6056.25, 0.0529830
6063.34, 0.0530990
6070.44, 0.0523410
6077.55, 0.0522240
6084.69, 0.0524580
6091.84, 0.0521070
6099.0, 0.0517570
6106.19, 0.0508820
6113.39, 0.0500070
6120.61, 0.0502990
6127.84, 0.0505320
6135.09, 0.0501240
6142.36, 0.0498900
6149.65, 0.0497730
6156.95, 0.0495980
6164.27, 0.0498320
6171.61, 0.0501240
6178.97, 0.0498320
6186.34, 0.0497730
6193.73, 0.0504740
6201.14, 0.0508820
6208.57, 0.0511160
6216.01, 0.0514070
6223.47, 0.0516990
6230.95, 0.0519910
6238.45, 0.0522830
6245.97, 0.0525740
6253.5, 0.0528080
6261.06, 0.0529830
6268.63, 0.0531580
6276.21, 0.0533330
6283.82, 0.0535660
6291.45, 0.0537410
6299.1, 0.0540910
6306.76, 0.0543250
6314.44, 0.0545000
6322.14, 0.0546750
6329.86, 0.0549670
6337.6, 0.0547330
6345.35, 0.0547330
6353.13, 0.0557840
6360.92, 0.0561340
6368.74, 0.0559590
6376.57, 0.0563670
6384.43, 0.0568340
6392.3, 0.0571260
6400.19, 0.0570090
6408.1, 0.0556670
6416.03, 0.0554330
6423.98, 0.0566590
6431.95, 0.0570670
6439.94, 0.0572420
6447.95, 0.0572420
6455.98, 0.0571260
6464.03, 0.0568920
6472.1, 0.0562500
6480.19, 0.0556090
6488.31, 0.0547330
6496.44, 0.0545580
6504.59, 0.0553170
6512.76, 0.0553170
6520.95, 0.0547920
6529.16, 0.0549670
6537.4, 0.0549080
6545.65, 0.0545580
6553.92, 0.0542660
6562.22, 0.0539750
6570.54, 0.0532750
6578.88, 0.0536250
6587.23, 0.0538580
6595.61, 0.0539160
6604.02, 0.0540330
6612.44, 0.0538000
6620.89, 0.0534500
6629.35, 0.0525740
6637.84, 0.0520490
6646.35, 0.0529830
6654.88, 0.0535080
6663.44, 0.0531580
6672.01, 0.0525160
6680.61, 0.0521070
6689.23, 0.0522830
6697.88, 0.0522830
6706.54, 0.0516990
6715.23, 0.0514660
6723.94, 0.0515820
6732.67, 0.0516410
6741.42, 0.0515820
6750.2, 0.0514070
6759.0, 0.0512910
6767.82, 0.0510570
6776.67, 0.0507070
6785.54, 0.0501820
6794.44, 0.0501240
6803.35, 0.0505900
6812.29, 0.0504740
6821.26, 0.0500070
6830.24, 0.0497730
6839.25, 0.0497730
6848.29, 0.0493070
6857.35, 0.0482560
6866.43, 0.0480230
6875.54, 0.0486650
6884.67, 0.0486650
6893.82, 0.0483730
6903.0, 0.0478480
6912.2, 0.0476730
6921.43, 0.0474390
6930.69, 0.0470890
6939.96, 0.0466220
6949.27, 0.0459810
6958.59, 0.0452220
6967.95, 0.0452220
6977.33, 0.0451050
6986.73, 0.0446970
6996.16, 0.0444050
7005.61, 0.0441720
7015.09, 0.0437050
7024.6, 0.0433550
7034.13, 0.0428300
7043.69, 0.0420710
7053.27, 0.0419540
7062.88, 0.0418960
7072.52, 0.0414880
7082.18, 0.0410790
7091.87, 0.0406710
7101.58, 0.0402040
7111.32, 0.0397370
7121.09, 0.0393290
7130.88, 0.0388620
7140.71, 0.0382780
7150.56, 0.0376950
7160.43, 0.0373450
7170.33, 0.0369950
7180.27, 0.0367610
7190.23, 0.0363530
7200.21, 0.0357110
7210.23, 0.0353020
7220.27, 0.0351860
7230.34, 0.0348940
7240.44, 0.0344270
7250.56, 0.0339600
7260.72, 0.0335520
7270.9, 0.0330850
7281.12, 0.0327350
7291.36, 0.0325600
7301.63, 0.0323260
7311.93, 0.0319760
7322.25, 0.0315680
7332.61, 0.0312180
7343.0, 0.0309840
7353.41, 0.0307510
7363.86, 0.0304010
7374.33, 0.0301090
7384.83, 0.0298170
7395.37, 0.0295840
7405.93, 0.0292920
7416.53, 0.0289420
7427.15, 0.0286500
7437.81, 0.0283000
7448.5, 0.0280670
7459.22, 0.0276580
7469.96, 0.0273670
7480.74, 0.0272500
7491.55, 0.0270170
7502.39, 0.0266660
7513.27, 0.0264910
7524.17, 0.0262580
7535.11, 0.0259660
7546.08, 0.0257330
7557.08, 0.0255580
7568.11, 0.0253830
7579.17, 0.0252080
7590.27, 0.0249740
7601.4, 0.0247990
7612.56, 0.0246820
7623.76, 0.0245660
7634.98, 0.0244490
7646.24, 0.0244490
7657.54, 0.0243910
7668.87, 0.0243320
7680.23, 0.0243320
7691.62, 0.0244490
7703.05, 0.0245070
7714.51, 0.0246240
7726.01, 0.0247990
7737.54, 0.0249740
7749.11, 0.0252080
7760.71, 0.0254990
7772.35, 0.0257910
7784.02, 0.0261410
7795.72, 0.0264330
7807.46, 0.0269580
7819.23, 0.0274830
7831.04, 0.0280090
7842.89, 0.0285340
7854.77, 0.0292920
7866.69, 0.0302840
7878.65, 0.0313350
7890.64, 0.0324430
7902.67, 0.0337850
7914.74, 0.0353020
7926.84, 0.0368780
7938.98, 0.0386280
7951.16, 0.0406120
7963.37, 0.0427130
7975.62, 0.0449890
7987.91, 0.0472060
8000.24, 0.0494820
8012.6, 0.0517570
8025.01, 0.0540910
8037.45, 0.0566590
8049.93, 0.0594010
8062.45, 0.0623190
8075.01, 0.0654700
8087.61, 0.0687960
8100.24, 0.0724720
8112.91, 0.0764400
8125.63, 0.0808160
8138.39, 0.0853680
8151.18, 0.0899190
8164.02, 0.0943540
8176.9, 0.0986720
8189.81, 0.102756
8202.77, 0.106607
8215.77, 0.110167
8228.82, 0.113434
8241.9, 0.116352
8255.02, 0.119094
8268.19, 0.121779
8281.39, 0.124288
8294.65, 0.126622
8307.94, 0.128781
8321.28, 0.130706
8334.66, 0.132340
8348.08, 0.133799
8361.54, 0.134849
8375.05, 0.135549
8388.6, 0.135900
8402.2, 0.136075
8415.84, 0.135783
8429.52, 0.135258
8443.25, 0.134674
8457.02, 0.133799
8470.84, 0.132632
8484.7, 0.131465
8498.61, 0.130298
8512.57, 0.129014
8526.57, 0.127439
8540.62, 0.125571
8554.71, 0.123529
8568.85, 0.121020
8583.04, 0.117694
8597.27, 0.113259
8611.55, 0.108591
8625.88, 0.105907
8640.26, 0.106316
8654.68, 0.108416
8669.16, 0.110400
8683.68, 0.111567
8698.25, 0.111917
8712.87, 0.112151
8727.53, 0.112267
8742.25, 0.112209
8757.02, 0.112092
8771.83, 0.111859
8786.7, 0.111626
8801.62, 0.111509
8816.59, 0.111275
8831.61, 0.110984
8846.68, 0.110575
8861.8, 0.110283
8876.97, 0.110050
8892.2, 0.109583
8907.48, 0.109175
8922.81, 0.108941
8938.2, 0.108766
8953.63, 0.108650
8969.13, 0.108766
8984.67, 0.109116
9000.27, 0.109875
9015.92, 0.111042
9031.63, 0.112559
9047.39, 0.114368
9063.21, 0.116410
9079.08, 0.118686
9095.01, 0.121078
9111.0, 0.123763
9127.04, 0.126447
9143.13, 0.129014
9159.28, 0.131465
9175.49, 0.133741
9191.76, 0.135783
9208.09, 0.137767
9224.47, 0.139634
9240.92, 0.141326
9257.42, 0.142843
9273.98, 0.144069
9290.6, 0.144827
9307.28, 0.145352
9324.02, 0.145586
9340.82, 0.145411
9357.68, 0.144711
9374.6, 0.143485
9391.58, 0.141910
9408.62, 0.140393
9425.73, 0.139109
9442.9, 0.138175
9460.13, 0.137650
9477.42, 0.138000
9494.78, 0.139517
9512.2, 0.142318
9529.69, 0.146228
9547.24, 0.150312
9564.86, 0.153813
9582.54, 0.156614
9600.28, 0.159007
9618.1, 0.160757
9635.97, 0.161807
9653.92, 0.162274
9671.93, 0.161982
9690.01, 0.160582
9708.16, 0.158365
9726.37, 0.155739
9744.65, 0.152938
9763.0, 0.150487
9781.43, 0.148795
9799.92, 0.148212
9818.48, 0.148678
9837.1, 0.149729
9855.8, 0.150779
9874.58, 0.151479
9893.42, 0.151479
9912.34, 0.150662
9931.33, 0.149145
9950.39, 0.147161
9969.52, 0.144886
9988.74, 0.142435
10008.0, 0.139634
10027.4, 0.136716
10046.8, 0.133507
10066.3, 0.130415
10085.9, 0.127380
10105.6, 0.124521
10125.3, 0.121837
10145.1, 0.119561
10165.0, 0.117461
10185.0, 0.115593
10205.0, 0.113901
10225.2, 0.112384
10245.4, 0.111100
10265.7, 0.109758
10286.0, 0.108533
10306.5, 0.107424
10327.0, 0.106316
10347.6, 0.105207
10368.3, 0.104157
10389.1, 0.103048
10409.9, 0.101823
10430.9, 0.100539
10451.9, 0.0991380
10473.0, 0.0976210
10494.2, 0.0961040
10515.5, 0.0947620
10536.9, 0.0934780
10558.4, 0.0923110
10579.9, 0.0910280
10601.5, 0.0897440
10623.3, 0.0886940
10645.1, 0.0876430
10667.0, 0.0863010
10689.0, 0.0850760
10711.1, 0.0839090
10733.2, 0.0830340
10755.5, 0.0823920
10777.9, 0.0817500
10800.3, 0.0811080
10822.9, 0.0804080
10845.5, 0.0795910
10868.2, 0.0789490
10891.1, 0.0781900
10914.0, 0.0773730
10937.0, 0.0766150
10960.2, 0.0759150
10983.4, 0.0750980
11006.7, 0.0742810
11030.1, 0.0735220
11053.6, 0.0727640
11077.3, 0.0720050
11101.0, 0.0713630
11124.8, 0.0707210
11148.7, 0.0699050
11172.7, 0.0691460
11196.9, 0.0685620
11221.1, 0.0680960
11245.4, 0.0675710
11269.9, 0.0668700
11294.4, 0.0661700
11319.1, 0.0656450
11343.9, 0.0650610
11368.8, 0.0645360
11393.7, 0.0640110
11418.8, 0.0634280
11444.0, 0.0629610
11469.4, 0.0623770
11494.8, 0.0616770
11520.3, 0.0610940
11546.0, 0.0603930
11571.8, 0.0596930
11597.7, 0.0592260
11623.7, 0.0583510
11649.8, 0.0574170
11676.0, 0.0563090
11702.4, 0.0553750
11728.9, 0.0544420
11755.5, 0.0535080
11782.2, 0.0522830
11809.0, 0.0510570
11836.0, 0.0500070
11863.0, 0.0489570
11890.3, 0.0479650
11917.6, 0.0469140
11945.0, 0.0460970
11972.6, 0.0452800
12000.4, 0.0443470
12028.2, 0.0432380
12056.2, 0.0424800
12084.3, 0.0418380
12112.5, 0.0410210
12140.9, 0.0402040
12169.4, 0.0395040
12198.0, 0.0388030
12226.8, 0.0379280
12255.7, 0.0372280
12284.7, 0.0368780
12313.9, 0.0369950
12343.2, 0.0379280
12372.7, 0.0398540
12402.3, 0.0424210
12432.0, 0.0443470
12461.9, 0.0448720
12491.9, 0.0444630
12522.1, 0.0434720
12552.4, 0.0424210
12582.9, 0.0413710
12613.5, 0.0411370
12644.3, 0.0417790
12675.2, 0.0428880
12706.3, 0.0439380
12737.5, 0.0446390
12768.9, 0.0448140
12800.4, 0.0441720
12832.1, 0.0431800
12863.9, 0.0418960
12895.9, 0.0406710
12928.1, 0.0398540
12960.4, 0.0399700
12992.9, 0.0407290
13025.5, 0.0417210
13058.3, 0.0424800
13091.3, 0.0428300
13124.4, 0.0425960
13157.8, 0.0422460
13191.2, 0.0417790
13224.9, 0.0409620
13258.7, 0.0403790
13292.7, 0.0399120
13326.9, 0.0397950
13361.2, 0.0402620
13395.7, 0.0407870
13430.4, 0.0409040
13465.3, 0.0405540
13500.4, 0.0401460
13535.7, 0.0396200
13571.1, 0.0389780
13606.7, 0.0380450
13642.5, 0.0374030
13678.5, 0.0372280
13714.7, 0.0369360
13751.1, 0.0371110
13787.6, 0.0376360
13824.4, 0.0379280
13861.4, 0.0379870
13898.5, 0.0377530
13935.9, 0.0372860
13973.5, 0.0369360
14011.2, 0.0364110
14049.2, 0.0358860
14087.4, 0.0354770
14125.8, 0.0350110
14164.3, 0.0344270
14203.2, 0.0343100
14242.2, 0.0340770
14281.4, 0.0336100
14320.9, 0.0337270
14360.5, 0.0343690
14400.4, 0.0348360
14440.5, 0.0349520
14480.9, 0.0349520
14521.4, 0.0346610
14562.2, 0.0342520
14603.3, 0.0341940
14644.5, 0.0341940
14686.0, 0.0341940
14727.7, 0.0343690
14769.7, 0.0340770
14811.9, 0.0334350
14854.3, 0.0333180
14897.0, 0.0335520
14939.9, 0.0337850
14983.1, 0.0341350
15026.5, 0.0351270
15070.2, 0.0372860
15114.2, 0.0400870
15158.3, 0.0435300
15202.8, 0.0463310
15247.5, 0.0486060
15292.5, 0.0502990
15337.7, 0.0505320
15383.2, 0.0496570
15429.0, 0.0479650
15475.1, 0.0457470
15521.4, 0.0433550
15568.0, 0.0414880
15614.9, 0.0397950
15662.1, 0.0383950
15709.6, 0.0372860
15757.3, 0.0371110
15805.4, 0.0378110
15853.7, 0.0392120
15902.3, 0.0414290
15951.2, 0.0443470
16000.5, 0.0475560
16050.0, 0.0508240
16099.8, 0.0538580
16150.0, 0.0559590
16200.5, 0.0566590
16251.3, 0.0561920
16302.4, 0.0552580
16353.8, 0.0552000
16405.5, 0.0572420
16457.6, 0.0606270
16510.0, 0.0644780
16562.8, 0.0683870
16615.9, 0.0714800
16669.3, 0.0738140
16723.1, 0.0760310
16777.2, 0.0774900
16831.7, 0.0781900
16886.5, 0.0786570
16941.7, 0.0790660
16997.2, 0.0795320
17053.1, 0.0798240
17109.4, 0.0802330
17166.1, 0.0806410
17223.1, 0.0806990
17280.5, 0.0804660
17338.3, 0.0801740
17396.5, 0.0801740
17455.1, 0.0805240
17514.0, 0.0813410
17573.4, 0.0828000
17633.2, 0.0844340
17693.4, 0.0864180
17754.0, 0.0886940
17815.0, 0.0909690
17876.4, 0.0934200
17938.3, 0.0957540
18000.5, 0.0984380
18063.3, 0.101239
18126.4, 0.104740
18190.0, 0.107891
18254.1, 0.110809
18318.6, 0.113201
18383.5, 0.114718
18449.0, 0.115535
18514.9, 0.115827
18581.2, 0.115360
18648.0, 0.114076
18715.4, 0.113843
18783.2, 0.114251
18851.5, 0.113785
18920.3, 0.113201
18989.6, 0.113551
19059.4, 0.114835
19129.7, 0.116935
19200.6, 0.118628
19272.0, 0.120787
19343.9, 0.123588
19416.3, 0.126680
19489.3, 0.130881
19562.8, 0.135549
19637.0, 0.139051
19711.6, 0.143835
19786.8, 0.148503
19862.6, 0.150196
19939.0, 0.150546
20016.0, 0.151654
20093.6, 0.151713
20171.8, 0.151596
20250.6, 0.152763
20330.0, 0.154864
20410.0, 0.158073
20490.7, 0.161516
20572.0, 0.164258
20654.0, 0.167701
20736.6, 0.171377
20819.9, 0.173186
20903.8, 0.173186
20988.5, 0.173167
21073.8, 0.171859
21159.8, 0.170275
21246.5, 0.168874
21334.0, 0.167366
21422.1, 0.165378
21511.0, 0.163032
21600.7, 0.160448
21691.0, 0.157196
21782.1, 0.152941
21874.0, 0.148371
21966.7, 0.144395
22060.2, 0.141632
22154.5, 0.140414
22249.6, 0.140137
22345.5, 0.140090
22442.2, 0.140173
22539.8, 0.140426
22638.2, 0.140810
22737.5, 0.141217
22837.7, 0.141367
22938.7, 0.140980
23040.7, 0.140005
23143.5, 0.138459
23247.3, 0.136397
23352.1, 0.133914
23457.7, 0.131232
23564.4, 0.128562
23672.0, 0.125935
23780.5, 0.123388
23890.1, 0.121186
24000.7, 0.119599
24112.3, 0.118640
24225.0, 0.118227
24338.7, 0.118162
24453.5, 0.118277
24569.4, 0.118684
24686.4, 0.119621
24804.5, 0.121531
24923.8, 0.124718
25044.2, 0.128641
25165.8, 0.132485
25288.6, 0.135282
25412.5, 0.136234
25537.7, 0.135495
25664.1, 0.133628
25791.8, 0.131808
25920.8, 0.131163
26051.1, 0.131807
26182.6, 0.133439
26315.5, 0.135150
26449.8, 0.136035
26585.4, 0.135972
26722.5, 0.135130
26860.9, 0.134018
27000.8, 0.133085
27142.1, 0.132073
27285.0, 0.130582
27429.4, 0.128447
27575.3, 0.125688
27722.7, 0.122850
27871.8, 0.120482
28022.4, 0.118490
28174.7, 0.116692
28328.7, 0.115280
28484.4, 0.114499
28641.7, 0.114395
28800.9, 0.114869
28961.8, 0.115447
29124.5, 0.115704
29289.0, 0.115890
29455.4, 0.116368
29623.8, 0.117172
29794.0, 0.118225
29966.3, 0.119356
30140.5, 0.120299
30316.7, 0.120532
30495.1, 0.119662
30675.5, 0.118197
30858.1, 0.116823
31042.8, 0.115898
31229.8, 0.115576
31419.1, 0.115474
31610.7, 0.115136
31804.6, 0.114457
32000.9, 0.113457
32199.7, 0.112308
32400.9, 0.111217
32604.8, 0.110327
32811.1, 0.109737
33020.1, 0.109390
33231.8, 0.109273
33446.2, 0.109744
33663.4, 0.111026
33883.4, 0.112326
34106.3, 0.112780
34332.1, 0.112502
34561.0, 0.111884
34792.9, 0.111326
35028.0, 0.111011
35266.3, 0.110097
35507.8, 0.107829
35752.7, 0.105092
36001.0, 0.103052
36252.8, 0.102041
36508.1, 0.101987
36767.0, 0.102032
37029.7, 0.101326
37296.1, 0.100105
37566.3, 0.0988750
37840.5, 0.0980000
38118.8, 0.0976900
38401.2, 0.0976280
38687.8, 0.0973890
38978.6, 0.0967620
39273.9, 0.0957400
39573.7, 0.0949490
39878.1, 0.0949990
40187.3, 0.0955860
40501.2, 0.0962870
40820.0, 0.0972920
41144.0, 0.0988130
41473.2, 0.100405
41807.6, 0.101517
42147.5, 0.101988
42493.0, 0.101787
42844.2, 0.101007
43201.2, 0.0997900
43564.3, 0.0983360
43933.5, 0.0969040
44309.0, 0.0959130
44691.0, 0.0957700
45079.6, 0.0965670
45475.0, 0.0981100
45877.5, 0.0993440
46287.1, 0.0992580
46704.2, 0.0982740
47128.7, 0.0971370
47561.1, 0.0961780
48001.5, 0.0955070
48450.1, 0.0947190
48907.2, 0.0934380
49373.0, 0.0921360
49847.7, 0.0913710
50331.5, 0.0909610
50825.0, 0.0906020
51328.2, 0.0903950
51841.5, 0.0904830
52365.1, 0.0906780
52899.4, 0.0907770
53444.8, 0.0909610
54001.5, 0.0914040
54570.1, 0.0917570
55150.6, 0.0915220
55743.6, 0.0902980
56349.5, 0.0879370
56968.7, 0.0853630
57601.7, 0.0836270
58248.9, 0.0827540
58910.9, 0.0825310
59588.1, 0.0829750
60281.0, 0.0840390
60990.2, 0.0851240
61716.3, 0.0855840
62459.8, 0.0854340
63221.6, 0.0848480
64002.1, 0.0838600
64802.1, 0.0825070
65622.1, 0.0810300
66463.4, 0.0798480
67326.6, 0.0798270
68212.4, 0.0816100
69121.9, 0.0840180
70056.0, 0.0855970
71015.7, 0.0864150
72002.0, 0.0869840
73016.3, 0.0877680
74059.4, 0.0890600
75132.7, 0.0902970
76237.6, 0.0908630
77375.5, 0.0912080
78547.9, 0.0919350
79756.3, 0.0927290
81002.5, 0.0930130
82288.5, 0.0923760
83615.7, 0.0906040
84986.5, 0.0882980
86402.9, 0.0863880
87867.4, 0.0858940
89382.4, 0.0875370
90950.5, 0.0901480
92574.6, 0.0921180
94257.2, 0.0930480
96002.7, 0.0929100
97814.1, 0.0918630
99695.1, 0.0902570
101650.0, 0.0889360
103683.0, 0.0889210
105799.0, 0.0909250
108003.0, 0.0952320
110301.0, 0.100317
112699.0, 0.104254
115204.0, 0.106844
117822.0, 0.108357
120562.0, 0.108744
123433.0, 0.107982
126443.0, 0.106621
129604.0, 0.105374
132926.0, 0.104393
136424.0, 0.103854
140111.0, 0.104774
144003.0, 0.108038
148118.0, 0.111857
152474.0, 0.113814
157095.0, 0.114422
162004.0, 0.115086
167231.0, 0.116013
172805.0, 0.116013
178764.0, 0.116013
185148.0, 0.116013
192005.0, 0.116013
199390.0, 0.116013
207366.0, 0.116013
216006.0, 0.116013
