Database of Origin, USGS Spectral Database
Sample Description, See USGS database for additional info
Date Added,2016-08-03 21:21:33.580851

Data ID,USGS_chl12          
Sample ID, chlorite_smr13.4938
Mineral Name, chlorite
Material Class,Phyllosilicate

Wavelength
1379.5, 0.444957
1379.87, 0.444580
1380.23, 0.444634
1380.6, 0.444688
1380.97, 0.444257
1381.34, 0.443290
1381.7, 0.443236
1382.07, 0.443397
1382.44, 0.443343
1382.81, 0.442375
1383.18, 0.441085
1383.55, 0.439956
1383.92, 0.438665
1384.29, 0.436945
1384.66, 0.435009
1385.03, 0.432697
1385.4, 0.430277
1385.77, 0.427535
1386.14, 0.424093
1386.51, 0.420598
1386.88, 0.417479
1387.25, 0.414630
1387.62, 0.411887
1387.99, 0.409414
1388.36, 0.406833
1388.74, 0.404736
1389.11, 0.403499
1389.48, 0.402155
1389.85, 0.401563
1390.23, 0.401079
1390.6, 0.400810
1390.97, 0.401133
1391.35, 0.401886
1391.72, 0.402854
1392.09, 0.403983
1392.47, 0.404843
1392.84, 0.405650
1393.21, 0.406241
1393.59, 0.407424
1393.96, 0.408768
1394.34, 0.409683
1394.71, 0.411027
1395.09, 0.412371
1395.46, 0.413715
1395.84, 0.414737
1396.22, 0.416028
1396.59, 0.417533
1396.97, 0.418178
1397.35, 0.419146
1397.72, 0.420491
1398.1, 0.421566
1398.48, 0.422803
1398.85, 0.423663
1399.23, 0.424523
1399.61, 0.424954
1399.99, 0.425653
1400.37, 0.426190
1400.74, 0.426352
1401.12, 0.426513
1401.5, 0.426943
1401.88, 0.427212
1402.26, 0.427588
1402.64, 0.427804
1403.02, 0.427857
1403.4, 0.427857
1403.78, 0.427965
1404.16, 0.427696
1404.54, 0.428019
1404.92, 0.428072
1405.3, 0.427857
1405.68, 0.427481
1406.06, 0.427104
1406.44, 0.427051
1406.83, 0.426997
1407.21, 0.426621
1407.59, 0.426190
1407.97, 0.426137
1408.35, 0.426190
1408.74, 0.426137
1409.12, 0.425599
1409.5, 0.425491
1409.89, 0.425061
1410.27, 0.424577
1410.65, 0.424792
1411.04, 0.425222
1411.42, 0.425169
1411.81, 0.425169
1412.19, 0.425007
1412.58, 0.425007
1412.96, 0.424631
1413.35, 0.424631
1413.73, 0.425115
1414.12, 0.425545
1414.5, 0.425760
1414.89, 0.425922
1415.28, 0.426298
1415.66, 0.426405
1416.05, 0.426674
1416.44, 0.426997
1416.82, 0.427158
1417.21, 0.427320
1417.6, 0.427320
1417.98, 0.427804
1418.37, 0.427696
1418.76, 0.427750
1419.15, 0.427857
1419.54, 0.427804
1419.93, 0.427804
1420.32, 0.427804
1420.71, 0.428072
1421.09, 0.428503
1421.48, 0.428610
1421.88, 0.428019
1422.27, 0.427588
1422.66, 0.428019
1423.05, 0.428180
1423.44, 0.428072
1423.83, 0.428019
1424.22, 0.427804
1424.61, 0.427965
1425.0, 0.428072
1425.39, 0.427535
1425.78, 0.427212
1426.18, 0.427104
1426.57, 0.427588
1426.96, 0.427696
1427.36, 0.427588
1427.75, 0.427320
1428.14, 0.426943
1428.54, 0.427104
1428.93, 0.426997
1429.32, 0.427104
1429.72, 0.427051
1430.11, 0.426943
1430.51, 0.426190
1430.9, 0.425922
1431.3, 0.426137
1431.69, 0.426029
1432.09, 0.425868
1432.48, 0.425814
1432.88, 0.425814
1433.28, 0.425975
1433.67, 0.426029
1434.07, 0.425868
1434.46, 0.425653
1434.86, 0.425760
1435.26, 0.425975
1435.66, 0.425814
1436.05, 0.425545
1436.45, 0.425706
1436.85, 0.425653
1437.25, 0.425975
1437.65, 0.426137
1438.05, 0.426244
1438.44, 0.425975
1438.84, 0.425814
1439.24, 0.425814
1439.64, 0.425760
1440.04, 0.425868
1440.44, 0.425975
1440.84, 0.425922
1441.24, 0.425922
1441.65, 0.425868
1442.05, 0.426244
1442.45, 0.426405
1442.85, 0.426083
1443.25, 0.425922
1443.65, 0.426137
1444.05, 0.426405
1444.46, 0.426674
1444.86, 0.426782
1445.26, 0.426836
1445.67, 0.427051
1446.07, 0.427373
1446.47, 0.427212
1446.88, 0.427104
1447.28, 0.427427
1447.68, 0.427427
1448.09, 0.427857
1448.49, 0.428126
1448.9, 0.427911
1449.3, 0.427804
1449.71, 0.428234
1450.11, 0.428664
1450.52, 0.428718
1450.93, 0.428825
1451.33, 0.428933
1451.74, 0.429040
1452.14, 0.429255
1452.55, 0.429739
1452.96, 0.429793
1453.36, 0.429685
1453.77, 0.430008
1454.18, 0.430546
1454.59, 0.430761
1455.0, 0.430438
1455.41, 0.430385
1455.81, 0.430976
1456.22, 0.431245
1456.63, 0.431137
1457.04, 0.431299
1457.45, 0.431568
1457.86, 0.431568
1458.27, 0.431675
1458.68, 0.431890
1459.09, 0.431944
1459.5, 0.432159
1459.91, 0.432374
1460.32, 0.432697
1460.74, 0.432912
1461.15, 0.433019
1461.56, 0.433288
1461.97, 0.433665
1462.39, 0.433933
1462.8, 0.434148
1463.21, 0.434364
1463.62, 0.434471
1464.04, 0.434471
1464.45, 0.434740
1464.86, 0.435116
1465.28, 0.434955
1465.69, 0.434794
1466.11, 0.434955
1466.52, 0.435600
1466.94, 0.435923
1467.35, 0.436031
1467.77, 0.436084
1468.18, 0.436138
1468.6, 0.436192
1469.02, 0.436568
1469.43, 0.437160
1469.85, 0.437429
1470.27, 0.437106
1470.68, 0.436891
1471.1, 0.437213
1471.52, 0.437751
1471.94, 0.438020
1472.35, 0.437805
1472.77, 0.438020
1473.19, 0.438719
1473.61, 0.439257
1474.03, 0.439311
1474.45, 0.439418
1474.87, 0.439364
1475.29, 0.439579
1475.71, 0.439526
1476.13, 0.439902
1476.55, 0.440386
1476.97, 0.440440
1477.39, 0.440278
1477.81, 0.440332
1478.23, 0.440547
1478.65, 0.440870
1479.07, 0.441085
1479.5, 0.441461
1479.92, 0.441569
1480.34, 0.441676
1480.76, 0.441838
1481.19, 0.442160
1481.61, 0.442322
1482.03, 0.442375
1482.46, 0.442591
1482.88, 0.442806
1483.31, 0.443128
1483.73, 0.443182
1484.16, 0.443505
1484.58, 0.443827
1485.01, 0.443935
1485.43, 0.443935
1485.86, 0.444150
1486.28, 0.444526
1486.71, 0.444795
1487.14, 0.444795
1487.56, 0.444741
1487.99, 0.444849
1488.42, 0.445172
1488.84, 0.445333
1489.27, 0.445440
1489.7, 0.445656
1490.13, 0.446140
1490.56, 0.446032
1490.98, 0.446086
1491.41, 0.446301
1491.84, 0.446570
1492.27, 0.446892
1492.7, 0.446677
1493.13, 0.446839
1493.56, 0.447054
1493.99, 0.447107
1494.42, 0.447484
1494.85, 0.447591
1495.29, 0.447753
1495.72, 0.448021
1496.15, 0.448398
1496.58, 0.448505
1497.01, 0.448667
1497.44, 0.448667
1497.88, 0.448882
1498.31, 0.449043
1498.74, 0.449312
1499.18, 0.449473
1499.61, 0.449581
1500.04, 0.449850
1500.48, 0.450011
1500.91, 0.450280
1501.35, 0.450441
1501.78, 0.450549
1502.22, 0.450925
1502.65, 0.450925
1503.09, 0.450979
1503.53, 0.451194
1503.96, 0.451248
1504.4, 0.451355
1504.83, 0.451785
1505.27, 0.452001
1505.71, 0.452216
1506.15, 0.452431
1506.58, 0.452431
1507.02, 0.452485
1507.46, 0.452323
1507.9, 0.452753
1508.34, 0.453184
1508.78, 0.453130
1509.21, 0.453399
1509.66, 0.453721
1510.09, 0.453667
1510.53, 0.453614
1510.97, 0.454044
1511.42, 0.454044
1511.86, 0.454205
1512.3, 0.454367
1512.74, 0.454528
1513.18, 0.454582
1513.62, 0.454635
1514.06, 0.454797
1514.51, 0.455281
1514.95, 0.455765
1515.39, 0.455818
1515.83, 0.456033
1516.28, 0.456195
1516.72, 0.456141
1517.16, 0.456248
1517.61, 0.456625
1518.05, 0.456786
1518.5, 0.456947
1518.94, 0.456840
1519.39, 0.456840
1519.83, 0.457324
1520.28, 0.457808
1520.73, 0.457862
1521.17, 0.457915
1521.62, 0.457808
1522.07, 0.458023
1522.51, 0.458238
1522.96, 0.458238
1523.41, 0.458776
1523.85, 0.459098
1524.3, 0.459098
1524.75, 0.458991
1525.2, 0.459045
1525.65, 0.459529
1526.1, 0.459905
1526.55, 0.460228
1527.0, 0.460550
1527.45, 0.460819
1527.9, 0.461034
1528.35, 0.461088
1528.8, 0.461142
1529.25, 0.461357
1529.7, 0.461733
1530.15, 0.462110
1530.6, 0.462163
1531.05, 0.462486
1531.51, 0.462701
1531.96, 0.462970
1532.41, 0.463024
1532.87, 0.463293
1533.32, 0.463669
1533.77, 0.464207
1534.23, 0.464368
1534.68, 0.464637
1535.14, 0.464798
1535.59, 0.465067
1536.05, 0.465174
1536.5, 0.465228
1536.96, 0.465497
1537.41, 0.465658
1537.87, 0.466196
1538.32, 0.466519
1538.78, 0.466734
1539.24, 0.467003
1539.7, 0.467272
1540.15, 0.467379
1540.61, 0.467648
1541.07, 0.468078
1541.53, 0.468455
1541.98, 0.468670
1542.44, 0.469207
1542.9, 0.469530
1543.36, 0.469691
1543.82, 0.469799
1544.28, 0.470068
1544.74, 0.470337
1545.2, 0.470605
1545.66, 0.471036
1546.12, 0.471358
1546.59, 0.471358
1547.05, 0.471466
1547.51, 0.472057
1547.97, 0.472380
1548.43, 0.472595
1548.9, 0.472756
1549.36, 0.473133
1549.82, 0.473348
1550.29, 0.473670
1550.75, 0.474047
1551.21, 0.474100
1551.68, 0.474584
1552.14, 0.474853
1552.61, 0.475015
1553.07, 0.475391
1553.54, 0.475660
1554.0, 0.475929
1554.47, 0.476305
1554.93, 0.476466
1555.4, 0.476413
1555.87, 0.476789
1556.34, 0.477219
1556.8, 0.477488
1557.27, 0.477918
1557.74, 0.478456
1558.21, 0.478725
1558.68, 0.478779
1559.14, 0.479047
1559.61, 0.479316
1560.08, 0.479585
1560.55, 0.480069
1561.02, 0.480499
1561.49, 0.480607
1561.96, 0.480929
1562.43, 0.481467
1562.9, 0.481897
1563.38, 0.482005
1563.85, 0.482059
1564.32, 0.482274
1564.79, 0.482596
1565.26, 0.482919
1565.74, 0.482973
1566.21, 0.483295
1566.68, 0.483618
1567.16, 0.483887
1567.63, 0.484102
1568.1, 0.484532
1568.58, 0.485070
1569.05, 0.485285
1569.53, 0.485392
1570.0, 0.485930
1570.48, 0.486253
1570.96, 0.486468
1571.43, 0.486898
1571.91, 0.487167
1572.39, 0.487436
1572.86, 0.487543
1573.34, 0.487705
1573.82, 0.488135
1574.3, 0.488296
1574.77, 0.488457
1575.25, 0.488726
1575.73, 0.489210
1576.21, 0.489533
1576.69, 0.489802
1577.17, 0.489909
1577.65, 0.490178
1578.13, 0.490662
1578.61, 0.490823
1579.09, 0.491092
1579.57, 0.491469
1580.05, 0.491522
1580.54, 0.491737
1581.02, 0.492168
1581.5, 0.492598
1581.98, 0.493136
1582.47, 0.493512
1582.95, 0.493458
1583.43, 0.493727
1583.92, 0.493942
1584.4, 0.494103
1584.88, 0.494695
1585.37, 0.494910
1585.85, 0.495286
1586.34, 0.495770
1586.82, 0.496039
1587.31, 0.496200
1587.8, 0.496362
1588.28, 0.496631
1588.77, 0.497061
1589.26, 0.497383
1589.74, 0.497706
1590.23, 0.497975
1590.72, 0.498405
1591.21, 0.498781
1591.7, 0.498943
1592.19, 0.499050
1592.67, 0.499373
1593.16, 0.499696
1593.65, 0.499911
1594.14, 0.500233
1594.63, 0.500717
1595.12, 0.500986
1595.61, 0.501416
1596.11, 0.501793
1596.6, 0.502061
1597.09, 0.502438
1597.58, 0.502707
1598.08, 0.502868
1598.57, 0.502976
1599.06, 0.503406
1599.55, 0.504051
1600.05, 0.504266
1600.54, 0.504427
1601.04, 0.504858
1601.53, 0.505288
1602.03, 0.505557
1602.52, 0.505825
1603.02, 0.506148
1603.51, 0.506632
1604.01, 0.507116
1604.5, 0.507331
1605.0, 0.507385
1605.5, 0.507761
1606.0, 0.508353
1606.49, 0.508729
1606.99, 0.508837
1607.49, 0.509052
1607.99, 0.509267
1608.49, 0.509428
1608.99, 0.509805
1609.49, 0.510289
1609.99, 0.510772
1610.49, 0.511095
1610.99, 0.511256
1611.49, 0.511740
1611.99, 0.512332
1612.49, 0.512386
1612.99, 0.512708
1613.49, 0.513138
1614.0, 0.513246
1614.5, 0.513730
1615.0, 0.513999
1615.51, 0.514429
1616.01, 0.514805
1616.51, 0.514913
1617.02, 0.515343
1617.52, 0.515666
1618.03, 0.516042
1618.53, 0.516418
1619.04, 0.516634
1619.54, 0.517117
1620.05, 0.517494
1620.55, 0.517601
1621.06, 0.517978
1621.57, 0.518462
1622.08, 0.518784
1622.58, 0.518892
1623.09, 0.519161
1623.6, 0.519591
1624.11, 0.520021
1624.62, 0.520290
1625.13, 0.520451
1625.64, 0.520666
1626.15, 0.521043
1626.66, 0.521312
1627.17, 0.521527
1627.68, 0.521688
1628.19, 0.522064
1628.7, 0.522441
1629.21, 0.522979
1629.72, 0.523247
1630.24, 0.523462
1630.75, 0.523462
1631.26, 0.523516
1631.78, 0.524000
1632.29, 0.524377
1632.8, 0.524968
1633.32, 0.525291
1633.83, 0.525452
1634.35, 0.525721
1634.86, 0.526043
1635.38, 0.526366
1635.9, 0.526474
1636.41, 0.526850
1636.93, 0.527388
1637.45, 0.527710
1637.96, 0.527872
1638.48, 0.528356
1639.0, 0.528356
1639.52, 0.528409
1640.04, 0.528678
1640.56, 0.528732
1641.08, 0.529162
1641.59, 0.529700
1642.11, 0.530023
1642.63, 0.530076
1643.16, 0.530291
1643.68, 0.530614
1644.2, 0.530775
1644.72, 0.530990
1645.24, 0.531098
1645.76, 0.531474
1646.29, 0.531743
1646.81, 0.532227
1647.33, 0.532604
1647.86, 0.532711
1648.38, 0.532819
1648.9, 0.533249
1649.43, 0.533625
1649.95, 0.533787
1650.48, 0.534002
1651.0, 0.534378
1651.53, 0.534701
1652.06, 0.534916
1652.58, 0.535023
1653.11, 0.535077
1653.64, 0.535453
1654.17, 0.535937
1654.69, 0.536314
1655.22, 0.536368
1655.75, 0.536636
1656.28, 0.537013
1656.81, 0.537174
1657.34, 0.537497
1657.87, 0.537712
1658.4, 0.537927
1658.93, 0.537981
1659.46, 0.538250
1659.99, 0.538733
1660.52, 0.538895
1661.05, 0.539217
1661.59, 0.539540
1662.12, 0.539970
1662.65, 0.540347
1663.19, 0.540454
1663.72, 0.540938
1664.26, 0.541476
1664.79, 0.541583
1665.32, 0.541637
1665.86, 0.541906
1666.39, 0.542121
1666.93, 0.542336
1667.47, 0.542820
1668.0, 0.543196
1668.54, 0.543519
1669.08, 0.543788
1669.61, 0.544164
1670.15, 0.544541
1670.69, 0.544810
1671.23, 0.545025
1671.77, 0.545240
1672.31, 0.545616
1672.85, 0.546046
1673.39, 0.546261
1673.93, 0.546423
1674.47, 0.546692
1675.01, 0.547122
1675.55, 0.547337
1676.09, 0.547229
1676.64, 0.547391
1677.18, 0.547875
1677.72, 0.548197
1678.26, 0.548574
1678.81, 0.548950
1679.35, 0.549380
1679.89, 0.549595
1680.44, 0.549703
1680.98, 0.549757
1681.53, 0.550079
1682.07, 0.550509
1682.62, 0.550886
1683.17, 0.551155
1683.71, 0.551639
1684.26, 0.551854
1684.81, 0.552230
1685.36, 0.552445
1685.9, 0.552391
1686.45, 0.552553
1687.0, 0.552983
1687.55, 0.553628
1688.1, 0.553789
1688.65, 0.553897
1689.2, 0.554220
1689.75, 0.554381
1690.3, 0.554811
1690.85, 0.555295
1691.41, 0.555564
1691.96, 0.555618
1692.51, 0.556048
1693.06, 0.556209
1693.61, 0.556317
1694.17, 0.556639
1694.72, 0.557016
1695.28, 0.557285
1695.83, 0.557607
1696.39, 0.557822
1696.94, 0.557930
1697.5, 0.558145
1698.05, 0.558360
1698.61, 0.558736
1699.17, 0.559274
1699.72, 0.559489
1700.28, 0.559758
1700.84, 0.560081
1701.4, 0.560242
1701.95, 0.560188
1702.51, 0.560511
1703.07, 0.560833
1703.63, 0.560995
1704.19, 0.561048
1704.75, 0.561371
1705.31, 0.561909
1705.88, 0.561963
1706.44, 0.562285
1707.0, 0.562662
1707.56, 0.562447
1708.12, 0.562662
1708.69, 0.562984
1709.25, 0.563199
1709.81, 0.563468
1710.38, 0.563630
1710.94, 0.563898
1711.51, 0.564113
1712.07, 0.564221
1712.64, 0.564382
1713.2, 0.564544
1713.77, 0.564812
1714.34, 0.565028
1714.9, 0.565296
1715.47, 0.565619
1716.04, 0.565888
1716.61, 0.565995
1717.18, 0.565942
1717.74, 0.566103
1718.31, 0.566533
1718.88, 0.566802
1719.45, 0.567017
1720.02, 0.567125
1720.59, 0.567447
1721.17, 0.567501
1721.74, 0.567824
1722.31, 0.567877
1722.88, 0.567985
1723.45, 0.568415
1724.03, 0.568630
1724.6, 0.568684
1725.18, 0.568953
1725.75, 0.569168
1726.33, 0.569114
1726.9, 0.569598
1727.48, 0.570028
1728.05, 0.570028
1728.63, 0.570190
1729.2, 0.570351
1729.78, 0.570512
1730.36, 0.570727
1730.94, 0.570996
1731.51, 0.571319
1732.09, 0.571695
1732.67, 0.571749
1733.25, 0.571856
1733.83, 0.572125
1734.41, 0.572448
1734.99, 0.572556
1735.57, 0.572932
1736.15, 0.573308
1736.73, 0.573523
1737.32, 0.573685
1737.9, 0.573792
1738.48, 0.574169
1739.07, 0.574491
1739.65, 0.574545
1740.23, 0.574760
1740.82, 0.575083
1741.4, 0.575244
1741.99, 0.575352
1742.57, 0.575782
1743.16, 0.576051
1743.74, 0.575997
1744.33, 0.576427
1744.92, 0.576803
1745.51, 0.576803
1746.09, 0.576857
1746.68, 0.577180
1747.27, 0.577556
1747.86, 0.577771
1748.45, 0.577986
1749.04, 0.578202
1749.63, 0.578363
1750.22, 0.578685
1750.81, 0.578954
1751.4, 0.579116
1751.99, 0.579384
1752.59, 0.579600
1753.18, 0.579868
1753.77, 0.580352
1754.37, 0.580514
1754.96, 0.580675
1755.56, 0.580782
1756.15, 0.580998
1756.74, 0.581320
1757.34, 0.581697
1757.94, 0.581535
1758.53, 0.581750
1759.13, 0.582288
1759.73, 0.582396
1760.32, 0.582718
1760.92, 0.582987
1761.52, 0.583148
1762.12, 0.583310
1762.72, 0.583579
1763.32, 0.583794
1763.92, 0.584116
1764.52, 0.584385
1765.12, 0.584278
1765.72, 0.584547
1766.32, 0.584869
1766.92, 0.585030
1767.53, 0.585299
1768.13, 0.585676
1768.73, 0.585837
1769.34, 0.586160
1769.94, 0.586267
1770.55, 0.586213
1771.15, 0.586590
1771.76, 0.586697
1772.36, 0.586966
1772.97, 0.587289
1773.57, 0.587396
1774.18, 0.587611
1774.79, 0.587827
1775.4, 0.587988
1776.0, 0.588257
1776.61, 0.588472
1777.22, 0.588633
1777.83, 0.588633
1778.44, 0.588633
1779.05, 0.588902
1779.66, 0.589063
1780.27, 0.589225
1780.88, 0.589440
1781.5, 0.589601
1782.11, 0.589924
1782.72, 0.589977
1783.33, 0.589870
1783.95, 0.589977
1784.56, 0.590246
1785.18, 0.590515
1785.79, 0.590515
1786.41, 0.590569
1787.02, 0.590838
1787.64, 0.591107
1788.26, 0.591322
1788.87, 0.591322
1789.49, 0.591268
1790.11, 0.591375
1790.73, 0.591429
1791.35, 0.591375
1791.96, 0.591537
1792.58, 0.591591
1793.21, 0.591752
1793.83, 0.591913
1794.45, 0.592074
1795.07, 0.592343
1795.69, 0.592612
1796.31, 0.592612
1796.93, 0.592505
1797.56, 0.592720
1798.18, 0.592935
1798.8, 0.592989
1799.43, 0.592989
1800.05, 0.593042
1800.68, 0.593311
1801.3, 0.593580
1801.93, 0.593526
1802.56, 0.593741
1803.18, 0.594064
1803.81, 0.594010
1804.44, 0.593795
1805.07, 0.593688
1805.7, 0.593741
1806.33, 0.594118
1806.95, 0.594387
1807.58, 0.594172
1808.22, 0.594118
1808.85, 0.594387
1809.48, 0.594440
1810.11, 0.594494
1810.74, 0.594763
1811.38, 0.595032
1812.01, 0.595354
1812.64, 0.595408
1813.28, 0.595247
1813.91, 0.595301
1814.55, 0.595301
1815.18, 0.595570
1815.82, 0.595623
1816.45, 0.595677
1817.09, 0.595946
1817.73, 0.595892
1818.36, 0.596054
1819.0, 0.595946
1819.64, 0.596269
1820.28, 0.596376
1820.92, 0.596591
1821.56, 0.596699
1822.2, 0.596753
1822.84, 0.596914
1823.48, 0.596968
1824.12, 0.597129
1824.76, 0.597183
1825.41, 0.597452
1826.05, 0.597774
1826.69, 0.597774
1827.34, 0.597559
1827.98, 0.598043
1828.63, 0.598204
1829.27, 0.598097
1829.92, 0.598204
1830.56, 0.598258
1831.21, 0.598419
1831.86, 0.598419
1832.5, 0.598527
1833.15, 0.598635
1833.8, 0.598581
1834.45, 0.598850
1835.1, 0.599226
1835.75, 0.599441
1836.4, 0.599334
1837.05, 0.599334
1837.7, 0.599441
1838.35, 0.599280
1839.01, 0.599334
1839.66, 0.599602
1840.31, 0.599549
1840.96, 0.599549
1841.62, 0.599764
1842.27, 0.599764
1842.93, 0.599549
1843.58, 0.599602
1844.24, 0.599549
1844.9, 0.599441
1845.55, 0.599334
1846.21, 0.599495
1846.87, 0.599871
1847.53, 0.600086
1848.18, 0.600194
1848.84, 0.599764
1849.5, 0.599549
1850.16, 0.599602
1850.82, 0.599441
1851.48, 0.599172
1852.14, 0.599226
1852.81, 0.599387
1853.47, 0.599818
1854.13, 0.599710
1854.8, 0.599280
1855.46, 0.599226
1856.12, 0.599280
1856.79, 0.599226
1857.45, 0.599065
1858.12, 0.599011
1858.79, 0.599172
1859.45, 0.599710
1860.12, 0.599710
1860.79, 0.599387
1861.46, 0.598850
1862.12, 0.598635
1862.79, 0.598688
1863.46, 0.598850
1864.13, 0.599011
1864.8, 0.598850
1865.48, 0.598688
1866.15, 0.598527
1866.82, 0.598581
1867.49, 0.599011
1868.16, 0.598742
1868.84, 0.598204
1869.51, 0.598151
1870.19, 0.598366
1870.86, 0.598581
1871.54, 0.598312
1872.21, 0.598258
1872.89, 0.598312
1873.56, 0.598097
1874.24, 0.597613
1874.92, 0.597398
1875.6, 0.597237
1876.28, 0.597290
1876.96, 0.597505
1877.64, 0.597021
1878.32, 0.596537
1879.0, 0.596537
1879.68, 0.596806
1880.36, 0.596860
1881.04, 0.596537
1881.73, 0.596484
1882.41, 0.596537
1883.09, 0.596591
1883.78, 0.597075
1884.46, 0.597075
1885.15, 0.596860
1885.83, 0.597129
1886.52, 0.597237
1887.21, 0.597398
1887.89, 0.597505
1888.58, 0.597667
1889.27, 0.597989
1889.96, 0.598258
1890.65, 0.598204
1891.34, 0.598151
1892.03, 0.598258
1892.72, 0.598366
1893.41, 0.598366
1894.1, 0.598312
1894.79, 0.598366
1895.49, 0.598527
1896.18, 0.598581
1896.87, 0.598688
1897.57, 0.598635
1898.26, 0.598527
1898.96, 0.598688
1899.65, 0.598796
1900.35, 0.598635
1901.05, 0.598473
1901.74, 0.598312
1902.44, 0.598473
1903.14, 0.598635
1903.84, 0.598581
1904.54, 0.598527
1905.24, 0.598419
1905.94, 0.597989
1906.64, 0.597828
1907.34, 0.597505
1908.04, 0.597237
1908.75, 0.597183
1909.45, 0.597344
1910.15, 0.597452
1910.86, 0.597613
1911.56, 0.597720
1912.27, 0.597774
1912.97, 0.597720
1913.68, 0.597774
1914.39, 0.597720
1915.09, 0.597505
1915.8, 0.597505
1916.51, 0.597452
1917.22, 0.597344
1917.93, 0.597505
1918.64, 0.597720
1919.35, 0.598097
1920.06, 0.598581
1920.77, 0.598688
1921.48, 0.598204
1922.19, 0.598097
1922.91, 0.598419
1923.62, 0.598527
1924.33, 0.598581
1925.05, 0.598473
1925.76, 0.598635
1926.48, 0.598903
1927.19, 0.598903
1927.91, 0.599011
1928.63, 0.599226
1929.35, 0.599280
1930.07, 0.599226
1930.78, 0.599387
1931.5, 0.599495
1932.22, 0.599441
1932.94, 0.599549
1933.66, 0.599602
1934.39, 0.599602
1935.11, 0.599656
1935.83, 0.599710
1936.55, 0.599818
1937.28, 0.599764
1938.0, 0.599764
1938.73, 0.599871
1939.45, 0.599818
1940.18, 0.599602
1940.9, 0.599495
1941.63, 0.599441
1942.36, 0.599441
1943.09, 0.599280
1943.81, 0.599011
1944.54, 0.598850
1945.27, 0.598903
1946.0, 0.599011
1946.73, 0.598796
1947.47, 0.598527
1948.2, 0.598258
1948.93, 0.598204
1949.66, 0.597936
1950.4, 0.597720
1951.13, 0.597667
1951.86, 0.597613
1952.6, 0.597398
1953.34, 0.597237
1954.07, 0.597129
1954.81, 0.597183
1955.55, 0.596968
1956.29, 0.596914
1957.02, 0.596860
1957.76, 0.596645
1958.5, 0.596591
1959.24, 0.596484
1959.98, 0.596537
1960.72, 0.596430
1961.47, 0.596376
1962.21, 0.596376
1962.95, 0.596322
1963.7, 0.596215
1964.44, 0.595892
1965.18, 0.595731
1965.93, 0.595785
1966.67, 0.595570
1967.42, 0.595408
1968.17, 0.595139
1968.92, 0.594978
1969.66, 0.594978
1970.41, 0.594817
1971.16, 0.594548
1971.91, 0.594279
1972.66, 0.594064
1973.41, 0.593903
1974.16, 0.593365
1974.92, 0.593257
1975.67, 0.593096
1976.42, 0.592773
1977.18, 0.592612
1977.93, 0.592397
1978.69, 0.592128
1979.44, 0.591913
1980.2, 0.591591
1980.95, 0.591268
1981.71, 0.590999
1982.47, 0.590892
1983.23, 0.590784
1983.99, 0.590623
1984.74, 0.590408
1985.51, 0.590300
1986.27, 0.590246
1987.03, 0.589977
1987.79, 0.589977
1988.55, 0.590139
1989.32, 0.590246
1990.08, 0.590085
1990.84, 0.589977
1991.61, 0.590085
1992.37, 0.590031
1993.14, 0.590139
1993.9, 0.590354
1994.67, 0.590461
1995.44, 0.590515
1996.21, 0.590515
1996.98, 0.590676
1997.75, 0.590945
1998.52, 0.591160
1999.29, 0.591107
2000.06, 0.591214
2000.83, 0.591429
2001.6, 0.591644
2002.38, 0.591913
2003.15, 0.592343
2003.93, 0.592558
2004.7, 0.592827
2005.48, 0.592989
2006.25, 0.593096
2007.03, 0.593419
2007.81, 0.593795
2008.58, 0.594279
2009.36, 0.594602
2010.14, 0.594924
2010.92, 0.595354
2011.7, 0.595946
2012.48, 0.596322
2013.26, 0.596806
2014.05, 0.597237
2014.83, 0.597828
2015.61, 0.598312
2016.4, 0.598635
2017.18, 0.599334
2017.97, 0.600194
2018.75, 0.600785
2019.54, 0.601108
2020.32, 0.601753
2021.11, 0.602291
2021.9, 0.602990
2022.69, 0.603689
2023.48, 0.604173
2024.27, 0.604711
2025.06, 0.605464
2025.85, 0.606216
2026.64, 0.606808
2027.44, 0.607614
2028.23, 0.608313
2029.02, 0.608851
2029.82, 0.609389
2030.61, 0.610034
2031.41, 0.610679
2032.2, 0.611271
2033.0, 0.611809
2033.8, 0.612723
2034.6, 0.613260
2035.4, 0.613690
2036.2, 0.614228
2037.0, 0.614712
2037.8, 0.615142
2038.6, 0.615573
2039.4, 0.616379
2040.2, 0.617024
2041.01, 0.617670
2041.81, 0.618154
2042.61, 0.618691
2043.42, 0.619498
2044.22, 0.619982
2045.03, 0.620412
2045.84, 0.621003
2046.65, 0.621380
2047.46, 0.621864
2048.26, 0.622294
2049.07, 0.622724
2049.88, 0.623100
2050.69, 0.623531
2051.51, 0.623961
2052.32, 0.624122
2053.13, 0.624337
2053.94, 0.624821
2054.76, 0.625305
2055.57, 0.625681
2056.39, 0.626004
2057.2, 0.626434
2058.02, 0.626864
2058.84, 0.627079
2059.66, 0.627241
2060.48, 0.627563
2061.29, 0.627832
2062.11, 0.628101
2062.94, 0.628263
2063.76, 0.628531
2064.58, 0.628800
2065.4, 0.628854
2066.22, 0.629230
2067.05, 0.629553
2067.87, 0.629714
2068.7, 0.629929
2069.52, 0.629983
2070.35, 0.630037
2071.18, 0.630252
2072.0, 0.630360
2072.83, 0.630360
2073.66, 0.630467
2074.49, 0.630736
2075.32, 0.631059
2076.15, 0.631166
2076.98, 0.631166
2077.82, 0.631220
2078.65, 0.631327
2079.48, 0.631327
2080.32, 0.631327
2081.15, 0.631327
2081.99, 0.631327
2082.83, 0.631543
2083.66, 0.631811
2084.5, 0.631758
2085.34, 0.631650
2086.18, 0.631596
2087.02, 0.631704
2087.86, 0.631704
2088.7, 0.631758
2089.54, 0.631387
2090.39, 0.631546
2091.23, 0.631970
2092.07, 0.632023
2092.92, 0.631546
2093.76, 0.631281
2094.61, 0.630857
2095.45, 0.630009
2096.3, 0.629850
2097.15, 0.629373
2098.0, 0.629373
2098.85, 0.629532
2099.7, 0.628737
2100.55, 0.627889
2101.4, 0.627465
2102.25, 0.627306
2103.1, 0.627094
2103.96, 0.627359
2104.81, 0.627465
2105.67, 0.627253
2106.52, 0.626405
2107.38, 0.625769
2108.24, 0.625345
2109.09, 0.625610
2109.95, 0.625663
2110.81, 0.625663
2111.67, 0.625610
2112.53, 0.625133
2113.39, 0.624391
2114.25, 0.624974
2115.12, 0.625504
2115.98, 0.625345
2116.84, 0.625451
2117.71, 0.625928
2118.58, 0.625875
2119.44, 0.625345
2120.31, 0.625769
2121.18, 0.626405
2122.04, 0.626458
2122.91, 0.625769
2123.78, 0.625557
2124.65, 0.626299
2125.52, 0.626564
2126.4, 0.626617
2127.27, 0.626670
2128.14, 0.627041
2129.02, 0.626723
2129.89, 0.626670
2130.77, 0.626564
2131.64, 0.626829
2132.52, 0.626935
2133.4, 0.627412
2134.27, 0.627677
2135.15, 0.627465
2136.03, 0.626776
2136.91, 0.626564
2137.79, 0.626935
2138.68, 0.626564
2139.56, 0.626246
2140.44, 0.627412
2141.33, 0.627571
2142.21, 0.627200
2143.1, 0.627571
2143.99, 0.627359
2144.87, 0.626670
2145.76, 0.626511
2146.65, 0.626723
2147.54, 0.626405
2148.43, 0.626299
2149.32, 0.626670
2150.21, 0.626723
2151.1, 0.626405
2151.99, 0.625928
2152.89, 0.625663
2153.78, 0.625451
2154.68, 0.625504
2155.57, 0.625345
2156.47, 0.625027
2157.37, 0.624921
2158.27, 0.624497
2159.16, 0.624179
2160.06, 0.624444
2160.96, 0.624232
2161.86, 0.623967
2162.77, 0.623702
2163.67, 0.623596
2164.57, 0.623861
2165.48, 0.623755
2166.38, 0.623066
2167.29, 0.622801
2168.2, 0.622696
2169.1, 0.622431
2170.01, 0.621848
2170.92, 0.621318
2171.83, 0.620788
2172.74, 0.620947
2173.65, 0.620735
2174.56, 0.620682
2175.47, 0.620258
2176.39, 0.619569
2177.3, 0.619569
2178.22, 0.619622
2179.13, 0.619198
2180.05, 0.618668
2180.96, 0.617555
2181.88, 0.617343
2182.8, 0.616972
2183.72, 0.616601
2184.64, 0.616124
2185.56, 0.615594
2186.48, 0.614746
2187.41, 0.614428
2188.33, 0.614004
2189.25, 0.613633
2190.18, 0.612891
2191.1, 0.612361
2192.03, 0.611831
2192.96, 0.611355
2193.89, 0.610772
2194.82, 0.609924
2195.74, 0.609288
2196.68, 0.608758
2197.61, 0.608334
2198.54, 0.607539
2199.47, 0.606532
2200.4, 0.605684
2201.34, 0.605048
2202.28, 0.604147
2203.21, 0.603352
2204.15, 0.602822
2205.08, 0.601868
2206.02, 0.600649
2206.96, 0.599801
2207.9, 0.599696
2208.84, 0.599272
2209.78, 0.598265
2210.73, 0.596781
2211.67, 0.595509
2212.61, 0.594661
2213.56, 0.594078
2214.5, 0.593283
2215.45, 0.592170
2216.4, 0.591428
2217.35, 0.590262
2218.3, 0.589043
2219.24, 0.587613
2220.2, 0.586023
2221.15, 0.584486
2222.1, 0.582790
2223.05, 0.581094
2224.0, 0.579292
2224.96, 0.577172
2225.91, 0.574470
2226.87, 0.572403
2227.83, 0.570018
2228.79, 0.567209
2229.74, 0.564454
2230.7, 0.561592
2231.66, 0.558518
2232.63, 0.555338
2233.59, 0.551894
2234.55, 0.548025
2235.51, 0.543732
2236.48, 0.539705
2237.44, 0.536101
2238.41, 0.532762
2239.38, 0.529318
2240.34, 0.526297
2241.31, 0.523329
2242.28, 0.520467
2243.25, 0.517765
2244.22, 0.515645
2245.19, 0.514002
2246.17, 0.512730
2247.14, 0.511776
2248.12, 0.511140
2249.09, 0.510875
2250.07, 0.510875
2251.04, 0.511299
2252.02, 0.511935
2253.0, 0.512147
2253.98, 0.512465
2254.96, 0.513260
2255.94, 0.514320
2256.92, 0.514691
2257.91, 0.514850
2258.89, 0.515327
2259.88, 0.515433
2260.86, 0.515486
2261.85, 0.515804
2262.83, 0.516175
2263.82, 0.516228
2264.81, 0.516334
2265.8, 0.516334
2266.79, 0.516122
2267.78, 0.515698
2268.78, 0.515433
2269.77, 0.515751
2270.76, 0.515698
2271.76, 0.515009
2272.75, 0.514638
2273.75, 0.514638
2274.75, 0.514002
2275.75, 0.513101
2276.75, 0.512041
2277.75, 0.510875
2278.75, 0.509550
2279.75, 0.507590
2280.75, 0.505205
2281.76, 0.502449
2282.76, 0.499322
2283.77, 0.496302
2284.77, 0.492698
2285.78, 0.489465
2286.79, 0.485914
2287.8, 0.482152
2288.81, 0.479078
2289.82, 0.476163
2290.83, 0.472931
2291.84, 0.470334
2292.86, 0.468373
2293.87, 0.466677
2294.89, 0.464716
2295.91, 0.462967
2296.92, 0.462703
2297.94, 0.462332
2298.96, 0.461749
2299.98, 0.461007
2301.0, 0.460689
2302.02, 0.460848
2303.04, 0.461007
2304.07, 0.461007
2305.09, 0.460689
2306.12, 0.460318
2307.15, 0.459682
2308.17, 0.458834
2309.2, 0.457562
2310.23, 0.456131
2311.26, 0.454064
2312.29, 0.452050
2313.32, 0.449772
2314.35, 0.447228
2315.39, 0.445479
2316.42, 0.443677
2317.46, 0.441769
2318.5, 0.440127
2319.53, 0.438643
2320.57, 0.437636
2321.61, 0.436947
2322.65, 0.436152
2323.69, 0.434986
2324.73, 0.434138
2325.78, 0.433820
2326.82, 0.433131
2327.86, 0.432283
2328.91, 0.431859
2329.96, 0.431965
2331.01, 0.432177
2332.05, 0.432495
2333.1, 0.433396
2334.15, 0.434085
2335.21, 0.434827
2336.26, 0.435622
2337.31, 0.436364
2338.36, 0.437053
2339.42, 0.437795
2340.48, 0.438961
2341.53, 0.440179
2342.59, 0.441398
2343.65, 0.443253
2344.71, 0.444896
2345.77, 0.446539
2346.83, 0.447970
2347.9, 0.449666
2348.96, 0.451150
2350.02, 0.452951
2351.09, 0.454488
2352.16, 0.456078
2353.23, 0.457827
2354.29, 0.459523
2355.36, 0.461219
2356.43, 0.462967
2357.51, 0.464610
2358.58, 0.466253
2359.65, 0.468320
2360.73, 0.470546
2361.8, 0.472666
2362.88, 0.474467
2363.96, 0.476481
2365.03, 0.478336
2366.11, 0.480138
2367.19, 0.482258
2368.27, 0.484166
2369.36, 0.485967
2370.44, 0.487451
2371.53, 0.488511
2372.61, 0.489942
2373.7, 0.491479
2374.78, 0.492168
2375.87, 0.492645
2376.96, 0.492751
2378.05, 0.493069
2379.14, 0.493175
2380.24, 0.493122
2381.33, 0.492539
2382.42, 0.491850
2383.52, 0.491797
2384.61, 0.492009
2385.71, 0.492062
2386.81, 0.492009
2387.91, 0.492009
2389.01, 0.491585
2390.11, 0.491532
2391.22, 0.491744
2392.32, 0.492327
2393.42, 0.493016
2394.53, 0.493546
2395.64, 0.494341
2396.74, 0.495242
2397.85, 0.496355
2398.96, 0.497573
2400.07, 0.499269
2401.18, 0.501124
2402.3, 0.502767
2403.41, 0.504357
2404.52, 0.505682
2405.64, 0.506954
2406.76, 0.508702
2407.88, 0.510133
2408.99, 0.511564
2410.11, 0.512889
2411.23, 0.514002
2412.36, 0.514585
2413.48, 0.514903
2414.6, 0.515062
2415.73, 0.515433
2416.85, 0.515751
2417.98, 0.515327
2419.11, 0.514426
2420.24, 0.513684
2421.37, 0.512995
2422.5, 0.512412
2423.64, 0.511193
2424.77, 0.509974
2425.9, 0.509126
2427.04, 0.508014
2428.18, 0.506424
2429.31, 0.505417
2430.45, 0.504463
2431.59, 0.503615
2432.73, 0.502555
2433.88, 0.501866
2435.02, 0.501177
2436.16, 0.500647
2437.31, 0.500064
2438.45, 0.499269
2439.6, 0.498580
2440.75, 0.497891
2441.9, 0.496779
2443.05, 0.496143
2444.2, 0.495560
2445.35, 0.494765
2446.51, 0.493811
2447.67, 0.492539
2448.82, 0.491055
2449.98, 0.489783
2451.14, 0.488670
2452.3, 0.487610
2453.46, 0.486444
2454.62, 0.485279
2455.78, 0.484007
2456.94, 0.482099
2458.11, 0.480350
2459.28, 0.478972
2460.44, 0.477965
2461.61, 0.476640
2462.78, 0.475050
2463.95, 0.473938
2465.12, 0.473249
2466.3, 0.472507
2467.47, 0.472083
2468.65, 0.471712
2469.82, 0.471182
2471.0, 0.470758
2472.18, 0.470228
2473.36, 0.470069
2474.54, 0.469910
2475.72, 0.470016
2476.9, 0.469963
2478.08, 0.470016
2479.27, 0.470175
2480.46, 0.470175
2481.64, 0.470175
2482.83, 0.470440
2484.02, 0.470652
2485.21, 0.470493
2486.4, 0.470546
2487.6, 0.470599
2488.79, 0.470811
2489.99, 0.470917
2491.18, 0.470599
2492.38, 0.470334
2493.58, 0.470122
2494.78, 0.470175
2495.98, 0.470069
2497.18, 0.470016
2498.39, 0.470122
2499.59, 0.470122
2500.8, 0.469751
2502.01, 0.469380
2503.21, 0.469062
2504.42, 0.469221
2505.63, 0.469539
2506.84, 0.469486
2508.06, 0.469221
2509.27, 0.468956
2510.49, 0.468797
2511.7, 0.468744
2512.92, 0.468585
2514.14, 0.468426
2515.36, 0.467949
2516.58, 0.467631
2517.8, 0.467525
2519.03, 0.467313
2520.25, 0.467101
2521.48, 0.466836
2522.7, 0.466677
2523.93, 0.466889
2525.16, 0.466465
2526.39, 0.466518
2527.62, 0.466995
2528.86, 0.467260
2530.09, 0.467366
2531.33, 0.467737
2532.56, 0.467790
2533.8, 0.467207
2535.04, 0.467260
2536.28, 0.467472
2537.52, 0.466836
2538.76, 0.466306
2540.01, 0.466412
2541.25, 0.466730
2542.5, 0.467048
2543.75, 0.466730
2544.99, 0.465935
2546.24, 0.465935
2547.49, 0.466094
2548.75, 0.465405
2550.0, 0.464822
2551.26, 0.464875
2552.51, 0.464557
2553.77, 0.463497
2555.03, 0.462438
2556.29, 0.462438
2557.55, 0.462067
2558.81, 0.462120
2560.08, 0.463285
2561.34, 0.464186
2562.61, 0.463603
2563.88, 0.462809
2565.14, 0.461484
2566.41, 0.460530
2567.68, 0.460742
2568.96, 0.461749
2570.23, 0.461166
2571.51, 0.460477
2572.78, 0.461855
2574.06, 0.461378
2575.34, 0.460583
2576.62, 0.461643
2577.9, 0.461007
2579.18, 0.460424
2580.47, 0.461643
2581.75, 0.462173
2583.04, 0.464239
2584.32, 0.465087
2585.61, 0.463444
2586.9, 0.464663
2588.2, 0.464769
2589.49, 0.464504
2590.78, 0.464133
2592.08, 0.464716
2593.37, 0.468797
2594.67, 0.473355
2595.97, 0.469963
2597.27, 0.466730
2598.57, 0.465882
2599.88, 0.466518
2601.18, 0.468055
2602.49, 0.469168
2603.79, 0.470652
2605.1, 0.472613
2606.41, 0.472030
2607.72, 0.471288
2609.03, 0.471606
2610.35, 0.471765
2611.66, 0.471606
2612.98, 0.472083
2614.3, 0.472242
2615.62, 0.474626
2616.94, 0.476322
2618.26, 0.474679
2619.58, 0.475633
2620.91, 0.475739
2622.23, 0.473090
2623.56, 0.472931
2624.89, 0.474044
2626.22, 0.476216
2627.55, 0.474944
2628.88, 0.475103
2630.21, 0.477064
2631.55, 0.474891
2632.89, 0.473514
2634.22, 0.473196
2635.56, 0.471765
2636.9, 0.471182
2638.25, 0.470546
2639.59, 0.470069
2640.93, 0.469645
2642.28, 0.469327
2643.63, 0.468638
2644.98, 0.468956
2646.33, 0.468055
2647.68, 0.466571
2649.03, 0.465564
2650.39, 0.465193
2651.74, 0.465617
2653.1, 0.465087
2654.46, 0.464080
2655.82, 0.463603
2657.18, 0.461749
2658.54, 0.461590
2659.9, 0.461219
2661.27, 0.459894
2662.64, 0.458569
2664.01, 0.459735
2665.38, 0.460689
2666.74, 0.458940
2668.12, 0.454700
2669.49, 0.455230
2670.87, 0.453481
2672.24, 0.446539
2673.62, 0.443200
2675.0, 0.441875
2676.38, 0.440286
2677.76, 0.436258
2679.15, 0.431753
2680.54, 0.425765
2681.92, 0.420677
2683.31, 0.416385
2684.7, 0.410502
2686.09, 0.404249
2687.48, 0.396935
2688.88, 0.388721
2690.27, 0.379341
2691.67, 0.370173
2693.07, 0.360845
2694.47, 0.348762
2695.87, 0.334666
2697.27, 0.321099
2698.67, 0.308751
2700.08, 0.298099
2701.49, 0.288136
2702.9, 0.278120
2704.31, 0.266673
2705.72, 0.251516
2707.13, 0.232544
2708.54, 0.212246
2709.96, 0.193115
2711.38, 0.176634
2712.8, 0.164286
2714.22, 0.156442
2715.64, 0.150984
2717.06, 0.147221
2718.49, 0.144942
2719.91, 0.144571
2721.34, 0.143458
2722.77, 0.142664
2724.2, 0.143352
2725.63, 0.143193
2727.07, 0.142505
2728.5, 0.142134
2729.94, 0.141498
2731.38, 0.140438
2732.82, 0.139431
2734.26, 0.138636
2735.7, 0.136887
2737.15, 0.135350
2738.59, 0.134714
2740.04, 0.133548
2741.49, 0.131534
2742.94, 0.129256
2744.39, 0.127242
2745.84, 0.125228
2747.3, 0.122949
2748.76, 0.120988
2750.21, 0.118975
2751.67, 0.116802
2753.14, 0.115000
2754.6, 0.113781
2756.06, 0.111449
2757.53, 0.108746
2759.0, 0.106733
2760.46, 0.105620
2761.94, 0.104984
2763.41, 0.104242
2764.88, 0.103394
2766.36, 0.102599
2767.83, 0.101380
2769.31, 0.0998430
2770.79, 0.0982530
2772.27, 0.0962400
2773.76, 0.0941730
2775.24, 0.0922120
2776.73, 0.0903570
2778.22, 0.0886610
2779.71, 0.0871770
2781.2, 0.0857990
2782.69, 0.0839980
2784.18, 0.0827790
2785.68, 0.0819840
2787.18, 0.0810300
2788.68, 0.0798110
2790.18, 0.0788570
2791.68, 0.0782210
2793.19, 0.0776910
2794.69, 0.0771610
2796.2, 0.0765250
2797.71, 0.0760480
2799.22, 0.0757830
2800.73, 0.0756770
2802.24, 0.0757830
2803.76, 0.0754650
2805.28, 0.0751470
2806.8, 0.0750940
2808.32, 0.0752000
2809.84, 0.0751470
2811.36, 0.0752530
2812.89, 0.0755180
2814.42, 0.0758360
2815.94, 0.0759950
2817.48, 0.0763660
2819.01, 0.0769490
2820.54, 0.0775850
2822.08, 0.0780090
2823.61, 0.0783800
2825.15, 0.0789630
2826.69, 0.0798110
2828.23, 0.0805000
2829.78, 0.0810300
2831.32, 0.0817720
2832.87, 0.0825140
2834.42, 0.0831500
2835.97, 0.0839450
2837.52, 0.0848990
2839.08, 0.0854820
2840.63, 0.0861170
2842.19, 0.0868590
2843.75, 0.0874420
2845.31, 0.0880780
2846.87, 0.0887670
2848.44, 0.0891910
2850.0, 0.0896680
2851.57, 0.0901980
2853.14, 0.0906220
2854.71, 0.0908340
2856.28, 0.0908870
2857.86, 0.0912580
2859.43, 0.0914700
2861.01, 0.0914170
2862.59, 0.0913640
2864.17, 0.0913110
2865.76, 0.0912580
2867.34, 0.0910990
2868.93, 0.0907280
2870.52, 0.0904630
2872.11, 0.0901980
2873.7, 0.0896150
2875.29, 0.0890320
2876.89, 0.0886610
2878.49, 0.0879720
2880.08, 0.0871770
2881.69, 0.0865410
2883.29, 0.0859050
2884.89, 0.0853760
2886.5, 0.0846340
2888.11, 0.0837330
2889.72, 0.0830970
2891.33, 0.0825140
2892.94, 0.0817190
2894.56, 0.0811360
2896.17, 0.0806590
2897.79, 0.0800230
2899.42, 0.0793870
2901.04, 0.0788570
2902.66, 0.0783800
2904.29, 0.0779560
2905.92, 0.0774790
2907.55, 0.0771610
2909.18, 0.0768430
2910.81, 0.0763660
2912.45, 0.0760480
2914.08, 0.0757830
2915.72, 0.0757830
2917.36, 0.0758890
2919.01, 0.0760480
2920.65, 0.0760480
2922.3, 0.0758890
2923.94, 0.0758890
2925.59, 0.0759420
2927.25, 0.0762070
2928.9, 0.0765250
2930.56, 0.0766840
2932.21, 0.0771080
2933.87, 0.0775850
2935.53, 0.0780090
2937.2, 0.0783270
2938.86, 0.0786980
2940.53, 0.0793340
2942.2, 0.0799170
2943.87, 0.0804470
2945.54, 0.0808180
2947.22, 0.0814010
2948.89, 0.0819310
2950.57, 0.0825140
2952.25, 0.0830970
2953.93, 0.0836270
2955.62, 0.0842100
2957.3, 0.0847930
2958.99, 0.0851640
2960.68, 0.0857990
2962.37, 0.0866470
2964.07, 0.0872830
2965.76, 0.0878660
2967.46, 0.0885020
2969.16, 0.0891380
2970.86, 0.0897740
2972.56, 0.0903040
2974.27, 0.0912050
2975.98, 0.0922120
2977.69, 0.0928480
2979.4, 0.0934840
2981.11, 0.0942790
2982.83, 0.0950740
2984.54, 0.0960280
2986.26, 0.0969290
2987.98, 0.0979350
2989.71, 0.0988360
2991.43, 0.0998430
2993.16, 0.100850
2994.89, 0.102069
2996.62, 0.103288
2998.35, 0.104454
3000.09, 0.105567
3001.83, 0.106786
3003.57, 0.108005
3005.31, 0.109329
3007.05, 0.110601
3008.79, 0.112032
3010.54, 0.113304
3012.29, 0.114523
3014.04, 0.115795
3015.8, 0.117173
3017.55, 0.118498
3019.31, 0.119823
3021.07, 0.121094
3022.83, 0.122525
3024.59, 0.123903
3026.36, 0.125281
3028.13, 0.126606
3029.9, 0.127931
3031.67, 0.129256
3033.44, 0.130528
3035.22, 0.131640
3037.0, 0.133018
3038.78, 0.134555
3040.56, 0.135774
3042.34, 0.136993
3044.13, 0.138212
3045.92, 0.139484
3047.71, 0.140862
3049.5, 0.142187
3051.3, 0.143670
3053.09, 0.145048
3054.89, 0.146267
3056.69, 0.147486
3058.5, 0.148864
3060.3, 0.150348
3062.11, 0.151726
3063.92, 0.153104
3065.73, 0.154322
3067.55, 0.155541
3069.36, 0.157078
3071.18, 0.158456
3073.0, 0.159781
3074.82, 0.161000
3076.65, 0.162484
3078.48, 0.164074
3080.31, 0.165452
3082.14, 0.166776
3083.97, 0.168101
3085.8, 0.169585
3087.64, 0.171175
3089.48, 0.172712
3091.33, 0.174143
3093.17, 0.175468
3095.02, 0.176846
3096.87, 0.178170
3098.72, 0.179601
3100.57, 0.180979
3102.43, 0.182304
3104.28, 0.183788
3106.14, 0.185219
3108.01, 0.186491
3109.87, 0.187816
3111.74, 0.189140
3113.61, 0.190412
3115.48, 0.191737
3117.35, 0.193062
3119.23, 0.194493
3121.1, 0.195871
3122.98, 0.197143
3124.87, 0.198468
3126.75, 0.199634
3128.64, 0.200905
3130.53, 0.202230
3132.42, 0.203555
3134.31, 0.204933
3136.21, 0.206099
3138.11, 0.207371
3140.01, 0.208749
3141.91, 0.210074
3143.82, 0.211398
3145.73, 0.212617
3147.64, 0.213783
3149.55, 0.215108
3151.46, 0.216592
3153.38, 0.218129
3155.3, 0.219454
3157.22, 0.220726
3159.14, 0.221998
3161.07, 0.223375
3163.0, 0.224806
3164.93, 0.226290
3166.86, 0.227721
3168.8, 0.229152
3170.74, 0.230636
3172.68, 0.232014
3174.62, 0.233339
3176.56, 0.234716
3178.51, 0.236200
3180.46, 0.237790
3182.42, 0.239221
3184.37, 0.240493
3186.33, 0.241871
3188.29, 0.243302
3190.25, 0.244892
3192.21, 0.246375
3194.18, 0.247647
3196.15, 0.248919
3198.12, 0.250191
3200.09, 0.251569
3202.07, 0.253053
3204.05, 0.254484
3206.03, 0.255756
3208.02, 0.257028
3210.0, 0.258405
3211.99, 0.259783
3213.98, 0.261161
3215.98, 0.262274
3217.97, 0.263493
3219.97, 0.264818
3221.97, 0.266302
3223.98, 0.267521
3225.98, 0.268580
3227.99, 0.269587
3230.0, 0.270753
3232.02, 0.271760
3234.03, 0.272767
3236.05, 0.273827
3238.07, 0.274993
3240.1, 0.276000
3242.12, 0.276954
3244.15, 0.277908
3246.18, 0.278915
3248.22, 0.279869
3250.25, 0.280716
3252.29, 0.281458
3254.33, 0.282412
3256.38, 0.283419
3258.43, 0.284373
3260.47, 0.285062
3262.53, 0.285857
3264.58, 0.286705
3266.64, 0.287447
3268.7, 0.288348
3270.76, 0.289249
3272.82, 0.290150
3274.89, 0.291051
3276.96, 0.292110
3279.04, 0.293223
3281.11, 0.294283
3283.19, 0.295290
3285.27, 0.296244
3287.35, 0.297145
3289.44, 0.298205
3291.53, 0.299371
3293.62, 0.300537
3295.71, 0.301650
3297.81, 0.302815
3299.91, 0.303716
3302.01, 0.304670
3304.11, 0.305677
3306.22, 0.306790
3308.33, 0.307956
3310.44, 0.308804
3312.56, 0.309599
3314.68, 0.310606
3316.8, 0.311507
3318.92, 0.312249
3321.05, 0.313044
3323.18, 0.313892
3325.31, 0.314686
3327.44, 0.315481
3329.58, 0.316276
3331.72, 0.317177
3333.86, 0.318025
3336.01, 0.318926
3338.16, 0.319774
3340.31, 0.320516
3342.46, 0.321311
3344.61, 0.322159
3346.77, 0.322901
3348.94, 0.323802
3351.1, 0.324650
3353.27, 0.325339
3355.44, 0.325921
3357.61, 0.326610
3359.79, 0.327246
3361.97, 0.327776
3364.15, 0.328200
3366.33, 0.328624
3368.52, 0.329260
3370.71, 0.329737
3372.9, 0.330320
3375.1, 0.330956
3377.3, 0.331645
3379.5, 0.332387
3381.71, 0.333182
3383.91, 0.334083
3386.12, 0.334931
3388.34, 0.335885
3390.55, 0.336945
3392.77, 0.337898
3394.99, 0.338587
3397.22, 0.339329
3399.45, 0.339806
3401.68, 0.340124
3403.91, 0.340230
3406.15, 0.340389
3408.39, 0.340760
3410.63, 0.341025
3412.87, 0.341555
3415.12, 0.342350
3417.37, 0.343410
3419.63, 0.344682
3421.88, 0.346060
3424.14, 0.347756
3426.41, 0.349504
3428.67, 0.351306
3430.94, 0.353002
3433.21, 0.354486
3435.49, 0.355864
3437.77, 0.357189
3440.05, 0.358567
3442.33, 0.359839
3444.62, 0.360951
3446.91, 0.362064
3449.2, 0.363177
3451.5, 0.364343
3453.8, 0.365403
3456.1, 0.366463
3458.41, 0.367470
3460.72, 0.368477
3463.03, 0.369272
3465.34, 0.370067
3467.66, 0.370809
3469.98, 0.371392
3472.31, 0.371974
3474.63, 0.372557
3476.96, 0.373034
3479.3, 0.373564
3481.64, 0.374147
3483.97, 0.374783
3486.32, 0.375366
3488.66, 0.375896
3491.01, 0.376426
3493.36, 0.376956
3495.72, 0.377380
3498.08, 0.377804
3500.44, 0.378387
3502.81, 0.379129
3505.18, 0.380401
3507.55, 0.382097
3509.92, 0.384004
3512.3, 0.386018
3514.68, 0.387714
3517.06, 0.389304
3519.45, 0.391053
3521.84, 0.392802
3524.24, 0.394286
3526.64, 0.395769
3529.04, 0.397147
3531.44, 0.398472
3533.85, 0.399744
3536.26, 0.400857
3538.67, 0.401970
3541.09, 0.403136
3543.51, 0.404249
3545.93, 0.405468
3548.36, 0.406368
3550.79, 0.407322
3553.22, 0.408276
3555.66, 0.409230
3558.1, 0.410025
3560.54, 0.410926
3562.99, 0.411880
3565.44, 0.412622
3567.9, 0.413311
3570.35, 0.414265
3572.81, 0.415166
3575.28, 0.416067
3577.75, 0.417073
3580.22, 0.418133
3582.69, 0.419140
3585.17, 0.420253
3587.65, 0.421207
3590.14, 0.422214
3592.62, 0.423221
3595.11, 0.424175
3597.61, 0.425076
3600.11, 0.425924
3602.61, 0.426613
3605.11, 0.427461
3607.62, 0.428255
3610.14, 0.429050
3612.65, 0.429845
3615.17, 0.430693
3617.69, 0.431435
3620.22, 0.432018
3622.75, 0.432654
3625.28, 0.433343
3627.82, 0.434032
3630.36, 0.434774
3632.9, 0.435463
3635.45, 0.436046
3638.0, 0.436576
3640.56, 0.437159
3643.12, 0.437848
3645.68, 0.438484
3648.24, 0.439067
3650.81, 0.439755
3653.39, 0.440338
3655.96, 0.440921
3658.54, 0.441345
3661.13, 0.441875
3663.71, 0.442511
3666.3, 0.443041
3668.9, 0.443571
3671.5, 0.444154
3674.1, 0.444631
3676.7, 0.445108
3679.31, 0.445532
3681.93, 0.446009
3684.54, 0.446486
3687.17, 0.447016
3689.79, 0.447599
3692.42, 0.448129
3695.05, 0.448712
3697.69, 0.449242
3700.32, 0.449719
3702.97, 0.450196
3705.61, 0.450885
3708.27, 0.451573
3710.92, 0.452156
3713.58, 0.452686
3716.24, 0.453163
3718.91, 0.453746
3721.58, 0.454382
3724.25, 0.454912
3726.93, 0.455336
3729.61, 0.455813
3732.29, 0.456290
3734.98, 0.456714
3737.67, 0.457085
3740.37, 0.457562
3743.07, 0.458039
3745.78, 0.458516
3748.49, 0.458993
3751.2, 0.459417
3753.91, 0.459735
3756.63, 0.460212
3759.36, 0.460530
3762.09, 0.460901
3764.82, 0.461166
3767.55, 0.461484
3770.29, 0.461749
3773.04, 0.462120
3775.78, 0.462332
3778.54, 0.462544
3781.29, 0.462809
3784.05, 0.463021
3786.82, 0.463232
3789.59, 0.463391
3792.36, 0.463550
3795.13, 0.463974
3797.92, 0.464451
3800.7, 0.464769
3803.49, 0.465034
3806.28, 0.465299
3809.08, 0.465564
3811.88, 0.465829
3814.68, 0.466147
3817.49, 0.466465
3820.31, 0.466836
3823.12, 0.467101
3825.94, 0.467260
3828.77, 0.467790
3831.6, 0.468214
3834.43, 0.468585
3837.27, 0.468956
3840.11, 0.469274
3842.96, 0.469592
3845.81, 0.470016
3848.67, 0.470387
3851.53, 0.470599
3854.39, 0.470811
3857.26, 0.471076
3860.13, 0.471341
3863.01, 0.471712
3865.89, 0.471977
3868.77, 0.472242
3871.66, 0.472401
3874.55, 0.472666
3877.45, 0.472984
3880.35, 0.473355
3883.26, 0.473461
3886.17, 0.473620
3889.09, 0.473726
3892.01, 0.473990
3894.93, 0.474044
3897.86, 0.474149
3900.79, 0.474308
3903.73, 0.474414
3906.67, 0.474414
3909.62, 0.474467
3912.57, 0.474573
3915.52, 0.474679
3918.48, 0.474679
3921.45, 0.474679
3924.42, 0.474891
3927.39, 0.475103
3930.37, 0.475156
3933.35, 0.475103
3936.34, 0.475209
3939.33, 0.475262
3942.32, 0.475421
3945.32, 0.475527
3948.33, 0.475686
3951.34, 0.475739
3954.35, 0.475792
3957.37, 0.475951
3960.39, 0.476004
3963.42, 0.476110
3966.45, 0.476216
3969.49, 0.476375
3972.53, 0.476534
3975.58, 0.476693
3978.63, 0.476746
3981.68, 0.476958
3984.75, 0.477011
3987.81, 0.477117
3990.88, 0.477276
3993.95, 0.477276
3997.03, 0.477223
4000.12, 0.477382
4003.21, 0.477435
4006.3, 0.477435
4009.4, 0.477594
4012.5, 0.477647
4015.61, 0.477594
4018.72, 0.477647
4021.84, 0.477700
4024.96, 0.477700
4028.09, 0.477594
4031.22, 0.477541
4034.36, 0.477435
4037.5, 0.477329
4040.65, 0.477276
4043.8, 0.477223
4046.96, 0.477117
4050.12, 0.476958
4053.29, 0.476852
4056.46, 0.476746
4059.64, 0.476534
4062.82, 0.476428
4066.0, 0.476269
4069.19, 0.476269
4072.39, 0.476216
4075.59, 0.475951
4078.8, 0.475633
4082.01, 0.475474
4085.23, 0.475315
4088.45, 0.475050
4091.68, 0.474785
4094.91, 0.474626
4098.15, 0.474414
4101.39, 0.474149
4104.63, 0.473885
4107.89, 0.473673
4111.14, 0.473514
4114.41, 0.473408
4117.67, 0.473037
4120.95, 0.472772
4124.23, 0.472613
4127.51, 0.472454
4130.8, 0.472189
4134.09, 0.472083
4137.39, 0.471924
4140.7, 0.471659
4144.01, 0.471394
4147.32, 0.471023
4150.64, 0.470811
4153.97, 0.470599
4157.3, 0.470281
4160.64, 0.470069
4163.98, 0.469751
4167.33, 0.469486
4170.68, 0.469168
4174.04, 0.468903
4177.4, 0.468532
4180.77, 0.468214
4184.14, 0.467949
4187.52, 0.467631
4190.91, 0.467419
4194.3, 0.467154
4197.69, 0.466836
4201.1, 0.466412
4204.5, 0.465988
4207.92, 0.465617
4211.34, 0.465458
4214.76, 0.465246
4218.19, 0.464928
4221.62, 0.464504
4225.06, 0.464027
4228.51, 0.463815
4231.96, 0.463497
4235.42, 0.462967
4238.88, 0.462544
4242.35, 0.462226
4245.83, 0.461802
4249.31, 0.461431
4252.79, 0.461113
4256.28, 0.460795
4259.78, 0.460371
4263.29, 0.459841
4266.79, 0.459417
4270.31, 0.459205
4273.83, 0.458887
4277.35, 0.458675
4280.89, 0.458410
4284.42, 0.458145
4287.97, 0.457668
4291.52, 0.457350
4295.07, 0.457085
4298.63, 0.456714
4302.2, 0.456290
4305.78, 0.455919
4309.35, 0.455601
4312.94, 0.455389
4316.53, 0.454912
4320.13, 0.454488
4323.73, 0.454117
4327.34, 0.453799
4330.96, 0.453587
4334.58, 0.453163
4338.21, 0.452686
4341.84, 0.452474
4345.48, 0.452156
4349.12, 0.451732
4352.77, 0.451308
4356.43, 0.450832
4360.1, 0.450355
4363.76, 0.450090
4367.44, 0.449719
4371.12, 0.449189
4374.81, 0.448765
4378.51, 0.448447
4382.21, 0.448023
4385.92, 0.447546
4389.63, 0.447069
4393.35, 0.446645
4397.08, 0.446221
4400.81, 0.445744
4404.55, 0.445214
4408.29, 0.444737
4412.04, 0.444260
4415.8, 0.443836
4419.57, 0.443306
4423.34, 0.442829
4427.12, 0.442299
4430.9, 0.441769
4434.69, 0.441239
4438.49, 0.440709
4442.29, 0.440073
4446.1, 0.439491
4449.92, 0.438802
4453.74, 0.438325
4457.57, 0.437689
4461.41, 0.436947
4465.25, 0.436205
4469.1, 0.435516
4472.95, 0.434880
4476.82, 0.434244
4480.69, 0.433502
4484.56, 0.432707
4488.44, 0.431912
4492.33, 0.431276
4496.23, 0.430481
4500.13, 0.429686
4504.04, 0.428838
4507.96, 0.428097
4511.88, 0.427249
4515.81, 0.426401
4519.75, 0.425500
4523.69, 0.424652
4527.65, 0.423698
4531.6, 0.422850
4535.57, 0.421896
4539.54, 0.420836
4543.52, 0.419776
4547.5, 0.418716
4551.5, 0.417444
4555.5, 0.416120
4559.5, 0.414689
4563.52, 0.413205
4567.54, 0.411509
4571.56, 0.409654
4575.6, 0.407640
4579.64, 0.405573
4583.69, 0.403454
4587.75, 0.401334
4591.81, 0.399214
4595.88, 0.397147
4599.96, 0.395133
4604.04, 0.393279
4608.14, 0.391530
4612.24, 0.389940
4616.34, 0.388456
4620.46, 0.387078
4624.58, 0.385965
4628.71, 0.384852
4632.84, 0.383633
4636.99, 0.382362
4641.14, 0.381090
4645.3, 0.379659
4649.47, 0.378122
4653.64, 0.376426
4657.82, 0.374677
4662.01, 0.372822
4666.21, 0.370809
4670.41, 0.368848
4674.62, 0.366887
4678.84, 0.364820
4683.07, 0.362700
4687.3, 0.360633
4691.54, 0.358514
4695.79, 0.356447
4700.05, 0.354433
4704.31, 0.352313
4708.59, 0.350140
4712.87, 0.348074
4717.15, 0.345954
4721.45, 0.343993
4725.76, 0.342032
4730.07, 0.339965
4734.39, 0.337951
4738.72, 0.336044
4743.05, 0.334136
4747.39, 0.332281
4751.75, 0.330532
4756.1, 0.328942
4760.47, 0.327405
4764.85, 0.325868
4769.23, 0.324385
4773.62, 0.323007
4778.02, 0.321841
4782.43, 0.320728
4786.85, 0.319350
4791.27, 0.317972
4795.7, 0.316700
4800.14, 0.315375
4804.59, 0.314050
4809.05, 0.312832
4813.51, 0.311454
4817.99, 0.310023
4822.47, 0.308592
4826.96, 0.307161
4831.46, 0.305677
4835.96, 0.304193
4840.48, 0.302604
4845.0, 0.301067
4849.54, 0.299477
4854.08, 0.297940
4858.63, 0.296403
4863.18, 0.294866
4867.75, 0.293382
4872.33, 0.291845
4876.91, 0.290256
4881.5, 0.288719
4886.1, 0.287129
4890.71, 0.285539
4895.33, 0.284002
4899.96, 0.282465
4904.59, 0.280875
4909.24, 0.279339
4913.89, 0.277643
4918.55, 0.276000
4923.22, 0.274410
4927.9, 0.272873
4932.59, 0.271283
4937.29, 0.269693
4942.0, 0.268316
4946.71, 0.266991
4951.44, 0.265772
4956.17, 0.264659
4960.91, 0.263387
4965.67, 0.262221
4970.43, 0.261320
4975.2, 0.260525
4979.98, 0.259783
4984.76, 0.259147
4989.56, 0.258617
4994.37, 0.258087
4999.18, 0.257663
5004.01, 0.257451
5008.84, 0.257186
5013.69, 0.257028
5018.54, 0.257080
5023.4, 0.257028
5028.28, 0.256922
5033.16, 0.256975
5038.05, 0.256922
5042.95, 0.256975
5047.86, 0.256975
5052.78, 0.257028
5057.71, 0.257080
5062.65, 0.257133
5067.6, 0.257186
5072.56, 0.257186
5077.53, 0.257186
5082.5, 0.257292
5087.49, 0.257186
5092.49, 0.257080
5097.5, 0.256975
5102.51, 0.256922
5107.54, 0.256816
5112.58, 0.256763
5117.62, 0.256604
5122.68, 0.256498
5127.75, 0.256392
5132.82, 0.256233
5137.91, 0.256074
5143.01, 0.256021
5148.12, 0.255915
5153.23, 0.255385
5158.36, 0.255014
5163.5, 0.254855
5168.65, 0.254590
5173.81, 0.254219
5178.98, 0.253848
5184.15, 0.253583
5189.34, 0.253265
5194.54, 0.252894
5199.75, 0.252576
5204.98, 0.252152
5210.21, 0.251940
5215.45, 0.251410
5220.7, 0.250509
5225.96, 0.249979
5231.23, 0.249502
5236.52, 0.249131
5241.81, 0.248548
5247.12, 0.247965
5252.44, 0.247276
5257.76, 0.246746
5263.1, 0.246163
5268.45, 0.245686
5273.81, 0.245263
5279.18, 0.244733
5284.56, 0.244203
5289.95, 0.243991
5295.36, 0.243355
5300.77, 0.242613
5306.2, 0.242030
5311.63, 0.241553
5317.08, 0.240970
5322.54, 0.240387
5328.01, 0.239857
5333.49, 0.239327
5338.98, 0.238744
5344.49, 0.238479
5350.0, 0.238161
5355.53, 0.237048
5361.07, 0.235988
5366.62, 0.235140
5372.18, 0.234240
5377.75, 0.233286
5383.34, 0.232385
5388.93, 0.231484
5394.54, 0.230530
5400.16, 0.229470
5405.79, 0.228516
5411.44, 0.227615
5417.09, 0.227085
5422.76, 0.226290
5428.43, 0.224435
5434.12, 0.222898
5439.83, 0.221680
5445.54, 0.220514
5451.26, 0.219295
5457.0, 0.218447
5462.75, 0.217864
5468.52, 0.216698
5474.29, 0.215585
5480.08, 0.214684
5485.88, 0.213306
5491.69, 0.212352
5497.51, 0.211505
5503.35, 0.210922
5509.2, 0.210180
5515.06, 0.209650
5520.93, 0.209226
5526.82, 0.208643
5532.71, 0.207901
5538.63, 0.207371
5544.55, 0.207159
5550.49, 0.207000
5556.44, 0.206417
5562.4, 0.205781
5568.37, 0.205410
5574.36, 0.205622
5580.36, 0.205304
5586.37, 0.204244
5592.4, 0.203502
5598.44, 0.203343
5604.49, 0.203025
5610.56, 0.202654
5616.63, 0.202495
5622.73, 0.201965
5628.83, 0.201753
5634.95, 0.202177
5641.08, 0.202601
5647.23, 0.201806
5653.39, 0.201117
5659.56, 0.200428
5665.74, 0.199687
5671.94, 0.199846
5678.15, 0.199422
5684.38, 0.198574
5690.62, 0.198203
5696.87, 0.197302
5703.14, 0.196772
5709.42, 0.196825
5715.72, 0.195818
5722.03, 0.194493
5728.35, 0.193327
5734.69, 0.192426
5741.03, 0.191472
5747.4, 0.190677
5753.78, 0.189034
5760.17, 0.188663
5766.58, 0.188293
5773.0, 0.185643
5779.44, 0.183682
5785.88, 0.182039
5792.35, 0.180661
5798.83, 0.179548
5805.32, 0.178170
5811.83, 0.177428
5818.35, 0.177428
5824.89, 0.176422
5831.45, 0.174567
5838.01, 0.172924
5844.59, 0.171599
5851.19, 0.170910
5857.8, 0.170433
5864.43, 0.169691
5871.07, 0.168843
5877.73, 0.169585
5884.4, 0.168578
5891.09, 0.167306
5897.79, 0.166723
5904.5, 0.164816
5911.23, 0.163809
5917.98, 0.163279
5924.75, 0.162908
5931.53, 0.163650
5938.32, 0.163809
5945.13, 0.162060
5951.96, 0.160947
5958.8, 0.160364
5965.65, 0.160682
5972.53, 0.160152
5979.42, 0.159463
5986.32, 0.159675
5993.24, 0.158880
6000.18, 0.157661
6007.13, 0.157343
6014.1, 0.157131
6021.08, 0.156230
6028.09, 0.155329
6035.1, 0.154958
6042.14, 0.156071
6049.19, 0.156654
6056.25, 0.154005
6063.34, 0.152839
6070.44, 0.152892
6077.55, 0.151726
6084.69, 0.150242
6091.84, 0.149500
6099.0, 0.148970
6106.19, 0.149182
6113.39, 0.149288
6120.61, 0.147857
6127.84, 0.146691
6135.09, 0.146320
6142.36, 0.146108
6149.65, 0.145684
6156.95, 0.145631
6164.27, 0.145154
6171.61, 0.144677
6178.97, 0.145207
6186.34, 0.145419
6193.73, 0.144412
6201.14, 0.143988
6208.57, 0.143988
6216.01, 0.144041
6223.47, 0.143988
6230.95, 0.144041
6238.45, 0.144147
6245.97, 0.144306
6253.5, 0.144412
6261.06, 0.144624
6268.63, 0.144836
6276.21, 0.145048
6283.82, 0.145313
6291.45, 0.145578
6299.1, 0.145896
6306.76, 0.146267
6314.44, 0.146691
6322.14, 0.147327
6329.86, 0.148175
6337.6, 0.149659
6345.35, 0.151090
6353.13, 0.151143
6360.92, 0.152097
6368.74, 0.153634
6376.57, 0.154375
6384.43, 0.155011
6392.3, 0.156018
6400.19, 0.157502
6408.1, 0.160682
6416.03, 0.162537
6423.98, 0.161954
6431.95, 0.162431
6439.94, 0.163173
6447.95, 0.164180
6455.98, 0.165399
6464.03, 0.166723
6472.1, 0.168578
6480.19, 0.170433
6488.31, 0.172871
6496.44, 0.173984
6504.59, 0.173348
6512.76, 0.174037
6520.95, 0.175521
6529.16, 0.175839
6537.4, 0.176634
6545.65, 0.177852
6553.92, 0.178912
6562.22, 0.179760
6570.54, 0.181191
6578.88, 0.181085
6587.23, 0.180979
6595.61, 0.181085
6604.02, 0.180979
6612.44, 0.181244
6620.89, 0.181721
6629.35, 0.183152
6637.84, 0.184053
6646.35, 0.182251
6654.88, 0.181138
6663.44, 0.181350
6672.01, 0.181721
6680.61, 0.181827
6689.23, 0.181085
6697.88, 0.180502
6706.54, 0.181032
6715.23, 0.180979
6723.94, 0.180343
6732.67, 0.179601
6741.42, 0.179230
6750.2, 0.178859
6759.0, 0.178488
6767.82, 0.178329
6776.67, 0.178276
6785.54, 0.178329
6794.44, 0.177428
6803.35, 0.175733
6812.29, 0.175097
6821.26, 0.175203
6830.24, 0.174726
6839.25, 0.173613
6848.29, 0.173560
6857.35, 0.174567
6866.43, 0.174090
6875.54, 0.171970
6884.67, 0.170910
6893.82, 0.170168
6903.0, 0.169850
6912.2, 0.169108
6921.43, 0.168313
6930.69, 0.167677
6939.96, 0.166988
6949.27, 0.166723
6958.59, 0.166776
6967.95, 0.165346
6977.33, 0.163968
6986.73, 0.163226
6996.16, 0.162431
7005.61, 0.161424
7015.09, 0.160682
7024.6, 0.159993
7034.13, 0.159410
7043.69, 0.159410
7053.27, 0.158403
7062.88, 0.157237
7072.52, 0.156495
7082.18, 0.155912
7091.87, 0.155382
7101.58, 0.154640
7111.32, 0.154058
7121.09, 0.153422
7130.88, 0.152521
7140.71, 0.151991
7150.56, 0.151408
7160.43, 0.150666
7170.33, 0.149871
7180.27, 0.148652
7190.23, 0.147645
7200.21, 0.147115
7210.23, 0.146426
7220.27, 0.145260
7230.34, 0.144359
7240.44, 0.143405
7250.56, 0.142505
7260.72, 0.141657
7270.9, 0.140968
7281.12, 0.140067
7291.36, 0.139007
7301.63, 0.138000
7311.93, 0.136993
7322.25, 0.136251
7332.61, 0.135668
7343.0, 0.134767
7353.41, 0.133760
7363.86, 0.132700
7374.33, 0.131640
7384.83, 0.130634
7395.37, 0.129786
7405.93, 0.129044
7416.53, 0.128143
7427.15, 0.127295
7437.81, 0.126447
7448.5, 0.125811
7459.22, 0.125228
7469.96, 0.124327
7480.74, 0.123373
7491.55, 0.122472
7502.39, 0.121571
7513.27, 0.120617
7524.17, 0.119823
7535.11, 0.119028
7546.08, 0.118074
7557.08, 0.117226
7568.11, 0.116378
7579.17, 0.115530
7590.27, 0.114629
7601.4, 0.113781
7612.56, 0.112933
7623.76, 0.112032
7634.98, 0.111184
7646.24, 0.110336
7657.54, 0.109541
7668.87, 0.108746
7680.23, 0.107793
7691.62, 0.106839
7703.05, 0.105938
7714.51, 0.105037
7726.01, 0.104083
7737.54, 0.103076
7749.11, 0.102069
7760.71, 0.101168
7772.35, 0.100214
7784.02, 0.0992600
7795.72, 0.0982530
7807.46, 0.0971930
7819.23, 0.0960810
7831.04, 0.0950740
7842.89, 0.0940140
7854.77, 0.0929010
7866.69, 0.0918410
7878.65, 0.0907810
7890.64, 0.0894560
7902.67, 0.0882370
7914.74, 0.0870180
7926.84, 0.0857460
7938.98, 0.0844220
7951.16, 0.0831500
7963.37, 0.0818780
7975.62, 0.0805530
7987.91, 0.0791220
8000.24, 0.0777440
8012.6, 0.0763660
8025.01, 0.0749350
8037.45, 0.0733460
8049.93, 0.0718620
8062.45, 0.0703780
8075.01, 0.0690000
8087.61, 0.0674630
8100.24, 0.0659260
8112.91, 0.0644950
8125.63, 0.0628530
8138.39, 0.0610510
8151.18, 0.0594080
8164.02, 0.0577120
8176.9, 0.0558570
8189.81, 0.0540550
8202.77, 0.0523590
8215.77, 0.0505050
8228.82, 0.0487030
8241.9, 0.0469540
8255.02, 0.0452050
8268.19, 0.0434560
8281.39, 0.0417070
8294.65, 0.0398000
8307.94, 0.0378920
8321.28, 0.0360900
8334.66, 0.0343940
8348.08, 0.0325920
8361.54, 0.0309490
8375.05, 0.0294650
8388.6, 0.0279820
8402.2, 0.0262330
8415.84, 0.0245900
8429.52, 0.0230530
8443.25, 0.0216220
8457.02, 0.0203500
8470.84, 0.0192370
8484.7, 0.0181240
8498.61, 0.0169590
8512.57, 0.0157930
8526.57, 0.0148920
8540.62, 0.0140970
8554.71, 0.0133550
8568.85, 0.0127190
8583.04, 0.0123480
8597.27, 0.0119770
8611.55, 0.0116590
8625.88, 0.0114470
8640.26, 0.0113940
8654.68, 0.0113940
8669.16, 0.0117650
8683.68, 0.0122950
8698.25, 0.0130370
8712.87, 0.0138320
8727.53, 0.0147860
8742.25, 0.0159520
8757.02, 0.0174880
8771.83, 0.0190780
8786.7, 0.0209330
8801.62, 0.0230000
8816.59, 0.0253850
8831.61, 0.0278760
8846.68, 0.0305250
8861.8, 0.0332810
8876.97, 0.0363020
8892.2, 0.0393760
8907.48, 0.0424490
8922.81, 0.0455230
8938.2, 0.0488620
8953.63, 0.0526240
8969.13, 0.0567580
8984.67, 0.0613690
9000.27, 0.0666150
9015.92, 0.0723390
9031.63, 0.0783800
9047.39, 0.0844750
9063.21, 0.0904630
9079.08, 0.0961340
9095.01, 0.101645
9111.0, 0.106945
9127.04, 0.111820
9143.13, 0.116855
9159.28, 0.122260
9175.49, 0.128249
9191.76, 0.134820
9208.09, 0.141922
9224.47, 0.149606
9240.92, 0.157714
9257.42, 0.165611
9273.98, 0.172871
9290.6, 0.179018
9307.28, 0.183735
9324.02, 0.186756
9340.82, 0.187922
9357.68, 0.187286
9374.6, 0.185802
9391.58, 0.183894
9408.62, 0.181774
9425.73, 0.179972
9442.9, 0.179230
9460.13, 0.179601
9477.42, 0.181244
9494.78, 0.184159
9512.2, 0.188028
9529.69, 0.192850
9547.24, 0.198680
9564.86, 0.204986
9582.54, 0.211346
9600.28, 0.217546
9618.1, 0.223958
9635.97, 0.230530
9653.92, 0.236995
9671.93, 0.242560
9690.01, 0.246905
9708.16, 0.249502
9726.37, 0.250509
9744.65, 0.250191
9763.0, 0.249078
9781.43, 0.246905
9799.92, 0.243885
9818.48, 0.239910
9837.1, 0.234875
9855.8, 0.229417
9874.58, 0.224064
9893.42, 0.218076
9912.34, 0.212034
9931.33, 0.205993
9950.39, 0.199951
9969.52, 0.194334
9988.74, 0.189087
10008.0, 0.184477
10027.4, 0.180237
10046.8, 0.176157
10066.3, 0.172076
10085.9, 0.168260
10105.6, 0.164922
10125.3, 0.161477
10145.1, 0.157661
10165.0, 0.154164
10185.0, 0.151090
10205.0, 0.148122
10225.2, 0.145684
10245.4, 0.144041
10265.7, 0.143246
10286.0, 0.143140
10306.5, 0.143723
10327.0, 0.144624
10347.6, 0.145631
10368.3, 0.146161
10389.1, 0.146479
10409.9, 0.146426
10430.9, 0.145631
10451.9, 0.144094
10473.0, 0.142134
10494.2, 0.139696
10515.5, 0.136781
10536.9, 0.133442
10558.4, 0.129786
10579.9, 0.125864
10601.5, 0.121783
10623.3, 0.117438
10645.1, 0.113410
10667.0, 0.109700
10689.0, 0.106468
10711.1, 0.103447
10733.2, 0.100691
10755.5, 0.0982000
10777.9, 0.0959750
10800.3, 0.0939610
10822.9, 0.0918410
10845.5, 0.0899330
10868.2, 0.0881840
10891.1, 0.0865940
10914.0, 0.0849520
10937.0, 0.0835740
10960.2, 0.0820900
10983.4, 0.0805530
11006.7, 0.0792810
11030.1, 0.0783800
11053.6, 0.0776380
11077.3, 0.0769490
11101.0, 0.0762070
11124.8, 0.0754120
11148.7, 0.0744050
11172.7, 0.0735050
11196.9, 0.0726040
11221.1, 0.0718620
11245.4, 0.0710670
11269.9, 0.0700600
11294.4, 0.0690000
11319.1, 0.0682050
11343.9, 0.0671980
11368.8, 0.0663500
11393.7, 0.0653430
11418.8, 0.0642830
11444.0, 0.0634880
11469.4, 0.0626940
11494.8, 0.0620050
11520.3, 0.0614220
11546.0, 0.0607330
11571.8, 0.0603090
11597.7, 0.0597790
11623.7, 0.0591960
11649.8, 0.0586660
11676.0, 0.0577120
11702.4, 0.0567050
11728.9, 0.0558570
11755.5, 0.0548500
11782.2, 0.0536840
11809.0, 0.0523060
11836.0, 0.0508230
11863.0, 0.0491270
11890.3, 0.0473250
11917.6, 0.0454700
11945.0, 0.0437740
11972.6, 0.0418660
12000.4, 0.0400110
12028.2, 0.0384750
12056.2, 0.0372560
12084.3, 0.0358250
12112.5, 0.0345530
12140.9, 0.0334930
12169.4, 0.0328040
12198.0, 0.0321680
12226.8, 0.0311610
12255.7, 0.0303130
12284.7, 0.0299420
12313.9, 0.0294120
12343.2, 0.0287230
12372.7, 0.0281940
12402.3, 0.0277700
12432.0, 0.0273990
12461.9, 0.0276110
12491.9, 0.0275580
12522.1, 0.0274520
12552.4, 0.0278760
12582.9, 0.0283530
12613.5, 0.0287230
12644.3, 0.0294650
12675.2, 0.0306310
12706.3, 0.0319030
12737.5, 0.0331220
12768.9, 0.0343410
12800.4, 0.0358780
12832.1, 0.0374150
12863.9, 0.0387400
12895.9, 0.0398530
12928.1, 0.0412830
12960.4, 0.0430320
12992.9, 0.0444630
13025.5, 0.0456290
13058.3, 0.0467420
13091.3, 0.0479610
13124.4, 0.0490740
13157.8, 0.0499220
13191.2, 0.0501870
13224.9, 0.0507170
13258.7, 0.0510350
13292.7, 0.0505580
13326.9, 0.0500810
13361.2, 0.0496570
13395.7, 0.0488090
13430.4, 0.0481200
13465.3, 0.0476430
13500.4, 0.0473780
13535.7, 0.0470600
13571.1, 0.0470070
13606.7, 0.0473780
13642.5, 0.0479610
13678.5, 0.0483320
13714.7, 0.0485440
13751.1, 0.0487560
13787.6, 0.0485970
13824.4, 0.0484380
13861.4, 0.0486500
13898.5, 0.0483850
13935.9, 0.0476430
13973.5, 0.0473250
14011.2, 0.0471660
14049.2, 0.0469010
14087.4, 0.0471130
14125.8, 0.0470600
14164.3, 0.0470600
14203.2, 0.0469540
14242.2, 0.0473250
14281.4, 0.0479610
14320.9, 0.0488620
14360.5, 0.0495510
14400.4, 0.0508230
14440.5, 0.0523590
14480.9, 0.0540020
14521.4, 0.0556450
14562.2, 0.0576060
14603.3, 0.0586130
14644.5, 0.0590370
14686.0, 0.0594080
14727.7, 0.0599380
14769.7, 0.0597790
14811.9, 0.0597260
14854.3, 0.0597260
14897.0, 0.0596730
14939.9, 0.0597260
14983.1, 0.0606270
15026.5, 0.0621110
15070.2, 0.0643890
15114.2, 0.0666150
15158.3, 0.0685230
15202.8, 0.0709610
15247.5, 0.0740350
15292.5, 0.0759420
15337.7, 0.0773730
15383.2, 0.0785920
15429.0, 0.0790690
15475.1, 0.0785920
15521.4, 0.0773730
15568.0, 0.0758890
15614.9, 0.0742470
15662.1, 0.0721270
15709.6, 0.0701660
15757.3, 0.0684170
15805.4, 0.0666680
15853.7, 0.0647070
15902.3, 0.0629050
15951.2, 0.0614220
16000.5, 0.0603620
16050.0, 0.0590900
16099.8, 0.0577120
16150.0, 0.0565990
16200.5, 0.0554330
16251.3, 0.0540020
16302.4, 0.0527300
16353.8, 0.0514580
16405.5, 0.0501870
16457.6, 0.0486500
16510.0, 0.0472190
16562.8, 0.0456820
16615.9, 0.0434030
16669.3, 0.0412300
16723.1, 0.0392700
16777.2, 0.0366730
16831.7, 0.0341820
16886.5, 0.0315320
16941.7, 0.0292530
16997.2, 0.0266570
17053.1, 0.0241660
17109.4, 0.0226290
17166.1, 0.0215690
17223.1, 0.0202440
17280.5, 0.0200320
17338.3, 0.0209330
17396.5, 0.0224700
17455.1, 0.0255440
17514.0, 0.0308430
17573.4, 0.0376800
17633.2, 0.0461060
17693.4, 0.0552210
17754.0, 0.0646010
17815.0, 0.0739290
17876.4, 0.0806060
17938.3, 0.0842100
18000.5, 0.0846870
18063.3, 0.0821960
18126.4, 0.0793870
18190.0, 0.0770550
18254.1, 0.0770550
18318.6, 0.0790690
18383.5, 0.0815070
18449.0, 0.0838920
18514.9, 0.0874950
18581.2, 0.0913110
18648.0, 0.0947030
18715.4, 0.0979350
18783.2, 0.103553
18851.5, 0.111290
18920.3, 0.119770
18989.6, 0.129044
19059.4, 0.139802
19129.7, 0.151673
19200.6, 0.165769
19272.0, 0.180343
19343.9, 0.193698
19416.3, 0.205993
19489.3, 0.217175
19562.8, 0.225707
19637.0, 0.231749
19711.6, 0.236147
19786.8, 0.240016
19862.6, 0.243726
19939.0, 0.246375
20016.0, 0.246640
20093.6, 0.246057
20171.8, 0.245210
20250.6, 0.244945
20330.0, 0.245739
20410.0, 0.249184
20490.7, 0.256604
20572.0, 0.265878
20654.0, 0.274410
20736.6, 0.281140
20819.9, 0.287500
20903.8, 0.291474
20988.5, 0.293806
21073.8, 0.296191
21159.8, 0.297940
21246.5, 0.297781
21334.0, 0.295820
21422.1, 0.292057
21511.0, 0.286334
21600.7, 0.279498
21691.0, 0.272237
21782.1, 0.263864
21874.0, 0.253318
21966.7, 0.243090
22060.2, 0.233922
22154.5, 0.224806
22249.6, 0.219719
22345.5, 0.220090
22442.2, 0.220514
22539.8, 0.219401
22638.2, 0.217122
22737.5, 0.212511
22837.7, 0.206311
22938.7, 0.198680
23040.7, 0.190253
23143.5, 0.183417
23247.3, 0.178276
23352.1, 0.173984
23457.7, 0.168048
23564.4, 0.164339
23672.0, 0.162802
23780.5, 0.161371
23890.1, 0.156601
24000.7, 0.151196
24112.3, 0.147592
24225.0, 0.143564
24338.7, 0.141604
24453.5, 0.141127
24569.4, 0.137735
24686.4, 0.134820
24804.5, 0.135032
24923.8, 0.132859
