Database of Origin, USGS Spectral Database
Sample Description, See USGS database for additional info
Date Added,2016-08-10 02:52:15.069117

Data ID,USGS_gro10          
Sample ID, grossular_hs113.8529
Mineral Name, grossular
Material Class,Nesosilicate

Wavelength
1578.13, 0.383451
1578.61, 0.383758
1579.09, 0.384434
1579.57, 0.384986
1580.05, 0.385171
1580.54, 0.385109
1581.02, 0.385355
1581.5, 0.385908
1581.98, 0.386399
1582.47, 0.386644
1582.95, 0.386706
1583.43, 0.386706
1583.92, 0.386829
1584.4, 0.387197
1584.88, 0.387320
1585.37, 0.387504
1585.85, 0.387873
1586.34, 0.388241
1586.82, 0.388671
1587.31, 0.388978
1587.8, 0.388917
1588.28, 0.389224
1588.77, 0.389715
1589.26, 0.389961
1589.74, 0.390083
1590.23, 0.390636
1590.72, 0.390882
1591.21, 0.390882
1591.7, 0.391127
1592.19, 0.391496
1592.67, 0.391864
1593.16, 0.391742
1593.65, 0.391619
1594.14, 0.391926
1594.63, 0.392110
1595.12, 0.392663
1595.61, 0.393031
1596.11, 0.393400
1596.6, 0.393338
1597.09, 0.393400
1597.58, 0.393891
1598.08, 0.393952
1598.57, 0.393830
1599.06, 0.394198
1599.55, 0.394628
1600.05, 0.395119
1600.54, 0.395058
1601.04, 0.394874
1601.53, 0.395119
1602.03, 0.395365
1602.52, 0.395365
1603.02, 0.395426
1603.51, 0.395856
1604.01, 0.396225
1604.5, 0.396409
1605.0, 0.396654
1605.5, 0.396716
1606.0, 0.396777
1606.49, 0.397084
1606.99, 0.397514
1607.49, 0.397698
1607.99, 0.397637
1608.49, 0.398128
1608.99, 0.398435
1609.49, 0.398374
1609.99, 0.398620
1610.49, 0.398927
1610.99, 0.398988
1611.49, 0.399111
1611.99, 0.399295
1612.49, 0.399541
1612.99, 0.399971
1613.49, 0.400278
1614.0, 0.400216
1614.5, 0.400278
1615.0, 0.400769
1615.51, 0.400953
1616.01, 0.400953
1616.51, 0.401137
1617.02, 0.401137
1617.52, 0.401383
1618.03, 0.401383
1618.53, 0.401567
1619.04, 0.401874
1619.54, 0.401936
1620.05, 0.401874
1620.55, 0.402059
1621.06, 0.402550
1621.57, 0.402550
1622.08, 0.402427
1622.58, 0.402673
1623.09, 0.402918
1623.6, 0.403103
1624.11, 0.402980
1624.62, 0.402857
1625.13, 0.403103
1625.64, 0.403410
1626.15, 0.403655
1626.66, 0.403533
1627.17, 0.403655
1627.68, 0.403901
1628.19, 0.404024
1628.7, 0.404024
1629.21, 0.404269
1629.72, 0.404577
1630.24, 0.404822
1630.75, 0.404884
1631.26, 0.404945
1631.78, 0.405559
1632.29, 0.405621
1632.8, 0.405252
1633.32, 0.405252
1633.83, 0.405621
1634.35, 0.405559
1634.86, 0.405375
1635.38, 0.405682
1635.9, 0.405989
1636.41, 0.405866
1636.93, 0.405989
1637.45, 0.406235
1637.96, 0.406050
1638.48, 0.406112
1639.0, 0.406664
1639.52, 0.406910
1640.04, 0.407217
1640.56, 0.407156
1641.08, 0.407033
1641.59, 0.406787
1642.11, 0.406910
1642.63, 0.407279
1643.16, 0.407279
1643.68, 0.407094
1644.2, 0.407340
1644.72, 0.407524
1645.24, 0.407770
1645.76, 0.407954
1646.29, 0.407831
1646.81, 0.407770
1647.33, 0.407893
1647.86, 0.408077
1648.38, 0.408016
1648.9, 0.407954
1649.43, 0.408138
1649.95, 0.408507
1650.48, 0.408630
1651.0, 0.408752
1651.53, 0.408752
1652.06, 0.408752
1652.58, 0.408998
1653.11, 0.408998
1653.64, 0.408937
1654.17, 0.408937
1654.69, 0.408875
1655.22, 0.408875
1655.75, 0.409367
1656.28, 0.409858
1656.81, 0.409796
1657.34, 0.409674
1657.87, 0.409796
1658.4, 0.409858
1658.93, 0.409796
1659.46, 0.410042
1659.99, 0.410103
1660.52, 0.409981
1661.05, 0.409981
1661.59, 0.409981
1662.12, 0.410103
1662.65, 0.410349
1663.19, 0.410472
1663.72, 0.410656
1664.26, 0.410718
1664.79, 0.410779
1665.32, 0.410840
1665.86, 0.411270
1666.39, 0.411270
1666.93, 0.411025
1667.47, 0.411209
1668.0, 0.411332
1668.54, 0.411209
1669.08, 0.411332
1669.61, 0.411332
1670.15, 0.411455
1670.69, 0.411884
1671.23, 0.412069
1671.77, 0.412191
1672.31, 0.412191
1672.85, 0.412007
1673.39, 0.411946
1673.93, 0.412191
1674.47, 0.412314
1675.01, 0.412437
1675.55, 0.412560
1676.09, 0.412437
1676.64, 0.412437
1677.18, 0.412437
1677.72, 0.412560
1678.26, 0.412560
1678.81, 0.412621
1679.35, 0.412928
1679.89, 0.412928
1680.44, 0.412990
1680.98, 0.413174
1681.53, 0.412928
1682.07, 0.413051
1682.62, 0.413481
1683.17, 0.413665
1683.71, 0.413543
1684.26, 0.413604
1684.81, 0.413972
1685.36, 0.414279
1685.9, 0.414279
1686.45, 0.414095
1687.0, 0.413850
1687.55, 0.413850
1688.1, 0.413788
1688.65, 0.413850
1689.2, 0.414402
1689.75, 0.414648
1690.3, 0.414525
1690.85, 0.414648
1691.41, 0.414894
1691.96, 0.415201
1692.51, 0.415201
1693.06, 0.415139
1693.61, 0.415201
1694.17, 0.414955
1694.72, 0.415016
1695.28, 0.415385
1695.83, 0.415446
1696.39, 0.415446
1696.94, 0.415385
1697.5, 0.415446
1698.05, 0.415631
1698.61, 0.415692
1699.17, 0.415876
1699.72, 0.416060
1700.28, 0.416060
1700.84, 0.416552
1701.4, 0.416736
1701.95, 0.416490
1702.51, 0.416367
1703.07, 0.416613
1703.63, 0.416859
1704.19, 0.416920
1704.75, 0.417104
1705.31, 0.416982
1705.88, 0.417104
1706.44, 0.417596
1707.0, 0.417718
1707.56, 0.417657
1708.12, 0.417534
1708.69, 0.417596
1709.25, 0.418087
1709.81, 0.418148
1710.38, 0.418087
1710.94, 0.417903
1711.51, 0.417841
1712.07, 0.418087
1712.64, 0.418210
1713.2, 0.418517
1713.77, 0.418701
1714.34, 0.418885
1714.9, 0.419070
1715.47, 0.418824
1716.04, 0.418701
1716.61, 0.418947
1717.18, 0.419131
1717.74, 0.419131
1718.31, 0.419254
1718.88, 0.419561
1719.45, 0.419745
1720.02, 0.419684
1720.59, 0.419745
1721.17, 0.419868
1721.74, 0.419868
1722.31, 0.420175
1722.88, 0.420359
1723.45, 0.420298
1724.03, 0.420421
1724.6, 0.420666
1725.18, 0.420850
1725.75, 0.420789
1726.33, 0.420605
1726.9, 0.420789
1727.48, 0.420973
1728.05, 0.420973
1728.63, 0.421465
1729.2, 0.421587
1729.78, 0.421096
1730.36, 0.421219
1730.94, 0.421465
1731.51, 0.421587
1732.09, 0.421465
1732.67, 0.421465
1733.25, 0.421710
1733.83, 0.421894
1734.41, 0.421833
1734.99, 0.421894
1735.57, 0.422017
1736.15, 0.422263
1736.73, 0.422509
1737.32, 0.422447
1737.9, 0.422386
1738.48, 0.422447
1739.07, 0.422754
1739.65, 0.422938
1740.23, 0.422816
1740.82, 0.422754
1741.4, 0.423061
1741.99, 0.423245
1742.57, 0.423245
1743.16, 0.423245
1743.74, 0.423368
1744.33, 0.423737
1744.92, 0.423860
1745.51, 0.423675
1746.09, 0.423552
1746.68, 0.423737
1747.27, 0.423921
1747.86, 0.423860
1748.45, 0.423921
1749.04, 0.423921
1749.63, 0.424228
1750.22, 0.424351
1750.81, 0.424412
1751.4, 0.424412
1751.99, 0.424597
1752.59, 0.424904
1753.18, 0.424965
1753.77, 0.424965
1754.37, 0.425026
1754.96, 0.425088
1755.56, 0.425088
1756.15, 0.425395
1756.74, 0.425579
1757.34, 0.425456
1757.94, 0.425272
1758.53, 0.425272
1759.13, 0.425272
1759.73, 0.425395
1760.32, 0.425702
1760.92, 0.425886
1761.52, 0.426009
1762.12, 0.425886
1762.72, 0.426009
1763.32, 0.426193
1763.92, 0.425825
1764.52, 0.425825
1765.12, 0.425886
1765.72, 0.426132
1766.32, 0.426500
1766.92, 0.426623
1767.53, 0.426746
1768.13, 0.426869
1768.73, 0.426869
1769.34, 0.426746
1769.94, 0.426685
1770.55, 0.426807
1771.15, 0.426992
1771.76, 0.427176
1772.36, 0.427299
1772.97, 0.427421
1773.57, 0.427360
1774.18, 0.427114
1774.79, 0.427421
1775.4, 0.427483
1776.0, 0.427544
1776.61, 0.427790
1777.22, 0.427851
1777.83, 0.427544
1778.44, 0.427114
1779.05, 0.427176
1779.66, 0.427544
1780.27, 0.427667
1780.88, 0.427729
1781.5, 0.427851
1782.11, 0.427729
1782.72, 0.427667
1783.33, 0.427790
1783.95, 0.427729
1784.56, 0.427851
1785.18, 0.428220
1785.79, 0.428097
1786.41, 0.427729
1787.02, 0.427790
1787.64, 0.428097
1788.26, 0.428158
1788.87, 0.428220
1789.49, 0.428650
1790.11, 0.428465
1790.73, 0.427913
1791.35, 0.427544
1791.96, 0.427790
1792.58, 0.428404
1793.21, 0.428281
1793.83, 0.428158
1794.45, 0.428650
1795.07, 0.428343
1795.69, 0.428343
1796.31, 0.428527
1796.93, 0.428465
1797.56, 0.428220
1798.18, 0.428281
1798.8, 0.428404
1799.43, 0.428281
1800.05, 0.428343
1800.68, 0.428527
1801.3, 0.428465
1801.93, 0.428343
1802.56, 0.428404
1803.18, 0.428711
1803.81, 0.428834
1804.44, 0.428588
1805.07, 0.428527
1805.7, 0.428711
1806.33, 0.428711
1806.95, 0.428711
1807.58, 0.428957
1808.22, 0.429018
1808.85, 0.428895
1809.48, 0.428834
1810.11, 0.428957
1810.74, 0.428834
1811.38, 0.428895
1812.01, 0.429018
1812.64, 0.428772
1813.28, 0.428834
1813.91, 0.429080
1814.55, 0.429202
1815.18, 0.429202
1815.82, 0.429202
1816.45, 0.429264
1817.09, 0.429325
1817.73, 0.429571
1818.36, 0.429694
1819.0, 0.429694
1819.64, 0.429448
1820.28, 0.429202
1820.92, 0.429325
1821.56, 0.429264
1822.2, 0.429448
1822.84, 0.429878
1823.48, 0.429939
1824.12, 0.429878
1824.76, 0.430246
1825.41, 0.430246
1826.05, 0.429939
1826.69, 0.430308
1827.34, 0.430676
1827.98, 0.430615
1828.63, 0.430553
1829.27, 0.430615
1829.92, 0.430799
1830.56, 0.430492
1831.21, 0.430553
1831.86, 0.430983
1832.5, 0.431167
1833.15, 0.431352
1833.8, 0.431352
1834.45, 0.431229
1835.1, 0.431106
1835.75, 0.430922
1836.4, 0.430676
1837.05, 0.430799
1837.7, 0.430922
1838.35, 0.431413
1839.01, 0.431475
1839.66, 0.431106
1840.31, 0.431229
1840.96, 0.431106
1841.62, 0.430922
1842.27, 0.431229
1842.93, 0.431597
1843.58, 0.431904
1844.24, 0.432027
1844.9, 0.432027
1845.55, 0.432089
1846.21, 0.431597
1846.87, 0.431045
1847.53, 0.431167
1848.18, 0.431536
1848.84, 0.431966
1849.5, 0.432150
1850.16, 0.432150
1850.82, 0.432457
1851.48, 0.432641
1852.14, 0.432457
1852.81, 0.432273
1853.47, 0.432211
1854.13, 0.432703
1854.8, 0.432887
1855.46, 0.432641
1856.12, 0.432334
1856.79, 0.432519
1857.45, 0.432948
1858.12, 0.433071
1858.79, 0.432948
1859.45, 0.432396
1860.12, 0.432334
1860.79, 0.432764
1861.46, 0.433010
1862.12, 0.432887
1862.79, 0.432703
1863.46, 0.432703
1864.13, 0.432519
1864.8, 0.432641
1865.48, 0.432826
1866.15, 0.432703
1866.82, 0.432457
1867.49, 0.432150
1868.16, 0.432519
1868.84, 0.432826
1869.51, 0.432703
1870.19, 0.432211
1870.86, 0.431536
1871.54, 0.431966
1872.21, 0.431904
1872.89, 0.431290
1873.56, 0.431597
1874.24, 0.432089
1874.92, 0.432089
1875.6, 0.432150
1876.28, 0.431904
1876.96, 0.431536
1877.64, 0.431597
1878.32, 0.431720
1879.0, 0.431659
1879.68, 0.431536
1880.36, 0.431536
1881.04, 0.431782
1881.73, 0.431782
1882.41, 0.431536
1883.09, 0.431106
1883.78, 0.430738
1884.46, 0.430799
1885.15, 0.430799
1885.83, 0.430615
1886.52, 0.430431
1887.21, 0.430431
1887.89, 0.430492
1888.58, 0.430308
1889.27, 0.429694
1889.96, 0.429448
1890.65, 0.429448
1891.34, 0.429387
1892.03, 0.429141
1892.72, 0.429264
1893.41, 0.429018
1894.1, 0.428772
1894.79, 0.428895
1895.49, 0.428711
1896.18, 0.428465
1896.87, 0.428097
1897.57, 0.427974
1898.26, 0.427790
1898.96, 0.427176
1899.65, 0.426685
1900.35, 0.426685
1901.05, 0.426869
1901.74, 0.426930
1902.44, 0.426439
1903.14, 0.426193
1903.84, 0.426316
1904.54, 0.425763
1905.24, 0.425395
1905.94, 0.425395
1906.64, 0.425088
1907.34, 0.425088
1908.04, 0.425211
1908.75, 0.425149
1909.45, 0.425026
1910.15, 0.424781
1910.86, 0.424597
1911.56, 0.424719
1912.27, 0.424597
1912.97, 0.424105
1913.68, 0.424044
1914.39, 0.424289
1915.09, 0.424228
1915.8, 0.424228
1916.51, 0.424228
1917.22, 0.424228
1917.93, 0.424351
1918.64, 0.424351
1919.35, 0.424167
1920.06, 0.423860
1920.77, 0.423982
1921.48, 0.424474
1922.19, 0.424842
1922.91, 0.425026
1923.62, 0.424965
1924.33, 0.424904
1925.05, 0.425149
1925.76, 0.425272
1926.48, 0.425149
1927.19, 0.425149
1927.91, 0.425211
1928.63, 0.425272
1929.35, 0.425456
1930.07, 0.425579
1930.78, 0.425518
1931.5, 0.425518
1932.22, 0.425825
1932.94, 0.425825
1933.66, 0.425763
1934.39, 0.425825
1935.11, 0.425948
1935.83, 0.425886
1936.55, 0.425763
1937.28, 0.425948
1938.0, 0.426193
1938.73, 0.426377
1939.45, 0.426255
1940.18, 0.426193
1940.9, 0.426316
1941.63, 0.426500
1942.36, 0.426623
1943.09, 0.426623
1943.81, 0.426623
1944.54, 0.426685
1945.27, 0.426869
1946.0, 0.426930
1946.73, 0.426992
1947.47, 0.427176
1948.2, 0.427299
1948.93, 0.427299
1949.66, 0.427360
1950.4, 0.427421
1951.13, 0.427421
1951.86, 0.427544
1952.6, 0.427544
1953.34, 0.427544
1954.07, 0.427606
1954.81, 0.427729
1955.55, 0.427851
1956.29, 0.428097
1957.02, 0.428281
1957.76, 0.428343
1958.5, 0.428343
1959.24, 0.428158
1959.98, 0.428281
1960.72, 0.428343
1961.47, 0.428404
1962.21, 0.428527
1962.95, 0.428650
1963.7, 0.428650
1964.44, 0.428711
1965.18, 0.428711
1965.93, 0.428711
1966.67, 0.428895
1967.42, 0.429018
1968.17, 0.428895
1968.92, 0.428711
1969.66, 0.428834
1970.41, 0.429018
1971.16, 0.428772
1971.91, 0.428772
1972.66, 0.428834
1973.41, 0.428834
1974.16, 0.428957
1974.92, 0.428957
1975.67, 0.428834
1976.42, 0.428895
1977.18, 0.429080
1977.93, 0.429018
1978.69, 0.428895
1979.44, 0.428895
1980.2, 0.428895
1980.95, 0.428834
1981.71, 0.429018
1982.47, 0.429018
1983.23, 0.428957
1983.99, 0.429141
1984.74, 0.429202
1985.51, 0.429080
1986.27, 0.428772
1987.03, 0.428895
1987.79, 0.429141
1988.55, 0.429264
1989.32, 0.429080
1990.08, 0.428834
1990.84, 0.428957
1991.61, 0.429080
1992.37, 0.429141
1993.14, 0.429141
1993.9, 0.428957
1994.67, 0.428895
1995.44, 0.428957
1996.21, 0.428957
1996.98, 0.428834
1997.75, 0.428895
1998.52, 0.429080
1999.29, 0.429325
2000.06, 0.429387
2000.83, 0.429448
2001.6, 0.429448
2002.38, 0.429571
2003.15, 0.429509
2003.93, 0.429509
2004.7, 0.429694
2005.48, 0.429755
2006.25, 0.429755
2007.03, 0.429632
2007.81, 0.429571
2008.58, 0.429694
2009.36, 0.429816
2010.14, 0.430001
2010.92, 0.430062
2011.7, 0.430001
2012.48, 0.430001
2013.26, 0.429939
2014.05, 0.429878
2014.83, 0.430001
2015.61, 0.430062
2016.4, 0.430062
2017.18, 0.430185
2017.97, 0.430124
2018.75, 0.430185
2019.54, 0.430308
2020.32, 0.430553
2021.11, 0.430553
2021.9, 0.430492
2022.69, 0.430492
2023.48, 0.430615
2024.27, 0.430676
2025.06, 0.430553
2025.85, 0.430615
2026.64, 0.430676
2027.44, 0.430676
2028.23, 0.430738
2029.02, 0.430738
2029.82, 0.430738
2030.61, 0.430676
2031.41, 0.430738
2032.2, 0.430922
2033.0, 0.430922
2033.8, 0.430922
2034.6, 0.430738
2035.4, 0.430799
2036.2, 0.430983
2037.0, 0.431045
2037.8, 0.430922
2038.6, 0.430922
2039.4, 0.430983
2040.2, 0.431167
2041.01, 0.431229
2041.81, 0.431167
2042.61, 0.431167
2043.42, 0.431167
2044.22, 0.431106
2045.03, 0.431229
2045.84, 0.431167
2046.65, 0.431045
2047.46, 0.431045
2048.26, 0.431290
2049.07, 0.431290
2049.88, 0.431229
2050.69, 0.431229
2051.51, 0.431106
2052.32, 0.431106
2053.13, 0.431167
2053.94, 0.430983
2054.76, 0.430799
2055.57, 0.430922
2056.39, 0.431106
2057.2, 0.431045
2058.02, 0.431106
2058.84, 0.431106
2059.66, 0.430922
2060.48, 0.431045
2061.29, 0.430922
2062.11, 0.430860
2062.94, 0.430860
2063.76, 0.430738
2064.58, 0.430615
2065.4, 0.430492
2066.22, 0.430615
2067.05, 0.430553
2067.87, 0.430431
2068.7, 0.430553
2069.52, 0.430615
2070.35, 0.430553
2071.18, 0.430246
2072.0, 0.430062
2072.83, 0.429878
2073.66, 0.429816
2074.49, 0.429878
2075.32, 0.429816
2076.15, 0.429694
2076.98, 0.429816
2077.82, 0.429571
2078.65, 0.429448
2079.48, 0.429387
2080.32, 0.429264
2081.15, 0.429018
2081.99, 0.428957
2082.83, 0.428957
2083.66, 0.428834
2084.5, 0.428711
2085.34, 0.428772
2086.18, 0.428711
2087.02, 0.428527
2087.86, 0.428220
2088.7, 0.427913
2089.54, 0.427851
2090.39, 0.428035
2091.23, 0.427974
2092.07, 0.427729
2092.92, 0.427421
2093.76, 0.427421
2094.61, 0.427360
2095.45, 0.427237
2096.3, 0.426992
2097.15, 0.426807
2098.0, 0.426807
2098.85, 0.426623
2099.7, 0.426377
2100.55, 0.426193
2101.4, 0.425948
2102.25, 0.425702
2103.1, 0.425579
2103.96, 0.425579
2104.81, 0.425395
2105.67, 0.425088
2106.52, 0.424781
2107.38, 0.424535
2108.24, 0.424167
2109.09, 0.423921
2109.95, 0.423798
2110.81, 0.423491
2111.67, 0.423123
2112.53, 0.422877
2113.39, 0.422570
2114.25, 0.422202
2115.12, 0.421894
2115.98, 0.421649
2116.84, 0.421465
2117.71, 0.421280
2118.58, 0.420850
2119.44, 0.420236
2120.31, 0.419929
2121.18, 0.419745
2122.04, 0.419499
2122.91, 0.419070
2123.78, 0.418701
2124.65, 0.418455
2125.52, 0.418026
2126.4, 0.417473
2127.27, 0.417043
2128.14, 0.416674
2129.02, 0.416245
2129.89, 0.415938
2130.77, 0.415446
2131.64, 0.414894
2132.52, 0.414279
2133.4, 0.413788
2134.27, 0.413481
2135.15, 0.413051
2136.03, 0.412437
2136.91, 0.411823
2137.79, 0.411209
2138.68, 0.410595
2139.56, 0.409919
2140.44, 0.409182
2141.33, 0.408507
2142.21, 0.407770
2143.1, 0.407033
2143.99, 0.406050
2144.87, 0.404945
2145.76, 0.404147
2146.65, 0.403164
2147.54, 0.401997
2148.43, 0.400830
2149.32, 0.399725
2150.21, 0.398497
2151.1, 0.397146
2151.99, 0.395672
2152.89, 0.394075
2153.78, 0.392540
2154.68, 0.391005
2155.57, 0.389531
2156.47, 0.387811
2157.37, 0.385969
2158.27, 0.384065
2159.16, 0.382161
2160.06, 0.380565
2160.96, 0.378784
2161.86, 0.376941
2162.77, 0.375345
2163.67, 0.373564
2164.57, 0.372090
2165.48, 0.370678
2166.38, 0.369204
2167.29, 0.367975
2168.2, 0.366870
2169.1, 0.365765
2170.01, 0.364905
2170.92, 0.363800
2171.83, 0.362897
2172.74, 0.362043
2173.65, 0.361090
2174.56, 0.360387
2175.47, 0.359634
2176.39, 0.358881
2177.3, 0.358379
2178.22, 0.357776
2179.13, 0.356722
2180.05, 0.355718
2180.96, 0.354714
2181.88, 0.353911
2182.8, 0.353108
2183.72, 0.352505
2184.64, 0.351451
2185.56, 0.350297
2186.48, 0.349293
2187.41, 0.348439
2188.33, 0.347385
2189.25, 0.346481
2190.18, 0.345528
2191.1, 0.344825
2192.03, 0.343670
2192.96, 0.342666
2193.89, 0.341662
2194.82, 0.340357
2195.74, 0.339303
2196.68, 0.338700
2197.61, 0.337847
2198.54, 0.336542
2199.47, 0.335136
2200.4, 0.333781
2201.34, 0.332727
2202.28, 0.331974
2203.21, 0.331271
2204.15, 0.330367
2205.08, 0.329363
2206.02, 0.328761
2206.96, 0.327958
2207.9, 0.327456
2208.84, 0.326954
2209.78, 0.326401
2210.73, 0.325899
2211.67, 0.325648
2212.61, 0.325046
2213.56, 0.324695
2214.5, 0.324444
2215.45, 0.324544
2216.4, 0.324494
2217.35, 0.324142
2218.3, 0.323942
2219.24, 0.323891
2220.2, 0.323841
2221.15, 0.323691
2222.1, 0.323038
2223.05, 0.322385
2224.0, 0.322335
2224.96, 0.321783
2225.91, 0.320879
2226.87, 0.320377
2227.83, 0.320277
2228.79, 0.319574
2229.74, 0.318821
2230.7, 0.318369
2231.66, 0.317918
2232.63, 0.317064
2233.59, 0.316161
2234.55, 0.315257
2235.51, 0.314554
2236.48, 0.314002
2237.44, 0.313550
2238.41, 0.312948
2239.38, 0.312245
2240.34, 0.311994
2241.31, 0.311592
2242.28, 0.310990
2243.25, 0.310438
2244.22, 0.310086
2245.19, 0.309735
2246.17, 0.309584
2247.14, 0.309484
2248.12, 0.309032
2249.09, 0.308530
2250.07, 0.308179
2251.04, 0.307827
2252.02, 0.307576
2253.0, 0.307375
2253.98, 0.307626
2254.96, 0.307827
2255.94, 0.307727
2256.92, 0.307576
2257.91, 0.307526
2258.89, 0.307626
2259.88, 0.307877
2260.86, 0.308229
2261.85, 0.308430
2262.83, 0.308781
2263.82, 0.309484
2264.81, 0.310136
2265.8, 0.310538
2266.79, 0.311191
2267.78, 0.312345
2268.78, 0.313249
2269.77, 0.313851
2270.76, 0.314705
2271.76, 0.315558
2272.75, 0.315859
2273.75, 0.316161
2274.75, 0.316863
2275.75, 0.317365
2276.75, 0.317365
2277.75, 0.317265
2278.75, 0.317365
2279.75, 0.317466
2280.75, 0.316863
2281.76, 0.316161
2282.76, 0.315659
2283.77, 0.315257
2284.77, 0.314705
2285.78, 0.313801
2286.79, 0.312898
2287.8, 0.312094
2288.81, 0.311291
2289.82, 0.310488
2290.83, 0.310136
2291.84, 0.310187
2292.86, 0.309785
2293.87, 0.309333
2294.89, 0.309183
2295.91, 0.309283
2296.92, 0.309384
2297.94, 0.309584
2298.96, 0.309785
2299.98, 0.309835
2301.0, 0.309986
2302.02, 0.310036
2303.04, 0.309835
2304.07, 0.309534
2305.09, 0.309133
2306.12, 0.308630
2307.15, 0.307777
2308.17, 0.307175
2309.2, 0.306673
2310.23, 0.306020
2311.26, 0.305267
2312.29, 0.304213
2313.32, 0.302908
2314.35, 0.301653
2315.39, 0.300247
2316.42, 0.298791
2317.46, 0.297235
2318.5, 0.295779
2319.53, 0.294374
2320.57, 0.292617
2321.61, 0.291161
2322.65, 0.289655
2323.69, 0.287948
2324.73, 0.286141
2325.78, 0.284283
2326.82, 0.282627
2327.86, 0.281121
2328.91, 0.279364
2329.96, 0.277757
2331.01, 0.276352
2332.05, 0.274946
2333.1, 0.273591
2334.15, 0.272637
2335.21, 0.271984
2336.26, 0.270830
2337.31, 0.270077
2338.36, 0.269725
2339.42, 0.269274
2340.48, 0.269274
2341.53, 0.268972
2342.59, 0.268270
2343.65, 0.267517
2344.71, 0.267015
2345.77, 0.266663
2346.83, 0.266262
2347.9, 0.265810
2348.96, 0.264956
2350.02, 0.264103
2351.09, 0.263651
2352.16, 0.262898
2353.23, 0.262045
2354.29, 0.261593
2355.36, 0.260991
2356.43, 0.260187
2357.51, 0.259685
2358.58, 0.259083
2359.65, 0.258380
2360.73, 0.257828
2361.8, 0.257226
2362.88, 0.256874
2363.96, 0.256573
2365.03, 0.256473
2366.11, 0.256573
2367.19, 0.256422
2368.27, 0.256623
2369.36, 0.257025
2370.44, 0.257025
2371.53, 0.257125
2372.61, 0.257677
2373.7, 0.258481
2374.78, 0.259234
2375.87, 0.259836
2376.96, 0.260338
2378.05, 0.260991
2379.14, 0.261693
2380.24, 0.262497
2381.33, 0.263199
2382.42, 0.264003
2383.52, 0.264705
2384.61, 0.265709
2385.71, 0.266864
2386.81, 0.267617
2387.91, 0.268169
2389.01, 0.269073
2390.11, 0.270278
2391.22, 0.271583
2392.32, 0.272637
2393.42, 0.273541
2394.53, 0.274444
2395.64, 0.275448
2396.74, 0.276452
2397.85, 0.277356
2398.96, 0.277858
2400.07, 0.278510
2401.18, 0.279063
2402.3, 0.279966
2403.41, 0.280820
2404.52, 0.281322
2405.64, 0.281723
2406.76, 0.282024
2407.88, 0.282426
2408.99, 0.282828
2410.11, 0.283581
2411.23, 0.284032
2412.36, 0.284233
2413.48, 0.284585
2414.6, 0.284886
2415.73, 0.285287
2416.85, 0.285388
2417.98, 0.285338
2419.11, 0.285237
2420.24, 0.285087
2421.37, 0.284936
2422.5, 0.284836
2423.64, 0.284334
2424.77, 0.283932
2425.9, 0.283179
2427.04, 0.282526
2428.18, 0.281974
2429.31, 0.281221
2430.45, 0.280418
2431.59, 0.279615
2432.73, 0.279012
2433.88, 0.278259
2435.02, 0.277306
2436.16, 0.276553
2437.31, 0.275850
2438.45, 0.275097
2439.6, 0.274193
2440.75, 0.273340
2441.9, 0.272737
2443.05, 0.271834
2444.2, 0.270930
2445.35, 0.270177
2446.51, 0.269274
2447.67, 0.268270
2448.82, 0.267115
2449.98, 0.265910
2451.14, 0.264605
2452.3, 0.263400
2453.46, 0.262446
2454.62, 0.261493
2455.78, 0.260589
2456.94, 0.259635
2458.11, 0.258481
2459.28, 0.257677
2460.44, 0.256975
2461.61, 0.256121
2462.78, 0.255418
2463.95, 0.254816
2465.12, 0.254163
2466.3, 0.253611
2467.47, 0.252959
2468.65, 0.252306
2469.82, 0.251955
2471.0, 0.251352
2472.18, 0.250700
2473.36, 0.250248
2474.54, 0.249997
2475.72, 0.249846
2476.9, 0.249244
2478.08, 0.248692
2479.27, 0.248340
2480.46, 0.247939
2481.64, 0.247437
2482.83, 0.246884
2484.02, 0.246433
2485.21, 0.245981
2486.4, 0.245529
2487.6, 0.245127
2488.79, 0.244525
2489.99, 0.243621
2491.18, 0.242919
2492.38, 0.242567
2493.58, 0.242166
2494.78, 0.241864
2495.98, 0.241262
2497.18, 0.240760
2498.39, 0.240459
2499.59, 0.240157
2500.8, 0.239756
2502.01, 0.239254
2503.21, 0.238802
2504.42, 0.238551
2505.63, 0.238300
2506.84, 0.237999
2508.06, 0.237798
2509.27, 0.237597
2510.49, 0.237196
2511.7, 0.236995
2512.92, 0.236794
2514.14, 0.236593
2515.36, 0.236493
2516.58, 0.236242
2517.8, 0.236091
2519.03, 0.236142
2520.25, 0.236392
2521.48, 0.236794
2522.7, 0.237095
2523.93, 0.237145
2525.16, 0.237246
2526.39, 0.237497
2527.62, 0.237798
2528.86, 0.238099
2530.09, 0.238451
2531.33, 0.238601
2532.56, 0.238802
2533.8, 0.239003
2535.04, 0.238802
2536.28, 0.238852
2537.52, 0.239354
2538.76, 0.239555
2540.01, 0.239605
2541.25, 0.239455
2542.5, 0.238903
2543.75, 0.239003
2544.99, 0.239505
2546.24, 0.239354
2547.49, 0.239003
2548.75, 0.239154
2550.0, 0.239053
2551.26, 0.238752
2552.51, 0.238400
2553.77, 0.238903
2555.03, 0.239405
2556.29, 0.239405
2557.55, 0.239254
2558.81, 0.238802
2560.08, 0.237396
2561.34, 0.235991
2562.61, 0.235589
2563.88, 0.235690
2565.14, 0.236643
2566.41, 0.237597
2567.68, 0.237045
2568.96, 0.235439
2570.23, 0.235338
2571.51, 0.235639
2572.78, 0.233581
2574.06, 0.233431
2575.34, 0.233782
2576.62, 0.232979
2577.9, 0.233180
2579.18, 0.233129
2580.47, 0.231724
2581.75, 0.230820
2583.04, 0.228862
2584.32, 0.228511
2585.61, 0.229364
2586.9, 0.228109
2588.2, 0.228009
2589.49, 0.228461
2590.78, 0.228561
2592.08, 0.227356
2593.37, 0.222688
2594.67, 0.218722
2595.97, 0.221583
2597.27, 0.224947
2598.57, 0.225700
2599.88, 0.224796
2601.18, 0.223491
2602.49, 0.222437
2603.79, 0.220429
2605.1, 0.217818
2606.41, 0.218270
2607.72, 0.219124
2609.03, 0.218873
2610.35, 0.218873
2611.66, 0.218672
2612.98, 0.217718
2614.3, 0.217015
2615.62, 0.214355
2616.94, 0.212447
2618.26, 0.212999
2619.58, 0.210991
2620.91, 0.210590
2622.23, 0.211945
2623.56, 0.211393
2624.89, 0.209335
2626.22, 0.206574
2627.55, 0.206523
2628.88, 0.204716
2630.21, 0.201855
2631.55, 0.202307
2632.89, 0.202005
2634.22, 0.200801
2635.56, 0.200198
2636.9, 0.199094
2638.25, 0.197839
2639.59, 0.196333
2640.93, 0.194877
2642.28, 0.193271
2643.63, 0.192016
2644.98, 0.190208
2646.33, 0.189004
2647.68, 0.188050
2649.03, 0.186443
2650.39, 0.184385
2651.74, 0.181976
2653.1, 0.180570
2654.46, 0.179466
2655.82, 0.177909
2657.18, 0.176855
2658.54, 0.174596
2659.9, 0.172789
2661.27, 0.171534
2662.64, 0.169827
2664.01, 0.166263
2665.38, 0.163452
2666.74, 0.162397
2668.12, 0.162749
2669.49, 0.159687
2670.87, 0.158231
2672.24, 0.159988
2673.62, 0.159385
2675.0, 0.157227
2676.38, 0.155118
2677.76, 0.154265
2679.15, 0.153161
2680.54, 0.153060
2681.92, 0.152006
2683.31, 0.150048
2684.7, 0.148141
2686.09, 0.146032
2687.48, 0.143974
2688.88, 0.141765
2690.27, 0.139004
2691.67, 0.135490
2693.07, 0.130872
2694.47, 0.127257
2695.87, 0.124948
2697.27, 0.122589
2698.67, 0.119928
2700.08, 0.116414
2701.49, 0.112800
2702.9, 0.109587
2704.31, 0.105922
2705.72, 0.102057
2707.13, 0.0977900
2708.54, 0.0930710
2709.96, 0.0878500
2711.38, 0.0832820
2712.8, 0.0797180
2714.22, 0.0755510
2715.64, 0.0714350
2717.06, 0.0676700
2718.49, 0.0643570
2719.91, 0.0612440
2721.34, 0.0595880
2722.77, 0.0585840
2724.2, 0.0575800
2725.63, 0.0576300
2727.07, 0.0581320
2728.5, 0.0582820
2729.94, 0.0582320
2731.38, 0.0581820
2732.82, 0.0577800
2734.26, 0.0569270
2735.7, 0.0563750
2737.15, 0.0554710
2738.59, 0.0539150
2740.04, 0.0524090
2741.49, 0.0513550
2742.94, 0.0507020
2744.39, 0.0493470
2745.84, 0.0477910
2747.3, 0.0461840
2748.76, 0.0443770
2750.21, 0.0425700
2751.67, 0.0407120
2753.14, 0.0388550
2754.6, 0.0367970
2756.06, 0.0353410
2757.53, 0.0345380
2759.0, 0.0336340
2760.46, 0.0329810
2761.94, 0.0328310
2763.41, 0.0331320
2764.88, 0.0334830
2766.36, 0.0337350
2767.83, 0.0341360
2769.31, 0.0345380
2770.79, 0.0350400
2772.27, 0.0356920
2773.76, 0.0361940
2775.24, 0.0364960
2776.73, 0.0367470
2778.22, 0.0371480
2779.71, 0.0376500
2781.2, 0.0381520
2782.69, 0.0387040
2784.18, 0.0391060
2785.68, 0.0393570
2787.18, 0.0398090
2788.68, 0.0403610
2790.18, 0.0407120
2791.68, 0.0411640
2793.19, 0.0413650
2794.69, 0.0414650
2796.2, 0.0416160
2797.71, 0.0415660
2799.22, 0.0414150
2800.73, 0.0412140
2802.24, 0.0408130
2803.76, 0.0405620
2805.28, 0.0407630
2806.8, 0.0409130
2808.32, 0.0407630
2809.84, 0.0408130
2811.36, 0.0411140
2812.89, 0.0412650
2814.42, 0.0413650
2815.94, 0.0417160
2817.48, 0.0421180
2819.01, 0.0423690
2820.54, 0.0425700
2822.08, 0.0429710
2823.61, 0.0436240
2825.15, 0.0440760
2826.69, 0.0445280
2828.23, 0.0451300
2829.78, 0.0456320
2831.32, 0.0461840
2832.87, 0.0467360
2834.42, 0.0473890
2835.97, 0.0481920
2837.52, 0.0489950
2839.08, 0.0498490
2840.63, 0.0504510
2842.19, 0.0511040
2843.75, 0.0519070
2845.31, 0.0524590
2846.87, 0.0528610
2848.44, 0.0534130
2850.0, 0.0540660
2851.57, 0.0546680
2853.14, 0.0552700
2854.71, 0.0559230
2856.28, 0.0566760
2857.86, 0.0573290
2859.43, 0.0579310
2861.01, 0.0584830
2862.59, 0.0589350
2864.17, 0.0593870
2865.76, 0.0598390
2867.34, 0.0603410
2868.93, 0.0607420
2870.52, 0.0610430
2872.11, 0.0614450
2873.7, 0.0619470
2875.29, 0.0622980
2876.89, 0.0625490
2878.49, 0.0627000
2880.08, 0.0629010
2881.69, 0.0633530
2883.29, 0.0636040
2884.89, 0.0636040
2886.5, 0.0638040
2888.11, 0.0639550
2889.72, 0.0639050
2891.33, 0.0640050
2892.94, 0.0640050
2894.56, 0.0639050
2896.17, 0.0638040
2897.79, 0.0636040
2899.42, 0.0634030
2901.04, 0.0632020
2902.66, 0.0630010
2904.29, 0.0628000
2905.92, 0.0624490
2907.55, 0.0620470
2909.18, 0.0615960
2910.81, 0.0610940
2912.45, 0.0602900
2914.08, 0.0596380
2915.72, 0.0590860
2917.36, 0.0584330
2919.01, 0.0578810
2920.65, 0.0573290
2922.3, 0.0566760
2923.94, 0.0560740
2925.59, 0.0558230
2927.25, 0.0557220
2928.9, 0.0556220
2930.56, 0.0555210
2932.21, 0.0555210
2933.87, 0.0556220
2935.53, 0.0559730
2937.2, 0.0565250
2938.86, 0.0571280
2940.53, 0.0576800
2942.2, 0.0582320
2943.87, 0.0589350
2945.54, 0.0597880
2947.22, 0.0607420
2948.89, 0.0614450
2950.57, 0.0621480
2952.25, 0.0629510
2953.93, 0.0638040
2955.62, 0.0644570
2957.3, 0.0651100
2958.99, 0.0657620
2960.68, 0.0663650
2962.37, 0.0670170
2964.07, 0.0676200
2965.76, 0.0682220
2967.46, 0.0687740
2969.16, 0.0693770
2970.86, 0.0698790
2972.56, 0.0703300
2974.27, 0.0708320
2975.98, 0.0713340
2977.69, 0.0718870
2979.4, 0.0721880
2981.11, 0.0724390
2982.83, 0.0730410
2984.54, 0.0735930
2986.26, 0.0739950
2987.98, 0.0743460
2989.71, 0.0746980
2991.43, 0.0751500
2993.16, 0.0754510
2994.89, 0.0756010
2996.62, 0.0759530
2998.35, 0.0762540
3000.09, 0.0765050
3001.83, 0.0768060
3003.57, 0.0770070
3005.31, 0.0773080
3007.05, 0.0776090
3008.79, 0.0777600
3010.54, 0.0779110
3012.29, 0.0782120
3014.04, 0.0785130
3015.8, 0.0787640
3017.55, 0.0787140
3019.31, 0.0787640
3021.07, 0.0789150
3022.83, 0.0792160
3024.59, 0.0794670
3026.36, 0.0795670
3028.13, 0.0795670
3029.9, 0.0795170
3031.67, 0.0796680
3033.44, 0.0797180
3035.22, 0.0797180
3037.0, 0.0798180
3038.78, 0.0798680
3040.56, 0.0800190
3042.34, 0.0801190
3044.13, 0.0801190
3045.92, 0.0800690
3047.71, 0.0800190
3049.5, 0.0799690
3051.3, 0.0798680
3053.09, 0.0797180
3054.89, 0.0797180
3056.69, 0.0797680
3058.5, 0.0796680
3060.3, 0.0795170
3062.11, 0.0794170
3063.92, 0.0793160
3065.73, 0.0793160
3067.55, 0.0791660
3069.36, 0.0789150
3071.18, 0.0787640
3073.0, 0.0787640
3074.82, 0.0787140
3076.65, 0.0784630
3078.48, 0.0783620
3080.31, 0.0782120
3082.14, 0.0780610
3083.97, 0.0779610
3085.8, 0.0777600
3087.64, 0.0775590
3089.48, 0.0775090
3091.33, 0.0772580
3093.17, 0.0770570
3095.02, 0.0770070
3096.87, 0.0768060
3098.72, 0.0768060
3100.57, 0.0766050
3102.43, 0.0763540
3104.28, 0.0762040
3106.14, 0.0760530
3108.01, 0.0757520
3109.87, 0.0756520
3111.74, 0.0756010
3113.61, 0.0754510
3115.48, 0.0753000
3117.35, 0.0752000
3119.23, 0.0750490
3121.1, 0.0748480
3122.98, 0.0748480
3124.87, 0.0748480
3126.75, 0.0746980
3128.64, 0.0746480
3130.53, 0.0744970
3132.42, 0.0742460
3134.31, 0.0742460
3136.21, 0.0741960
3138.11, 0.0741460
3140.01, 0.0740450
3141.91, 0.0739950
3143.82, 0.0738950
3145.73, 0.0738440
3147.64, 0.0737440
3149.55, 0.0736440
3151.46, 0.0736940
3153.38, 0.0736940
3155.3, 0.0735430
3157.22, 0.0735930
3159.14, 0.0735930
3161.07, 0.0734930
3163.0, 0.0734930
3164.93, 0.0735430
3166.86, 0.0734930
3168.8, 0.0734930
3170.74, 0.0734930
3172.68, 0.0734930
3174.62, 0.0735930
3176.56, 0.0737440
3178.51, 0.0736940
3180.46, 0.0737440
3182.42, 0.0739450
3184.37, 0.0742460
3186.33, 0.0743970
3188.29, 0.0745970
3190.25, 0.0748990
3192.21, 0.0751500
3194.18, 0.0754510
3196.15, 0.0757020
3198.12, 0.0760530
3200.09, 0.0765050
3202.07, 0.0770070
3204.05, 0.0775090
3206.03, 0.0780610
3208.02, 0.0785130
3210.0, 0.0791150
3211.99, 0.0797680
3213.98, 0.0802200
3215.98, 0.0807720
3217.97, 0.0814750
3219.97, 0.0821270
3221.97, 0.0826800
3223.98, 0.0832320
3225.98, 0.0838340
3227.99, 0.0844370
3230.0, 0.0850390
3232.02, 0.0855910
3234.03, 0.0862440
3236.05, 0.0867960
3238.07, 0.0872980
3240.1, 0.0878000
3242.12, 0.0882520
3244.15, 0.0886030
3246.18, 0.0890550
3248.22, 0.0894570
3250.25, 0.0897580
3252.29, 0.0900090
3254.33, 0.0903600
3256.38, 0.0907120
3258.43, 0.0909630
3260.47, 0.0912140
3262.53, 0.0914650
3264.58, 0.0916650
3266.64, 0.0919670
3268.7, 0.0922180
3270.76, 0.0923680
3272.82, 0.0926190
3274.89, 0.0928200
3276.96, 0.0930710
3279.04, 0.0934220
3281.11, 0.0936230
3283.19, 0.0938740
3285.27, 0.0940750
3287.35, 0.0942760
3289.44, 0.0944770
3291.53, 0.0946770
3293.62, 0.0947780
3295.71, 0.0949790
3297.81, 0.0952300
3299.91, 0.0954300
3302.01, 0.0956310
3304.11, 0.0958320
3306.22, 0.0961330
3308.33, 0.0964850
3310.44, 0.0967860
3312.56, 0.0970370
3314.68, 0.0973380
3316.8, 0.0976390
3318.92, 0.0978900
3321.05, 0.0981410
3323.18, 0.0984930
3325.31, 0.0989440
3327.44, 0.0992460
3329.58, 0.0995470
3331.72, 0.0997980
3333.86, 0.100250
3336.01, 0.100651
3338.16, 0.101003
3340.31, 0.101304
3342.46, 0.101605
3344.61, 0.102007
3346.77, 0.102408
3348.94, 0.102910
3351.1, 0.103412
3353.27, 0.103714
3355.44, 0.104115
3357.61, 0.104467
3359.79, 0.104868
3361.97, 0.105220
3364.15, 0.105571
3366.33, 0.106023
3368.52, 0.106525
3370.71, 0.106926
3372.9, 0.107278
3375.1, 0.107730
3377.3, 0.108181
3379.5, 0.108583
3381.71, 0.109035
3383.91, 0.109487
3386.12, 0.110039
3388.34, 0.110641
3390.55, 0.111143
3392.77, 0.111545
3394.99, 0.111997
3397.22, 0.112448
3399.45, 0.112800
3401.68, 0.113201
3403.91, 0.113653
3406.15, 0.113954
3408.39, 0.114306
3410.63, 0.114657
3412.87, 0.115109
3415.12, 0.115561
3417.37, 0.116063
3419.63, 0.116565
3421.88, 0.117117
3424.14, 0.117719
3426.41, 0.118322
3428.67, 0.119025
3430.94, 0.119677
3433.21, 0.120229
3435.49, 0.120782
3437.77, 0.121334
3440.05, 0.121886
3442.33, 0.122488
3444.62, 0.122990
3446.91, 0.123442
3449.2, 0.123844
3451.5, 0.124396
3453.8, 0.124998
3456.1, 0.125551
3458.41, 0.126103
3460.72, 0.126555
3463.03, 0.126906
3465.34, 0.127408
3467.66, 0.127810
3469.98, 0.128312
3472.31, 0.128763
3474.63, 0.129115
3476.96, 0.129567
3479.3, 0.130018
3481.64, 0.130420
3483.97, 0.130822
3486.32, 0.131223
3488.66, 0.131625
3491.01, 0.131976
3493.36, 0.132277
3495.72, 0.132528
3498.08, 0.132930
3500.44, 0.133332
3502.81, 0.133733
3505.18, 0.134235
3507.55, 0.134737
3509.92, 0.135289
3512.3, 0.135892
3514.68, 0.136394
3517.06, 0.136896
3519.45, 0.137548
3521.84, 0.138101
3524.24, 0.138552
3526.64, 0.139004
3529.04, 0.139556
3531.44, 0.140109
3533.85, 0.140560
3536.26, 0.141012
3538.67, 0.141464
3541.09, 0.141916
3543.51, 0.142368
3545.93, 0.142870
3548.36, 0.143321
3550.79, 0.143623
3553.22, 0.143974
3555.66, 0.144426
3558.1, 0.144777
3560.54, 0.145229
3562.99, 0.145681
3565.44, 0.146082
3567.9, 0.146484
3570.35, 0.146936
3572.81, 0.147287
3575.28, 0.147689
3577.75, 0.148191
3580.22, 0.148693
3582.69, 0.149044
3585.17, 0.149396
3587.65, 0.149797
3590.14, 0.150299
3592.62, 0.150701
3595.11, 0.151002
3597.61, 0.151303
3600.11, 0.151655
3602.61, 0.152056
3605.11, 0.152558
3607.62, 0.152960
3610.14, 0.153412
3612.65, 0.153813
3615.17, 0.154215
3617.69, 0.154616
3620.22, 0.155018
3622.75, 0.155470
3625.28, 0.155871
3627.82, 0.156273
3630.36, 0.156675
3632.9, 0.157177
3635.45, 0.157578
3638.0, 0.157930
3640.56, 0.158331
3643.12, 0.158733
3645.68, 0.159134
3648.24, 0.159586
3650.81, 0.159988
3653.39, 0.160490
3655.96, 0.160942
3658.54, 0.161444
3661.13, 0.161996
3663.71, 0.162397
3666.3, 0.162799
3668.9, 0.163150
3671.5, 0.163602
3674.1, 0.164104
3676.7, 0.164506
3679.31, 0.164907
3681.93, 0.165309
3684.54, 0.165761
3687.17, 0.166263
3689.79, 0.166614
3692.42, 0.167016
3695.05, 0.167367
3697.69, 0.167819
3700.32, 0.168271
3702.97, 0.168672
3705.61, 0.169124
3708.27, 0.169526
3710.92, 0.169877
3713.58, 0.170279
3716.24, 0.170731
3718.91, 0.171082
3721.58, 0.171484
3724.25, 0.171936
3726.93, 0.172387
3729.61, 0.172839
3732.29, 0.173140
3734.98, 0.173442
3737.67, 0.173893
3740.37, 0.174194
3743.07, 0.174546
3745.78, 0.174847
3748.49, 0.175199
3751.2, 0.175450
3753.91, 0.175801
3756.63, 0.176102
3759.36, 0.176504
3762.09, 0.176905
3764.82, 0.177357
3767.55, 0.177809
3770.29, 0.178211
3773.04, 0.178562
3775.78, 0.178913
3778.54, 0.179315
3781.29, 0.179717
3784.05, 0.180018
3786.82, 0.180369
3789.59, 0.180670
3792.36, 0.180921
3795.13, 0.181172
3797.92, 0.181574
3800.7, 0.181875
3803.49, 0.182126
3806.28, 0.182377
3809.08, 0.182729
3811.88, 0.182929
3814.68, 0.183281
3817.49, 0.183632
3820.31, 0.183833
3823.12, 0.184084
3825.94, 0.184435
3828.77, 0.184636
3831.6, 0.184837
3834.43, 0.185038
3837.27, 0.185389
3840.11, 0.185791
3842.96, 0.186042
3845.81, 0.186243
3848.67, 0.186494
3851.53, 0.186694
3854.39, 0.186845
3857.26, 0.187046
3860.13, 0.187347
3863.01, 0.187548
3865.89, 0.187749
3868.77, 0.188000
3871.66, 0.188251
3874.55, 0.188451
3877.45, 0.188803
3880.35, 0.189054
3883.26, 0.189305
3886.17, 0.189556
3889.09, 0.189757
3892.01, 0.190008
3894.93, 0.190158
3897.86, 0.190359
3900.79, 0.190610
3903.73, 0.190861
3906.67, 0.191062
3909.62, 0.191313
3912.57, 0.191514
3915.52, 0.191714
3918.48, 0.192016
3921.45, 0.192317
3924.42, 0.192568
3927.39, 0.192718
3930.37, 0.192819
3933.35, 0.192969
3936.34, 0.193170
3939.33, 0.193421
3942.32, 0.193572
3945.32, 0.193773
3948.33, 0.193923
3951.34, 0.194124
3954.35, 0.194325
3957.37, 0.194475
3960.39, 0.194676
3963.42, 0.194977
3966.45, 0.195228
3969.49, 0.195429
3972.53, 0.195730
3975.58, 0.196032
3978.63, 0.196333
3981.68, 0.196584
3984.75, 0.196835
3987.81, 0.197136
3990.88, 0.197437
3993.95, 0.197738
3997.03, 0.197989
4000.12, 0.198291
4003.21, 0.198592
4006.3, 0.198793
4009.4, 0.199094
4012.5, 0.199495
4015.61, 0.199797
4018.72, 0.200098
4021.84, 0.200349
4024.96, 0.200700
4028.09, 0.201001
4031.22, 0.201252
4034.36, 0.201654
4037.5, 0.202005
4040.65, 0.202307
4043.8, 0.202507
4046.96, 0.202809
4050.12, 0.203210
4053.29, 0.203461
4056.46, 0.203712
4059.64, 0.203963
4062.82, 0.204264
4066.0, 0.204465
4069.19, 0.204716
4072.39, 0.205068
4075.59, 0.205319
4078.8, 0.205570
4082.01, 0.205770
4085.23, 0.206021
4088.45, 0.206222
4091.68, 0.206423
4094.91, 0.206574
4098.15, 0.206774
4101.39, 0.206925
4104.63, 0.207025
4107.89, 0.207226
4111.14, 0.207427
4114.41, 0.207578
4117.67, 0.207678
4120.95, 0.207829
4124.23, 0.207979
4127.51, 0.207979
4130.8, 0.207979
4134.09, 0.208029
4137.39, 0.208080
4140.7, 0.208080
4144.01, 0.208080
4147.32, 0.208080
4150.64, 0.208080
4153.97, 0.208080
4157.3, 0.208029
4160.64, 0.208029
4163.98, 0.208029
4167.33, 0.207929
4170.68, 0.207879
4174.04, 0.207879
4177.4, 0.207778
4180.77, 0.207728
4184.14, 0.207628
4187.52, 0.207628
4190.91, 0.207527
4194.3, 0.207427
4197.69, 0.207327
4201.1, 0.207276
4204.5, 0.207126
4207.92, 0.206925
4211.34, 0.206624
4214.76, 0.206523
4218.19, 0.206323
4221.62, 0.206122
4225.06, 0.206021
4228.51, 0.205821
4231.96, 0.205670
4235.42, 0.205519
4238.88, 0.205570
4242.35, 0.205570
4245.83, 0.205519
4249.31, 0.205670
4252.79, 0.205921
4256.28, 0.205971
4259.78, 0.205821
4263.29, 0.205519
4266.79, 0.205369
4270.31, 0.205319
4273.83, 0.205218
4277.35, 0.205218
4280.89, 0.205118
4284.42, 0.204967
4287.97, 0.204917
4291.52, 0.204967
4295.07, 0.204917
4298.63, 0.204867
4302.2, 0.204917
4305.78, 0.204967
4309.35, 0.204867
4312.94, 0.204716
4316.53, 0.204666
4320.13, 0.204515
4323.73, 0.204315
4327.34, 0.204114
4330.96, 0.203913
4334.58, 0.203762
4338.21, 0.203562
4341.84, 0.203361
4345.48, 0.203110
4349.12, 0.202809
4352.77, 0.202457
4356.43, 0.202005
4360.1, 0.201554
4363.76, 0.201202
4367.44, 0.200650
4371.12, 0.199897
4374.81, 0.199244
4378.51, 0.198542
4382.21, 0.197688
4385.92, 0.196785
4389.63, 0.195781
4393.35, 0.194626
4397.08, 0.193421
4400.81, 0.192116
4404.55, 0.190710
4408.29, 0.189154
4412.04, 0.187447
4415.8, 0.185490
4419.57, 0.183431
4423.34, 0.181223
4427.12, 0.178713
4430.9, 0.176002
4434.69, 0.173191
4438.49, 0.170128
4442.29, 0.167066
4446.1, 0.164154
4449.92, 0.161444
4453.74, 0.159185
4457.57, 0.157528
4461.41, 0.156323
4465.25, 0.155771
4469.1, 0.155821
4472.95, 0.156474
4476.82, 0.157528
4480.69, 0.158934
4484.56, 0.160590
4488.44, 0.162448
4492.33, 0.164405
4496.23, 0.166313
4500.13, 0.168371
4504.04, 0.170379
4507.96, 0.172237
4511.88, 0.173893
4515.81, 0.175500
4519.75, 0.177106
4523.69, 0.178512
4527.65, 0.179817
4531.6, 0.181072
4535.57, 0.182076
4539.54, 0.182879
4543.52, 0.183632
4547.5, 0.184335
4551.5, 0.184837
4555.5, 0.185289
4559.5, 0.185640
4563.52, 0.185992
4567.54, 0.186192
4571.56, 0.186243
4575.6, 0.186293
4579.64, 0.186293
4583.69, 0.186092
4587.75, 0.185891
4591.81, 0.185690
4595.88, 0.185439
4599.96, 0.185138
4604.04, 0.184887
4608.14, 0.184586
4612.24, 0.184285
4616.34, 0.183984
4620.46, 0.183682
4624.58, 0.183381
4628.71, 0.183180
4632.84, 0.182929
4636.99, 0.182628
4641.14, 0.182427
4645.3, 0.182277
4649.47, 0.182227
4653.64, 0.182176
4657.82, 0.182076
4662.01, 0.181925
4666.21, 0.181725
4670.41, 0.181474
4674.62, 0.181273
4678.84, 0.181022
4683.07, 0.180721
4687.3, 0.180419
4691.54, 0.180118
4695.79, 0.179817
4700.05, 0.179566
4704.31, 0.179466
4708.59, 0.179315
4712.87, 0.179265
4717.15, 0.179315
4721.45, 0.179315
4725.76, 0.179365
4730.07, 0.179566
4734.39, 0.179616
4738.72, 0.179767
4743.05, 0.179917
4747.39, 0.180118
4751.75, 0.180219
4756.1, 0.180319
4760.47, 0.180319
4764.85, 0.180369
4769.23, 0.180219
4773.62, 0.180068
4778.02, 0.179917
4782.43, 0.179666
4786.85, 0.179365
4791.27, 0.179215
4795.7, 0.178964
4800.14, 0.178662
4804.59, 0.178361
4809.05, 0.178060
4813.51, 0.177809
4817.99, 0.177508
4822.47, 0.177056
4826.96, 0.176654
4831.46, 0.176353
4835.96, 0.175952
4840.48, 0.175550
4845.0, 0.175148
4849.54, 0.174747
4854.08, 0.174144
4858.63, 0.173542
4863.18, 0.173090
4867.75, 0.172488
4872.33, 0.171835
4876.91, 0.171283
4881.5, 0.170630
4886.1, 0.170028
4890.71, 0.169325
4895.33, 0.168773
4899.96, 0.168170
4904.59, 0.167668
4909.24, 0.167166
4913.89, 0.166664
4918.55, 0.166112
4923.22, 0.165610
4927.9, 0.165209
4932.59, 0.164857
4937.29, 0.164506
4942.0, 0.164154
4946.71, 0.163803
4951.44, 0.163401
4956.17, 0.163050
4960.91, 0.162699
4965.67, 0.162397
4970.43, 0.161996
4975.2, 0.161544
4979.98, 0.161092
4984.76, 0.160640
4989.56, 0.160088
4994.37, 0.159687
4999.18, 0.159185
5004.01, 0.158582
5008.84, 0.157930
5013.69, 0.157377
5018.54, 0.156574
5023.4, 0.155871
5028.28, 0.155319
5033.16, 0.154767
5038.05, 0.154215
5042.95, 0.153612
5047.86, 0.153060
5052.78, 0.152508
5057.71, 0.151805
5062.65, 0.151052
5067.6, 0.150349
5072.56, 0.149697
5077.53, 0.148944
5082.5, 0.148040
5087.49, 0.147287
5092.49, 0.146584
5097.5, 0.145731
5102.51, 0.144878
5107.54, 0.143924
5112.58, 0.142920
5117.62, 0.142016
5122.68, 0.141062
5127.75, 0.140109
5132.82, 0.139205
5137.91, 0.138352
5143.01, 0.137398
5148.12, 0.136444
5153.23, 0.135842
5158.36, 0.135189
5163.5, 0.134336
5168.65, 0.133482
5173.81, 0.132679
5178.98, 0.131926
5184.15, 0.131022
5189.34, 0.130219
5194.54, 0.129316
5199.75, 0.128312
5204.98, 0.127408
5210.21, 0.126253
5215.45, 0.125149
5220.7, 0.124296
5225.96, 0.123191
5231.23, 0.121986
5236.52, 0.120731
5241.81, 0.119376
5247.12, 0.117870
5252.44, 0.116414
5257.76, 0.114758
5263.1, 0.113051
5268.45, 0.111143
5273.81, 0.109135
5279.18, 0.107127
5284.56, 0.105069
5289.95, 0.102810
5295.36, 0.100852
5300.77, 0.0990950
5306.2, 0.0972880
5311.63, 0.0954810
5317.08, 0.0939240
5322.54, 0.0924180
5328.01, 0.0910630
5333.49, 0.0898080
5338.98, 0.0885530
5344.49, 0.0871980
5350.0, 0.0858920
5355.53, 0.0849890
5361.07, 0.0841860
5366.62, 0.0832320
5372.18, 0.0822280
5377.75, 0.0812240
5383.34, 0.0802700
5388.93, 0.0792160
5394.54, 0.0782620
5400.16, 0.0775090
5405.79, 0.0766050
5411.44, 0.0756520
5417.09, 0.0743970
5422.76, 0.0732420
5428.43, 0.0728400
5434.12, 0.0721880
5439.83, 0.0712840
5445.54, 0.0704810
5451.26, 0.0698280
5457.0, 0.0691760
5462.75, 0.0683730
5468.52, 0.0680710
5474.29, 0.0678710
5480.08, 0.0677200
5485.88, 0.0678200
5491.69, 0.0677200
5497.51, 0.0676200
5503.35, 0.0676200
5509.2, 0.0675190
5515.06, 0.0673180
5520.93, 0.0671680
5526.82, 0.0670670
5532.71, 0.0670170
5538.63, 0.0667660
5544.55, 0.0664650
5550.49, 0.0660630
5556.44, 0.0658630
5562.4, 0.0657620
5568.37, 0.0654610
5574.36, 0.0648080
5580.36, 0.0643570
5586.37, 0.0645570
5592.4, 0.0646580
5598.44, 0.0643060
5604.49, 0.0641060
5610.56, 0.0640050
5616.63, 0.0636540
5622.73, 0.0633530
5628.83, 0.0629510
5634.95, 0.0620470
5641.08, 0.0608930
5647.23, 0.0605410
5653.39, 0.0600900
5659.56, 0.0594870
5665.74, 0.0588850
5671.94, 0.0578810
5678.15, 0.0571280
5684.38, 0.0566760
5690.62, 0.0559230
5696.87, 0.0554210
5703.14, 0.0548190
5709.42, 0.0538150
5715.72, 0.0532120
5722.03, 0.0528110
5728.35, 0.0523090
5734.69, 0.0515560
5741.03, 0.0507520
5747.4, 0.0497480
5753.78, 0.0491960
5760.17, 0.0480420
5766.58, 0.0467870
5773.0, 0.0467870
5779.44, 0.0466860
5785.88, 0.0462850
5792.35, 0.0458830
5798.83, 0.0453810
5805.32, 0.0450300
5811.83, 0.0444270
5818.35, 0.0434230
5824.89, 0.0430720
5831.45, 0.0432730
5838.01, 0.0432730
5844.59, 0.0431220
5851.19, 0.0427710
5857.8, 0.0423690
5864.43, 0.0419670
5871.07, 0.0416660
5877.73, 0.0406620
5884.4, 0.0404110
5891.09, 0.0404110
5897.79, 0.0402610
5904.5, 0.0407630
5911.23, 0.0408630
5917.98, 0.0409630
5924.75, 0.0409630
5931.53, 0.0404110
5938.32, 0.0404110
5945.13, 0.0415660
5951.96, 0.0423690
5958.8, 0.0429710
5965.65, 0.0431220
5972.53, 0.0437240
5979.42, 0.0444770
5986.32, 0.0448790
5993.24, 0.0455820
6000.18, 0.0464850
6007.13, 0.0470380
6014.1, 0.0475400
6021.08, 0.0485440
6028.09, 0.0493970
6035.1, 0.0500500
6042.14, 0.0497990
6049.19, 0.0498490
6056.25, 0.0522080
6063.34, 0.0540150
6070.44, 0.0548190
6077.55, 0.0564250
6084.69, 0.0585840
6091.84, 0.0603910
6099.0, 0.0618970
6106.19, 0.0628000
6113.39, 0.0639050
6120.61, 0.0664650
6127.84, 0.0687740
6135.09, 0.0704310
6142.36, 0.0719870
6149.65, 0.0736940
6156.95, 0.0750490
6164.27, 0.0768060
6171.61, 0.0786640
6178.97, 0.0792660
6186.34, 0.0801190
6193.73, 0.0825290
6201.14, 0.0842360
6208.57, 0.0852900
6216.01, 0.0863440
6223.47, 0.0873980
6230.95, 0.0882020
6238.45, 0.0890550
6245.97, 0.0896070
6253.5, 0.0900090
6261.06, 0.0903100
6268.63, 0.0904610
6276.21, 0.0906110
6283.82, 0.0907620
6291.45, 0.0908120
6299.1, 0.0907620
6306.76, 0.0906610
6314.44, 0.0906110
6322.14, 0.0905110
6329.86, 0.0903600
6337.6, 0.0892560
6345.35, 0.0884530
6353.13, 0.0894570
6360.92, 0.0894060
6368.74, 0.0883520
6376.57, 0.0884020
6384.43, 0.0884020
6392.3, 0.0878500
6400.19, 0.0866960
6408.1, 0.0839350
6416.03, 0.0826290
6423.98, 0.0837840
6431.95, 0.0840350
6439.94, 0.0838840
6447.95, 0.0833820
6455.98, 0.0827300
6464.03, 0.0818260
6472.1, 0.0802200
6480.19, 0.0785630
6488.31, 0.0763540
6496.44, 0.0752000
6504.59, 0.0757020
6512.76, 0.0749990
6520.95, 0.0735430
6529.16, 0.0729910
6537.4, 0.0720870
6545.65, 0.0708320
6553.92, 0.0696280
6562.22, 0.0685230
6570.54, 0.0669670
6578.88, 0.0664650
6587.23, 0.0661140
6595.61, 0.0654610
6604.02, 0.0650090
6612.44, 0.0642560
6620.89, 0.0634030
6629.35, 0.0618970
6637.84, 0.0605920
6646.35, 0.0610430
6654.88, 0.0612940
6663.44, 0.0605920
6672.01, 0.0596880
6680.61, 0.0587840
6689.23, 0.0586840
6697.88, 0.0584830
6706.54, 0.0576800
6715.23, 0.0571780
6723.94, 0.0571280
6732.67, 0.0569770
6741.42, 0.0567760
6750.2, 0.0564750
6759.0, 0.0561740
6767.82, 0.0556220
6776.67, 0.0549690
6785.54, 0.0540660
6794.44, 0.0536140
6803.35, 0.0537140
6812.29, 0.0533130
6821.26, 0.0523590
6830.24, 0.0517060
6839.25, 0.0514050
6848.29, 0.0506020
6857.35, 0.0491960
6866.43, 0.0485940
6875.54, 0.0489950
6884.67, 0.0487950
6893.82, 0.0482420
6903.0, 0.0475900
6912.2, 0.0471880
6921.43, 0.0469370
6930.69, 0.0465360
6939.96, 0.0461840
6949.27, 0.0456320
6958.59, 0.0449290
6967.95, 0.0450800
6977.33, 0.0451800
6986.73, 0.0449290
6996.16, 0.0446780
7005.61, 0.0444770
7015.09, 0.0440260
7024.6, 0.0436240
7034.13, 0.0430220
7043.69, 0.0422180
7053.27, 0.0419170
7062.88, 0.0419170
7072.52, 0.0416660
7082.18, 0.0415160
7091.87, 0.0412650
7101.58, 0.0411140
7111.32, 0.0409630
7121.09, 0.0410140
7130.88, 0.0411140
7140.71, 0.0411140
7150.56, 0.0411640
7160.43, 0.0412140
7170.33, 0.0411140
7180.27, 0.0413650
7190.23, 0.0414650
7200.21, 0.0412650
7210.23, 0.0410140
7220.27, 0.0410640
7230.34, 0.0409630
7240.44, 0.0408130
7250.56, 0.0405620
7260.72, 0.0401600
7270.9, 0.0397080
7281.12, 0.0394070
7291.36, 0.0392060
7301.63, 0.0389550
7311.93, 0.0388050
7322.25, 0.0386040
7332.61, 0.0382020
7343.0, 0.0379010
7353.41, 0.0377000
7363.86, 0.0375500
7374.33, 0.0371980
7384.83, 0.0368470
7395.37, 0.0365960
7405.93, 0.0361940
7416.53, 0.0358430
7427.15, 0.0354920
7437.81, 0.0352410
7448.5, 0.0348390
7459.22, 0.0344370
7469.96, 0.0342360
7480.74, 0.0340360
7491.55, 0.0339350
7502.39, 0.0339850
7513.27, 0.0339350
7524.17, 0.0338850
7535.11, 0.0339350
7546.08, 0.0338850
7557.08, 0.0337350
7568.11, 0.0336340
7579.17, 0.0334330
7590.27, 0.0333330
7601.4, 0.0332320
7612.56, 0.0330820
7623.76, 0.0328310
7634.98, 0.0327300
7646.24, 0.0327300
7657.54, 0.0326300
7668.87, 0.0324790
7680.23, 0.0322790
7691.62, 0.0321280
7703.05, 0.0320280
7714.51, 0.0318770
7726.01, 0.0316260
7737.54, 0.0314750
7749.11, 0.0313250
7760.71, 0.0310240
7772.35, 0.0306720
7784.02, 0.0304210
7795.72, 0.0301200
7807.46, 0.0298190
7819.23, 0.0294170
7831.04, 0.0290660
7842.89, 0.0286140
7854.77, 0.0282120
7866.69, 0.0278610
7878.65, 0.0274590
7890.64, 0.0270580
7902.67, 0.0266560
7914.74, 0.0263550
7926.84, 0.0259530
7938.98, 0.0256020
7951.16, 0.0251000
7963.37, 0.0246980
7975.62, 0.0242970
7987.91, 0.0237950
8000.24, 0.0233930
8012.6, 0.0230420
8025.01, 0.0226400
8037.45, 0.0222890
8049.93, 0.0219880
8062.45, 0.0216860
8075.01, 0.0212350
8087.61, 0.0208330
8100.24, 0.0204820
8112.91, 0.0200800
8125.63, 0.0196780
8138.39, 0.0192270
8151.18, 0.0187750
8164.02, 0.0183230
8176.9, 0.0179210
8189.81, 0.0175200
8202.77, 0.0171180
8215.77, 0.0167670
8228.82, 0.0164150
8241.9, 0.0160640
8255.02, 0.0157130
8268.19, 0.0152110
8281.39, 0.0149090
8294.65, 0.0146080
8307.94, 0.0143570
8321.28, 0.0140560
8334.66, 0.0137050
8348.08, 0.0134030
8361.54, 0.0131020
8375.05, 0.0127510
8388.6, 0.0125000
8402.2, 0.0122990
8415.84, 0.0120480
8429.52, 0.0117470
8443.25, 0.0115460
8457.02, 0.0112950
8470.84, 0.0109940
8484.7, 0.0104420
8498.61, 0.0101400
8512.57, 0.00994000
8526.57, 0.00973900
8540.62, 0.00943800
8554.71, 0.00903600
8568.85, 0.00873500
8583.04, 0.00858400
8597.27, 0.00833300
8611.55, 0.00813200
8625.88, 0.00793200
8640.26, 0.00778100
8654.68, 0.00763000
8669.16, 0.00758000
8683.68, 0.00768100
8698.25, 0.00773100
8712.87, 0.00763000
8727.53, 0.00763000
8742.25, 0.00763000
8757.02, 0.00737900
8771.83, 0.00717900
8786.7, 0.00707800
8801.62, 0.00667700
8816.59, 0.00627500
8831.61, 0.00587300
8846.68, 0.00547200
8861.8, 0.00517100
8876.97, 0.00481900
8892.2, 0.00461800
8907.48, 0.00441800
8922.81, 0.00431700
8938.2, 0.00416700
8953.63, 0.00411600
8969.13, 0.00416700
8984.67, 0.00421700
9000.27, 0.00436700
9015.92, 0.00446800
9031.63, 0.00456800
9047.39, 0.00476900
9063.21, 0.00497000
9079.08, 0.00517100
9095.01, 0.00537100
9111.0, 0.00567300
9127.04, 0.00597400
9143.13, 0.00617500
9159.28, 0.00642600
9175.49, 0.00667700
9191.76, 0.00692800
9208.09, 0.00753000
9224.47, 0.00808200
9240.92, 0.00863400
9257.42, 0.00938700
9273.98, 0.00999000
9290.6, 0.0104920
9307.28, 0.0108930
9324.02, 0.0111950
9340.82, 0.0114460
9357.68, 0.0117470
9374.6, 0.0119480
9391.58, 0.0120980
9408.62, 0.0123990
9425.73, 0.0128010
9442.9, 0.0131520
9460.13, 0.0136540
9477.42, 0.0140560
9494.78, 0.0143070
9512.2, 0.0148590
9529.69, 0.0156120
9547.24, 0.0162150
9564.86, 0.0166160
9582.54, 0.0171680
9600.28, 0.0179210
9618.1, 0.0188250
9635.97, 0.0199290
9653.92, 0.0211340
9671.93, 0.0224390
9690.01, 0.0242970
9708.16, 0.0264050
9726.37, 0.0287140
9744.65, 0.0313750
9763.0, 0.0344880
9781.43, 0.0378010
9799.92, 0.0414150
9818.48, 0.0455320
9837.1, 0.0497990
9855.8, 0.0541660
9874.58, 0.0587340
9893.42, 0.0632520
9912.34, 0.0673690
9931.33, 0.0714350
9950.39, 0.0754010
9969.52, 0.0791660
9988.74, 0.0830310
10008.0, 0.0866960
10027.4, 0.0894060
10046.8, 0.0910630
10066.3, 0.0916150
10085.9, 0.0912640
10105.6, 0.0901590
10125.3, 0.0880010
10145.1, 0.0853400
10165.0, 0.0824290
10185.0, 0.0795670
10205.0, 0.0770070
10225.2, 0.0746480
10245.4, 0.0723890
10265.7, 0.0705310
10286.0, 0.0690250
10306.5, 0.0675190
10327.0, 0.0663140
10347.6, 0.0654110
10368.3, 0.0649590
10389.1, 0.0645570
10409.9, 0.0641560
10430.9, 0.0637540
10451.9, 0.0634530
10473.0, 0.0629510
10494.2, 0.0623990
10515.5, 0.0617960
10536.9, 0.0610940
10558.4, 0.0602400
10579.9, 0.0594870
10601.5, 0.0588850
10623.3, 0.0583830
10645.1, 0.0579310
10667.0, 0.0576800
10689.0, 0.0573790
10711.1, 0.0568770
10733.2, 0.0565250
10755.5, 0.0561240
10777.9, 0.0558230
10800.3, 0.0556720
10822.9, 0.0556220
10845.5, 0.0553710
10868.2, 0.0552200
10891.1, 0.0551200
10914.0, 0.0548190
10937.0, 0.0543670
10960.2, 0.0537140
10983.4, 0.0526100
11006.7, 0.0507020
11030.1, 0.0477910
11053.6, 0.0441260
11077.3, 0.0402610
11101.0, 0.0362950
11124.8, 0.0326800
11148.7, 0.0296180
11172.7, 0.0270580
11196.9, 0.0247990
11221.1, 0.0230420
11245.4, 0.0217370
11269.9, 0.0213350
11294.4, 0.0224900
11319.1, 0.0250000
11343.9, 0.0285140
11368.8, 0.0323790
11393.7, 0.0358930
11418.8, 0.0389050
11444.0, 0.0415160
11469.4, 0.0439250
11494.8, 0.0461840
11520.3, 0.0479910
11546.0, 0.0496980
11571.8, 0.0513550
11597.7, 0.0528110
11623.7, 0.0536640
11649.8, 0.0536140
11676.0, 0.0526100
11702.4, 0.0508030
11728.9, 0.0489950
11755.5, 0.0482930
11782.2, 0.0489950
11809.0, 0.0506520
11836.0, 0.0525600
11863.0, 0.0544170
11890.3, 0.0560230
11917.6, 0.0568270
11945.0, 0.0566760
11972.6, 0.0555720
12000.4, 0.0540150
12028.2, 0.0523590
12056.2, 0.0505520
12084.3, 0.0489950
12112.5, 0.0477400
12140.9, 0.0466860
12169.4, 0.0456320
12198.0, 0.0449290
12226.8, 0.0444270
12255.7, 0.0440260
12284.7, 0.0435240
12313.9, 0.0430720
12343.2, 0.0429210
12372.7, 0.0430220
12402.3, 0.0430220
12432.0, 0.0429210
12461.9, 0.0428210
12491.9, 0.0425700
12522.1, 0.0423190
12552.4, 0.0420180
12582.9, 0.0413650
12613.5, 0.0407120
12644.3, 0.0401600
12675.2, 0.0397080
12706.3, 0.0392570
12737.5, 0.0387040
12768.9, 0.0380520
12800.4, 0.0374490
12832.1, 0.0369470
12863.9, 0.0361940
12895.9, 0.0356420
12928.1, 0.0351900
12960.4, 0.0345880
12992.9, 0.0340860
13025.5, 0.0334830
13058.3, 0.0328810
13091.3, 0.0323290
13124.4, 0.0317770
13157.8, 0.0312240
13191.2, 0.0307220
13224.9, 0.0302710
13258.7, 0.0297690
13292.7, 0.0294170
13326.9, 0.0290160
13361.2, 0.0284130
13395.7, 0.0276100
13430.4, 0.0271080
13465.3, 0.0268070
13500.4, 0.0265560
13535.7, 0.0259530
13571.1, 0.0254510
13606.7, 0.0250000
13642.5, 0.0246480
13678.5, 0.0241460
13714.7, 0.0237450
13751.1, 0.0233430
13787.6, 0.0228410
13824.4, 0.0221380
13861.4, 0.0213350
13898.5, 0.0207330
13935.9, 0.0202810
13973.5, 0.0197790
14011.2, 0.0192770
14049.2, 0.0188750
14087.4, 0.0185240
14125.8, 0.0180220
14164.3, 0.0175700
14203.2, 0.0168670
14242.2, 0.0162150
14281.4, 0.0158630
14320.9, 0.0155120
14360.5, 0.0150100
14400.4, 0.0146080
14440.5, 0.0142570
14480.9, 0.0138550
14521.4, 0.0134540
14562.2, 0.0132030
14603.3, 0.0128510
14644.5, 0.0125000
14686.0, 0.0122990
14727.7, 0.0121990
14769.7, 0.0120980
14811.9, 0.0119480
14854.3, 0.0120480
14897.0, 0.0119980
14939.9, 0.0117470
14983.1, 0.0116460
15026.5, 0.0118470
15070.2, 0.0117470
15114.2, 0.0114960
15158.3, 0.0110940
15202.8, 0.0106420
15247.5, 0.0103910
15292.5, 0.0100400
15337.7, 0.00968900
15383.2, 0.00933700
15429.0, 0.00933700
15475.1, 0.00893600
15521.4, 0.00848400
15568.0, 0.00803200
15614.9, 0.00768100
15662.1, 0.00773100
15709.6, 0.00788100
15757.3, 0.00803200
15805.4, 0.00833300
15853.7, 0.00873500
15902.3, 0.00943800
15951.2, 0.0105420
16000.5, 0.0121480
16050.0, 0.0143070
16099.8, 0.0163650
16150.0, 0.0175200
16200.5, 0.0174700
16251.3, 0.0164660
16302.4, 0.0154110
16353.8, 0.0148590
16405.5, 0.0140060
16457.6, 0.0131520
16510.0, 0.0130520
16562.8, 0.0126000
16615.9, 0.0119480
16669.3, 0.0119480
16723.1, 0.0120980
16777.2, 0.0120480
16831.7, 0.0122490
16886.5, 0.0122990
16941.7, 0.0127010
16997.2, 0.0131520
17053.1, 0.0140060
17109.4, 0.0153110
17166.1, 0.0170680
17223.1, 0.0192770
17280.5, 0.0225400
17338.3, 0.0264050
17396.5, 0.0304210
17455.1, 0.0344880
17514.0, 0.0383530
17573.4, 0.0415660
17633.2, 0.0444270
17693.4, 0.0462340
17754.0, 0.0471380
17815.0, 0.0478910
17876.4, 0.0486440
17938.3, 0.0486440
18000.5, 0.0481420
18063.3, 0.0477400
18126.4, 0.0475400
18190.0, 0.0469870
18254.1, 0.0463350
18318.6, 0.0458330
18383.5, 0.0448290
18449.0, 0.0429210
18514.9, 0.0398590
18581.2, 0.0365460
18648.0, 0.0335840
18715.4, 0.0310740
18783.2, 0.0291160
18851.5, 0.0289150
18920.3, 0.0305220
18989.6, 0.0345880
19059.4, 0.0401100
19129.7, 0.0452300
19200.6, 0.0492970
19272.0, 0.0529610
19343.9, 0.0568770
19416.3, 0.0596880
19489.3, 0.0615450
19562.8, 0.0632020
19637.0, 0.0625500
19711.6, 0.0598330
19786.8, 0.0567380
19862.6, 0.0545870
19939.0, 0.0540630
20016.0, 0.0530770
20093.6, 0.0523000
20171.8, 0.0519640
20250.6, 0.0515760
20330.0, 0.0515130
20410.0, 0.0509050
20490.7, 0.0501180
20572.0, 0.0493100
20654.0, 0.0495830
20736.6, 0.0498350
20819.9, 0.0481350
20903.8, 0.0472220
20988.5, 0.0485440
21073.8, 0.0499820
21159.8, 0.0500340
21246.5, 0.0492160
21334.0, 0.0440750
21422.1, 0.0393330
21511.0, 0.0357970
21600.7, 0.0339720
21691.0, 0.0331740
21782.1, 0.0343490
21874.0, 0.0383050
21966.7, 0.0423330
22060.2, 0.0455650
22154.5, 0.0484390
22249.6, 0.0512720
22345.5, 0.0532550
22442.2, 0.0536640
22539.8, 0.0531400
22638.2, 0.0514190
22737.5, 0.0503800
22837.7, 0.0512200
22938.7, 0.0521320
23040.7, 0.0514080
23143.5, 0.0492260
23247.3, 0.0463930
23352.1, 0.0431730
23457.7, 0.0414310
23564.4, 0.0402240
23672.0, 0.0386400
23780.5, 0.0391750
23890.1, 0.0393120
24000.7, 0.0357760
24112.3, 0.0340340
24225.0, 0.0333320
24338.7, 0.0316210
24453.5, 0.0302890
24569.4, 0.0292080
24686.4, 0.0291140
24804.5, 0.0300480
24923.8, 0.0316630
25044.2, 0.0351570
25165.8, 0.0374760
25288.6, 0.0370140
25412.5, 0.0371290
25537.7, 0.0366150
25664.1, 0.0348420
25791.8, 0.0317370
27285.0, 0.0243720
27429.4, 0.0245290
27575.3, 0.0239210
27722.7, 0.0234070
27871.8, 0.0243510
28022.4, 0.0251170
28174.7, 0.0270790
28328.7, 0.0289150
28484.4, 0.0279600
28641.7, 0.0247290
28800.9, 0.0220850
28961.8, 0.0211930
29124.5, 0.0216020
29289.0, 0.0213610
29455.4, 0.0199550
29623.8, 0.0195040
29794.0, 0.0205950
29966.3, 0.0194090
30140.5, 0.0182030
30316.7, 0.0207940
30495.1, 0.0263230
30675.5, 0.0288830
30858.1, 0.0302470
31042.8, 0.0273300
31229.8, 0.0237530
31419.1, 0.0216650
31610.7, 0.0209940
31804.6, 0.0210040
32000.9, 0.0197450
32199.7, 0.0194090
32400.9, 0.0205110
32604.8, 0.0234590
32811.1, 0.0295760
33020.1, 0.0396260
33231.8, 0.0423330
33446.2, 0.0448930
33663.4, 0.0471590
33883.4, 0.0471280
34106.3, 0.0467820
34332.1, 0.0483760
34561.0, 0.0493420
34792.9, 0.0455020
35028.0, 0.0407490
35266.3, 0.0383050
35507.8, 0.0393960
35752.7, 0.0406130
36001.0, 0.0455330
36252.8, 0.0478620
36508.1, 0.0493310
36767.0, 0.0506740
37029.7, 0.0511990
37296.1, 0.0520690
37566.3, 0.0536330
37840.5, 0.0526880
38118.8, 0.0533280
38401.2, 0.0543570
38687.8, 0.0545870
38978.6, 0.0556050
39273.9, 0.0582910
39573.7, 0.0558250
39878.1, 0.0518910
40187.3, 0.0545770
40501.2, 0.0631270
40820.0, 0.0674810
41144.0, 0.0658660
41473.2, 0.0654990
41807.6, 0.0664430
42147.5, 0.0681530
42493.0, 0.0699050
42844.2, 0.0695900
43201.2, 0.0662540
43564.3, 0.0636210
43933.5, 0.0695480
44309.0, 0.0628230
44691.0, 0.0552480
45079.6, 0.0508520
45475.0, 0.0436870
45877.5, 0.0404970
46287.1, 0.0459740
46704.2, 0.0585850
47128.7, 0.0628550
47561.1, 0.0630330
48001.5, 0.0626130
48450.1, 0.0601900
48907.2, 0.0634530
49373.0, 0.0698320
49847.7, 0.0593300
50331.5, 0.0541360
50825.0, 0.0529400
51328.2, 0.0534120
51841.5, 0.0510730
52365.1, 0.0474110
52899.4, 0.0467290
53444.8, 0.0496670
54001.5, 0.0491420
54570.1, 0.0511250
55150.6, 0.0535170
55743.6, 0.0535070
56349.5, 0.0587840
56968.7, 0.0561190
57601.7, 0.0493840
58248.9, 0.0480830
58910.9, 0.0483130
59588.1, 0.0468760
60281.0, 0.0471380
60990.2, 0.0447040
61716.3, 0.0434770
62459.8, 0.0457430
63221.6, 0.0515870
64002.1, 0.0516810
64802.1, 0.0543460
65622.1, 0.0688140
66463.4, 0.0846980
67326.6, 0.0513870
68212.4, 0.0390910
69121.9, 0.0365940
70056.0, 0.0364060
71015.7, 0.0460260
72002.0, 0.0549860
73016.3, 0.0553740
74059.4, 0.0576190
75132.7, 0.0662960
76237.6, 0.0626760
77375.5, 0.0563920
78547.9, 0.0600010
79756.3, 0.0542940
81002.5, 0.0516600
82288.5, 0.0579870
83615.7, 0.0519540
84986.5, 0.0494470
86402.9, 0.0509890
87867.4, 0.0485440
89382.4, 0.0489850
90950.5, 0.0508210
92574.6, 0.0566860
94257.2, 0.0745000
96002.7, 0.0722450
97814.1, 0.0680380
99695.1, 0.0906150
101650.0, 0.0698320
103683.0, 0.0578920
105799.0, 0.0603370
108003.0, 0.0738920
110301.0, 0.0784770
112699.0, 0.0928710
115204.0, 0.0780570
117822.0, 0.0613440
120562.0, 0.0594240
123433.0, 0.0721610
126443.0, 0.0733670
129604.0, 0.0634420
132926.0, 0.0730940
136424.0, 0.110014
140111.0, 0.0878250
144003.0, 0.0704820
148118.0, 0.0974140
152474.0, 0.164245
157095.0, 0.201972
162004.0, 0.0856740
167231.0, 0.0708910
172805.0, 0.0800920
178764.0, 0.0862930
185148.0, 0.0618890
192005.0, 0.0657710
199390.0, 0.229848
207366.0, 0.0127890
