Database of Origin,USGS Spectral Database
Sample Description,See USGS database for additional info
Date Added,2017-02-22 02:49:16.513352

Data ID,USGS_the02          
Sample ID,thenardite_gds146.21694
Mineral Name,thenardite

Wavelength
1463.62, 0.564712
1464.04, 0.562796
1464.45, 0.562796
1464.86, 0.564538
1465.28, 0.565235
1465.69, 0.562622
1466.11, 0.559661
1466.52, 0.558268
1466.94, 0.559313
1467.35, 0.559487
1467.77, 0.558616
1468.18, 0.557571
1468.6, 0.556526
1469.02, 0.556177
1469.43, 0.558093
1469.85, 0.559313
1470.27, 0.560184
1470.68, 0.560184
1471.1, 0.558964
1471.52, 0.557048
1471.94, 0.556003
1472.35, 0.556351
1472.77, 0.556700
1473.19, 0.555829
1473.61, 0.555306
1474.03, 0.555655
1474.45, 0.555655
1474.87, 0.555306
1475.29, 0.555829
1475.71, 0.556526
1476.13, 0.557397
1476.55, 0.556003
1476.97, 0.555481
1477.39, 0.556526
1477.81, 0.556351
1478.23, 0.555132
1478.65, 0.554261
1479.07, 0.552694
1479.5, 0.554087
1479.92, 0.555655
1480.34, 0.555829
1480.76, 0.555306
1481.19, 0.553390
1481.61, 0.553565
1482.03, 0.552519
1482.46, 0.552694
1482.88, 0.555829
1483.31, 0.554784
1483.73, 0.552519
1484.16, 0.552868
1484.58, 0.555132
1485.01, 0.553565
1485.43, 0.551300
1485.86, 0.551300
1486.28, 0.549384
1486.71, 0.549732
1487.14, 0.551997
1487.56, 0.554958
1487.99, 0.552345
1488.42, 0.549907
1488.84, 0.549558
1489.27, 0.550081
1489.7, 0.549732
1490.13, 0.549558
1490.56, 0.549907
1490.98, 0.549210
1491.41, 0.547991
1491.84, 0.548513
1492.27, 0.549907
1492.7, 0.549907
1493.13, 0.550429
1493.56, 0.549558
1493.99, 0.548339
1494.42, 0.548513
1494.85, 0.549384
1495.29, 0.548862
1495.72, 0.549210
1496.15, 0.550429
1496.58, 0.550081
1497.01, 0.549210
1497.44, 0.548687
1497.88, 0.546423
1498.31, 0.547468
1498.74, 0.551300
1499.18, 0.552345
1499.61, 0.551300
1500.04, 0.551997
1500.48, 0.550603
1500.91, 0.547816
1501.35, 0.548513
1501.78, 0.551126
1502.22, 0.549732
1502.65, 0.547120
1503.09, 0.547294
1503.53, 0.549036
1503.96, 0.550081
1504.4, 0.549210
1504.83, 0.548862
1505.27, 0.548862
1505.71, 0.548339
1506.15, 0.547294
1506.58, 0.547294
1507.02, 0.547642
1507.46, 0.547642
1507.9, 0.547642
1508.34, 0.547816
1508.78, 0.549384
1509.21, 0.548513
1509.66, 0.548165
1510.09, 0.548339
1510.53, 0.547468
1510.97, 0.547294
1511.42, 0.546945
1511.86, 0.546945
1512.3, 0.547468
1512.74, 0.547816
1513.18, 0.547816
1513.62, 0.546945
1514.06, 0.547294
1514.51, 0.547294
1514.95, 0.547294
1515.39, 0.547468
1515.83, 0.546771
1516.28, 0.546423
1516.72, 0.547816
1517.16, 0.547816
1517.61, 0.547816
1518.05, 0.549558
1518.5, 0.549907
1518.94, 0.549210
1519.39, 0.549384
1519.83, 0.548339
1520.28, 0.546945
1520.73, 0.547120
1521.17, 0.547642
1521.62, 0.548862
1522.07, 0.549558
1522.51, 0.548513
1522.96, 0.547642
1523.41, 0.547816
1523.85, 0.547816
1524.3, 0.547642
1524.75, 0.547991
1525.2, 0.548165
1525.65, 0.548165
1526.1, 0.548513
1526.55, 0.548513
1527.0, 0.548165
1527.45, 0.547294
1527.9, 0.545900
1528.35, 0.547294
1528.8, 0.548513
1529.25, 0.548165
1529.7, 0.548862
1530.15, 0.549036
1530.6, 0.549558
1531.05, 0.551126
1531.51, 0.552345
1531.96, 0.550429
1532.41, 0.549558
1532.87, 0.550603
1533.32, 0.549907
1533.77, 0.549732
1534.23, 0.549210
1534.68, 0.548862
1535.14, 0.548165
1535.59, 0.548165
1536.05, 0.549558
1536.5, 0.550778
1536.96, 0.549558
1537.41, 0.548513
1537.87, 0.549036
1538.32, 0.548862
1538.78, 0.549558
1539.24, 0.550081
1539.7, 0.550255
1540.15, 0.550081
1540.61, 0.549558
1541.07, 0.549384
1541.53, 0.550081
1541.98, 0.550081
1542.44, 0.550255
1542.9, 0.549210
1543.36, 0.548165
1543.82, 0.548687
1544.28, 0.548687
1544.74, 0.549558
1545.2, 0.549558
1545.66, 0.550255
1546.12, 0.550952
1546.59, 0.550778
1547.05, 0.550081
1547.51, 0.550255
1547.97, 0.549907
1548.43, 0.550778
1548.9, 0.551474
1549.36, 0.550255
1549.82, 0.549384
1550.29, 0.549036
1550.75, 0.549732
1551.21, 0.549732
1551.68, 0.550603
1552.14, 0.550952
1552.61, 0.550952
1553.07, 0.550778
1553.54, 0.550429
1554.0, 0.549558
1554.47, 0.549558
1554.93, 0.550081
1555.4, 0.551997
1555.87, 0.553042
1556.34, 0.551997
1556.8, 0.551823
1557.27, 0.551823
1557.74, 0.551997
1558.21, 0.552519
1558.68, 0.551648
1559.14, 0.550952
1559.61, 0.551300
1560.08, 0.551823
1560.55, 0.552171
1561.02, 0.551474
1561.49, 0.551126
1561.96, 0.551997
1562.43, 0.552345
1562.9, 0.552694
1563.38, 0.553042
1563.85, 0.552694
1564.32, 0.552171
1564.79, 0.551823
1565.26, 0.551126
1565.74, 0.552519
1566.21, 0.554610
1566.68, 0.554784
1567.16, 0.555132
1567.63, 0.555132
1568.1, 0.553390
1568.58, 0.552694
1569.05, 0.553390
1569.53, 0.553739
1570.0, 0.553739
1570.48, 0.553913
1570.96, 0.554435
1571.43, 0.555306
1571.91, 0.555306
1572.39, 0.554087
1572.86, 0.553739
1573.34, 0.554610
1573.82, 0.554958
1574.3, 0.555829
1574.77, 0.557048
1575.25, 0.556874
1575.73, 0.555655
1576.21, 0.555829
1576.69, 0.557397
1577.17, 0.557397
1577.65, 0.554958
1578.13, 0.554435
1578.61, 0.554958
1579.09, 0.554610
1579.57, 0.555306
1580.05, 0.556177
1580.54, 0.556526
1581.02, 0.556177
1581.5, 0.556003
1581.98, 0.556351
1582.47, 0.557397
1582.95, 0.557222
1583.43, 0.556874
1583.92, 0.556700
1584.4, 0.556700
1584.88, 0.556874
1585.37, 0.557745
1585.85, 0.557919
1586.34, 0.558093
1586.82, 0.558268
1587.31, 0.558790
1587.8, 0.558964
1588.28, 0.558442
1588.77, 0.558442
1589.26, 0.558268
1589.74, 0.558964
1590.23, 0.559487
1590.72, 0.559487
1591.21, 0.559313
1591.7, 0.559313
1592.19, 0.559661
1592.67, 0.558790
1593.16, 0.557745
1593.65, 0.558268
1594.14, 0.558964
1594.63, 0.559661
1595.12, 0.559139
1595.61, 0.558268
1596.11, 0.559139
1596.6, 0.559487
1597.09, 0.559313
1597.58, 0.559313
1598.08, 0.560009
1598.57, 0.561055
1599.06, 0.560358
1599.55, 0.559487
1600.05, 0.559835
1600.54, 0.560184
1601.04, 0.560358
1601.53, 0.559487
1602.03, 0.558442
1602.52, 0.558790
1603.02, 0.560706
1603.51, 0.561577
1604.01, 0.561055
1604.5, 0.560009
1605.0, 0.559487
1605.5, 0.560358
1606.0, 0.560184
1606.49, 0.559661
1606.99, 0.560009
1607.49, 0.560184
1607.99, 0.561055
1608.49, 0.561577
1608.99, 0.560184
1609.49, 0.559487
1609.99, 0.560009
1610.49, 0.561055
1610.99, 0.560706
1611.49, 0.559313
1611.99, 0.559661
1612.49, 0.560532
1612.99, 0.560880
1613.49, 0.560706
1614.0, 0.561229
1614.5, 0.561403
1615.0, 0.561055
1615.51, 0.560358
1616.01, 0.560009
1616.51, 0.560184
1617.02, 0.560706
1617.52, 0.561055
1618.03, 0.561403
1618.53, 0.561055
1619.04, 0.560358
1619.54, 0.560532
1620.05, 0.560706
1620.55, 0.561229
1621.06, 0.560880
1621.57, 0.560880
1622.08, 0.560532
1622.58, 0.560358
1623.09, 0.560706
1623.6, 0.560009
1624.11, 0.559487
1624.62, 0.560009
1625.13, 0.560532
1625.64, 0.561055
1626.15, 0.560880
1626.66, 0.561403
1627.17, 0.560706
1627.68, 0.560184
1628.19, 0.560532
1628.7, 0.560358
1629.21, 0.560009
1629.72, 0.560184
1630.24, 0.560532
1630.75, 0.561229
1631.26, 0.560706
1631.78, 0.559835
1632.29, 0.559487
1632.8, 0.559487
1633.32, 0.559661
1633.83, 0.559313
1634.35, 0.559139
1634.86, 0.560184
1635.38, 0.560009
1635.9, 0.560009
1636.41, 0.560358
1636.93, 0.560358
1637.45, 0.560532
1637.96, 0.560009
1638.48, 0.559661
1639.0, 0.561403
1639.52, 0.561055
1640.04, 0.559313
1640.56, 0.559487
1641.08, 0.560358
1641.59, 0.560358
1642.11, 0.559835
1642.63, 0.559661
1643.16, 0.558964
1643.68, 0.558964
1644.2, 0.560358
1644.72, 0.561577
1645.24, 0.560184
1645.76, 0.559313
1646.29, 0.560880
1646.81, 0.560706
1647.33, 0.561055
1647.86, 0.561055
1648.38, 0.559661
1648.9, 0.559313
1649.43, 0.560184
1649.95, 0.560706
1650.48, 0.560706
1651.0, 0.560358
1651.53, 0.560184
1652.06, 0.560358
1652.58, 0.560358
1653.11, 0.560706
1653.64, 0.560184
1654.17, 0.561055
1654.69, 0.561229
1655.22, 0.560358
1655.75, 0.561229
1656.28, 0.561229
1656.81, 0.561055
1657.34, 0.560880
1657.87, 0.560532
1658.4, 0.561229
1658.93, 0.561055
1659.46, 0.560880
1659.99, 0.561577
1660.52, 0.562274
1661.05, 0.561751
1661.59, 0.561577
1662.12, 0.562100
1662.65, 0.562274
1663.19, 0.561751
1663.72, 0.561926
1664.26, 0.562448
1664.79, 0.562274
1665.32, 0.562274
1665.86, 0.562448
1666.39, 0.562274
1666.93, 0.562622
1667.47, 0.562971
1668.0, 0.561926
1668.54, 0.561751
1669.08, 0.562622
1669.61, 0.563145
1670.15, 0.563319
1670.69, 0.562796
1671.23, 0.562100
1671.77, 0.562274
1672.31, 0.562274
1672.85, 0.562971
1673.39, 0.564016
1673.93, 0.564364
1674.47, 0.564190
1675.01, 0.563842
1675.55, 0.564538
1676.09, 0.564712
1676.64, 0.564190
1677.18, 0.564016
1677.72, 0.564538
1678.26, 0.564712
1678.81, 0.565061
1679.35, 0.564190
1679.89, 0.562971
1680.44, 0.563493
1680.98, 0.564538
1681.53, 0.564887
1682.07, 0.565061
1682.62, 0.564538
1683.17, 0.564364
1683.71, 0.565061
1684.26, 0.564364
1684.81, 0.565235
1685.36, 0.566803
1685.9, 0.566803
1686.45, 0.566106
1687.0, 0.565235
1687.55, 0.565758
1688.1, 0.565932
1688.65, 0.565932
1689.2, 0.566106
1689.75, 0.566280
1690.3, 0.566454
1690.85, 0.566803
1691.41, 0.566629
1691.96, 0.566977
1692.51, 0.567325
1693.06, 0.566803
1693.61, 0.566629
1694.17, 0.566977
1694.72, 0.567151
1695.28, 0.567325
1695.83, 0.566803
1696.39, 0.566803
1696.94, 0.567151
1697.5, 0.566977
1698.05, 0.567151
1698.61, 0.567499
1699.17, 0.567848
1699.72, 0.568370
1700.28, 0.567848
1700.84, 0.566803
1701.4, 0.566803
1701.95, 0.568022
1702.51, 0.568196
1703.07, 0.568022
1703.63, 0.568022
1704.19, 0.567499
1704.75, 0.568022
1705.31, 0.568719
1705.88, 0.568893
1706.44, 0.569067
1707.0, 0.569241
1707.56, 0.568719
1708.12, 0.568719
1708.69, 0.568893
1709.25, 0.568545
1709.81, 0.568196
1710.38, 0.568893
1710.94, 0.569590
1711.51, 0.569067
1712.07, 0.568022
1712.64, 0.567674
1713.2, 0.568370
1713.77, 0.568893
1714.34, 0.569241
1714.9, 0.569416
1715.47, 0.569241
1716.04, 0.569241
1716.61, 0.569416
1717.18, 0.569938
1717.74, 0.570112
1718.31, 0.569241
1718.88, 0.569416
1719.45, 0.569938
1720.02, 0.569764
1720.59, 0.569241
1721.17, 0.569764
1721.74, 0.570112
1722.31, 0.569764
1722.88, 0.569938
1723.45, 0.569938
1724.03, 0.570287
1724.6, 0.570809
1725.18, 0.570809
1725.75, 0.570983
1726.33, 0.570809
1726.9, 0.570461
1727.48, 0.570635
1728.05, 0.570983
1728.63, 0.571157
1729.2, 0.572028
1729.78, 0.571157
1730.36, 0.570112
1730.94, 0.570461
1731.51, 0.570809
1732.09, 0.570635
1732.67, 0.570112
1733.25, 0.570983
1733.83, 0.572028
1734.41, 0.572028
1734.99, 0.571332
1735.57, 0.571854
1736.15, 0.572028
1736.73, 0.571157
1737.32, 0.571332
1737.9, 0.572203
1738.48, 0.572899
1739.07, 0.572899
1739.65, 0.572377
1740.23, 0.572203
1740.82, 0.573073
1741.4, 0.573596
1741.99, 0.573248
1742.57, 0.572551
1743.16, 0.572377
1743.74, 0.572725
1744.33, 0.573073
1744.92, 0.573596
1745.51, 0.573770
1746.09, 0.573248
1746.68, 0.572725
1747.27, 0.572725
1747.86, 0.572725
1748.45, 0.573248
1749.04, 0.573422
1749.63, 0.573248
1750.22, 0.572725
1750.81, 0.572899
1751.4, 0.573073
1751.99, 0.573596
1752.59, 0.574467
1753.18, 0.574815
1753.77, 0.574641
1754.37, 0.575164
1754.96, 0.574815
1755.56, 0.573944
1756.15, 0.573596
1756.74, 0.573770
1757.34, 0.573770
1757.94, 0.573770
1758.53, 0.573770
1759.13, 0.574467
1759.73, 0.574293
1760.32, 0.574118
1760.92, 0.574641
1761.52, 0.574815
1762.12, 0.574467
1762.72, 0.574641
1763.32, 0.574815
1763.92, 0.573944
1764.52, 0.573596
1765.12, 0.573944
1765.72, 0.574293
1766.32, 0.574989
1766.92, 0.575164
1767.53, 0.574641
1768.13, 0.573944
1768.73, 0.573596
1769.34, 0.573944
1769.94, 0.574467
1770.55, 0.574293
1771.15, 0.574641
1771.76, 0.575338
1772.36, 0.575338
1772.97, 0.575164
1773.57, 0.574815
1774.18, 0.573596
1774.79, 0.573596
1775.4, 0.574467
1776.0, 0.574815
1776.61, 0.575164
1777.22, 0.574989
1777.83, 0.573944
1778.44, 0.573248
1779.05, 0.573944
1779.66, 0.574293
1780.27, 0.573944
1780.88, 0.573073
1781.5, 0.573248
1782.11, 0.573770
1782.72, 0.573944
1783.33, 0.573944
1783.95, 0.574641
1784.56, 0.574815
1785.18, 0.574293
1785.79, 0.573770
1786.41, 0.573944
1787.02, 0.574467
1787.64, 0.575164
1788.26, 0.575686
1788.87, 0.574989
1789.49, 0.574815
1790.11, 0.574815
1790.73, 0.574467
1791.35, 0.573770
1791.96, 0.574293
1792.58, 0.574641
1793.21, 0.574815
1793.83, 0.574467
1794.45, 0.574467
1795.07, 0.574467
1795.69, 0.574118
1796.31, 0.573770
1796.93, 0.573596
1797.56, 0.573944
1798.18, 0.574467
1798.8, 0.574467
1799.43, 0.574293
1800.05, 0.574293
1800.68, 0.574118
1801.3, 0.573770
1801.93, 0.574118
1802.56, 0.574641
1803.18, 0.573770
1803.81, 0.573596
1804.44, 0.573422
1805.07, 0.574118
1805.7, 0.574641
1806.33, 0.574467
1806.95, 0.574815
1807.58, 0.575164
1808.22, 0.574815
1808.85, 0.574641
1809.48, 0.574641
1810.11, 0.574293
1810.74, 0.574118
1811.38, 0.574293
1812.01, 0.574641
1812.64, 0.574815
1813.28, 0.574467
1813.91, 0.574641
1814.55, 0.574815
1815.18, 0.575338
1815.82, 0.574989
1816.45, 0.575338
1817.09, 0.575860
1817.73, 0.575860
1818.36, 0.575686
1819.0, 0.575686
1819.64, 0.576209
1820.28, 0.576383
1820.92, 0.575860
1821.56, 0.575860
1822.2, 0.576035
1822.84, 0.576035
1823.48, 0.576557
1824.12, 0.576383
1824.76, 0.576557
1825.41, 0.577254
1826.05, 0.577428
1826.69, 0.576035
1827.34, 0.575686
1827.98, 0.576905
1828.63, 0.577602
1829.27, 0.576731
1829.92, 0.576905
1830.56, 0.577951
1831.21, 0.577428
1831.86, 0.577080
1832.5, 0.577951
1833.15, 0.577951
1833.8, 0.577951
1834.45, 0.578647
1835.1, 0.577776
1835.75, 0.577254
1836.4, 0.577254
1837.05, 0.577602
1837.7, 0.577951
1838.35, 0.577080
1839.01, 0.577951
1839.66, 0.578647
1840.31, 0.577428
1840.96, 0.577951
1841.62, 0.578822
1842.27, 0.577776
1842.93, 0.577602
1843.58, 0.577951
1844.24, 0.578299
1844.9, 0.578647
1845.55, 0.578822
1846.21, 0.579693
1846.87, 0.580389
1847.53, 0.579170
1848.18, 0.578125
1848.84, 0.577254
1849.5, 0.578125
1850.16, 0.578647
1850.82, 0.578647
1851.48, 0.578822
1852.14, 0.579344
1852.81, 0.578647
1853.47, 0.578125
1854.13, 0.577428
1854.8, 0.577602
1855.46, 0.578299
1856.12, 0.578473
1856.79, 0.578125
1857.45, 0.577951
1858.12, 0.578299
1858.79, 0.578299
1859.45, 0.578125
1860.12, 0.577428
1860.79, 0.577428
1861.46, 0.577428
1862.12, 0.576731
1862.79, 0.576905
1863.46, 0.577776
1864.13, 0.577602
1864.8, 0.576905
1865.48, 0.576731
1866.15, 0.576731
1866.82, 0.576905
1867.49, 0.577428
1868.16, 0.575686
1868.84, 0.574641
1869.51, 0.576035
1870.19, 0.577080
1870.86, 0.576383
1871.54, 0.574293
1872.21, 0.574641
1872.89, 0.575338
1873.56, 0.573596
1874.24, 0.573073
1874.92, 0.573770
1875.6, 0.573248
1876.28, 0.573422
1876.96, 0.572899
1877.64, 0.571680
1878.32, 0.572551
1879.0, 0.572725
1879.68, 0.572203
1880.36, 0.571506
1881.04, 0.570983
1881.73, 0.570461
1882.41, 0.569764
1883.09, 0.570461
1883.78, 0.570809
1884.46, 0.569416
1885.15, 0.569067
1885.83, 0.568545
1886.52, 0.568022
1887.21, 0.567151
1887.89, 0.566454
1888.58, 0.566629
1889.27, 0.566977
1889.96, 0.566977
1890.65, 0.566280
1891.34, 0.565583
1892.03, 0.564364
1892.72, 0.563319
1893.41, 0.563319
1894.1, 0.562796
1894.79, 0.562796
1895.49, 0.561577
1896.18, 0.560532
1896.87, 0.559835
1897.57, 0.559487
1898.26, 0.558964
1898.96, 0.559487
1899.65, 0.558093
1900.35, 0.555829
1901.05, 0.555655
1901.74, 0.555829
1902.44, 0.556003
1903.14, 0.554610
1903.84, 0.553216
1904.54, 0.553739
1905.24, 0.553565
1905.94, 0.552868
1906.64, 0.552171
1907.34, 0.550952
1908.04, 0.550255
1908.75, 0.550255
1909.45, 0.549907
1910.15, 0.549036
1910.86, 0.548339
1911.56, 0.548165
1912.27, 0.547642
1912.97, 0.547468
1913.68, 0.546945
1914.39, 0.546075
1915.09, 0.546249
1915.8, 0.546249
1916.51, 0.545900
1917.22, 0.544855
1917.93, 0.544333
1918.64, 0.544333
1919.35, 0.544507
1920.06, 0.543810
1920.77, 0.542242
1921.48, 0.541371
1922.19, 0.541894
1922.91, 0.542068
1923.62, 0.541720
1924.33, 0.541197
1925.05, 0.540849
1925.76, 0.540326
1926.48, 0.539978
1927.19, 0.539455
1927.91, 0.539455
1928.63, 0.538933
1929.35, 0.537888
1930.07, 0.537191
1930.78, 0.537191
1931.5, 0.537017
1932.22, 0.536146
1932.94, 0.535449
1933.66, 0.534927
1934.39, 0.534752
1935.11, 0.534927
1935.83, 0.534752
1936.55, 0.534230
1937.28, 0.533359
1938.0, 0.533011
1938.73, 0.532314
1939.45, 0.531791
1940.18, 0.531443
1940.9, 0.531443
1941.63, 0.530920
1942.36, 0.530398
1943.09, 0.530049
1943.81, 0.530049
1944.54, 0.529875
1945.27, 0.529875
1946.0, 0.529701
1946.73, 0.529875
1947.47, 0.530224
1948.2, 0.529527
1948.93, 0.528308
1949.66, 0.527959
1950.4, 0.528133
1951.13, 0.527959
1951.86, 0.527959
1952.6, 0.527437
1953.34, 0.527088
1954.07, 0.527088
1954.81, 0.527262
1955.55, 0.527611
1956.29, 0.527437
1957.02, 0.527611
1957.76, 0.527785
1958.5, 0.527611
1959.24, 0.527437
1959.98, 0.527611
1960.72, 0.527785
1961.47, 0.527611
1962.21, 0.527785
1962.95, 0.527785
1963.7, 0.527959
1964.44, 0.527785
1965.18, 0.528133
1965.93, 0.528482
1966.67, 0.528308
1967.42, 0.528133
1968.17, 0.528308
1968.92, 0.528656
1969.66, 0.528656
1970.41, 0.528830
1971.16, 0.529353
1971.91, 0.529701
1972.66, 0.529353
1973.41, 0.529353
1974.16, 0.529353
1974.92, 0.529527
1975.67, 0.530572
1976.42, 0.530920
1977.18, 0.530920
1977.93, 0.531443
1978.69, 0.531443
1979.44, 0.531617
1980.2, 0.531617
1980.95, 0.531443
1981.71, 0.531791
1982.47, 0.532662
1983.23, 0.533011
1983.99, 0.532662
1984.74, 0.532488
1985.51, 0.533011
1986.27, 0.533011
1987.03, 0.533185
1987.79, 0.533533
1988.55, 0.533881
1989.32, 0.534578
1990.08, 0.534404
1990.84, 0.533881
1991.61, 0.534230
1992.37, 0.534927
1993.14, 0.535101
1993.9, 0.535275
1994.67, 0.535275
1995.44, 0.535623
1996.21, 0.535798
1996.98, 0.535798
1997.75, 0.536320
1998.52, 0.536668
1999.29, 0.536668
2000.06, 0.537191
2000.83, 0.537714
2001.6, 0.537365
2002.38, 0.537191
2003.15, 0.537888
2003.93, 0.538236
2004.7, 0.538410
2005.48, 0.539107
2006.25, 0.539630
2007.03, 0.540501
2007.81, 0.540849
2008.58, 0.540849
2009.36, 0.541023
2010.14, 0.541197
2010.92, 0.540849
2011.7, 0.540849
2012.48, 0.541546
2013.26, 0.542068
2014.05, 0.542765
2014.83, 0.542939
2015.61, 0.543288
2016.4, 0.543810
2017.18, 0.543636
2017.97, 0.543810
2018.75, 0.544159
2019.54, 0.543636
2020.32, 0.543636
2021.11, 0.544507
2021.9, 0.544855
2022.69, 0.544855
2023.48, 0.544855
2024.27, 0.545204
2025.06, 0.545552
2025.85, 0.545552
2026.64, 0.545552
2027.44, 0.545900
2028.23, 0.545900
2029.02, 0.545900
2029.82, 0.546423
2030.61, 0.546945
2031.41, 0.546945
2032.2, 0.546423
2033.0, 0.546249
2033.8, 0.546423
2034.6, 0.547120
2035.4, 0.547294
2036.2, 0.547468
2037.0, 0.548339
2037.8, 0.548339
2038.6, 0.548165
2039.4, 0.548513
2040.2, 0.548339
2041.01, 0.548513
2041.81, 0.548687
2042.61, 0.548339
2043.42, 0.548339
2044.22, 0.547991
2045.03, 0.548165
2045.84, 0.548513
2046.65, 0.549210
2047.46, 0.549907
2048.26, 0.550081
2049.07, 0.549558
2049.88, 0.549558
2050.69, 0.549384
2051.51, 0.549384
2052.32, 0.549384
2053.13, 0.549210
2053.94, 0.549036
2054.76, 0.549036
2055.57, 0.549384
2056.39, 0.549384
2057.2, 0.549384
2058.02, 0.548862
2058.84, 0.548862
2059.66, 0.548687
2060.48, 0.547991
2061.29, 0.547816
2062.11, 0.548513
2062.94, 0.549384
2063.76, 0.549036
2064.58, 0.548513
2065.4, 0.548339
2066.22, 0.547991
2067.05, 0.547991
2067.87, 0.548165
2068.7, 0.547991
2069.52, 0.548165
2070.35, 0.547991
2071.18, 0.547642
2072.0, 0.547468
2072.83, 0.547294
2073.66, 0.547294
2074.49, 0.547120
2075.32, 0.546771
2076.15, 0.546597
2076.98, 0.546423
2077.82, 0.546075
2078.65, 0.545378
2079.48, 0.545378
2080.32, 0.544681
2081.15, 0.544333
2081.99, 0.543636
2082.83, 0.543113
2083.66, 0.542591
2084.5, 0.542242
2085.34, 0.541371
2086.18, 0.540152
2087.02, 0.539630
2087.86, 0.538933
2088.7, 0.538062
2089.54, 0.537365
2090.39, 0.535972
2091.23, 0.534404
2092.07, 0.533881
2092.92, 0.533011
2093.76, 0.532140
2094.61, 0.530920
2095.45, 0.529701
2096.3, 0.529004
2097.15, 0.528308
2098.0, 0.526914
2098.85, 0.526043
2099.7, 0.525346
2100.55, 0.525172
2101.4, 0.525172
2102.25, 0.524650
2103.1, 0.523779
2103.96, 0.523605
2104.81, 0.523430
2105.67, 0.523082
2106.52, 0.522908
2107.38, 0.522559
2108.24, 0.522385
2109.09, 0.522908
2109.95, 0.523430
2110.81, 0.524127
2111.67, 0.524998
2112.53, 0.525695
2113.39, 0.526043
2114.25, 0.526043
2115.12, 0.526566
2115.98, 0.527959
2116.84, 0.528830
2117.71, 0.529527
2118.58, 0.530398
2119.44, 0.531269
2120.31, 0.531965
2121.18, 0.531965
2122.04, 0.532662
2122.91, 0.533185
2123.78, 0.533533
2124.65, 0.534230
2125.52, 0.534752
2126.4, 0.535101
2127.27, 0.535449
2128.14, 0.535972
2129.02, 0.536320
2129.89, 0.537017
2130.77, 0.537365
2131.64, 0.537365
2132.52, 0.537539
2133.4, 0.538236
2134.27, 0.538585
2135.15, 0.538410
2136.03, 0.538410
2136.91, 0.538759
2137.79, 0.538933
2138.68, 0.538933
2139.56, 0.539107
2140.44, 0.538933
2141.33, 0.539455
2142.21, 0.540326
2143.1, 0.539804
2143.99, 0.539455
2144.87, 0.539630
2145.76, 0.539804
2146.65, 0.539978
2147.54, 0.539804
2148.43, 0.539804
2149.32, 0.539978
2150.21, 0.540326
2151.1, 0.539630
2151.99, 0.538933
2152.89, 0.538933
2153.78, 0.538759
2154.68, 0.538062
2155.57, 0.537539
2156.47, 0.537365
2157.37, 0.537191
2158.27, 0.537539
2159.16, 0.537539
2160.06, 0.537365
2160.96, 0.537365
2161.86, 0.537017
2162.77, 0.536494
2163.67, 0.535798
2164.57, 0.535275
2165.48, 0.535275
2166.38, 0.535623
2167.29, 0.535623
2168.2, 0.535449
2169.1, 0.535101
2170.01, 0.534927
2170.92, 0.534404
2171.83, 0.533881
2172.74, 0.533881
2173.65, 0.533881
2174.56, 0.534056
2175.47, 0.534230
2176.39, 0.534578
2177.3, 0.534927
2178.22, 0.534578
2179.13, 0.534056
2180.05, 0.534752
2180.96, 0.535275
2181.88, 0.535747
2182.8, 0.536377
2183.72, 0.536534
2184.64, 0.537322
2185.56, 0.537794
2186.48, 0.537636
2187.41, 0.538109
2188.33, 0.537951
2189.25, 0.537794
2190.18, 0.536849
2191.1, 0.536377
2192.03, 0.536692
2192.96, 0.536062
2193.89, 0.535275
2194.82, 0.535590
2195.74, 0.535275
2196.68, 0.535118
2197.61, 0.535118
2198.54, 0.534645
2199.47, 0.535432
2200.4, 0.535590
2201.34, 0.534173
2202.28, 0.534803
2203.21, 0.535905
2204.15, 0.535905
2205.08, 0.535275
2206.02, 0.534645
2206.96, 0.534488
2207.9, 0.535118
2208.84, 0.535275
2209.78, 0.534488
2210.73, 0.534803
2211.67, 0.536534
2212.61, 0.537007
2213.56, 0.536534
2214.5, 0.537007
2215.45, 0.538581
2216.4, 0.539053
2217.35, 0.538896
2218.3, 0.539368
2219.24, 0.539998
2220.2, 0.539998
2221.15, 0.539211
2222.1, 0.539211
2223.05, 0.539841
2224.0, 0.540628
2224.96, 0.541257
2225.91, 0.540313
2226.87, 0.539841
2227.83, 0.540313
2228.79, 0.541257
2229.74, 0.541100
2230.7, 0.541415
2231.66, 0.542202
2232.63, 0.541887
2233.59, 0.541415
2234.55, 0.542989
2235.51, 0.544721
2236.48, 0.545508
2237.44, 0.545666
2238.41, 0.545036
2239.38, 0.546138
2240.34, 0.547712
2241.31, 0.547240
2242.28, 0.545980
2243.25, 0.546453
2244.22, 0.548027
2245.19, 0.548185
2246.17, 0.548185
2247.14, 0.548657
2248.12, 0.548499
2249.09, 0.548657
2250.07, 0.549444
2251.04, 0.549444
2252.02, 0.549759
2253.0, 0.550861
2253.98, 0.551018
2254.96, 0.551018
2255.94, 0.552120
2256.92, 0.552750
2257.91, 0.552750
2258.89, 0.553222
2259.88, 0.553852
2260.86, 0.553222
2261.85, 0.552908
2262.83, 0.554009
2263.82, 0.553537
2264.81, 0.552908
2265.8, 0.553537
2266.79, 0.554324
2267.78, 0.554954
2268.78, 0.555741
2269.77, 0.554639
2270.76, 0.554797
2271.76, 0.556686
2272.75, 0.557001
2273.75, 0.556529
2274.75, 0.556214
2275.75, 0.556371
2276.75, 0.557631
2277.75, 0.558103
2278.75, 0.557473
2279.75, 0.557158
2280.75, 0.557316
2281.76, 0.557473
2282.76, 0.557473
2283.77, 0.557788
2284.77, 0.558260
2285.78, 0.557788
2286.79, 0.557316
2287.8, 0.557473
2288.81, 0.557788
2289.82, 0.558260
2290.83, 0.558733
2291.84, 0.558103
2292.86, 0.558103
2293.87, 0.558260
2294.89, 0.558260
2295.91, 0.557158
2296.92, 0.556214
2297.94, 0.556686
2298.96, 0.557631
2299.98, 0.557788
2301.0, 0.557316
2302.02, 0.557001
2303.04, 0.557788
2304.07, 0.557631
2305.09, 0.557001
2306.12, 0.556371
2307.15, 0.556371
2308.17, 0.556214
2309.2, 0.556371
2310.23, 0.556371
2311.26, 0.555584
2312.29, 0.555426
2313.32, 0.555112
2314.35, 0.554797
2315.39, 0.555584
2316.42, 0.555899
2317.46, 0.555269
2318.5, 0.555112
2319.53, 0.555112
2320.57, 0.555269
2321.61, 0.554482
2322.65, 0.553380
2323.69, 0.552750
2324.73, 0.552593
2325.78, 0.552908
2326.82, 0.551963
2327.86, 0.551491
2328.91, 0.551648
2329.96, 0.551018
2331.01, 0.551018
2332.05, 0.550389
2333.1, 0.550389
2334.15, 0.549916
2335.21, 0.549129
2336.26, 0.548657
2337.31, 0.547870
2338.36, 0.546138
2339.42, 0.544878
2340.48, 0.545193
2341.53, 0.545193
2342.59, 0.544406
2343.65, 0.543934
2344.71, 0.544406
2345.77, 0.544564
2346.83, 0.544878
2347.9, 0.543934
2348.96, 0.542989
2350.02, 0.542674
2351.09, 0.542045
2352.16, 0.541572
2353.23, 0.540628
2354.29, 0.540155
2355.36, 0.539841
2356.43, 0.539368
2357.51, 0.538266
2358.58, 0.537164
2359.65, 0.536849
2360.73, 0.536849
2361.8, 0.536377
2362.88, 0.536219
2363.96, 0.534960
2365.03, 0.533858
2366.11, 0.533858
2367.19, 0.533858
2368.27, 0.533386
2369.36, 0.532284
2370.44, 0.531182
2371.53, 0.531024
2372.61, 0.531024
2373.7, 0.531024
2374.78, 0.531339
2375.87, 0.530709
2376.96, 0.530080
2378.05, 0.530394
2379.14, 0.529765
2380.24, 0.528663
2381.33, 0.528033
2382.42, 0.528033
2383.52, 0.528505
2384.61, 0.528978
2385.71, 0.528505
2386.81, 0.527718
2387.91, 0.527561
2389.01, 0.527718
2390.11, 0.527246
2391.22, 0.527246
2392.32, 0.527246
2393.42, 0.526616
2394.53, 0.526459
2395.64, 0.527088
2396.74, 0.526931
2397.85, 0.526144
2398.96, 0.525042
2400.07, 0.524884
2401.18, 0.525357
2402.3, 0.525199
2403.41, 0.523782
2404.52, 0.522838
2405.64, 0.522995
2406.76, 0.522050
2407.88, 0.520791
2408.99, 0.520004
2410.11, 0.520319
2411.23, 0.520319
2412.36, 0.520319
2413.48, 0.520004
2414.6, 0.519217
2415.73, 0.518744
2416.85, 0.517800
2417.98, 0.516698
2419.11, 0.516068
2420.24, 0.516540
2421.37, 0.516540
2422.5, 0.515596
2423.64, 0.515438
2424.77, 0.515123
2425.9, 0.514809
2427.04, 0.514021
2428.18, 0.513549
2429.31, 0.513707
2430.45, 0.514021
2431.59, 0.513392
2432.73, 0.512604
2433.88, 0.513077
2435.02, 0.512919
2436.16, 0.512919
2437.31, 0.512132
2438.45, 0.511188
2439.6, 0.511030
2440.75, 0.511817
2441.9, 0.512132
2443.05, 0.512604
2444.2, 0.511975
2445.35, 0.511345
2446.51, 0.511345
2447.67, 0.511030
2448.82, 0.510400
2449.98, 0.510715
2451.14, 0.510715
2452.3, 0.510400
2453.46, 0.509456
2454.62, 0.508983
2455.78, 0.509298
2456.94, 0.509298
2458.11, 0.508511
2459.28, 0.508039
2460.44, 0.507409
2461.61, 0.506779
2462.78, 0.506779
2463.95, 0.506465
2465.12, 0.505677
2466.3, 0.505048
2467.47, 0.505048
2468.65, 0.504890
2469.82, 0.505048
2471.0, 0.504890
2472.18, 0.504103
2473.36, 0.504103
2474.54, 0.503631
2475.72, 0.502844
2476.9, 0.502844
2478.08, 0.502686
2479.27, 0.502371
2480.46, 0.501899
2481.64, 0.501584
2482.83, 0.501899
2484.02, 0.502686
2485.21, 0.503788
2486.4, 0.504575
2487.6, 0.503946
2488.79, 0.503788
2489.99, 0.503946
2491.18, 0.504260
2492.38, 0.504733
2493.58, 0.505048
2494.78, 0.503788
2495.98, 0.503158
2497.18, 0.503158
2498.39, 0.503001
2499.59, 0.502056
2500.8, 0.502056
2502.01, 0.502686
2503.21, 0.502529
2504.42, 0.502529
2505.63, 0.502214
2506.84, 0.501269
2508.06, 0.501427
2509.27, 0.502056
2510.49, 0.501899
2511.7, 0.501584
2512.92, 0.500797
2514.14, 0.500797
2515.36, 0.500325
2516.58, 0.500325
2517.8, 0.500167
2519.03, 0.500639
2520.25, 0.500797
2521.48, 0.500797
2522.7, 0.500482
2523.93, 0.500325
2525.16, 0.499852
2526.39, 0.499537
2527.62, 0.499380
2528.86, 0.499852
2530.09, 0.499537
2531.33, 0.498278
2532.56, 0.497963
2533.8, 0.499065
2535.04, 0.498593
2536.28, 0.496704
2537.52, 0.497019
2538.76, 0.498121
2540.01, 0.497176
2541.25, 0.495917
2542.5, 0.494342
2543.75, 0.493870
2544.99, 0.494657
2546.24, 0.494972
2547.49, 0.494027
2548.75, 0.494342
2550.0, 0.494972
2551.26, 0.494185
2552.51, 0.493398
2553.77, 0.494500
2555.03, 0.496861
2556.29, 0.497491
2557.55, 0.497333
2558.81, 0.496861
2560.08, 0.494814
2561.34, 0.491036
2562.61, 0.489462
2563.88, 0.489619
2565.14, 0.491194
2566.41, 0.494814
2567.68, 0.496389
2568.96, 0.493712
2570.23, 0.491823
2571.51, 0.493712
2572.78, 0.491194
2574.06, 0.488989
2575.34, 0.492295
2576.62, 0.492453
2577.9, 0.492768
2579.18, 0.494657
2580.47, 0.493555
2581.75, 0.492295
2583.04, 0.489619
2584.32, 0.486313
2585.61, 0.489304
2586.9, 0.489619
2588.2, 0.489304
2589.49, 0.491666
2590.78, 0.493240
2592.08, 0.493083
2593.37, 0.485841
2594.67, 0.472144
2595.97, 0.473089
2597.27, 0.485683
2598.57, 0.492453
2599.88, 0.492453
2601.18, 0.489934
2602.49, 0.488045
2603.79, 0.485998
2605.1, 0.481590
2606.41, 0.480645
2607.72, 0.484896
2609.03, 0.487258
2610.35, 0.488202
2611.66, 0.489147
2612.98, 0.488832
2614.3, 0.489147
2615.62, 0.486470
2616.94, 0.480173
2618.26, 0.481590
2619.58, 0.481905
2620.91, 0.478756
2622.23, 0.483479
2623.56, 0.488202
2624.89, 0.487258
2626.22, 0.481590
2627.55, 0.480016
2628.88, 0.481118
2630.21, 0.475450
2631.55, 0.474978
2632.89, 0.479071
2634.22, 0.480331
2635.56, 0.482535
2636.9, 0.483164
2638.25, 0.482849
2639.59, 0.482377
2640.93, 0.480488
2642.28, 0.478599
2643.63, 0.477969
2644.98, 0.475293
2646.33, 0.473718
2647.68, 0.475922
2649.03, 0.476710
2650.39, 0.474663
2651.74, 0.471042
2653.1, 0.468995
2654.46, 0.469468
2655.82, 0.468838
2657.18, 0.469153
2658.54, 0.467736
2659.9, 0.464745
2661.27, 0.463328
2662.64, 0.463485
2664.01, 0.459549
2665.38, 0.451205
2666.74, 0.448214
2668.12, 0.451205
2669.49, 0.449316
2670.87, 0.442861
2672.24, 0.450103
2673.62, 0.456558
2675.0, 0.453882
2676.38, 0.446482
2677.76, 0.444278
2679.15, 0.445380
2680.54, 0.448529
2681.92, 0.450418
2683.31, 0.447584
2684.7, 0.445853
2686.09, 0.444278
2687.48, 0.442704
2688.88, 0.441602
2690.27, 0.440500
2691.67, 0.437981
2693.07, 0.430739
2694.47, 0.424442
2695.87, 0.423969
2697.27, 0.425071
2698.67, 0.423812
2700.08, 0.419404
2701.49, 0.413736
2702.9, 0.410587
2704.31, 0.408698
2705.72, 0.406179
2707.13, 0.403660
2708.54, 0.398937
2709.96, 0.392797
2711.38, 0.388547
2712.8, 0.390908
2714.22, 0.392010
2715.64, 0.389491
2717.06, 0.384768
2718.49, 0.378786
2719.91, 0.368710
2721.34, 0.362413
2722.77, 0.363357
2724.2, 0.358162
2725.63, 0.354226
2727.07, 0.354698
2728.5, 0.353124
2729.94, 0.348873
2731.38, 0.343993
2732.82, 0.338798
2734.26, 0.331556
2735.7, 0.325101
2737.15, 0.321637
2738.59, 0.314710
2740.04, 0.305579
2741.49, 0.301013
2742.94, 0.301171
2744.39, 0.299911
2745.84, 0.295976
2747.3, 0.291882
2748.76, 0.287317
2750.21, 0.282279
2751.67, 0.276769
2753.14, 0.271416
2754.6, 0.263702
2756.06, 0.257247
2757.53, 0.256617
2759.0, 0.255515
2760.46, 0.252524
2761.94, 0.247486
2763.41, 0.242920
2764.88, 0.240244
2766.36, 0.237882
2767.83, 0.235049
2769.31, 0.231900
2770.79, 0.227964
2772.27, 0.225445
2773.76, 0.223713
2775.24, 0.220722
2776.73, 0.218046
2778.22, 0.215212
2779.71, 0.212221
2781.2, 0.209544
2782.69, 0.207025
2784.18, 0.204821
2785.68, 0.201200
2787.18, 0.197422
2788.68, 0.195533
2790.18, 0.194431
2791.68, 0.192856
2793.19, 0.190810
2794.69, 0.188291
2796.2, 0.186559
2797.71, 0.184670
2799.22, 0.182466
2800.73, 0.179789
2802.24, 0.177113
2803.76, 0.174909
2805.28, 0.173649
2806.8, 0.172862
2808.32, 0.171288
2809.84, 0.169084
2811.36, 0.166722
2812.89, 0.163416
2814.42, 0.160110
2815.94, 0.157276
2817.48, 0.154600
2819.01, 0.151609
2820.54, 0.148145
2822.08, 0.145941
2823.61, 0.144052
2825.15, 0.141376
2826.69, 0.139014
2828.23, 0.136495
2829.78, 0.133346
2831.32, 0.129568
2832.87, 0.125790
2834.42, 0.121381
2835.97, 0.115556
2837.52, 0.110046
2839.08, 0.104064
2840.63, 0.0972940
2842.19, 0.0895800
2843.75, 0.0823380
2845.31, 0.0747810
2846.87, 0.0665950
2848.44, 0.0590380
2850.0, 0.0527400
2851.57, 0.0494340
2853.14, 0.0494340
2854.71, 0.0514810
2856.28, 0.0554170
2857.86, 0.0615570
2859.43, 0.0681690
2861.01, 0.0743090
2862.59, 0.0801340
2864.17, 0.0853290
2865.76, 0.0897370
2867.34, 0.0944600
2868.93, 0.0990260
2870.52, 0.103119
2872.11, 0.107212
2873.7, 0.111306
2875.29, 0.114927
2876.89, 0.117760
2878.49, 0.120279
2880.08, 0.122483
2881.69, 0.124215
2883.29, 0.125632
2884.89, 0.127049
2886.5, 0.128151
2888.11, 0.129096
2889.72, 0.129725
2891.33, 0.130198
2892.94, 0.130040
2894.56, 0.130198
2896.17, 0.130827
2897.79, 0.131457
2899.42, 0.131930
2901.04, 0.131772
2902.66, 0.131457
2904.29, 0.131615
2905.92, 0.131300
2907.55, 0.131142
2909.18, 0.130985
2910.81, 0.130670
2912.45, 0.130670
2914.08, 0.130827
2915.72, 0.130513
2917.36, 0.130040
2919.01, 0.130040
2920.65, 0.129725
2922.3, 0.129725
2923.94, 0.129568
2925.59, 0.128938
2927.25, 0.129096
2928.9, 0.129883
2930.56, 0.130040
2932.21, 0.130198
2933.87, 0.130985
2935.53, 0.131930
2937.2, 0.132402
2938.86, 0.133032
2940.53, 0.133976
2942.2, 0.134921
2943.87, 0.135865
2945.54, 0.136495
2947.22, 0.137125
2948.89, 0.138069
2950.57, 0.139329
2952.25, 0.139959
2953.93, 0.140431
2955.62, 0.141533
2957.3, 0.142005
2958.99, 0.142320
2960.68, 0.142950
2962.37, 0.143894
2964.07, 0.144682
2965.76, 0.145469
2967.46, 0.146886
2969.16, 0.148145
2970.86, 0.148775
2972.56, 0.149405
2974.27, 0.150664
2975.98, 0.151609
2977.69, 0.152396
2979.4, 0.153813
2981.11, 0.155230
2982.83, 0.155545
2984.54, 0.156174
2986.26, 0.157749
2987.98, 0.159166
2989.71, 0.159795
2991.43, 0.161055
2993.16, 0.161999
2994.89, 0.162472
2996.62, 0.162944
2998.35, 0.164046
3000.09, 0.165463
3001.83, 0.166408
3003.57, 0.167352
3005.31, 0.168139
3007.05, 0.168926
3008.79, 0.170029
3010.54, 0.170973
3012.29, 0.171603
3014.04, 0.172862
3015.8, 0.174279
3017.55, 0.174752
3019.31, 0.175539
3021.07, 0.176326
3022.83, 0.177428
3024.59, 0.178845
3026.36, 0.179632
3028.13, 0.180262
3029.9, 0.180891
3031.67, 0.181364
3033.44, 0.181836
3035.22, 0.182938
3037.0, 0.183568
3038.78, 0.183725
3040.56, 0.183883
3042.34, 0.184512
3044.13, 0.184985
3045.92, 0.185614
3047.71, 0.186559
3049.5, 0.187346
3051.3, 0.187661
3053.09, 0.188291
3054.89, 0.189078
3056.69, 0.190180
3058.5, 0.190967
3060.3, 0.191597
3062.11, 0.192069
3063.92, 0.192384
3065.73, 0.192856
3067.55, 0.193644
3069.36, 0.194431
3071.18, 0.195218
3073.0, 0.195690
3074.82, 0.196320
3076.65, 0.196792
3078.48, 0.197107
3080.31, 0.198052
3082.14, 0.198367
3083.97, 0.198524
3085.8, 0.199311
3087.64, 0.200256
3089.48, 0.200728
3091.33, 0.200413
3093.17, 0.200728
3095.02, 0.201358
3096.87, 0.201358
3098.72, 0.201200
3100.57, 0.201358
3102.43, 0.201673
3104.28, 0.201830
3106.14, 0.202145
3108.01, 0.202460
3109.87, 0.202460
3111.74, 0.202460
3113.61, 0.202775
3115.48, 0.203404
3117.35, 0.204192
3119.23, 0.205294
3121.1, 0.206868
3122.98, 0.208600
3124.87, 0.210332
3126.75, 0.211748
3128.64, 0.213165
3130.53, 0.214897
3132.42, 0.216471
3134.31, 0.218833
3136.21, 0.221194
3138.11, 0.222769
3140.01, 0.224028
3141.91, 0.225603
3143.82, 0.226705
3145.73, 0.227334
3147.64, 0.227649
3149.55, 0.228279
3151.46, 0.229696
3153.38, 0.230955
3155.3, 0.231743
3157.22, 0.232845
3159.14, 0.233947
3161.07, 0.235206
3163.0, 0.236151
3164.93, 0.236938
3166.86, 0.238040
3168.8, 0.238984
3170.74, 0.240244
3172.68, 0.241503
3174.62, 0.242606
3176.56, 0.243235
3178.51, 0.243550
3180.46, 0.243865
3182.42, 0.244810
3184.37, 0.245754
3186.33, 0.246226
3188.29, 0.246856
3190.25, 0.247643
3192.21, 0.247958
3194.18, 0.248745
3196.15, 0.249690
3198.12, 0.250005
3200.09, 0.250792
3202.07, 0.251422
3204.05, 0.251894
3206.03, 0.252524
3208.02, 0.252996
3210.0, 0.253468
3211.99, 0.253941
3213.98, 0.253941
3215.98, 0.253626
3217.97, 0.252839
3219.97, 0.251894
3221.97, 0.251422
3223.98, 0.250477
3225.98, 0.249375
3227.99, 0.248745
3230.0, 0.248588
3232.02, 0.248588
3234.03, 0.248588
3236.05, 0.248588
3238.07, 0.247801
3240.1, 0.246856
3242.12, 0.245282
3244.15, 0.243393
3246.18, 0.242920
3248.22, 0.244810
3250.25, 0.248903
3252.29, 0.253941
3254.33, 0.259136
3256.38, 0.263544
3258.43, 0.267008
3260.47, 0.269999
3262.53, 0.272990
3264.58, 0.275824
3266.64, 0.278028
3268.7, 0.279760
3270.76, 0.280862
3272.82, 0.282279
3274.89, 0.283538
3276.96, 0.285113
3279.04, 0.286687
3281.11, 0.287632
3283.19, 0.288576
3285.27, 0.289363
3287.35, 0.290308
3289.44, 0.291095
3291.53, 0.291725
3293.62, 0.292355
3295.71, 0.293457
3297.81, 0.294874
3299.91, 0.295818
3302.01, 0.296920
3304.11, 0.297865
3306.22, 0.298652
3308.33, 0.299754
3310.44, 0.301013
3312.56, 0.301958
3314.68, 0.302903
3316.8, 0.303847
3318.92, 0.304005
3321.05, 0.304320
3323.18, 0.305107
3325.31, 0.305736
3327.44, 0.306209
3329.58, 0.306524
3331.72, 0.306996
3333.86, 0.307311
3336.01, 0.307783
3338.16, 0.308413
3340.31, 0.308413
3342.46, 0.308728
3344.61, 0.309515
3346.77, 0.310145
3348.94, 0.310932
3351.1, 0.311561
3353.27, 0.312034
3355.44, 0.312821
3357.61, 0.313923
3359.79, 0.315182
3361.97, 0.315812
3364.15, 0.316127
3366.33, 0.317072
3368.52, 0.318016
3370.71, 0.318646
3372.9, 0.319276
3375.1, 0.320378
3377.3, 0.321008
3379.5, 0.321480
3381.71, 0.322424
3383.91, 0.323684
3386.12, 0.324629
3388.34, 0.325101
3390.55, 0.325888
3392.77, 0.326990
3394.99, 0.327777
3397.22, 0.328722
3399.45, 0.329352
3401.68, 0.329666
3403.91, 0.330296
3406.15, 0.330926
3408.39, 0.331556
3410.63, 0.332343
3412.87, 0.332658
3415.12, 0.333602
3417.37, 0.334389
3419.63, 0.335019
3421.88, 0.335964
3424.14, 0.337223
3426.41, 0.338010
3428.67, 0.338955
3430.94, 0.340529
3433.21, 0.341789
3435.49, 0.342891
3437.77, 0.343993
3440.05, 0.345095
3442.33, 0.346040
3444.62, 0.346984
3446.91, 0.347771
3449.2, 0.348401
3451.5, 0.349188
3453.8, 0.349975
3456.1, 0.350920
3458.41, 0.352022
3460.72, 0.352809
3463.03, 0.353281
3465.34, 0.353911
3467.66, 0.354698
3469.98, 0.355171
3472.31, 0.355328
3474.63, 0.355643
3476.96, 0.356273
3479.3, 0.356902
3481.64, 0.357690
3483.97, 0.358477
3486.32, 0.359264
3488.66, 0.360051
3491.01, 0.360681
3493.36, 0.361468
3495.72, 0.361783
3498.08, 0.362570
3500.44, 0.363357
3502.81, 0.364459
3505.18, 0.365246
3507.55, 0.366191
3509.92, 0.367451
3512.3, 0.368710
3514.68, 0.369812
3517.06, 0.370914
3519.45, 0.372174
3521.84, 0.373118
3524.24, 0.374063
3526.64, 0.375480
3529.04, 0.376897
3531.44, 0.377999
3533.85, 0.378786
3536.26, 0.380045
3538.67, 0.380990
3541.09, 0.382249
3543.51, 0.383666
3545.93, 0.384611
3548.36, 0.385083
3550.79, 0.385870
3553.22, 0.387130
3555.66, 0.388232
3558.1, 0.389176
3560.54, 0.389964
3562.99, 0.390593
3565.44, 0.391223
3567.9, 0.391853
3570.35, 0.392797
3572.81, 0.393742
3575.28, 0.394214
3577.75, 0.394687
3580.22, 0.395474
3582.69, 0.395946
3585.17, 0.396733
3587.65, 0.397520
3590.14, 0.398150
3592.62, 0.398937
3595.11, 0.399410
3597.61, 0.399724
3600.11, 0.400354
3602.61, 0.400826
3605.11, 0.401456
3607.62, 0.401929
3610.14, 0.402401
3612.65, 0.402716
3615.17, 0.403345
3617.69, 0.403660
3620.22, 0.403975
3622.75, 0.404447
3625.28, 0.404762
3627.82, 0.405077
3630.36, 0.405392
3632.9, 0.405707
3635.45, 0.405864
3638.0, 0.406022
3640.56, 0.406022
3643.12, 0.406179
3645.68, 0.406337
3648.24, 0.406179
3650.81, 0.406337
3653.39, 0.406809
3655.96, 0.406966
3658.54, 0.407281
3661.13, 0.407754
3663.71, 0.408068
3666.3, 0.408541
3668.9, 0.408541
3671.5, 0.408541
3674.1, 0.408698
3676.7, 0.409328
3679.31, 0.409958
3681.93, 0.410115
3684.54, 0.410115
3687.17, 0.410745
3689.79, 0.411375
3692.42, 0.412004
3695.05, 0.412634
3697.69, 0.413106
3700.32, 0.413421
3702.97, 0.414208
3705.61, 0.414838
3708.27, 0.414838
3710.92, 0.414838
3713.58, 0.415468
3716.24, 0.415940
3718.91, 0.415625
3721.58, 0.414996
3724.25, 0.415153
3726.93, 0.414996
3729.61, 0.414523
3732.29, 0.414366
3734.98, 0.414051
3737.67, 0.413579
3740.37, 0.412791
3743.07, 0.411847
3745.78, 0.411217
3748.49, 0.410587
3751.2, 0.409800
3753.91, 0.409328
3756.63, 0.408698
3759.36, 0.408068
3762.09, 0.407439
3764.82, 0.406652
3767.55, 0.406337
3770.29, 0.406022
3773.04, 0.405392
3775.78, 0.405077
3778.54, 0.404762
3781.29, 0.404605
3784.05, 0.404290
3786.82, 0.404133
3789.59, 0.403818
3792.36, 0.402873
3795.13, 0.402243
3797.92, 0.400984
3800.7, 0.399567
3803.49, 0.398780
3806.28, 0.398780
3809.08, 0.399410
3811.88, 0.400512
3814.68, 0.401456
3817.49, 0.402558
3820.31, 0.402873
3823.12, 0.402558
3825.94, 0.401456
3828.77, 0.400197
3831.6, 0.398780
3834.43, 0.397520
3837.27, 0.396418
3840.11, 0.396103
3842.96, 0.396103
3845.81, 0.395789
3848.67, 0.394844
3851.53, 0.394057
3854.39, 0.394372
3857.26, 0.395789
3860.13, 0.397835
3863.01, 0.400039
3865.89, 0.401929
3868.77, 0.403031
3871.66, 0.403503
3874.55, 0.404290
3877.45, 0.404920
3880.35, 0.405235
3883.26, 0.405235
3886.17, 0.405077
3889.09, 0.405235
3892.01, 0.405235
3894.93, 0.405235
3897.86, 0.405549
3900.79, 0.405392
3903.73, 0.405392
3906.67, 0.405392
3909.62, 0.405864
3912.57, 0.405864
3915.52, 0.405549
3918.48, 0.405077
3921.45, 0.404605
3924.42, 0.404133
3927.39, 0.403818
3930.37, 0.403818
3933.35, 0.404133
3936.34, 0.404290
3939.33, 0.404762
3942.32, 0.404762
3945.32, 0.404605
3948.33, 0.403975
3951.34, 0.403503
3954.35, 0.403188
3957.37, 0.402401
3960.39, 0.401771
3963.42, 0.400984
3966.45, 0.399882
3969.49, 0.398937
3972.53, 0.398308
3975.58, 0.397363
3978.63, 0.396576
3981.68, 0.396103
3984.75, 0.395316
3987.81, 0.394687
3990.88, 0.394214
3993.95, 0.393584
3997.03, 0.393427
4000.12, 0.393112
4003.21, 0.392955
4006.3, 0.392640
4009.4, 0.392168
4012.5, 0.391538
4015.61, 0.390436
4018.72, 0.389491
4021.84, 0.388232
4024.96, 0.386657
4028.09, 0.385398
4031.22, 0.384768
4034.36, 0.384296
4037.5, 0.383351
4040.65, 0.382249
4043.8, 0.380990
4046.96, 0.379573
4050.12, 0.378628
4053.29, 0.377841
4056.46, 0.377211
4059.64, 0.376582
4062.82, 0.375480
4066.0, 0.374220
4069.19, 0.372961
4072.39, 0.371859
4075.59, 0.371071
4078.8, 0.369969
4082.01, 0.368710
4085.23, 0.367608
4088.45, 0.366506
4091.68, 0.365404
4094.91, 0.364302
4098.15, 0.362885
4101.39, 0.361783
4104.63, 0.360366
4107.89, 0.358792
4111.14, 0.357690
4114.41, 0.356588
4117.67, 0.355013
4120.95, 0.353439
4124.23, 0.352022
4127.51, 0.350605
4130.8, 0.349031
4134.09, 0.347456
4137.39, 0.345725
4140.7, 0.343993
4144.01, 0.342261
4147.32, 0.340372
4150.64, 0.338798
4153.97, 0.336908
4157.3, 0.334704
4160.64, 0.332500
4163.98, 0.330768
4167.33, 0.328249
4170.68, 0.325888
4174.04, 0.323684
4177.4, 0.321637
4180.77, 0.319591
4184.14, 0.317072
4187.52, 0.314710
4190.91, 0.312506
4194.3, 0.310145
4197.69, 0.307468
4201.1, 0.304949
4204.5, 0.302115
4207.92, 0.299282
4211.34, 0.296133
4214.76, 0.292984
4218.19, 0.289363
4221.62, 0.285113
4225.06, 0.280390
4228.51, 0.275667
4231.96, 0.270629
4235.42, 0.265119
4238.88, 0.258506
4242.35, 0.250792
4245.83, 0.241503
4249.31, 0.229381
4252.79, 0.213953
4256.28, 0.196005
4259.78, 0.176641
4263.29, 0.157749
4266.79, 0.142005
4270.31, 0.132559
4273.83, 0.130670
4277.35, 0.133661
4280.89, 0.135865
4284.42, 0.133661
4287.97, 0.127049
4291.52, 0.117918
4295.07, 0.107055
4298.63, 0.0963490
4302.2, 0.0873760
4305.78, 0.0801340
4309.35, 0.0743090
4312.94, 0.0702150
4316.53, 0.0667520
4320.13, 0.0631310
4323.73, 0.0596670
4327.34, 0.0565190
4330.96, 0.0533700
4334.58, 0.0500640
4338.21, 0.0466000
4341.84, 0.0432940
4345.48, 0.0404600
4349.12, 0.0384140
4352.77, 0.0371540
4356.43, 0.0369970
4360.1, 0.0369970
4363.76, 0.0371540
4367.44, 0.0376270
4371.12, 0.0384140
4374.81, 0.0398310
4378.51, 0.0409330
4382.21, 0.0412480
4385.92, 0.0415630
4389.63, 0.0414050
4393.35, 0.0407750
4397.08, 0.0398310
4400.81, 0.0390440
4404.55, 0.0382560
4408.29, 0.0376270
4412.04, 0.0366820
4415.8, 0.0355800
4419.57, 0.0347930
4423.34, 0.0340060
4427.12, 0.0332190
4430.9, 0.0324310
4434.69, 0.0316440
4438.49, 0.0305420
4442.29, 0.0297550
4446.1, 0.0295980
4449.92, 0.0297550
4453.74, 0.0300700
4457.57, 0.0305420
4461.41, 0.0308570
4465.25, 0.0311720
4469.1, 0.0310140
4472.95, 0.0307000
4476.82, 0.0308570
4480.69, 0.0311720
4484.56, 0.0313290
4488.44, 0.0311720
4492.33, 0.0313290
4496.23, 0.0321160
4500.13, 0.0332190
4504.04, 0.0352650
4507.96, 0.0380990
4511.88, 0.0412480
4515.81, 0.0459710
4519.75, 0.0528980
4523.69, 0.0620290
4527.65, 0.0722620
4531.6, 0.0826530
4535.57, 0.0917840
4539.54, 0.0977660
4543.52, 0.0988680
4547.5, 0.0935160
4551.5, 0.0815510
4555.5, 0.0659650
4559.5, 0.0514810
4563.52, 0.0407750
4567.54, 0.0346350
4571.56, 0.0316440
4575.6, 0.0303850
4579.64, 0.0294400
4583.69, 0.0289680
4587.75, 0.0291250
4591.81, 0.0291250
4595.88, 0.0297550
4599.96, 0.0308570
4604.04, 0.0322740
4608.14, 0.0341630
4612.24, 0.0366820
4616.34, 0.0390440
4620.46, 0.0406180
4624.58, 0.0406180
4628.71, 0.0395160
4632.84, 0.0379420
4636.99, 0.0360520
4641.14, 0.0346350
4645.3, 0.0333760
4649.47, 0.0324310
4653.64, 0.0316440
4657.82, 0.0313290
4662.01, 0.0305420
4666.21, 0.0299120
4670.41, 0.0297550
4674.62, 0.0299120
4678.84, 0.0300700
4683.07, 0.0299120
4687.3, 0.0297550
4691.54, 0.0291250
4695.79, 0.0283380
4700.05, 0.0273930
4704.31, 0.0264490
4708.59, 0.0255040
4712.87, 0.0244020
4717.15, 0.0236150
4721.45, 0.0228280
4725.76, 0.0220410
4730.07, 0.0214110
4734.39, 0.0209390
4738.72, 0.0210960
4743.05, 0.0210960
4747.39, 0.0206240
4751.75, 0.0207810
4756.1, 0.0210960
4760.47, 0.0209390
4764.85, 0.0209390
4769.23, 0.0207810
4773.62, 0.0206240
4778.02, 0.0207810
4782.43, 0.0215680
4786.85, 0.0229850
4791.27, 0.0250320
4795.7, 0.0284960
4800.14, 0.0338480
4804.59, 0.0417200
4809.05, 0.0516380
4813.51, 0.0634460
4817.99, 0.0769850
4822.47, 0.0920990
4826.96, 0.107527
4831.46, 0.121696
4835.96, 0.133504
4840.48, 0.143265
4845.0, 0.155230
4849.54, 0.170029
4854.08, 0.184670
4858.63, 0.197894
4863.18, 0.209230
4867.75, 0.219148
4872.33, 0.228436
4876.91, 0.237568
4881.5, 0.246069
4886.1, 0.253468
4890.71, 0.260238
4895.33, 0.266693
4899.96, 0.272675
4904.59, 0.278343
4909.24, 0.283538
4913.89, 0.288419
4918.55, 0.293299
4923.22, 0.297550
4927.9, 0.301486
4932.59, 0.305264
4937.29, 0.308728
4942.0, 0.312034
4946.71, 0.315025
4951.44, 0.317701
4956.17, 0.320063
4960.91, 0.322424
4965.67, 0.324786
4970.43, 0.326833
4975.2, 0.328722
4979.98, 0.330454
4984.76, 0.332658
4989.56, 0.334704
4994.37, 0.336121
4999.18, 0.337853
5004.01, 0.339742
5008.84, 0.341474
5013.69, 0.343206
5018.54, 0.344465
5023.4, 0.346040
5028.28, 0.347456
5033.16, 0.348873
5038.05, 0.350133
5042.95, 0.351235
5047.86, 0.352494
5052.78, 0.353596
5057.71, 0.354541
5062.65, 0.355486
5067.6, 0.356588
5072.56, 0.357217
5077.53, 0.357690
5082.5, 0.358319
5087.49, 0.359421
5092.49, 0.361311
5097.5, 0.362570
5102.51, 0.363515
5107.54, 0.364302
5112.58, 0.365246
5117.62, 0.365719
5122.68, 0.365404
5127.75, 0.364617
5132.82, 0.365089
5137.91, 0.366821
5143.01, 0.368395
5148.12, 0.369182
5153.23, 0.370914
5158.36, 0.372174
5163.5, 0.372961
5168.65, 0.373590
5173.81, 0.374063
5178.98, 0.374220
5184.15, 0.374535
5189.34, 0.374692
5194.54, 0.374535
5199.75, 0.373748
5204.98, 0.373433
5210.21, 0.372488
5215.45, 0.371701
5220.7, 0.372488
5225.96, 0.372646
5231.23, 0.371859
5236.52, 0.370599
5241.81, 0.369969
5247.12, 0.369497
5252.44, 0.368553
5257.76, 0.367923
5263.1, 0.367451
5268.45, 0.366978
5273.81, 0.366348
5279.18, 0.366191
5284.56, 0.366506
5289.95, 0.366191
5295.36, 0.366663
5300.77, 0.367923
5306.2, 0.367923
5311.63, 0.368238
5317.08, 0.368395
5322.54, 0.368238
5328.01, 0.367765
5333.49, 0.367293
5338.98, 0.366978
5344.49, 0.365089
5350.0, 0.362255
5355.53, 0.362413
5361.07, 0.363672
5366.62, 0.363672
5372.18, 0.362727
5377.75, 0.361625
5383.34, 0.360523
5388.93, 0.359264
5394.54, 0.356902
5400.16, 0.353596
5405.79, 0.349188
5411.44, 0.344150
5417.09, 0.337853
5422.76, 0.331713
5428.43, 0.330926
5434.12, 0.330454
5439.83, 0.327777
5445.54, 0.324471
5451.26, 0.320220
5457.0, 0.313923
5462.75, 0.304477
5468.52, 0.296920
5474.29, 0.291567
5480.08, 0.286057
5485.88, 0.283223
5491.69, 0.281492
5497.51, 0.280390
5503.35, 0.279602
5509.2, 0.279602
5515.06, 0.279602
5520.93, 0.279130
5526.82, 0.279130
5532.71, 0.279760
5538.63, 0.280075
5544.55, 0.279288
5550.49, 0.277713
5556.44, 0.276926
5562.4, 0.277398
5568.37, 0.277556
5574.36, 0.275194
5580.36, 0.272833
5586.37, 0.274092
5592.4, 0.274722
5598.44, 0.272518
5604.49, 0.269842
5610.56, 0.267637
5616.63, 0.263859
5622.73, 0.259923
5628.83, 0.254728
5634.95, 0.247643
5641.08, 0.238670
5647.23, 0.234104
5653.39, 0.231113
5659.56, 0.227492
5665.74, 0.224973
5671.94, 0.220250
5678.15, 0.215842
5684.38, 0.212536
5690.62, 0.207025
5696.87, 0.200728
5703.14, 0.193171
5709.42, 0.184827
5715.72, 0.182151
5722.03, 0.184040
5728.35, 0.187346
5734.69, 0.190023
5741.03, 0.191440
5747.4, 0.191912
5753.78, 0.194431
5760.17, 0.194746
5766.58, 0.192384
5773.0, 0.196477
5779.44, 0.201673
5785.88, 0.205766
5792.35, 0.210489
5798.83, 0.216314
5805.32, 0.224186
5811.83, 0.231585
5818.35, 0.234734
5824.89, 0.238984
5831.45, 0.246226
5838.01, 0.250949
5844.59, 0.251894
5851.19, 0.249375
5857.8, 0.243235
5864.43, 0.235364
5871.07, 0.229696
5877.73, 0.217888
5884.4, 0.204821
5891.09, 0.194431
5897.79, 0.178058
5904.5, 0.167824
5911.23, 0.160425
5917.98, 0.154285
5924.75, 0.149405
5931.53, 0.142635
5938.32, 0.136810
5945.13, 0.139329
5951.96, 0.143422
5958.8, 0.148618
5965.65, 0.152553
5972.53, 0.158221
5979.42, 0.164833
5986.32, 0.167352
5993.24, 0.168769
6000.18, 0.170658
6007.13, 0.169241
6014.1, 0.165778
6021.08, 0.163731
6028.09, 0.161527
6035.1, 0.157276
6042.14, 0.148775
6049.19, 0.137282
6056.25, 0.132874
6063.34, 0.126892
6070.44, 0.113510
6077.55, 0.0990260
6084.69, 0.0864310
6091.84, 0.0766700
6099.0, 0.0719470
6106.19, 0.0721050
6113.39, 0.0760410
6120.61, 0.0842270
6127.84, 0.0916260
6135.09, 0.0947750
6142.36, 0.0928860
6149.65, 0.0861160
6156.95, 0.0754110
6164.27, 0.0647050
6171.61, 0.0574630
6178.97, 0.0522680
6186.34, 0.0484900
6193.73, 0.0470730
6201.14, 0.0459710
6208.57, 0.0440810
6216.01, 0.0425070
6223.47, 0.0420350
6230.95, 0.0434520
6238.45, 0.0472300
6245.97, 0.0524250
6253.5, 0.0571480
6261.06, 0.0604550
6268.63, 0.0618710
6276.21, 0.0623440
6283.82, 0.0623440
6291.45, 0.0617140
6299.1, 0.0612420
6306.76, 0.0615570
6314.44, 0.0623440
6322.14, 0.0634460
6329.86, 0.0645480
6337.6, 0.0648630
6345.35, 0.0650200
6353.13, 0.0672240
6360.92, 0.0692710
6368.74, 0.0703730
6376.57, 0.0722620
6384.43, 0.0739940
6392.3, 0.0746240
6400.19, 0.0746240
6408.1, 0.0725770
6416.03, 0.0719470
6423.98, 0.0768280
6431.95, 0.0842270
6439.94, 0.0947750
6447.95, 0.107370
6455.98, 0.121224
6464.03, 0.134763
6472.1, 0.146571
6480.19, 0.156332
6488.31, 0.163259
6496.44, 0.170658
6504.59, 0.181836
6512.76, 0.189235
6520.95, 0.191754
6529.16, 0.196320
6537.4, 0.199469
6545.65, 0.199784
6553.92, 0.199311
6562.22, 0.198524
6570.54, 0.194903
6578.88, 0.194746
6587.23, 0.195690
6595.61, 0.194746
6604.02, 0.194746
6612.44, 0.193171
6620.89, 0.190810
6629.35, 0.185457
6637.84, 0.179632
6646.35, 0.181049
6654.88, 0.183253
6663.44, 0.180734
6672.01, 0.176483
6680.61, 0.172390
6689.23, 0.171131
6697.88, 0.170186
6706.54, 0.166250
6715.23, 0.162944
6723.94, 0.161370
6732.67, 0.159323
6741.42, 0.156332
6750.2, 0.151924
6759.0, 0.146886
6767.82, 0.143107
6776.67, 0.142163
6785.54, 0.140903
6794.44, 0.140274
6803.35, 0.141533
6812.29, 0.141061
6821.26, 0.138384
6830.24, 0.136653
6839.25, 0.136653
6848.29, 0.134448
6857.35, 0.129568
6866.43, 0.126262
6875.54, 0.127207
6884.67, 0.126104
6893.82, 0.123743
6903.0, 0.121224
6912.2, 0.119492
6921.43, 0.118075
6930.69, 0.114927
6939.96, 0.110833
6949.27, 0.106898
6958.59, 0.100443
6967.95, 0.0930430
6977.33, 0.0938310
6986.73, 0.0988680
6996.16, 0.100285
7005.61, 0.0988680
7015.09, 0.0957200
7024.6, 0.0920990
7034.13, 0.0903670
7043.69, 0.0917840
7053.27, 0.0950900
7062.88, 0.0972940
7072.52, 0.0972940
7082.18, 0.0957200
7091.87, 0.0936730
7101.58, 0.0911540
7111.32, 0.0873760
7121.09, 0.0845420
7130.88, 0.0831250
7140.71, 0.0820230
7150.56, 0.0802910
7160.43, 0.0787170
7170.33, 0.0771430
7180.27, 0.0760410
7190.23, 0.0752530
7200.21, 0.0739940
7210.23, 0.0727340
7220.27, 0.0713180
7230.34, 0.0694280
7240.44, 0.0675390
7250.56, 0.0653350
7260.72, 0.0628160
7270.9, 0.0596670
7281.12, 0.0565190
7291.36, 0.0530550
7301.63, 0.0494340
7311.93, 0.0458130
7322.25, 0.0423500
7332.61, 0.0387290
7343.0, 0.0352650
7353.41, 0.0321160
7363.86, 0.0292830
7374.33, 0.0272360
7384.83, 0.0258190
7395.37, 0.0245600
7405.93, 0.0237730
7416.53, 0.0236150
7427.15, 0.0237730
7437.81, 0.0237730
7448.5, 0.0236150
7459.22, 0.0229850
7469.96, 0.0223560
7480.74, 0.0217260
7491.55, 0.0212540
7502.39, 0.0204660
7513.27, 0.0196790
7524.17, 0.0190490
7535.11, 0.0184200
7546.08, 0.0174750
7557.08, 0.0165310
7568.11, 0.0159010
7579.17, 0.0154290
7590.27, 0.0146410
7601.4, 0.0140120
7612.56, 0.0132240
7623.76, 0.0122800
7634.98, 0.0114930
7646.24, 0.0108630
7657.54, 0.0105480
7668.87, 0.00991800
7680.23, 0.00913100
7691.62, 0.00913100
7703.05, 0.00928900
7714.51, 0.00897400
7726.01, 0.00881600
7737.54, 0.00881600
7749.11, 0.00865900
7760.71, 0.00865900
7772.35, 0.00834400
7784.02, 0.00818700
7795.72, 0.00802900
7807.46, 0.00787200
7819.23, 0.00755700
7831.04, 0.00755700
7842.89, 0.00739900
7854.77, 0.00739900
7866.69, 0.00739900
7878.65, 0.00724200
7890.64, 0.00739900
7902.67, 0.00771400
7914.74, 0.00787200
7926.84, 0.00787200
7938.98, 0.00818700
7951.16, 0.00913100
7963.37, 0.00960300
7975.62, 0.0100760
7987.91, 0.0110200
8000.24, 0.0119650
8012.6, 0.0132240
8025.01, 0.0147990
8037.45, 0.0162160
8049.93, 0.0181050
8062.45, 0.0204660
8075.01, 0.0234580
8087.61, 0.0272360
8100.24, 0.0321160
8112.91, 0.0380990
8125.63, 0.0451840
8138.39, 0.0535270
8151.18, 0.0631310
8164.02, 0.0744660
8176.9, 0.0875330
8189.81, 0.102489
8202.77, 0.119020
8215.77, 0.137912
8228.82, 0.159480
8241.9, 0.183725
8255.02, 0.210646
8268.19, 0.239614
8281.39, 0.268897
8294.65, 0.295661
8307.94, 0.315497
8321.28, 0.323369
8334.66, 0.318961
8348.08, 0.312349
8361.54, 0.311089
8375.05, 0.316757
8388.6, 0.328564
8402.2, 0.345882
8415.84, 0.368238
8429.52, 0.394214
8443.25, 0.421608
8457.02, 0.444908
8470.84, 0.457345
8484.7, 0.459549
8498.61, 0.455771
8512.57, 0.448529
8526.57, 0.440342
8540.62, 0.431526
8554.71, 0.422395
8568.85, 0.414366
8583.04, 0.407124
8597.27, 0.401299
8611.55, 0.397835
8625.88, 0.397206
8640.26, 0.397993
8654.68, 0.398308
8669.16, 0.398937
8683.68, 0.400197
8698.25, 0.401929
8712.87, 0.404447
8727.53, 0.407911
8742.25, 0.412319
8757.02, 0.416098
8771.83, 0.420033
8786.7, 0.423339
8801.62, 0.425544
8816.59, 0.426173
8831.61, 0.425858
8846.68, 0.424127
8861.8, 0.419246
8876.97, 0.409643
8892.2, 0.396576
8907.48, 0.380045
8922.81, 0.359106
8938.2, 0.336593
8953.63, 0.316599
8969.13, 0.301013
8984.67, 0.288104
9000.27, 0.276769
9015.92, 0.266063
9031.63, 0.255515
9047.39, 0.244337
9063.21, 0.230641
9079.08, 0.212693
9095.01, 0.192227
9111.0, 0.174909
9127.04, 0.163259
9143.13, 0.153498
9159.28, 0.143265
9175.49, 0.133661
9191.76, 0.126104
9208.09, 0.119965
9224.47, 0.114297
9240.92, 0.109102
9257.42, 0.104379
9273.98, 0.100758
9290.6, 0.0977660
9307.28, 0.0946180
9324.02, 0.0917840
9340.82, 0.0894220
9357.68, 0.0875330
9374.6, 0.0854870
9391.58, 0.0832820
9408.62, 0.0817080
9425.73, 0.0801340
9442.9, 0.0790320
9460.13, 0.0779300
9477.42, 0.0763550
9494.78, 0.0747810
9512.2, 0.0736790
9529.69, 0.0725770
9547.24, 0.0711600
9564.86, 0.0700580
9582.54, 0.0694280
9600.28, 0.0683260
9618.1, 0.0673820
9635.97, 0.0667520
9653.92, 0.0654920
9671.93, 0.0640760
9690.01, 0.0636030
9708.16, 0.0628160
9726.37, 0.0623440
9744.65, 0.0620290
9763.0, 0.0612420
9781.43, 0.0601400
9799.92, 0.0593530
9818.48, 0.0593530
9837.1, 0.0591950
9855.8, 0.0584080
9874.58, 0.0573060
9893.42, 0.0571480
9912.34, 0.0573060
9931.33, 0.0571480
9950.39, 0.0569910
9969.52, 0.0566760
9988.74, 0.0558890
10008.0, 0.0555740
10027.4, 0.0554170
10046.8, 0.0551020
10066.3, 0.0547870
10085.9, 0.0538420
10105.6, 0.0532130
10125.3, 0.0527400
10145.1, 0.0525830
10165.0, 0.0525830
10185.0, 0.0519530
10205.0, 0.0517960
10225.2, 0.0516380
10245.4, 0.0511660
10265.7, 0.0516380
10286.0, 0.0522680
10306.5, 0.0525830
10327.0, 0.0530550
10347.6, 0.0532130
10368.3, 0.0535270
10389.1, 0.0535270
10409.9, 0.0532130
10430.9, 0.0532130
10451.9, 0.0536850
10473.0, 0.0538420
10494.2, 0.0532130
10515.5, 0.0528980
10536.9, 0.0533700
10558.4, 0.0540000
10579.9, 0.0543150
10601.5, 0.0547870
10623.3, 0.0555740
10645.1, 0.0562040
10667.0, 0.0558890
10689.0, 0.0547870
10711.1, 0.0540000
10733.2, 0.0528980
10755.5, 0.0517960
10777.9, 0.0514810
10800.3, 0.0517960
10822.9, 0.0527400
10845.5, 0.0541570
10868.2, 0.0555740
10891.1, 0.0569910
10914.0, 0.0585650
10937.0, 0.0595100
10960.2, 0.0606120
10983.4, 0.0610840
11006.7, 0.0612420
11030.1, 0.0615570
11053.6, 0.0612420
11077.3, 0.0606120
11101.0, 0.0610840
11124.8, 0.0617140
11148.7, 0.0620290
11172.7, 0.0620290
11196.9, 0.0620290
11221.1, 0.0617140
11245.4, 0.0609270
11269.9, 0.0604550
11294.4, 0.0596670
11319.1, 0.0588800
11343.9, 0.0588800
11368.8, 0.0602970
11393.7, 0.0621860
11418.8, 0.0631310
11444.0, 0.0642330
11469.4, 0.0659650
11494.8, 0.0680110
11520.3, 0.0699010
11546.0, 0.0714750
11571.8, 0.0728920
11597.7, 0.0741510
11623.7, 0.0747810
11649.8, 0.0749380
11676.0, 0.0755680
11702.4, 0.0768280
11728.9, 0.0784020
11755.5, 0.0791890
11782.2, 0.0791890
11809.0, 0.0787170
11836.0, 0.0779300
11863.0, 0.0771430
11890.3, 0.0769850
11917.6, 0.0769850
11945.0, 0.0765130
11972.6, 0.0757260
12000.4, 0.0746240
12028.2, 0.0733640
12056.2, 0.0713180
12084.3, 0.0694280
12112.5, 0.0673820
12140.9, 0.0656500
12169.4, 0.0645480
12198.0, 0.0632880
12226.8, 0.0621860
12255.7, 0.0618710
12284.7, 0.0618710
12313.9, 0.0610840
12343.2, 0.0598250
12372.7, 0.0582510
12402.3, 0.0563610
12432.0, 0.0546300
12461.9, 0.0533700
12491.9, 0.0519530
12522.1, 0.0506940
12552.4, 0.0499070
12582.9, 0.0494340
12613.5, 0.0491190
12644.3, 0.0486470
12675.2, 0.0480170
12706.3, 0.0472300
12737.5, 0.0469150
12768.9, 0.0462860
12800.4, 0.0454980
12832.1, 0.0451840
12863.9, 0.0447110
12895.9, 0.0443960
12928.1, 0.0439240
12960.4, 0.0432940
12992.9, 0.0439240
13025.5, 0.0450260
13058.3, 0.0454980
13091.3, 0.0461280
13124.4, 0.0470730
13157.8, 0.0473880
13191.2, 0.0461280
13224.9, 0.0453410
13258.7, 0.0443960
13292.7, 0.0437670
13326.9, 0.0439240
13361.2, 0.0429790
13395.7, 0.0420350
13430.4, 0.0425070
13465.3, 0.0426650
13500.4, 0.0414050
13535.7, 0.0404600
13571.1, 0.0406180
13606.7, 0.0409330
13642.5, 0.0407750
13678.5, 0.0398310
13714.7, 0.0387290
13751.1, 0.0379420
13787.6, 0.0368400
13824.4, 0.0357370
13861.4, 0.0352650
13898.5, 0.0346350
13935.9, 0.0341630
13973.5, 0.0336910
14011.2, 0.0335330
14049.2, 0.0332190
14087.4, 0.0327460
14125.8, 0.0324310
14164.3, 0.0322740
14203.2, 0.0311720
14242.2, 0.0295980
14281.4, 0.0288100
14320.9, 0.0283380
14360.5, 0.0284960
14400.4, 0.0283380
14440.5, 0.0269210
14480.9, 0.0264490
14521.4, 0.0266060
14562.2, 0.0255040
14603.3, 0.0247170
14644.5, 0.0239300
14686.0, 0.0228280
14727.7, 0.0217260
14769.7, 0.0195220
14811.9, 0.0190490
14854.3, 0.0185770
14897.0, 0.0171600
14939.9, 0.0157430
14983.1, 0.0140120
15026.5, 0.0132240
15070.2, 0.0127520
15114.2, 0.0121220
15158.3, 0.0114930
15202.8, 0.0118080
15247.5, 0.0151140
15292.5, 0.0250320
15337.7, 0.0421920
15383.2, 0.0623440
15429.0, 0.0776150
15475.1, 0.0840700
15521.4, 0.0846990
15568.0, 0.0795040
15614.9, 0.0691130
15662.1, 0.0577780
15709.6, 0.0503790
15757.3, 0.0466000
15805.4, 0.0466000
15853.7, 0.0533700
15902.3, 0.0683260
15951.2, 0.0892650
16000.5, 0.114612
16050.0, 0.138384
16099.8, 0.152553
16150.0, 0.155545
16200.5, 0.151924
16251.3, 0.144839
16302.4, 0.132717
16353.8, 0.117288
16405.5, 0.102017
16457.6, 0.0887930
16510.0, 0.0787170
16562.8, 0.0714750
16615.9, 0.0664370
16669.3, 0.0621860
16723.1, 0.0580930
16777.2, 0.0551020
16831.7, 0.0528980
16886.5, 0.0510090
16941.7, 0.0500640
16997.2, 0.0494340
17053.1, 0.0489620
17109.4, 0.0491190
17166.1, 0.0483320
17223.1, 0.0475450
17280.5, 0.0475450
17338.3, 0.0475450
17396.5, 0.0480170
17455.1, 0.0480170
17514.0, 0.0484900
17573.4, 0.0499070
17633.2, 0.0505360
17693.4, 0.0511660
17754.0, 0.0516380
17815.0, 0.0540000
17876.4, 0.0565190
17938.3, 0.0560460
18000.5, 0.0560460
18063.3, 0.0574630
18126.4, 0.0582510
18190.0, 0.0585650
18254.1, 0.0593530
18318.6, 0.0601400
18383.5, 0.0615570
18449.0, 0.0639180
18514.9, 0.0670670
18581.2, 0.0708450
18648.0, 0.0741510
18715.4, 0.0773000
18783.2, 0.0784020
18851.5, 0.0804490
18920.3, 0.0807640
18989.6, 0.0798190
19059.4, 0.0804490
19129.7, 0.0839120
19200.6, 0.0887930
19272.0, 0.0952470
19343.9, 0.0988680
19416.3, 0.0998130
19489.3, 0.101702
19562.8, 0.105323
19637.0, 0.106425
19711.6, 0.106583
19786.8, 0.107685
19862.6, 0.107370
19939.0, 0.106583
20016.0, 0.107527
20093.6, 0.108629
20171.8, 0.108472
20250.6, 0.107055
20330.0, 0.105323
20410.0, 0.103906
20490.7, 0.103119
20572.0, 0.101387
20654.0, 0.0998130
20736.6, 0.0971370
20819.9, 0.0946180
20903.8, 0.0917840
20988.5, 0.0891080
21073.8, 0.0859590
21159.8, 0.0829680
21246.5, 0.0831250
21334.0, 0.0834400
21422.1, 0.0829680
21511.0, 0.0832820
21600.7, 0.0791890
21691.0, 0.0741510
21782.1, 0.0730490
21874.0, 0.0719470
21966.7, 0.0741510
22060.2, 0.0768280
22154.5, 0.0697430
22249.6, 0.0636030
22345.5, 0.0628160
22442.2, 0.0642330
22539.8, 0.0642330
22638.2, 0.0612420
22737.5, 0.0573060
22837.7, 0.0524250
22938.7, 0.0495920
23040.7, 0.0514810
23143.5, 0.0521110
23247.3, 0.0491190
23352.1, 0.0477020
23457.7, 0.0478600
23564.4, 0.0443960
23672.0, 0.0417200
23780.5, 0.0432940
23890.1, 0.0398310
24000.7, 0.0383680
24112.3, 0.0360540
24225.0, 0.0360540
24338.7, 0.0366630
24453.5, 0.0353230
24569.4, 0.0337400
24686.4, 0.0319130
24804.5, 0.0325220
24923.8, 0.0334960
25044.2, 0.0316690
25165.8, 0.0300850
25288.6, 0.0295980
25412.5, 0.0297200
25537.7, 0.0297200
25664.1, 0.0294760
25791.8, 0.0288670
25920.8, 0.0276490
26051.1, 0.0261880
26182.6, 0.0271620
26315.5, 0.0277710
26449.8, 0.0263100
26585.4, 0.0257010
26722.5, 0.0236300
26860.9, 0.0221680
27000.8, 0.0235080
27142.1, 0.0235080
27285.0, 0.0218030
27429.4, 0.0224120
27575.3, 0.0219250
27722.7, 0.0208280
27871.8, 0.0197320
28022.4, 0.0185140
28174.7, 0.0175400
28328.7, 0.0172960
28484.4, 0.0172960
28641.7, 0.0154690
28800.9, 0.0162000
28961.8, 0.0185140
29124.5, 0.0158340
29289.0, 0.0116930
29455.4, 0.0123020
29623.8, 0.0144950
29794.0, 0.0141290
29966.3, 0.0132770
30140.5, 0.0130330
30316.7, 0.0146160
30495.1, 0.0159560
30675.5, 0.0144950
30858.1, 0.0126680
31042.8, 0.0131550
31229.8, 0.0147380
31419.1, 0.0153470
31610.7, 0.0164430
31804.6, 0.0179050
32000.9, 0.0208280
32199.7, 0.0257010
32400.9, 0.0333740
32604.8, 0.0419000
32811.1, 0.0506700
33020.1, 0.0628510
33231.8, 0.0783200
33446.2, 0.0946410
33663.4, 0.112668
33883.4, 0.128746
34106.3, 0.143241
34332.1, 0.157005
34561.0, 0.169063
34792.9, 0.178808
35028.0, 0.184532
35266.3, 0.189161
35507.8, 0.194277
35752.7, 0.200123
36001.0, 0.205970
36252.8, 0.211573
36508.1, 0.219977
36767.0, 0.228869
37029.7, 0.238004
37296.1, 0.251768
37566.3, 0.266019
37840.5, 0.280392
38118.8, 0.295373
38401.2, 0.311330
38687.8, 0.327530
38978.6, 0.343973
39273.9, 0.361026
39573.7, 0.380271
39878.1, 0.395983
40187.3, 0.411209
40501.2, 0.427896
40820.0, 0.443243
41144.0, 0.456154
41473.2, 0.466995
41807.6, 0.476617
42147.5, 0.481246
42493.0, 0.483316
42844.2, 0.483925
43201.2, 0.483682
43564.3, 0.481489
43933.5, 0.476617
44309.0, 0.473207
44691.0, 0.466629
45079.6, 0.455058
45475.0, 0.442634
45877.5, 0.430210
46287.1, 0.414619
46704.2, 0.397688
47128.7, 0.382828
47561.1, 0.371988
48001.5, 0.370039
48450.1, 0.388675
48907.2, 0.419613
49373.0, 0.471867
49847.7, 0.523999
50331.5, 0.552988
50825.0, 0.568335
51328.2, 0.575765
51841.5, 0.580637
52365.1, 0.578932
52899.4, 0.575156
53444.8, 0.572598
54001.5, 0.565534
54570.1, 0.555789
55150.6, 0.545436
55743.6, 0.529480
56349.5, 0.506337
56968.7, 0.476130
57601.7, 0.445801
58248.9, 0.413157
58910.9, 0.375764
59588.1, 0.344338
60281.0, 0.312548
60990.2, 0.282462
61716.3, 0.263339
62459.8, 0.250793
63221.6, 0.231061
64002.1, 0.211207
64802.1, 0.213278
65622.1, 0.252986
66463.4, 0.317420
67326.6, 0.371866
68212.4, 0.400733
69121.9, 0.412792
70056.0, 0.413645
71015.7, 0.405849
72002.0, 0.389406
73016.3, 0.370526
74059.4, 0.346287
75132.7, 0.321805
76237.6, 0.308163
77375.5, 0.294643
78547.9, 0.276738
79756.3, 0.266384
81002.5, 0.258954
82288.5, 0.250306
83615.7, 0.251281
84986.5, 0.248114
86402.9, 0.240318
87867.4, 0.233863
89382.4, 0.224727
90950.5, 0.226067
92574.6, 0.233132
94257.2, 0.225580
96002.7, 0.209137
97814.1, 0.201098
99695.1, 0.196104
101650.0, 0.195129
103683.0, 0.190744
105799.0, 0.190988
108003.0, 0.196225
110301.0, 0.199027
112699.0, 0.200367
115204.0, 0.198540
117822.0, 0.193302
120562.0, 0.196713
123433.0, 0.198661
126443.0, 0.191719
129604.0, 0.183192
132926.0, 0.179417
136424.0, 0.173205
140111.0, 0.189526
144003.0, 0.189161
148118.0, 0.182340
152474.0, 0.184898
157095.0, 0.197322
162004.0, 0.209624
167231.0, 0.190622
172805.0, 0.173326
178764.0, 0.196347
185148.0, 0.218394
192005.0, 0.195982
199390.0, 0.136420
207366.0, 0.191475
216006.0, 0.271744
