Database of Origin,USGS Spectral Database
Sample Description,See USGS database for additional info
Date Added,2017-02-22 02:49:12.674082

Data ID,USGS_tou02          
Sample ID,tourmaline_hs282.23008
Mineral Name,tourmaline

Wavelength
1345.83, 0.638125
1346.18, 0.638175
1346.53, 0.637523
1346.88, 0.637824
1347.23, 0.637974
1347.58, 0.638426
1347.93, 0.638175
1348.28, 0.637924
1348.64, 0.638025
1348.99, 0.638075
1349.34, 0.637974
1349.69, 0.638275
1350.04, 0.637824
1350.39, 0.637272
1350.74, 0.637071
1351.1, 0.637322
1351.45, 0.637573
1351.8, 0.637222
1352.15, 0.636921
1352.51, 0.636168
1352.86, 0.635967
1353.21, 0.636017
1353.56, 0.636168
1353.92, 0.635716
1354.27, 0.635666
1354.63, 0.636068
1354.98, 0.636218
1355.33, 0.635616
1355.69, 0.635465
1356.04, 0.635716
1356.4, 0.635566
1356.75, 0.635516
1357.11, 0.635365
1357.46, 0.635064
1357.82, 0.634763
1358.18, 0.635114
1358.53, 0.635516
1358.89, 0.635365
1359.24, 0.634913
1359.6, 0.634512
1359.96, 0.634060
1360.31, 0.633559
1360.67, 0.633107
1361.03, 0.633107
1361.39, 0.632405
1361.74, 0.631401
1362.1, 0.630447
1362.46, 0.630297
1362.82, 0.630197
1363.18, 0.629494
1363.53, 0.628491
1363.89, 0.627286
1364.25, 0.625731
1364.61, 0.624928
1364.97, 0.623322
1365.33, 0.621967
1365.69, 0.620863
1366.05, 0.619659
1366.41, 0.619157
1366.77, 0.618605
1367.13, 0.618154
1367.49, 0.618154
1367.85, 0.618103
1368.21, 0.618053
1368.57, 0.618505
1368.93, 0.618957
1369.3, 0.618706
1369.66, 0.619207
1370.02, 0.619709
1370.38, 0.620060
1370.74, 0.620111
1371.11, 0.620763
1371.47, 0.620964
1371.83, 0.622017
1372.19, 0.622419
1372.56, 0.622319
1372.92, 0.622720
1373.29, 0.622770
1373.65, 0.622620
1374.01, 0.622820
1374.38, 0.622770
1374.74, 0.622770
1375.11, 0.623021
1375.47, 0.622820
1375.84, 0.622620
1376.2, 0.622620
1376.57, 0.622419
1376.93, 0.622519
1377.3, 0.622519
1377.67, 0.622168
1378.03, 0.622118
1378.4, 0.622017
1378.76, 0.621566
1379.13, 0.621516
1379.5, 0.621616
1379.87, 0.621365
1380.23, 0.620211
1380.6, 0.619810
1380.97, 0.620161
1381.34, 0.620211
1381.7, 0.619910
1382.07, 0.619258
1382.44, 0.618806
1382.81, 0.619057
1383.18, 0.619107
1383.55, 0.618304
1383.92, 0.618053
1384.29, 0.617953
1384.66, 0.617602
1385.03, 0.617401
1385.4, 0.617401
1385.77, 0.617100
1386.14, 0.616347
1386.51, 0.615896
1386.88, 0.615344
1387.25, 0.614792
1387.62, 0.614591
1387.99, 0.614641
1388.36, 0.614440
1388.74, 0.613537
1389.11, 0.612935
1389.48, 0.612433
1389.85, 0.611831
1390.23, 0.611380
1390.6, 0.610476
1390.97, 0.609473
1391.35, 0.608319
1391.72, 0.606562
1392.09, 0.604706
1392.47, 0.604505
1392.84, 0.605509
1393.21, 0.605910
1393.59, 0.605659
1393.96, 0.605860
1394.34, 0.606061
1394.71, 0.606161
1395.09, 0.606211
1395.46, 0.606312
1395.84, 0.605709
1396.22, 0.605057
1396.59, 0.604605
1396.97, 0.604605
1397.35, 0.604304
1397.72, 0.604204
1398.1, 0.603251
1398.48, 0.602899
1398.85, 0.602899
1399.23, 0.602448
1399.61, 0.602046
1399.99, 0.600993
1400.37, 0.600139
1400.74, 0.599788
1401.12, 0.599236
1401.5, 0.598233
1401.88, 0.597329
1402.26, 0.596326
1402.64, 0.595122
1403.02, 0.594419
1403.4, 0.593917
1403.78, 0.593014
1404.16, 0.592261
1404.54, 0.591659
1404.92, 0.591509
1405.3, 0.591408
1405.68, 0.591208
1406.06, 0.590706
1406.44, 0.590204
1406.83, 0.590003
1407.21, 0.590003
1407.59, 0.590204
1407.97, 0.590355
1408.35, 0.590455
1408.74, 0.589702
1409.12, 0.589602
1409.5, 0.589602
1409.89, 0.589451
1410.27, 0.589200
1410.65, 0.588899
1411.04, 0.588699
1411.42, 0.588247
1411.81, 0.587896
1412.19, 0.587545
1412.58, 0.587043
1412.96, 0.586441
1413.35, 0.585889
1413.73, 0.585286
1414.12, 0.584835
1414.5, 0.584484
1414.89, 0.584383
1415.28, 0.583932
1415.66, 0.583430
1416.05, 0.583179
1416.44, 0.582326
1416.82, 0.581523
1417.21, 0.580921
1417.6, 0.580218
1417.98, 0.579165
1418.37, 0.578462
1418.76, 0.577609
1419.15, 0.576856
1419.54, 0.575752
1419.93, 0.574448
1420.32, 0.572792
1420.71, 0.571487
1421.09, 0.569932
1421.48, 0.568226
1421.88, 0.566419
1422.27, 0.564813
1422.66, 0.562907
1423.05, 0.560900
1423.44, 0.558792
1423.83, 0.556634
1424.22, 0.554426
1424.61, 0.552369
1425.0, 0.550362
1425.39, 0.548204
1425.78, 0.546047
1426.18, 0.543989
1426.57, 0.541631
1426.96, 0.539423
1427.36, 0.537767
1427.75, 0.535961
1428.14, 0.534104
1428.54, 0.532599
1428.93, 0.531043
1429.32, 0.529688
1429.72, 0.528032
1430.11, 0.526678
1430.51, 0.525674
1430.9, 0.524721
1431.3, 0.523918
1431.69, 0.522864
1432.09, 0.521911
1432.48, 0.521158
1432.88, 0.520506
1433.28, 0.520205
1433.67, 0.520154
1434.07, 0.520054
1434.46, 0.520054
1434.86, 0.520355
1435.26, 0.520506
1435.66, 0.520656
1436.05, 0.520957
1436.45, 0.521609
1436.85, 0.522412
1437.25, 0.523466
1437.65, 0.524570
1438.05, 0.525724
1438.44, 0.526878
1438.84, 0.528032
1439.24, 0.529337
1439.64, 0.530541
1440.04, 0.531445
1440.44, 0.532699
1440.84, 0.533602
1441.24, 0.534606
1441.65, 0.535459
1442.05, 0.536563
1442.45, 0.537817
1442.85, 0.538520
1443.25, 0.539323
1443.65, 0.540778
1444.05, 0.541832
1444.46, 0.542484
1444.86, 0.542986
1445.26, 0.544039
1445.67, 0.544842
1446.07, 0.545444
1446.47, 0.546398
1446.88, 0.547301
1447.28, 0.548104
1447.68, 0.549108
1448.09, 0.549760
1448.49, 0.550161
1448.9, 0.550663
1449.3, 0.551416
1449.71, 0.552269
1450.11, 0.552670
1450.52, 0.553122
1450.93, 0.553975
1451.33, 0.554226
1451.74, 0.554677
1452.14, 0.555480
1452.55, 0.556233
1452.96, 0.556835
1453.36, 0.557236
1453.77, 0.557638
1454.18, 0.558190
1454.59, 0.558491
1455.0, 0.558842
1455.41, 0.558993
1455.81, 0.559344
1456.22, 0.560097
1456.63, 0.560749
1457.04, 0.561000
1457.45, 0.561050
1457.86, 0.561301
1458.27, 0.561602
1458.68, 0.561853
1459.09, 0.562405
1459.5, 0.562555
1459.91, 0.562756
1460.32, 0.563057
1460.74, 0.563659
1461.15, 0.563960
1461.56, 0.564011
1461.97, 0.563960
1462.39, 0.564211
1462.8, 0.564713
1463.21, 0.565115
1463.62, 0.564813
1464.04, 0.564763
1464.45, 0.565265
1464.86, 0.565917
1465.28, 0.566018
1465.69, 0.566018
1466.11, 0.565917
1466.52, 0.566018
1466.94, 0.566269
1467.35, 0.566620
1467.77, 0.567122
1468.18, 0.567021
1468.6, 0.567172
1469.02, 0.567423
1469.43, 0.567573
1469.85, 0.567874
1470.27, 0.567925
1470.68, 0.568175
1471.1, 0.568125
1471.52, 0.567874
1471.94, 0.568075
1472.35, 0.568928
1472.77, 0.569179
1473.19, 0.569079
1473.61, 0.569079
1474.03, 0.569229
1474.45, 0.569581
1474.87, 0.569781
1475.29, 0.569781
1475.71, 0.570082
1476.13, 0.570283
1476.55, 0.570333
1476.97, 0.570333
1477.39, 0.570484
1477.81, 0.570735
1478.23, 0.570885
1478.65, 0.570935
1479.07, 0.570835
1479.5, 0.571136
1479.92, 0.571236
1480.34, 0.571236
1480.76, 0.571638
1481.19, 0.571538
1481.61, 0.571738
1482.03, 0.572290
1482.46, 0.572390
1482.88, 0.572441
1483.31, 0.572692
1483.73, 0.572591
1484.16, 0.572892
1484.58, 0.573294
1485.01, 0.573143
1485.43, 0.573043
1485.86, 0.573344
1486.28, 0.573344
1486.71, 0.573344
1487.14, 0.573545
1487.56, 0.573795
1487.99, 0.573996
1488.42, 0.574046
1488.84, 0.574347
1489.27, 0.574548
1489.7, 0.574649
1490.13, 0.575000
1490.56, 0.575301
1490.98, 0.575251
1491.41, 0.575201
1491.84, 0.575201
1492.27, 0.575401
1492.7, 0.575803
1493.13, 0.575853
1493.56, 0.575702
1493.99, 0.575702
1494.42, 0.575803
1494.85, 0.576154
1495.29, 0.576405
1495.72, 0.576304
1496.15, 0.576405
1496.58, 0.576455
1497.01, 0.576706
1497.44, 0.576656
1497.88, 0.576555
1498.31, 0.576957
1498.74, 0.577208
1499.18, 0.577308
1499.61, 0.577358
1500.04, 0.577408
1500.48, 0.577659
1500.91, 0.578111
1501.35, 0.578211
1501.78, 0.578111
1502.22, 0.578462
1502.65, 0.578613
1503.09, 0.578663
1503.53, 0.578713
1503.96, 0.578512
1504.4, 0.578462
1504.83, 0.578663
1505.27, 0.578864
1505.71, 0.578964
1506.15, 0.579215
1506.58, 0.579265
1507.02, 0.579014
1507.46, 0.579365
1507.9, 0.579666
1508.34, 0.579867
1508.78, 0.579767
1509.21, 0.579666
1509.66, 0.579616
1510.09, 0.580018
1510.53, 0.580118
1510.97, 0.580068
1511.42, 0.580168
1511.86, 0.580369
1512.3, 0.580419
1512.74, 0.580570
1513.18, 0.580469
1513.62, 0.580620
1514.06, 0.580871
1514.51, 0.580871
1514.95, 0.580921
1515.39, 0.581172
1515.83, 0.581473
1516.28, 0.581322
1516.72, 0.581071
1517.16, 0.581423
1517.61, 0.581774
1518.05, 0.581724
1518.5, 0.581674
1518.94, 0.581724
1519.39, 0.581774
1519.83, 0.581925
1520.28, 0.582025
1520.73, 0.582226
1521.17, 0.582527
1521.62, 0.582727
1522.07, 0.582577
1522.51, 0.582727
1522.96, 0.582677
1523.41, 0.582928
1523.85, 0.583179
1524.3, 0.583028
1524.75, 0.583329
1525.2, 0.583380
1525.65, 0.583279
1526.1, 0.583631
1526.55, 0.583681
1527.0, 0.583881
1527.45, 0.583932
1527.9, 0.584132
1528.35, 0.584132
1528.8, 0.584183
1529.25, 0.584484
1529.7, 0.584785
1530.15, 0.584735
1530.6, 0.584735
1531.05, 0.584785
1531.51, 0.585036
1531.96, 0.585337
1532.41, 0.585387
1532.87, 0.585286
1533.32, 0.585487
1533.77, 0.585738
1534.23, 0.585889
1534.68, 0.586240
1535.14, 0.586441
1535.59, 0.586541
1536.05, 0.586641
1536.5, 0.586541
1536.96, 0.586591
1537.41, 0.586892
1537.87, 0.587043
1538.32, 0.587243
1538.78, 0.587645
1539.24, 0.587645
1539.7, 0.587795
1540.15, 0.587846
1540.61, 0.587946
1541.07, 0.588147
1541.53, 0.588147
1541.98, 0.588247
1542.44, 0.588849
1542.9, 0.589200
1543.36, 0.589451
1543.82, 0.589552
1544.28, 0.589552
1544.74, 0.589602
1545.2, 0.589903
1545.66, 0.590154
1546.12, 0.590455
1546.59, 0.590656
1547.05, 0.590656
1547.51, 0.590957
1547.97, 0.590957
1548.43, 0.590806
1548.9, 0.590907
1549.36, 0.591308
1549.82, 0.591760
1550.29, 0.591910
1550.75, 0.591960
1551.21, 0.592161
1551.68, 0.592362
1552.14, 0.592362
1552.61, 0.592462
1553.07, 0.592613
1553.54, 0.592914
1554.0, 0.593215
1554.47, 0.593365
1554.93, 0.593616
1555.4, 0.594068
1555.87, 0.594118
1556.34, 0.593967
1556.8, 0.594118
1557.27, 0.594319
1557.74, 0.594469
1558.21, 0.594670
1558.68, 0.594871
1559.14, 0.594871
1559.61, 0.595122
1560.08, 0.595674
1560.55, 0.595774
1561.02, 0.595824
1561.49, 0.595924
1561.96, 0.596075
1562.43, 0.596125
1562.9, 0.596326
1563.38, 0.596627
1563.85, 0.596928
1564.32, 0.596978
1564.79, 0.596928
1565.26, 0.597229
1565.74, 0.597580
1566.21, 0.597731
1566.68, 0.597831
1567.16, 0.598132
1567.63, 0.598182
1568.1, 0.598233
1568.58, 0.598484
1569.05, 0.598684
1569.53, 0.598985
1570.0, 0.599186
1570.48, 0.599286
1570.96, 0.599286
1571.43, 0.599337
1571.91, 0.599688
1572.39, 0.600139
1572.86, 0.600240
1573.34, 0.600290
1573.82, 0.600340
1574.3, 0.600691
1574.77, 0.600842
1575.25, 0.600892
1575.73, 0.600942
1576.21, 0.601294
1576.69, 0.601243
1577.17, 0.601344
1577.65, 0.601645
1578.13, 0.601846
1578.61, 0.601896
1579.09, 0.602096
1579.57, 0.602347
1580.05, 0.602398
1580.54, 0.602498
1581.02, 0.602699
1581.5, 0.602749
1581.98, 0.603000
1582.47, 0.603150
1582.95, 0.603200
1583.43, 0.603200
1583.92, 0.603401
1584.4, 0.603752
1584.88, 0.603803
1585.37, 0.603903
1585.85, 0.604204
1586.34, 0.604304
1586.82, 0.604354
1587.31, 0.604555
1587.8, 0.604756
1588.28, 0.605007
1588.77, 0.605057
1589.26, 0.605107
1589.74, 0.605308
1590.23, 0.605458
1590.72, 0.605659
1591.21, 0.605760
1591.7, 0.605960
1592.19, 0.606010
1592.67, 0.606211
1593.16, 0.606462
1593.65, 0.606813
1594.14, 0.606763
1594.63, 0.606914
1595.12, 0.607215
1595.61, 0.607315
1596.11, 0.607616
1596.6, 0.608018
1597.09, 0.607967
1597.58, 0.608118
1598.08, 0.608268
1598.57, 0.608118
1599.06, 0.608268
1599.55, 0.608570
1600.05, 0.608820
1600.54, 0.609222
1601.04, 0.609272
1601.53, 0.609473
1602.03, 0.609674
1602.52, 0.609975
1603.02, 0.610025
1603.51, 0.610075
1604.01, 0.610326
1604.5, 0.610627
1605.0, 0.610828
1605.5, 0.610978
1606.0, 0.611179
1606.49, 0.611681
1606.99, 0.611982
1607.49, 0.611932
1607.99, 0.612082
1608.49, 0.612283
1608.99, 0.612333
1609.49, 0.612484
1609.99, 0.612584
1610.49, 0.613086
1610.99, 0.613286
1611.49, 0.613387
1611.99, 0.613387
1612.49, 0.613587
1612.99, 0.613889
1613.49, 0.614240
1614.0, 0.614440
1614.5, 0.614491
1615.0, 0.614691
1615.51, 0.614842
1616.01, 0.615143
1616.51, 0.615645
1617.02, 0.615645
1617.52, 0.615544
1618.03, 0.615745
1618.53, 0.615946
1619.04, 0.616147
1619.54, 0.616297
1620.05, 0.616598
1620.55, 0.616849
1621.06, 0.617100
1621.57, 0.617501
1622.08, 0.617501
1622.58, 0.617451
1623.09, 0.617652
1623.6, 0.618003
1624.11, 0.618154
1624.62, 0.618455
1625.13, 0.618706
1625.64, 0.619007
1626.15, 0.619057
1626.66, 0.619157
1627.17, 0.619408
1627.68, 0.619458
1628.19, 0.619559
1628.7, 0.619609
1629.21, 0.619759
1629.72, 0.620161
1630.24, 0.620462
1630.75, 0.620512
1631.26, 0.620462
1631.78, 0.620612
1632.29, 0.620663
1632.8, 0.621014
1633.32, 0.621164
1633.83, 0.621566
1634.35, 0.621716
1634.86, 0.621666
1635.38, 0.621967
1635.9, 0.622068
1636.41, 0.622017
1636.93, 0.622419
1637.45, 0.622620
1637.96, 0.622921
1638.48, 0.623121
1639.0, 0.623222
1639.52, 0.623222
1640.04, 0.623322
1640.56, 0.623423
1641.08, 0.623623
1641.59, 0.623724
1642.11, 0.624075
1642.63, 0.624326
1643.16, 0.624376
1643.68, 0.624526
1644.2, 0.624627
1644.72, 0.624627
1645.24, 0.624727
1645.76, 0.624928
1646.29, 0.624928
1646.81, 0.625078
1647.33, 0.625480
1647.86, 0.625580
1648.38, 0.625781
1648.9, 0.625831
1649.43, 0.625831
1649.95, 0.625881
1650.48, 0.626082
1651.0, 0.626233
1651.53, 0.626483
1652.06, 0.626584
1652.58, 0.626634
1653.11, 0.626885
1653.64, 0.626835
1654.17, 0.626835
1654.69, 0.627387
1655.22, 0.627537
1655.75, 0.627487
1656.28, 0.627638
1656.81, 0.627688
1657.34, 0.627638
1657.87, 0.627688
1658.4, 0.627838
1658.93, 0.628189
1659.46, 0.628491
1659.99, 0.628641
1660.52, 0.628741
1661.05, 0.629143
1661.59, 0.629193
1662.12, 0.629394
1662.65, 0.629645
1663.19, 0.629745
1663.72, 0.629745
1664.26, 0.629946
1664.79, 0.630096
1665.32, 0.630197
1665.86, 0.630247
1666.39, 0.630397
1666.93, 0.630849
1667.47, 0.631301
1668.0, 0.631351
1668.54, 0.631401
1669.08, 0.631451
1669.61, 0.631551
1670.15, 0.631602
1670.69, 0.631802
1671.23, 0.632103
1671.77, 0.632204
1672.31, 0.632455
1672.85, 0.632655
1673.39, 0.632906
1673.93, 0.633057
1674.47, 0.633258
1675.01, 0.633508
1675.55, 0.633358
1676.09, 0.633358
1676.64, 0.633709
1677.18, 0.633960
1677.72, 0.634161
1678.26, 0.634462
1678.81, 0.634663
1679.35, 0.634663
1679.89, 0.634813
1680.44, 0.635114
1680.98, 0.635014
1681.53, 0.635114
1682.07, 0.635315
1682.62, 0.635465
1683.17, 0.635666
1683.71, 0.635917
1684.26, 0.635917
1684.81, 0.635967
1685.36, 0.636017
1685.9, 0.636419
1686.45, 0.636620
1687.0, 0.636720
1687.55, 0.636770
1688.1, 0.636820
1688.65, 0.636971
1689.2, 0.637171
1689.75, 0.637222
1690.3, 0.637372
1690.85, 0.637774
1691.41, 0.637874
1691.96, 0.637974
1692.51, 0.638376
1693.06, 0.638426
1693.61, 0.638577
1694.17, 0.638827
1694.72, 0.638978
1695.28, 0.639179
1695.83, 0.639179
1696.39, 0.639279
1696.94, 0.639329
1697.5, 0.639379
1698.05, 0.639680
1698.61, 0.639881
1699.17, 0.640082
1699.72, 0.640132
1700.28, 0.640232
1700.84, 0.640333
1701.4, 0.640483
1701.95, 0.640533
1702.51, 0.640684
1703.07, 0.640885
1703.63, 0.640935
1704.19, 0.641035
1704.75, 0.641487
1705.31, 0.641537
1705.88, 0.641587
1706.44, 0.641637
1707.0, 0.641587
1707.56, 0.641637
1708.12, 0.641838
1708.69, 0.642039
1709.25, 0.642240
1709.81, 0.642139
1710.38, 0.642189
1710.94, 0.642290
1711.51, 0.642340
1712.07, 0.642340
1712.64, 0.642691
1713.2, 0.642892
1713.77, 0.643042
1714.34, 0.643093
1714.9, 0.643143
1715.47, 0.643444
1716.04, 0.643594
1716.61, 0.643544
1717.18, 0.643745
1717.74, 0.643895
1718.31, 0.643895
1718.88, 0.643845
1719.45, 0.644247
1720.02, 0.644347
1720.59, 0.644297
1721.17, 0.644397
1721.74, 0.644598
1722.31, 0.644698
1722.88, 0.644548
1723.45, 0.644749
1724.03, 0.644999
1724.6, 0.645100
1725.18, 0.645200
1725.75, 0.645100
1726.33, 0.645250
1726.9, 0.645351
1727.48, 0.645300
1728.05, 0.645501
1728.63, 0.645652
1729.2, 0.645852
1729.78, 0.645903
1730.36, 0.646003
1730.94, 0.646254
1731.51, 0.646154
1732.09, 0.646254
1732.67, 0.646505
1733.25, 0.646856
1733.83, 0.646906
1734.41, 0.647057
1734.99, 0.647107
1735.57, 0.647207
1736.15, 0.647358
1736.73, 0.647408
1737.32, 0.647358
1737.9, 0.647559
1738.48, 0.647759
1739.07, 0.648010
1739.65, 0.648111
1740.23, 0.648211
1740.82, 0.648211
1741.4, 0.648462
1741.99, 0.648612
1742.57, 0.648813
1743.16, 0.648964
1743.74, 0.649164
1744.33, 0.649214
1744.92, 0.649315
1745.51, 0.649365
1746.09, 0.649566
1746.68, 0.649516
1747.27, 0.649566
1747.86, 0.649867
1748.45, 0.650017
1749.04, 0.650118
1749.63, 0.650369
1750.22, 0.650670
1750.81, 0.650770
1751.4, 0.650820
1751.99, 0.650820
1752.59, 0.650971
1753.18, 0.651171
1753.77, 0.651171
1754.37, 0.651121
1754.96, 0.651171
1755.56, 0.651322
1756.15, 0.651623
1756.74, 0.651974
1757.34, 0.652024
1757.94, 0.652175
1758.53, 0.652225
1759.13, 0.652275
1759.73, 0.652125
1760.32, 0.652376
1760.92, 0.652677
1761.52, 0.652978
1762.12, 0.653028
1762.72, 0.653078
1763.32, 0.653329
1763.92, 0.653480
1764.52, 0.653329
1765.12, 0.653229
1765.72, 0.653580
1766.32, 0.653831
1766.92, 0.653831
1767.53, 0.654082
1768.13, 0.654182
1768.73, 0.654132
1769.34, 0.654232
1769.94, 0.654483
1770.55, 0.654433
1771.15, 0.654634
1771.76, 0.654734
1772.36, 0.654935
1772.97, 0.654935
1773.57, 0.655136
1774.18, 0.655236
1774.79, 0.655136
1775.4, 0.655186
1776.0, 0.655386
1776.61, 0.655487
1777.22, 0.655487
1777.83, 0.655537
1778.44, 0.655637
1779.05, 0.655838
1779.66, 0.656089
1780.27, 0.655989
1780.88, 0.655989
1781.5, 0.656189
1782.11, 0.656240
1782.72, 0.656240
1783.33, 0.656490
1783.95, 0.656390
1784.56, 0.656390
1785.18, 0.656390
1785.79, 0.656440
1786.41, 0.656541
1787.02, 0.656490
1787.64, 0.656641
1788.26, 0.656892
1788.87, 0.656892
1789.49, 0.656992
1790.11, 0.657143
1790.73, 0.657293
1791.35, 0.657143
1791.96, 0.657193
1792.58, 0.657394
1793.21, 0.657293
1793.83, 0.657394
1794.45, 0.657444
1795.07, 0.657394
1795.69, 0.657644
1796.31, 0.657695
1796.93, 0.657695
1797.56, 0.657594
1798.18, 0.657795
1798.8, 0.657946
1799.43, 0.658096
1800.05, 0.657795
1800.68, 0.657795
1801.3, 0.657845
1801.93, 0.658046
1802.56, 0.658146
1803.18, 0.658447
1803.81, 0.658598
1804.44, 0.658498
1805.07, 0.658447
1805.7, 0.658447
1806.33, 0.658397
1806.95, 0.658397
1807.58, 0.658598
1808.22, 0.658849
1808.85, 0.658748
1809.48, 0.658799
1810.11, 0.658849
1810.74, 0.658899
1811.38, 0.658999
1812.01, 0.659049
1812.64, 0.658999
1813.28, 0.659150
1813.91, 0.659351
1814.55, 0.659300
1815.18, 0.659100
1815.82, 0.659150
1816.45, 0.659401
1817.09, 0.659551
1817.73, 0.659501
1818.36, 0.659551
1819.0, 0.659601
1819.64, 0.659551
1820.28, 0.659752
1820.92, 0.660153
1821.56, 0.659903
1822.2, 0.660053
1822.84, 0.660153
1823.48, 0.660454
1824.12, 0.660454
1824.76, 0.660354
1825.41, 0.660304
1826.05, 0.660304
1826.69, 0.660555
1827.34, 0.660705
1827.98, 0.660605
1828.63, 0.660705
1829.27, 0.660856
1829.92, 0.660906
1830.56, 0.660705
1831.21, 0.661107
1831.86, 0.661558
1832.5, 0.661609
1833.15, 0.661659
1833.8, 0.661759
1834.45, 0.661910
1835.1, 0.662010
1835.75, 0.661809
1836.4, 0.662110
1837.05, 0.662261
1837.7, 0.662361
1838.35, 0.662612
1839.01, 0.662612
1839.66, 0.662662
1840.31, 0.663014
1840.96, 0.663014
1841.62, 0.663164
1842.27, 0.663566
1842.93, 0.663666
1843.58, 0.663666
1844.24, 0.663716
1844.9, 0.663766
1845.55, 0.663867
1846.21, 0.663666
1846.87, 0.663816
1847.53, 0.664118
1848.18, 0.664017
1848.84, 0.664318
1849.5, 0.664469
1850.16, 0.664670
1850.82, 0.664870
1851.48, 0.664820
1852.14, 0.664720
1852.81, 0.664569
1853.47, 0.664519
1854.13, 0.664820
1854.8, 0.664971
1855.46, 0.664820
1856.12, 0.664569
1856.79, 0.664670
1857.45, 0.664720
1858.12, 0.664670
1858.79, 0.664569
1859.45, 0.664469
1860.12, 0.664720
1860.79, 0.664670
1861.46, 0.664469
1862.12, 0.664469
1862.79, 0.664469
1863.46, 0.664268
1864.13, 0.664118
1864.8, 0.663967
1865.48, 0.663816
1866.15, 0.663816
1866.82, 0.663616
1867.49, 0.663566
1868.16, 0.663616
1868.84, 0.663766
1869.51, 0.663967
1870.19, 0.663816
1870.86, 0.663716
1871.54, 0.664067
1872.21, 0.664067
1872.89, 0.664168
1873.56, 0.664720
1874.24, 0.665021
1874.92, 0.664971
1875.6, 0.664971
1876.28, 0.665021
1876.96, 0.665222
1877.64, 0.665573
1878.32, 0.665523
1879.0, 0.665623
1879.68, 0.665723
1880.36, 0.665773
1881.04, 0.665824
1881.73, 0.665974
1882.41, 0.666075
1883.09, 0.666024
1883.78, 0.666075
1884.46, 0.666225
1885.15, 0.666175
1885.83, 0.666125
1886.52, 0.666225
1887.21, 0.666376
1887.89, 0.666325
1888.58, 0.666175
1889.27, 0.666125
1889.96, 0.666225
1890.65, 0.666376
1891.34, 0.666325
1892.03, 0.666325
1892.72, 0.666476
1893.41, 0.666275
1894.1, 0.666225
1894.79, 0.666225
1895.49, 0.666175
1896.18, 0.666024
1896.87, 0.665824
1897.57, 0.666024
1898.26, 0.666125
1898.96, 0.665874
1899.65, 0.666125
1900.35, 0.666376
1901.05, 0.666526
1901.74, 0.666275
1902.44, 0.666125
1903.14, 0.666426
1903.84, 0.666627
1904.54, 0.666576
1905.24, 0.666627
1905.94, 0.666727
1906.64, 0.666727
1907.34, 0.666877
1908.04, 0.667078
1908.75, 0.666978
1909.45, 0.666928
1910.15, 0.666978
1910.86, 0.667128
1911.56, 0.667078
1912.27, 0.666827
1912.97, 0.666627
1913.68, 0.666727
1914.39, 0.666727
1915.09, 0.666877
1915.8, 0.666877
1916.51, 0.666777
1917.22, 0.666777
1917.93, 0.666727
1918.64, 0.666627
1919.35, 0.666325
1920.06, 0.666125
1920.77, 0.666426
1921.48, 0.666426
1922.19, 0.666325
1922.91, 0.666175
1923.62, 0.666225
1924.33, 0.666275
1925.05, 0.666024
1925.76, 0.665874
1926.48, 0.665824
1927.19, 0.665874
1927.91, 0.665723
1928.63, 0.665573
1929.35, 0.665472
1930.07, 0.665372
1930.78, 0.665171
1931.5, 0.665171
1932.22, 0.665171
1932.94, 0.665071
1933.66, 0.664920
1934.39, 0.664870
1935.11, 0.664920
1935.83, 0.664820
1936.55, 0.664920
1937.28, 0.665121
1938.0, 0.665071
1938.73, 0.665171
1939.45, 0.665171
1940.18, 0.665171
1940.9, 0.665472
1941.63, 0.665723
1942.36, 0.665874
1943.09, 0.666125
1943.81, 0.666376
1944.54, 0.666627
1945.27, 0.666777
1946.0, 0.666877
1946.73, 0.667078
1947.47, 0.667379
1948.2, 0.667429
1948.93, 0.667429
1949.66, 0.667580
1950.4, 0.667781
1951.13, 0.667931
1951.86, 0.667931
1952.6, 0.667931
1953.34, 0.668082
1954.07, 0.668232
1954.81, 0.668232
1955.55, 0.668082
1956.29, 0.667881
1957.02, 0.668132
1957.76, 0.668232
1958.5, 0.668333
1959.24, 0.668483
1959.98, 0.668634
1960.72, 0.668533
1961.47, 0.668584
1962.21, 0.668684
1962.95, 0.668935
1963.7, 0.669035
1964.44, 0.669035
1965.18, 0.668885
1965.93, 0.668784
1966.67, 0.668935
1967.42, 0.669286
1968.17, 0.668935
1968.92, 0.668834
1969.66, 0.669035
1970.41, 0.669085
1971.16, 0.668985
1971.91, 0.669035
1972.66, 0.668885
1973.41, 0.668734
1974.16, 0.668784
1974.92, 0.668684
1975.67, 0.668634
1976.42, 0.668533
1977.18, 0.668634
1977.93, 0.668533
1978.69, 0.668383
1979.44, 0.668182
1980.2, 0.668082
1980.95, 0.668333
1981.71, 0.668383
1982.47, 0.668282
1983.23, 0.668282
1983.99, 0.668282
1984.74, 0.668333
1985.51, 0.668333
1986.27, 0.668383
1987.03, 0.668383
1987.79, 0.668333
1988.55, 0.668433
1989.32, 0.668383
1990.08, 0.668232
1990.84, 0.668132
1991.61, 0.668132
1992.37, 0.668232
1993.14, 0.668132
1993.9, 0.667981
1994.67, 0.667931
1995.44, 0.667881
1996.21, 0.667831
1996.98, 0.667730
1997.75, 0.667680
1998.52, 0.667630
1999.29, 0.667580
2000.06, 0.667680
2000.83, 0.667831
2001.6, 0.667730
2002.38, 0.667730
2003.15, 0.667580
2003.93, 0.667630
2004.7, 0.667730
2005.48, 0.667630
2006.25, 0.667680
2007.03, 0.667881
2007.81, 0.667831
2008.58, 0.667781
2009.36, 0.667931
2010.14, 0.667981
2010.92, 0.667931
2011.7, 0.668132
2012.48, 0.668032
2013.26, 0.667981
2014.05, 0.668232
2014.83, 0.668584
2015.61, 0.668533
2016.4, 0.668584
2017.18, 0.668684
2017.97, 0.668684
2018.75, 0.668483
2019.54, 0.668533
2020.32, 0.668634
2021.11, 0.668734
2021.9, 0.668684
2022.69, 0.668734
2023.48, 0.668734
2024.27, 0.668834
2025.06, 0.668935
2025.85, 0.668935
2026.64, 0.668985
2027.44, 0.668834
2028.23, 0.668834
2029.02, 0.668684
2029.82, 0.668734
2030.61, 0.668834
2031.41, 0.668734
2032.2, 0.668734
2033.0, 0.668784
2033.8, 0.668684
2034.6, 0.668533
2035.4, 0.668885
2036.2, 0.668784
2037.0, 0.668734
2037.8, 0.669035
2038.6, 0.669085
2039.4, 0.669135
2040.2, 0.669336
2041.01, 0.669386
2041.81, 0.669437
2042.61, 0.669437
2043.42, 0.669537
2044.22, 0.669637
2045.03, 0.669938
2045.84, 0.669938
2046.65, 0.669888
2047.46, 0.669989
2048.26, 0.670189
2049.07, 0.670290
2049.88, 0.670490
2050.69, 0.670540
2051.51, 0.670540
2052.32, 0.670691
2053.13, 0.670942
2053.94, 0.671092
2054.76, 0.671193
2055.57, 0.671143
2056.39, 0.671343
2057.2, 0.671343
2058.02, 0.671394
2058.84, 0.671193
2059.66, 0.671092
2060.48, 0.671092
2061.29, 0.671042
2062.11, 0.670992
2062.94, 0.670992
2063.76, 0.670992
2064.58, 0.671092
2065.4, 0.671042
2066.22, 0.671042
2067.05, 0.670992
2067.87, 0.670992
2068.7, 0.670992
2069.52, 0.670992
2070.35, 0.670892
2071.18, 0.671042
2072.0, 0.670992
2072.83, 0.670892
2073.66, 0.670842
2074.49, 0.670791
2075.32, 0.670641
2076.15, 0.670641
2076.98, 0.670641
2077.82, 0.670641
2078.65, 0.670741
2079.48, 0.670842
2080.32, 0.670992
2081.15, 0.671143
2081.99, 0.671092
2082.83, 0.671092
2083.66, 0.670842
2084.5, 0.670942
2085.34, 0.671092
2086.18, 0.671042
2087.02, 0.670992
2087.86, 0.671143
2088.7, 0.671343
2089.54, 0.671444
2090.39, 0.671444
2091.23, 0.671394
2092.07, 0.671494
2092.92, 0.671745
2093.76, 0.671644
2094.61, 0.671544
2095.45, 0.671795
2096.3, 0.671895
2097.15, 0.671946
2098.0, 0.671946
2098.85, 0.671895
2099.7, 0.671845
2100.55, 0.671745
2101.4, 0.671996
2102.25, 0.672096
2103.1, 0.672146
2103.96, 0.672046
2104.81, 0.672046
2105.67, 0.672096
2106.52, 0.672146
2107.38, 0.672046
2108.24, 0.672096
2109.09, 0.672397
2109.95, 0.672297
2110.81, 0.672446
2111.67, 0.672197
2112.53, 0.671999
2113.39, 0.672098
2114.25, 0.671900
2115.12, 0.671850
2115.98, 0.671900
2116.84, 0.671255
2117.71, 0.671304
2118.58, 0.671304
2119.44, 0.671255
2120.31, 0.671205
2121.18, 0.671205
2122.04, 0.670609
2122.91, 0.670312
2123.78, 0.669915
2124.65, 0.670063
2125.52, 0.670113
2126.4, 0.669964
2127.27, 0.669518
2128.14, 0.669071
2129.02, 0.668227
2129.89, 0.668078
2130.77, 0.668227
2131.64, 0.667731
2132.52, 0.667185
2133.4, 0.666689
2134.27, 0.666242
2135.15, 0.666391
2136.03, 0.666639
2136.91, 0.666341
2137.79, 0.665696
2138.68, 0.665796
2139.56, 0.665398
2140.44, 0.665002
2141.33, 0.665051
2142.21, 0.664952
2143.1, 0.665002
2143.99, 0.664853
2144.87, 0.664654
2145.76, 0.664257
2146.65, 0.664406
2147.54, 0.664307
2148.43, 0.663959
2149.32, 0.663711
2150.21, 0.663810
2151.1, 0.664356
2151.99, 0.664108
2152.89, 0.663364
2153.78, 0.662768
2154.68, 0.662669
2155.57, 0.661925
2156.47, 0.661627
2157.37, 0.661279
2158.27, 0.661230
2159.16, 0.661528
2160.06, 0.660783
2160.96, 0.659890
2161.86, 0.659245
2162.77, 0.658699
2163.67, 0.658500
2164.57, 0.658302
2165.48, 0.658054
2166.38, 0.657210
2167.29, 0.656615
2168.2, 0.656366
2169.1, 0.655920
2170.01, 0.655771
2170.92, 0.655622
2171.83, 0.655423
2172.74, 0.654927
2173.65, 0.654481
2174.56, 0.654133
2175.47, 0.653736
2176.39, 0.652744
2177.3, 0.652347
2178.22, 0.652347
2179.13, 0.652049
2180.05, 0.651503
2180.96, 0.650610
2181.88, 0.650560
2182.8, 0.650262
2183.72, 0.649816
2184.64, 0.649170
2185.56, 0.648277
2186.48, 0.646689
2187.41, 0.645349
2188.33, 0.643612
2189.25, 0.642173
2190.18, 0.640436
2191.1, 0.638153
2192.03, 0.635672
2192.96, 0.632248
2193.89, 0.628377
2194.82, 0.624357
2195.74, 0.619791
2196.68, 0.614630
2197.61, 0.608824
2198.54, 0.602670
2199.47, 0.596268
2200.4, 0.589668
2201.34, 0.582323
2202.28, 0.575326
2203.21, 0.568278
2204.15, 0.561331
2205.08, 0.555177
2206.02, 0.549271
2206.96, 0.544209
2207.9, 0.540537
2208.84, 0.538006
2209.78, 0.537361
2210.73, 0.538800
2211.67, 0.542423
2212.61, 0.547584
2213.56, 0.554036
2214.5, 0.561529
2215.45, 0.569470
2216.4, 0.577062
2217.35, 0.584209
2218.3, 0.590065
2219.24, 0.595375
2220.2, 0.600685
2221.15, 0.605499
2222.1, 0.609965
2223.05, 0.614283
2224.0, 0.617657
2224.96, 0.620982
2225.91, 0.623265
2226.87, 0.624307
2227.83, 0.624952
2228.79, 0.625598
2229.74, 0.624952
2230.7, 0.623464
2231.66, 0.621628
2232.63, 0.618898
2233.59, 0.614630
2234.55, 0.609171
2235.51, 0.603365
2236.48, 0.596367
2237.44, 0.587931
2238.41, 0.579097
2239.38, 0.571058
2240.34, 0.564358
2241.31, 0.558849
2242.28, 0.555326
2243.25, 0.553688
2244.22, 0.554135
2245.19, 0.556517
2246.17, 0.560338
2247.14, 0.565400
2248.12, 0.571405
2249.09, 0.577509
2250.07, 0.583464
2251.04, 0.589519
2252.02, 0.595325
2253.0, 0.600238
2253.98, 0.604804
2254.96, 0.608625
2255.94, 0.612298
2256.92, 0.615523
2257.91, 0.618997
2258.89, 0.622570
2259.88, 0.625449
2260.86, 0.628129
2261.85, 0.631057
2262.83, 0.633488
2263.82, 0.635722
2264.81, 0.637756
2265.8, 0.639890
2266.79, 0.642024
2267.78, 0.643960
2268.78, 0.645449
2269.77, 0.646689
2270.76, 0.647136
2271.76, 0.647781
2272.75, 0.648277
2273.75, 0.648178
2274.75, 0.648178
2275.75, 0.647979
2276.75, 0.646987
2277.75, 0.645597
2278.75, 0.643612
2279.75, 0.640883
2280.75, 0.637409
2281.76, 0.633935
2282.76, 0.629766
2283.77, 0.625449
2284.77, 0.621032
2285.78, 0.615771
2286.79, 0.610213
2287.8, 0.605151
2288.81, 0.600189
2289.82, 0.595921
2290.83, 0.592248
2291.84, 0.589618
2292.86, 0.587931
2293.87, 0.586988
2294.89, 0.586591
2295.91, 0.587186
2296.92, 0.588377
2297.94, 0.589817
2298.96, 0.591702
2299.98, 0.593836
2301.0, 0.595524
2302.02, 0.597360
2303.04, 0.599196
2304.07, 0.600189
2305.09, 0.600437
2306.12, 0.600536
2307.15, 0.600338
2308.17, 0.599792
2309.2, 0.598650
2310.23, 0.597360
2311.26, 0.596020
2312.29, 0.594283
2313.32, 0.592596
2314.35, 0.591206
2315.39, 0.589767
2316.42, 0.588626
2317.46, 0.587286
2318.5, 0.586095
2319.53, 0.585003
2320.57, 0.584308
2321.61, 0.583464
2322.65, 0.583018
2323.69, 0.582869
2324.73, 0.582373
2325.78, 0.581777
2326.82, 0.582075
2327.86, 0.581976
2328.91, 0.581727
2329.96, 0.581281
2331.01, 0.580735
2332.05, 0.580586
2333.1, 0.579891
2334.15, 0.579097
2335.21, 0.578254
2336.26, 0.576963
2337.31, 0.575276
2338.36, 0.573340
2339.42, 0.571157
2340.48, 0.568527
2341.53, 0.565599
2342.59, 0.562025
2343.65, 0.557609
2344.71, 0.552993
2345.77, 0.548428
2346.83, 0.543465
2347.9, 0.538155
2348.96, 0.533242
2350.02, 0.528924
2351.09, 0.524855
2352.16, 0.520984
2353.23, 0.518254
2354.29, 0.516666
2355.36, 0.515426
2356.43, 0.515178
2357.51, 0.515674
2358.58, 0.517014
2359.65, 0.519346
2360.73, 0.522919
2361.8, 0.526989
2362.88, 0.531406
2363.96, 0.536319
2365.03, 0.541678
2366.11, 0.546691
2367.19, 0.551852
2368.27, 0.556864
2369.36, 0.561777
2370.44, 0.566343
2371.53, 0.570760
2372.61, 0.574829
2373.7, 0.578353
2374.78, 0.581628
2375.87, 0.584556
2376.96, 0.586889
2378.05, 0.589072
2379.14, 0.590859
2380.24, 0.592397
2381.33, 0.593936
2382.42, 0.595077
2383.52, 0.595871
2384.61, 0.596367
2385.71, 0.596864
2386.81, 0.597558
2387.91, 0.597807
2389.01, 0.598402
2390.11, 0.598650
2391.22, 0.598799
2392.32, 0.598799
2393.42, 0.598303
2394.53, 0.598303
2395.64, 0.598452
2396.74, 0.598055
2397.85, 0.597807
2398.96, 0.597509
2400.07, 0.597211
2401.18, 0.597062
2402.3, 0.597112
2403.41, 0.596764
2404.52, 0.596467
2405.64, 0.596318
2406.76, 0.596169
2407.88, 0.595970
2408.99, 0.595772
2410.11, 0.595921
2411.23, 0.595871
2412.36, 0.595623
2413.48, 0.595474
2414.6, 0.595424
2415.73, 0.595524
2416.85, 0.595127
2417.98, 0.594630
2419.11, 0.594184
2420.24, 0.593985
2421.37, 0.593340
2422.5, 0.592447
2423.64, 0.591802
2424.77, 0.590958
2425.9, 0.590214
2427.04, 0.589618
2428.18, 0.588874
2429.31, 0.588229
2430.45, 0.587831
2431.59, 0.587335
2432.73, 0.586938
2433.88, 0.586492
2435.02, 0.585797
2436.16, 0.585301
2437.31, 0.584457
2438.45, 0.584010
2439.6, 0.583713
2440.75, 0.583216
2441.9, 0.582720
2443.05, 0.582025
2444.2, 0.581132
2445.35, 0.580338
2446.51, 0.579842
2447.67, 0.579147
2448.82, 0.578452
2449.98, 0.578055
2451.14, 0.577559
2452.3, 0.576864
2453.46, 0.575822
2454.62, 0.575028
2455.78, 0.574482
2456.94, 0.573837
2458.11, 0.573241
2459.28, 0.572795
2460.44, 0.572100
2461.61, 0.571703
2462.78, 0.571554
2463.95, 0.571355
2465.12, 0.571256
2466.3, 0.571207
2467.47, 0.570859
2468.65, 0.570809
2469.82, 0.570710
2471.0, 0.570958
2472.18, 0.571157
2473.36, 0.571306
2474.54, 0.571455
2475.72, 0.571653
2476.9, 0.571852
2478.08, 0.572249
2479.27, 0.572348
2480.46, 0.572001
2481.64, 0.572149
2482.83, 0.572397
2484.02, 0.572298
2485.21, 0.572249
2486.4, 0.572348
2487.6, 0.572199
2488.79, 0.571703
2489.99, 0.571554
2491.18, 0.571405
2492.38, 0.571107
2493.58, 0.570760
2494.78, 0.570412
2495.98, 0.570015
2497.18, 0.569618
2498.39, 0.569519
2499.59, 0.569668
2500.8, 0.569271
2502.01, 0.569073
2503.21, 0.569221
2504.42, 0.569271
2505.63, 0.569172
2506.84, 0.569271
2508.06, 0.569370
2509.27, 0.569023
2510.49, 0.568775
2511.7, 0.568775
2512.92, 0.568725
2514.14, 0.568626
2515.36, 0.568278
2516.58, 0.568130
2517.8, 0.567484
2519.03, 0.567435
2520.25, 0.567236
2521.48, 0.566492
2522.7, 0.565847
2523.93, 0.565549
2525.16, 0.565301
2526.39, 0.565251
2527.62, 0.565301
2528.86, 0.565202
2530.09, 0.565102
2531.33, 0.565350
2532.56, 0.565549
2533.8, 0.565946
2535.04, 0.566045
2536.28, 0.566591
2537.52, 0.567137
2538.76, 0.567435
2540.01, 0.567633
2541.25, 0.567435
2542.5, 0.566839
2543.75, 0.566939
2544.99, 0.566641
2546.24, 0.565896
2547.49, 0.565053
2548.75, 0.564556
2550.0, 0.563713
2551.26, 0.562869
2552.51, 0.562025
2553.77, 0.562373
2555.03, 0.562075
2556.29, 0.561628
2557.55, 0.561231
2558.81, 0.560983
2560.08, 0.559693
2561.34, 0.559296
2562.61, 0.559594
2563.88, 0.560388
2565.14, 0.561827
2566.41, 0.563117
2567.68, 0.563316
2568.96, 0.563167
2570.23, 0.564060
2571.51, 0.564854
2572.78, 0.564805
2574.06, 0.566442
2575.34, 0.566939
2576.62, 0.567286
2577.9, 0.568576
2579.18, 0.569122
2580.47, 0.568477
2581.75, 0.568527
2583.04, 0.567584
2584.32, 0.568775
2585.61, 0.569172
2586.9, 0.568527
2588.2, 0.568427
2589.49, 0.568874
2590.78, 0.568676
2592.08, 0.567187
2593.37, 0.563068
2594.67, 0.561628
2595.97, 0.564854
2597.27, 0.566988
2598.57, 0.567435
2599.88, 0.567633
2601.18, 0.567484
2602.49, 0.567782
2603.79, 0.567385
2605.1, 0.567683
2606.41, 0.569569
2607.72, 0.571306
2609.03, 0.572348
2610.35, 0.573936
2611.66, 0.575077
2612.98, 0.576020
2614.3, 0.576765
2615.62, 0.575673
2616.94, 0.576368
2618.26, 0.578303
2619.58, 0.578154
2620.91, 0.580338
2622.23, 0.582273
2623.56, 0.583018
2624.89, 0.582670
2626.22, 0.582571
2627.55, 0.584060
2628.88, 0.583266
2630.21, 0.582422
2631.55, 0.584258
2632.89, 0.583812
2634.22, 0.583613
2635.56, 0.582770
2636.9, 0.580387
2638.25, 0.575822
2639.59, 0.568477
2640.93, 0.556219
2642.28, 0.538254
2643.63, 0.515227
2644.98, 0.490860
2646.33, 0.472002
2647.68, 0.462375
2649.03, 0.461531
2650.39, 0.465501
2651.74, 0.469769
2653.1, 0.473243
2654.46, 0.475228
2655.82, 0.479496
2657.18, 0.486493
2658.54, 0.493987
2659.9, 0.499744
2661.27, 0.499992
2662.64, 0.490662
2664.01, 0.471258
2665.38, 0.443467
2666.74, 0.410614
2668.12, 0.376421
2669.49, 0.343022
2670.87, 0.314139
2672.24, 0.295578
2673.62, 0.284363
2675.0, 0.280144
2676.38, 0.283023
2677.76, 0.292104
2679.15, 0.305404
2680.54, 0.322675
2681.92, 0.341285
2683.31, 0.362029
2684.7, 0.383120
2686.09, 0.403418
2687.48, 0.421929
2688.88, 0.437313
2690.27, 0.449769
2691.67, 0.458901
2693.07, 0.465749
2694.47, 0.472548
2695.87, 0.479099
2697.27, 0.484508
2698.67, 0.488627
2700.08, 0.491654
2701.49, 0.495476
2702.9, 0.499843
2704.31, 0.503069
2705.72, 0.506195
2707.13, 0.508081
2708.54, 0.508428
2709.96, 0.507982
2711.38, 0.508677
2712.8, 0.508528
2714.22, 0.504458
2715.64, 0.495575
2717.06, 0.479893
2718.49, 0.457114
2719.91, 0.426941
2721.34, 0.405055
2722.77, 0.412152
2724.2, 0.434087
2725.63, 0.448826
2727.07, 0.456171
2728.5, 0.461729
2729.94, 0.465551
2731.38, 0.466494
2732.82, 0.466345
2734.26, 0.462722
2735.7, 0.453988
2737.15, 0.435973
2738.59, 0.409075
2740.04, 0.380143
2741.49, 0.357116
2742.94, 0.342724
2744.39, 0.336123
2745.84, 0.334734
2747.3, 0.335032
2748.76, 0.335081
2750.21, 0.334784
2751.67, 0.334188
2753.14, 0.331856
2754.6, 0.326297
2756.06, 0.320144
2757.53, 0.312551
2759.0, 0.303519
2760.46, 0.294685
2761.94, 0.286645
2763.41, 0.279747
2764.88, 0.273345
2766.36, 0.265951
2767.83, 0.257564
2769.31, 0.248036
2770.79, 0.236919
2772.27, 0.224661
2773.76, 0.211609
2775.24, 0.198359
2776.73, 0.185059
2778.22, 0.172305
2779.71, 0.160494
2781.2, 0.149774
2782.69, 0.140345
2784.18, 0.132256
2785.68, 0.125060
2787.18, 0.119105
2788.68, 0.113993
2790.18, 0.109576
2791.68, 0.106301
2793.19, 0.103671
2794.69, 0.101338
2796.2, 0.0997500
2797.71, 0.0986090
2799.22, 0.0980130
2800.73, 0.0977650
2802.24, 0.0978640
2803.76, 0.0986090
2805.28, 0.0997500
2806.8, 0.100842
2808.32, 0.102132
2809.84, 0.103720
2811.36, 0.105160
2812.89, 0.106698
2814.42, 0.108236
2815.94, 0.110023
2817.48, 0.112008
2819.01, 0.114092
2820.54, 0.116375
2822.08, 0.119055
2823.61, 0.121685
2825.15, 0.124216
2826.69, 0.126896
2828.23, 0.129626
2829.78, 0.132256
2831.32, 0.135085
2832.87, 0.137963
2834.42, 0.140692
2835.97, 0.143273
2837.52, 0.145903
2839.08, 0.148434
2840.63, 0.151015
2842.19, 0.153496
2843.75, 0.156325
2845.31, 0.159154
2846.87, 0.161883
2848.44, 0.164762
2850.0, 0.167888
2851.57, 0.171213
2853.14, 0.174538
2854.71, 0.178062
2856.28, 0.181833
2857.86, 0.185655
2859.43, 0.189823
2861.01, 0.194141
2862.59, 0.198657
2864.17, 0.203173
2865.76, 0.207689
2867.34, 0.212106
2868.93, 0.216820
2870.52, 0.221584
2872.11, 0.226398
2873.7, 0.231311
2875.29, 0.236423
2876.89, 0.241485
2878.49, 0.246795
2880.08, 0.252055
2881.69, 0.257465
2883.29, 0.263271
2884.89, 0.269028
2886.5, 0.274884
2888.11, 0.281137
2889.72, 0.287390
2891.33, 0.293544
2892.94, 0.299648
2894.56, 0.305801
2896.17, 0.311806
2897.79, 0.317662
2899.42, 0.323369
2901.04, 0.328779
2902.66, 0.334138
2904.29, 0.339151
2905.92, 0.343568
2907.55, 0.347587
2909.18, 0.351409
2910.81, 0.354882
2912.45, 0.357860
2914.08, 0.360689
2915.72, 0.363369
2917.36, 0.365602
2919.01, 0.367637
2920.65, 0.369473
2922.3, 0.371359
2923.94, 0.373195
2925.59, 0.374833
2927.25, 0.376321
2928.9, 0.377810
2930.56, 0.379497
2932.21, 0.381135
2933.87, 0.382574
2935.53, 0.384162
2937.2, 0.385353
2938.86, 0.386793
2940.53, 0.388232
2942.2, 0.389572
2943.87, 0.390961
2945.54, 0.392400
2947.22, 0.393592
2948.89, 0.394931
2950.57, 0.396371
2952.25, 0.397711
2953.93, 0.398951
2955.62, 0.400291
2957.3, 0.401780
2958.99, 0.403021
2960.68, 0.404212
2962.37, 0.405452
2964.07, 0.406693
2965.76, 0.407835
2967.46, 0.408976
2969.16, 0.409919
2970.86, 0.410961
2972.56, 0.412053
2974.27, 0.413095
2975.98, 0.414088
2977.69, 0.414981
2979.4, 0.415874
2981.11, 0.417015
2982.83, 0.418207
2984.54, 0.419348
2986.26, 0.420340
2987.98, 0.421432
2989.71, 0.422474
2991.43, 0.423517
2993.16, 0.424460
2994.89, 0.425452
2996.62, 0.426494
2998.35, 0.427388
3000.09, 0.428380
3001.83, 0.429472
3003.57, 0.430564
3005.31, 0.431507
3007.05, 0.432350
3008.79, 0.433243
3010.54, 0.434087
3012.29, 0.434931
3014.04, 0.435725
3015.8, 0.436469
3017.55, 0.437164
3019.31, 0.437958
3021.07, 0.438554
3022.83, 0.439348
3024.59, 0.440092
3026.36, 0.440836
3028.13, 0.441482
3029.9, 0.442127
3031.67, 0.442822
3033.44, 0.443367
3035.22, 0.444013
3037.0, 0.444707
3038.78, 0.445352
3040.56, 0.446097
3042.34, 0.446841
3044.13, 0.447387
3045.92, 0.447983
3047.71, 0.448529
3049.5, 0.448975
3051.3, 0.449670
3053.09, 0.450514
3054.89, 0.451457
3056.69, 0.452201
3058.5, 0.452747
3060.3, 0.453094
3062.11, 0.453640
3063.92, 0.454335
3065.73, 0.455129
3067.55, 0.455973
3069.36, 0.456767
3071.18, 0.457561
3073.0, 0.458305
3074.82, 0.458801
3076.65, 0.459447
3078.48, 0.460141
3080.31, 0.460836
3082.14, 0.461581
3083.97, 0.462275
3085.8, 0.462920
3087.64, 0.463665
3089.48, 0.464360
3091.33, 0.465154
3093.17, 0.465898
3095.02, 0.466692
3096.87, 0.467585
3098.72, 0.468379
3100.57, 0.469124
3102.43, 0.469868
3104.28, 0.470811
3106.14, 0.471704
3108.01, 0.472449
3109.87, 0.473292
3111.74, 0.474335
3113.61, 0.475228
3115.48, 0.476121
3117.35, 0.477114
3119.23, 0.477908
3121.1, 0.478603
3122.98, 0.479397
3124.87, 0.480240
3126.75, 0.480985
3128.64, 0.481828
3130.53, 0.482622
3132.42, 0.483615
3134.31, 0.484558
3136.21, 0.485253
3138.11, 0.485997
3140.01, 0.486741
3141.91, 0.487436
3143.82, 0.488081
3145.73, 0.488776
3147.64, 0.489471
3149.55, 0.490017
3151.46, 0.490811
3153.38, 0.491506
3155.3, 0.492300
3157.22, 0.493044
3159.14, 0.493590
3161.07, 0.494334
3163.0, 0.495029
3164.93, 0.495724
3166.86, 0.496319
3168.8, 0.496865
3170.74, 0.497411
3172.68, 0.498205
3174.62, 0.498850
3176.56, 0.499495
3178.51, 0.500289
3180.46, 0.500835
3182.42, 0.501431
3184.37, 0.501927
3186.33, 0.502572
3188.29, 0.503218
3190.25, 0.503912
3192.21, 0.504458
3194.18, 0.505004
3196.15, 0.505798
3198.12, 0.506493
3200.09, 0.506989
3202.07, 0.507485
3204.05, 0.507982
3206.03, 0.508528
3208.02, 0.509123
3210.0, 0.509520
3211.99, 0.510116
3213.98, 0.510612
3215.98, 0.511059
3217.97, 0.511505
3219.97, 0.512101
3221.97, 0.512696
3223.98, 0.513193
3225.98, 0.513639
3227.99, 0.514086
3230.0, 0.514632
3232.02, 0.515376
3234.03, 0.516021
3236.05, 0.516468
3238.07, 0.516766
3240.1, 0.517312
3242.12, 0.517957
3244.15, 0.518403
3246.18, 0.518800
3248.22, 0.519197
3250.25, 0.519644
3252.29, 0.520190
3254.33, 0.520785
3256.38, 0.521232
3258.43, 0.521530
3260.47, 0.521778
3262.53, 0.522274
3264.58, 0.522771
3266.64, 0.523168
3268.7, 0.523465
3270.76, 0.523763
3272.82, 0.524011
3274.89, 0.524458
3276.96, 0.524756
3279.04, 0.525153
3281.11, 0.525450
3283.19, 0.525599
3285.27, 0.525996
3287.35, 0.526195
3289.44, 0.526393
3291.53, 0.526741
3293.62, 0.526939
3295.71, 0.527088
3297.81, 0.527138
3299.91, 0.527287
3302.01, 0.527436
3304.11, 0.527684
3306.22, 0.528081
3308.33, 0.528428
3310.44, 0.528577
3312.56, 0.528676
3314.68, 0.528875
3316.8, 0.529024
3318.92, 0.529321
3321.05, 0.529818
3323.18, 0.530066
3325.31, 0.530314
3327.44, 0.530562
3329.58, 0.530959
3331.72, 0.531306
3333.86, 0.531604
3336.01, 0.531753
3338.16, 0.531803
3340.31, 0.531902
3342.46, 0.531852
3344.61, 0.531654
3346.77, 0.531455
3348.94, 0.531108
3351.1, 0.530661
3353.27, 0.530115
3355.44, 0.529520
3357.61, 0.528577
3359.79, 0.527386
3361.97, 0.525798
3364.15, 0.523614
3366.33, 0.521232
3368.52, 0.518900
3370.71, 0.516915
3372.9, 0.515326
3375.1, 0.514235
3377.3, 0.513490
3379.5, 0.513193
3381.71, 0.513490
3383.91, 0.513887
3386.12, 0.514334
3388.34, 0.514582
3390.55, 0.514632
3392.77, 0.514334
3394.99, 0.513441
3397.22, 0.512150
3399.45, 0.510513
3401.68, 0.508677
3403.91, 0.506840
3406.15, 0.504706
3408.39, 0.502572
3410.63, 0.500687
3412.87, 0.499049
3415.12, 0.497957
3417.37, 0.497560
3419.63, 0.498007
3421.88, 0.499198
3424.14, 0.500885
3426.41, 0.502771
3428.67, 0.504458
3430.94, 0.506046
3433.21, 0.507585
3435.49, 0.508776
3437.77, 0.509768
3440.05, 0.510562
3442.33, 0.511307
3444.62, 0.512150
3446.91, 0.512994
3449.2, 0.513738
3451.5, 0.514533
3453.8, 0.515376
3456.1, 0.516120
3458.41, 0.516815
3460.72, 0.517361
3463.03, 0.517510
3465.34, 0.517312
3467.66, 0.516964
3469.98, 0.516567
3472.31, 0.515922
3474.63, 0.514930
3476.96, 0.514135
3479.3, 0.513391
3481.64, 0.512547
3483.97, 0.511803
3486.32, 0.510860
3488.66, 0.509917
3491.01, 0.509123
3493.36, 0.508081
3495.72, 0.506840
3498.08, 0.505897
3500.44, 0.505351
3502.81, 0.505401
3505.18, 0.505897
3507.55, 0.507039
3509.92, 0.508528
3512.3, 0.509917
3514.68, 0.511059
3517.06, 0.512200
3519.45, 0.513242
3521.84, 0.513887
3524.24, 0.514433
3526.64, 0.515029
3529.04, 0.515376
3531.44, 0.515575
3533.85, 0.515525
3536.26, 0.515376
3538.67, 0.515227
3541.09, 0.515029
3543.51, 0.514681
3545.93, 0.514384
3548.36, 0.514036
3550.79, 0.513639
3553.22, 0.513193
3555.66, 0.512647
3558.1, 0.511803
3560.54, 0.510910
3562.99, 0.509868
3565.44, 0.508825
3567.9, 0.507734
3570.35, 0.506493
3572.81, 0.505252
3575.28, 0.504012
3577.75, 0.502622
3580.22, 0.501183
3582.69, 0.499694
3585.17, 0.498106
3587.65, 0.496617
3590.14, 0.495029
3592.62, 0.493391
3595.11, 0.491605
3597.61, 0.489868
3600.11, 0.488032
3602.61, 0.485997
3605.11, 0.483962
3607.62, 0.481878
3610.14, 0.479595
3612.65, 0.477163
3615.17, 0.474632
3617.69, 0.472151
3620.22, 0.469620
3622.75, 0.466891
3625.28, 0.464161
3627.82, 0.461432
3630.36, 0.458851
3632.9, 0.456171
3635.45, 0.453541
3638.0, 0.450960
3640.56, 0.448529
3643.12, 0.446097
3645.68, 0.443814
3648.24, 0.441531
3650.81, 0.439298
3653.39, 0.437363
3655.96, 0.435377
3658.54, 0.433442
3661.13, 0.431655
3663.71, 0.429918
3666.3, 0.428330
3668.9, 0.426742
3671.5, 0.425254
3674.1, 0.423864
3676.7, 0.422723
3679.31, 0.421532
3681.93, 0.420489
3684.54, 0.419546
3687.17, 0.418703
3689.79, 0.418008
3692.42, 0.417512
3695.05, 0.417115
3697.69, 0.416668
3700.32, 0.416271
3702.97, 0.416122
3705.61, 0.416271
3708.27, 0.416420
3710.92, 0.416618
3713.58, 0.416966
3716.24, 0.417412
3718.91, 0.417909
3721.58, 0.418306
3724.25, 0.418752
3726.93, 0.419149
3729.61, 0.419546
3732.29, 0.419894
3734.98, 0.420043
3737.67, 0.419943
3740.37, 0.419695
3743.07, 0.419199
3745.78, 0.418504
3748.49, 0.417561
3751.2, 0.416370
3753.91, 0.414931
3756.63, 0.413393
3759.36, 0.411656
3762.09, 0.409621
3764.82, 0.407487
3767.55, 0.405105
3770.29, 0.402673
3773.04, 0.400192
3775.78, 0.397562
3778.54, 0.394832
3781.29, 0.392152
3784.05, 0.389522
3786.82, 0.386842
3789.59, 0.384162
3792.36, 0.381681
3795.13, 0.379299
3797.92, 0.376967
3800.7, 0.374882
3803.49, 0.373046
3806.28, 0.371508
3809.08, 0.370217
3811.88, 0.369324
3814.68, 0.368778
3817.49, 0.368828
3820.31, 0.369324
3823.12, 0.370217
3825.94, 0.371557
3828.77, 0.373244
3831.6, 0.375478
3834.43, 0.378009
3837.27, 0.380738
3840.11, 0.383666
3842.96, 0.386892
3845.81, 0.390267
3848.67, 0.393840
3851.53, 0.397611
3854.39, 0.401284
3857.26, 0.405155
3860.13, 0.409075
3863.01, 0.413045
3865.89, 0.417015
3868.77, 0.420986
3871.66, 0.424906
3874.55, 0.428777
3877.45, 0.432449
3880.35, 0.436072
3883.26, 0.439497
3886.17, 0.442871
3889.09, 0.445948
3892.01, 0.448777
3894.93, 0.451605
3897.86, 0.454236
3900.79, 0.456667
3903.73, 0.458901
3906.67, 0.460886
3909.62, 0.462722
3912.57, 0.464459
3915.52, 0.466047
3918.48, 0.467486
3921.45, 0.468826
3924.42, 0.469918
3927.39, 0.470861
3930.37, 0.471704
3933.35, 0.472399
3936.34, 0.472945
3939.33, 0.473441
3942.32, 0.473689
3945.32, 0.473838
3948.33, 0.473888
3951.34, 0.473640
3954.35, 0.473342
3957.37, 0.473094
3960.39, 0.472747
3963.42, 0.472300
3966.45, 0.471903
3969.49, 0.471605
3972.53, 0.471208
3975.58, 0.470861
3978.63, 0.470712
3981.68, 0.470513
3984.75, 0.470464
3987.81, 0.470613
3990.88, 0.470960
3993.95, 0.471307
3997.03, 0.471655
4000.12, 0.472201
4003.21, 0.472846
4006.3, 0.473392
4009.4, 0.474086
4012.5, 0.474881
4015.61, 0.475675
4018.72, 0.476518
4021.84, 0.477461
4024.96, 0.478454
4028.09, 0.479297
4031.22, 0.480290
4034.36, 0.481282
4037.5, 0.482275
4040.65, 0.483218
4043.8, 0.484210
4046.96, 0.485054
4050.12, 0.485749
4053.29, 0.486295
4056.46, 0.486841
4059.64, 0.487238
4062.82, 0.487436
4066.0, 0.487436
4069.19, 0.487287
4072.39, 0.486890
4075.59, 0.486245
4078.8, 0.485401
4082.01, 0.484508
4085.23, 0.483565
4088.45, 0.482325
4091.68, 0.480935
4094.91, 0.479347
4098.15, 0.477560
4101.39, 0.475873
4104.63, 0.474186
4107.89, 0.472250
4111.14, 0.470216
4114.41, 0.468131
4117.67, 0.465898
4120.95, 0.463566
4124.23, 0.461332
4127.51, 0.459000
4130.8, 0.456618
4134.09, 0.454087
4137.39, 0.451457
4140.7, 0.448926
4144.01, 0.446345
4147.32, 0.443715
4150.64, 0.441035
4153.97, 0.438256
4157.3, 0.435526
4160.64, 0.433045
4163.98, 0.430514
4167.33, 0.428182
4170.68, 0.425799
4174.04, 0.423517
4177.4, 0.421283
4180.77, 0.419100
4184.14, 0.417015
4187.52, 0.415080
4190.91, 0.413145
4194.3, 0.411358
4197.69, 0.409373
4201.1, 0.407388
4204.5, 0.405452
4207.92, 0.403318
4211.34, 0.401085
4214.76, 0.398802
4218.19, 0.396668
4221.62, 0.394584
4225.06, 0.392549
4228.51, 0.390763
4231.96, 0.389175
4235.42, 0.387686
4238.88, 0.386296
4242.35, 0.385353
4245.83, 0.384659
4249.31, 0.384212
4252.79, 0.383964
4256.28, 0.383319
4259.78, 0.381582
4263.29, 0.379547
4266.79, 0.377909
4270.31, 0.376570
4273.83, 0.375527
4277.35, 0.374485
4280.89, 0.373542
4284.42, 0.372699
4287.97, 0.371954
4291.52, 0.371359
4295.07, 0.370714
4298.63, 0.370118
4302.2, 0.369572
4305.78, 0.369125
4309.35, 0.368431
4312.94, 0.367934
4316.53, 0.367289
4320.13, 0.366644
4323.73, 0.366049
4327.34, 0.365403
4330.96, 0.364709
4334.58, 0.364014
4338.21, 0.363269
4341.84, 0.362575
4345.48, 0.361930
4349.12, 0.361185
4352.77, 0.360490
4356.43, 0.359845
4360.1, 0.359250
4363.76, 0.358605
4367.44, 0.357959
4371.12, 0.357414
4374.81, 0.356917
4378.51, 0.356471
4382.21, 0.355875
4385.92, 0.355379
4389.63, 0.355031
4393.35, 0.354585
4397.08, 0.354237
4400.81, 0.353890
4404.55, 0.353642
4408.29, 0.353394
4412.04, 0.353245
4415.8, 0.353046
4419.57, 0.352897
4423.34, 0.352749
4427.12, 0.352649
4430.9, 0.352649
4434.69, 0.352798
4438.49, 0.352947
4442.29, 0.353096
4446.1, 0.353245
4449.92, 0.353394
4453.74, 0.353691
4457.57, 0.354287
4461.41, 0.354833
4465.25, 0.355379
4469.1, 0.355875
4472.95, 0.356619
4476.82, 0.357463
4480.69, 0.358257
4484.56, 0.359101
4488.44, 0.360093
4492.33, 0.361235
4496.23, 0.362376
4500.13, 0.363666
4504.04, 0.365006
4507.96, 0.366495
4511.88, 0.367984
4515.81, 0.369522
4519.75, 0.371061
4523.69, 0.372748
4527.65, 0.374535
4531.6, 0.376222
4535.57, 0.377909
4539.54, 0.379696
4543.52, 0.381433
4547.5, 0.383170
4551.5, 0.384808
4555.5, 0.386445
4559.5, 0.388182
4563.52, 0.389919
4567.54, 0.391606
4571.56, 0.393294
4575.6, 0.394882
4579.64, 0.396470
4583.69, 0.397959
4587.75, 0.399398
4591.81, 0.400837
4595.88, 0.402177
4599.96, 0.403318
4604.04, 0.404509
4608.14, 0.405403
4612.24, 0.406147
4616.34, 0.406792
4620.46, 0.407239
4624.58, 0.407537
4628.71, 0.407636
4632.84, 0.407487
4636.99, 0.407289
4641.14, 0.406842
4645.3, 0.406395
4649.47, 0.405800
4653.64, 0.405155
4657.82, 0.404361
4662.01, 0.403517
4666.21, 0.402524
4670.41, 0.401482
4674.62, 0.400390
4678.84, 0.399398
4683.07, 0.398306
4687.3, 0.397115
4691.54, 0.395825
4695.79, 0.394485
4700.05, 0.393194
4704.31, 0.391855
4708.59, 0.390316
4712.87, 0.388827
4717.15, 0.387289
4721.45, 0.385751
4725.76, 0.384162
4730.07, 0.382574
4734.39, 0.380788
4738.72, 0.378952
4743.05, 0.377215
4747.39, 0.375378
4751.75, 0.373443
4756.1, 0.371557
4760.47, 0.369622
4764.85, 0.367686
4769.23, 0.365751
4773.62, 0.363815
4778.02, 0.361930
4782.43, 0.360242
4786.85, 0.358654
4791.27, 0.357066
4795.7, 0.355528
4800.14, 0.354039
4804.59, 0.352600
4809.05, 0.351160
4813.51, 0.349771
4817.99, 0.348431
4822.47, 0.346942
4826.96, 0.345553
4831.46, 0.344213
4835.96, 0.342773
4840.48, 0.341285
4845.0, 0.339895
4849.54, 0.338555
4854.08, 0.337166
4858.63, 0.335776
4863.18, 0.334535
4867.75, 0.333344
4872.33, 0.332054
4876.91, 0.330764
4881.5, 0.329622
4886.1, 0.328679
4890.71, 0.327737
4895.33, 0.326744
4899.96, 0.325900
4904.59, 0.325156
4909.24, 0.324560
4913.89, 0.323866
4918.55, 0.323320
4923.22, 0.322724
4927.9, 0.322228
4932.59, 0.321682
4937.29, 0.321235
4942.0, 0.320590
4946.71, 0.319796
4951.44, 0.319052
4956.17, 0.318258
4960.91, 0.317315
4965.67, 0.316273
4970.43, 0.315231
4975.2, 0.314337
4979.98, 0.313494
4984.76, 0.312650
4989.56, 0.311856
4994.37, 0.311112
4999.18, 0.310466
5004.01, 0.309970
5008.84, 0.309375
5013.69, 0.308680
5018.54, 0.308035
5023.4, 0.307538
5028.28, 0.307092
5033.16, 0.306645
5038.05, 0.306198
5042.95, 0.305603
5047.86, 0.304958
5052.78, 0.304213
5057.71, 0.303519
5062.65, 0.302824
5067.6, 0.301980
5072.56, 0.301136
5077.53, 0.300243
5082.5, 0.299400
5087.49, 0.298457
5092.49, 0.297613
5097.5, 0.296918
5102.51, 0.296223
5107.54, 0.295479
5112.58, 0.294784
5117.62, 0.294139
5122.68, 0.293643
5127.75, 0.293147
5132.82, 0.292700
5137.91, 0.292204
5143.01, 0.291707
5148.12, 0.291211
5153.23, 0.291062
5158.36, 0.290715
5163.5, 0.290219
5168.65, 0.289772
5173.81, 0.289325
5178.98, 0.288928
5184.15, 0.288382
5189.34, 0.287836
5194.54, 0.287340
5199.75, 0.286745
5204.98, 0.286298
5210.21, 0.285653
5215.45, 0.285057
5220.7, 0.284710
5225.96, 0.284363
5231.23, 0.283916
5236.52, 0.283618
5241.81, 0.283370
5247.12, 0.283023
5252.44, 0.282725
5257.76, 0.282576
5263.1, 0.282477
5268.45, 0.282328
5273.81, 0.282080
5279.18, 0.281980
5284.56, 0.281782
5289.95, 0.281385
5295.36, 0.281236
5300.77, 0.281186
5306.2, 0.281038
5311.63, 0.280938
5317.08, 0.280690
5322.54, 0.280293
5328.01, 0.279747
5333.49, 0.279152
5338.98, 0.278507
5344.49, 0.277514
5350.0, 0.276373
5355.53, 0.275628
5361.07, 0.274636
5366.62, 0.273445
5372.18, 0.272055
5377.75, 0.270616
5383.34, 0.269028
5388.93, 0.267390
5394.54, 0.265604
5400.16, 0.263718
5405.79, 0.261683
5411.44, 0.259549
5417.09, 0.257018
5422.76, 0.254686
5428.43, 0.252800
5434.12, 0.250616
5439.83, 0.248234
5445.54, 0.245802
5451.26, 0.243321
5457.0, 0.240691
5462.75, 0.238011
5468.52, 0.235728
5474.29, 0.233445
5480.08, 0.231162
5485.88, 0.229128
5491.69, 0.227043
5497.51, 0.224860
5503.35, 0.222775
5509.2, 0.220989
5515.06, 0.219252
5520.93, 0.217465
5526.82, 0.216076
5532.71, 0.214885
5538.63, 0.213644
5544.55, 0.212503
5550.49, 0.211411
5556.44, 0.210766
5562.4, 0.210567
5568.37, 0.210567
5574.36, 0.210369
5580.36, 0.210815
5586.37, 0.211907
5592.4, 0.212850
5598.44, 0.213545
5604.49, 0.214289
5610.56, 0.215034
5616.63, 0.215629
5622.73, 0.216175
5628.83, 0.216572
5634.95, 0.216622
5641.08, 0.216522
5647.23, 0.217019
5653.39, 0.217267
5659.56, 0.217515
5665.74, 0.217465
5671.94, 0.217068
5678.15, 0.216820
5684.38, 0.216572
5690.62, 0.216026
5696.87, 0.215728
5703.14, 0.215133
5709.42, 0.214389
5715.72, 0.213892
5722.03, 0.213396
5728.35, 0.212900
5734.69, 0.212155
5741.03, 0.211262
5747.4, 0.210319
5753.78, 0.209624
5760.17, 0.208284
5766.58, 0.206944
5773.0, 0.206647
5779.44, 0.206002
5785.88, 0.205208
5792.35, 0.204215
5798.83, 0.203222
5805.32, 0.202131
5811.83, 0.200741
5818.35, 0.199004
5824.89, 0.198012
5831.45, 0.197317
5838.01, 0.196523
5844.59, 0.195332
5851.19, 0.193942
5857.8, 0.192404
5864.43, 0.191064
5871.07, 0.189774
5877.73, 0.187640
5884.4, 0.186548
5891.09, 0.185754
5897.79, 0.184662
5904.5, 0.184265
5911.23, 0.183272
5917.98, 0.182230
5924.75, 0.181039
5931.53, 0.179253
5938.32, 0.178111
5945.13, 0.178012
5951.96, 0.177218
5958.8, 0.176077
5965.65, 0.174439
5972.53, 0.173297
5979.42, 0.172156
5986.32, 0.170717
5993.24, 0.169675
6000.18, 0.168781
6007.13, 0.167342
6014.1, 0.166052
6021.08, 0.165208
6028.09, 0.164315
6035.1, 0.163025
6042.14, 0.161040
6049.19, 0.159749
6056.25, 0.160494
6063.34, 0.160295
6070.44, 0.159402
6077.55, 0.159402
6084.69, 0.159749
6091.84, 0.159451
6099.0, 0.159203
6106.19, 0.158558
6113.39, 0.158062
6120.61, 0.158409
6127.84, 0.158459
6135.09, 0.158012
6142.36, 0.157566
6149.65, 0.157218
6156.95, 0.156722
6164.27, 0.156375
6171.61, 0.156077
6178.97, 0.155134
6186.34, 0.154489
6193.73, 0.154588
6201.14, 0.154340
6208.57, 0.153893
6216.01, 0.153496
6223.47, 0.153198
6230.95, 0.152901
6238.45, 0.152553
6245.97, 0.152156
6253.5, 0.151710
6261.06, 0.151263
6268.63, 0.150816
6276.21, 0.150370
6283.82, 0.149923
6291.45, 0.149377
6299.1, 0.148782
6306.76, 0.148186
6314.44, 0.147591
6322.14, 0.146945
6329.86, 0.146151
6337.6, 0.145060
6345.35, 0.144117
6353.13, 0.143869
6360.92, 0.143174
6368.74, 0.142132
6376.57, 0.141487
6384.43, 0.140792
6392.3, 0.139650
6400.19, 0.138211
6408.1, 0.135928
6416.03, 0.134092
6423.98, 0.133248
6431.95, 0.132107
6439.94, 0.130916
6447.95, 0.129675
6455.98, 0.128484
6464.03, 0.127194
6472.1, 0.125606
6480.19, 0.123869
6488.31, 0.121685
6496.44, 0.119849
6504.59, 0.118261
6512.76, 0.116077
6520.95, 0.113199
6529.16, 0.110519
6537.4, 0.107641
6545.65, 0.104862
6553.92, 0.102182
6562.22, 0.100098
6570.54, 0.0982120
6578.88, 0.0968220
6587.23, 0.0956310
6595.61, 0.0946390
6604.02, 0.0934970
6612.44, 0.0921080
6620.89, 0.0903710
6629.35, 0.0883860
6637.84, 0.0864010
6646.35, 0.0850110
6654.88, 0.0831750
6663.44, 0.0807430
6672.01, 0.0780140
6680.61, 0.0754330
6689.23, 0.0732490
6697.88, 0.0713640
6706.54, 0.0695770
6715.23, 0.0681380
6723.94, 0.0669470
6732.67, 0.0660040
6741.42, 0.0647630
6750.2, 0.0633240
6759.0, 0.0617360
6767.82, 0.0600980
6776.67, 0.0582620
6785.54, 0.0563760
6794.44, 0.0544410
6803.35, 0.0526050
6812.29, 0.0504710
6821.26, 0.0482370
6830.24, 0.0461030
6839.25, 0.0440690
6848.29, 0.0417860
6857.35, 0.0396020
6866.43, 0.0375180
6875.54, 0.0357810
6884.67, 0.0338460
6893.82, 0.0319600
6903.0, 0.0300240
6912.2, 0.0282870
6921.43, 0.0265500
6930.69, 0.0251110
6939.96, 0.0237710
6949.27, 0.0227290
6958.59, 0.0216870
6967.95, 0.0209920
6977.33, 0.0205460
6986.73, 0.0201490
6996.16, 0.0197520
7005.61, 0.0196520
7015.09, 0.0195530
7024.6, 0.0196520
7034.13, 0.0197520
7043.69, 0.0199500
7053.27, 0.0202480
7062.88, 0.0208430
7072.52, 0.0213400
7082.18, 0.0218850
7091.87, 0.0225310
7101.58, 0.0232750
7111.32, 0.0240190
7121.09, 0.0248130
7130.88, 0.0254590
7140.71, 0.0261530
7150.56, 0.0268480
7160.43, 0.0275430
7170.33, 0.0282380
7180.27, 0.0292800
7190.23, 0.0303720
7200.21, 0.0317610
7210.23, 0.0333000
7220.27, 0.0349870
7230.34, 0.0365750
7240.44, 0.0380640
7250.56, 0.0393540
7260.72, 0.0406440
7270.9, 0.0418360
7281.12, 0.0428280
7291.36, 0.0436220
7301.63, 0.0442670
7311.93, 0.0448630
7322.25, 0.0455080
7332.61, 0.0458060
7343.0, 0.0459550
7353.41, 0.0459550
7363.86, 0.0457560
7374.33, 0.0453090
7384.83, 0.0446150
7395.37, 0.0436720
7405.93, 0.0424810
7416.53, 0.0408930
7427.15, 0.0391560
7437.81, 0.0373190
7448.5, 0.0353840
7459.22, 0.0333490
7469.96, 0.0312150
7480.74, 0.0293300
7491.55, 0.0277910
7502.39, 0.0265500
7513.27, 0.0260050
7524.17, 0.0259550
7535.11, 0.0261040
7546.08, 0.0264510
7557.08, 0.0269970
7568.11, 0.0275430
7579.17, 0.0280890
7590.27, 0.0286350
7601.4, 0.0291310
7612.56, 0.0296270
7623.76, 0.0302720
7634.98, 0.0308180
7646.24, 0.0313640
7657.54, 0.0319600
7668.87, 0.0325060
7680.23, 0.0330520
7691.62, 0.0336470
7703.05, 0.0341930
7714.51, 0.0347390
7726.01, 0.0351360
7737.54, 0.0354830
7749.11, 0.0359300
7760.71, 0.0364260
7772.35, 0.0370220
7784.02, 0.0377170
7795.72, 0.0384610
7807.46, 0.0394040
7819.23, 0.0403470
7831.04, 0.0412900
7842.89, 0.0420840
7854.77, 0.0429270
7866.69, 0.0437710
7878.65, 0.0444660
7890.64, 0.0450120
7902.67, 0.0456570
7914.74, 0.0462030
7926.84, 0.0465000
7938.98, 0.0466990
7951.16, 0.0471460
7963.37, 0.0472950
7975.62, 0.0475430
7987.91, 0.0478900
8000.24, 0.0480890
8012.6, 0.0481880
8025.01, 0.0481380
8037.45, 0.0480390
8049.93, 0.0479400
8062.45, 0.0477910
8075.01, 0.0475920
8087.61, 0.0475920
8100.24, 0.0476920
8112.91, 0.0478400
8125.63, 0.0481380
8138.39, 0.0484860
8151.18, 0.0490310
8164.02, 0.0497760
8176.9, 0.0507190
8189.81, 0.0519100
8202.77, 0.0532990
8215.77, 0.0545900
8228.82, 0.0558800
8241.9, 0.0571210
8255.02, 0.0580640
8268.19, 0.0587090
8281.39, 0.0593540
8294.65, 0.0597510
8307.94, 0.0597510
8321.28, 0.0593540
8334.66, 0.0589070
8348.08, 0.0583610
8361.54, 0.0576170
8375.05, 0.0566240
8388.6, 0.0555820
8402.2, 0.0544900
8415.84, 0.0532500
8429.52, 0.0519590
8443.25, 0.0507680
8457.02, 0.0494780
8470.84, 0.0481380
8484.7, 0.0467490
8498.61, 0.0453590
8512.57, 0.0440690
8526.57, 0.0428280
8540.62, 0.0414880
8554.71, 0.0401980
8568.85, 0.0390560
8583.04, 0.0379650
8597.27, 0.0368730
8611.55, 0.0357810
8625.88, 0.0347890
8640.26, 0.0339450
8654.68, 0.0332500
8669.16, 0.0327040
8683.68, 0.0320590
8698.25, 0.0315630
8712.87, 0.0312150
8727.53, 0.0309670
8742.25, 0.0308680
8757.02, 0.0313640
8771.83, 0.0321090
8786.7, 0.0333000
8801.62, 0.0350860
8816.59, 0.0372700
8831.61, 0.0398010
8846.68, 0.0429270
8861.8, 0.0462520
8876.97, 0.0496770
8892.2, 0.0529520
8907.48, 0.0562270
8922.81, 0.0593040
8938.2, 0.0618850
8953.63, 0.0639200
8969.13, 0.0657060
8984.67, 0.0672940
9000.27, 0.0685840
9015.92, 0.0695270
9031.63, 0.0701730
9047.39, 0.0703710
9063.21, 0.0702220
9079.08, 0.0698250
9095.01, 0.0689810
9111.0, 0.0676420
9127.04, 0.0659050
9143.13, 0.0641680
9159.28, 0.0623310
9175.49, 0.0602470
9191.76, 0.0583120
9208.09, 0.0564750
9224.47, 0.0547390
9240.92, 0.0531500
9257.42, 0.0519590
9273.98, 0.0508680
9290.6, 0.0501730
9307.28, 0.0501730
9324.02, 0.0507190
9340.82, 0.0517610
9357.68, 0.0533490
9374.6, 0.0554330
9391.58, 0.0582120
9408.62, 0.0618850
9425.73, 0.0662020
9442.9, 0.0708670
9460.13, 0.0756810
9477.42, 0.0799490
9494.78, 0.0834730
9512.2, 0.0861520
9529.69, 0.0876410
9547.24, 0.0880380
9564.86, 0.0875920
9582.54, 0.0864010
9600.28, 0.0848620
9618.1, 0.0832740
9635.97, 0.0816360
9653.92, 0.0801970
9671.93, 0.0790560
9690.01, 0.0779140
9708.16, 0.0766240
9726.37, 0.0751850
9744.65, 0.0737950
9763.0, 0.0726040
9781.43, 0.0716120
9799.92, 0.0714130
9818.48, 0.0723070
9837.1, 0.0738450
9855.8, 0.0759790
9874.58, 0.0790060
9893.42, 0.0829270
9912.34, 0.0869460
9931.33, 0.0905200
9950.39, 0.0934970
9969.52, 0.0957800
9988.74, 0.0974180
10008.0, 0.0986090
10027.4, 0.0995020
10046.8, 0.100048
10066.3, 0.0999980
10085.9, 0.0995520
10105.6, 0.0987580
10125.3, 0.0974670
10145.1, 0.0959790
10165.0, 0.0943410
10185.0, 0.0923560
10205.0, 0.0905200
10225.2, 0.0888320
10245.4, 0.0871950
10265.7, 0.0854080
10286.0, 0.0836710
10306.5, 0.0821820
10327.0, 0.0805940
10347.6, 0.0788080
10368.3, 0.0773680
10389.1, 0.0760290
10409.9, 0.0748370
10430.9, 0.0735970
10451.9, 0.0725050
10473.0, 0.0716610
10494.2, 0.0708180
10515.5, 0.0699240
10536.9, 0.0691800
10558.4, 0.0686840
10579.9, 0.0683360
10601.5, 0.0680880
10623.3, 0.0681380
10645.1, 0.0681870
10667.0, 0.0683360
10689.0, 0.0684850
10711.1, 0.0687330
10733.2, 0.0688330
10755.5, 0.0686340
10777.9, 0.0683860
10800.3, 0.0683360
10822.9, 0.0684360
10845.5, 0.0684360
10868.2, 0.0685840
10891.1, 0.0688330
10914.0, 0.0694780
10937.0, 0.0703710
10960.2, 0.0714630
10983.4, 0.0725050
11006.7, 0.0735470
11030.1, 0.0750360
11053.6, 0.0764750
11077.3, 0.0778150
11101.0, 0.0793040
11124.8, 0.0810900
11148.7, 0.0828770
11172.7, 0.0844650
11196.9, 0.0859540
11221.1, 0.0876910
11245.4, 0.0889810
11269.9, 0.0900230
11294.4, 0.0910650
11319.1, 0.0917110
11343.9, 0.0918100
11368.8, 0.0915120
11393.7, 0.0909170
11418.8, 0.0902710
11444.0, 0.0891800
11469.4, 0.0878400
11494.8, 0.0866980
11520.3, 0.0856560
11546.0, 0.0844150
11571.8, 0.0829270
11597.7, 0.0811900
11623.7, 0.0797510
11649.8, 0.0788080
11676.0, 0.0777160
11702.4, 0.0765250
11728.9, 0.0753830
11755.5, 0.0739940
11782.2, 0.0725550
11809.0, 0.0707680
11836.0, 0.0687830
11863.0, 0.0666490
11890.3, 0.0643660
11917.6, 0.0620340
11945.0, 0.0594530
11972.6, 0.0569220
12000.4, 0.0548870
12028.2, 0.0526050
12056.2, 0.0500240
12084.3, 0.0476920
12112.5, 0.0459550
12140.9, 0.0442180
12169.4, 0.0427780
12198.0, 0.0417860
12226.8, 0.0412900
12255.7, 0.0412900
12284.7, 0.0416870
12313.9, 0.0420840
12343.2, 0.0427290
12372.7, 0.0441680
12402.3, 0.0466490
12432.0, 0.0496770
12461.9, 0.0527530
12491.9, 0.0554830
12522.1, 0.0569220
12552.4, 0.0563760
12582.9, 0.0549370
12613.5, 0.0529520
12644.3, 0.0506200
12675.2, 0.0483370
12706.3, 0.0464510
12737.5, 0.0448130
12768.9, 0.0433740
12800.4, 0.0420340
12832.1, 0.0407440
12863.9, 0.0388580
12895.9, 0.0372200
12928.1, 0.0357310
12960.4, 0.0338460
12992.9, 0.0321580
13025.5, 0.0310660
13058.3, 0.0303220
13091.3, 0.0299250
13124.4, 0.0292800
13157.8, 0.0285360
13191.2, 0.0273940
13224.9, 0.0261530
13258.7, 0.0250120
13292.7, 0.0242680
13326.9, 0.0237220
13361.2, 0.0231760
13395.7, 0.0231260
13430.4, 0.0235730
13465.3, 0.0237710
13500.4, 0.0240190
13535.7, 0.0241680
13571.1, 0.0240190
13606.7, 0.0238210
13642.5, 0.0232750
13678.5, 0.0231260
13714.7, 0.0239700
13751.1, 0.0260050
13787.6, 0.0287840
13824.4, 0.0315630
13861.4, 0.0341930
13898.5, 0.0362770
13935.9, 0.0372200
13973.5, 0.0373690
14011.2, 0.0374680
14049.2, 0.0369720
14087.4, 0.0361280
14125.8, 0.0348880
14164.3, 0.0339940
14203.2, 0.0330520
14242.2, 0.0321580
14281.4, 0.0311160
14320.9, 0.0298750
14360.5, 0.0288830
14400.4, 0.0281380
14440.5, 0.0273940
14480.9, 0.0268480
14521.4, 0.0262530
14562.2, 0.0259550
14603.3, 0.0257070
14644.5, 0.0252600
14686.0, 0.0250120
14727.7, 0.0249130
14769.7, 0.0243670
14811.9, 0.0237710
14854.3, 0.0234240
14897.0, 0.0230770
14939.9, 0.0222330
14983.1, 0.0216870
15026.5, 0.0216870
15070.2, 0.0220340
15114.2, 0.0227290
15158.3, 0.0238210
15202.8, 0.0251610
15247.5, 0.0265500
15292.5, 0.0277410
15337.7, 0.0282870
15383.2, 0.0284360
15429.0, 0.0293300
15475.1, 0.0307190
15521.4, 0.0328530
15568.0, 0.0363770
15614.9, 0.0410910
15662.1, 0.0471460
15709.6, 0.0553840
15757.3, 0.0644650
15805.4, 0.0737950
15853.7, 0.0832240
15902.3, 0.0913630
15951.2, 0.0983110
16000.5, 0.104018
16050.0, 0.107641
16099.8, 0.109626
16150.0, 0.109824
16200.5, 0.109279
16251.3, 0.107641
16302.4, 0.105557
16353.8, 0.102777
16405.5, 0.100098
16457.6, 0.0974180
16510.0, 0.0953830
16562.8, 0.0940930
16615.9, 0.0934970
16669.3, 0.0934970
16723.1, 0.0943900
16777.2, 0.0958300
16831.7, 0.0968220
16886.5, 0.0973180
16941.7, 0.0975670
16997.2, 0.0970700
17053.1, 0.0958790
17109.4, 0.0941920
17166.1, 0.0920580
17223.1, 0.0894280
17280.5, 0.0870460
17338.3, 0.0845150
17396.5, 0.0823810
17455.1, 0.0798000
17514.0, 0.0767730
17573.4, 0.0742920
17633.2, 0.0728030
17693.4, 0.0715620
17754.0, 0.0705200
17815.0, 0.0701230
17876.4, 0.0702720
17938.3, 0.0703710
18000.5, 0.0713140
18063.3, 0.0717610
18126.4, 0.0731010
18190.0, 0.0752350
18254.1, 0.0779640
18318.6, 0.0810410
18383.5, 0.0848620
18449.0, 0.0885840
18514.9, 0.0916610
18581.2, 0.0938940
18648.0, 0.0968720
18715.4, 0.100395
18783.2, 0.103125
18851.5, 0.105507
18920.3, 0.107442
18989.6, 0.109874
19059.4, 0.112306
19129.7, 0.114043
19200.6, 0.116623
19272.0, 0.119651
19343.9, 0.121735
19416.3, 0.122281
19489.3, 0.122976
19562.8, 0.123670
19637.0, 0.123571
19711.6, 0.124464
19786.8, 0.124812
19862.6, 0.123323
19939.0, 0.122529
20016.0, 0.121487
20093.6, 0.120693
20171.8, 0.120792
20250.6, 0.120345
20330.0, 0.118460
20410.0, 0.116971
20490.7, 0.115383
20572.0, 0.113001
20654.0, 0.110222
20736.6, 0.107045
20819.9, 0.104266
20903.8, 0.101686
20988.5, 0.0985590
21073.8, 0.0954820
21159.8, 0.0924050
21246.5, 0.0895270
21334.0, 0.0871950
21422.1, 0.0853090
21511.0, 0.0835720
21600.7, 0.0829760
21691.0, 0.0818850
21782.1, 0.0816860
21874.0, 0.0807930
21966.7, 0.0806930
22060.2, 0.0811400
22154.5, 0.0812890
22249.6, 0.0815870
22345.5, 0.0815370
22442.2, 0.0813880
22539.8, 0.0814870
22638.2, 0.0795020
22737.5, 0.0780630
22837.7, 0.0778150
22938.7, 0.0769220
23040.7, 0.0749370
23143.5, 0.0778650
23247.3, 0.0808450
23352.1, 0.0837360
23457.7, 0.0854000
23564.4, 0.0880280
23672.0, 0.0892540
23780.5, 0.0881150
23890.1, 0.0892540
24000.7, 0.0914440
24112.3, 0.0924950
24225.0, 0.0944220
24338.7, 0.0949470
24453.5, 0.0938960
24569.4, 0.0943340
24686.4, 0.0937210
24804.5, 0.0930200
24923.8, 0.0916190
25044.2, 0.0897800
25165.8, 0.0895170
25288.6, 0.0903050
25412.5, 0.0897800
25537.7, 0.0896040
25664.1, 0.0889910
25791.8, 0.0889910
25920.8, 0.0898670
26051.1, 0.0896040
26182.6, 0.0875900
26315.5, 0.0868890
26449.8, 0.0858380
26585.4, 0.0840860
26722.5, 0.0830350
26860.9, 0.0856630
27000.8, 0.0890790
27142.1, 0.0899550
27285.0, 0.0900420
27429.4, 0.0889040
27575.3, 0.0903930
27722.7, 0.0927580
27871.8, 0.0924070
28022.4, 0.0897800
28174.7, 0.0872390
28328.7, 0.0866260
28484.4, 0.0854000
28641.7, 0.0836480
28800.9, 0.0839990
28961.8, 0.0827720
29124.5, 0.0817210
29289.0, 0.0827720
29455.4, 0.0819840
29623.8, 0.0797940
29794.0, 0.0815460
29966.3, 0.0853120
30140.5, 0.0867140
30316.7, 0.0894290
30495.1, 0.0938090
30675.5, 0.0994140
30858.1, 0.100991
31042.8, 0.104495
31229.8, 0.105896
31419.1, 0.107560
31610.7, 0.107298
31804.6, 0.104057
32000.9, 0.107298
32199.7, 0.110889
32400.9, 0.111327
32604.8, 0.110801
32811.1, 0.107473
33020.1, 0.103794
33231.8, 0.109137
33446.2, 0.115356
33663.4, 0.118947
33883.4, 0.121575
34106.3, 0.125253
34332.1, 0.128669
34561.0, 0.129107
34792.9, 0.129020
35028.0, 0.129195
35266.3, 0.126304
35507.8, 0.120086
35752.7, 0.114392
36001.0, 0.112027
36252.8, 0.115356
36508.1, 0.116582
36767.0, 0.119210
37029.7, 0.121925
37296.1, 0.126042
37566.3, 0.132173
37840.5, 0.136465
38118.8, 0.138655
38401.2, 0.140669
38687.8, 0.141458
38978.6, 0.139268
39273.9, 0.131647
39573.7, 0.130246
39878.1, 0.131472
40187.3, 0.126129
40501.2, 0.122976
40820.0, 0.122188
41144.0, 0.114567
41473.2, 0.104232
41807.6, 0.101079
42147.5, 0.0988890
42493.0, 0.0942470
42844.2, 0.0926700
43201.2, 0.0924070
43564.3, 0.0934580
43933.5, 0.0931960
44309.0, 0.0999400
44691.0, 0.110188
45079.6, 0.113604
45475.0, 0.113429
45877.5, 0.116582
46287.1, 0.119472
46704.2, 0.121575
47128.7, 0.122451
47561.1, 0.123940
48001.5, 0.124027
48450.1, 0.130772
48907.2, 0.135939
49373.0, 0.137691
49847.7, 0.147939
50331.5, 0.157224
50825.0, 0.160552
51328.2, 0.160465
51841.5, 0.160990
52365.1, 0.164581
52899.4, 0.161253
53444.8, 0.158800
54001.5, 0.155559
54570.1, 0.152406
55150.6, 0.146363
55743.6, 0.131910
56349.5, 0.101341
56968.7, 0.109049
57601.7, 0.109487
58248.9, 0.0939840
58910.9, 0.0938090
59588.1, 0.0943340
60281.0, 0.0969620
60990.2, 0.0979250
61716.3, 0.105371
62459.8, 0.113867
63221.6, 0.115181
64002.1, 0.119122
64802.1, 0.119210
65622.1, 0.116845
66463.4, 0.118334
67326.6, 0.121837
68212.4, 0.125253
69121.9, 0.132874
70056.0, 0.128056
71015.7, 0.121312
72002.0, 0.116670
73016.3, 0.114305
74059.4, 0.111239
75132.7, 0.104407
76237.6, 0.0957360
77375.5, 0.0912690
78547.9, 0.0924070
79756.3, 0.0938960
81002.5, 0.0981880
82288.5, 0.107385
83615.7, 0.116144
84986.5, 0.119472
86402.9, 0.126830
87867.4, 0.141282
89382.4, 0.158538
90950.5, 0.168085
92574.6, 0.181223
94257.2, 0.194099
96002.7, 0.208551
97814.1, 0.224317
99695.1, 0.218974
101650.0, 0.211617
103683.0, 0.207763
105799.0, 0.209602
108003.0, 0.211354
110301.0, 0.214420
112699.0, 0.226420
115204.0, 0.219500
117822.0, 0.215821
120562.0, 0.228872
123433.0, 0.225193
126443.0, 0.230712
129604.0, 0.239558
132926.0, 0.247967
136424.0, 0.252959
140111.0, 0.263996
144003.0, 0.275295
148118.0, 0.271178
152474.0, 0.264434
157095.0, 0.282477
162004.0, 0.295703
167231.0, 0.303849
172805.0, 0.286506
178764.0, 0.250857
185148.0, 0.296579
192005.0, 0.363673
199390.0, 0.344841
207366.0, 0.188318
216006.0, 0.179559
