Database of Origin,USGS Spectral Database
Sample Description,See USGS database for additional info
Date Added,2017-07-03 05:43:02.234687

Data ID,USGS_jar11          
Sample ID,jarosite_gds99.11481
Mineral Name,jarosite
Material Class,Sulfate

Wavelength
1299.94, 0.645690
1300.26, 0.642241
1300.59, 0.644944
1300.92, 0.656967
1301.24, 0.666753
1301.57, 0.651654
1301.9, 0.637208
1302.22, 0.636463
1302.55, 0.645969
1302.88, 0.642334
1303.21, 0.633108
1303.53, 0.639445
1303.86, 0.646622
1304.19, 0.640843
1304.52, 0.650629
1304.85, 0.654544
1305.17, 0.654078
1305.5, 0.652400
1305.83, 0.655010
1306.16, 0.648486
1306.49, 0.645783
1306.82, 0.649418
1307.15, 0.650816
1307.48, 0.644758
1307.81, 0.649231
1308.14, 0.660788
1308.47, 0.667032
1308.8, 0.659017
1309.13, 0.652586
1309.46, 0.646062
1309.79, 0.646622
1310.12, 0.648765
1310.45, 0.661254
1310.79, 0.664050
1311.12, 0.665448
1311.45, 0.662279
1311.78, 0.663677
1312.11, 0.663957
1312.44, 0.669083
1312.78, 0.672904
1313.11, 0.675141
1313.44, 0.670294
1313.77, 0.664516
1314.11, 0.665914
1314.44, 0.678776
1314.77, 0.673090
1315.11, 0.664796
1315.44, 0.659856
1315.78, 0.667498
1316.11, 0.673556
1316.44, 0.679614
1316.78, 0.682131
1317.11, 0.677750
1317.45, 0.671599
1317.78, 0.673370
1318.12, 0.674022
1318.45, 0.678682
1318.79, 0.682224
1319.12, 0.683995
1319.46, 0.676912
1319.8, 0.674861
1320.13, 0.672345
1320.47, 0.677284
1320.8, 0.674861
1321.14, 0.671786
1321.48, 0.670015
1321.81, 0.676632
1322.15, 0.686698
1322.49, 0.687443
1322.83, 0.678776
1323.16, 0.682504
1323.5, 0.683342
1323.84, 0.691171
1324.18, 0.687443
1324.52, 0.680174
1324.85, 0.678216
1325.19, 0.678962
1325.53, 0.687164
1325.87, 0.693035
1326.21, 0.681106
1326.55, 0.685300
1326.89, 0.690426
1327.23, 0.693781
1327.57, 0.692196
1327.91, 0.684834
1328.25, 0.678682
1328.59, 0.681385
1328.93, 0.684647
1329.27, 0.684647
1329.61, 0.681851
1329.95, 0.687257
1330.29, 0.685020
1330.64, 0.687723
1330.98, 0.690146
1331.32, 0.686045
1331.66, 0.674954
1332.0, 0.682783
1332.34, 0.694526
1332.69, 0.695179
1333.03, 0.690146
1333.37, 0.691171
1333.72, 0.692849
1334.06, 0.695458
1334.4, 0.696297
1334.75, 0.703380
1335.09, 0.698068
1335.43, 0.693222
1335.78, 0.690426
1336.12, 0.697882
1336.47, 0.697695
1336.81, 0.692383
1337.16, 0.686884
1337.5, 0.690798
1337.85, 0.692756
1338.19, 0.697695
1338.54, 0.693222
1338.88, 0.693128
1339.23, 0.693222
1339.58, 0.696763
1339.92, 0.693035
1340.27, 0.698814
1340.61, 0.698161
1340.96, 0.694433
1341.31, 0.691451
1341.66, 0.694060
1342.0, 0.694992
1342.35, 0.697509
1342.7, 0.696856
1343.05, 0.698720
1343.39, 0.706549
1343.74, 0.709718
1344.09, 0.711489
1344.44, 0.710184
1344.79, 0.702914
1345.14, 0.703008
1345.48, 0.708600
1345.83, 0.709065
1346.18, 0.707108
1346.53, 0.710464
1346.88, 0.701982
1347.23, 0.699652
1347.58, 0.706922
1347.93, 0.714658
1348.28, 0.709718
1348.64, 0.706363
1348.99, 0.704965
1349.34, 0.712980
1349.69, 0.712234
1350.04, 0.711023
1350.39, 0.707668
1350.74, 0.703753
1351.1, 0.700305
1351.45, 0.701050
1351.8, 0.699000
1352.15, 0.703753
1352.51, 0.699466
1352.86, 0.702076
1353.21, 0.701982
1353.56, 0.708506
1353.92, 0.712234
1354.27, 0.712794
1354.63, 0.709625
1354.98, 0.710091
1355.33, 0.710464
1355.69, 0.714844
1356.04, 0.717360
1356.4, 0.718852
1356.75, 0.714471
1357.11, 0.717640
1357.46, 0.715683
1357.82, 0.713912
1358.18, 0.708413
1358.53, 0.705151
1358.89, 0.706083
1359.24, 0.707295
1359.6, 0.699746
1359.96, 0.710091
1360.31, 0.723978
1360.67, 0.722859
1361.03, 0.712048
1361.39, 0.711955
1361.74, 0.712887
1362.1, 0.715776
1362.46, 0.707947
1362.82, 0.703101
1363.18, 0.702169
1363.53, 0.714658
1363.89, 0.717174
1364.25, 0.716894
1364.61, 0.718292
1364.97, 0.724071
1365.33, 0.721275
1365.69, 0.717547
1366.05, 0.711582
1366.41, 0.719131
1366.77, 0.726774
1367.13, 0.717454
1367.49, 0.704685
1367.85, 0.703194
1368.21, 0.705524
1368.57, 0.712887
1368.93, 0.709252
1369.3, 0.711489
1369.66, 0.713073
1370.02, 0.723139
1370.38, 0.723791
1370.74, 0.706642
1371.11, 0.697043
1371.47, 0.701423
1371.83, 0.701796
1372.19, 0.710370
1372.56, 0.706549
1372.92, 0.705617
1373.29, 0.714564
1373.65, 0.718852
1374.01, 0.726867
1374.38, 0.722673
1374.74, 0.720250
1375.11, 0.710930
1375.47, 0.709438
1375.84, 0.730036
1376.2, 0.712980
1376.57, 0.720716
1384.29, 0.745041
1384.66, 0.724071
1385.03, 0.721834
1385.4, 0.731434
1385.77, 0.723512
1386.14, 0.727985
1386.51, 0.747091
1386.88, 0.739356
1387.25, 0.726774
1387.62, 0.716894
1387.99, 0.713819
1388.36, 0.708600
1388.74, 0.710464
1389.11, 0.716242
1389.48, 0.716708
1389.85, 0.706270
1390.23, 0.716988
1390.6, 0.723139
1390.97, 0.725935
1391.35, 0.722859
1391.72, 0.723512
1392.09, 0.724350
1392.47, 0.729290
1392.84, 0.725282
1393.21, 0.721368
1393.59, 0.726680
1393.96, 0.724537
1394.34, 0.718945
1394.71, 0.723418
1395.09, 0.728358
1395.46, 0.725842
1395.84, 0.721741
1396.22, 0.725562
1396.59, 0.726867
1396.97, 0.728544
1397.35, 0.727612
1397.72, 0.724257
1398.1, 0.720156
1398.48, 0.714378
1398.85, 0.710743
1399.23, 0.716615
1399.61, 0.722580
1399.99, 0.721461
1400.37, 0.717826
1400.74, 0.713632
1401.12, 0.712514
1401.5, 0.717640
1401.88, 0.724350
1402.26, 0.724444
1402.64, 0.720529
1403.02, 0.717640
1403.4, 0.722486
1403.78, 0.720809
1404.16, 0.723512
1404.54, 0.726774
1404.92, 0.727426
1405.3, 0.728078
1405.68, 0.723232
1406.06, 0.718758
1406.44, 0.722300
1406.83, 0.718013
1407.21, 0.717174
1407.59, 0.716801
1407.97, 0.719038
1408.35, 0.716428
1408.74, 0.717174
1409.12, 0.719690
1409.5, 0.715403
1409.89, 0.712607
1410.27, 0.713446
1410.65, 0.713632
1411.04, 0.715124
1411.42, 0.715124
1411.81, 0.714751
1412.19, 0.716615
1412.58, 0.718945
1412.96, 0.718479
1413.35, 0.721088
1413.73, 0.720343
1414.12, 0.716708
1414.5, 0.716335
1414.89, 0.718106
1415.28, 0.717454
1415.66, 0.717267
1416.05, 0.713819
1416.44, 0.717360
1416.82, 0.725562
1417.21, 0.723884
1417.6, 0.714005
1417.98, 0.712141
1418.37, 0.713632
1418.76, 0.716708
1419.15, 0.714471
1419.54, 0.715683
1419.93, 0.718013
1420.32, 0.720995
1420.71, 0.721182
1421.09, 0.717640
1421.48, 0.714751
1421.88, 0.713353
1422.27, 0.711768
1422.66, 0.712234
1423.05, 0.712514
1423.44, 0.715590
1423.83, 0.717081
1424.22, 0.718945
1424.61, 0.714471
1425.0, 0.709159
1425.39, 0.710464
1425.78, 0.713539
1426.18, 0.711489
1426.57, 0.713260
1426.96, 0.714937
1427.36, 0.714192
1427.75, 0.715962
1428.14, 0.717920
1428.54, 0.714937
1428.93, 0.715869
1429.32, 0.711302
1429.72, 0.710464
1430.11, 0.713073
1430.51, 0.712794
1430.9, 0.712048
1431.3, 0.716149
1431.69, 0.715776
1432.09, 0.712048
1432.48, 0.710743
1432.88, 0.715124
1433.28, 0.716335
1433.67, 0.714658
1434.07, 0.713446
1434.46, 0.715030
1434.86, 0.714285
1435.26, 0.714658
1435.66, 0.714285
1436.05, 0.712700
1436.45, 0.712421
1436.85, 0.712328
1437.25, 0.710930
1437.65, 0.715310
1438.05, 0.712887
1438.44, 0.709625
1438.84, 0.709998
1439.24, 0.711582
1439.64, 0.712421
1440.04, 0.714937
1440.44, 0.708786
1440.84, 0.708227
1441.24, 0.710277
1441.65, 0.710464
1442.05, 0.706363
1442.45, 0.710091
1442.85, 0.710743
1443.25, 0.710557
1443.65, 0.711023
1444.05, 0.711209
1444.46, 0.711302
1444.86, 0.709438
1445.26, 0.708040
1445.67, 0.709065
1446.07, 0.706736
1446.47, 0.706176
1446.88, 0.707015
1447.28, 0.706363
1447.68, 0.704499
1448.09, 0.704778
1448.49, 0.702355
1448.9, 0.700025
1449.3, 0.697043
1449.71, 0.696763
1450.11, 0.700118
1450.52, 0.700678
1450.93, 0.694992
1451.33, 0.695924
1451.74, 0.695552
1452.14, 0.694806
1452.55, 0.693501
1452.96, 0.690612
1453.36, 0.687816
1453.77, 0.687630
1454.18, 0.684834
1454.59, 0.686138
1455.0, 0.686511
1455.41, 0.683715
1455.81, 0.682131
1456.22, 0.685206
1456.63, 0.685486
1457.04, 0.686045
1457.45, 0.687164
1457.86, 0.684554
1458.27, 0.678589
1458.68, 0.676446
1459.09, 0.677657
1459.5, 0.677005
1459.91, 0.673184
1460.32, 0.672718
1460.74, 0.667312
1461.15, 0.662932
1461.56, 0.658178
1461.97, 0.654171
1462.39, 0.651468
1462.8, 0.649604
1463.21, 0.646994
1463.62, 0.640470
1464.04, 0.633387
1464.45, 0.631989
1464.86, 0.626863
1465.28, 0.622949
1465.69, 0.619221
1466.11, 0.622017
1466.52, 0.622483
1466.94, 0.620246
1467.35, 0.622669
1467.77, 0.626863
1468.18, 0.627329
1468.6, 0.626304
1469.02, 0.624160
1469.43, 0.626956
1469.85, 0.629846
1470.27, 0.631057
1470.68, 0.634599
1471.1, 0.638513
1471.52, 0.642894
1471.94, 0.648392
1472.35, 0.650256
1472.77, 0.655103
1473.19, 0.662838
1473.61, 0.668151
1474.03, 0.672345
1474.45, 0.675420
1474.87, 0.674582
1475.29, 0.677191
1475.71, 0.683902
1476.13, 0.689400
1476.55, 0.690426
1476.97, 0.690332
1477.39, 0.689773
1477.81, 0.691358
1478.23, 0.694806
1478.65, 0.697509
1479.07, 0.699373
1479.5, 0.701516
1479.92, 0.698907
1480.34, 0.701050
1480.76, 0.700771
1481.19, 0.698161
1481.61, 0.696577
1482.03, 0.698907
1482.46, 0.700491
1482.88, 0.697975
1483.31, 0.697043
1483.73, 0.698814
1484.16, 0.697509
1484.58, 0.696577
1485.01, 0.697695
1485.43, 0.700305
1485.86, 0.699000
1486.28, 0.696484
1486.71, 0.697322
1487.14, 0.698534
1487.56, 0.698907
1487.99, 0.698814
1488.42, 0.698720
1488.84, 0.696856
1489.27, 0.696390
1489.7, 0.695924
1490.13, 0.696763
1490.56, 0.698348
1490.98, 0.696204
1491.41, 0.695738
1491.84, 0.697602
1492.27, 0.700305
1492.7, 0.700118
1493.13, 0.697788
1493.56, 0.698441
1493.99, 0.699186
1494.42, 0.698534
1494.85, 0.699186
1495.29, 0.700957
1495.72, 0.702635
1496.15, 0.701796
1496.58, 0.699746
1497.01, 0.700771
1497.44, 0.701423
1497.88, 0.700864
1498.31, 0.703380
1498.74, 0.700584
1499.18, 0.699093
1499.61, 0.698441
1500.04, 0.700118
1500.48, 0.700212
1500.91, 0.699746
1501.35, 0.700864
1501.78, 0.699932
1502.22, 0.695831
1502.65, 0.699839
1503.09, 0.699466
1503.53, 0.700957
1503.96, 0.702262
1504.4, 0.699746
1504.83, 0.694992
1505.27, 0.694620
1505.71, 0.696111
1506.15, 0.698814
1506.58, 0.698907
1507.02, 0.699746
1507.46, 0.697788
1507.9, 0.695645
1508.34, 0.695179
1508.78, 0.698068
1509.21, 0.698720
1509.66, 0.700025
1510.09, 0.700678
1510.53, 0.701796
1510.97, 0.701144
1511.42, 0.701516
1511.86, 0.701237
1512.3, 0.700212
1512.74, 0.700025
1513.18, 0.700212
1513.62, 0.700584
1514.06, 0.701144
1514.51, 0.698441
1514.95, 0.696204
1515.39, 0.697229
1515.83, 0.699559
1516.28, 0.701237
1516.72, 0.700491
1517.16, 0.699373
1517.61, 0.700025
1518.05, 0.700398
1518.5, 0.700118
1518.94, 0.701889
1519.39, 0.706083
1519.83, 0.704499
1520.28, 0.703846
1520.73, 0.703380
1521.17, 0.702821
1521.62, 0.703380
1522.07, 0.703846
1522.51, 0.702635
1522.96, 0.702542
1523.41, 0.704033
1523.85, 0.704312
1524.3, 0.704033
1524.75, 0.705710
1525.2, 0.706829
1525.65, 0.707574
1526.1, 0.708040
1526.55, 0.708693
1527.0, 0.709159
1527.45, 0.710650
1527.9, 0.710184
1528.35, 0.709811
1528.8, 0.707108
1529.25, 0.709811
1529.7, 0.711302
1530.15, 0.710557
1530.6, 0.710184
1531.05, 0.710557
1531.51, 0.711209
1531.96, 0.714005
1532.41, 0.714564
1532.87, 0.714937
1533.32, 0.715869
1533.77, 0.714192
1534.23, 0.712887
1534.68, 0.715590
1535.14, 0.717640
1535.59, 0.718945
1536.05, 0.717920
1536.5, 0.721182
1536.96, 0.723232
1537.41, 0.721741
1537.87, 0.722673
1538.32, 0.724723
1538.78, 0.724723
1539.24, 0.722114
1539.7, 0.722393
1540.15, 0.728265
1540.61, 0.727706
1541.07, 0.726587
1541.53, 0.727519
1541.98, 0.729942
1542.44, 0.730968
1542.9, 0.731340
1543.36, 0.730036
1543.82, 0.730688
1544.28, 0.731434
1544.74, 0.732832
1545.2, 0.731713
1545.66, 0.730968
1546.12, 0.731900
1546.59, 0.732832
1547.05, 0.733204
1547.51, 0.734975
1547.97, 0.734696
1548.43, 0.733950
1548.9, 0.734230
1549.36, 0.735534
1549.82, 0.736560
1550.29, 0.737492
1550.75, 0.736839
1551.21, 0.737212
1551.68, 0.738330
1552.14, 0.740194
1552.61, 0.738330
1553.07, 0.736839
1553.54, 0.739169
1554.0, 0.741779
1554.47, 0.739822
1554.93, 0.736839
1555.4, 0.736560
1555.87, 0.738703
1556.34, 0.739449
1556.8, 0.739822
1557.27, 0.741592
1557.74, 0.743084
1558.21, 0.743084
1558.68, 0.743177
1559.14, 0.744016
1559.61, 0.744482
1560.08, 0.742245
1560.55, 0.744668
1561.02, 0.748303
1561.49, 0.750260
1561.96, 0.748769
1562.43, 0.746252
1562.9, 0.745227
1563.38, 0.746532
1563.85, 0.747837
1564.32, 0.749608
1564.79, 0.749421
1565.26, 0.750540
1565.74, 0.752404
1566.21, 0.754174
1566.68, 0.754361
1567.16, 0.752963
1567.63, 0.752310
1568.1, 0.751472
1568.58, 0.749048
1569.05, 0.749980
1569.53, 0.751658
1570.0, 0.754454
1570.48, 0.754361
1570.96, 0.756504
1571.43, 0.756318
1571.91, 0.754454
1572.39, 0.752776
1572.86, 0.755106
1573.34, 0.755479
1573.82, 0.758741
1574.3, 0.760046
1574.77, 0.759207
1575.25, 0.755666
1575.73, 0.755293
1576.21, 0.755386
1576.69, 0.757623
1577.17, 0.757996
1577.65, 0.755386
1578.13, 0.752963
1578.61, 0.756411
1579.09, 0.759394
1579.57, 0.760139
1580.05, 0.760698
1580.54, 0.761817
1581.02, 0.761351
1581.5, 0.762842
1581.98, 0.761910
1582.47, 0.760139
1582.95, 0.761351
1583.43, 0.762749
1583.92, 0.764147
1584.4, 0.765824
1584.88, 0.766850
1585.37, 0.767502
1585.85, 0.765731
1586.34, 0.765452
1586.82, 0.765638
1587.31, 0.766756
1587.8, 0.767129
1588.28, 0.766290
1588.77, 0.766011
1589.26, 0.767316
1589.74, 0.768527
1590.23, 0.768061
1590.72, 0.767782
1591.21, 0.769832
1591.7, 0.770857
1592.19, 0.773840
1592.67, 0.771137
1593.16, 0.768714
1593.65, 0.770112
1594.14, 0.770950
1594.63, 0.771603
1595.12, 0.771976
1595.61, 0.771137
1596.11, 0.770391
1596.6, 0.770671
1597.09, 0.772908
1597.58, 0.773560
1598.08, 0.773280
1598.57, 0.772535
1599.06, 0.773933
1599.55, 0.774399
1600.05, 0.775331
1600.54, 0.774306
1601.04, 0.775238
1601.53, 0.775051
1602.03, 0.774865
1602.52, 0.774772
1603.02, 0.775144
1603.51, 0.776729
1604.01, 0.777008
1604.5, 0.776076
1605.0, 0.776263
1605.5, 0.777288
1606.0, 0.775797
1606.49, 0.775890
1606.99, 0.777474
1607.49, 0.775238
1607.99, 0.776263
1608.49, 0.777847
1608.99, 0.777754
1609.49, 0.776263
1609.99, 0.776170
1610.49, 0.778406
1610.99, 0.778966
1611.49, 0.777474
1611.99, 0.776449
1612.49, 0.775704
1612.99, 0.778872
1613.49, 0.779525
1614.0, 0.778779
1614.5, 0.778966
1615.0, 0.777568
1615.51, 0.777102
1616.01, 0.779059
1616.51, 0.779338
1617.02, 0.777474
1617.52, 0.776636
1618.03, 0.777661
1618.53, 0.778966
1619.04, 0.779338
1619.54, 0.779152
1620.05, 0.780550
1620.55, 0.779804
1621.06, 0.777754
1621.57, 0.778686
1622.08, 0.780830
1622.58, 0.781202
1623.09, 0.780923
1623.6, 0.780550
1624.11, 0.780084
1624.62, 0.779152
1625.13, 0.779711
1625.64, 0.779991
1626.15, 0.779898
1626.66, 0.779711
1627.17, 0.779618
1627.68, 0.779898
1628.19, 0.779059
1628.7, 0.780643
1629.21, 0.781948
1629.72, 0.781575
1630.24, 0.780457
1630.75, 0.779338
1631.26, 0.779525
1631.78, 0.780643
1632.29, 0.782787
1632.8, 0.782880
1633.32, 0.781948
1633.83, 0.780550
1634.35, 0.780736
1634.86, 0.781482
1635.38, 0.784092
1635.9, 0.785769
1636.41, 0.784185
1636.93, 0.781389
1637.45, 0.782321
1637.96, 0.782973
1638.48, 0.782787
1639.0, 0.781389
1639.52, 0.780736
1640.04, 0.781762
1640.56, 0.783439
1641.08, 0.783626
1641.59, 0.783253
1642.11, 0.783066
1642.63, 0.783439
1643.16, 0.782973
1643.68, 0.785024
1644.2, 0.785396
1644.72, 0.785117
1645.24, 0.784930
1645.76, 0.785210
1646.29, 0.785303
1646.81, 0.784651
1647.33, 0.782973
1647.86, 0.783812
1648.38, 0.784464
1648.9, 0.783812
1649.43, 0.783719
1649.95, 0.784837
1650.48, 0.783626
1651.0, 0.782973
1651.53, 0.784651
1652.06, 0.786142
1652.58, 0.787726
1653.11, 0.787726
1653.64, 0.786422
1654.17, 0.786235
1654.69, 0.786794
1655.22, 0.788752
1655.75, 0.786608
1656.28, 0.785583
1656.81, 0.785583
1657.34, 0.786235
1657.87, 0.786235
1658.4, 0.784464
1658.93, 0.784837
1659.46, 0.787726
1659.99, 0.785862
1660.52, 0.783998
1661.05, 0.784837
1661.59, 0.786422
1662.12, 0.785117
1662.65, 0.783346
1663.19, 0.784371
1663.72, 0.785676
1664.26, 0.785769
1664.79, 0.785583
1665.32, 0.785583
1665.86, 0.787540
1666.39, 0.785862
1666.93, 0.785676
1667.47, 0.786235
1668.0, 0.786422
1668.54, 0.785956
1669.08, 0.785396
1669.61, 0.785490
1670.15, 0.786142
1670.69, 0.784651
1671.23, 0.785769
1671.77, 0.787260
1672.31, 0.788006
1672.85, 0.786701
1673.39, 0.782134
1673.93, 0.781389
1674.47, 0.784837
1675.01, 0.785303
1675.55, 0.784464
1676.09, 0.784464
1676.64, 0.784464
1677.18, 0.783346
1677.72, 0.783532
1678.26, 0.784651
1678.81, 0.785490
1679.35, 0.784558
1679.89, 0.782134
1680.44, 0.782228
1680.98, 0.787913
1681.53, 0.788845
1682.07, 0.787913
1682.62, 0.790150
1683.17, 0.791641
1683.71, 0.789031
1684.26, 0.783998
1684.81, 0.777847
1685.36, 0.783998
1685.9, 0.789311
1686.45, 0.785396
1687.0, 0.788472
1687.55, 0.793318
1688.1, 0.789497
1688.65, 0.781668
1689.2, 0.776822
1689.75, 0.780364
1690.3, 0.785676
1690.85, 0.787167
1691.41, 0.783439
1691.96, 0.778779
1692.51, 0.776542
1693.06, 0.773746
1693.61, 0.774865
1694.17, 0.779711
1694.72, 0.782507
1695.28, 0.781202
1695.83, 0.781389
1696.39, 0.780270
1696.94, 0.776449
1697.5, 0.774585
1698.05, 0.776729
1698.61, 0.776915
1699.17, 0.778127
1699.72, 0.783532
1700.28, 0.786422
1700.84, 0.783346
1701.4, 0.779618
1701.95, 0.777568
1702.51, 0.778313
1703.07, 0.778872
1703.63, 0.778406
1704.19, 0.779245
1704.75, 0.779711
1705.31, 0.779898
1705.88, 0.781296
1706.44, 0.780643
1707.0, 0.779152
1707.56, 0.778872
1708.12, 0.779525
1708.69, 0.778779
1709.25, 0.777754
1709.81, 0.780643
1710.38, 0.780923
1710.94, 0.781389
1711.51, 0.781668
1712.07, 0.782134
1712.64, 0.780177
1713.2, 0.779618
1713.77, 0.779618
1714.34, 0.779525
1714.9, 0.778313
1715.47, 0.778779
1716.04, 0.778406
1716.61, 0.777381
1717.18, 0.778406
1717.74, 0.777661
1718.31, 0.776729
1718.88, 0.777940
1719.45, 0.778686
1720.02, 0.778500
1720.59, 0.779432
1721.17, 0.778686
1721.74, 0.778872
1722.31, 0.777661
1722.88, 0.777102
1723.45, 0.777847
1724.03, 0.778406
1724.6, 0.779059
1725.18, 0.777940
1725.75, 0.778220
1726.33, 0.779711
1726.9, 0.778500
1727.48, 0.776449
1728.05, 0.775797
1728.63, 0.776449
1729.2, 0.777568
1729.78, 0.778500
1730.36, 0.778593
1730.94, 0.777195
1731.51, 0.777102
1732.09, 0.775983
1732.67, 0.775890
1733.25, 0.775983
1733.83, 0.774492
1734.41, 0.774306
1734.99, 0.774212
1735.57, 0.773933
1736.15, 0.775424
1736.73, 0.775517
1737.32, 0.774585
1737.9, 0.774212
1738.48, 0.774026
1739.07, 0.772535
1739.65, 0.773560
1740.23, 0.775144
1740.82, 0.776170
1741.4, 0.775704
1741.99, 0.774865
1742.57, 0.773653
1743.16, 0.772908
1743.74, 0.771789
1744.33, 0.771230
1744.92, 0.771044
1745.51, 0.771044
1746.09, 0.771416
1746.68, 0.771603
1747.27, 0.771416
1747.86, 0.770764
1748.45, 0.769180
1749.04, 0.768807
1749.63, 0.768527
1750.22, 0.768527
1750.81, 0.767595
1751.4, 0.767502
1751.99, 0.767595
1752.59, 0.767222
1753.18, 0.767222
1753.77, 0.767502
1754.37, 0.766663
1754.96, 0.766570
1755.56, 0.765731
1756.15, 0.765731
1756.74, 0.765358
1757.34, 0.765638
1757.94, 0.764426
1758.53, 0.763681
1759.13, 0.762283
1759.73, 0.762562
1760.32, 0.763122
1760.92, 0.761817
1761.52, 0.761910
1762.12, 0.762283
1762.72, 0.761164
1763.32, 0.760232
1763.92, 0.759114
1764.52, 0.758834
1765.12, 0.759394
1765.72, 0.759673
1766.32, 0.759766
1766.92, 0.759953
1767.53, 0.760046
1768.13, 0.759580
1768.73, 0.757902
1769.34, 0.757343
1769.94, 0.757996
1770.55, 0.757064
1771.15, 0.756038
1771.76, 0.756411
1772.36, 0.756970
1772.97, 0.756877
1773.57, 0.756504
1774.18, 0.755106
1774.79, 0.754361
1775.4, 0.755666
1776.0, 0.756038
1776.61, 0.754920
1777.22, 0.753988
1777.83, 0.754454
1778.44, 0.753429
1779.05, 0.753056
1779.66, 0.753149
1780.27, 0.753056
1780.88, 0.752404
1781.5, 0.752590
1782.11, 0.752590
1782.72, 0.752404
1783.33, 0.752776
1783.95, 0.752497
1784.56, 0.750912
1785.18, 0.751565
1785.79, 0.750633
1786.41, 0.750633
1787.02, 0.750540
1787.64, 0.749887
1788.26, 0.750353
1788.87, 0.750260
1789.49, 0.749048
1790.11, 0.748489
1790.73, 0.749235
1791.35, 0.749701
1791.96, 0.748396
1792.58, 0.747184
1793.21, 0.747278
1793.83, 0.747371
1794.45, 0.747930
1795.07, 0.746998
1795.69, 0.745693
1796.31, 0.745880
1796.93, 0.746252
1797.56, 0.746159
1798.18, 0.745693
1798.8, 0.745600
1799.43, 0.745134
1800.05, 0.744854
1800.68, 0.744202
1801.3, 0.742711
1801.93, 0.743270
1802.56, 0.743456
1803.18, 0.742431
1803.81, 0.742524
1804.44, 0.742338
1805.07, 0.740754
1805.7, 0.740008
1806.33, 0.740474
1806.95, 0.739822
1807.58, 0.738796
1808.22, 0.738051
1808.85, 0.738051
1809.48, 0.737585
1810.11, 0.735721
1810.74, 0.734975
1811.38, 0.734696
1812.01, 0.733484
1812.64, 0.733018
1813.28, 0.732738
1813.91, 0.732738
1814.55, 0.732738
1815.18, 0.731806
1815.82, 0.730874
1816.45, 0.730036
1817.09, 0.729104
1817.73, 0.728917
1818.36, 0.728078
1819.0, 0.727799
1819.64, 0.728638
1820.28, 0.728172
1820.92, 0.725748
1821.56, 0.725562
1822.2, 0.726308
1822.84, 0.725842
1823.48, 0.724350
1824.12, 0.724350
1824.76, 0.723978
1825.41, 0.722580
1826.05, 0.721088
1826.69, 0.720063
1827.34, 0.719597
1827.98, 0.719970
1828.63, 0.719877
1829.27, 0.716894
1829.92, 0.714285
1830.56, 0.713446
1831.21, 0.712141
1831.86, 0.709811
1832.5, 0.706736
1833.15, 0.704406
1833.8, 0.702169
1834.45, 0.699559
1835.1, 0.697322
1835.75, 0.693967
1836.4, 0.690053
1837.05, 0.686418
1837.7, 0.682690
1838.35, 0.679242
1839.01, 0.675793
1839.66, 0.672065
1840.31, 0.668430
1840.96, 0.664330
1841.62, 0.659856
1842.27, 0.656314
1842.93, 0.652400
1843.58, 0.648579
1844.24, 0.644105
1844.9, 0.639632
1845.55, 0.635717
1846.21, 0.633201
1846.87, 0.630498
1847.53, 0.627888
1848.18, 0.625931
1848.84, 0.624720
1849.5, 0.625372
1850.16, 0.625838
1850.82, 0.625745
1851.48, 0.626584
1852.14, 0.628168
1852.81, 0.630964
1853.47, 0.632828
1854.13, 0.635065
1854.8, 0.636929
1855.46, 0.638886
1856.12, 0.640657
1856.79, 0.642055
1857.45, 0.640750
1858.12, 0.639072
1858.79, 0.638979
1859.45, 0.638420
1860.12, 0.637488
1860.79, 0.635438
1861.46, 0.633387
1862.12, 0.633760
1862.79, 0.633574
1863.46, 0.632828
1864.13, 0.633387
1864.8, 0.635065
1865.48, 0.636090
1866.15, 0.637488
1866.82, 0.640377
1867.49, 0.643919
1868.16, 0.647367
1868.84, 0.650722
1869.51, 0.653705
1870.19, 0.658085
1870.86, 0.662000
1871.54, 0.665262
1872.21, 0.669083
1872.89, 0.674209
1873.56, 0.678030
1874.24, 0.680826
1874.92, 0.683715
1875.6, 0.686045
1876.28, 0.687909
1876.96, 0.690892
1877.64, 0.691917
1878.32, 0.692196
1879.0, 0.691451
1879.68, 0.691264
1880.36, 0.692756
1881.04, 0.693594
1881.73, 0.693035
1882.41, 0.692849
1883.09, 0.692290
1883.78, 0.692196
1884.46, 0.691917
1885.15, 0.690612
1885.83, 0.689121
1886.52, 0.688468
1887.21, 0.687723
1887.89, 0.687723
1888.58, 0.685859
1889.27, 0.683436
1889.96, 0.681478
1890.65, 0.679801
1891.34, 0.677564
1892.03, 0.676539
1892.72, 0.674768
1893.41, 0.673370
1894.1, 0.671599
1894.79, 0.668710
1895.49, 0.665541
1896.18, 0.662652
1896.87, 0.659949
1897.57, 0.657899
1898.26, 0.655942
1898.96, 0.655476
1899.65, 0.654544
1900.35, 0.651841
1901.05, 0.648392
1901.74, 0.645690
1902.44, 0.644012
1903.14, 0.642334
1903.84, 0.640004
1904.54, 0.638420
1905.24, 0.637581
1905.94, 0.635717
1906.64, 0.634226
1907.34, 0.633201
1908.04, 0.631337
1908.75, 0.628727
1909.45, 0.627236
1910.15, 0.627702
1910.86, 0.626863
1911.56, 0.625465
1912.27, 0.624347
1912.97, 0.623135
1913.68, 0.621458
1914.39, 0.620339
1915.09, 0.619966
1915.8, 0.619500
1916.51, 0.618568
1917.22, 0.618382
1917.93, 0.618382
1918.64, 0.617636
1919.35, 0.617357
1920.06, 0.617823
1920.77, 0.617730
1921.48, 0.617077
1922.19, 0.615959
1922.91, 0.616238
1923.62, 0.616238
1924.33, 0.616611
1925.05, 0.616425
1925.76, 0.615959
1926.48, 0.615866
1927.19, 0.615493
1927.91, 0.615679
1928.63, 0.616425
1929.35, 0.615679
1930.07, 0.615306
1930.78, 0.614654
1931.5, 0.614934
1932.22, 0.615586
1932.94, 0.615772
1933.66, 0.615493
1934.39, 0.615866
1935.11, 0.616145
1935.83, 0.616984
1936.55, 0.617543
1937.28, 0.617170
1938.0, 0.617264
1938.73, 0.617636
1939.45, 0.617077
1940.18, 0.617543
1940.9, 0.619034
1941.63, 0.619128
1942.36, 0.618289
1943.09, 0.618382
1943.81, 0.619500
1944.54, 0.620153
1945.27, 0.620339
1946.0, 0.619594
1946.73, 0.618941
1947.47, 0.620060
1948.2, 0.620526
1948.93, 0.620432
1949.66, 0.621085
1950.4, 0.621924
1951.13, 0.622203
1951.86, 0.622762
1952.6, 0.622483
1953.34, 0.622203
1954.07, 0.622669
1954.81, 0.623508
1955.55, 0.624440
1956.29, 0.625279
1957.02, 0.624626
1957.76, 0.624440
1958.5, 0.624440
1959.24, 0.623788
1959.98, 0.623788
1960.72, 0.623508
1961.47, 0.623788
1962.21, 0.624254
1962.95, 0.624533
1963.7, 0.624533
1964.44, 0.624720
1965.18, 0.625558
1965.93, 0.625186
1966.67, 0.624906
1967.42, 0.625372
1968.17, 0.625838
1968.92, 0.625838
1969.66, 0.626211
1970.41, 0.626770
1971.16, 0.627982
1971.91, 0.628727
1972.66, 0.628261
1973.41, 0.628727
1974.16, 0.629752
1974.92, 0.630125
1975.67, 0.630218
1976.42, 0.631057
1977.18, 0.631803
1977.93, 0.632082
1978.69, 0.632642
1979.44, 0.632921
1980.2, 0.633294
1980.95, 0.633201
1981.71, 0.633294
1982.47, 0.633667
1983.23, 0.633760
1983.99, 0.633760
1984.74, 0.633946
1985.51, 0.635065
1986.27, 0.635904
1987.03, 0.636183
1987.79, 0.636276
1988.55, 0.636556
1989.32, 0.635717
1990.08, 0.635997
1990.84, 0.636649
1991.61, 0.637302
1992.37, 0.638234
1993.14, 0.638886
1993.9, 0.638513
1994.67, 0.637581
1995.44, 0.637674
1996.21, 0.637488
1996.98, 0.637768
1997.75, 0.637768
1998.52, 0.638513
1999.29, 0.638886
2000.06, 0.638700
2000.83, 0.638606
2001.6, 0.638886
2002.38, 0.639445
2003.15, 0.639445
2003.93, 0.639072
2004.7, 0.639911
2005.48, 0.640098
2006.25, 0.640004
2007.03, 0.639725
2007.81, 0.640004
2008.58, 0.640004
2009.36, 0.640657
2010.14, 0.641216
2010.92, 0.641402
2011.7, 0.640470
2012.48, 0.640004
2013.26, 0.640377
2014.05, 0.640750
2014.83, 0.640470
2015.61, 0.640470
2016.4, 0.640936
2017.18, 0.640564
2017.97, 0.640377
2018.75, 0.640377
2019.54, 0.639538
2020.32, 0.639259
2021.11, 0.639538
2021.9, 0.640004
2022.69, 0.640564
2023.48, 0.640284
2024.27, 0.639632
2025.06, 0.638886
2025.85, 0.637954
2026.64, 0.638140
2027.44, 0.637395
2028.23, 0.636183
2029.02, 0.635717
2029.82, 0.636276
2030.61, 0.635158
2031.41, 0.634506
2032.2, 0.633574
2033.0, 0.633014
2033.8, 0.632642
2034.6, 0.632548
2035.4, 0.631989
2036.2, 0.631616
2037.0, 0.630778
2037.8, 0.630591
2038.6, 0.630218
2039.4, 0.629752
2040.2, 0.628820
2041.01, 0.627516
2041.81, 0.627422
2042.61, 0.627702
2043.42, 0.627516
2044.22, 0.627516
2045.03, 0.626956
2045.84, 0.625279
2046.65, 0.624626
2047.46, 0.624440
2048.26, 0.624067
2049.07, 0.623694
2049.88, 0.624067
2050.69, 0.624626
2051.51, 0.624347
2052.32, 0.624160
2053.13, 0.623322
2053.94, 0.622110
2054.76, 0.621551
2055.57, 0.621644
2056.39, 0.620898
2057.2, 0.620246
2058.02, 0.619966
2058.84, 0.620060
2059.66, 0.619128
2060.48, 0.618009
2061.29, 0.617357
2062.11, 0.616984
2062.94, 0.616518
2063.76, 0.616145
2064.58, 0.616145
2065.4, 0.615213
2066.22, 0.614561
2067.05, 0.614281
2067.87, 0.614374
2068.7, 0.614002
2069.52, 0.613070
2070.35, 0.612044
2071.18, 0.611858
2072.0, 0.611672
2072.83, 0.610740
2073.66, 0.610367
2074.49, 0.610274
2075.32, 0.610274
2076.15, 0.609155
2076.98, 0.608596
2077.82, 0.608316
2078.65, 0.608316
2079.48, 0.607944
2080.32, 0.607850
2081.15, 0.607384
2081.99, 0.607478
2082.83, 0.607571
2083.66, 0.607944
2084.5, 0.607571
2085.34, 0.606918
2086.18, 0.606918
2087.02, 0.607664
2087.86, 0.608223
2088.7, 0.608037
2089.54, 0.607198
2090.39, 0.606825
2091.23, 0.606732
2092.07, 0.606546
2092.92, 0.606546
2093.76, 0.606825
2094.61, 0.606080
2095.45, 0.605241
2096.3, 0.604309
2097.15, 0.604122
2098.0, 0.604495
2098.85, 0.604122
2099.7, 0.603377
2100.55, 0.602724
2101.4, 0.602352
2102.25, 0.601047
2103.1, 0.600208
2103.96, 0.600767
2104.81, 0.600208
2105.67, 0.599649
2106.52, 0.598996
2107.38, 0.598437
2108.24, 0.597785
2109.09, 0.597505
2109.95, 0.597039
2110.81, 0.596760
2111.67, 0.595828
2112.53, 0.595548
2113.39, 0.595828
2114.25, 0.595641
2115.12, 0.594616
2115.98, 0.593870
2116.84, 0.593125
2117.71, 0.592845
2118.58, 0.592472
2119.44, 0.591913
2120.31, 0.591074
2121.18, 0.590236
2122.04, 0.589210
2122.91, 0.589117
2123.78, 0.588931
2124.65, 0.588651
2125.52, 0.587346
2126.4, 0.586135
2127.27, 0.585203
2128.14, 0.584457
2129.02, 0.583525
2129.89, 0.582873
2130.77, 0.581661
2131.64, 0.581009
2132.52, 0.580263
2133.4, 0.578958
2134.27, 0.578026
2135.15, 0.577747
2136.03, 0.577001
2136.91, 0.576256
2137.79, 0.575603
2138.68, 0.574671
2139.56, 0.573832
2140.44, 0.573180
2141.33, 0.572155
2142.21, 0.571409
2143.1, 0.570477
2143.99, 0.569545
2144.87, 0.568427
2145.76, 0.567402
2146.65, 0.566749
2147.54, 0.566283
2148.43, 0.565538
2149.32, 0.564046
2150.21, 0.562928
2151.1, 0.561810
2151.99, 0.560598
2152.89, 0.559946
2153.78, 0.558827
2154.68, 0.558268
2155.57, 0.557522
2156.47, 0.556497
2157.37, 0.554820
2158.27, 0.553794
2159.16, 0.552956
2160.06, 0.551837
2160.96, 0.550812
2161.86, 0.549880
2162.77, 0.549041
2163.67, 0.548202
2164.57, 0.546898
2165.48, 0.545686
2166.38, 0.544102
2167.29, 0.543356
2168.2, 0.542331
2169.1, 0.541119
2170.01, 0.539814
2170.92, 0.539069
2171.83, 0.538137
2172.74, 0.537112
2173.65, 0.535434
2174.56, 0.534316
2175.47, 0.533756
2176.39, 0.532452
2177.3, 0.531054
2178.22, 0.530308
2179.13, 0.529283
2180.05, 0.528071
2180.96, 0.526860
2181.88, 0.525275
2182.8, 0.522759
2183.72, 0.520988
2184.64, 0.519776
2185.56, 0.519124
2186.48, 0.517260
2187.41, 0.515116
2188.33, 0.513346
2189.25, 0.511388
2190.18, 0.509338
2191.1, 0.507660
2192.03, 0.505796
2192.96, 0.504026
2193.89, 0.501882
2194.82, 0.500670
2195.74, 0.499645
2196.68, 0.497968
2197.61, 0.496570
2198.54, 0.495451
2199.47, 0.493960
2200.4, 0.492376
2201.34, 0.490698
2202.28, 0.488927
2203.21, 0.487529
2204.15, 0.486038
2205.08, 0.484454
2206.02, 0.483056
2206.96, 0.481658
2207.9, 0.481005
2208.84, 0.480446
2209.78, 0.479887
2210.73, 0.479328
2211.67, 0.479421
2212.61, 0.479980
2213.56, 0.479980
2214.5, 0.480260
2215.45, 0.481005
2216.4, 0.481378
2217.35, 0.482124
2218.3, 0.482683
2219.24, 0.482869
2220.2, 0.482869
2221.15, 0.483242
2222.1, 0.483242
2223.05, 0.483056
2224.0, 0.483149
2224.96, 0.483056
2225.91, 0.483522
2226.87, 0.484360
2227.83, 0.484267
2228.79, 0.484920
2229.74, 0.485852
2230.7, 0.487156
2231.66, 0.488741
2232.63, 0.490512
2233.59, 0.491723
2234.55, 0.492376
2235.51, 0.492376
2236.48, 0.492096
2237.44, 0.491630
2238.41, 0.490512
2239.38, 0.490139
2240.34, 0.489673
2241.31, 0.488741
2242.28, 0.487902
2243.25, 0.487716
2244.22, 0.487343
2245.19, 0.485665
2246.17, 0.483708
2247.14, 0.480073
2248.12, 0.474761
2249.09, 0.468516
2250.07, 0.461154
2251.04, 0.452952
2252.02, 0.444191
2253.0, 0.434964
2253.98, 0.426017
2254.96, 0.417909
2255.94, 0.410826
2256.92, 0.403929
2257.91, 0.398057
2258.89, 0.392931
2259.88, 0.387805
2260.86, 0.384357
2261.85, 0.382120
2262.83, 0.380815
2263.82, 0.380815
2264.81, 0.381002
2265.8, 0.381747
2266.79, 0.382866
2267.78, 0.385009
2268.78, 0.387992
2269.77, 0.391254
2270.76, 0.393584
2271.76, 0.395075
2272.75, 0.396659
2273.75, 0.398337
2274.75, 0.399735
2275.75, 0.402158
2276.75, 0.406445
2277.75, 0.412876
2278.75, 0.421264
2279.75, 0.431609
2280.75, 0.443632
2281.76, 0.455748
2282.76, 0.466932
2283.77, 0.476811
2284.77, 0.484640
2285.78, 0.490698
2286.79, 0.495358
2287.8, 0.497968
2288.81, 0.499179
2289.82, 0.499366
2290.83, 0.497688
2291.84, 0.494892
2292.86, 0.491350
2293.87, 0.486690
2294.89, 0.481378
2295.91, 0.476625
2296.92, 0.472804
2297.94, 0.470380
2298.96, 0.470846
2299.98, 0.474295
2301.0, 0.479607
2302.02, 0.487063
2303.04, 0.495638
2304.07, 0.504492
2305.09, 0.512693
2306.12, 0.519776
2307.15, 0.526114
2308.17, 0.531892
2309.2, 0.536552
2310.23, 0.540560
2311.26, 0.543449
2312.29, 0.546059
2313.32, 0.548575
2314.35, 0.550626
2315.39, 0.552024
2316.42, 0.553422
2317.46, 0.554820
2318.5, 0.556218
2319.53, 0.557802
2320.57, 0.559107
2321.61, 0.559573
2322.65, 0.560132
2323.69, 0.561530
2324.73, 0.562462
2325.78, 0.562555
2326.82, 0.563208
2327.86, 0.563953
2328.91, 0.564233
2329.96, 0.563953
2331.01, 0.564419
2332.05, 0.565165
2333.1, 0.565724
2334.15, 0.565631
2335.21, 0.565538
2336.26, 0.565817
2337.31, 0.566004
2338.36, 0.565444
2339.42, 0.564978
2340.48, 0.564419
2341.53, 0.564326
2342.59, 0.564140
2343.65, 0.563674
2344.71, 0.562835
2345.77, 0.562462
2346.83, 0.561623
2347.9, 0.560784
2348.96, 0.560132
2350.02, 0.560132
2351.09, 0.559666
2352.16, 0.559014
2353.23, 0.558641
2354.29, 0.557802
2355.36, 0.556311
2356.43, 0.555752
2357.51, 0.555192
2358.58, 0.554540
2359.65, 0.553328
2360.73, 0.552210
2361.8, 0.550998
2362.88, 0.550066
2363.96, 0.548948
2365.03, 0.547550
2366.11, 0.546152
2367.19, 0.544847
2368.27, 0.542890
2369.36, 0.541585
2370.44, 0.540001
2371.53, 0.538044
2372.61, 0.535993
2373.7, 0.534036
2374.78, 0.531706
2375.87, 0.529190
2376.96, 0.526580
2378.05, 0.524530
2379.14, 0.521920
2380.24, 0.518472
2381.33, 0.515116
2382.42, 0.512507
2383.52, 0.509338
2384.61, 0.505983
2385.71, 0.502162
2386.81, 0.498806
2387.91, 0.495824
2389.01, 0.492935
2390.11, 0.490139
2391.22, 0.487156
2392.32, 0.483894
2393.42, 0.481098
2394.53, 0.478675
2395.64, 0.476066
2396.74, 0.473736
2397.85, 0.471685
2398.96, 0.469355
2400.07, 0.467491
2401.18, 0.465814
2402.3, 0.464043
2403.41, 0.462365
2404.52, 0.461340
2405.64, 0.460781
2406.76, 0.460594
2407.88, 0.460408
2408.99, 0.460501
2410.11, 0.460781
2411.23, 0.461899
2412.36, 0.463018
2413.48, 0.464136
2414.6, 0.465254
2415.73, 0.466652
2416.85, 0.468237
2417.98, 0.470287
2419.11, 0.471965
2420.24, 0.473456
2421.37, 0.474761
2422.5, 0.475600
2423.64, 0.476252
2424.77, 0.477184
2425.9, 0.477650
2427.04, 0.477743
2428.18, 0.477277
2429.31, 0.476811
2430.45, 0.476345
2431.59, 0.475506
2432.73, 0.473922
2433.88, 0.472431
2435.02, 0.470474
2436.16, 0.468423
2437.31, 0.466373
2438.45, 0.463763
2439.6, 0.461154
2440.75, 0.458544
2441.9, 0.454909
2443.05, 0.451274
2444.2, 0.446614
2445.35, 0.441861
2446.51, 0.437854
2447.67, 0.433194
2448.82, 0.428347
2449.98, 0.423780
2451.14, 0.418654
2452.3, 0.413901
2453.46, 0.410173
2454.62, 0.406632
2455.78, 0.403742
2456.94, 0.401972
2458.11, 0.400946
2459.28, 0.400387
2460.44, 0.400480
2461.61, 0.400667
2462.78, 0.400853
2463.95, 0.401692
2465.12, 0.402717
2466.3, 0.403836
2467.47, 0.404861
2468.65, 0.405327
2469.82, 0.405606
2471.0, 0.406072
2472.18, 0.406911
2473.36, 0.407564
2474.54, 0.407564
2475.72, 0.407657
2476.9, 0.407564
2478.08, 0.407470
2479.27, 0.407377
2480.46, 0.407377
2481.64, 0.406259
2482.83, 0.404954
2484.02, 0.402904
2485.21, 0.400201
2486.4, 0.396752
2487.6, 0.393118
2488.79, 0.389017
2489.99, 0.384636
2491.18, 0.379697
2492.38, 0.374291
2493.58, 0.367954
2494.78, 0.361243
2495.98, 0.354346
2497.18, 0.348288
2498.39, 0.343722
2499.59, 0.341392
2500.8, 0.341951
2502.01, 0.344747
2503.21, 0.349034
2504.42, 0.354346
2505.63, 0.360032
2506.84, 0.365530
2508.06, 0.370004
2509.27, 0.373546
2510.49, 0.376901
2511.7, 0.379324
2512.92, 0.380908
2514.14, 0.381840
2515.36, 0.382027
2516.58, 0.382213
2517.8, 0.381747
2519.03, 0.380722
2520.25, 0.379604
2521.48, 0.379044
2522.7, 0.378578
2523.93, 0.377926
2525.16, 0.377087
2526.39, 0.376528
2527.62, 0.375969
2528.86, 0.375782
2530.09, 0.375782
2531.33, 0.376248
2532.56, 0.376714
2533.8, 0.376714
2535.04, 0.376528
2536.28, 0.376621
2537.52, 0.376528
2538.76, 0.376528
2540.01, 0.376901
2541.25, 0.377367
2542.5, 0.377087
2543.75, 0.376155
2544.99, 0.375316
2546.24, 0.374850
2547.49, 0.373918
2548.75, 0.373266
2550.0, 0.372520
2551.26, 0.371216
2552.51, 0.369724
2553.77, 0.368047
2555.03, 0.366090
2556.29, 0.363666
2557.55, 0.361057
2558.81, 0.359100
2560.08, 0.357888
2561.34, 0.356676
2562.61, 0.354626
2563.88, 0.352389
2565.14, 0.349686
2566.41, 0.347636
2567.68, 0.346331
2568.96, 0.344747
2570.23, 0.342510
2571.51, 0.340180
2572.78, 0.338968
2574.06, 0.336732
2575.34, 0.333470
2576.62, 0.331233
2577.9, 0.327971
2579.18, 0.324616
2580.47, 0.321167
2581.75, 0.317160
2583.04, 0.313711
2584.32, 0.310076
2585.61, 0.305230
2586.9, 0.300943
2588.2, 0.295910
2589.49, 0.290970
2590.78, 0.286963
2592.08, 0.283887
2593.37, 0.282582
2594.67, 0.282023
2595.97, 0.278668
2597.27, 0.275033
2598.57, 0.272610
2599.88, 0.271212
2601.18, 0.270373
2602.49, 0.270000
2603.79, 0.269628
2605.1, 0.270094
2606.41, 0.270094
2607.72, 0.270187
2609.03, 0.271119
2610.35, 0.272237
2611.66, 0.273076
2612.98, 0.273915
2614.3, 0.273915
2615.62, 0.274288
2616.94, 0.273635
2618.26, 0.271398
2619.58, 0.270280
2620.91, 0.269162
2622.23, 0.267298
2623.56, 0.267111
2624.89, 0.268416
2626.22, 0.271305
2627.55, 0.273915
2628.88, 0.277363
2630.21, 0.282116
2631.55, 0.285472
2632.89, 0.288174
2634.22, 0.291250
2635.56, 0.294232
2636.9, 0.297494
2638.25, 0.299918
2639.59, 0.302248
2640.93, 0.303832
2642.28, 0.304671
2643.63, 0.305137
2644.98, 0.305510
2646.33, 0.305044
2647.68, 0.304298
2649.03, 0.304112
2650.39, 0.304018
2651.74, 0.303832
2653.1, 0.303646
2654.46, 0.303739
2655.82, 0.304391
2657.18, 0.304671
2658.54, 0.305882
2659.9, 0.307094
2661.27, 0.307933
2662.64, 0.308772
2664.01, 0.310542
2665.38, 0.312313
2666.74, 0.312500
2668.12, 0.311381
2669.49, 0.312779
2670.87, 0.313525
2672.24, 0.311940
2673.62, 0.312686
2675.0, 0.315109
2676.38, 0.317905
2677.76, 0.319862
2679.15, 0.321354
2680.54, 0.322006
2681.92, 0.322752
2683.31, 0.323777
2684.7, 0.323963
2686.09, 0.323684
2687.48, 0.322565
2688.88, 0.320608
2690.27, 0.318744
2691.67, 0.316787
2693.07, 0.314736
2694.47, 0.311940
2695.87, 0.308119
2697.27, 0.304205
2698.67, 0.300384
2700.08, 0.297215
2701.49, 0.293673
2702.9, 0.289666
2704.31, 0.285565
2705.72, 0.281371
2707.13, 0.277363
2708.54, 0.274008
2709.96, 0.271026
2711.38, 0.266645
2712.8, 0.260587
2714.22, 0.255182
2715.64, 0.250149
2717.06, 0.244743
2718.49, 0.239897
2719.91, 0.235889
2721.34, 0.230204
2722.77, 0.224705
2724.2, 0.220325
2725.63, 0.214826
2727.07, 0.209514
2728.5, 0.204667
2729.94, 0.199821
2731.38, 0.194881
2732.82, 0.190221
2734.26, 0.185748
2735.7, 0.180808
2737.15, 0.175962
2738.59, 0.171768
2740.04, 0.167667
2741.49, 0.163007
2742.94, 0.158160
2744.39, 0.153966
2745.84, 0.150238
2747.3, 0.146417
2748.76, 0.142596
2750.21, 0.138775
2751.67, 0.135140
2753.14, 0.131785
2754.6, 0.128989
2756.06, 0.125913
2757.53, 0.122092
2759.0, 0.119016
2760.46, 0.116127
2761.94, 0.113611
2763.41, 0.111467
2764.88, 0.109137
2766.36, 0.107273
2767.83, 0.105689
2769.31, 0.103918
2770.79, 0.101961
2772.27, 0.0996310
2773.76, 0.0976740
2775.24, 0.0959960
2776.73, 0.0944120
2778.22, 0.0932930
2779.71, 0.0924540
2781.2, 0.0917090
2782.69, 0.0910560
2784.18, 0.0903110
2785.68, 0.0897520
2787.18, 0.0893790
2788.68, 0.0888200
2790.18, 0.0880740
2791.68, 0.0872350
2793.19, 0.0865830
2794.69, 0.0854640
2796.2, 0.0842530
2797.71, 0.0835070
2799.22, 0.0822020
2800.73, 0.0806180
2802.24, 0.0790340
2803.76, 0.0774490
2805.28, 0.0757720
2806.8, 0.0740010
2808.32, 0.0720440
2809.84, 0.0699000
2811.36, 0.0680360
2812.89, 0.0657060
2814.42, 0.0632830
2815.94, 0.0613260
2817.48, 0.0591820
2819.01, 0.0573180
2820.54, 0.0555470
2822.08, 0.0541490
2823.61, 0.0529380
2825.15, 0.0519120
2826.69, 0.0507010
2828.23, 0.0499550
2829.78, 0.0493030
2831.32, 0.0485570
2832.87, 0.0479050
2834.42, 0.0474390
2835.97, 0.0466930
2837.52, 0.0458540
2839.08, 0.0451090
2840.63, 0.0441770
2842.19, 0.0430580
2843.75, 0.0419400
2845.31, 0.0409150
2846.87, 0.0396100
2848.44, 0.0383980
2850.0, 0.0373730
2851.57, 0.0361620
2853.14, 0.0350430
2854.71, 0.0338320
2856.28, 0.0324340
2857.86, 0.0310360
2859.43, 0.0296380
2861.01, 0.0283330
2862.59, 0.0269350
2864.17, 0.0251640
2865.76, 0.0235800
2867.34, 0.0222750
2868.93, 0.0209700
2870.52, 0.0198520
2872.11, 0.0191060
2873.7, 0.0184540
2875.29, 0.0178940
2876.89, 0.0171490
2878.49, 0.0168690
2880.08, 0.0167760
2881.69, 0.0164960
2883.29, 0.0157510
2884.89, 0.0150980
2886.5, 0.0148190
2888.11, 0.0149120
2889.72, 0.0148190
2891.33, 0.0145390
2892.94, 0.0144460
2894.56, 0.0143530
2896.17, 0.0142600
2897.79, 0.0142600
2899.42, 0.0137940
2901.04, 0.0132340
2902.66, 0.0130480
2904.29, 0.0128620
2905.92, 0.0123960
2907.55, 0.0121160
2909.18, 0.0114640
2910.81, 0.0107180
2912.45, 0.0101590
2914.08, 0.00969300
2915.72, 0.00932000
2917.36, 0.00876100
2919.01, 0.00820200
2920.65, 0.00820200
2922.3, 0.00829500
2923.94, 0.00820200
2925.59, 0.00810800
2927.25, 0.00820200
2928.9, 0.00838800
2930.56, 0.00857400
2932.21, 0.00857400
2933.87, 0.00866800
2935.53, 0.00866800
2937.2, 0.00876100
2938.86, 0.00885400
2940.53, 0.00913400
2942.2, 0.00969300
2943.87, 0.0104380
2945.54, 0.0114640
2947.22, 0.0124890
2948.89, 0.0134210
2950.57, 0.0141660
2952.25, 0.0148190
2953.93, 0.0150050
2955.62, 0.0150050
2957.3, 0.0154710
2958.99, 0.0162170
2960.68, 0.0174280
2962.37, 0.0183600
2964.07, 0.0192920
2965.76, 0.0205970
2967.46, 0.0219950
2969.16, 0.0229270
2970.86, 0.0237660
2972.56, 0.0247910
2974.27, 0.0253500
2975.98, 0.0256300
2977.69, 0.0261890
2979.4, 0.0265620
2981.11, 0.0269350
2982.83, 0.0271210
2984.54, 0.0274010
2986.26, 0.0274940
2987.98, 0.0273080
2989.71, 0.0270280
2991.43, 0.0270280
2993.16, 0.0267480
2994.89, 0.0266550
2996.62, 0.0268420
2998.35, 0.0265620
3000.09, 0.0264690
3001.83, 0.0267480
3003.57, 0.0267480
3005.31, 0.0266550
3007.05, 0.0267480
3008.79, 0.0267480
3010.54, 0.0266550
3012.29, 0.0264690
3014.04, 0.0262820
3015.8, 0.0265620
3017.55, 0.0266550
3019.31, 0.0269350
3021.07, 0.0275870
3022.83, 0.0283330
3024.59, 0.0291720
3026.36, 0.0299170
3028.13, 0.0305700
3029.9, 0.0314080
3031.67, 0.0319680
3033.44, 0.0325270
3035.22, 0.0332720
3037.0, 0.0341110
3038.78, 0.0352300
3040.56, 0.0360680
3042.34, 0.0369070
3044.13, 0.0383050
3045.92, 0.0395170
3047.71, 0.0404490
3049.5, 0.0410080
3051.3, 0.0418470
3053.09, 0.0426860
3054.89, 0.0431520
3056.69, 0.0435240
3058.5, 0.0438970
3060.3, 0.0442700
3062.11, 0.0446430
3063.92, 0.0449220
3065.73, 0.0450160
3067.55, 0.0448290
3069.36, 0.0449220
3071.18, 0.0450160
3073.0, 0.0453880
3074.82, 0.0456680
3076.65, 0.0458540
3078.48, 0.0460410
3080.31, 0.0462270
3082.14, 0.0464140
3083.97, 0.0465070
3085.8, 0.0467860
3087.64, 0.0469730
3089.48, 0.0470660
3091.33, 0.0472520
3093.17, 0.0472520
3095.02, 0.0470660
3096.87, 0.0471590
3098.72, 0.0476250
3100.57, 0.0480910
3102.43, 0.0489300
3104.28, 0.0500480
3106.14, 0.0513530
3108.01, 0.0524720
3109.87, 0.0536830
3111.74, 0.0549880
3113.61, 0.0561060
3115.48, 0.0571320
3117.35, 0.0577840
3119.23, 0.0580640
3121.1, 0.0584360
3122.98, 0.0586230
3124.87, 0.0587160
3126.75, 0.0588090
3128.64, 0.0589020
3130.53, 0.0589020
3132.42, 0.0587160
3134.31, 0.0585300
3136.21, 0.0583430
3138.11, 0.0581570
3140.01, 0.0578770
3141.91, 0.0574110
3143.82, 0.0571320
3145.73, 0.0567590
3147.64, 0.0562000
3149.55, 0.0561060
3151.46, 0.0560130
3153.38, 0.0562000
3155.3, 0.0568520
3157.22, 0.0575040
3159.14, 0.0581570
3161.07, 0.0589020
3163.0, 0.0597410
3164.93, 0.0603940
3166.86, 0.0610460
3168.8, 0.0618850
3170.74, 0.0624440
3172.68, 0.0630960
3174.62, 0.0636560
3176.56, 0.0645880
3178.51, 0.0657060
3180.46, 0.0666380
3182.42, 0.0674770
3184.37, 0.0684090
3186.33, 0.0693410
3188.29, 0.0703660
3190.25, 0.0712980
3192.21, 0.0721370
3194.18, 0.0728820
3196.15, 0.0736280
3198.12, 0.0742800
3200.09, 0.0748400
3202.07, 0.0753990
3204.05, 0.0760510
3206.03, 0.0766100
3208.02, 0.0773560
3210.0, 0.0777290
3211.99, 0.0781020
3213.98, 0.0786610
3215.98, 0.0787540
3217.97, 0.0788470
3219.97, 0.0792200
3221.97, 0.0795930
3223.98, 0.0797790
3225.98, 0.0799660
3227.99, 0.0799660
3230.0, 0.0803380
3232.02, 0.0805250
3234.03, 0.0809910
3236.05, 0.0812700
3238.07, 0.0816430
3240.1, 0.0822020
3242.12, 0.0825750
3244.15, 0.0828550
3246.18, 0.0832280
3248.22, 0.0838800
3250.25, 0.0844390
3252.29, 0.0850920
3254.33, 0.0858370
3256.38, 0.0866760
3258.43, 0.0875150
3260.47, 0.0884470
3262.53, 0.0891920
3264.58, 0.0901240
3266.64, 0.0909630
3268.7, 0.0915220
3270.76, 0.0922680
3272.82, 0.0930140
3274.89, 0.0935730
3276.96, 0.0940390
3279.04, 0.0946910
3281.11, 0.0952500
3283.19, 0.0956230
3285.27, 0.0959030
3287.35, 0.0962760
3289.44, 0.0965550
3291.53, 0.0966480
3293.62, 0.0970210
3295.71, 0.0974870
3297.81, 0.0979530
3299.91, 0.0985120
3302.01, 0.0988850
3304.11, 0.0991650
3306.22, 0.0996310
3308.33, 0.100190
3310.44, 0.100656
3312.56, 0.100842
3314.68, 0.101308
3316.8, 0.101681
3318.92, 0.102054
3321.05, 0.102334
3323.18, 0.102706
3325.31, 0.103079
3327.44, 0.103638
3329.58, 0.104104
3331.72, 0.104570
3333.86, 0.104850
3336.01, 0.105036
3338.16, 0.105316
3340.31, 0.105782
3342.46, 0.106155
3344.61, 0.106528
3346.77, 0.106807
3348.94, 0.106994
3351.1, 0.107273
3353.27, 0.107460
3355.44, 0.107739
3357.61, 0.108112
3359.79, 0.108298
3361.97, 0.108485
3364.15, 0.108764
3366.33, 0.108951
3368.52, 0.108951
3370.71, 0.109044
3372.9, 0.109417
3375.1, 0.109603
3377.3, 0.110069
3379.5, 0.110628
3381.71, 0.110815
3383.91, 0.111281
3386.12, 0.111747
3388.34, 0.112120
3390.55, 0.112399
3392.77, 0.112958
3394.99, 0.113424
3397.22, 0.113424
3399.45, 0.113611
3401.68, 0.113797
3403.91, 0.113984
3406.15, 0.114263
3408.39, 0.114543
3410.63, 0.114822
3412.87, 0.115009
3415.12, 0.115195
3417.37, 0.115568
3419.63, 0.115848
3421.88, 0.116220
3424.14, 0.116780
3426.41, 0.117059
3428.67, 0.117339
3430.94, 0.117712
3433.21, 0.118271
3435.49, 0.118644
3437.77, 0.119110
3440.05, 0.119576
3442.33, 0.119948
3444.62, 0.120321
3446.91, 0.120787
3449.2, 0.121253
3451.5, 0.121626
3453.8, 0.121906
3456.1, 0.122278
3458.41, 0.122651
3460.72, 0.123024
3463.03, 0.123397
3465.34, 0.123490
3467.66, 0.123583
3469.98, 0.123863
3472.31, 0.124142
3474.63, 0.124422
3476.96, 0.124702
3479.3, 0.124888
3481.64, 0.125168
3483.97, 0.125634
3486.32, 0.125913
3488.66, 0.126193
3491.01, 0.126379
3493.36, 0.126566
3495.72, 0.126566
3498.08, 0.126752
3500.44, 0.127218
3502.81, 0.127591
3505.18, 0.127870
3507.55, 0.128336
3509.92, 0.128616
3512.3, 0.128989
3514.68, 0.129362
3517.06, 0.129641
3519.45, 0.129921
3521.84, 0.129921
3524.24, 0.130294
3526.64, 0.130946
3529.04, 0.131412
3531.44, 0.131785
3533.85, 0.132158
3536.26, 0.132810
3538.67, 0.133462
3541.09, 0.133835
3543.51, 0.134301
3545.93, 0.134767
3548.36, 0.135140
3550.79, 0.135513
3553.22, 0.135979
3555.66, 0.136352
3558.1, 0.136818
3560.54, 0.137377
3562.99, 0.137936
3565.44, 0.138309
3567.9, 0.138775
3570.35, 0.139054
3572.81, 0.139614
3575.28, 0.140080
3577.75, 0.140546
3580.22, 0.140918
3582.69, 0.141198
3585.17, 0.141571
3587.65, 0.141850
3590.14, 0.142130
3592.62, 0.142410
3595.11, 0.142596
3597.61, 0.142969
3600.11, 0.143528
3602.61, 0.144087
3605.11, 0.144460
3607.62, 0.144740
3610.14, 0.145019
3612.65, 0.145672
3615.17, 0.146231
3617.69, 0.146697
3620.22, 0.147349
3622.75, 0.147815
3625.28, 0.148281
3627.82, 0.148934
3630.36, 0.149400
3632.9, 0.149866
3635.45, 0.150518
3638.0, 0.150891
3640.56, 0.151077
3643.12, 0.151450
3645.68, 0.151823
3648.24, 0.152289
3650.81, 0.152848
3653.39, 0.153221
3655.96, 0.153594
3658.54, 0.153966
3661.13, 0.154432
3663.71, 0.154805
3666.3, 0.154992
3668.9, 0.155178
3671.5, 0.155551
3674.1, 0.155924
3676.7, 0.156203
3679.31, 0.156483
3681.93, 0.156856
3684.54, 0.157135
3687.17, 0.157415
3689.79, 0.157788
3692.42, 0.158160
3695.05, 0.158254
3697.69, 0.158626
3700.32, 0.158999
3702.97, 0.159186
3705.61, 0.159279
3708.27, 0.159558
3710.92, 0.159838
3713.58, 0.160024
3716.24, 0.160211
3718.91, 0.160584
3721.58, 0.160677
3724.25, 0.160956
3726.93, 0.161236
3729.61, 0.161236
3732.29, 0.161329
3734.98, 0.161422
3737.67, 0.161516
3740.37, 0.161609
3743.07, 0.161795
3745.78, 0.161982
3748.49, 0.161982
3751.2, 0.161982
3753.91, 0.162075
3756.63, 0.162168
3759.36, 0.162261
3762.09, 0.162354
3764.82, 0.162448
3767.55, 0.162448
3770.29, 0.162541
3773.04, 0.162448
3775.78, 0.162354
3778.54, 0.162541
3781.29, 0.162820
3784.05, 0.162914
3786.82, 0.162820
3789.59, 0.162820
3792.36, 0.162820
3795.13, 0.162914
3797.92, 0.163193
3800.7, 0.163100
3803.49, 0.163100
3806.28, 0.163286
3809.08, 0.163473
3811.88, 0.163380
3814.68, 0.163380
3817.49, 0.163380
3820.31, 0.163566
3823.12, 0.163659
3825.94, 0.163566
3828.77, 0.163566
3831.6, 0.163752
3834.43, 0.163939
3837.27, 0.163846
3840.11, 0.163939
3842.96, 0.163939
3845.81, 0.163939
3848.67, 0.163846
3851.53, 0.163939
3854.39, 0.164125
3857.26, 0.164125
3860.13, 0.164218
3863.01, 0.164218
3865.89, 0.164218
3868.77, 0.164218
3871.66, 0.164125
3874.55, 0.164218
3877.45, 0.164405
3880.35, 0.164498
3883.26, 0.164591
3886.17, 0.164405
3889.09, 0.164312
3892.01, 0.164591
3894.93, 0.164778
3897.86, 0.164778
3900.79, 0.164871
3903.73, 0.164964
3906.67, 0.164871
3909.62, 0.164684
3912.57, 0.164498
3915.52, 0.164405
3918.48, 0.164405
3921.45, 0.164405
3924.42, 0.164498
3927.39, 0.164498
3930.37, 0.164498
3933.35, 0.164405
3936.34, 0.164312
3939.33, 0.164125
3942.32, 0.163846
3945.32, 0.163659
3948.33, 0.163659
3951.34, 0.163473
3954.35, 0.163007
3957.37, 0.162727
3960.39, 0.162354
3963.42, 0.161516
3966.45, 0.160490
3969.49, 0.159092
3972.53, 0.157788
3975.58, 0.157881
3978.63, 0.159092
3981.68, 0.160211
3984.75, 0.160956
3987.81, 0.161236
3990.88, 0.161422
3993.95, 0.161422
3997.03, 0.161236
4000.12, 0.161050
4003.21, 0.161050
4006.3, 0.160863
4009.4, 0.160770
4012.5, 0.160677
4015.61, 0.160490
4018.72, 0.160304
4021.84, 0.160024
4024.96, 0.159652
4028.09, 0.159465
4031.22, 0.159465
4034.36, 0.159372
4037.5, 0.159279
4040.65, 0.159092
4043.8, 0.158906
4046.96, 0.158720
4050.12, 0.158533
4053.29, 0.158440
4056.46, 0.158440
4059.64, 0.158440
4062.82, 0.158160
4066.0, 0.158067
4069.19, 0.157974
4072.39, 0.157974
4075.59, 0.157788
4078.8, 0.157694
4082.01, 0.157601
4085.23, 0.157601
4088.45, 0.157415
4091.68, 0.157135
4094.91, 0.157042
4098.15, 0.156856
4101.39, 0.156856
4104.63, 0.156762
4107.89, 0.156669
4111.14, 0.156669
4114.41, 0.156576
4117.67, 0.156296
4120.95, 0.156110
4124.23, 0.156203
4127.51, 0.156110
4130.8, 0.155830
4134.09, 0.155830
4137.39, 0.155924
4140.7, 0.155924
4144.01, 0.155830
4147.32, 0.155644
4150.64, 0.155364
4153.97, 0.155271
4157.3, 0.155085
4160.64, 0.154992
4163.98, 0.154898
4167.33, 0.154619
4170.68, 0.154339
4174.04, 0.154060
4177.4, 0.153687
4180.77, 0.153407
4184.14, 0.153034
4187.52, 0.152568
4190.91, 0.152196
4194.3, 0.152009
4197.69, 0.151730
4201.1, 0.151543
4204.5, 0.151450
4207.92, 0.151077
4211.34, 0.150798
4214.76, 0.150518
4218.19, 0.150425
4221.62, 0.150518
4225.06, 0.150238
4228.51, 0.149959
4231.96, 0.149586
4235.42, 0.149306
4238.88, 0.148934
4242.35, 0.148468
4245.83, 0.148002
4249.31, 0.147629
4252.79, 0.146976
4256.28, 0.146324
4259.78, 0.145765
4263.29, 0.145392
4266.79, 0.145112
4270.31, 0.144926
4273.83, 0.144553
4277.35, 0.144180
4280.89, 0.143901
4284.42, 0.143621
4287.97, 0.143342
4291.52, 0.143248
4295.07, 0.143155
4298.63, 0.143062
4302.2, 0.142969
4305.78, 0.143062
4309.35, 0.143155
4312.94, 0.143342
4316.53, 0.143435
4320.13, 0.143621
4323.73, 0.143808
4327.34, 0.143994
4330.96, 0.144367
4334.58, 0.144646
4338.21, 0.144926
4341.84, 0.145206
4345.48, 0.145392
4349.12, 0.145485
4352.77, 0.145765
4356.43, 0.145951
4360.1, 0.145951
4363.76, 0.145765
4367.44, 0.145485
4371.12, 0.145392
4374.81, 0.145206
4378.51, 0.145019
4382.21, 0.144740
4385.92, 0.144367
4389.63, 0.144180
4393.35, 0.143808
4397.08, 0.143435
4400.81, 0.143155
4404.55, 0.142876
4408.29, 0.142503
4412.04, 0.142223
4415.8, 0.141850
4419.57, 0.141198
4423.34, 0.140546
4427.12, 0.140080
4430.9, 0.139800
4434.69, 0.139427
4438.49, 0.138961
4442.29, 0.138495
4446.1, 0.138029
4449.92, 0.137563
4453.74, 0.137097
4457.57, 0.136352
4461.41, 0.135606
4465.25, 0.134674
4469.1, 0.133928
4472.95, 0.133090
4476.82, 0.132158
4480.69, 0.131132
4484.56, 0.129921
4488.44, 0.128523
4492.33, 0.127125
4496.23, 0.125447
4500.13, 0.124049
4504.04, 0.122838
4507.96, 0.121719
4511.88, 0.120974
4515.81, 0.120414
4519.75, 0.119855
4523.69, 0.119110
4527.65, 0.118550
4531.6, 0.117991
4535.57, 0.117152
4539.54, 0.116314
4543.52, 0.115288
4547.5, 0.113890
4551.5, 0.112399
4555.5, 0.110722
4559.5, 0.108764
4563.52, 0.106714
4567.54, 0.104570
4571.56, 0.102240
4575.6, 0.0996310
4579.64, 0.0971140
4583.69, 0.0950640
4587.75, 0.0932000
4591.81, 0.0915220
4595.88, 0.0904040
4599.96, 0.0897520
4604.04, 0.0896580
4608.14, 0.0899380
4612.24, 0.0905900
4616.34, 0.0916160
4620.46, 0.0927340
4624.58, 0.0939460
4628.71, 0.0950640
4632.84, 0.0961820
4636.99, 0.0973940
4641.14, 0.0986990
4645.3, 0.0999100
4649.47, 0.101122
4653.64, 0.102240
4657.82, 0.103172
4662.01, 0.103918
4666.21, 0.104664
4670.41, 0.105409
4674.62, 0.105968
4678.84, 0.105875
4683.07, 0.105316
4687.3, 0.104384
4691.54, 0.103079
4695.79, 0.101495
4700.05, 0.0998170
4704.31, 0.0978600
4708.59, 0.0959960
4712.87, 0.0941320
4717.15, 0.0923610
4721.45, 0.0905900
4725.76, 0.0890990
4730.07, 0.0876080
4734.39, 0.0859300
4738.72, 0.0840660
4743.05, 0.0822020
4747.39, 0.0805250
4751.75, 0.0792200
4756.1, 0.0785680
4760.47, 0.0784740
4764.85, 0.0790340
4769.23, 0.0797790
4773.62, 0.0807110
4778.02, 0.0812700
4782.43, 0.0810840
4786.85, 0.0803380
4791.27, 0.0788470
4795.7, 0.0768900
4800.14, 0.0751190
4804.59, 0.0732550
4809.05, 0.0713910
4813.51, 0.0698070
4817.99, 0.0688750
4822.47, 0.0699930
4826.96, 0.0728820
4831.46, 0.0764240
4835.96, 0.0800590
4840.48, 0.0829480
4845.0, 0.0845320
4849.54, 0.0848120
4854.08, 0.0841600
4858.63, 0.0827620
4863.18, 0.0808980
4867.75, 0.0785680
4872.33, 0.0760510
4876.91, 0.0736280
4881.5, 0.0713910
4886.1, 0.0691540
4890.71, 0.0668240
4895.33, 0.0646810
4899.96, 0.0625370
4904.59, 0.0605800
4909.24, 0.0585300
4913.89, 0.0563860
4918.55, 0.0542420
4923.22, 0.0522850
4927.9, 0.0506080
4932.59, 0.0487440
4937.29, 0.0468800
4942.0, 0.0449220
4946.71, 0.0429650
4951.44, 0.0410080
4956.17, 0.0391440
4960.91, 0.0381190
4965.67, 0.0383050
4970.43, 0.0399830
4975.2, 0.0431520
4979.98, 0.0474390
4984.76, 0.0523780
4989.56, 0.0575040
4994.37, 0.0627240
4999.18, 0.0673840
5004.01, 0.0709250
5008.84, 0.0735350
5013.69, 0.0751190
5018.54, 0.0757720
5023.4, 0.0756780
5028.28, 0.0752120
5033.16, 0.0744670
5038.05, 0.0732550
5042.95, 0.0718570
5047.86, 0.0701800
5052.78, 0.0678500
5057.71, 0.0650540
5062.65, 0.0616980
5067.6, 0.0579700
5072.56, 0.0539630
5077.53, 0.0499550
5082.5, 0.0458540
5087.49, 0.0422200
5092.49, 0.0397030
5097.5, 0.0385850
5102.51, 0.0390510
5107.54, 0.0412880
5112.58, 0.0450160
5117.62, 0.0500480
5122.68, 0.0554540
5127.75, 0.0612320
5132.82, 0.0668240
5137.91, 0.0723230
5143.01, 0.0774490
5148.12, 0.0822020
5153.23, 0.0863960
5158.36, 0.0903110
5163.5, 0.0941320
5168.65, 0.0975800
5173.81, 0.100563
5178.98, 0.103359
5184.15, 0.106155
5189.34, 0.108671
5194.54, 0.111094
5199.75, 0.113331
5204.98, 0.115195
5210.21, 0.116966
5215.45, 0.118550
5220.7, 0.119855
5225.96, 0.121160
5231.23, 0.122278
5236.52, 0.123304
5241.81, 0.124329
5247.12, 0.125168
5252.44, 0.125913
5257.76, 0.126659
5263.1, 0.127218
5268.45, 0.127591
5273.81, 0.127964
5279.18, 0.128243
5284.56, 0.128430
5289.95, 0.128802
5295.36, 0.128989
5300.77, 0.128989
