Database of Origin, USGS Spectral Database
Sample Description, See USGS database for additional info
Date Added,2016-08-03 21:25:11.091999

Data ID,USGS_cli19          
Sample ID, clinoptilolite_gds152.5853
Mineral Name, clinoptilolite
Material Class,Tectosilicate

Wavelength
1499.61, 0.442587
1500.04, 0.442314
1500.48, 0.441767
1500.91, 0.441221
1501.35, 0.441085
1501.78, 0.441312
1502.22, 0.440903
1502.65, 0.440539
1503.09, 0.440539
1503.53, 0.439810
1503.96, 0.439401
1504.4, 0.439537
1504.83, 0.439901
1505.27, 0.440084
1505.71, 0.439628
1506.15, 0.438718
1506.58, 0.438309
1507.02, 0.438218
1507.46, 0.438081
1507.9, 0.438491
1508.34, 0.438718
1508.78, 0.438900
1509.21, 0.438764
1509.66, 0.438309
1510.09, 0.438263
1510.53, 0.438309
1510.97, 0.438218
1511.42, 0.438172
1511.86, 0.438354
1512.3, 0.438309
1512.74, 0.437899
1513.18, 0.437763
1513.62, 0.437763
1514.06, 0.437990
1514.51, 0.438081
1514.95, 0.437990
1515.39, 0.438218
1515.83, 0.438400
1516.28, 0.438536
1516.72, 0.438582
1517.16, 0.438536
1517.61, 0.438400
1518.05, 0.438536
1518.5, 0.438764
1518.94, 0.438764
1519.39, 0.438946
1519.83, 0.438991
1520.28, 0.439037
1520.73, 0.438900
1521.17, 0.438855
1521.62, 0.438900
1522.07, 0.438946
1522.51, 0.439355
1522.96, 0.439719
1523.41, 0.439719
1523.85, 0.439901
1524.3, 0.439993
1524.75, 0.440266
1525.2, 0.440493
1525.65, 0.439947
1526.1, 0.439993
1526.55, 0.440539
1527.0, 0.440766
1527.45, 0.440493
1527.9, 0.440584
1528.35, 0.441312
1528.8, 0.441540
1529.25, 0.441813
1529.7, 0.442041
1530.15, 0.441858
1530.6, 0.442131
1531.05, 0.442678
1531.51, 0.443315
1531.96, 0.443724
1532.41, 0.443269
1532.87, 0.443042
1533.32, 0.443269
1533.77, 0.443542
1534.23, 0.443724
1534.68, 0.444270
1535.14, 0.444862
1535.59, 0.445181
1536.05, 0.445181
1536.5, 0.445545
1536.96, 0.445772
1537.41, 0.445863
1537.87, 0.446364
1538.32, 0.446865
1538.78, 0.446728
1539.24, 0.447001
1539.7, 0.447638
1540.15, 0.448048
1540.61, 0.448548
1541.07, 0.448913
1541.53, 0.449049
1541.98, 0.449140
1542.44, 0.449186
1542.9, 0.449823
1543.36, 0.449868
1543.82, 0.450096
1544.28, 0.450369
1544.74, 0.450460
1545.2, 0.450369
1545.66, 0.450733
1546.12, 0.451507
1546.59, 0.451962
1547.05, 0.452553
1547.51, 0.452917
1547.97, 0.452917
1548.43, 0.453145
1548.9, 0.453464
1549.36, 0.453873
1549.82, 0.454192
1550.29, 0.454237
1550.75, 0.454601
1551.21, 0.455193
1551.68, 0.455375
1552.14, 0.455830
1552.61, 0.456103
1553.07, 0.455921
1553.54, 0.456331
1554.0, 0.457059
1554.47, 0.457559
1554.93, 0.457741
1555.4, 0.457787
1555.87, 0.458060
1556.34, 0.458788
1556.8, 0.459334
1557.27, 0.459425
1557.74, 0.459562
1558.21, 0.459926
1558.68, 0.460654
1559.14, 0.460973
1559.61, 0.461200
1560.08, 0.461564
1560.55, 0.461746
1561.02, 0.462247
1561.49, 0.462611
1561.96, 0.462748
1562.43, 0.462748
1562.9, 0.462975
1563.38, 0.463703
1563.85, 0.464249
1564.32, 0.464523
1564.79, 0.464796
1565.26, 0.465114
1565.74, 0.465660
1566.21, 0.465751
1566.68, 0.466115
1567.16, 0.466434
1567.63, 0.467071
1568.1, 0.467481
1568.58, 0.467663
1569.05, 0.467663
1569.53, 0.467936
1570.0, 0.468391
1570.48, 0.468527
1570.96, 0.468891
1571.43, 0.469256
1571.91, 0.469665
1572.39, 0.470393
1572.86, 0.470666
1573.34, 0.471030
1573.82, 0.471258
1574.3, 0.471531
1574.77, 0.471850
1575.25, 0.471941
1575.73, 0.472259
1576.21, 0.472805
1576.69, 0.473033
1577.17, 0.473442
1577.65, 0.473579
1578.13, 0.473670
1578.61, 0.474080
1579.09, 0.474626
1579.57, 0.475035
1580.05, 0.475536
1580.54, 0.475991
1581.02, 0.476446
1581.5, 0.476537
1581.98, 0.476674
1582.47, 0.476765
1582.95, 0.477038
1583.43, 0.477811
1583.92, 0.478130
1584.4, 0.478358
1584.88, 0.478585
1585.37, 0.478631
1585.85, 0.478995
1586.34, 0.479495
1586.82, 0.479768
1587.31, 0.480042
1587.8, 0.480451
1588.28, 0.480815
1588.77, 0.481043
1589.26, 0.481225
1589.74, 0.481543
1590.23, 0.481907
1590.72, 0.482180
1591.21, 0.482317
1591.7, 0.482681
1592.19, 0.483273
1592.67, 0.483682
1593.16, 0.483819
1593.65, 0.484137
1594.14, 0.484501
1594.63, 0.484684
1595.12, 0.485093
1595.61, 0.485139
1596.11, 0.485412
1596.6, 0.485685
1597.09, 0.485912
1597.58, 0.486413
1598.08, 0.486868
1598.57, 0.487278
1599.06, 0.487369
1599.55, 0.487596
1600.05, 0.487960
1600.54, 0.488279
1601.04, 0.488688
1601.53, 0.489053
1602.03, 0.489280
1602.52, 0.489553
1603.02, 0.489872
1603.51, 0.490008
1604.01, 0.489963
1604.5, 0.490463
1605.0, 0.491009
1605.5, 0.491237
1606.0, 0.491601
1606.49, 0.491965
1606.99, 0.492147
1607.49, 0.492375
1607.99, 0.492784
1608.49, 0.493148
1608.99, 0.493512
1609.49, 0.493968
1609.99, 0.494059
1610.49, 0.494241
1610.99, 0.494650
1611.49, 0.494696
1611.99, 0.494878
1612.49, 0.495515
1612.99, 0.495833
1613.49, 0.496016
1614.0, 0.496198
1614.5, 0.496425
1615.0, 0.496744
1615.51, 0.497153
1616.01, 0.497517
1616.51, 0.497654
1617.02, 0.497972
1617.52, 0.498109
1618.03, 0.498337
1618.53, 0.498701
1619.04, 0.498701
1619.54, 0.498837
1620.05, 0.499429
1620.55, 0.499793
1621.06, 0.500202
1621.57, 0.500476
1622.08, 0.500703
1622.58, 0.500931
1623.09, 0.501431
1623.6, 0.501795
1624.11, 0.501977
1624.62, 0.502114
1625.13, 0.502250
1625.64, 0.502842
1626.15, 0.503297
1626.66, 0.503252
1627.17, 0.503252
1627.68, 0.503707
1628.19, 0.503980
1628.7, 0.504116
1629.21, 0.504207
1629.72, 0.504435
1630.24, 0.504708
1630.75, 0.505118
1631.26, 0.505482
1631.78, 0.505709
1632.29, 0.506028
1632.8, 0.506164
1633.32, 0.506437
1633.83, 0.506756
1634.35, 0.507120
1634.86, 0.507302
1635.38, 0.507484
1635.9, 0.507712
1636.41, 0.507757
1636.93, 0.508030
1637.45, 0.508303
1637.96, 0.508576
1638.48, 0.508986
1639.0, 0.509168
1639.52, 0.509441
1640.04, 0.509623
1640.56, 0.509714
1641.08, 0.510078
1641.59, 0.510533
1642.11, 0.510715
1642.63, 0.510761
1643.16, 0.510806
1643.68, 0.511125
1644.2, 0.511580
1644.72, 0.511717
1645.24, 0.511671
1645.76, 0.511990
1646.29, 0.512126
1646.81, 0.512308
1647.33, 0.512809
1647.86, 0.513036
1648.38, 0.513082
1648.9, 0.513355
1649.43, 0.513628
1649.95, 0.513992
1650.48, 0.514038
1651.0, 0.513901
1651.53, 0.514129
1652.06, 0.514584
1652.58, 0.514766
1653.11, 0.514902
1653.64, 0.515130
1654.17, 0.515357
1654.69, 0.515312
1655.22, 0.515448
1655.75, 0.515767
1656.28, 0.516313
1656.81, 0.516495
1657.34, 0.516677
1657.87, 0.516950
1658.4, 0.517041
1658.93, 0.517223
1659.46, 0.517451
1659.99, 0.517587
1660.52, 0.517815
1661.05, 0.517951
1661.59, 0.518134
1662.12, 0.518498
1662.65, 0.518634
1663.19, 0.518771
1663.72, 0.519044
1664.26, 0.519180
1664.79, 0.519271
1665.32, 0.519544
1665.86, 0.520045
1666.39, 0.520181
1666.93, 0.520136
1667.47, 0.520181
1668.0, 0.520546
1668.54, 0.521046
1669.08, 0.521228
1669.61, 0.521501
1670.15, 0.521547
1670.69, 0.521501
1671.23, 0.521501
1671.77, 0.521729
1672.31, 0.521911
1672.85, 0.522320
1673.39, 0.522593
1673.93, 0.522776
1674.47, 0.522776
1675.01, 0.522958
1675.55, 0.523231
1676.09, 0.523413
1676.64, 0.523640
1677.18, 0.523822
1677.72, 0.523959
1678.26, 0.524095
1678.81, 0.524232
1679.35, 0.524414
1679.89, 0.524323
1680.44, 0.524733
1680.98, 0.525006
1681.53, 0.525188
1682.07, 0.525324
1682.62, 0.525643
1683.17, 0.525825
1683.71, 0.525825
1684.26, 0.526052
1684.81, 0.526234
1685.36, 0.526371
1685.9, 0.526371
1686.45, 0.526371
1687.0, 0.526644
1687.55, 0.526917
1688.1, 0.527054
1688.65, 0.527327
1689.2, 0.527691
1689.75, 0.527736
1690.3, 0.527782
1690.85, 0.528100
1691.41, 0.527918
1691.96, 0.527964
1692.51, 0.528146
1693.06, 0.528510
1693.61, 0.528464
1694.17, 0.528373
1694.72, 0.528646
1695.28, 0.529101
1695.83, 0.529283
1696.39, 0.529056
1696.94, 0.529238
1697.5, 0.529693
1698.05, 0.529693
1698.61, 0.529784
1699.17, 0.530012
1699.72, 0.530194
1700.28, 0.530148
1700.84, 0.530103
1701.4, 0.530285
1701.95, 0.530376
1702.51, 0.530512
1703.07, 0.530740
1703.63, 0.530922
1704.19, 0.531149
1704.75, 0.531240
1705.31, 0.531058
1705.88, 0.531058
1706.44, 0.531286
1707.0, 0.531468
1707.56, 0.531604
1708.12, 0.531604
1708.69, 0.531923
1709.25, 0.532014
1709.81, 0.531923
1710.38, 0.532105
1710.94, 0.532242
1711.51, 0.532287
1712.07, 0.532333
1712.64, 0.532515
1713.2, 0.532333
1713.77, 0.532469
1714.34, 0.532833
1714.9, 0.532924
1715.47, 0.533015
1716.04, 0.532970
1716.61, 0.533106
1717.18, 0.533015
1717.74, 0.533015
1718.31, 0.533015
1718.88, 0.533152
1719.45, 0.533379
1720.02, 0.533470
1720.59, 0.533561
1721.17, 0.533607
1721.74, 0.533652
1722.31, 0.533744
1722.88, 0.533835
1723.45, 0.533880
1724.03, 0.533971
1724.6, 0.534108
1725.18, 0.534244
1725.75, 0.534108
1726.33, 0.534153
1726.9, 0.534153
1727.48, 0.534244
1728.05, 0.534108
1728.63, 0.533880
1729.2, 0.534062
1729.78, 0.534199
1730.36, 0.534290
1730.94, 0.534472
1731.51, 0.534654
1732.09, 0.534654
1732.67, 0.534654
1733.25, 0.534517
1733.83, 0.534563
1734.41, 0.534654
1734.99, 0.534517
1735.57, 0.534745
1736.15, 0.534836
1736.73, 0.534790
1737.32, 0.535018
1737.9, 0.535018
1738.48, 0.534972
1739.07, 0.534972
1739.65, 0.535018
1740.23, 0.535063
1740.82, 0.535109
1741.4, 0.535063
1741.99, 0.535154
1742.57, 0.535382
1743.16, 0.535245
1743.74, 0.535245
1744.33, 0.535245
1744.92, 0.535200
1745.51, 0.535245
1746.09, 0.535154
1746.68, 0.535018
1747.27, 0.535109
1747.86, 0.535063
1748.45, 0.535245
1749.04, 0.535427
1749.63, 0.535154
1750.22, 0.535109
1750.81, 0.535245
1751.4, 0.535427
1751.99, 0.535473
1752.59, 0.535427
1753.18, 0.535382
1753.77, 0.535427
1754.37, 0.535518
1754.96, 0.535473
1755.56, 0.535473
1756.15, 0.535473
1756.74, 0.535473
1757.34, 0.535336
1757.94, 0.535518
1758.53, 0.535609
1759.13, 0.535382
1759.73, 0.535792
1760.32, 0.536019
1760.92, 0.535973
1761.52, 0.535700
1762.12, 0.535473
1762.72, 0.535609
1763.32, 0.535837
1763.92, 0.535837
1764.52, 0.535746
1765.12, 0.535564
1765.72, 0.535746
1766.32, 0.535655
1766.92, 0.535518
1767.53, 0.535655
1768.13, 0.535655
1768.73, 0.535609
1769.34, 0.535518
1769.94, 0.535291
1770.55, 0.535518
1771.15, 0.535609
1771.76, 0.535473
1772.36, 0.535609
1772.97, 0.535700
1773.57, 0.535609
1774.18, 0.535655
1774.79, 0.535837
1775.4, 0.535837
1776.0, 0.535792
1776.61, 0.535837
1777.22, 0.535882
1777.83, 0.535882
1778.44, 0.535928
1779.05, 0.536019
1779.66, 0.535973
1780.27, 0.535882
1780.88, 0.535792
1781.5, 0.535882
1782.11, 0.535973
1782.72, 0.535837
1783.33, 0.535792
1783.95, 0.535837
1784.56, 0.536019
1785.18, 0.536156
1785.79, 0.536065
1786.41, 0.535973
1787.02, 0.535792
1787.64, 0.535882
1788.26, 0.535973
1788.87, 0.536019
1789.49, 0.536019
1790.11, 0.536110
1790.73, 0.536110
1791.35, 0.536110
1791.96, 0.536019
1792.58, 0.536065
1793.21, 0.535973
1793.83, 0.535792
1794.45, 0.535837
1795.07, 0.535928
1795.69, 0.535973
1796.31, 0.535882
1796.93, 0.535973
1797.56, 0.535882
1798.18, 0.535792
1798.8, 0.535973
1799.43, 0.535973
1800.05, 0.535882
1800.68, 0.535655
1801.3, 0.535564
1801.93, 0.535746
1802.56, 0.535746
1803.18, 0.535882
1803.81, 0.536156
1804.44, 0.536201
1805.07, 0.536110
1805.7, 0.535837
1806.33, 0.535792
1806.95, 0.535973
1807.58, 0.535973
1808.22, 0.536019
1808.85, 0.536065
1809.48, 0.536019
1810.11, 0.536065
1810.74, 0.536156
1811.38, 0.536065
1812.01, 0.536019
1812.64, 0.535973
1813.28, 0.536110
1813.91, 0.536201
1814.55, 0.536156
1815.18, 0.535882
1815.82, 0.535973
1816.45, 0.536019
1817.09, 0.536156
1817.73, 0.536201
1818.36, 0.536201
1819.0, 0.536247
1819.64, 0.535973
1820.28, 0.535609
1820.92, 0.535882
1821.56, 0.536065
1822.2, 0.536156
1822.84, 0.536247
1823.48, 0.536520
1824.12, 0.536702
1824.76, 0.536747
1825.41, 0.536110
1826.05, 0.535427
1826.69, 0.536065
1827.34, 0.536656
1827.98, 0.536429
1828.63, 0.536156
1829.27, 0.536247
1829.92, 0.536383
1830.56, 0.536019
1831.21, 0.535837
1831.86, 0.536201
1832.5, 0.536429
1833.15, 0.536656
1833.8, 0.536656
1834.45, 0.536201
1835.1, 0.535973
1835.75, 0.535427
1836.4, 0.535336
1837.05, 0.535655
1837.7, 0.535518
1838.35, 0.536065
1839.01, 0.536065
1839.66, 0.535382
1840.31, 0.535473
1840.96, 0.535291
1841.62, 0.534426
1842.27, 0.534927
1842.93, 0.535609
1843.58, 0.535792
1844.24, 0.535837
1844.9, 0.535973
1845.55, 0.535609
1846.21, 0.534563
1846.87, 0.533470
1847.53, 0.533425
1848.18, 0.533470
1848.84, 0.533926
1849.5, 0.533971
1850.16, 0.533926
1850.82, 0.534108
1851.48, 0.534199
1852.14, 0.533379
1852.81, 0.532515
1853.47, 0.531514
1854.13, 0.531514
1854.8, 0.531832
1855.46, 0.531514
1856.12, 0.530467
1856.79, 0.530103
1857.45, 0.530330
1858.12, 0.530148
1858.79, 0.529238
1859.45, 0.527736
1860.12, 0.527281
1860.79, 0.527281
1861.46, 0.527236
1862.12, 0.526598
1862.79, 0.525870
1863.46, 0.524869
1864.13, 0.524004
1864.8, 0.523367
1865.48, 0.522776
1866.15, 0.521729
1866.82, 0.519999
1867.49, 0.518134
1868.16, 0.517314
1868.84, 0.516723
1869.51, 0.515494
1870.19, 0.513400
1870.86, 0.511307
1871.54, 0.510897
1872.21, 0.509396
1872.89, 0.506801
1873.56, 0.505482
1874.24, 0.504571
1874.92, 0.502842
1875.6, 0.500976
1876.28, 0.498610
1876.96, 0.496107
1877.64, 0.494195
1878.32, 0.491965
1879.0, 0.489235
1879.68, 0.486367
1880.36, 0.483546
1881.04, 0.480451
1881.73, 0.477129
1882.41, 0.473579
1883.09, 0.469620
1883.78, 0.465296
1884.46, 0.461428
1885.15, 0.457332
1885.83, 0.452690
1886.52, 0.447775
1887.21, 0.442905
1887.89, 0.437899
1888.58, 0.432802
1889.27, 0.427477
1889.96, 0.422016
1890.65, 0.417237
1891.34, 0.412413
1892.03, 0.407453
1892.72, 0.402765
1893.41, 0.397850
1894.1, 0.393163
1894.79, 0.388839
1895.49, 0.384470
1896.18, 0.380192
1896.87, 0.376233
1897.57, 0.372410
1898.26, 0.368906
1898.96, 0.365219
1899.65, 0.361760
1900.35, 0.359166
1901.05, 0.356891
1901.74, 0.354433
1902.44, 0.351794
1903.14, 0.349746
1903.84, 0.347971
1904.54, 0.345741
1905.24, 0.344057
1905.94, 0.343192
1906.64, 0.342328
1907.34, 0.341827
1908.04, 0.341508
1908.75, 0.341190
1909.45, 0.341326
1910.15, 0.341554
1910.86, 0.341918
1911.56, 0.342419
1912.27, 0.343238
1912.97, 0.343920
1913.68, 0.345240
1914.39, 0.347061
1915.09, 0.348699
1915.8, 0.350292
1916.51, 0.352021
1917.22, 0.353887
1917.93, 0.355935
1918.64, 0.357983
1919.35, 0.359667
1920.06, 0.361214
1920.77, 0.363399
1921.48, 0.366129
1922.19, 0.368633
1922.91, 0.370999
1923.62, 0.372956
1924.33, 0.375186
1925.05, 0.377598
1925.76, 0.379919
1926.48, 0.381967
1927.19, 0.384015
1927.91, 0.385972
1928.63, 0.388338
1929.35, 0.390568
1930.07, 0.392707
1930.78, 0.394937
1931.5, 0.396894
1932.22, 0.398715
1932.94, 0.400581
1933.66, 0.402356
1934.39, 0.404221
1935.11, 0.405905
1935.83, 0.407453
1936.55, 0.409182
1937.28, 0.410820
1938.0, 0.412140
1938.73, 0.413460
1939.45, 0.414962
1940.18, 0.416418
1940.9, 0.417784
1941.63, 0.419149
1942.36, 0.420469
1943.09, 0.421743
1943.81, 0.422835
1944.54, 0.423973
1945.27, 0.425065
1946.0, 0.426203
1946.73, 0.427250
1947.47, 0.428069
1948.2, 0.429070
1948.93, 0.430299
1949.66, 0.431300
1950.4, 0.432074
1951.13, 0.432984
1951.86, 0.433894
1952.6, 0.434759
1953.34, 0.435578
1954.07, 0.436534
1954.81, 0.437307
1955.55, 0.438036
1956.29, 0.438900
1957.02, 0.439765
1957.76, 0.440584
1958.5, 0.441312
1959.24, 0.442177
1959.98, 0.443133
1960.72, 0.443906
1961.47, 0.444771
1962.21, 0.445545
1962.95, 0.446318
1963.7, 0.447092
1964.44, 0.447638
1965.18, 0.448366
1965.93, 0.449231
1966.67, 0.450005
1967.42, 0.450915
1968.17, 0.451598
1968.92, 0.452189
1969.66, 0.453054
1970.41, 0.453828
1971.16, 0.454601
1971.91, 0.455511
1972.66, 0.456194
1973.41, 0.456786
1974.16, 0.457605
1974.92, 0.458379
1975.67, 0.459198
1976.42, 0.459971
1977.18, 0.460745
1977.93, 0.461519
1978.69, 0.462338
1979.44, 0.463021
1980.2, 0.463885
1980.95, 0.464659
1981.71, 0.465387
1982.47, 0.466206
1983.23, 0.467071
1983.99, 0.467890
1984.74, 0.468618
1985.51, 0.469347
1986.27, 0.470348
1987.03, 0.471122
1987.79, 0.471759
1988.55, 0.472532
1989.32, 0.473442
1990.08, 0.474216
1990.84, 0.475035
1991.61, 0.475718
1992.37, 0.476537
1993.14, 0.477538
1993.9, 0.478312
1994.67, 0.478904
1995.44, 0.479768
1996.21, 0.480724
1996.98, 0.481589
1997.75, 0.482271
1998.52, 0.482818
1999.29, 0.483682
2000.06, 0.484729
2000.83, 0.485503
2001.6, 0.486185
2002.38, 0.486868
2003.15, 0.487596
2003.93, 0.488506
2004.7, 0.489189
2005.48, 0.489872
2006.25, 0.490554
2007.03, 0.491374
2007.81, 0.491965
2008.58, 0.492511
2009.36, 0.493285
2010.14, 0.494059
2010.92, 0.494832
2011.7, 0.495606
2012.48, 0.496198
2013.26, 0.496789
2014.05, 0.497426
2014.83, 0.497972
2015.61, 0.498610
2016.4, 0.499429
2017.18, 0.500157
2017.97, 0.500703
2018.75, 0.501204
2019.54, 0.501795
2020.32, 0.502341
2021.11, 0.502979
2021.9, 0.503434
2022.69, 0.504025
2023.48, 0.504617
2024.27, 0.504936
2025.06, 0.505300
2025.85, 0.505800
2026.64, 0.506437
2027.44, 0.507029
2028.23, 0.507621
2029.02, 0.507985
2029.82, 0.508349
2030.61, 0.508804
2031.41, 0.509259
2032.2, 0.509669
2033.0, 0.509942
2033.8, 0.510306
2034.6, 0.510624
2035.4, 0.511079
2036.2, 0.511535
2037.0, 0.512035
2037.8, 0.512490
2038.6, 0.512718
2039.4, 0.513036
2040.2, 0.513355
2041.01, 0.513719
2041.81, 0.513992
2042.61, 0.514402
2043.42, 0.514811
2044.22, 0.514902
2045.03, 0.514902
2045.84, 0.515130
2046.65, 0.515448
2047.46, 0.515721
2048.26, 0.515995
2049.07, 0.516313
2049.88, 0.516632
2050.69, 0.516723
2051.51, 0.516905
2052.32, 0.517223
2053.13, 0.517269
2053.94, 0.517451
2054.76, 0.517542
2055.57, 0.517678
2056.39, 0.517860
2057.2, 0.517906
2058.02, 0.518043
2058.84, 0.518361
2059.66, 0.518634
2060.48, 0.518907
2061.29, 0.518998
2062.11, 0.518998
2062.94, 0.519044
2063.76, 0.519089
2064.58, 0.519271
2065.4, 0.519453
2066.22, 0.519544
2067.05, 0.519635
2067.87, 0.519817
2068.7, 0.519954
2069.52, 0.520045
2070.35, 0.520090
2071.18, 0.520181
2072.0, 0.520318
2072.83, 0.520455
2073.66, 0.520546
2074.49, 0.520682
2075.32, 0.520819
2076.15, 0.521092
2076.98, 0.521137
2077.82, 0.521137
2078.65, 0.521319
2079.48, 0.521456
2080.32, 0.521592
2081.15, 0.521865
2081.99, 0.521956
2082.83, 0.522047
2083.66, 0.522275
2084.5, 0.522457
2085.34, 0.522548
2086.18, 0.522730
2087.02, 0.522912
2087.86, 0.522958
2088.7, 0.523049
2089.54, 0.523231
2090.39, 0.523413
2091.23, 0.523458
2092.07, 0.523595
2092.92, 0.523822
2093.76, 0.523959
2094.61, 0.524141
2095.45, 0.524368
2096.3, 0.524505
2097.15, 0.524596
2098.0, 0.524778
2098.85, 0.525051
2099.7, 0.525097
2100.55, 0.525279
2101.4, 0.525415
2102.25, 0.525415
2103.1, 0.525597
2103.96, 0.526052
2104.81, 0.526143
2105.67, 0.526052
2106.52, 0.526234
2107.38, 0.526416
2108.24, 0.526553
2109.09, 0.526689
2109.95, 0.526826
2110.81, 0.526917
2111.67, 0.527008
2112.53, 0.527190
2113.39, 0.527418
2114.25, 0.527509
2115.12, 0.527554
2115.98, 0.527691
2116.84, 0.527827
2117.71, 0.528055
2118.58, 0.528191
2119.44, 0.528464
2120.31, 0.528601
2121.18, 0.528510
2122.04, 0.528555
2122.91, 0.528874
2123.78, 0.529056
2124.65, 0.529283
2125.52, 0.529329
2126.4, 0.529329
2127.27, 0.529329
2128.14, 0.529511
2129.02, 0.529648
2129.89, 0.529784
2130.77, 0.530012
2131.64, 0.529921
2132.52, 0.530012
2133.4, 0.530148
2134.27, 0.530148
2135.15, 0.530330
2136.03, 0.530558
2136.91, 0.530694
2137.79, 0.530694
2138.68, 0.530694
2139.56, 0.530967
2140.44, 0.531149
2141.33, 0.531058
2142.21, 0.531058
2143.1, 0.531058
2143.99, 0.531195
2144.87, 0.531331
2145.76, 0.531331
2146.65, 0.531468
2147.54, 0.531514
2148.43, 0.531559
2149.32, 0.531559
2150.21, 0.531604
2151.1, 0.531650
2151.99, 0.531787
2152.89, 0.531832
2153.78, 0.531969
2154.68, 0.532014
2155.57, 0.532014
2156.47, 0.531969
2157.37, 0.531878
2158.27, 0.531787
2159.16, 0.531696
2160.06, 0.531787
2160.96, 0.531696
2161.86, 0.531650
2162.77, 0.531650
2163.67, 0.531696
2164.57, 0.531650
2165.48, 0.531514
2166.38, 0.531422
2167.29, 0.531205
2168.2, 0.531075
2169.1, 0.530858
2170.01, 0.530379
2170.92, 0.530379
2171.83, 0.530336
2172.74, 0.530162
2173.65, 0.529901
2174.56, 0.529597
2175.47, 0.529076
2176.39, 0.528902
2177.3, 0.528989
2178.22, 0.528858
2179.13, 0.528293
2180.05, 0.527859
2180.96, 0.527598
2181.88, 0.527598
2182.8, 0.527685
2183.72, 0.527337
2184.64, 0.527033
2185.56, 0.527033
2186.48, 0.527250
2187.41, 0.527163
2188.33, 0.526642
2189.25, 0.526685
2190.18, 0.526598
2191.1, 0.526598
2192.03, 0.526772
2192.96, 0.526642
2193.89, 0.526164
2194.82, 0.526207
2195.74, 0.526250
2196.68, 0.526164
2197.61, 0.526033
2198.54, 0.525990
2199.47, 0.525729
2200.4, 0.525816
2201.34, 0.525729
2202.28, 0.525685
2203.21, 0.525555
2204.15, 0.525251
2205.08, 0.525120
2206.02, 0.525381
2206.96, 0.525512
2207.9, 0.525207
2208.84, 0.524947
2209.78, 0.525164
2210.73, 0.524990
2211.67, 0.524599
2212.61, 0.524382
2213.56, 0.524382
2214.5, 0.524468
2215.45, 0.524555
2216.4, 0.524382
2217.35, 0.524295
2218.3, 0.524208
2219.24, 0.524121
2220.2, 0.523903
2221.15, 0.523903
2222.1, 0.523817
2223.05, 0.523773
2224.0, 0.523599
2224.96, 0.523730
2225.91, 0.523599
2226.87, 0.523295
2227.83, 0.523121
2228.79, 0.523034
2229.74, 0.522947
2230.7, 0.522991
2231.66, 0.522730
2232.63, 0.522556
2233.59, 0.522556
2234.55, 0.522686
2235.51, 0.522426
2236.48, 0.522208
2237.44, 0.522035
2238.41, 0.521991
2239.38, 0.521948
2240.34, 0.521774
2241.31, 0.521470
2242.28, 0.521470
2243.25, 0.521339
2244.22, 0.521165
2245.19, 0.521122
2246.17, 0.521513
2247.14, 0.521383
2248.12, 0.521165
2249.09, 0.520861
2250.07, 0.520644
2251.04, 0.520687
2252.02, 0.520600
2253.0, 0.520383
2253.98, 0.520383
2254.96, 0.520296
2255.94, 0.520079
2256.92, 0.519861
2257.91, 0.519774
2258.89, 0.519427
2259.88, 0.519253
2260.86, 0.519122
2261.85, 0.518949
2262.83, 0.518471
2263.82, 0.518123
2264.81, 0.517992
2265.8, 0.517949
2266.79, 0.517601
2267.78, 0.516732
2268.78, 0.516341
2269.77, 0.516080
2270.76, 0.515515
2271.76, 0.514993
2272.75, 0.514168
2273.75, 0.513516
2274.75, 0.513038
2275.75, 0.512386
2276.75, 0.511734
2277.75, 0.511256
2278.75, 0.510473
2279.75, 0.509778
2280.75, 0.509083
2281.76, 0.508518
2282.76, 0.507779
2283.77, 0.507257
2284.77, 0.506562
2285.78, 0.505606
2286.79, 0.504910
2287.8, 0.504389
2288.81, 0.503824
2289.82, 0.503302
2290.83, 0.502737
2291.84, 0.502346
2292.86, 0.501781
2293.87, 0.501042
2294.89, 0.500651
2295.91, 0.500390
2296.92, 0.499912
2297.94, 0.499390
2298.96, 0.499173
2299.98, 0.499086
2301.0, 0.498651
2302.02, 0.498043
2303.04, 0.497695
2304.07, 0.497478
2305.09, 0.497304
2306.12, 0.497261
2307.15, 0.496913
2308.17, 0.496739
2309.2, 0.496739
2310.23, 0.496565
2311.26, 0.496348
2312.29, 0.496304
2313.32, 0.496000
2314.35, 0.495609
2315.39, 0.495087
2316.42, 0.495001
2317.46, 0.494827
2318.5, 0.494566
2319.53, 0.494131
2320.57, 0.493697
2321.61, 0.493305
2322.65, 0.492740
2323.69, 0.492088
2324.73, 0.491654
2325.78, 0.491132
2326.82, 0.490567
2327.86, 0.489741
2328.91, 0.489003
2329.96, 0.488438
2331.01, 0.487916
2332.05, 0.487221
2333.1, 0.486395
2334.15, 0.485439
2335.21, 0.484656
2336.26, 0.483787
2337.31, 0.483135
2338.36, 0.482483
2339.42, 0.481657
2340.48, 0.480658
2341.53, 0.479702
2342.59, 0.478876
2343.65, 0.478093
2344.71, 0.477007
2345.77, 0.476181
2346.83, 0.475486
2347.9, 0.474356
2348.96, 0.473139
2350.02, 0.472226
2351.09, 0.471400
2352.16, 0.470487
2353.23, 0.469575
2354.29, 0.468575
2355.36, 0.467358
2356.43, 0.466358
2357.51, 0.465533
2358.58, 0.464663
2359.65, 0.463664
2360.73, 0.462577
2361.8, 0.461621
2362.88, 0.460795
2363.96, 0.459709
2365.03, 0.458448
2366.11, 0.457362
2367.19, 0.456449
2368.27, 0.455362
2369.36, 0.454580
2370.44, 0.453711
2371.53, 0.452841
2372.61, 0.451755
2373.7, 0.450799
2374.78, 0.449973
2375.87, 0.449017
2376.96, 0.448017
2378.05, 0.447061
2379.14, 0.445974
2380.24, 0.445062
2381.33, 0.444192
2382.42, 0.443366
2383.52, 0.442454
2384.61, 0.441454
2385.71, 0.440541
2386.81, 0.439716
2387.91, 0.438846
2389.01, 0.437977
2390.11, 0.436977
2391.22, 0.436108
2392.32, 0.435195
2393.42, 0.434587
2394.53, 0.433761
2395.64, 0.432414
2396.74, 0.431371
2397.85, 0.430632
2398.96, 0.429849
2400.07, 0.428980
2401.18, 0.427894
2402.3, 0.427024
2403.41, 0.426112
2404.52, 0.425373
2405.64, 0.424373
2406.76, 0.423330
2407.88, 0.422548
2408.99, 0.421418
2410.11, 0.420157
2411.23, 0.419549
2412.36, 0.418636
2413.48, 0.417462
2414.6, 0.416202
2415.73, 0.415202
2416.85, 0.414246
2417.98, 0.413203
2419.11, 0.412203
2420.24, 0.411247
2421.37, 0.410334
2422.5, 0.409204
2423.64, 0.408074
2424.77, 0.407031
2425.9, 0.405858
2427.04, 0.404728
2428.18, 0.403685
2429.31, 0.402598
2430.45, 0.401381
2431.59, 0.400295
2432.73, 0.399295
2433.88, 0.398252
2435.02, 0.397078
2436.16, 0.395992
2437.31, 0.394905
2438.45, 0.393775
2439.6, 0.392558
2440.75, 0.391515
2441.9, 0.390385
2443.05, 0.389385
2444.2, 0.388255
2445.35, 0.386864
2446.51, 0.385821
2447.67, 0.384822
2448.82, 0.383648
2449.98, 0.382735
2451.14, 0.381779
2452.3, 0.380519
2453.46, 0.379432
2454.62, 0.378476
2455.78, 0.377476
2456.94, 0.376390
2458.11, 0.375390
2459.28, 0.374651
2460.44, 0.373782
2461.61, 0.372609
2462.78, 0.371392
2463.95, 0.370522
2465.12, 0.369697
2466.3, 0.368784
2467.47, 0.367741
2468.65, 0.366958
2469.82, 0.366176
2471.0, 0.365394
2472.18, 0.364394
2473.36, 0.363438
2474.54, 0.362482
2475.72, 0.361873
2476.9, 0.361047
2478.08, 0.360135
2479.27, 0.359352
2480.46, 0.358527
2481.64, 0.357657
2482.83, 0.357049
2484.02, 0.356180
2485.21, 0.355397
2486.4, 0.354571
2487.6, 0.353746
2488.79, 0.353137
2489.99, 0.352529
2491.18, 0.351833
2492.38, 0.351181
2493.58, 0.350269
2494.78, 0.349443
2495.98, 0.348747
2497.18, 0.348226
2498.39, 0.347400
2499.59, 0.346748
2500.8, 0.346053
2502.01, 0.345357
2503.21, 0.344531
2504.42, 0.343923
2505.63, 0.343228
2506.84, 0.342706
2508.06, 0.342228
2509.27, 0.341576
2510.49, 0.340663
2511.7, 0.340055
2512.92, 0.339316
2514.14, 0.338577
2515.36, 0.338012
2516.58, 0.337534
2517.8, 0.336969
2519.03, 0.336578
2520.25, 0.336230
2521.48, 0.335752
2522.7, 0.334709
2523.93, 0.333883
2525.16, 0.333405
2526.39, 0.332970
2527.62, 0.332536
2528.86, 0.332058
2530.09, 0.331101
2531.33, 0.329928
2532.56, 0.329233
2533.8, 0.329319
2535.04, 0.328450
2536.28, 0.327668
2537.52, 0.328146
2538.76, 0.328102
2540.01, 0.327407
2541.25, 0.326190
2542.5, 0.324452
2543.75, 0.324408
2544.99, 0.325104
2546.24, 0.324756
2547.49, 0.323278
2548.75, 0.323278
2550.0, 0.322626
2551.26, 0.321148
2552.51, 0.320062
2553.77, 0.321409
2555.03, 0.322670
2556.29, 0.322583
2557.55, 0.321974
2558.81, 0.320366
2560.08, 0.316324
2561.34, 0.312934
2562.61, 0.312586
2563.88, 0.313195
2565.14, 0.316150
2566.41, 0.318932
2567.68, 0.317671
2568.96, 0.313933
2570.23, 0.314064
2571.51, 0.315542
2572.78, 0.311108
2574.06, 0.311717
2575.34, 0.313195
2576.62, 0.311369
2577.9, 0.313368
2579.18, 0.314803
2580.47, 0.312065
2581.75, 0.310978
2583.04, 0.306632
2584.32, 0.306197
2585.61, 0.309457
2586.9, 0.307414
2588.2, 0.307805
2589.49, 0.309674
2590.78, 0.311065
2592.08, 0.308892
2593.37, 0.297939
2594.67, 0.288334
2595.97, 0.296592
2597.27, 0.306197
2598.57, 0.309240
2599.88, 0.308023
2601.18, 0.305371
2602.49, 0.303372
2603.79, 0.299808
2605.1, 0.295375
2606.41, 0.297374
2607.72, 0.300373
2609.03, 0.300503
2610.35, 0.301373
2611.66, 0.301894
2612.98, 0.300547
2614.3, 0.299938
2615.62, 0.294245
2616.94, 0.290463
2618.26, 0.293723
2619.58, 0.290203
2620.91, 0.290159
2622.23, 0.295462
2623.56, 0.296027
2624.89, 0.292680
2626.22, 0.286856
2627.55, 0.288030
2628.88, 0.286074
2630.21, 0.280250
2631.55, 0.283466
2632.89, 0.284987
2634.22, 0.284118
2635.56, 0.285204
2636.9, 0.284509
2638.25, 0.283249
2639.59, 0.281510
2640.93, 0.279467
2642.28, 0.277642
2643.63, 0.276208
2644.98, 0.272774
2646.33, 0.271340
2647.68, 0.271296
2649.03, 0.269949
2650.39, 0.267124
2651.74, 0.262560
2653.1, 0.260561
2654.46, 0.259648
2655.82, 0.257649
2657.18, 0.256910
2658.54, 0.252868
2659.9, 0.249391
2661.27, 0.247522
2662.64, 0.245175
2664.01, 0.237395
2665.38, 0.229746
2666.74, 0.226703
2668.12, 0.226442
2669.49, 0.217011
2670.87, 0.210796
2672.24, 0.214142
2673.62, 0.212317
2675.0, 0.206406
2676.38, 0.200625
2677.76, 0.198713
2679.15, 0.196931
2680.54, 0.197366
2681.92, 0.195323
2683.31, 0.191324
2684.7, 0.188065
2686.09, 0.184501
2687.48, 0.181241
2688.88, 0.178112
2690.27, 0.174200
2691.67, 0.168680
2693.07, 0.160944
2694.47, 0.155858
2695.87, 0.153033
2697.27, 0.149991
2698.67, 0.145514
2700.08, 0.139516
2701.49, 0.133605
2702.9, 0.129085
2704.31, 0.123826
2705.72, 0.118002
2707.13, 0.111570
2708.54, 0.104572
2709.96, 0.0974010
2711.38, 0.0920110
2712.8, 0.0885780
2714.22, 0.0841880
2715.64, 0.0791900
2717.06, 0.0739310
2718.49, 0.0685850
2719.91, 0.0628040
2721.34, 0.0593270
2722.77, 0.0565450
2724.2, 0.0526770
2725.63, 0.0502870
2727.07, 0.0482440
2728.5, 0.0458100
2729.94, 0.0432890
2731.38, 0.0407680
2732.82, 0.0382910
2734.26, 0.0360740
2735.7, 0.0346400
2737.15, 0.0330750
2738.59, 0.0307280
2740.04, 0.0289460
2741.49, 0.0282080
2742.94, 0.0277290
2744.39, 0.0269470
2745.84, 0.0261650
2747.3, 0.0253820
2748.76, 0.0246870
2750.21, 0.0239920
2751.67, 0.0233400
2753.14, 0.0227750
2754.6, 0.0219490
2756.06, 0.0216010
2757.53, 0.0217750
2759.0, 0.0217750
2760.46, 0.0215140
2761.94, 0.0210360
2763.41, 0.0209930
2764.88, 0.0212530
2766.36, 0.0211230
2767.83, 0.0207750
2769.31, 0.0208190
2770.79, 0.0209930
2772.27, 0.0213400
2773.76, 0.0214710
2775.24, 0.0214270
2776.73, 0.0213400
2778.22, 0.0213840
2779.71, 0.0214710
2781.2, 0.0214710
2782.69, 0.0215580
2784.18, 0.0218180
2785.68, 0.0215580
2787.18, 0.0213840
2788.68, 0.0216450
2790.18, 0.0219050
2791.68, 0.0219490
2793.19, 0.0219050
2794.69, 0.0219490
2796.2, 0.0220790
2797.71, 0.0222530
2799.22, 0.0222970
2800.73, 0.0221660
2802.24, 0.0219490
2803.76, 0.0220790
2805.28, 0.0223400
2806.8, 0.0224700
2808.32, 0.0225140
2809.84, 0.0227310
2811.36, 0.0229480
2812.89, 0.0230790
2814.42, 0.0230350
2815.94, 0.0229920
2817.48, 0.0230790
2819.01, 0.0232960
2820.54, 0.0236000
2822.08, 0.0236870
2823.61, 0.0236870
2825.15, 0.0239050
2826.69, 0.0240790
2828.23, 0.0242520
2829.78, 0.0244260
2831.32, 0.0243830
2832.87, 0.0243390
2834.42, 0.0245130
2835.97, 0.0246870
2837.52, 0.0248170
2839.08, 0.0248610
2840.63, 0.0249910
2842.19, 0.0252090
2843.75, 0.0253390
2845.31, 0.0252950
2846.87, 0.0252090
2848.44, 0.0252520
2850.0, 0.0253820
2851.57, 0.0255130
2853.14, 0.0254260
2854.71, 0.0255130
2856.28, 0.0256430
2857.86, 0.0257740
2859.43, 0.0258610
2861.01, 0.0259470
2862.59, 0.0260340
2864.17, 0.0260780
2865.76, 0.0259910
2867.34, 0.0259040
2868.93, 0.0260780
2870.52, 0.0262080
2872.11, 0.0262080
2873.7, 0.0262080
2875.29, 0.0263820
2876.89, 0.0264690
2878.49, 0.0265560
2880.08, 0.0266430
2881.69, 0.0265990
2883.29, 0.0267730
2884.89, 0.0268600
2886.5, 0.0269470
2888.11, 0.0270340
2889.72, 0.0271640
2891.33, 0.0272510
2892.94, 0.0272080
2894.56, 0.0272510
2896.17, 0.0273820
2897.79, 0.0274250
2899.42, 0.0274250
2901.04, 0.0274250
2902.66, 0.0275990
2904.29, 0.0277290
2905.92, 0.0278160
2907.55, 0.0279900
2909.18, 0.0281640
2910.81, 0.0281640
2912.45, 0.0281640
2914.08, 0.0282080
2915.72, 0.0282940
2917.36, 0.0285120
2919.01, 0.0285550
2920.65, 0.0285990
2922.3, 0.0287290
2923.94, 0.0289030
2925.59, 0.0290770
2927.25, 0.0291200
2928.9, 0.0291640
2930.56, 0.0293380
2932.21, 0.0295980
2933.87, 0.0297720
2935.53, 0.0298160
2937.2, 0.0298590
2938.86, 0.0299890
2940.53, 0.0301200
2942.2, 0.0302070
2943.87, 0.0303810
2945.54, 0.0305980
2947.22, 0.0306850
2948.89, 0.0308590
2950.57, 0.0310330
2952.25, 0.0312930
2953.93, 0.0315110
2955.62, 0.0316410
2957.3, 0.0317280
2958.99, 0.0319020
2960.68, 0.0322060
2962.37, 0.0323800
2964.07, 0.0325970
2965.76, 0.0328150
2967.46, 0.0329020
2969.16, 0.0331620
2970.86, 0.0335100
2972.56, 0.0338140
2974.27, 0.0340750
2975.98, 0.0342050
2977.69, 0.0344660
2979.4, 0.0346840
2981.11, 0.0349880
2982.83, 0.0352920
2984.54, 0.0355960
2986.26, 0.0358140
2987.98, 0.0361180
2989.71, 0.0363350
2991.43, 0.0366830
2993.16, 0.0370740
2994.89, 0.0375090
2996.62, 0.0377690
2998.35, 0.0380740
3000.09, 0.0384650
3001.83, 0.0387690
3003.57, 0.0391170
3005.31, 0.0394640
3007.05, 0.0399430
3008.79, 0.0402030
3010.54, 0.0404210
3012.29, 0.0407680
3014.04, 0.0410730
3015.8, 0.0412900
3017.55, 0.0415070
3019.31, 0.0418550
3021.07, 0.0422900
3022.83, 0.0425070
3024.59, 0.0427680
3026.36, 0.0431150
3028.13, 0.0433330
3029.9, 0.0435060
3031.67, 0.0438110
3033.44, 0.0440720
3035.22, 0.0442890
3037.0, 0.0444630
3038.78, 0.0445500
3040.56, 0.0446370
3042.34, 0.0448100
3044.13, 0.0450710
3045.92, 0.0451150
3047.71, 0.0452020
3049.5, 0.0452880
3051.3, 0.0455490
3053.09, 0.0456800
3054.89, 0.0455930
3056.69, 0.0456800
3058.5, 0.0457670
3060.3, 0.0457670
3062.11, 0.0457230
3063.92, 0.0458100
3065.73, 0.0458970
3067.55, 0.0460710
3069.36, 0.0462450
3071.18, 0.0462880
3073.0, 0.0463750
3074.82, 0.0464620
3076.65, 0.0466790
3078.48, 0.0468100
3080.31, 0.0469840
3082.14, 0.0472880
3083.97, 0.0475050
3085.8, 0.0477220
3087.64, 0.0480270
3089.48, 0.0483310
3091.33, 0.0486790
3093.17, 0.0490700
3095.02, 0.0495480
3096.87, 0.0500690
3098.72, 0.0506340
3100.57, 0.0511990
3102.43, 0.0515910
3104.28, 0.0521120
3106.14, 0.0527640
3108.01, 0.0533290
3109.87, 0.0538940
3111.74, 0.0545900
3113.61, 0.0552850
3115.48, 0.0558500
3117.35, 0.0565890
3119.23, 0.0573710
3121.1, 0.0580670
3122.98, 0.0588920
3124.87, 0.0597620
3126.75, 0.0605010
3128.64, 0.0612390
3130.53, 0.0620220
3132.42, 0.0629340
3134.31, 0.0638040
3136.21, 0.0646730
3138.11, 0.0656290
3140.01, 0.0664550
3141.91, 0.0672370
3143.82, 0.0681500
3145.73, 0.0691500
3147.64, 0.0702360
3149.55, 0.0712360
3151.46, 0.0721920
3153.38, 0.0731920
3155.3, 0.0741480
3157.22, 0.0751910
3159.14, 0.0762780
3161.07, 0.0772770
3163.0, 0.0782330
3164.93, 0.0792330
3166.86, 0.0803200
3168.8, 0.0814060
3170.74, 0.0824930
3172.68, 0.0836660
3174.62, 0.0848400
3176.56, 0.0859260
3178.51, 0.0870130
3180.46, 0.0881000
3182.42, 0.0892300
3184.37, 0.0904030
3186.33, 0.0916200
3188.29, 0.0927940
3190.25, 0.0938370
3192.21, 0.0949230
3194.18, 0.0960970
3196.15, 0.0974010
3198.12, 0.0986610
3200.09, 0.0997480
3202.07, 0.100965
3204.05, 0.102225
3206.03, 0.103442
3208.02, 0.104746
3210.0, 0.106006
3211.99, 0.107267
3213.98, 0.108527
3215.98, 0.109744
3217.97, 0.111005
3219.97, 0.112222
3221.97, 0.113569
3223.98, 0.114960
3225.98, 0.116220
3227.99, 0.117394
3230.0, 0.118698
3232.02, 0.120088
3234.03, 0.121392
3236.05, 0.122740
3238.07, 0.124087
3240.1, 0.125478
3242.12, 0.126869
3244.15, 0.128086
3246.18, 0.129346
3248.22, 0.130824
3250.25, 0.132215
3252.29, 0.133605
3254.33, 0.135040
3256.38, 0.136387
3258.43, 0.137778
3260.47, 0.139169
3262.53, 0.140559
3264.58, 0.141994
3266.64, 0.143428
3268.7, 0.144906
3270.76, 0.146384
3272.82, 0.147774
3274.89, 0.149339
3276.96, 0.150817
3279.04, 0.152208
3281.11, 0.153642
3283.19, 0.155076
3285.27, 0.156597
3287.35, 0.158119
3289.44, 0.159553
3291.53, 0.161031
3293.62, 0.162465
3295.71, 0.163899
3297.81, 0.165420
3299.91, 0.166942
3302.01, 0.168463
3304.11, 0.170071
3306.22, 0.171549
3308.33, 0.173113
3310.44, 0.174678
3312.56, 0.176156
3314.68, 0.177633
3316.8, 0.178937
3318.92, 0.180372
3321.05, 0.182023
3323.18, 0.183675
3325.31, 0.185283
3327.44, 0.186804
3329.58, 0.188325
3331.72, 0.189890
3333.86, 0.191498
3336.01, 0.193063
3338.16, 0.194627
3340.31, 0.196149
3342.46, 0.197670
3344.61, 0.199148
3346.77, 0.200582
3348.94, 0.202060
3351.1, 0.203581
3353.27, 0.205015
3355.44, 0.206449
3357.61, 0.207710
3359.79, 0.208927
3361.97, 0.210187
3364.15, 0.211535
3366.33, 0.212925
3368.52, 0.214142
3370.71, 0.215403
3372.9, 0.216794
3375.1, 0.218141
3377.3, 0.219488
3379.5, 0.220923
3381.71, 0.222531
3383.91, 0.224226
3386.12, 0.225877
3388.34, 0.227486
3390.55, 0.229007
3392.77, 0.230484
3394.99, 0.231919
3397.22, 0.233223
3399.45, 0.234527
3401.68, 0.235830
3403.91, 0.236960
3406.15, 0.238047
3408.39, 0.239221
3410.63, 0.240438
3412.87, 0.241785
3415.12, 0.243306
3417.37, 0.244871
3419.63, 0.246696
3421.88, 0.248695
3424.14, 0.250695
3426.41, 0.252694
3428.67, 0.254737
3430.94, 0.256693
3433.21, 0.258649
3435.49, 0.260517
3437.77, 0.262386
3440.05, 0.264212
3442.33, 0.265994
3444.62, 0.267645
3446.91, 0.269253
3449.2, 0.270905
3451.5, 0.272513
3453.8, 0.274121
3456.1, 0.275860
3458.41, 0.277598
3460.72, 0.279120
3463.03, 0.280510
3465.34, 0.281945
3467.66, 0.283292
3469.98, 0.284552
3472.31, 0.285639
3474.63, 0.286813
3476.96, 0.287856
3479.3, 0.289029
3481.64, 0.290290
3483.97, 0.291550
3486.32, 0.292897
3488.66, 0.294027
3491.01, 0.295157
3493.36, 0.296331
3495.72, 0.297244
3498.08, 0.298156
3500.44, 0.299243
3502.81, 0.300634
3505.18, 0.302285
3507.55, 0.304024
3509.92, 0.305762
3512.3, 0.307501
3514.68, 0.309413
3517.06, 0.311282
3519.45, 0.312977
3521.84, 0.314629
3524.24, 0.316324
3526.64, 0.317976
3529.04, 0.319627
3531.44, 0.321279
3533.85, 0.322713
3536.26, 0.324060
3538.67, 0.325408
3541.09, 0.326668
3543.51, 0.327972
3545.93, 0.329276
3548.36, 0.330580
3550.79, 0.331797
3553.22, 0.333057
3555.66, 0.334318
3558.1, 0.335535
3560.54, 0.336665
3562.99, 0.337838
3565.44, 0.339012
3567.9, 0.340142
3570.35, 0.341272
3572.81, 0.342315
3575.28, 0.343401
3577.75, 0.344531
3580.22, 0.345748
3582.69, 0.346878
3585.17, 0.347965
3587.65, 0.349008
3590.14, 0.350051
3592.62, 0.351051
3595.11, 0.352138
3597.61, 0.353181
3600.11, 0.354180
3602.61, 0.355136
3605.11, 0.356093
3607.62, 0.357136
3610.14, 0.358179
3612.65, 0.359048
3615.17, 0.360048
3617.69, 0.361004
3620.22, 0.362004
3622.75, 0.362916
3625.28, 0.363742
3627.82, 0.364655
3630.36, 0.365611
3632.9, 0.366393
3635.45, 0.367263
3638.0, 0.368175
3640.56, 0.369045
3643.12, 0.369957
3645.68, 0.370870
3648.24, 0.371739
3650.81, 0.372609
3653.39, 0.373434
3655.96, 0.374260
3658.54, 0.375086
3661.13, 0.375912
3663.71, 0.376781
3666.3, 0.377563
3668.9, 0.378520
3671.5, 0.379258
3674.1, 0.380041
3676.7, 0.380910
3679.31, 0.381605
3681.93, 0.382431
3684.54, 0.383214
3687.17, 0.384083
3689.79, 0.384865
3692.42, 0.385648
3695.05, 0.386343
3697.69, 0.386995
3700.32, 0.387777
3702.97, 0.388603
3705.61, 0.389255
3708.27, 0.389950
3710.92, 0.390646
3713.58, 0.391298
3716.24, 0.391993
3718.91, 0.392689
3721.58, 0.393210
3724.25, 0.393775
3726.93, 0.394340
3729.61, 0.394949
3732.29, 0.395601
3734.98, 0.396166
3737.67, 0.396774
3740.37, 0.397296
3743.07, 0.397774
3745.78, 0.398295
3748.49, 0.398817
3751.2, 0.399425
3753.91, 0.399947
3756.63, 0.400338
3759.36, 0.400686
3762.09, 0.401120
3764.82, 0.401512
3767.55, 0.401946
3770.29, 0.402337
3773.04, 0.402685
3775.78, 0.402989
3778.54, 0.403424
3781.29, 0.403685
3784.05, 0.404076
3786.82, 0.404380
3789.59, 0.404641
3792.36, 0.404945
3795.13, 0.405249
3797.92, 0.405510
3800.7, 0.405684
3803.49, 0.405858
3806.28, 0.406032
3809.08, 0.406206
3811.88, 0.406423
3814.68, 0.406597
3817.49, 0.406771
3820.31, 0.406814
3823.12, 0.406857
3825.94, 0.406944
3828.77, 0.407075
3831.6, 0.407162
3834.43, 0.407292
3837.27, 0.407379
3840.11, 0.407423
3842.96, 0.407379
3845.81, 0.407379
3848.67, 0.407336
3851.53, 0.407336
3854.39, 0.407292
3857.26, 0.407292
3860.13, 0.407205
3863.01, 0.407118
3865.89, 0.406988
3868.77, 0.406901
3871.66, 0.406771
3874.55, 0.406597
3877.45, 0.406379
3880.35, 0.406249
3883.26, 0.406119
3886.17, 0.405858
3889.09, 0.405597
3892.01, 0.405423
3894.93, 0.405206
3897.86, 0.404945
3900.79, 0.404684
3903.73, 0.404467
3906.67, 0.404206
3909.62, 0.403945
3912.57, 0.403641
3915.52, 0.403337
3918.48, 0.402989
3921.45, 0.402598
3924.42, 0.402337
3927.39, 0.402120
3930.37, 0.401772
3933.35, 0.401381
3936.34, 0.400990
3939.33, 0.400599
3942.32, 0.400208
3945.32, 0.399903
3948.33, 0.399512
3951.34, 0.399208
3954.35, 0.398773
3957.37, 0.398295
3960.39, 0.397861
3963.42, 0.397426
3966.45, 0.396904
3969.49, 0.396470
3972.53, 0.395948
3975.58, 0.395427
3978.63, 0.394905
3981.68, 0.394340
3984.75, 0.393775
3987.81, 0.393210
3990.88, 0.392602
3993.95, 0.391950
3997.03, 0.391298
4000.12, 0.390646
4003.21, 0.389950
4006.3, 0.389168
4009.4, 0.388299
4012.5, 0.387603
4015.61, 0.386821
4018.72, 0.385952
4021.84, 0.385082
4024.96, 0.384170
4028.09, 0.383170
4031.22, 0.382257
4034.36, 0.381388
4037.5, 0.380388
4040.65, 0.379389
4043.8, 0.378389
4046.96, 0.377390
4050.12, 0.376303
4053.29, 0.375173
4056.46, 0.374130
4059.64, 0.373043
4062.82, 0.372000
4066.0, 0.371000
4069.19, 0.369914
4072.39, 0.368827
4075.59, 0.367741
4078.8, 0.366611
4082.01, 0.365481
4085.23, 0.364438
4088.45, 0.363438
4091.68, 0.362395
4094.91, 0.361308
4098.15, 0.360265
4101.39, 0.359179
4104.63, 0.358092
4107.89, 0.357005
4111.14, 0.355962
4114.41, 0.354876
4117.67, 0.353876
4120.95, 0.352876
4124.23, 0.351790
4127.51, 0.350660
4130.8, 0.349617
4134.09, 0.348617
4137.39, 0.347487
4140.7, 0.346357
4144.01, 0.345270
4147.32, 0.344227
4150.64, 0.343184
4153.97, 0.342184
4157.3, 0.341141
4160.64, 0.340055
4163.98, 0.339012
4167.33, 0.337925
4170.68, 0.336795
4174.04, 0.335708
4177.4, 0.334622
4180.77, 0.333535
4184.14, 0.332449
4187.52, 0.331406
4190.91, 0.330363
4194.3, 0.329319
4197.69, 0.328189
4201.1, 0.326972
4204.5, 0.325712
4207.92, 0.324321
4211.34, 0.322756
4214.76, 0.321279
4218.19, 0.319758
4221.62, 0.318193
4225.06, 0.316672
4228.51, 0.315411
4231.96, 0.314238
4235.42, 0.313325
4238.88, 0.312499
4242.35, 0.311847
4245.83, 0.311413
4249.31, 0.311195
4252.79, 0.311065
4256.28, 0.310587
4259.78, 0.309283
4263.29, 0.307762
4266.79, 0.306371
4270.31, 0.305154
4273.83, 0.304111
4277.35, 0.303242
4280.89, 0.302416
4284.42, 0.301633
4287.97, 0.300808
4291.52, 0.300199
4295.07, 0.299634
4298.63, 0.299026
4302.2, 0.298417
4305.78, 0.297765
4309.35, 0.297200
4312.94, 0.296679
4316.53, 0.296070
4320.13, 0.295462
4323.73, 0.294766
4327.34, 0.294114
4330.96, 0.293375
4334.58, 0.292637
4338.21, 0.291941
4341.84, 0.291289
4345.48, 0.290507
4349.12, 0.289768
4352.77, 0.288986
4356.43, 0.288247
4360.1, 0.287465
4363.76, 0.286726
4367.44, 0.285987
4371.12, 0.285204
4374.81, 0.284379
4378.51, 0.283596
4382.21, 0.282771
4385.92, 0.281901
4389.63, 0.281032
4393.35, 0.280250
4397.08, 0.279511
4400.81, 0.278642
4404.55, 0.277729
4408.29, 0.276903
4412.04, 0.276077
4415.8, 0.275338
4419.57, 0.274513
4423.34, 0.273600
4427.12, 0.272687
4430.9, 0.271861
4434.69, 0.271079
4438.49, 0.270253
4442.29, 0.269384
4446.1, 0.268558
4449.92, 0.267689
4453.74, 0.266863
4457.57, 0.266037
4461.41, 0.265255
4465.25, 0.264429
4469.1, 0.263603
4472.95, 0.262778
4476.82, 0.261995
4480.69, 0.261213
4484.56, 0.260387
4488.44, 0.259648
4492.33, 0.258996
4496.23, 0.258257
4500.13, 0.257518
4504.04, 0.256693
4507.96, 0.256084
4511.88, 0.255476
4515.81, 0.254824
4519.75, 0.254128
4523.69, 0.253476
4527.65, 0.252824
4531.6, 0.252346
4535.57, 0.251738
4539.54, 0.251086
4543.52, 0.250477
4547.5, 0.249912
4551.5, 0.249304
4555.5, 0.248826
4559.5, 0.248304
4563.52, 0.247826
4567.54, 0.247261
4571.56, 0.246653
4575.6, 0.246131
4579.64, 0.245653
4583.69, 0.245175
4587.75, 0.244784
4591.81, 0.244306
4595.88, 0.243784
4599.96, 0.243263
4604.04, 0.242785
4608.14, 0.242393
4612.24, 0.242089
4616.34, 0.241698
4620.46, 0.241307
4624.58, 0.240916
4628.71, 0.240438
4632.84, 0.239959
4636.99, 0.239612
4641.14, 0.239264
4645.3, 0.238873
4649.47, 0.238438
4653.64, 0.238091
4657.82, 0.237699
4662.01, 0.237221
4666.21, 0.236743
4670.41, 0.236352
4674.62, 0.235961
4678.84, 0.235483
4683.07, 0.235048
4687.3, 0.234700
4691.54, 0.234222
4695.79, 0.233744
4700.05, 0.233266
4704.31, 0.232831
4708.59, 0.232310
4712.87, 0.231788
4717.15, 0.231310
4721.45, 0.230745
4725.76, 0.230137
4730.07, 0.229659
4734.39, 0.229137
4738.72, 0.228572
4743.05, 0.228051
4747.39, 0.227529
4751.75, 0.226921
4756.1, 0.226355
4760.47, 0.225790
4764.85, 0.225269
4769.23, 0.224747
4773.62, 0.224182
4778.02, 0.223661
4782.43, 0.223096
4786.85, 0.222531
4791.27, 0.222096
4795.7, 0.221618
4800.14, 0.221183
4804.59, 0.220662
4809.05, 0.220184
4813.51, 0.219749
4817.99, 0.219314
4822.47, 0.218967
4826.96, 0.218576
4831.46, 0.218054
4835.96, 0.217576
4840.48, 0.217141
4845.0, 0.216837
4849.54, 0.216576
4854.08, 0.216229
4858.63, 0.215837
4863.18, 0.215490
4867.75, 0.215055
4872.33, 0.214664
4876.91, 0.214229
4881.5, 0.213795
4886.1, 0.213360
4890.71, 0.212882
4895.33, 0.212317
4899.96, 0.211839
4904.59, 0.211361
4909.24, 0.210796
4913.89, 0.210187
4918.55, 0.209535
4923.22, 0.208753
4927.9, 0.208014
4932.59, 0.207232
4937.29, 0.206449
4942.0, 0.205537
4946.71, 0.204581
4951.44, 0.203494
4956.17, 0.202277
4960.91, 0.201321
4965.67, 0.200365
4970.43, 0.199191
4975.2, 0.197931
4979.98, 0.196540
4984.76, 0.195149
4989.56, 0.193802
4994.37, 0.192454
4999.18, 0.191020
5004.01, 0.189586
5008.84, 0.188108
5013.69, 0.186456
5018.54, 0.184631
5023.4, 0.183327
5028.28, 0.182023
5033.16, 0.180632
5038.05, 0.179198
5042.95, 0.177764
5047.86, 0.176330
5052.78, 0.174808
5057.71, 0.173331
5062.65, 0.172027
5067.6, 0.170723
5072.56, 0.169375
5077.53, 0.167941
5082.5, 0.166507
5087.49, 0.165464
5092.49, 0.164508
5097.5, 0.163334
5102.51, 0.162291
5107.54, 0.161248
5112.58, 0.160292
5117.62, 0.159335
5122.68, 0.158466
5127.75, 0.157554
5132.82, 0.156728
5137.91, 0.155902
5143.01, 0.154902
5148.12, 0.154033
5153.23, 0.153946
5158.36, 0.153598
5163.5, 0.153077
5168.65, 0.152599
5173.81, 0.152164
5178.98, 0.151729
5184.15, 0.151469
5189.34, 0.151078
5194.54, 0.150469
5199.75, 0.149817
5204.98, 0.149730
5210.21, 0.148904
5215.45, 0.148600
5220.7, 0.149209
5225.96, 0.149165
5231.23, 0.148817
5236.52, 0.148426
5241.81, 0.148339
5247.12, 0.148209
5252.44, 0.147992
5257.76, 0.147687
5263.1, 0.147427
5268.45, 0.147035
5273.81, 0.146384
5279.18, 0.146123
5284.56, 0.145688
5289.95, 0.144602
5295.36, 0.144254
5300.77, 0.144080
5306.2, 0.143471
5311.63, 0.142820
5317.08, 0.141950
5322.54, 0.141081
5328.01, 0.140168
5333.49, 0.139212
5338.98, 0.138082
5344.49, 0.136213
5350.0, 0.134083
5355.53, 0.133562
5361.07, 0.133171
5366.62, 0.132215
5372.18, 0.130911
5377.75, 0.129607
5383.34, 0.128346
5388.93, 0.127216
5394.54, 0.125912
5400.16, 0.124652
5405.79, 0.123261
5411.44, 0.121870
5417.09, 0.119480
5422.76, 0.117437
5428.43, 0.117872
5434.12, 0.117741
5439.83, 0.116655
5445.54, 0.115742
5451.26, 0.114916
5457.0, 0.113612
5462.75, 0.111874
5468.52, 0.111570
5474.29, 0.111178
5480.08, 0.110440
5485.88, 0.110570
5491.69, 0.110309
5497.51, 0.109788
5503.35, 0.109310
5509.2, 0.109092
5515.06, 0.108527
5520.93, 0.107832
5526.82, 0.107571
5532.71, 0.107571
5538.63, 0.107397
5544.55, 0.106832
5550.49, 0.106093
5556.44, 0.105963
5562.4, 0.106180
5568.37, 0.106006
5574.36, 0.104572
5580.36, 0.103833
5586.37, 0.105007
5592.4, 0.105572
5598.44, 0.105050
5604.49, 0.104789
5610.56, 0.104616
5616.63, 0.104181
5622.73, 0.104224
5628.83, 0.103833
5634.95, 0.102355
5641.08, 0.100443
5647.23, 0.101095
5653.39, 0.101573
5659.56, 0.101747
5665.74, 0.101877
5671.94, 0.100487
5678.15, 0.0998780
5684.38, 0.0999650
5690.62, 0.0990090
5696.87, 0.0987910
5703.14, 0.0977480
5709.42, 0.0956620
5715.72, 0.0952280
5722.03, 0.0951840
5728.35, 0.0946620
5734.69, 0.0936630
5741.03, 0.0922290
5747.4, 0.0905340
5753.78, 0.0900990
5760.17, 0.0874040
5766.58, 0.0839710
5773.0, 0.0847090
5779.44, 0.0846660
5785.88, 0.0835790
5792.35, 0.0821020
5798.83, 0.0802330
5805.32, 0.0783640
5811.83, 0.0757560
5818.35, 0.0716710
5824.89, 0.0691930
5831.45, 0.0684540
5838.01, 0.0672810
5844.59, 0.0652810
5851.19, 0.0627610
5857.8, 0.0598050
5864.43, 0.0570240
5871.07, 0.0544590
5877.73, 0.0500690
5884.4, 0.0475050
5891.09, 0.0459400
5897.79, 0.0432460
5904.5, 0.0421160
5911.23, 0.0401600
5917.98, 0.0375960
5924.75, 0.0349880
5931.53, 0.0318580
5938.32, 0.0291640
5945.13, 0.0280340
5951.96, 0.0264690
5958.8, 0.0246440
5965.65, 0.0224700
5972.53, 0.0208620
5979.42, 0.0194710
5986.32, 0.0178630
5993.24, 0.0166460
6000.18, 0.0157770
6007.13, 0.0147340
6014.1, 0.0137780
6021.08, 0.0130390
6028.09, 0.0124300
6035.1, 0.0117350
6042.14, 0.0107350
6049.19, 0.00991000
6056.25, 0.0100400
6063.34, 0.00995300
6070.44, 0.00960500
6077.55, 0.00951800
6084.69, 0.00969200
6091.84, 0.00973600
6099.0, 0.00964900
6106.19, 0.00956200
6113.39, 0.00960500
6120.61, 0.0100830
6127.84, 0.0105620
6135.09, 0.0108660
6142.36, 0.0114310
6149.65, 0.0121260
6156.95, 0.0128650
6164.27, 0.0138650
6171.61, 0.0151250
6178.97, 0.0160380
6186.34, 0.0172110
6193.73, 0.0191670
6201.14, 0.0209930
6208.57, 0.0228180
6216.01, 0.0246870
6223.47, 0.0266860
6230.95, 0.0286420
6238.45, 0.0306850
6245.97, 0.0326410
6253.5, 0.0345970
6261.06, 0.0364650
6268.63, 0.0382470
6276.21, 0.0399860
6283.82, 0.0416380
6291.45, 0.0431150
6299.1, 0.0445060
6306.76, 0.0457670
6314.44, 0.0469400
6322.14, 0.0479400
6329.86, 0.0488520
6337.6, 0.0486790
6345.35, 0.0488960
6353.13, 0.0508950
6360.92, 0.0517210
6368.74, 0.0515470
6376.57, 0.0525470
6384.43, 0.0534600
6392.3, 0.0538070
6400.19, 0.0535900
6408.1, 0.0511990
6416.03, 0.0505480
6423.98, 0.0529380
6431.95, 0.0539810
6439.94, 0.0548070
6447.95, 0.0551550
6455.98, 0.0552420
6464.03, 0.0551110
6472.1, 0.0542850
6480.19, 0.0533290
6488.31, 0.0518080
6496.44, 0.0518950
6504.59, 0.0539810
6512.76, 0.0542850
6520.95, 0.0535030
6529.16, 0.0540250
6537.4, 0.0540680
6545.65, 0.0533730
6553.92, 0.0527640
6562.22, 0.0521990
6570.54, 0.0508520
6578.88, 0.0511990
6587.23, 0.0515470
6595.61, 0.0514170
6604.02, 0.0515910
6612.44, 0.0512430
6620.89, 0.0505910
6629.35, 0.0487660
6637.84, 0.0474620
6646.35, 0.0488960
6654.88, 0.0498960
6663.44, 0.0493310
6672.01, 0.0483740
6680.61, 0.0475490
6689.23, 0.0477660
6697.88, 0.0477220
6706.54, 0.0465490
6715.23, 0.0458970
6723.94, 0.0458540
6732.67, 0.0458100
6741.42, 0.0454190
6750.2, 0.0447670
6759.0, 0.0442020
6767.82, 0.0433330
6776.67, 0.0422460
6785.54, 0.0409420
6794.44, 0.0405510
6803.35, 0.0408990
6812.29, 0.0404640
6821.26, 0.0393780
6830.24, 0.0387690
6839.25, 0.0385950
6848.29, 0.0376390
6857.35, 0.0359000
6866.43, 0.0351180
6875.54, 0.0357700
6884.67, 0.0355960
6893.82, 0.0350310
6903.0, 0.0342920
6912.2, 0.0338140
6921.43, 0.0334230
6930.69, 0.0329450
6939.96, 0.0323800
6949.27, 0.0315540
6958.59, 0.0303810
6967.95, 0.0302940
6977.33, 0.0302070
6986.73, 0.0295980
6996.16, 0.0290330
7005.61, 0.0286420
7015.09, 0.0280770
7024.6, 0.0275120
7034.13, 0.0269470
7043.69, 0.0259910
7053.27, 0.0257300
7062.88, 0.0256870
7072.52, 0.0252950
7082.18, 0.0249040
7091.87, 0.0243390
7101.58, 0.0237740
7111.32, 0.0232090
7121.09, 0.0227310
7130.88, 0.0223400
7140.71, 0.0217750
7150.56, 0.0212530
7160.43, 0.0206880
7170.33, 0.0200360
7180.27, 0.0197320
7190.23, 0.0193410
7200.21, 0.0186460
7210.23, 0.0180810
7220.27, 0.0178200
7230.34, 0.0174290
7240.44, 0.0168640
7250.56, 0.0163420
7260.72, 0.0158640
7270.9, 0.0152560
7281.12, 0.0147340
7291.36, 0.0142990
7301.63, 0.0139080
7311.93, 0.0134740
7322.25, 0.0130820
7332.61, 0.0125170
7343.0, 0.0120390
7353.41, 0.0116920
7363.86, 0.0113000
7374.33, 0.0108220
7384.83, 0.0103440
7395.37, 0.00986600
7405.93, 0.00947500
7416.53, 0.00908400
7427.15, 0.00869300
7437.81, 0.00830100
7448.5, 0.00791000
7459.22, 0.00743200
7469.96, 0.00708400
7480.74, 0.00678000
7491.55, 0.00638900
7502.39, 0.00599800
7513.27, 0.00569400
7524.17, 0.00543300
7535.11, 0.00508500
7546.08, 0.00465100
7557.08, 0.00443300
7568.11, 0.00425900
7579.17, 0.00395500
7590.27, 0.00360700
7601.4, 0.00330300
7612.56, 0.00304200
7623.76, 0.00286900
7634.98, 0.00265100
7646.24, 0.00247700
7657.54, 0.00230400
7668.87, 0.00213000
7680.23, 0.00195600
7691.62, 0.00182500
7703.05, 0.00173900
7714.51, 0.00169500
7726.01, 0.00156500
7737.54, 0.00143400
7749.11, 0.00134700
7760.71, 0.00134700
7772.35, 0.00126000
7784.02, 0.00126000
7795.72, 0.00134700
7807.46, 0.00147800
7819.23, 0.00152100
7831.04, 0.00156500
7842.89, 0.00160800
7854.77, 0.00173900
7866.69, 0.00191200
7878.65, 0.00213000
7890.64, 0.00234700
7902.67, 0.00260800
7914.74, 0.00295500
7926.84, 0.00321600
7938.98, 0.00343400
7951.16, 0.00378100
7963.37, 0.00421600
7975.62, 0.00469400
7987.91, 0.00525900
8000.24, 0.00573700
8012.6, 0.00625900
8025.01, 0.00691100
8037.45, 0.00751900
8049.93, 0.00817100
8062.45, 0.00886600
8075.01, 0.00964900
8087.61, 0.0103880
8100.24, 0.0110400
8112.91, 0.0115610
8125.63, 0.0121700
8138.39, 0.0126480
8151.18, 0.0129950
8164.02, 0.0132560
8176.9, 0.0134300
8189.81, 0.0134300
8202.77, 0.0133870
8215.77, 0.0133870
8228.82, 0.0133430
8241.9, 0.0132560
8255.02, 0.0131260
8268.19, 0.0129950
8281.39, 0.0129090
8294.65, 0.0128650
8307.94, 0.0128220
8321.28, 0.0127350
8334.66, 0.0127780
8348.08, 0.0128650
8361.54, 0.0129520
8375.05, 0.0129950
8388.6, 0.0130820
8402.2, 0.0132130
8415.84, 0.0133000
8429.52, 0.0133870
8443.25, 0.0135600
8457.02, 0.0137780
8470.84, 0.0139520
8484.7, 0.0140390
8498.61, 0.0141690
8512.57, 0.0144300
8526.57, 0.0146470
8540.62, 0.0147770
8554.71, 0.0147770
8568.85, 0.0148640
8583.04, 0.0151250
8597.27, 0.0152990
8611.55, 0.0155600
8625.88, 0.0157340
8640.26, 0.0159510
8654.68, 0.0162550
8669.16, 0.0165160
8683.68, 0.0167330
8698.25, 0.0169940
8712.87, 0.0172110
8727.53, 0.0174720
8742.25, 0.0177330
8757.02, 0.0181240
8771.83, 0.0185150
8786.7, 0.0189060
8801.62, 0.0193410
8816.59, 0.0197760
8831.61, 0.0201670
8846.68, 0.0206450
8861.8, 0.0211230
8876.97, 0.0215580
8892.2, 0.0221230
8907.48, 0.0226010
8922.81, 0.0231220
8938.2, 0.0237310
8953.63, 0.0242960
8969.13, 0.0248610
8984.67, 0.0254690
9000.27, 0.0262080
9015.92, 0.0269470
9031.63, 0.0275120
9047.39, 0.0282080
9063.21, 0.0289460
9079.08, 0.0296420
9095.01, 0.0303370
9111.0, 0.0309460
9127.04, 0.0315980
9143.13, 0.0321630
9159.28, 0.0326410
9175.49, 0.0329880
9191.76, 0.0332060
9208.09, 0.0334670
9224.47, 0.0334670
9240.92, 0.0332930
9257.42, 0.0331190
9273.98, 0.0329880
9290.6, 0.0327710
9307.28, 0.0322930
9324.02, 0.0318580
9340.82, 0.0315540
9357.68, 0.0311630
9374.6, 0.0307280
9391.58, 0.0302940
9408.62, 0.0298590
9425.73, 0.0294240
9442.9, 0.0290330
9460.13, 0.0286860
9477.42, 0.0284250
9494.78, 0.0282080
9512.2, 0.0281210
9529.69, 0.0279030
9547.24, 0.0276420
9564.86, 0.0275990
9582.54, 0.0275120
9600.28, 0.0272950
9618.1, 0.0271640
9635.97, 0.0270340
9653.92, 0.0269040
9671.93, 0.0267730
9690.01, 0.0267300
9708.16, 0.0265560
9726.37, 0.0264260
9744.65, 0.0263390
9763.0, 0.0261650
9781.43, 0.0259910
9799.92, 0.0258610
9818.48, 0.0257300
9837.1, 0.0256870
9855.8, 0.0256000
9874.58, 0.0253820
9893.42, 0.0253390
9912.34, 0.0254260
9931.33, 0.0255560
9950.39, 0.0255560
9969.52, 0.0256870
9988.74, 0.0258610
10008.0, 0.0261210
10027.4, 0.0264690
10046.8, 0.0268170
10066.3, 0.0271640
10085.9, 0.0276860
10105.6, 0.0284680
10125.3, 0.0294240
10145.1, 0.0303810
10165.0, 0.0313370
10185.0, 0.0323800
10205.0, 0.0335100
10225.2, 0.0348140
10245.4, 0.0362480
10265.7, 0.0377690
10286.0, 0.0392470
10306.5, 0.0406380
10327.0, 0.0419420
10347.6, 0.0433760
10368.3, 0.0448970
10389.1, 0.0462450
10409.9, 0.0475050
10430.9, 0.0486350
10451.9, 0.0498090
10473.0, 0.0510690
10494.2, 0.0524160
10515.5, 0.0535900
10536.9, 0.0547200
10558.4, 0.0558930
10579.9, 0.0569800
10601.5, 0.0579800
10623.3, 0.0589790
10645.1, 0.0597620
10667.0, 0.0605010
10689.0, 0.0611090
10711.1, 0.0617180
10733.2, 0.0624130
10755.5, 0.0628040
10777.9, 0.0630210
10800.3, 0.0633690
10822.9, 0.0638040
10845.5, 0.0641510
10868.2, 0.0644560
10891.1, 0.0646300
10914.0, 0.0649770
10937.0, 0.0653680
10960.2, 0.0656730
10983.4, 0.0660640
11006.7, 0.0661070
11030.1, 0.0661070
11053.6, 0.0663680
11077.3, 0.0665420
11101.0, 0.0664550
11124.8, 0.0662380
11148.7, 0.0657600
11172.7, 0.0651950
11196.9, 0.0646730
11221.1, 0.0638470
11245.4, 0.0628910
11269.9, 0.0619780
11294.4, 0.0610660
11319.1, 0.0600660
11343.9, 0.0591100
11368.8, 0.0581970
11393.7, 0.0575020
11418.8, 0.0568930
11444.0, 0.0563280
11469.4, 0.0558930
11494.8, 0.0555020
11520.3, 0.0551980
11546.0, 0.0549370
11571.8, 0.0546760
11597.7, 0.0544160
11623.7, 0.0541980
11649.8, 0.0538070
11676.0, 0.0532860
11702.4, 0.0526340
11728.9, 0.0519820
11755.5, 0.0512860
11782.2, 0.0506340
11809.0, 0.0499390
11836.0, 0.0490260
11863.0, 0.0480270
11890.3, 0.0469840
11917.6, 0.0458100
11945.0, 0.0444190
11972.6, 0.0426810
12000.4, 0.0410730
12028.2, 0.0394640
12056.2, 0.0376390
12084.3, 0.0357700
12112.5, 0.0338580
12140.9, 0.0316850
12169.4, 0.0297720
12198.0, 0.0278600
12226.8, 0.0259910
12255.7, 0.0242090
12284.7, 0.0228620
12313.9, 0.0214710
12343.2, 0.0199930
12372.7, 0.0186890
12402.3, 0.0176030
12432.0, 0.0166460
12461.9, 0.0160380
12491.9, 0.0155160
12522.1, 0.0151250
12552.4, 0.0148210
12582.9, 0.0146470
12613.5, 0.0145170
12644.3, 0.0145170
12675.2, 0.0145170
12706.3, 0.0144730
12737.5, 0.0146040
12768.9, 0.0145170
12800.4, 0.0142560
12832.1, 0.0141250
12863.9, 0.0139950
12895.9, 0.0138650
12928.1, 0.0139520
12960.4, 0.0139950
12992.9, 0.0137340
13025.5, 0.0136040
13058.3, 0.0135170
13091.3, 0.0133000
13124.4, 0.0129950
13157.8, 0.0129090
13191.2, 0.0128220
13224.9, 0.0126040
13258.7, 0.0123000
13292.7, 0.0120390
13326.9, 0.0116920
13361.2, 0.0114740
13395.7, 0.0113000
13430.4, 0.0111270
13465.3, 0.0110830
13500.4, 0.0109530
13535.7, 0.0108660
13571.1, 0.0106480
13606.7, 0.0105180
13642.5, 0.0104750
13678.5, 0.0105180
13714.7, 0.0105180
13751.1, 0.0104750
13787.6, 0.0104750
13824.4, 0.0103440
13861.4, 0.0103010
13898.5, 0.0103010
13935.9, 0.0104310
13973.5, 0.0105180
14011.2, 0.0104310
14049.2, 0.0104310
14087.4, 0.0105180
14125.8, 0.0106480
14164.3, 0.0106050
14203.2, 0.0104310
14242.2, 0.0103440
14281.4, 0.0100830
14320.9, 0.00999600
14360.5, 0.00995300
14400.4, 0.00982300
14440.5, 0.00964900
14480.9, 0.00947500
14521.4, 0.00934500
14562.2, 0.00917100
14603.3, 0.00895300
14644.5, 0.00882300
14686.0, 0.00860600
14727.7, 0.00851900
14769.7, 0.00830100
14811.9, 0.00817100
14854.3, 0.00817100
14897.0, 0.00817100
14939.9, 0.00830100
14983.1, 0.00843200
15026.5, 0.00847500
15070.2, 0.00838800
15114.2, 0.00808400
15158.3, 0.00804100
15202.8, 0.00812800
15247.5, 0.00817100
15292.5, 0.00812800
15337.7, 0.00791000
15383.2, 0.00760600
15429.0, 0.00747600
15475.1, 0.00747600
15521.4, 0.00743200
15568.0, 0.00721500
15614.9, 0.00725800
15662.1, 0.00695400
15709.6, 0.00660600
15757.3, 0.00660600
15805.4, 0.00665000
15853.7, 0.00638900
15902.3, 0.00630200
15951.2, 0.00621500
16000.5, 0.00638900
16050.0, 0.00673700
16099.8, 0.00695400
16150.0, 0.00730200
16200.5, 0.00764900
16251.3, 0.00791000
16302.4, 0.00821500
16353.8, 0.00843200
16405.5, 0.00886600
16457.6, 0.00921400
16510.0, 0.00943100
16562.8, 0.00943100
16615.9, 0.00930100
16669.3, 0.00956200
16723.1, 0.00973600
16777.2, 0.00982300
16831.7, 0.00973600
16886.5, 0.00964900
16941.7, 0.00969200
16997.2, 0.00973600
17053.1, 0.0100400
17109.4, 0.00982300
17166.1, 0.00938800
17223.1, 0.00943100
17280.5, 0.00951800
17338.3, 0.00943100
17396.5, 0.00938800
17455.1, 0.00960500
17514.0, 0.00947500
17573.4, 0.00891000
17633.2, 0.00882300
17693.4, 0.00899700
17754.0, 0.00912700
17815.0, 0.00891000
17876.4, 0.00873600
17938.3, 0.00864900
18000.5, 0.00856200
18063.3, 0.00878000
18126.4, 0.00878000
18190.0, 0.00843200
18254.1, 0.00821500
18318.6, 0.00825800
18383.5, 0.00838800
18449.0, 0.00869300
18514.9, 0.00912700
18581.2, 0.00934500
18648.0, 0.00934500
18715.4, 0.00951800
18783.2, 0.0101270
18851.5, 0.0104750
18920.3, 0.0106480
18989.6, 0.0106920
19059.4, 0.0108660
19129.7, 0.0109960
19200.6, 0.0108660
19272.0, 0.0110830
19343.9, 0.0114310
19416.3, 0.0116480
19489.3, 0.0117780
19562.8, 0.0116050
19637.0, 0.0115180
19711.6, 0.0114280
19786.8, 0.0113090
19862.6, 0.0120790
19939.0, 0.0132930
20016.0, 0.0142400
20093.6, 0.0158390
20171.8, 0.0179110
20250.6, 0.0194500
20330.0, 0.0204270
20410.0, 0.0214340
20490.7, 0.0230620
20572.0, 0.0252530
20654.0, 0.0271770
20736.6, 0.0284500
20819.9, 0.0294870
20903.8, 0.0310260
20988.5, 0.0319440
21073.8, 0.0321510
21159.8, 0.0325060
21246.5, 0.0325360
21334.0, 0.0320330
21422.1, 0.0314700
21511.0, 0.0313520
21600.7, 0.0308190
21691.0, 0.0299900
21782.1, 0.0301380
21874.0, 0.0296940
21966.7, 0.0287170
22060.2, 0.0276510
22154.5, 0.0267330
22249.6, 0.0260230
22345.5, 0.0255190
22442.2, 0.0249570
22539.8, 0.0245720
22638.2, 0.0239800
22737.5, 0.0233290
22837.7, 0.0223520
22938.7, 0.0216120
23040.7, 0.0210490
23143.5, 0.0205160
23247.3, 0.0199540
23352.1, 0.0197760
23457.7, 0.0194500
23564.4, 0.0189470
23672.0, 0.0187100
23780.5, 0.0185920
23890.1, 0.0184140
24000.7, 0.0185920
24112.3, 0.0182960
24225.0, 0.0184140
24338.7, 0.0188290
24453.5, 0.0182960
24569.4, 0.0181480
24686.4, 0.0177330
24804.5, 0.0174970
24923.8, 0.0171410
25044.2, 0.0168750
25165.8, 0.0172600
25288.6, 0.0177630
25412.5, 0.0179410
25537.7, 0.0177630
25664.1, 0.0175560
25791.8, 0.0176450
25920.8, 0.0175560
26051.1, 0.0176150
26182.6, 0.0175850
26315.5, 0.0176740
26449.8, 0.0179410
26585.4, 0.0176740
26722.5, 0.0173490
26860.9, 0.0174670
27000.8, 0.0175560
27142.1, 0.0174080
27285.0, 0.0170820
27429.4, 0.0172000
27575.3, 0.0172000
27722.7, 0.0168750
27871.8, 0.0168450
28022.4, 0.0167560
28174.7, 0.0163720
28328.7, 0.0162240
28484.4, 0.0160460
28641.7, 0.0160160
28800.9, 0.0159270
28961.8, 0.0158390
29124.5, 0.0161350
29289.0, 0.0163720
29455.4, 0.0164900
29623.8, 0.0166680
29794.0, 0.0166380
29966.3, 0.0166380
30140.5, 0.0166680
30316.7, 0.0166680
30495.1, 0.0167860
30675.5, 0.0168750
30858.1, 0.0165490
31042.8, 0.0171120
31229.8, 0.0175560
31419.1, 0.0174970
31610.7, 0.0178520
31804.6, 0.0179410
32000.9, 0.0173780
32199.7, 0.0173190
32400.9, 0.0178810
32604.8, 0.0179110
32811.1, 0.0174970
33020.1, 0.0173780
33231.8, 0.0177930
33446.2, 0.0179410
33663.4, 0.0181480
33883.4, 0.0185920
34106.3, 0.0187400
34332.1, 0.0186510
34561.0, 0.0187100
34792.9, 0.0190360
35028.0, 0.0192140
35266.3, 0.0187990
35507.8, 0.0185330
35752.7, 0.0183550
36001.0, 0.0188290
36252.8, 0.0192730
36508.1, 0.0193620
36767.0, 0.0198350
37029.7, 0.0200130
37296.1, 0.0198350
37566.3, 0.0197470
37840.5, 0.0202200
38118.8, 0.0205460
38401.2, 0.0206350
38687.8, 0.0211680
38978.6, 0.0211680
39273.9, 0.0200430
39573.7, 0.0201910
39878.1, 0.0208120
40187.3, 0.0209310
40501.2, 0.0210790
40820.0, 0.0208420
41144.0, 0.0214640
41473.2, 0.0219960
41807.6, 0.0217600
42147.5, 0.0215820
42493.0, 0.0215520
42844.2, 0.0213160
43201.2, 0.0210200
43564.3, 0.0209010
43933.5, 0.0209010
44309.0, 0.0213750
44691.0, 0.0219670
45079.6, 0.0225290
45475.0, 0.0231210
45877.5, 0.0236840
46287.1, 0.0234180
46704.2, 0.0231810
47128.7, 0.0240390
47561.1, 0.0238020
48001.5, 0.0232100
48450.1, 0.0238620
48907.2, 0.0236250
49373.0, 0.0232100
49847.7, 0.0243060
50331.5, 0.0246310
50825.0, 0.0242170
51328.2, 0.0237140
51841.5, 0.0238320
52365.1, 0.0237430
52899.4, 0.0239500
53444.8, 0.0255790
54001.5, 0.0262600
54570.1, 0.0258160
55150.6, 0.0257860
55743.6, 0.0266740
56349.5, 0.0259930
56968.7, 0.0267630
57601.7, 0.0276210
58248.9, 0.0272070
58910.9, 0.0268220
59588.1, 0.0265560
60281.0, 0.0273250
60990.2, 0.0283320
61716.3, 0.0286870
62459.8, 0.0284210
63221.6, 0.0263190
64002.1, 0.0254600
64802.1, 0.0269410
65622.1, 0.0288350
66463.4, 0.0290420
67326.6, 0.0302560
68212.4, 0.0323290
69121.9, 0.0329500
70056.0, 0.0325950
71015.7, 0.0318250
72002.0, 0.0323580
73016.3, 0.0343120
74059.4, 0.0347560
75132.7, 0.0332760
76237.6, 0.0333060
77375.5, 0.0339860
78547.9, 0.0325950
79756.3, 0.0317960
81002.5, 0.0309960
82288.5, 0.0330390
83615.7, 0.0381020
84986.5, 0.0395820
86402.9, 0.0390490
87867.4, 0.0403520
89382.4, 0.0426310
90950.5, 0.0439630
92574.6, 0.0408550
94257.2, 0.0670850
96002.7, 0.112499
97814.1, 0.0598020
99695.1, 0.0402630
101650.0, 0.0436670
103683.0, 0.0451480
105799.0, 0.0467760
108003.0, 0.0469240
110301.0, 0.0468650
112699.0, 0.0452960
115204.0, 0.0455030
117822.0, 0.0485820
120562.0, 0.0481080
123433.0, 0.0508020
126443.0, 0.0554800
129604.0, 0.0618740
132926.0, 0.0649530
136424.0, 0.0681210
140111.0, 0.0730060
144003.0, 0.0770910
148118.0, 0.0825680
152474.0, 0.0926640
157095.0, 0.0942330
162004.0, 0.104683
167231.0, 0.106252
172805.0, 0.101486
178764.0, 0.108887
185148.0, 0.134584
192005.0, 0.161495
199390.0, 0.171590
207366.0, 0.163035
216006.0, 0.192580
