Database of Origin,USGS Spectral Database
Sample Description,See USGS database for additional info
Date Added,2017-02-22 02:48:42.462628

Data ID,USGS_tre04          
Sample ID,tremolite_nmnh117611.23122
Mineral Name,tremolite

Wavelength
1363.53, 0.706850
1363.89, 0.706532
1364.25, 0.706426
1364.61, 0.706797
1364.97, 0.706108
1365.33, 0.705367
1365.69, 0.704996
1366.05, 0.704201
1366.41, 0.703937
1366.77, 0.703725
1367.13, 0.703725
1367.49, 0.703460
1367.85, 0.702453
1368.21, 0.702559
1368.57, 0.702401
1368.93, 0.701447
1369.3, 0.700759
1369.66, 0.700494
1370.02, 0.699593
1370.38, 0.699011
1370.74, 0.698587
1371.11, 0.697633
1371.47, 0.696786
1371.83, 0.696786
1372.19, 0.695992
1372.56, 0.694508
1372.92, 0.693290
1373.29, 0.691542
1373.65, 0.689953
1374.01, 0.688152
1374.38, 0.686140
1374.74, 0.684445
1375.11, 0.682538
1375.47, 0.680101
1375.84, 0.677506
1376.2, 0.675493
1376.57, 0.673268
1376.93, 0.671256
1377.3, 0.669137
1377.67, 0.667495
1378.03, 0.666224
1378.4, 0.664370
1378.76, 0.662940
1379.13, 0.661828
1379.5, 0.660874
1379.87, 0.660503
1380.23, 0.660715
1380.6, 0.660768
1380.97, 0.661086
1381.34, 0.661722
1381.7, 0.662728
1382.07, 0.664423
1382.44, 0.666171
1382.81, 0.667495
1383.18, 0.669084
1383.55, 0.670673
1383.92, 0.671574
1384.29, 0.672951
1384.66, 0.674646
1385.03, 0.675440
1385.4, 0.676394
1385.77, 0.677294
1386.14, 0.678089
1386.51, 0.678565
1386.88, 0.679307
1387.25, 0.680472
1387.62, 0.680949
1387.99, 0.681108
1388.36, 0.680790
1388.74, 0.680684
1389.11, 0.679307
1389.48, 0.676923
1389.85, 0.673533
1390.23, 0.669349
1390.6, 0.664900
1390.97, 0.660239
1391.35, 0.654836
1391.72, 0.650492
1392.09, 0.647314
1392.47, 0.645355
1392.84, 0.644083
1393.21, 0.644454
1393.59, 0.646202
1393.96, 0.649221
1394.34, 0.654094
1394.71, 0.659179
1395.09, 0.663575
1395.46, 0.667071
1395.84, 0.669932
1396.22, 0.672315
1396.59, 0.673215
1396.97, 0.673163
1397.35, 0.672368
1397.72, 0.672315
1398.1, 0.672474
1398.48, 0.672739
1398.85, 0.672633
1399.23, 0.673004
1399.61, 0.673215
1399.99, 0.673798
1400.37, 0.674116
1400.74, 0.674328
1401.12, 0.674487
1401.5, 0.674752
1401.88, 0.674646
1402.26, 0.674646
1402.64, 0.674275
1403.02, 0.674116
1403.4, 0.674010
1403.78, 0.673798
1404.16, 0.673851
1404.54, 0.673851
1404.92, 0.673480
1405.3, 0.672633
1405.68, 0.672633
1406.06, 0.672580
1406.44, 0.672050
1406.83, 0.671838
1407.21, 0.671415
1407.59, 0.671203
1407.97, 0.671097
1408.35, 0.670567
1408.74, 0.670090
1409.12, 0.670567
1409.5, 0.670143
1409.89, 0.669508
1410.27, 0.669190
1410.65, 0.668819
1411.04, 0.668395
1411.42, 0.668237
1411.81, 0.667760
1412.19, 0.667654
1412.58, 0.667601
1412.96, 0.667071
1413.35, 0.666383
1413.73, 0.666012
1414.12, 0.665959
1414.5, 0.665482
1414.89, 0.664794
1415.28, 0.664953
1415.66, 0.665059
1416.05, 0.665059
1416.44, 0.664317
1416.82, 0.664264
1417.21, 0.664211
1417.6, 0.663999
1417.98, 0.663575
1418.37, 0.663205
1418.76, 0.662675
1419.15, 0.662622
1419.54, 0.662357
1419.93, 0.661986
1420.32, 0.661828
1420.71, 0.661616
1421.09, 0.661298
1421.48, 0.660821
1421.88, 0.660662
1422.27, 0.660715
1422.66, 0.660027
1423.05, 0.659974
1423.44, 0.660291
1423.83, 0.659921
1424.22, 0.659338
1424.61, 0.659073
1425.0, 0.659020
1425.39, 0.659073
1425.78, 0.658702
1426.18, 0.658544
1426.57, 0.658332
1426.96, 0.658332
1427.36, 0.657855
1427.75, 0.657696
1428.14, 0.657802
1428.54, 0.657855
1428.93, 0.657590
1429.32, 0.657272
1429.72, 0.656584
1430.11, 0.656425
1430.51, 0.656372
1430.9, 0.656425
1431.3, 0.656107
1431.69, 0.655630
1432.09, 0.655312
1432.48, 0.655260
1432.88, 0.655260
1433.28, 0.655365
1433.67, 0.655101
1434.07, 0.654995
1434.46, 0.654730
1434.86, 0.654624
1435.26, 0.654624
1435.66, 0.654518
1436.05, 0.654200
1436.45, 0.654041
1436.85, 0.653618
1437.25, 0.653459
1437.65, 0.653565
1438.05, 0.653723
1438.44, 0.653406
1438.84, 0.653247
1439.24, 0.653035
1439.64, 0.652876
1440.04, 0.652876
1440.44, 0.652770
1440.84, 0.652558
1441.24, 0.652399
1441.65, 0.652081
1442.05, 0.651923
1442.45, 0.651658
1442.85, 0.651658
1443.25, 0.651446
1443.65, 0.651711
1444.05, 0.651658
1444.46, 0.651340
1444.86, 0.651234
1445.26, 0.651340
1445.67, 0.651022
1446.07, 0.650916
1446.47, 0.650704
1446.88, 0.650440
1447.28, 0.650492
1447.68, 0.650492
1448.09, 0.650281
1448.49, 0.650334
1448.9, 0.650387
1449.3, 0.650069
1449.71, 0.649804
1450.11, 0.649857
1450.52, 0.649804
1450.93, 0.649592
1451.33, 0.649592
1451.74, 0.650122
1452.14, 0.649910
1452.55, 0.649380
1452.96, 0.649062
1453.36, 0.649062
1453.77, 0.648745
1454.18, 0.648956
1454.59, 0.649009
1455.0, 0.648745
1455.41, 0.648798
1455.81, 0.648798
1456.22, 0.648480
1456.63, 0.648374
1457.04, 0.648427
1457.45, 0.648056
1457.86, 0.647791
1458.27, 0.648003
1458.68, 0.647897
1459.09, 0.647844
1459.5, 0.647950
1459.91, 0.648003
1460.32, 0.647738
1460.74, 0.647738
1461.15, 0.647685
1461.56, 0.647579
1461.97, 0.647685
1462.39, 0.647738
1462.8, 0.647262
1463.21, 0.647209
1463.62, 0.647156
1464.04, 0.647050
1464.45, 0.646891
1464.86, 0.647262
1465.28, 0.647156
1465.69, 0.647156
1466.11, 0.646732
1466.52, 0.646361
1466.94, 0.646414
1467.35, 0.646891
1467.77, 0.646732
1468.18, 0.646573
1468.6, 0.646891
1469.02, 0.647156
1469.43, 0.646838
1469.85, 0.646838
1470.27, 0.646732
1470.68, 0.646944
1471.1, 0.647209
1471.52, 0.647103
1471.94, 0.646838
1472.35, 0.646520
1472.77, 0.646573
1473.19, 0.646944
1473.61, 0.646891
1474.03, 0.646997
1474.45, 0.646997
1474.87, 0.647050
1475.29, 0.647209
1475.71, 0.647156
1476.13, 0.647103
1476.55, 0.647262
1476.97, 0.646997
1477.39, 0.647103
1477.81, 0.647367
1478.23, 0.647156
1478.65, 0.647156
1479.07, 0.646997
1479.5, 0.647262
1479.92, 0.647420
1480.34, 0.647473
1480.76, 0.647950
1481.19, 0.647897
1481.61, 0.647791
1482.03, 0.647844
1482.46, 0.648056
1482.88, 0.648109
1483.31, 0.648215
1483.73, 0.648321
1484.16, 0.648374
1484.58, 0.648109
1485.01, 0.648321
1485.43, 0.648374
1485.86, 0.648798
1486.28, 0.649168
1486.71, 0.649115
1487.14, 0.649062
1487.56, 0.649062
1487.99, 0.649221
1488.42, 0.649327
1488.84, 0.649433
1489.27, 0.649804
1489.7, 0.649698
1490.13, 0.649698
1490.56, 0.650175
1490.98, 0.650387
1491.41, 0.650281
1491.84, 0.650440
1492.27, 0.650440
1492.7, 0.650387
1493.13, 0.650440
1493.56, 0.650440
1493.99, 0.650545
1494.42, 0.650651
1494.85, 0.650969
1495.29, 0.651446
1495.72, 0.651393
1496.15, 0.651552
1496.58, 0.651711
1497.01, 0.652029
1497.44, 0.652187
1497.88, 0.652134
1498.31, 0.652134
1498.74, 0.652240
1499.18, 0.652081
1499.61, 0.652240
1500.04, 0.652558
1500.48, 0.652929
1500.91, 0.653141
1501.35, 0.653141
1501.78, 0.653194
1502.22, 0.653300
1502.65, 0.653088
1503.09, 0.653088
1503.53, 0.653300
1503.96, 0.653512
1504.4, 0.653776
1504.83, 0.654041
1505.27, 0.654253
1505.71, 0.654465
1506.15, 0.654465
1506.58, 0.654571
1507.02, 0.654518
1507.46, 0.654730
1507.9, 0.654783
1508.34, 0.655101
1508.78, 0.654942
1509.21, 0.654995
1509.66, 0.655207
1510.09, 0.655524
1510.53, 0.655260
1510.97, 0.655260
1511.42, 0.656001
1511.86, 0.656160
1512.3, 0.656160
1512.74, 0.656160
1513.18, 0.656160
1513.62, 0.656425
1514.06, 0.656796
1514.51, 0.656690
1514.95, 0.656796
1515.39, 0.657219
1515.83, 0.657061
1516.28, 0.657166
1516.72, 0.657484
1517.16, 0.657643
1517.61, 0.657590
1518.05, 0.657802
1518.5, 0.658014
1518.94, 0.658332
1519.39, 0.658438
1519.83, 0.658120
1520.28, 0.658120
1520.73, 0.658385
1521.17, 0.658544
1521.62, 0.658967
1522.07, 0.658861
1522.51, 0.658914
1522.96, 0.659126
1523.41, 0.659497
1523.85, 0.659444
1524.3, 0.659391
1524.75, 0.659603
1525.2, 0.659868
1525.65, 0.659974
1526.1, 0.660450
1526.55, 0.660450
1527.0, 0.660715
1527.45, 0.660715
1527.9, 0.660768
1528.35, 0.660927
1528.8, 0.661192
1529.25, 0.661245
1529.7, 0.661404
1530.15, 0.661298
1530.6, 0.661404
1531.05, 0.661669
1531.51, 0.661880
1531.96, 0.662092
1532.41, 0.662675
1532.87, 0.662781
1533.32, 0.662887
1533.77, 0.662993
1534.23, 0.663311
1534.68, 0.663575
1535.14, 0.663628
1535.59, 0.663946
1536.05, 0.664529
1536.5, 0.664476
1536.96, 0.664423
1537.41, 0.664529
1537.87, 0.665006
1538.32, 0.664953
1538.78, 0.665164
1539.24, 0.665694
1539.7, 0.665800
1540.15, 0.665588
1540.61, 0.665800
1541.07, 0.666118
1541.53, 0.666647
1541.98, 0.666912
1542.44, 0.667018
1542.9, 0.666965
1543.36, 0.667283
1543.82, 0.667442
1544.28, 0.667866
1544.74, 0.668025
1545.2, 0.668342
1545.66, 0.668607
1546.12, 0.668819
1546.59, 0.669084
1547.05, 0.669402
1547.51, 0.669614
1547.97, 0.669720
1548.43, 0.669879
1548.9, 0.670037
1549.36, 0.670196
1549.82, 0.670408
1550.29, 0.670567
1550.75, 0.671044
1551.21, 0.671309
1551.68, 0.671256
1552.14, 0.671574
1552.61, 0.672103
1553.07, 0.672421
1553.54, 0.672580
1554.0, 0.672792
1554.47, 0.672951
1554.93, 0.673110
1555.4, 0.673480
1555.87, 0.673692
1556.34, 0.673692
1556.8, 0.673798
1557.27, 0.673851
1557.74, 0.674222
1558.21, 0.674593
1558.68, 0.674857
1559.14, 0.674963
1559.61, 0.675387
1560.08, 0.675811
1560.55, 0.675917
1561.02, 0.676023
1561.49, 0.676288
1561.96, 0.676499
1562.43, 0.676658
1562.9, 0.676817
1563.38, 0.676976
1563.85, 0.677294
1564.32, 0.677559
1564.79, 0.677824
1565.26, 0.677983
1565.74, 0.677824
1566.21, 0.677930
1566.68, 0.678459
1567.16, 0.678724
1567.63, 0.678830
1568.1, 0.679148
1568.58, 0.679254
1569.05, 0.679307
1569.53, 0.679466
1570.0, 0.679519
1570.48, 0.680101
1570.96, 0.680366
1571.43, 0.680472
1571.91, 0.680525
1572.39, 0.680525
1572.86, 0.680631
1573.34, 0.681055
1573.82, 0.681425
1574.3, 0.681584
1574.77, 0.681690
1575.25, 0.681955
1575.73, 0.681955
1576.21, 0.682379
1576.69, 0.682273
1577.17, 0.682220
1577.65, 0.682538
1578.13, 0.682856
1578.61, 0.683015
1579.09, 0.683332
1579.57, 0.683650
1580.05, 0.683756
1580.54, 0.683809
1581.02, 0.683756
1581.5, 0.683915
1581.98, 0.684233
1582.47, 0.684603
1582.95, 0.684762
1583.43, 0.684974
1583.92, 0.685133
1584.4, 0.685080
1584.88, 0.685239
1585.37, 0.685345
1585.85, 0.685716
1586.34, 0.685875
1586.82, 0.685981
1587.31, 0.686140
1587.8, 0.686351
1588.28, 0.686669
1588.77, 0.686881
1589.26, 0.686828
1589.74, 0.687093
1590.23, 0.687252
1590.72, 0.687252
1591.21, 0.687252
1591.7, 0.687782
1592.19, 0.687993
1592.67, 0.688311
1593.16, 0.688523
1593.65, 0.688788
1594.14, 0.689053
1594.63, 0.689318
1595.12, 0.689582
1595.61, 0.689635
1596.11, 0.689794
1596.6, 0.690059
1597.09, 0.690536
1597.58, 0.690748
1598.08, 0.690801
1598.57, 0.691013
1599.06, 0.690960
1599.55, 0.691436
1600.05, 0.691648
1600.54, 0.692178
1601.04, 0.692337
1601.53, 0.692496
1602.03, 0.692549
1602.52, 0.692760
1603.02, 0.693184
1603.51, 0.693343
1604.01, 0.693502
1604.5, 0.693714
1605.0, 0.693873
1605.5, 0.693979
1606.0, 0.694191
1606.49, 0.694561
1606.99, 0.694879
1607.49, 0.695356
1607.99, 0.695727
1608.49, 0.695992
1608.99, 0.695992
1609.49, 0.696150
1609.99, 0.696150
1610.49, 0.696309
1610.99, 0.696574
1611.49, 0.697051
1611.99, 0.697369
1612.49, 0.697739
1612.99, 0.697739
1613.49, 0.697792
1614.0, 0.698163
1614.5, 0.698693
1615.0, 0.698852
1615.51, 0.699170
1616.01, 0.699223
1616.51, 0.699275
1617.02, 0.699593
1617.52, 0.699805
1618.03, 0.700070
1618.53, 0.700388
1619.04, 0.700600
1619.54, 0.700653
1620.05, 0.700759
1620.55, 0.701129
1621.06, 0.701288
1621.57, 0.701659
1622.08, 0.702189
1622.58, 0.702295
1623.09, 0.702559
1623.6, 0.702559
1624.11, 0.702506
1624.62, 0.702983
1625.13, 0.703513
1625.64, 0.703884
1626.15, 0.704095
1626.66, 0.704095
1627.17, 0.704307
1627.68, 0.704784
1628.19, 0.704784
1628.7, 0.704890
1629.21, 0.704943
1629.72, 0.705155
1630.24, 0.705314
1630.75, 0.705684
1631.26, 0.705737
1631.78, 0.706002
1632.29, 0.706002
1632.8, 0.706267
1633.32, 0.706585
1633.83, 0.707009
1634.35, 0.706956
1634.86, 0.707220
1635.38, 0.707274
1635.9, 0.707538
1636.41, 0.707591
1636.93, 0.707644
1637.45, 0.707697
1637.96, 0.708174
1638.48, 0.708492
1639.0, 0.708545
1639.52, 0.708386
1640.04, 0.708863
1640.56, 0.709127
1641.08, 0.709074
1641.59, 0.709127
1642.11, 0.709286
1642.63, 0.709445
1643.16, 0.709816
1643.68, 0.709975
1644.2, 0.710293
1644.72, 0.710399
1645.24, 0.710346
1645.76, 0.710134
1646.29, 0.710293
1646.81, 0.710663
1647.33, 0.710981
1647.86, 0.711140
1648.38, 0.711723
1648.9, 0.711882
1649.43, 0.711723
1649.95, 0.711829
1650.48, 0.712147
1651.0, 0.712147
1651.53, 0.712252
1652.06, 0.712411
1652.58, 0.712729
1653.11, 0.712941
1653.64, 0.713365
1654.17, 0.713947
1654.69, 0.714212
1655.22, 0.713788
1655.75, 0.713736
1656.28, 0.713947
1656.81, 0.714212
1657.34, 0.714424
1657.87, 0.714636
1658.4, 0.714583
1658.93, 0.714424
1659.46, 0.714530
1659.99, 0.714954
1660.52, 0.715430
1661.05, 0.715748
1661.59, 0.715536
1662.12, 0.715695
1662.65, 0.716013
1663.19, 0.716384
1663.72, 0.716278
1664.26, 0.716490
1664.79, 0.716755
1665.32, 0.716808
1665.86, 0.717020
1666.39, 0.716967
1666.93, 0.717126
1667.47, 0.717496
1668.0, 0.717761
1668.54, 0.718026
1669.08, 0.718185
1669.61, 0.718608
1670.15, 0.718926
1670.69, 0.719297
1671.23, 0.719562
1671.77, 0.719827
1672.31, 0.719615
1672.85, 0.719668
1673.39, 0.719986
1673.93, 0.720304
1674.47, 0.720356
1675.01, 0.720462
1675.55, 0.720674
1676.09, 0.721045
1676.64, 0.721363
1677.18, 0.721522
1677.72, 0.721681
1678.26, 0.721840
1678.81, 0.722104
1679.35, 0.722263
1679.89, 0.722687
1680.44, 0.722899
1680.98, 0.722846
1681.53, 0.723058
1682.07, 0.723111
1682.62, 0.723270
1683.17, 0.723376
1683.71, 0.723746
1684.26, 0.724064
1684.81, 0.724276
1685.36, 0.724117
1685.9, 0.724435
1686.45, 0.724700
1687.0, 0.725018
1687.55, 0.725388
1688.1, 0.725706
1688.65, 0.725812
1689.2, 0.726024
1689.75, 0.726236
1690.3, 0.726501
1690.85, 0.726554
1691.41, 0.726660
1691.96, 0.726977
1692.51, 0.727348
1693.06, 0.727401
1693.61, 0.727507
1694.17, 0.727719
1694.72, 0.727931
1695.28, 0.728143
1695.83, 0.728302
1696.39, 0.728355
1696.94, 0.728408
1697.5, 0.728460
1698.05, 0.728725
1698.61, 0.728937
1699.17, 0.729202
1699.72, 0.729308
1700.28, 0.729202
1700.84, 0.729573
1701.4, 0.729838
1701.95, 0.729944
1702.51, 0.730049
1703.07, 0.730261
1703.63, 0.730261
1704.19, 0.730314
1704.75, 0.730579
1705.31, 0.730685
1705.88, 0.731003
1706.44, 0.731109
1707.0, 0.731215
1707.56, 0.731215
1708.12, 0.731321
1708.69, 0.731268
1709.25, 0.731586
1709.81, 0.731797
1710.38, 0.731956
1710.94, 0.731956
1711.51, 0.732168
1712.07, 0.732115
1712.64, 0.732380
1713.2, 0.732327
1713.77, 0.732486
1714.34, 0.732592
1714.9, 0.732857
1715.47, 0.733175
1716.04, 0.733228
1716.61, 0.733334
1717.18, 0.733545
1717.74, 0.733598
1718.31, 0.733704
1718.88, 0.733598
1719.45, 0.733916
1720.02, 0.734022
1720.59, 0.733916
1721.17, 0.734128
1721.74, 0.734287
1722.31, 0.734287
1722.88, 0.734287
1723.45, 0.734393
1724.03, 0.734499
1724.6, 0.734711
1725.18, 0.734923
1725.75, 0.734923
1726.33, 0.735240
1726.9, 0.735505
1727.48, 0.735452
1728.05, 0.735452
1728.63, 0.735505
1729.2, 0.735558
1729.78, 0.735717
1730.36, 0.735770
1730.94, 0.735929
1731.51, 0.735717
1732.09, 0.735982
1732.67, 0.736353
1733.25, 0.736829
1733.83, 0.736882
1734.41, 0.736882
1734.99, 0.736935
1735.57, 0.737200
1736.15, 0.737412
1736.73, 0.737412
1737.32, 0.737359
1737.9, 0.737677
1738.48, 0.737730
1739.07, 0.738048
1739.65, 0.738259
1740.23, 0.738630
1740.82, 0.738736
1741.4, 0.739001
1741.99, 0.739160
1742.57, 0.739372
1743.16, 0.739531
1743.74, 0.739901
1744.33, 0.739901
1744.92, 0.740060
1745.51, 0.740113
1746.09, 0.740378
1746.68, 0.740696
1747.27, 0.740643
1747.86, 0.740431
1748.45, 0.740908
1749.04, 0.741014
1749.63, 0.741067
1750.22, 0.741385
1750.81, 0.741596
1751.4, 0.741437
1751.99, 0.741755
1752.59, 0.742179
1753.18, 0.742285
1753.77, 0.742391
1754.37, 0.742656
1754.96, 0.742921
1755.56, 0.742868
1756.15, 0.743027
1756.74, 0.743556
1757.34, 0.743609
1757.94, 0.743609
1758.53, 0.743662
1759.13, 0.743821
1759.73, 0.743927
1760.32, 0.744192
1760.92, 0.744510
1761.52, 0.744721
1762.12, 0.744721
1762.72, 0.744933
1763.32, 0.745092
1763.92, 0.745039
1764.52, 0.745198
1765.12, 0.745516
1765.72, 0.745834
1766.32, 0.745993
1766.92, 0.746099
1767.53, 0.746046
1768.13, 0.746363
1768.73, 0.746734
1769.34, 0.746840
1769.94, 0.746734
1770.55, 0.746575
1771.15, 0.747052
1771.76, 0.747529
1772.36, 0.747688
1772.97, 0.747635
1773.57, 0.747741
1774.18, 0.747952
1774.79, 0.748217
1775.4, 0.748376
1776.0, 0.748429
1776.61, 0.748270
1777.22, 0.748535
1777.83, 0.748694
1778.44, 0.748535
1779.05, 0.748588
1779.66, 0.748588
1780.27, 0.748482
1780.88, 0.748853
1781.5, 0.748906
1782.11, 0.748906
1782.72, 0.749277
1783.33, 0.749330
1783.95, 0.749171
1784.56, 0.749224
1785.18, 0.749383
1785.79, 0.749489
1786.41, 0.749489
1787.02, 0.749541
1787.64, 0.749541
1788.26, 0.749806
1788.87, 0.749806
1789.49, 0.749859
1790.11, 0.749859
1790.73, 0.750071
1791.35, 0.750071
1791.96, 0.750230
1792.58, 0.750336
1793.21, 0.750336
1793.83, 0.750283
1794.45, 0.750336
1795.07, 0.750548
1795.69, 0.750972
1796.31, 0.750972
1796.93, 0.750760
1797.56, 0.750813
1798.18, 0.751183
1798.8, 0.751183
1799.43, 0.751078
1800.05, 0.750972
1800.68, 0.751078
1801.3, 0.751183
1801.93, 0.751236
1802.56, 0.751183
1803.18, 0.751342
1803.81, 0.751448
1804.44, 0.751554
1805.07, 0.751554
1805.7, 0.751501
1806.33, 0.751395
1806.95, 0.751660
1807.58, 0.751766
1808.22, 0.751925
1808.85, 0.751925
1809.48, 0.751766
1810.11, 0.752084
1810.74, 0.752349
1811.38, 0.752296
1812.01, 0.752349
1812.64, 0.752402
1813.28, 0.752561
1813.91, 0.752667
1814.55, 0.752719
1815.18, 0.752878
1815.82, 0.752931
1816.45, 0.752931
1817.09, 0.753090
1817.73, 0.753143
1818.36, 0.753408
1819.0, 0.753355
1819.64, 0.753673
1820.28, 0.754044
1820.92, 0.754150
1821.56, 0.754044
1822.2, 0.754150
1822.84, 0.754203
1823.48, 0.754414
1824.12, 0.754256
1824.76, 0.754309
1825.41, 0.754997
1826.05, 0.755686
1826.69, 0.755315
1827.34, 0.755209
1827.98, 0.755527
1828.63, 0.755580
1829.27, 0.755421
1829.92, 0.755898
1830.56, 0.756215
1831.21, 0.756480
1831.86, 0.756162
1832.5, 0.756057
1833.15, 0.755951
1833.8, 0.756109
1834.45, 0.756692
1835.1, 0.757063
1835.75, 0.757434
1836.4, 0.757540
1837.05, 0.757275
1837.7, 0.757434
1838.35, 0.757169
1839.01, 0.757381
1839.66, 0.758016
1840.31, 0.758069
1840.96, 0.757963
1841.62, 0.758705
1842.27, 0.758387
1842.93, 0.757699
1843.58, 0.757699
1844.24, 0.758016
1844.9, 0.758016
1845.55, 0.758334
1846.21, 0.759076
1846.87, 0.759764
1847.53, 0.759605
1848.18, 0.759446
1848.84, 0.759076
1849.5, 0.758864
1850.16, 0.758917
1850.82, 0.759023
1851.48, 0.759076
1852.14, 0.759287
1852.81, 0.759658
1853.47, 0.760400
1854.13, 0.760400
1854.8, 0.759764
1855.46, 0.759658
1856.12, 0.760188
1856.79, 0.760559
1857.45, 0.760188
1858.12, 0.759870
1858.79, 0.760347
1859.45, 0.761353
1860.12, 0.761353
1860.79, 0.760824
1861.46, 0.760453
1862.12, 0.760294
1862.79, 0.760400
1863.46, 0.760771
1864.13, 0.760718
1864.8, 0.760612
1865.48, 0.760665
1866.15, 0.760665
1866.82, 0.760929
1867.49, 0.761724
1868.16, 0.761830
1868.84, 0.761141
1869.51, 0.761141
1870.19, 0.761777
1870.86, 0.762413
1871.54, 0.761724
1872.21, 0.761671
1872.89, 0.762466
1873.56, 0.762095
1874.24, 0.761300
1874.92, 0.761300
1875.6, 0.761194
1876.28, 0.761353
1876.96, 0.761618
1877.64, 0.761247
1878.32, 0.760612
1879.0, 0.760612
1879.68, 0.760824
1880.36, 0.760929
1881.04, 0.761035
1881.73, 0.760824
1882.41, 0.760400
1883.09, 0.760612
1883.78, 0.761194
1884.46, 0.761247
1885.15, 0.760824
1885.83, 0.760982
1886.52, 0.760982
1887.21, 0.760771
1887.89, 0.760771
1888.58, 0.760718
1889.27, 0.760929
1889.96, 0.761247
1890.65, 0.760877
1891.34, 0.760877
1892.03, 0.760771
1892.72, 0.760559
1893.41, 0.760506
1894.1, 0.760400
1894.79, 0.760188
1895.49, 0.760241
1896.18, 0.760241
1896.87, 0.760294
1897.57, 0.760453
1898.26, 0.760400
1898.96, 0.760665
1899.65, 0.761141
1900.35, 0.760718
1901.05, 0.760347
1901.74, 0.760135
1902.44, 0.760771
1903.14, 0.760612
1903.84, 0.760241
1904.54, 0.760718
1905.24, 0.761088
1905.94, 0.760929
1906.64, 0.760771
1907.34, 0.760347
1908.04, 0.760241
1908.75, 0.760347
1909.45, 0.760559
1910.15, 0.760665
1910.86, 0.760824
1911.56, 0.760824
1912.27, 0.760771
1912.97, 0.761459
1913.68, 0.761671
1914.39, 0.760929
1915.09, 0.760982
1915.8, 0.761300
1916.51, 0.761353
1917.22, 0.761300
1917.93, 0.761300
1918.64, 0.761459
1919.35, 0.761989
1920.06, 0.762413
1920.77, 0.762519
1921.48, 0.762042
1922.19, 0.761777
1922.91, 0.761989
1923.62, 0.762360
1924.33, 0.762519
1925.05, 0.762413
1925.76, 0.762519
1926.48, 0.762783
1927.19, 0.762889
1927.91, 0.763048
1928.63, 0.763366
1929.35, 0.763313
1930.07, 0.763313
1930.78, 0.763472
1931.5, 0.763843
1932.22, 0.763949
1932.94, 0.764055
1933.66, 0.763896
1934.39, 0.763419
1935.11, 0.763684
1935.83, 0.764055
1936.55, 0.764266
1937.28, 0.764478
1938.0, 0.764743
1938.73, 0.764796
1939.45, 0.764902
1940.18, 0.764849
1940.9, 0.764690
1941.63, 0.764849
1942.36, 0.764849
1943.09, 0.764849
1943.81, 0.765167
1944.54, 0.765432
1945.27, 0.765644
1946.0, 0.765644
1946.73, 0.765485
1947.47, 0.765538
1948.2, 0.765803
1948.93, 0.765855
1949.66, 0.765855
1950.4, 0.765749
1951.13, 0.765855
1951.86, 0.765803
1952.6, 0.765803
1953.34, 0.766014
1954.07, 0.766014
1954.81, 0.765908
1955.55, 0.765908
1956.29, 0.765803
1957.02, 0.765908
1957.76, 0.765855
1958.5, 0.765961
1959.24, 0.765961
1959.98, 0.765961
1960.72, 0.765697
1961.47, 0.765803
1962.21, 0.765855
1962.95, 0.765961
1963.7, 0.765908
1964.44, 0.766014
1965.18, 0.765749
1965.93, 0.765697
1966.67, 0.765591
1967.42, 0.765855
1968.17, 0.765749
1968.92, 0.765644
1969.66, 0.765591
1970.41, 0.765485
1971.16, 0.765379
1971.91, 0.765591
1972.66, 0.765591
1973.41, 0.765485
1974.16, 0.765379
1974.92, 0.765326
1975.67, 0.765326
1976.42, 0.765220
1977.18, 0.765114
1977.93, 0.765220
1978.69, 0.765326
1979.44, 0.765273
1980.2, 0.765220
1980.95, 0.765273
1981.71, 0.765114
1982.47, 0.765061
1983.23, 0.765008
1983.99, 0.765061
1984.74, 0.765167
1985.51, 0.765114
1986.27, 0.764796
1987.03, 0.764955
1987.79, 0.765008
1988.55, 0.765008
1989.32, 0.764849
1990.08, 0.764796
1990.84, 0.764902
1991.61, 0.764955
1992.37, 0.764849
1993.14, 0.764743
1993.9, 0.764690
1994.67, 0.764796
1995.44, 0.764902
1996.21, 0.764955
1996.98, 0.764955
1997.75, 0.764743
1998.52, 0.764584
1999.29, 0.764796
2000.06, 0.764902
2000.83, 0.764955
2001.6, 0.764796
2002.38, 0.764902
2003.15, 0.764955
2003.93, 0.764902
2004.7, 0.764955
2005.48, 0.765008
2006.25, 0.764955
2007.03, 0.765167
2007.81, 0.765167
2008.58, 0.765061
2009.36, 0.764955
2010.14, 0.764849
2010.92, 0.764849
2011.7, 0.765167
2012.48, 0.765379
2013.26, 0.765538
2014.05, 0.765591
2014.83, 0.765697
2015.61, 0.765855
2016.4, 0.765961
2017.18, 0.765749
2017.97, 0.765697
2018.75, 0.765749
2019.54, 0.765855
2020.32, 0.766120
2021.11, 0.766120
2021.9, 0.766067
2022.69, 0.766120
2023.48, 0.766067
2024.27, 0.766173
2025.06, 0.766279
2025.85, 0.766491
2026.64, 0.766385
2027.44, 0.766491
2028.23, 0.766915
2029.02, 0.766968
2029.82, 0.766809
2030.61, 0.766809
2031.41, 0.766862
2032.2, 0.767180
2033.0, 0.767550
2033.8, 0.767497
2034.6, 0.767339
2035.4, 0.767497
2036.2, 0.767656
2037.0, 0.767868
2037.8, 0.767868
2038.6, 0.767974
2039.4, 0.768027
2040.2, 0.768080
2041.01, 0.768080
2041.81, 0.768186
2042.61, 0.768133
2043.42, 0.768027
2044.22, 0.767868
2045.03, 0.767921
2045.84, 0.767603
2046.65, 0.767762
2047.46, 0.767868
2048.26, 0.767656
2049.07, 0.767603
2049.88, 0.767656
2050.69, 0.767392
2051.51, 0.767127
2052.32, 0.766915
2053.13, 0.766862
2053.94, 0.766862
2054.76, 0.766703
2055.57, 0.766279
2056.39, 0.766120
2057.2, 0.765961
2058.02, 0.766014
2058.84, 0.765749
2059.66, 0.765538
2060.48, 0.765432
2061.29, 0.765114
2062.11, 0.765008
2062.94, 0.764796
2063.76, 0.764372
2064.58, 0.764214
2065.4, 0.764055
2066.22, 0.763790
2067.05, 0.763525
2067.87, 0.763101
2068.7, 0.762836
2069.52, 0.762571
2070.35, 0.762307
2071.18, 0.762307
2072.0, 0.762095
2072.83, 0.761883
2073.66, 0.761777
2074.49, 0.761618
2075.32, 0.761353
2076.15, 0.761035
2076.98, 0.760877
2077.82, 0.760877
2078.65, 0.760771
2079.48, 0.760824
2080.32, 0.760771
2081.15, 0.760612
2081.99, 0.760188
2082.83, 0.760135
2083.66, 0.759923
2084.5, 0.759764
2085.34, 0.759499
2086.18, 0.759287
2087.02, 0.759182
2087.86, 0.759076
2088.7, 0.758917
2089.54, 0.758811
2090.39, 0.758493
2091.23, 0.758387
2092.07, 0.758228
2092.92, 0.758122
2093.76, 0.758016
2094.61, 0.757857
2095.45, 0.757804
2096.3, 0.757699
2097.15, 0.757593
2098.0, 0.757487
2098.85, 0.757328
2099.7, 0.757116
2100.55, 0.756851
2101.4, 0.756798
2102.25, 0.756586
2103.1, 0.756427
2103.96, 0.756215
2104.81, 0.756162
2105.67, 0.756109
2106.52, 0.755951
2107.38, 0.755739
2108.24, 0.755791
2109.09, 0.755422
2109.95, 0.755159
2110.81, 0.754685
2111.67, 0.754737
2112.53, 0.754474
2113.39, 0.754632
2114.25, 0.754790
2115.12, 0.755633
2115.98, 0.755317
2116.84, 0.754421
2117.71, 0.754316
2118.58, 0.754263
2119.44, 0.754316
2120.31, 0.754368
2121.18, 0.754790
2122.04, 0.754948
2122.91, 0.754948
2123.78, 0.755159
2124.65, 0.755212
2125.52, 0.755212
2126.4, 0.755422
2127.27, 0.755686
2128.14, 0.755897
2129.02, 0.756529
2129.89, 0.756740
2130.77, 0.756687
2131.64, 0.756529
2132.52, 0.756477
2133.4, 0.756951
2134.27, 0.756529
2135.15, 0.756951
2136.03, 0.757689
2136.91, 0.757794
2137.79, 0.757689
2138.68, 0.758058
2139.56, 0.758110
2140.44, 0.758374
2141.33, 0.758637
2142.21, 0.758901
2143.1, 0.758954
2143.99, 0.759112
2144.87, 0.759112
2145.76, 0.758954
2146.65, 0.759217
2147.54, 0.759006
2148.43, 0.759006
2149.32, 0.759691
2150.21, 0.760271
2151.1, 0.760271
2151.99, 0.760324
2152.89, 0.760218
2153.78, 0.760324
2154.68, 0.760587
2155.57, 0.760008
2156.47, 0.760376
2157.37, 0.760956
2158.27, 0.760903
2159.16, 0.760903
2160.06, 0.760798
2160.96, 0.760693
2161.86, 0.760851
2162.77, 0.760956
2163.67, 0.760956
2164.57, 0.761062
2165.48, 0.761062
2166.38, 0.760851
2167.29, 0.760376
2168.2, 0.760271
2169.1, 0.760271
2170.01, 0.760851
2170.92, 0.761167
2171.83, 0.761009
2172.74, 0.760745
2173.65, 0.760693
2174.56, 0.760376
2175.47, 0.759955
2176.39, 0.759586
2177.3, 0.759849
2178.22, 0.759797
2179.13, 0.760008
2180.05, 0.760324
2180.96, 0.760166
2181.88, 0.759797
2182.8, 0.759744
2183.72, 0.759428
2184.64, 0.759112
2185.56, 0.759112
2186.48, 0.758637
2187.41, 0.758848
2188.33, 0.758954
2189.25, 0.758901
2190.18, 0.758532
2191.1, 0.758005
2192.03, 0.758268
2192.96, 0.758585
2193.89, 0.758005
2194.82, 0.757583
2195.74, 0.757531
2196.68, 0.757531
2197.61, 0.757267
2198.54, 0.757320
2199.47, 0.757109
2200.4, 0.757056
2201.34, 0.757372
2202.28, 0.756687
2203.21, 0.756371
2204.15, 0.756477
2205.08, 0.756793
2206.02, 0.756371
2206.96, 0.755949
2207.9, 0.756108
2208.84, 0.756582
2209.78, 0.756582
2210.73, 0.756582
2211.67, 0.756424
2212.61, 0.756108
2213.56, 0.756635
2214.5, 0.756424
2215.45, 0.756318
2216.4, 0.756213
2217.35, 0.755844
2218.3, 0.755159
2219.24, 0.755159
2220.2, 0.755212
2221.15, 0.755001
2222.1, 0.754948
2223.05, 0.754948
2224.0, 0.754737
2224.96, 0.754948
2225.91, 0.754790
2226.87, 0.754000
2227.83, 0.754105
2228.79, 0.754105
2229.74, 0.753736
2230.7, 0.753525
2231.66, 0.753262
2232.63, 0.753209
2233.59, 0.753104
2234.55, 0.753104
2235.51, 0.752946
2236.48, 0.752682
2237.44, 0.752418
2238.41, 0.751575
2239.38, 0.751312
2240.34, 0.751364
2241.31, 0.751048
2242.28, 0.750838
2243.25, 0.750679
2244.22, 0.750310
2245.19, 0.750047
2246.17, 0.749678
2247.14, 0.749204
2248.12, 0.748360
2249.09, 0.748255
2250.07, 0.748308
2251.04, 0.748202
2252.02, 0.747728
2253.0, 0.747412
2253.98, 0.747096
2254.96, 0.746569
2255.94, 0.746094
2256.92, 0.745831
2257.91, 0.745093
2258.89, 0.744250
2259.88, 0.743723
2260.86, 0.742827
2261.85, 0.742405
2262.83, 0.741562
2263.82, 0.740877
2264.81, 0.740403
2265.8, 0.739717
2266.79, 0.739190
2267.78, 0.738295
2268.78, 0.737557
2269.77, 0.736872
2270.76, 0.735923
2271.76, 0.735185
2272.75, 0.733815
2273.75, 0.732761
2274.75, 0.731549
2275.75, 0.730284
2276.75, 0.729072
2277.75, 0.727965
2278.75, 0.726911
2279.75, 0.725804
2280.75, 0.724381
2281.76, 0.723169
2282.76, 0.722115
2283.77, 0.721377
2284.77, 0.720640
2285.78, 0.719427
2286.79, 0.717741
2287.8, 0.716371
2288.81, 0.714632
2289.82, 0.712629
2290.83, 0.710732
2291.84, 0.708413
2292.86, 0.705725
2293.87, 0.703195
2294.89, 0.700560
2295.91, 0.697873
2296.92, 0.694658
2297.94, 0.691127
2298.96, 0.687174
2299.98, 0.683485
2301.0, 0.678847
2302.02, 0.674262
2303.04, 0.669519
2304.07, 0.664196
2305.09, 0.658346
2306.12, 0.652602
2307.15, 0.647753
2308.17, 0.643590
2309.2, 0.639796
2310.23, 0.636317
2311.26, 0.633471
2312.29, 0.631732
2313.32, 0.632048
2314.35, 0.634262
2315.39, 0.637951
2316.42, 0.642852
2317.46, 0.648860
2318.5, 0.654657
2319.53, 0.660613
2320.57, 0.667148
2321.61, 0.673735
2322.65, 0.680428
2323.69, 0.686700
2324.73, 0.691812
2325.78, 0.696397
2326.82, 0.701140
2327.86, 0.704566
2328.91, 0.707411
2329.96, 0.710099
2331.01, 0.712102
2332.05, 0.713630
2333.1, 0.714895
2334.15, 0.716213
2335.21, 0.716792
2336.26, 0.717161
2337.31, 0.717583
2338.36, 0.717794
2339.42, 0.717794
2340.48, 0.718163
2341.53, 0.718321
2342.59, 0.718268
2343.65, 0.718215
2344.71, 0.718110
2345.77, 0.717636
2346.83, 0.716845
2347.9, 0.716160
2348.96, 0.715369
2350.02, 0.715000
2351.09, 0.714368
2352.16, 0.713525
2353.23, 0.712523
2354.29, 0.711469
2355.36, 0.710152
2356.43, 0.709045
2357.51, 0.707570
2358.58, 0.706041
2359.65, 0.704144
2360.73, 0.701825
2361.8, 0.699506
2362.88, 0.697187
2363.96, 0.694447
2365.03, 0.691548
2366.11, 0.688070
2367.19, 0.684328
2368.27, 0.680007
2369.36, 0.675949
2370.44, 0.671522
2371.53, 0.666410
2372.61, 0.661772
2373.7, 0.657292
2374.78, 0.653340
2375.87, 0.651232
2376.96, 0.650230
2378.05, 0.650968
2379.14, 0.653340
2380.24, 0.656080
2381.33, 0.659611
2382.42, 0.663617
2383.52, 0.666884
2384.61, 0.669414
2385.71, 0.671891
2386.81, 0.674473
2387.91, 0.677108
2389.01, 0.680376
2390.11, 0.683274
2391.22, 0.685804
2392.32, 0.688702
2393.42, 0.691179
2394.53, 0.693393
2395.64, 0.695923
2396.74, 0.698558
2397.85, 0.701456
2398.96, 0.703670
2400.07, 0.705567
2401.18, 0.707570
2402.3, 0.709361
2403.41, 0.710521
2404.52, 0.711944
2405.64, 0.712892
2406.76, 0.713367
2407.88, 0.713683
2408.99, 0.714157
2410.11, 0.714421
2411.23, 0.714210
2412.36, 0.713736
2413.48, 0.713261
2414.6, 0.712998
2415.73, 0.712682
2416.85, 0.711996
2417.98, 0.711417
2419.11, 0.711101
2420.24, 0.710837
2421.37, 0.710626
2422.5, 0.710679
2423.64, 0.710574
2424.77, 0.710310
2425.9, 0.710047
2427.04, 0.710310
2428.18, 0.709941
2429.31, 0.709520
2430.45, 0.709045
2431.59, 0.708729
2432.73, 0.708413
2433.88, 0.707886
2435.02, 0.707622
2436.16, 0.707359
2437.31, 0.707253
2438.45, 0.707148
2439.6, 0.706779
2440.75, 0.706252
2441.9, 0.706357
2443.05, 0.706305
2444.2, 0.705936
2445.35, 0.705989
2446.51, 0.706252
2447.67, 0.706305
2448.82, 0.706410
2449.98, 0.706568
2451.14, 0.706726
2452.3, 0.706779
2453.46, 0.706779
2454.62, 0.706621
2455.78, 0.706568
2456.94, 0.706621
2458.11, 0.706463
2459.28, 0.706305
2460.44, 0.706252
2461.61, 0.706305
2462.78, 0.706410
2463.95, 0.706568
2465.12, 0.706726
2466.3, 0.706726
2467.47, 0.707306
2468.65, 0.707991
2469.82, 0.708360
2471.0, 0.708782
2472.18, 0.709256
2473.36, 0.709414
2474.54, 0.709625
2475.72, 0.709941
2476.9, 0.710415
2478.08, 0.710732
2479.27, 0.711153
2480.46, 0.711575
2481.64, 0.711838
2482.83, 0.711944
2484.02, 0.712207
2485.21, 0.712365
2486.4, 0.712629
2487.6, 0.712787
2488.79, 0.712840
2489.99, 0.713103
2491.18, 0.713314
2492.38, 0.713788
2493.58, 0.714105
2494.78, 0.714263
2495.98, 0.714421
2497.18, 0.715000
2498.39, 0.715949
2499.59, 0.716371
2500.8, 0.716318
2502.01, 0.716740
2503.21, 0.717003
2504.42, 0.717003
2505.63, 0.717267
2506.84, 0.717899
2508.06, 0.718110
2509.27, 0.717899
2510.49, 0.717846
2511.7, 0.717741
2512.92, 0.717636
2514.14, 0.717688
2515.36, 0.717530
2516.58, 0.717478
2517.8, 0.717425
2519.03, 0.717425
2520.25, 0.717741
2521.48, 0.717952
2522.7, 0.717846
2523.93, 0.718004
2525.16, 0.718373
2526.39, 0.717952
2527.62, 0.718004
2528.86, 0.718057
2530.09, 0.718057
2531.33, 0.717899
2532.56, 0.717372
2533.8, 0.717003
2535.04, 0.716634
2536.28, 0.716476
2537.52, 0.716160
2538.76, 0.716107
2540.01, 0.715949
2541.25, 0.716002
2542.5, 0.715949
2543.75, 0.715844
2544.99, 0.715580
2546.24, 0.715369
2547.49, 0.715633
2548.75, 0.715738
2550.0, 0.715527
2551.26, 0.715738
2552.51, 0.715791
2553.77, 0.715844
2555.03, 0.716054
2556.29, 0.716265
2557.55, 0.716160
2558.81, 0.716213
2560.08, 0.716213
2561.34, 0.716529
2562.61, 0.716634
2563.88, 0.716950
2565.14, 0.717214
2566.41, 0.717425
2567.68, 0.717425
2568.96, 0.717741
2570.23, 0.718057
2571.51, 0.717899
2572.78, 0.718321
2574.06, 0.719058
2575.34, 0.719111
2576.62, 0.719849
2577.9, 0.720481
2579.18, 0.720903
2580.47, 0.721219
2581.75, 0.721588
2583.04, 0.721852
2584.32, 0.722589
2585.61, 0.722273
2586.9, 0.722695
2588.2, 0.723433
2589.49, 0.724276
2590.78, 0.724223
2592.08, 0.724171
2593.37, 0.723433
2594.67, 0.723749
2595.97, 0.724698
2597.27, 0.725541
2598.57, 0.725804
2599.88, 0.725752
2601.18, 0.725541
2602.49, 0.725593
2603.79, 0.725277
2605.1, 0.725330
2606.41, 0.725541
2607.72, 0.725962
2609.03, 0.726226
2610.35, 0.726542
2611.66, 0.726858
2612.98, 0.727175
2614.3, 0.727175
2615.62, 0.726858
2616.94, 0.727122
2618.26, 0.727227
2619.58, 0.727385
2620.91, 0.727860
2622.23, 0.727860
2623.56, 0.728123
2624.89, 0.727912
2626.22, 0.727702
2627.55, 0.727333
2628.88, 0.726595
2630.21, 0.726226
2631.55, 0.726120
2632.89, 0.725488
2634.22, 0.725541
2635.56, 0.725383
2636.9, 0.724908
2638.25, 0.723960
2639.59, 0.723117
2640.93, 0.722484
2642.28, 0.721799
2643.63, 0.720745
2644.98, 0.719902
2646.33, 0.719427
2647.68, 0.719164
2649.03, 0.718479
2650.39, 0.718215
2651.74, 0.717899
2653.1, 0.717952
2654.46, 0.718215
2655.82, 0.718479
2657.18, 0.718373
2658.54, 0.717899
2659.9, 0.717372
2661.27, 0.716687
2662.64, 0.715053
2664.01, 0.712576
2665.38, 0.708518
2666.74, 0.701931
2668.12, 0.692971
2669.49, 0.680745
2670.87, 0.664196
2672.24, 0.645435
2673.62, 0.625935
2675.0, 0.606014
2676.38, 0.586093
2677.76, 0.567542
2679.15, 0.550150
2680.54, 0.533866
2681.92, 0.517212
2683.31, 0.498766
2684.7, 0.477001
2686.09, 0.452653
2687.48, 0.426038
2688.88, 0.399899
2690.27, 0.375498
2691.67, 0.354997
2693.07, 0.337974
2694.47, 0.324535
2695.87, 0.314628
2697.27, 0.308620
2698.67, 0.306037
2700.08, 0.307776
2701.49, 0.314259
2702.9, 0.325537
2704.31, 0.340082
2705.72, 0.356894
2707.13, 0.374918
2708.54, 0.394154
2709.96, 0.413759
2711.38, 0.434471
2712.8, 0.451968
2714.22, 0.461770
2715.64, 0.453812
2717.06, 0.421664
2718.49, 0.374707
2719.91, 0.329700
2721.34, 0.298132
2722.77, 0.284799
2724.2, 0.289173
2725.63, 0.311518
2727.07, 0.349779
2728.5, 0.393838
2729.94, 0.428252
2731.38, 0.447857
2732.82, 0.460927
2734.26, 0.475841
2735.7, 0.495921
2737.15, 0.517634
2738.59, 0.538872
2740.04, 0.556580
2741.49, 0.568912
2742.94, 0.576923
2744.39, 0.582614
2745.84, 0.587568
2747.3, 0.592312
2748.76, 0.596053
2750.21, 0.598794
2751.67, 0.600428
2753.14, 0.601534
2754.6, 0.602483
2756.06, 0.604011
2757.53, 0.604802
2759.0, 0.605487
2760.46, 0.605592
2761.94, 0.605803
2763.41, 0.606330
2764.88, 0.607121
2766.36, 0.607700
2767.83, 0.608333
2769.31, 0.608544
2770.79, 0.608702
2772.27, 0.608438
2773.76, 0.608017
2775.24, 0.607437
2776.73, 0.606910
2778.22, 0.606330
2779.71, 0.605645
2781.2, 0.604749
2782.69, 0.603853
2784.18, 0.603221
2785.68, 0.602378
2787.18, 0.601587
2788.68, 0.600744
2790.18, 0.599795
2791.68, 0.599110
2793.19, 0.598214
2794.69, 0.597265
2796.2, 0.596528
2797.71, 0.595579
2799.22, 0.594894
2800.73, 0.594156
2802.24, 0.593366
2803.76, 0.592733
2805.28, 0.592153
2806.8, 0.591626
2808.32, 0.590994
2809.84, 0.590203
2811.36, 0.589571
2812.89, 0.589044
2814.42, 0.588517
2815.94, 0.588148
2817.48, 0.587621
2819.01, 0.587305
2820.54, 0.586883
2822.08, 0.586514
2823.61, 0.586040
2825.15, 0.585724
2826.69, 0.585566
2828.23, 0.585408
2829.78, 0.585091
2831.32, 0.584881
2832.87, 0.584512
2834.42, 0.584248
2835.97, 0.584143
2837.52, 0.583932
2839.08, 0.583616
2840.63, 0.583616
2842.19, 0.583510
2843.75, 0.583194
2845.31, 0.582614
2846.87, 0.582246
2848.44, 0.581824
2850.0, 0.581666
2851.57, 0.581508
2853.14, 0.581086
2854.71, 0.580665
2856.28, 0.580348
2857.86, 0.580085
2859.43, 0.579927
2861.01, 0.579663
2862.59, 0.579294
2864.17, 0.579083
2865.76, 0.578873
2867.34, 0.578820
2868.93, 0.578609
2870.52, 0.578240
2872.11, 0.578029
2873.7, 0.577871
2875.29, 0.577713
2876.89, 0.577502
2878.49, 0.577450
2880.08, 0.577239
2881.69, 0.576975
2883.29, 0.576659
2884.89, 0.576396
2886.5, 0.576343
2888.11, 0.576343
2889.72, 0.576343
2891.33, 0.576238
2892.94, 0.576027
2894.56, 0.576027
2896.17, 0.575921
2897.79, 0.575869
2899.42, 0.575974
2901.04, 0.575974
2902.66, 0.575763
2904.29, 0.575658
2905.92, 0.575605
2907.55, 0.575711
2909.18, 0.575921
2910.81, 0.576027
2912.45, 0.576132
2914.08, 0.576132
2915.72, 0.576079
2917.36, 0.576185
2919.01, 0.576501
2920.65, 0.576501
2922.3, 0.576396
2923.94, 0.576290
2925.59, 0.576290
2927.25, 0.576132
2928.9, 0.576079
2930.56, 0.576238
2932.21, 0.576290
2933.87, 0.575974
2935.53, 0.575816
2937.2, 0.575921
2938.86, 0.576132
2940.53, 0.576079
2942.2, 0.575921
2943.87, 0.575869
2945.54, 0.575921
2947.22, 0.575921
2948.89, 0.576027
2950.57, 0.575869
2952.25, 0.575869
2953.93, 0.575763
2955.62, 0.575816
2957.3, 0.575974
2958.99, 0.575921
2960.68, 0.575763
2962.37, 0.575763
2964.07, 0.575816
2965.76, 0.575974
2967.46, 0.576079
2969.16, 0.575974
2970.86, 0.576185
2972.56, 0.576343
2974.27, 0.576343
2975.98, 0.576290
2977.69, 0.576396
2979.4, 0.576501
2981.11, 0.576765
2982.83, 0.577028
2984.54, 0.577239
2986.26, 0.577502
2987.98, 0.577661
2989.71, 0.577766
2991.43, 0.577977
2993.16, 0.578240
2994.89, 0.578346
2996.62, 0.578556
2998.35, 0.578662
3000.09, 0.578873
3001.83, 0.579136
3003.57, 0.579189
3005.31, 0.579294
3007.05, 0.579663
3008.79, 0.579821
3010.54, 0.580032
3012.29, 0.580243
3014.04, 0.580559
3015.8, 0.580717
3017.55, 0.580981
3019.31, 0.581350
3021.07, 0.581613
3022.83, 0.581824
3024.59, 0.582035
3026.36, 0.582298
3028.13, 0.582404
3029.9, 0.582614
3031.67, 0.582825
3033.44, 0.583194
3035.22, 0.583458
3037.0, 0.583721
3038.78, 0.583932
3040.56, 0.584037
3042.34, 0.584301
3044.13, 0.584512
3045.92, 0.584670
3047.71, 0.584933
3049.5, 0.585197
3051.3, 0.585249
3053.09, 0.585408
3054.89, 0.585829
3056.69, 0.585935
3058.5, 0.586145
3060.3, 0.586304
3062.11, 0.586462
3063.92, 0.586620
3065.73, 0.586831
3067.55, 0.586883
3069.36, 0.586936
3071.18, 0.587252
3073.0, 0.587358
3074.82, 0.587463
3076.65, 0.587621
3078.48, 0.587568
3080.31, 0.587674
3082.14, 0.587990
3083.97, 0.588043
3085.8, 0.588201
3087.64, 0.588464
3089.48, 0.588781
3091.33, 0.588833
3093.17, 0.588991
3095.02, 0.589097
3096.87, 0.589202
3098.72, 0.589413
3100.57, 0.589518
3102.43, 0.589518
3104.28, 0.589413
3106.14, 0.589413
3108.01, 0.589624
3109.87, 0.589782
3111.74, 0.589887
3113.61, 0.590045
3115.48, 0.590203
3117.35, 0.590414
3119.23, 0.590678
3121.1, 0.590889
3122.98, 0.591205
3124.87, 0.591732
3126.75, 0.592259
3128.64, 0.592944
3130.53, 0.593524
3132.42, 0.594156
3134.31, 0.594894
3136.21, 0.595474
3138.11, 0.596211
3140.01, 0.597002
3141.91, 0.597792
3143.82, 0.598319
3145.73, 0.598794
3147.64, 0.599479
3149.55, 0.599953
3151.46, 0.600428
3153.38, 0.600796
3155.3, 0.601271
3157.22, 0.601798
3159.14, 0.602167
3161.07, 0.602536
3163.0, 0.602904
3164.93, 0.603273
3166.86, 0.603642
3168.8, 0.604064
3170.74, 0.604486
3172.68, 0.604907
3174.62, 0.605329
3176.56, 0.605803
3178.51, 0.606172
3180.46, 0.606488
3182.42, 0.607068
3184.37, 0.607595
3186.33, 0.608017
3188.29, 0.608491
3190.25, 0.608912
3192.21, 0.609334
3194.18, 0.609650
3196.15, 0.610072
3198.12, 0.610335
3200.09, 0.610441
3202.07, 0.610652
3204.05, 0.610968
3206.03, 0.611284
3208.02, 0.611600
3210.0, 0.611653
3211.99, 0.611653
3213.98, 0.611758
3215.98, 0.611548
3217.97, 0.611442
3219.97, 0.611231
3221.97, 0.611126
3223.98, 0.610968
3225.98, 0.610810
3227.99, 0.610652
3230.0, 0.610388
3232.02, 0.610177
3234.03, 0.610125
3236.05, 0.610072
3238.07, 0.610072
3240.1, 0.610125
3242.12, 0.610019
3244.15, 0.610072
3246.18, 0.610125
3248.22, 0.610335
3250.25, 0.610810
3252.29, 0.611126
3254.33, 0.611548
3256.38, 0.612022
3258.43, 0.612443
3260.47, 0.612760
3262.53, 0.613287
3264.58, 0.614025
3266.64, 0.614710
3268.7, 0.615342
3270.76, 0.615816
3272.82, 0.616238
3274.89, 0.616870
3276.96, 0.617450
3279.04, 0.618030
3281.11, 0.618662
3283.19, 0.618926
3285.27, 0.619031
3287.35, 0.619189
3289.44, 0.619453
3291.53, 0.619822
3293.62, 0.620138
3295.71, 0.620191
3297.81, 0.620349
3299.91, 0.620665
3302.01, 0.620928
3304.11, 0.621139
3306.22, 0.621297
3308.33, 0.621350
3310.44, 0.621508
3312.56, 0.621508
3314.68, 0.621614
3316.8, 0.621561
3318.92, 0.621561
3321.05, 0.621455
3323.18, 0.621455
3325.31, 0.621455
3327.44, 0.621455
3329.58, 0.621508
3331.72, 0.621666
3333.86, 0.621930
3336.01, 0.622140
3338.16, 0.622562
3340.31, 0.622878
3342.46, 0.622878
3344.61, 0.622773
3346.77, 0.622720
3348.94, 0.622931
3351.1, 0.623089
3353.27, 0.622931
3355.44, 0.622615
3357.61, 0.622351
3359.79, 0.621930
3361.97, 0.621245
3364.15, 0.620507
3366.33, 0.619664
3368.52, 0.618926
3370.71, 0.618504
3372.9, 0.618399
3375.1, 0.618610
3377.3, 0.618926
3379.5, 0.619558
3381.71, 0.620401
3383.91, 0.621297
3386.12, 0.621930
3388.34, 0.622299
3390.55, 0.622299
3392.77, 0.621930
3394.99, 0.621297
3397.22, 0.620507
3399.45, 0.619769
3401.68, 0.619031
3403.91, 0.618135
3406.15, 0.617239
3408.39, 0.616501
3410.63, 0.616080
3412.87, 0.615869
3415.12, 0.616080
3417.37, 0.616923
3419.63, 0.618451
3421.88, 0.620243
3424.14, 0.622140
3426.41, 0.623985
3428.67, 0.625777
3430.94, 0.627569
3433.21, 0.629203
3435.49, 0.630520
3437.77, 0.631838
3440.05, 0.632997
3442.33, 0.633946
3444.62, 0.634947
3446.91, 0.636001
3449.2, 0.636897
3451.5, 0.637635
3453.8, 0.638214
3456.1, 0.638847
3458.41, 0.639585
3460.72, 0.640112
3463.03, 0.640375
3465.34, 0.640428
3467.66, 0.640428
3469.98, 0.640323
3472.31, 0.640323
3474.63, 0.640481
3476.96, 0.640797
3479.3, 0.641271
3481.64, 0.641482
3483.97, 0.641429
3486.32, 0.641271
3488.66, 0.640797
3491.01, 0.640217
3493.36, 0.639585
3495.72, 0.639005
3498.08, 0.638531
3500.44, 0.638583
3502.81, 0.639216
3505.18, 0.640428
3507.55, 0.642220
3509.92, 0.644222
3512.3, 0.646225
3514.68, 0.647912
3517.06, 0.649440
3519.45, 0.650810
3521.84, 0.651917
3524.24, 0.652813
3526.64, 0.653551
3529.04, 0.654183
3531.44, 0.654921
3533.85, 0.655501
3536.26, 0.655975
3538.67, 0.656449
3541.09, 0.657029
3543.51, 0.657450
3545.93, 0.657978
3548.36, 0.658346
3550.79, 0.658663
3553.22, 0.659084
3555.66, 0.659453
3558.1, 0.659717
3560.54, 0.659980
3562.99, 0.660402
3565.44, 0.660876
3567.9, 0.661034
3570.35, 0.661298
3572.81, 0.661508
3575.28, 0.661667
3577.75, 0.661930
3580.22, 0.662246
3582.69, 0.662563
3585.17, 0.662721
3587.65, 0.662879
3590.14, 0.662984
3592.62, 0.663300
3595.11, 0.663511
3597.61, 0.663617
3600.11, 0.663775
3602.61, 0.663933
3605.11, 0.664144
3607.62, 0.664302
3610.14, 0.664618
3612.65, 0.664829
3615.17, 0.664881
3617.69, 0.664987
3620.22, 0.665198
3622.75, 0.665303
3625.28, 0.665250
3627.82, 0.665408
3630.36, 0.665672
3632.9, 0.665830
3635.45, 0.665935
3638.0, 0.666041
3640.56, 0.666041
3643.12, 0.666252
3645.68, 0.666515
3648.24, 0.666568
3650.81, 0.666568
3653.39, 0.666673
3655.96, 0.666779
3658.54, 0.666884
3661.13, 0.667148
3663.71, 0.667411
3666.3, 0.667833
3668.9, 0.668149
3671.5, 0.668518
3674.1, 0.668834
3676.7, 0.669150
3679.31, 0.669519
3681.93, 0.669941
3684.54, 0.670099
3687.17, 0.670152
3689.79, 0.670362
3692.42, 0.670573
3695.05, 0.670995
3697.69, 0.671416
3700.32, 0.671996
3702.97, 0.672470
3705.61, 0.672681
3708.27, 0.672892
3710.92, 0.673261
3713.58, 0.673577
3716.24, 0.673946
3718.91, 0.674262
3721.58, 0.674473
3724.25, 0.674737
3726.93, 0.675053
3729.61, 0.675422
3732.29, 0.675580
3734.98, 0.675896
3737.67, 0.676212
3740.37, 0.676528
3743.07, 0.676739
3745.78, 0.677055
3748.49, 0.677372
3751.2, 0.677530
3753.91, 0.677846
3756.63, 0.678162
3759.36, 0.678268
3762.09, 0.678373
3764.82, 0.678373
3767.55, 0.678373
3770.29, 0.678636
3773.04, 0.679005
3775.78, 0.679163
3778.54, 0.679216
3781.29, 0.679322
3784.05, 0.679427
3786.82, 0.679532
3789.59, 0.679532
3792.36, 0.679638
3795.13, 0.679690
3797.92, 0.679638
3800.7, 0.679690
3803.49, 0.679849
3806.28, 0.680059
3809.08, 0.680007
3811.88, 0.679849
3814.68, 0.679849
3817.49, 0.680007
3820.31, 0.680007
3823.12, 0.679954
3825.94, 0.679901
3828.77, 0.679690
3831.6, 0.679690
3834.43, 0.679690
3837.27, 0.679585
3840.11, 0.679480
3842.96, 0.679480
3845.81, 0.679374
3848.67, 0.679322
3851.53, 0.679269
3854.39, 0.679216
3857.26, 0.679111
3860.13, 0.679058
3863.01, 0.678953
3865.89, 0.678900
3868.77, 0.678742
3871.66, 0.678636
3874.55, 0.678531
3877.45, 0.678268
3880.35, 0.678162
3883.26, 0.678057
3886.17, 0.677846
3889.09, 0.677635
3892.01, 0.677477
3894.93, 0.677424
3897.86, 0.677319
3900.79, 0.677108
3903.73, 0.676950
3906.67, 0.676634
3909.62, 0.676476
3912.57, 0.676318
3915.52, 0.676107
3918.48, 0.675791
3921.45, 0.675685
3924.42, 0.675580
3927.39, 0.675264
3930.37, 0.675000
3933.35, 0.674842
3936.34, 0.674789
3939.33, 0.674789
3942.32, 0.674578
3945.32, 0.674420
3948.33, 0.674262
3951.34, 0.673999
3954.35, 0.673788
3957.37, 0.673577
3960.39, 0.673472
3963.42, 0.673419
3966.45, 0.673419
3969.49, 0.673366
3972.53, 0.673261
3975.58, 0.673208
3978.63, 0.673261
3981.68, 0.673261
3984.75, 0.673261
3987.81, 0.673314
3990.88, 0.673314
3993.95, 0.673314
3997.03, 0.673366
4000.12, 0.673577
4003.21, 0.673630
4006.3, 0.673577
4009.4, 0.673577
4012.5, 0.673577
4015.61, 0.673524
4018.72, 0.673314
4021.84, 0.673103
4024.96, 0.672945
4028.09, 0.672839
4031.22, 0.672734
4034.36, 0.672523
4037.5, 0.672365
4040.65, 0.672260
4043.8, 0.671996
4046.96, 0.671680
4050.12, 0.671416
4053.29, 0.670942
4056.46, 0.670679
4059.64, 0.670468
4062.82, 0.670257
4066.0, 0.669941
4069.19, 0.669625
4072.39, 0.669361
4075.59, 0.669098
4078.8, 0.668834
4082.01, 0.668623
4085.23, 0.668254
4088.45, 0.667938
4091.68, 0.667569
4094.91, 0.667200
4098.15, 0.666990
4101.39, 0.666779
4104.63, 0.666515
4107.89, 0.666304
4111.14, 0.666041
4114.41, 0.665672
4117.67, 0.665356
4120.95, 0.665092
4124.23, 0.664934
4127.51, 0.664829
4130.8, 0.664354
4134.09, 0.664091
4137.39, 0.663827
4140.7, 0.663564
4144.01, 0.663248
4147.32, 0.663037
4150.64, 0.662773
4153.97, 0.662563
4157.3, 0.662194
4160.64, 0.661930
4163.98, 0.661719
4167.33, 0.661614
4170.68, 0.661298
4174.04, 0.661034
4177.4, 0.660771
4180.77, 0.660507
4184.14, 0.660191
4187.52, 0.659980
4190.91, 0.659769
4194.3, 0.659400
4197.69, 0.658821
4201.1, 0.658241
4204.5, 0.657503
4207.92, 0.656607
4211.34, 0.655448
4214.76, 0.654288
4218.19, 0.653182
4221.62, 0.652180
4225.06, 0.651284
4228.51, 0.650494
4231.96, 0.649809
4235.42, 0.649440
4238.88, 0.649440
4242.35, 0.649651
4245.83, 0.650178
4249.31, 0.651126
4252.79, 0.652286
4256.28, 0.652865
4259.78, 0.652022
4263.29, 0.650599
4266.79, 0.649545
4270.31, 0.648913
4273.83, 0.648386
4277.35, 0.647964
4280.89, 0.647701
4284.42, 0.647701
4287.97, 0.647648
4291.52, 0.647648
4295.07, 0.647701
4298.63, 0.647859
4302.2, 0.648017
4305.78, 0.648017
4309.35, 0.648017
4312.94, 0.648280
4316.53, 0.648333
4320.13, 0.648333
4323.73, 0.648386
4327.34, 0.648386
4330.96, 0.648228
4334.58, 0.648017
4338.21, 0.647859
4341.84, 0.647648
4345.48, 0.647437
4349.12, 0.647121
4352.77, 0.646805
4356.43, 0.646541
4360.1, 0.646225
4363.76, 0.645751
4367.44, 0.645224
4371.12, 0.644802
4374.81, 0.644275
4378.51, 0.643801
4382.21, 0.643168
4385.92, 0.642536
4389.63, 0.641851
4393.35, 0.641166
4397.08, 0.640533
4400.81, 0.639796
4404.55, 0.638847
4408.29, 0.638004
4412.04, 0.637108
4415.8, 0.636159
4419.57, 0.635105
4423.34, 0.634156
4427.12, 0.633102
4430.9, 0.631890
4434.69, 0.630573
4438.49, 0.629255
4442.29, 0.627938
4446.1, 0.626778
4449.92, 0.625355
4453.74, 0.623722
4457.57, 0.621930
4461.41, 0.620138
4465.25, 0.618346
4469.1, 0.616501
4472.95, 0.614499
4476.82, 0.612443
4480.69, 0.610335
4484.56, 0.608175
4488.44, 0.605803
4492.33, 0.603484
4496.23, 0.601165
4500.13, 0.598636
4504.04, 0.596001
4507.96, 0.593260
4511.88, 0.590678
4515.81, 0.587990
4519.75, 0.585144
4523.69, 0.582246
4527.65, 0.579400
4531.6, 0.576448
4535.57, 0.573234
4539.54, 0.570230
4543.52, 0.567226
4547.5, 0.564116
4551.5, 0.561007
4555.5, 0.558108
4559.5, 0.555104
4563.52, 0.552153
4567.54, 0.549149
4571.56, 0.546303
4575.6, 0.543299
4579.64, 0.540453
4583.69, 0.537713
4587.75, 0.534972
4591.81, 0.532285
4595.88, 0.529491
4599.96, 0.526856
4604.04, 0.524432
4608.14, 0.521902
4612.24, 0.519373
4616.34, 0.516948
4620.46, 0.514630
4624.58, 0.512522
4628.71, 0.510413
4632.84, 0.508305
4636.99, 0.506355
4641.14, 0.504511
4645.3, 0.502772
4649.47, 0.501033
4653.64, 0.499452
4657.82, 0.498029
4662.01, 0.496553
4666.21, 0.494972
4670.41, 0.493444
4674.62, 0.491968
4678.84, 0.490545
4683.07, 0.489122
4687.3, 0.487594
4691.54, 0.485960
4695.79, 0.484326
4700.05, 0.482692
4704.31, 0.480901
4708.59, 0.479003
4712.87, 0.477159
4717.15, 0.475209
4721.45, 0.473312
4725.76, 0.471204
4730.07, 0.468990
4734.39, 0.466724
4738.72, 0.464458
4743.05, 0.462192
4747.39, 0.459978
4751.75, 0.457448
4756.1, 0.455077
4760.47, 0.452758
4764.85, 0.450334
4769.23, 0.448015
4773.62, 0.445907
4778.02, 0.443746
4782.43, 0.441638
4786.85, 0.439477
4791.27, 0.437527
4795.7, 0.435630
4800.14, 0.433838
4804.59, 0.432205
4809.05, 0.430623
4813.51, 0.429042
4817.99, 0.427514
4822.47, 0.426038
4826.96, 0.424616
4831.46, 0.423087
4835.96, 0.421559
4840.48, 0.420083
4845.0, 0.418555
4849.54, 0.417027
4854.08, 0.415445
4858.63, 0.413917
4863.18, 0.412283
4867.75, 0.410650
4872.33, 0.409069
4876.91, 0.407382
4881.5, 0.405643
4886.1, 0.403904
4890.71, 0.402165
4895.33, 0.400426
4899.96, 0.398634
4904.59, 0.396895
4909.24, 0.394997
4913.89, 0.393100
4918.55, 0.391203
4923.22, 0.389253
4927.9, 0.387356
4932.59, 0.385458
4937.29, 0.383561
4942.0, 0.381664
4946.71, 0.379714
4951.44, 0.377817
4956.17, 0.375867
4960.91, 0.374022
4965.67, 0.372178
4970.43, 0.370333
4975.2, 0.368541
4979.98, 0.366749
4984.76, 0.364905
4989.56, 0.363060
4994.37, 0.361479
4999.18, 0.360004
5004.01, 0.358528
5008.84, 0.357052
5013.69, 0.355787
5018.54, 0.354523
5023.4, 0.353416
5028.28, 0.352520
5033.16, 0.351677
5038.05, 0.351044
5042.95, 0.350517
5047.86, 0.350096
5052.78, 0.349832
5057.71, 0.349674
5062.65, 0.349569
5067.6, 0.349621
5072.56, 0.349938
5077.53, 0.350306
5082.5, 0.350675
5087.49, 0.351308
5092.49, 0.352256
5097.5, 0.353205
5102.51, 0.354206
5107.54, 0.355524
5112.58, 0.356947
5117.62, 0.358475
5122.68, 0.360162
5127.75, 0.362059
5132.82, 0.364114
5137.91, 0.366170
5143.01, 0.368330
5148.12, 0.370649
5153.23, 0.373021
5158.36, 0.375340
5163.5, 0.377764
5168.65, 0.380241
5173.81, 0.382718
5178.98, 0.385037
5184.15, 0.387092
5189.34, 0.389147
5194.54, 0.391045
5199.75, 0.392731
5204.98, 0.394312
5210.21, 0.395577
5215.45, 0.396736
5220.7, 0.397738
5225.96, 0.398423
5231.23, 0.398634
5236.52, 0.398634
5241.81, 0.398423
5247.12, 0.398054
5252.44, 0.397422
5257.76, 0.396578
5263.1, 0.395314
5268.45, 0.393996
5273.81, 0.392626
5279.18, 0.391097
5284.56, 0.389516
5289.95, 0.387777
5295.36, 0.386038
5300.77, 0.384510
5306.2, 0.383139
5311.63, 0.381717
5317.08, 0.380294
5322.54, 0.379029
5328.01, 0.377711
5333.49, 0.376341
5338.98, 0.374971
5344.49, 0.373601
5350.0, 0.371914
5355.53, 0.370280
5361.07, 0.368647
5366.62, 0.366749
5372.18, 0.364536
5377.75, 0.362164
5383.34, 0.359635
5388.93, 0.357210
5394.54, 0.354575
5400.16, 0.351888
5405.79, 0.349094
5411.44, 0.346196
5417.09, 0.343192
5422.76, 0.340188
5428.43, 0.337395
5434.12, 0.334601
5439.83, 0.331756
5445.54, 0.328962
5451.26, 0.326117
5457.0, 0.323271
5462.75, 0.320425
5468.52, 0.317842
5474.29, 0.315365
5480.08, 0.312941
5485.88, 0.310675
5491.69, 0.308409
5497.51, 0.306195
5503.35, 0.304035
5509.2, 0.302032
5515.06, 0.300135
5520.93, 0.298396
5526.82, 0.296867
5532.71, 0.295339
5538.63, 0.293863
5544.55, 0.292440
5550.49, 0.290965
5556.44, 0.289647
5562.4, 0.288382
5568.37, 0.287012
5574.36, 0.285747
5580.36, 0.284482
5586.37, 0.283218
5592.4, 0.282111
5598.44, 0.280899
5604.49, 0.279528
5610.56, 0.278158
5616.63, 0.276893
5622.73, 0.275681
5628.83, 0.274522
5634.95, 0.273310
5641.08, 0.271939
5647.23, 0.271096
5653.39, 0.270358
5659.56, 0.269410
5665.74, 0.268567
5671.94, 0.267671
5678.15, 0.266827
5684.38, 0.266142
5690.62, 0.265404
5696.87, 0.264772
5703.14, 0.264350
5709.42, 0.263718
5715.72, 0.263086
5722.03, 0.262769
5728.35, 0.262401
5734.69, 0.261873
5741.03, 0.261294
5747.4, 0.260714
5753.78, 0.260240
5760.17, 0.259660
5766.58, 0.258975
5773.0, 0.258448
5779.44, 0.257921
5785.88, 0.257236
5792.35, 0.256551
5798.83, 0.255865
5805.32, 0.254917
5811.83, 0.253916
5818.35, 0.252703
5824.89, 0.251597
5831.45, 0.250753
5838.01, 0.249805
5844.59, 0.248645
5851.19, 0.247381
5857.8, 0.246168
5864.43, 0.244956
5871.07, 0.243797
5877.73, 0.242321
5884.4, 0.241004
5891.09, 0.240213
5897.79, 0.239159
5904.5, 0.238211
5911.23, 0.237315
5917.98, 0.236313
5924.75, 0.235417
5931.53, 0.234416
5938.32, 0.233467
5945.13, 0.233151
5951.96, 0.232624
5958.8, 0.232097
5965.65, 0.231623
5972.53, 0.231201
5979.42, 0.230727
5986.32, 0.230094
5993.24, 0.229673
6000.18, 0.229409
6007.13, 0.228830
6014.1, 0.228145
6021.08, 0.227670
6028.09, 0.227091
6035.1, 0.226195
6042.14, 0.224982
6049.19, 0.223560
6056.25, 0.222769
6063.34, 0.221926
6070.44, 0.220608
6077.55, 0.219291
6084.69, 0.218131
6091.84, 0.216814
6099.0, 0.215233
6106.19, 0.213757
6113.39, 0.212071
6120.61, 0.210700
6127.84, 0.209436
6135.09, 0.207960
6142.36, 0.206537
6149.65, 0.205272
6156.95, 0.203902
6164.27, 0.202532
6171.61, 0.201425
6178.97, 0.200213
6186.34, 0.199106
6193.73, 0.198474
6201.14, 0.197999
6208.57, 0.197420
6216.01, 0.196998
6223.47, 0.196840
6230.95, 0.196734
6238.45, 0.196840
6245.97, 0.196945
6253.5, 0.197156
6261.06, 0.197578
6268.63, 0.198210
6276.21, 0.198843
6283.82, 0.199528
6291.45, 0.200371
6299.1, 0.201372
6306.76, 0.202532
6314.44, 0.203796
6322.14, 0.205114
6329.86, 0.206484
6337.6, 0.207802
6345.35, 0.209277
6353.13, 0.211227
6360.92, 0.213177
6368.74, 0.215075
6376.57, 0.217235
6384.43, 0.219396
6392.3, 0.221662
6400.19, 0.223770
6408.1, 0.225720
6416.03, 0.227986
6423.98, 0.230727
6431.95, 0.233309
6439.94, 0.235523
6447.95, 0.237736
6455.98, 0.239844
6464.03, 0.241742
6472.1, 0.243375
6480.19, 0.244745
6488.31, 0.246010
6496.44, 0.247433
6504.59, 0.248962
6512.76, 0.249910
6520.95, 0.250595
6529.16, 0.251333
6537.4, 0.251702
6545.65, 0.251649
6553.92, 0.251491
6562.22, 0.251175
6570.54, 0.250753
6578.88, 0.250174
6587.23, 0.249331
6595.61, 0.248329
6604.02, 0.247381
6612.44, 0.246168
6620.89, 0.244798
6629.35, 0.243164
6637.84, 0.241162
6646.35, 0.239739
6654.88, 0.238369
6663.44, 0.236524
6672.01, 0.234627
6680.61, 0.232624
6689.23, 0.230674
6697.88, 0.228882
6706.54, 0.226827
6715.23, 0.224930
6723.94, 0.223296
6732.67, 0.221610
6741.42, 0.219818
6750.2, 0.218131
6759.0, 0.216656
6767.82, 0.215127
6776.67, 0.213599
6785.54, 0.212018
6794.44, 0.210542
6803.35, 0.209436
6812.29, 0.208276
6821.26, 0.206959
6830.24, 0.205588
6839.25, 0.204534
6848.29, 0.203322
6857.35, 0.202005
6866.43, 0.200793
6875.54, 0.199897
6884.67, 0.198843
6893.82, 0.197630
6903.0, 0.196418
6912.2, 0.195259
6921.43, 0.194258
6930.69, 0.193256
6939.96, 0.192097
6949.27, 0.190937
6958.59, 0.189725
6967.95, 0.188513
6977.33, 0.187459
6986.73, 0.186352
6996.16, 0.185140
7005.61, 0.183928
7015.09, 0.182663
7024.6, 0.181398
7034.13, 0.180134
7043.69, 0.178816
7053.27, 0.177393
7062.88, 0.175970
7072.52, 0.174494
7082.18, 0.173019
7091.87, 0.171543
7101.58, 0.170015
7111.32, 0.168434
7121.09, 0.166853
7130.88, 0.165324
7140.71, 0.163901
7150.56, 0.162426
7160.43, 0.161003
7170.33, 0.159475
7180.27, 0.158104
7190.23, 0.156840
7200.21, 0.155680
7210.23, 0.154257
7220.27, 0.152781
7230.34, 0.151359
7240.44, 0.149988
7250.56, 0.148565
7260.72, 0.147142
7270.9, 0.145667
7281.12, 0.144138
7291.36, 0.142663
7301.63, 0.141293
7311.93, 0.140028
7322.25, 0.138710
7332.61, 0.137287
7343.0, 0.135812
7353.41, 0.134336
7363.86, 0.132966
7374.33, 0.131437
7384.83, 0.129909
7395.37, 0.128381
7405.93, 0.126905
7416.53, 0.125377
7427.15, 0.123848
7437.81, 0.122320
7448.5, 0.120792
7459.22, 0.119211
7469.96, 0.117682
7480.74, 0.116154
7491.55, 0.114626
7502.39, 0.112939
7513.27, 0.111305
7524.17, 0.109514
7535.11, 0.107722
7546.08, 0.105983
7557.08, 0.104349
7568.11, 0.102557
7579.17, 0.100765
7590.27, 0.0989730
7601.4, 0.0972340
7612.56, 0.0954420
7623.76, 0.0937560
7634.98, 0.0920170
7646.24, 0.0903830
7657.54, 0.0888020
7668.87, 0.0871680
7680.23, 0.0855340
7691.62, 0.0839530
7703.05, 0.0822670
7714.51, 0.0804750
7726.01, 0.0786310
7737.54, 0.0770500
7749.11, 0.0753100
7760.71, 0.0733600
7772.35, 0.0714100
7784.02, 0.0695660
7795.72, 0.0677210
7807.46, 0.0659300
7819.23, 0.0639800
7831.04, 0.0621350
7842.89, 0.0600270
7854.77, 0.0580240
7866.69, 0.0559690
7878.65, 0.0540720
7890.64, 0.0520690
7902.67, 0.0500140
7914.74, 0.0479060
7926.84, 0.0460080
7938.98, 0.0439530
7951.16, 0.0420560
7963.37, 0.0400530
7975.62, 0.0382610
7987.91, 0.0364170
8000.24, 0.0345190
8012.6, 0.0326220
8025.01, 0.0310940
8037.45, 0.0295130
8049.93, 0.0280900
8062.45, 0.0265620
8075.01, 0.0250330
8087.61, 0.0234520
8100.24, 0.0220290
8112.91, 0.0206060
8125.63, 0.0193940
8138.39, 0.0181820
8151.18, 0.0171280
8164.02, 0.0160740
8176.9, 0.0149150
8189.81, 0.0138600
8202.77, 0.0130700
8215.77, 0.0122790
8228.82, 0.0115940
8241.9, 0.0110150
8255.02, 0.0105400
8268.19, 0.0101710
8281.39, 0.0100130
8294.65, 0.0100660
8307.94, 0.0103820
8321.28, 0.0107510
8334.66, 0.0113840
8348.08, 0.0121210
8361.54, 0.0133860
8375.05, 0.0150200
8388.6, 0.0171810
8402.2, 0.0197630
8415.84, 0.0229250
8429.52, 0.0266670
8443.25, 0.0312520
8457.02, 0.0368380
8470.84, 0.0434260
8484.7, 0.0510150
8498.61, 0.0597110
8512.57, 0.0695130
8526.57, 0.0807390
8540.62, 0.0929650
8554.71, 0.105983
8568.85, 0.119000
8583.04, 0.130541
8597.27, 0.139290
8611.55, 0.144718
8625.88, 0.147090
8640.26, 0.147037
8654.68, 0.144824
8669.16, 0.140502
8683.68, 0.133967
8698.25, 0.125904
8712.87, 0.116839
8727.53, 0.107722
8742.25, 0.0988150
8757.02, 0.0909630
8771.83, 0.0850070
8786.7, 0.0812130
8801.62, 0.0795260
8816.59, 0.0797900
8831.61, 0.0814760
8846.68, 0.0845860
8861.8, 0.0884330
8876.97, 0.0927550
8892.2, 0.0971290
8907.48, 0.101239
8922.81, 0.104665
8938.2, 0.107195
8953.63, 0.108565
8969.13, 0.108934
8984.67, 0.108565
9000.27, 0.107880
9015.92, 0.107142
9031.63, 0.106773
9047.39, 0.106931
9063.21, 0.108196
9079.08, 0.110515
9095.01, 0.113466
9111.0, 0.116734
9127.04, 0.120317
9143.13, 0.123901
9159.28, 0.127116
9175.49, 0.129962
9191.76, 0.132386
9208.09, 0.134336
9224.47, 0.136075
9240.92, 0.137551
9257.42, 0.138710
9273.98, 0.139606
9290.6, 0.140502
9307.28, 0.141240
9324.02, 0.141714
9340.82, 0.142083
9357.68, 0.142347
9374.6, 0.142399
9391.58, 0.142241
9408.62, 0.141398
9425.73, 0.140449
9442.9, 0.139079
9460.13, 0.137129
9477.42, 0.135021
9494.78, 0.132913
9512.2, 0.130541
9529.69, 0.128223
9547.24, 0.126167
9564.86, 0.124270
9582.54, 0.122689
9600.28, 0.121635
9618.1, 0.121055
9635.97, 0.121424
9653.92, 0.122847
9671.93, 0.125219
9690.01, 0.128697
9708.16, 0.133493
9726.37, 0.139553
9744.65, 0.147248
9763.0, 0.156260
9781.43, 0.166273
9799.92, 0.176761
9818.48, 0.187301
9837.1, 0.197314
9855.8, 0.206484
9874.58, 0.214653
9893.42, 0.221926
9912.34, 0.228092
9931.33, 0.233257
9950.39, 0.237420
9969.52, 0.240740
9988.74, 0.243217
10008.0, 0.244956
10027.4, 0.246168
10046.8, 0.246801
10066.3, 0.247170
10085.9, 0.246801
10105.6, 0.246168
10125.3, 0.245220
10145.1, 0.243586
10165.0, 0.241689
10185.0, 0.239159
10205.0, 0.235997
10225.2, 0.232677
10245.4, 0.228513
10265.7, 0.223612
10286.0, 0.218342
10306.5, 0.212229
10327.0, 0.205641
10347.6, 0.199106
10368.3, 0.192413
10389.1, 0.185404
10409.9, 0.178236
10430.9, 0.171174
10451.9, 0.163743
10473.0, 0.156102
10494.2, 0.148671
10515.5, 0.141767
10536.9, 0.135812
10558.4, 0.130541
10579.9, 0.126325
10601.5, 0.123216
10623.3, 0.120686
10645.1, 0.118631
10667.0, 0.117103
10689.0, 0.115890
10711.1, 0.115311
10733.2, 0.114731
10755.5, 0.113730
10777.9, 0.112676
10800.3, 0.112096
10822.9, 0.112201
10845.5, 0.113150
10868.2, 0.114204
10891.1, 0.114942
10914.0, 0.115153
10937.0, 0.114836
10960.2, 0.114151
10983.4, 0.113097
11006.7, 0.111727
11030.1, 0.110410
11053.6, 0.109250
11077.3, 0.108354
11101.0, 0.107511
11124.8, 0.106826
11148.7, 0.106246
11172.7, 0.105825
11196.9, 0.105614
11221.1, 0.105772
11245.4, 0.106088
11269.9, 0.106615
11294.4, 0.107089
11319.1, 0.107458
11343.9, 0.107774
11368.8, 0.108091
11393.7, 0.108091
11418.8, 0.108143
11444.0, 0.107774
11469.4, 0.107353
11494.8, 0.106720
11520.3, 0.106035
11546.0, 0.105456
11571.8, 0.104560
11597.7, 0.103611
11623.7, 0.102821
11649.8, 0.102135
11676.0, 0.102083
11702.4, 0.102241
11728.9, 0.102662
11755.5, 0.103611
11782.2, 0.104718
11809.0, 0.105983
11836.0, 0.107511
11863.0, 0.108987
11890.3, 0.110093
11917.6, 0.111516
11945.0, 0.113150
11972.6, 0.114415
12000.4, 0.115258
12028.2, 0.115574
12056.2, 0.115732
12084.3, 0.115416
12112.5, 0.114784
12140.9, 0.113782
12169.4, 0.112623
12198.0, 0.111147
12226.8, 0.109461
12255.7, 0.107511
12284.7, 0.105930
12313.9, 0.104402
12343.2, 0.102715
12372.7, 0.101081
12402.3, 0.0995000
12432.0, 0.0979720
12461.9, 0.0967600
12491.9, 0.0952840
12522.1, 0.0938090
12552.4, 0.0921750
12582.9, 0.0904360
12613.5, 0.0885380
12644.3, 0.0867470
12675.2, 0.0847970
12706.3, 0.0828990
12737.5, 0.0810020
12768.9, 0.0791050
12800.4, 0.0768390
12832.1, 0.0745730
12863.9, 0.0724640
12895.9, 0.0700930
12928.1, 0.0670890
12960.4, 0.0637160
12992.9, 0.0600270
13025.5, 0.0564960
13058.3, 0.0534390
13091.3, 0.0514370
13124.4, 0.0504350
13157.8, 0.0504880
13191.2, 0.0510680
13224.9, 0.0524380
13258.7, 0.0543880
13292.7, 0.0563910
13326.9, 0.0580240
13361.2, 0.0596580
13395.7, 0.0612390
13430.4, 0.0622930
13465.3, 0.0625040
13500.4, 0.0620820
13535.7, 0.0614500
13571.1, 0.0610810
13606.7, 0.0606070
13642.5, 0.0598160
13678.5, 0.0587090
13714.7, 0.0572860
13751.1, 0.0556530
13787.6, 0.0543350
13824.4, 0.0531760
13861.4, 0.0519640
13898.5, 0.0508570
13935.9, 0.0500140
13973.5, 0.0494870
14011.2, 0.0493290
14049.2, 0.0488020
14087.4, 0.0483800
14125.8, 0.0478530
14164.3, 0.0473260
14203.2, 0.0465350
14242.2, 0.0459030
14281.4, 0.0452710
14320.9, 0.0445850
14360.5, 0.0438480
14400.4, 0.0426880
14440.5, 0.0412650
14480.9, 0.0405800
14521.4, 0.0398950
14562.2, 0.0390520
14603.3, 0.0381560
14644.5, 0.0372600
14686.0, 0.0369440
14727.7, 0.0372070
14769.7, 0.0377870
14811.9, 0.0393150
14854.3, 0.0414760
14897.0, 0.0434790
14939.9, 0.0446380
14983.1, 0.0456920
15026.5, 0.0459030
15070.2, 0.0453760
15114.2, 0.0444800
15158.3, 0.0438480
15202.8, 0.0428990
15247.5, 0.0416870
15292.5, 0.0404750
15337.7, 0.0396310
15383.2, 0.0387360
15429.0, 0.0377870
15475.1, 0.0365220
15521.4, 0.0354680
15568.0, 0.0343090
15614.9, 0.0327280
15662.1, 0.0313050
15709.6, 0.0308300
15757.3, 0.0298290
15805.4, 0.0283530
15853.7, 0.0270890
15902.3, 0.0257710
15951.2, 0.0245060
16000.5, 0.0243480
16050.0, 0.0236100
16099.8, 0.0226620
16150.0, 0.0221870
16200.5, 0.0222930
16251.3, 0.0215550
16302.4, 0.0215550
16353.8, 0.0212910
16405.5, 0.0211860
16457.6, 0.0213970
16510.0, 0.0224510
16562.8, 0.0238210
16615.9, 0.0257710
16669.3, 0.0285110
16723.1, 0.0323590
16777.2, 0.0367860
16831.7, 0.0433210
16886.5, 0.0518060
16941.7, 0.0619240
16997.2, 0.0730970
17053.1, 0.0852710
17109.4, 0.0990260
17166.1, 0.113835
17223.1, 0.128908
17280.5, 0.144191
17338.3, 0.159316
17396.5, 0.174863
17455.1, 0.189356
17514.0, 0.203480
17573.4, 0.216445
17633.2, 0.227512
17693.4, 0.236893
17754.0, 0.244377
17815.0, 0.248540
17876.4, 0.250543
17938.3, 0.249963
18000.5, 0.248698
18063.3, 0.247012
18126.4, 0.247328
18190.0, 0.251439
18254.1, 0.259080
18318.6, 0.267829
18383.5, 0.276841
18449.0, 0.283639
18514.9, 0.288330
18581.2, 0.290332
18648.0, 0.290280
18715.4, 0.289753
18783.2, 0.287961
18851.5, 0.283692
18920.3, 0.278211
18989.6, 0.271623
19059.4, 0.264298
19129.7, 0.258448
19200.6, 0.254653
19272.0, 0.251649
19343.9, 0.251649
19416.3, 0.253336
19489.3, 0.255022
19562.8, 0.256129
19637.0, 0.255760
19711.6, 0.253705
19786.8, 0.251808
19862.6, 0.251386
19939.0, 0.253336
20016.0, 0.254811
20093.6, 0.256340
20171.8, 0.256393
20250.6, 0.254759
20330.0, 0.251017
20410.0, 0.247117
20490.7, 0.243375
20572.0, 0.238579
20654.0, 0.232730
20736.6, 0.227986
20819.9, 0.225193
20903.8, 0.222031
20988.5, 0.219238
21073.8, 0.218447
21159.8, 0.217288
21246.5, 0.216287
21334.0, 0.216761
21422.1, 0.219343
21511.0, 0.220977
21600.7, 0.221873
21691.0, 0.224561
21782.1, 0.226353
21874.0, 0.223981
21966.7, 0.220029
22060.2, 0.214548
22154.5, 0.210015
22249.6, 0.204534
22345.5, 0.199264
22442.2, 0.194310
22539.8, 0.190200
22638.2, 0.184877
22737.5, 0.180608
22837.7, 0.177604
22938.7, 0.176708
23040.7, 0.174863
23143.5, 0.170384
23247.3, 0.163743
23352.1, 0.158579
23457.7, 0.153256
23564.4, 0.151569
23672.0, 0.148460
23780.5, 0.145825
23890.1, 0.145825
24000.7, 0.143032
24112.3, 0.139817
24225.0, 0.137814
24338.7, 0.137340
24453.5, 0.134810
24569.4, 0.130383
24686.4, 0.130700
24804.5, 0.130752
24923.8, 0.130647
