Database of Origin, USGS Spectral Database
Sample Description, See USGS database for additional info
Date Added,2016-08-10 03:01:23.514143

Data ID,USGS_hyp12          
Sample ID, hypersthene_pyx02.10672
Mineral Name, hypersthene
Material Class,Inosilicate

Wavelength
1558.21, 0.356302
1558.68, 0.356302
1559.14, 0.356505
1559.61, 0.355896
1560.08, 0.354273
1560.55, 0.353326
1561.02, 0.352649
1561.49, 0.351702
1561.96, 0.351025
1562.43, 0.351702
1562.9, 0.352649
1563.38, 0.352446
1563.85, 0.351364
1564.32, 0.350417
1564.79, 0.348861
1565.26, 0.347305
1565.74, 0.346899
1566.21, 0.347508
1566.68, 0.346764
1567.16, 0.345884
1567.63, 0.345952
1568.1, 0.345952
1568.58, 0.346222
1569.05, 0.345208
1569.53, 0.342705
1570.0, 0.342569
1570.48, 0.342637
1570.96, 0.341487
1571.43, 0.341149
1571.91, 0.341014
1572.39, 0.339796
1572.86, 0.338578
1573.34, 0.338172
1573.82, 0.337496
1574.3, 0.336549
1574.77, 0.336414
1575.25, 0.336008
1575.73, 0.335737
1576.21, 0.335061
1576.69, 0.335263
1577.17, 0.334655
1577.65, 0.333234
1578.13, 0.333843
1578.61, 0.333031
1579.09, 0.330799
1579.57, 0.329919
1580.05, 0.330460
1580.54, 0.330799
1581.02, 0.329852
1581.5, 0.328905
1581.98, 0.328837
1582.47, 0.327010
1582.95, 0.326605
1583.43, 0.327822
1583.92, 0.326537
1584.4, 0.324710
1584.88, 0.324102
1585.37, 0.323831
1585.85, 0.324102
1586.34, 0.323831
1586.82, 0.322884
1587.31, 0.322207
1587.8, 0.321463
1588.28, 0.319501
1588.77, 0.318013
1589.26, 0.318216
1589.74, 0.318487
1590.23, 0.317607
1590.72, 0.316796
1591.21, 0.316390
1591.7, 0.316390
1592.19, 0.316457
1592.67, 0.316187
1593.16, 0.315646
1593.65, 0.315646
1594.14, 0.315240
1594.63, 0.313954
1595.12, 0.313616
1595.61, 0.312331
1596.11, 0.311451
1596.6, 0.312331
1597.09, 0.312398
1597.58, 0.311113
1598.08, 0.311248
1598.57, 0.311654
1599.06, 0.310166
1599.55, 0.308475
1600.05, 0.307663
1600.54, 0.307798
1601.04, 0.307460
1601.53, 0.306648
1602.03, 0.305769
1602.52, 0.305363
1603.02, 0.304754
1603.51, 0.303807
1604.01, 0.304348
1604.5, 0.305160
1605.0, 0.304281
1605.5, 0.302251
1606.0, 0.301169
1606.49, 0.300289
1606.99, 0.298869
1607.49, 0.298598
1607.99, 0.299275
1608.49, 0.300086
1608.99, 0.299139
1609.49, 0.298531
1609.99, 0.298734
1610.49, 0.297922
1610.99, 0.296975
1611.49, 0.295284
1611.99, 0.293998
1612.49, 0.294878
1612.99, 0.295081
1613.49, 0.294404
1614.0, 0.293186
1614.5, 0.293186
1615.0, 0.292713
1615.51, 0.291631
1616.01, 0.290819
1616.51, 0.290548
1617.02, 0.290142
1617.52, 0.289872
1618.03, 0.290007
1618.53, 0.289128
1619.04, 0.288451
1619.54, 0.288925
1620.05, 0.288992
1620.55, 0.288316
1621.06, 0.286692
1621.57, 0.285813
1622.08, 0.285136
1622.58, 0.283919
1623.09, 0.283107
1623.6, 0.282633
1624.11, 0.283175
1624.62, 0.283107
1625.13, 0.282633
1625.64, 0.282430
1626.15, 0.281416
1626.66, 0.279589
1627.17, 0.280063
1627.68, 0.280604
1628.19, 0.279657
1628.7, 0.278439
1629.21, 0.278507
1629.72, 0.279048
1630.24, 0.278033
1630.75, 0.277289
1631.26, 0.277357
1631.78, 0.276816
1632.29, 0.276410
1632.8, 0.276139
1633.32, 0.275395
1633.83, 0.274583
1634.35, 0.273974
1634.86, 0.273839
1635.38, 0.273433
1635.9, 0.272148
1636.41, 0.272013
1636.93, 0.272013
1637.45, 0.270795
1637.96, 0.269104
1638.48, 0.268157
1639.0, 0.267751
1639.52, 0.267413
1640.04, 0.267683
1640.56, 0.268698
1641.08, 0.268427
1641.59, 0.266601
1642.11, 0.264977
1642.63, 0.265383
1643.16, 0.265045
1643.68, 0.263963
1644.2, 0.263962
1644.72, 0.264707
1645.24, 0.264301
1645.76, 0.264098
1646.29, 0.263760
1646.81, 0.262812
1647.33, 0.262136
1647.86, 0.262610
1648.38, 0.262339
1648.9, 0.261121
1649.43, 0.259295
1649.95, 0.259227
1650.48, 0.260377
1651.0, 0.259971
1651.53, 0.259498
1652.06, 0.258821
1652.58, 0.258009
1653.11, 0.257874
1653.64, 0.256859
1654.17, 0.256589
1654.69, 0.255980
1655.22, 0.254695
1655.75, 0.254965
1656.28, 0.255168
1656.81, 0.255371
1657.34, 0.254695
1657.87, 0.253545
1658.4, 0.252124
1658.93, 0.251380
1659.46, 0.251921
1659.99, 0.251718
1660.52, 0.250703
1661.05, 0.250636
1661.59, 0.250298
1662.12, 0.249959
1662.65, 0.249418
1663.19, 0.248674
1663.72, 0.248336
1664.26, 0.248268
1664.79, 0.248471
1665.32, 0.248336
1665.86, 0.247253
1666.39, 0.246577
1666.93, 0.246509
1667.47, 0.245630
1668.0, 0.245562
1668.54, 0.245495
1669.08, 0.245359
1669.61, 0.245021
1670.15, 0.244006
1670.69, 0.243871
1671.23, 0.244345
1671.77, 0.244006
1672.31, 0.244142
1672.85, 0.243533
1673.39, 0.242315
1673.93, 0.241368
1674.47, 0.240962
1675.01, 0.241300
1675.55, 0.241233
1676.09, 0.239677
1676.64, 0.239542
1677.18, 0.239880
1677.72, 0.239542
1678.26, 0.239271
1678.81, 0.238392
1679.35, 0.236497
1679.89, 0.235280
1680.44, 0.235889
1680.98, 0.236159
1681.53, 0.236024
1682.07, 0.236497
1682.62, 0.236227
1683.17, 0.235144
1683.71, 0.234942
1684.26, 0.235956
1684.81, 0.235618
1685.36, 0.233859
1685.9, 0.233047
1686.45, 0.233589
1687.0, 0.233994
1687.55, 0.233656
1688.1, 0.233318
1688.65, 0.232236
1689.2, 0.231424
1689.75, 0.231086
1690.3, 0.230815
1690.85, 0.230341
1691.41, 0.230138
1691.96, 0.230341
1692.51, 0.229800
1693.06, 0.229597
1693.61, 0.229530
1694.17, 0.228988
1694.72, 0.228583
1695.28, 0.228380
1695.83, 0.227906
1696.39, 0.226824
1696.94, 0.226147
1697.5, 0.226418
1698.05, 0.226959
1698.61, 0.226688
1699.17, 0.226283
1699.72, 0.224930
1700.28, 0.223577
1700.84, 0.223577
1701.4, 0.224997
1701.95, 0.224185
1702.51, 0.222630
1703.07, 0.222562
1703.63, 0.223238
1704.19, 0.223035
1704.75, 0.222562
1705.31, 0.221750
1705.88, 0.221209
1706.44, 0.220938
1707.0, 0.220532
1707.56, 0.221006
1708.12, 0.220938
1708.69, 0.220194
1709.25, 0.220127
1709.81, 0.220465
1710.38, 0.219653
1710.94, 0.219044
1711.51, 0.218503
1712.07, 0.218029
1712.64, 0.217962
1713.2, 0.218435
1713.77, 0.218300
1714.34, 0.217082
1714.9, 0.216406
1715.47, 0.215729
1716.04, 0.215729
1716.61, 0.215662
1717.18, 0.215729
1717.74, 0.215729
1718.31, 0.214850
1718.88, 0.214377
1719.45, 0.214309
1720.02, 0.213632
1720.59, 0.212956
1721.17, 0.213024
1721.74, 0.213091
1722.31, 0.212550
1722.88, 0.211671
1723.45, 0.211129
1724.03, 0.211671
1724.6, 0.211874
1725.18, 0.211806
1725.75, 0.211535
1726.33, 0.210926
1726.9, 0.210453
1727.48, 0.210182
1728.05, 0.209641
1728.63, 0.209573
1729.2, 0.209979
1729.78, 0.208829
1730.36, 0.207747
1730.94, 0.208153
1731.51, 0.208694
1732.09, 0.209168
1732.67, 0.208288
1733.25, 0.208018
1733.83, 0.207612
1734.41, 0.207409
1734.99, 0.207815
1735.57, 0.207679
1736.15, 0.207071
1736.73, 0.206259
1737.32, 0.205988
1737.9, 0.206191
1738.48, 0.206394
1739.07, 0.205582
1739.65, 0.205176
1740.23, 0.205244
1740.82, 0.204703
1741.4, 0.204094
1741.99, 0.204703
1742.57, 0.204973
1743.16, 0.204432
1743.74, 0.203553
1744.33, 0.203215
1744.92, 0.203418
1745.51, 0.203147
1746.09, 0.202809
1746.68, 0.202741
1747.27, 0.202538
1747.86, 0.202470
1748.45, 0.202809
1749.04, 0.202470
1749.63, 0.201050
1750.22, 0.200779
1750.81, 0.201118
1751.4, 0.201050
1751.99, 0.200509
1752.59, 0.199967
1753.18, 0.199562
1753.77, 0.199562
1754.37, 0.199900
1754.96, 0.199562
1755.56, 0.198817
1756.15, 0.198750
1756.74, 0.198615
1757.34, 0.199291
1757.94, 0.199359
1758.53, 0.198817
1759.13, 0.198817
1759.73, 0.199088
1760.32, 0.198412
1760.92, 0.197938
1761.52, 0.197532
1762.12, 0.197126
1762.72, 0.197329
1763.32, 0.197126
1763.92, 0.196382
1764.52, 0.195976
1765.12, 0.196179
1765.72, 0.196247
1766.32, 0.195976
1766.92, 0.195841
1767.53, 0.195232
1768.13, 0.194894
1768.73, 0.195097
1769.34, 0.195706
1769.94, 0.195367
1770.55, 0.194353
1771.15, 0.194217
1771.76, 0.194420
1772.36, 0.194217
1772.97, 0.194014
1773.57, 0.193406
1774.18, 0.192797
1774.79, 0.193000
1775.4, 0.192932
1776.0, 0.192526
1776.61, 0.192120
1777.22, 0.191511
1777.83, 0.191444
1778.44, 0.191647
1779.05, 0.191579
1779.66, 0.191241
1780.27, 0.191444
1780.88, 0.191376
1781.5, 0.191106
1782.11, 0.190835
1782.72, 0.190700
1783.33, 0.190767
1783.95, 0.190497
1784.56, 0.189956
1785.18, 0.189956
1785.79, 0.190159
1786.41, 0.190361
1787.02, 0.190023
1787.64, 0.189279
1788.26, 0.189076
1788.87, 0.189076
1789.49, 0.188873
1790.11, 0.188535
1790.73, 0.188873
1791.35, 0.188806
1791.96, 0.188332
1792.58, 0.187926
1793.21, 0.187723
1793.83, 0.188197
1794.45, 0.188332
1795.07, 0.188670
1795.69, 0.188603
1796.31, 0.187791
1796.93, 0.187250
1797.56, 0.186911
1798.18, 0.186844
1798.8, 0.187250
1799.43, 0.187317
1800.05, 0.186844
1800.68, 0.186776
1801.3, 0.186708
1801.93, 0.186573
1802.56, 0.186100
1803.18, 0.185694
1803.81, 0.185355
1804.44, 0.185558
1805.07, 0.185897
1805.7, 0.185423
1806.33, 0.184882
1806.95, 0.185153
1807.58, 0.185355
1808.22, 0.185220
1808.85, 0.185017
1809.48, 0.184476
1810.11, 0.184544
1810.74, 0.184747
1811.38, 0.184611
1812.01, 0.184341
1812.64, 0.184138
1813.28, 0.184341
1813.91, 0.184070
1814.55, 0.183597
1815.18, 0.184070
1815.82, 0.184341
1816.45, 0.183867
1817.09, 0.183867
1817.73, 0.184070
1818.36, 0.183800
1819.0, 0.183394
1819.64, 0.183191
1820.28, 0.183394
1820.92, 0.183326
1821.56, 0.183191
1822.2, 0.182582
1822.84, 0.182379
1823.48, 0.182650
1824.12, 0.182717
1824.76, 0.182717
1825.41, 0.182244
1826.05, 0.181500
1826.69, 0.181703
1827.34, 0.182176
1827.98, 0.182244
1828.63, 0.182650
1829.27, 0.182988
1829.92, 0.182379
1830.56, 0.181703
1831.21, 0.181094
1831.86, 0.181905
1832.5, 0.182717
1833.15, 0.182853
1833.8, 0.182717
1834.45, 0.181838
1835.1, 0.181500
1835.75, 0.181432
1836.4, 0.180755
1837.05, 0.180688
1837.7, 0.180958
1838.35, 0.181432
1839.01, 0.181703
1839.66, 0.181026
1840.31, 0.180823
1840.96, 0.180891
1841.62, 0.180417
1842.27, 0.180214
1842.93, 0.180552
1843.58, 0.181297
1844.24, 0.181567
1844.9, 0.181703
1845.55, 0.181770
1846.21, 0.180688
1846.87, 0.179673
1847.53, 0.180079
1848.18, 0.180417
1848.84, 0.180620
1849.5, 0.181229
1850.16, 0.181026
1850.82, 0.179944
1851.48, 0.180282
1852.14, 0.180891
1852.81, 0.180552
1853.47, 0.179876
1854.13, 0.180011
1854.8, 0.181905
1855.46, 0.181973
1856.12, 0.181161
1856.79, 0.181026
1857.45, 0.180891
1858.12, 0.180688
1858.79, 0.180688
1859.45, 0.180214
1860.12, 0.179741
1860.79, 0.180282
1861.46, 0.180958
1862.12, 0.181161
1862.79, 0.180823
1863.46, 0.180485
1864.13, 0.180214
1864.8, 0.180282
1865.48, 0.180350
1866.15, 0.179741
1866.82, 0.179876
1867.49, 0.179808
1868.16, 0.179200
1868.84, 0.179605
1869.51, 0.180011
1870.19, 0.179808
1870.86, 0.179808
1871.54, 0.180552
1872.21, 0.180552
1872.89, 0.179335
1873.56, 0.178997
1874.24, 0.180011
1874.92, 0.180552
1875.6, 0.180350
1876.28, 0.180147
1876.96, 0.179605
1877.64, 0.179741
1878.32, 0.180350
1879.0, 0.180552
1879.68, 0.180891
1880.36, 0.180958
1881.04, 0.180552
1881.73, 0.180823
1882.41, 0.180823
1883.09, 0.180417
1883.78, 0.180620
1884.46, 0.180823
1885.15, 0.180891
1885.83, 0.181229
1886.52, 0.181026
1887.21, 0.180891
1887.89, 0.181161
1888.58, 0.181297
1889.27, 0.181229
1889.96, 0.181026
1890.65, 0.180958
1891.34, 0.181297
1892.03, 0.181364
1892.72, 0.181905
1893.41, 0.182041
1894.1, 0.181838
1894.79, 0.182041
1895.49, 0.182041
1896.18, 0.182311
1896.87, 0.182041
1897.57, 0.181703
1898.26, 0.181770
1898.96, 0.181973
1899.65, 0.181703
1900.35, 0.181567
1901.05, 0.182041
1901.74, 0.182582
1902.44, 0.182379
1903.14, 0.182717
1903.84, 0.182988
1904.54, 0.182650
1905.24, 0.182514
1905.94, 0.182785
1906.64, 0.182920
1907.34, 0.183055
1908.04, 0.183394
1908.75, 0.183529
1909.45, 0.184138
1910.15, 0.184205
1910.86, 0.183800
1911.56, 0.183664
1912.27, 0.183867
1912.97, 0.183935
1913.68, 0.183935
1914.39, 0.184341
1915.09, 0.185017
1915.8, 0.185355
1916.51, 0.185085
1917.22, 0.184814
1917.93, 0.185355
1918.64, 0.185897
1919.35, 0.186032
1920.06, 0.185423
1920.77, 0.185153
1921.48, 0.185761
1922.19, 0.186370
1922.91, 0.186708
1923.62, 0.186641
1924.33, 0.186573
1925.05, 0.186844
1925.76, 0.187250
1926.48, 0.187520
1927.19, 0.187182
1927.91, 0.187250
1928.63, 0.187520
1929.35, 0.187791
1930.07, 0.187994
1930.78, 0.188129
1931.5, 0.188738
1932.22, 0.189211
1932.94, 0.189347
1933.66, 0.189076
1934.39, 0.189144
1935.11, 0.189347
1935.83, 0.189347
1936.55, 0.189347
1937.28, 0.189279
1938.0, 0.189617
1938.73, 0.190429
1939.45, 0.191038
1940.18, 0.190903
1940.9, 0.190835
1941.63, 0.190970
1942.36, 0.191241
1943.09, 0.191511
1943.81, 0.191444
1944.54, 0.191511
1945.27, 0.191714
1946.0, 0.191714
1946.73, 0.191917
1947.47, 0.192188
1948.2, 0.192526
1948.93, 0.193000
1949.66, 0.193473
1950.4, 0.193338
1951.13, 0.193541
1951.86, 0.194082
1952.6, 0.194420
1953.34, 0.194826
1954.07, 0.194556
1954.81, 0.194353
1955.55, 0.195029
1956.29, 0.195435
1957.02, 0.194894
1957.76, 0.195029
1958.5, 0.195435
1959.24, 0.195638
1959.98, 0.195909
1960.72, 0.196112
1961.47, 0.195976
1962.21, 0.195909
1962.95, 0.196247
1963.7, 0.196382
1964.44, 0.197262
1965.18, 0.198006
1965.93, 0.198006
1966.67, 0.197870
1967.42, 0.198006
1968.17, 0.198615
1968.92, 0.198682
1969.66, 0.199020
1970.41, 0.199359
1971.16, 0.199629
1971.91, 0.199967
1972.66, 0.200238
1973.41, 0.200644
1974.16, 0.200982
1974.92, 0.201523
1975.67, 0.201794
1976.42, 0.202065
1977.18, 0.202200
1977.93, 0.202132
1978.69, 0.202200
1979.44, 0.202606
1980.2, 0.203215
1980.95, 0.203350
1981.71, 0.203485
1982.47, 0.204094
1983.23, 0.204365
1983.99, 0.204162
1984.74, 0.204500
1985.51, 0.204973
1986.27, 0.205379
1987.03, 0.205785
1987.79, 0.206326
1988.55, 0.206597
1989.32, 0.206800
1990.08, 0.207071
1990.84, 0.207476
1991.61, 0.207815
1992.37, 0.208423
1993.14, 0.208762
1993.9, 0.208762
1994.67, 0.209100
1995.44, 0.209573
1996.21, 0.209979
1996.98, 0.210588
1997.75, 0.210859
1998.52, 0.211062
1999.29, 0.211874
2000.06, 0.212550
2000.83, 0.212618
2001.6, 0.212821
2002.38, 0.213768
2003.15, 0.214512
2003.93, 0.214512
2004.7, 0.214309
2005.48, 0.214512
2006.25, 0.214782
2007.03, 0.215391
2007.81, 0.216135
2008.58, 0.216812
2009.36, 0.217421
2010.14, 0.217421
2010.92, 0.217624
2011.7, 0.218232
2012.48, 0.218706
2013.26, 0.218841
2014.05, 0.219382
2014.83, 0.220059
2015.61, 0.220330
2016.4, 0.220668
2017.18, 0.221277
2017.97, 0.221885
2018.75, 0.222427
2019.54, 0.222900
2020.32, 0.223171
2021.11, 0.223712
2021.9, 0.224118
2022.69, 0.224591
2023.48, 0.225065
2024.27, 0.225403
2025.06, 0.226147
2025.85, 0.226959
2026.64, 0.227433
2027.44, 0.227500
2028.23, 0.227838
2029.02, 0.228718
2029.82, 0.229259
2030.61, 0.229462
2031.41, 0.229936
2032.2, 0.230544
2033.0, 0.231086
2033.8, 0.232168
2034.6, 0.232439
2035.4, 0.232439
2036.2, 0.232844
2037.0, 0.233318
2037.8, 0.233994
2038.6, 0.234400
2039.4, 0.234806
2040.2, 0.235077
2041.01, 0.235415
2041.81, 0.236700
2042.61, 0.237377
2043.42, 0.237715
2044.22, 0.238053
2045.03, 0.238392
2045.84, 0.238933
2046.65, 0.239203
2047.46, 0.239542
2048.26, 0.240353
2049.07, 0.240895
2049.88, 0.241774
2050.69, 0.242450
2051.51, 0.243059
2052.32, 0.243736
2053.13, 0.244345
2053.94, 0.244683
2054.76, 0.245359
2055.57, 0.245833
2056.39, 0.246171
2057.2, 0.246712
2058.02, 0.247321
2058.84, 0.247930
2059.66, 0.248403
2060.48, 0.248606
2061.29, 0.249283
2062.11, 0.249824
2062.94, 0.250636
2063.76, 0.251245
2064.58, 0.251718
2065.4, 0.252530
2066.22, 0.253206
2067.05, 0.253815
2067.87, 0.254424
2068.7, 0.254762
2069.52, 0.255236
2070.35, 0.255912
2071.18, 0.256251
2072.0, 0.256792
2072.83, 0.257671
2073.66, 0.258483
2074.49, 0.259092
2075.32, 0.259768
2076.15, 0.260512
2076.98, 0.261459
2077.82, 0.262136
2078.65, 0.262474
2079.48, 0.262812
2080.32, 0.263354
2081.15, 0.264165
2081.99, 0.264639
2082.83, 0.265654
2083.66, 0.266330
2084.5, 0.266601
2085.34, 0.267413
2086.18, 0.268292
2087.02, 0.269036
2087.86, 0.269577
2088.7, 0.270186
2089.54, 0.271066
2090.39, 0.271810
2091.23, 0.272554
2092.07, 0.273095
2092.92, 0.273501
2093.76, 0.274380
2094.61, 0.275327
2095.45, 0.275936
2096.3, 0.276883
2097.15, 0.277086
2098.0, 0.277898
2098.85, 0.278845
2099.7, 0.279724
2100.55, 0.280739
2101.4, 0.281145
2102.25, 0.282227
2103.1, 0.283377
2103.96, 0.284122
2104.81, 0.284798
2105.67, 0.285407
2106.52, 0.285677
2107.38, 0.286489
2108.24, 0.287707
2109.09, 0.288383
2109.95, 0.289128
2110.81, 0.290142
2111.67, 0.291022
2112.53, 0.291833
2113.39, 0.292375
2114.25, 0.293119
2115.12, 0.293931
2115.98, 0.294607
2116.84, 0.295419
2117.71, 0.296298
2118.58, 0.297110
2119.44, 0.297854
2120.31, 0.298666
2121.18, 0.299748
2122.04, 0.300898
2122.91, 0.301642
2123.78, 0.302319
2124.65, 0.303198
2125.52, 0.304145
2126.4, 0.304957
2127.27, 0.305972
2128.14, 0.306919
2129.02, 0.307663
2129.89, 0.308340
2130.77, 0.309219
2131.64, 0.310369
2132.52, 0.311113
2133.4, 0.311654
2134.27, 0.312331
2135.15, 0.313075
2136.03, 0.314293
2136.91, 0.315172
2137.79, 0.316390
2138.68, 0.317540
2139.56, 0.318419
2140.44, 0.319366
2141.33, 0.320313
2142.21, 0.320787
2143.1, 0.321328
2143.99, 0.322478
2144.87, 0.323696
2145.76, 0.324846
2146.65, 0.325793
2147.54, 0.326672
2148.43, 0.327552
2149.32, 0.328160
2150.21, 0.329040
2151.1, 0.329784
2151.99, 0.330528
2152.89, 0.331678
2153.78, 0.332828
2154.68, 0.333437
2155.57, 0.334384
2156.47, 0.335196
2157.37, 0.335805
2158.27, 0.336819
2159.16, 0.337834
2160.06, 0.338714
2160.96, 0.339661
2161.86, 0.340337
2162.77, 0.341014
2163.67, 0.341961
2164.57, 0.342772
2165.48, 0.343990
2166.38, 0.344869
2167.29, 0.345478
2168.2, 0.346493
2169.1, 0.347643
2170.01, 0.348590
2170.92, 0.349402
2171.83, 0.350349
2172.74, 0.351364
2173.65, 0.352108
2174.56, 0.352784
2175.47, 0.353867
2176.39, 0.354881
2177.3, 0.355626
2178.22, 0.356167
2179.13, 0.357046
2180.05, 0.358128
2180.96, 0.359008
2181.88, 0.359684
2182.8, 0.360631
2183.72, 0.361646
2184.64, 0.362526
2185.56, 0.363405
2186.48, 0.364014
2187.41, 0.365164
2188.33, 0.366043
2189.25, 0.366990
2190.18, 0.368073
2191.1, 0.368749
2192.03, 0.369290
2192.96, 0.370170
2193.89, 0.371320
2194.82, 0.372267
2195.74, 0.373011
2196.68, 0.373890
2197.61, 0.374567
2198.54, 0.375243
2199.47, 0.376191
2200.4, 0.377476
2201.34, 0.378288
2202.28, 0.379167
2203.21, 0.380114
2204.15, 0.380588
2205.08, 0.381873
2206.02, 0.383091
2206.96, 0.384241
2207.9, 0.384917
2208.84, 0.385526
2209.78, 0.386270
2210.73, 0.387149
2211.67, 0.388232
2212.61, 0.389044
2213.56, 0.389788
2214.5, 0.390802
2215.45, 0.391885
2216.4, 0.392629
2217.35, 0.393576
2218.3, 0.394388
2219.24, 0.395538
2220.2, 0.396485
2221.15, 0.397229
2222.1, 0.398041
2223.05, 0.398920
2224.0, 0.399664
2224.96, 0.400747
2225.91, 0.401694
2226.87, 0.402506
2227.83, 0.403317
2228.79, 0.404264
2229.74, 0.405211
2230.7, 0.406226
2231.66, 0.407241
2232.63, 0.408256
2233.59, 0.409203
2234.55, 0.409947
2235.51, 0.410826
2236.48, 0.411773
2237.44, 0.412450
2238.41, 0.413194
2239.38, 0.414141
2240.34, 0.415697
2241.31, 0.416847
2242.28, 0.417253
2243.25, 0.417726
2244.22, 0.418538
2245.19, 0.419553
2246.17, 0.420838
2247.14, 0.421988
2248.12, 0.422597
2249.09, 0.423679
2250.07, 0.424694
2251.04, 0.425641
2252.02, 0.426521
2253.0, 0.427332
2253.98, 0.428279
2254.96, 0.429294
2255.94, 0.430377
2256.92, 0.431256
2257.91, 0.432000
2258.89, 0.432541
2259.88, 0.433150
2260.86, 0.433827
2261.85, 0.434841
2262.83, 0.435585
2263.82, 0.435924
2264.81, 0.436735
2265.8, 0.437683
2266.79, 0.438224
2267.78, 0.438562
2268.78, 0.439306
2269.77, 0.440185
2270.76, 0.440997
2271.76, 0.441606
2272.75, 0.442553
2273.75, 0.443230
2274.75, 0.443433
2275.75, 0.443839
2276.75, 0.444650
2277.75, 0.444989
2278.75, 0.445259
2279.75, 0.445327
2280.75, 0.445597
2281.76, 0.446071
2282.76, 0.446544
2283.77, 0.446544
2284.77, 0.446274
2285.78, 0.445665
2286.79, 0.445530
2287.8, 0.444853
2288.81, 0.444515
2289.82, 0.444312
2290.83, 0.444380
2291.84, 0.444989
2292.86, 0.446341
2293.87, 0.447965
2294.89, 0.449183
2295.91, 0.450333
2296.92, 0.451347
2297.94, 0.452024
2298.96, 0.452159
2299.98, 0.451956
2301.0, 0.452227
2302.02, 0.452700
2303.04, 0.452565
2304.07, 0.452362
2305.09, 0.451821
2306.12, 0.450739
2307.15, 0.449791
2308.17, 0.448912
2309.2, 0.447830
2310.23, 0.446477
2311.26, 0.445530
2312.29, 0.445056
2313.32, 0.445056
2314.35, 0.445665
2315.39, 0.447424
2316.42, 0.449589
2317.46, 0.452295
2318.5, 0.454324
2319.53, 0.456353
2320.57, 0.457977
2321.61, 0.458653
2322.65, 0.459262
2323.69, 0.460277
2324.73, 0.461562
2325.78, 0.463253
2326.82, 0.465080
2327.86, 0.466704
2328.91, 0.467989
2329.96, 0.469477
2331.01, 0.470830
2332.05, 0.472115
2333.1, 0.472995
2334.15, 0.473942
2335.21, 0.475159
2336.26, 0.476310
2337.31, 0.477054
2338.36, 0.478001
2339.42, 0.478677
2340.48, 0.479760
2341.53, 0.481045
2342.59, 0.482127
2343.65, 0.483007
2344.71, 0.483819
2345.77, 0.484563
2346.83, 0.485171
2347.9, 0.486118
2348.96, 0.486795
2350.02, 0.487607
2351.09, 0.488486
2352.16, 0.489230
2353.23, 0.489839
2354.29, 0.490651
2355.36, 0.491057
2356.43, 0.491666
2357.51, 0.492410
2358.58, 0.493222
2359.65, 0.493830
2360.73, 0.494642
2361.8, 0.495522
2362.88, 0.496063
2363.96, 0.496469
2365.03, 0.497145
2366.11, 0.497889
2367.19, 0.498430
2368.27, 0.498836
2369.36, 0.499107
2370.44, 0.499377
2371.53, 0.499377
2372.61, 0.499445
2373.7, 0.499580
2374.78, 0.499783
2375.87, 0.500122
2376.96, 0.500325
2378.05, 0.500257
2379.14, 0.500460
2380.24, 0.500730
2381.33, 0.500595
2382.42, 0.500528
2383.52, 0.500866
2384.61, 0.501069
2385.71, 0.501542
2386.81, 0.501948
2387.91, 0.502083
2389.01, 0.502422
2390.11, 0.502625
2391.22, 0.502895
2392.32, 0.503572
2393.42, 0.504722
2394.53, 0.506007
2395.64, 0.506751
2396.74, 0.507631
2397.85, 0.508307
2398.96, 0.509051
2400.07, 0.510269
2401.18, 0.511216
2402.3, 0.512366
2403.41, 0.513516
2404.52, 0.514057
2405.64, 0.514801
2406.76, 0.515545
2407.88, 0.516222
2408.99, 0.516966
2410.11, 0.517642
2411.23, 0.517981
2412.36, 0.518251
2413.48, 0.518589
2414.6, 0.518657
2415.73, 0.518860
2416.85, 0.519334
2417.98, 0.519672
2419.11, 0.519807
2420.24, 0.519740
2421.37, 0.519672
2422.5, 0.519537
2423.64, 0.519875
2424.77, 0.520213
2425.9, 0.519875
2427.04, 0.519672
2428.18, 0.520145
2429.31, 0.520484
2430.45, 0.520619
2431.59, 0.521025
2432.73, 0.521025
2433.88, 0.520957
2435.02, 0.521025
2436.16, 0.520957
2437.31, 0.521431
2438.45, 0.521769
2439.6, 0.521228
2440.75, 0.521025
2441.9, 0.521363
2443.05, 0.521431
2444.2, 0.521904
2445.35, 0.522310
2446.51, 0.522175
2447.67, 0.522040
2448.82, 0.521904
2449.98, 0.521972
2451.14, 0.522242
2452.3, 0.522107
2453.46, 0.522107
2454.62, 0.522378
2455.78, 0.522242
2456.94, 0.522242
2458.11, 0.522242
2459.28, 0.521972
2460.44, 0.521701
2461.61, 0.521701
2462.78, 0.521769
2463.95, 0.521904
2465.12, 0.522040
2466.3, 0.522040
2467.47, 0.522107
2468.65, 0.522513
2469.82, 0.522987
2471.0, 0.523257
2472.18, 0.523190
2473.36, 0.523460
2474.54, 0.523798
2475.72, 0.523731
2476.9, 0.523663
2478.08, 0.524001
2479.27, 0.524407
2480.46, 0.524813
2481.64, 0.524948
2482.83, 0.524746
2484.02, 0.524678
2485.21, 0.524948
2486.4, 0.524881
2487.6, 0.524746
2488.79, 0.524746
2489.99, 0.524813
2491.18, 0.524948
2492.38, 0.524813
2493.58, 0.524475
2494.78, 0.524137
2495.98, 0.524069
2497.18, 0.523934
2498.39, 0.524001
2499.59, 0.524272
2500.8, 0.524678
2502.01, 0.524543
2503.21, 0.524543
2504.42, 0.524948
2505.63, 0.525287
2506.84, 0.525287
2508.06, 0.525625
2509.27, 0.525896
2510.49, 0.525828
2511.7, 0.525693
2512.92, 0.525625
2514.14, 0.525422
2515.36, 0.525490
2516.58, 0.525557
2517.8, 0.525896
2519.03, 0.526031
2520.25, 0.526843
2521.48, 0.527587
2522.7, 0.527587
2523.93, 0.527519
2525.16, 0.527993
2526.39, 0.528399
2527.62, 0.528601
2528.86, 0.528872
2530.09, 0.528466
2531.33, 0.527722
2532.56, 0.527587
2533.8, 0.528737
2535.04, 0.528940
2536.28, 0.528331
2537.52, 0.529481
2538.76, 0.530901
2540.01, 0.531646
2541.25, 0.531104
2542.5, 0.529007
2543.75, 0.528737
2544.99, 0.530563
2546.24, 0.531307
2547.49, 0.530022
2548.75, 0.530293
2550.0, 0.530360
2551.26, 0.528601
2552.51, 0.527046
2553.77, 0.528669
2555.03, 0.532052
2556.29, 0.533404
2557.55, 0.533269
2558.81, 0.531510
2560.08, 0.526437
2561.34, 0.520145
2562.61, 0.518792
2563.88, 0.520145
2565.14, 0.524813
2566.41, 0.530969
2567.68, 0.531578
2568.96, 0.526031
2570.23, 0.524475
2571.51, 0.528331
2572.78, 0.523595
2574.06, 0.521566
2575.34, 0.525828
2576.62, 0.524204
2577.9, 0.526301
2579.18, 0.530631
2580.47, 0.527925
2581.75, 0.525693
2583.04, 0.521025
2584.32, 0.517101
2585.61, 0.523122
2586.9, 0.522784
2588.2, 0.522581
2589.49, 0.526369
2590.78, 0.530090
2592.08, 0.529143
2593.37, 0.515545
2594.67, 0.495522
2595.97, 0.501542
2597.27, 0.520619
2598.57, 0.530631
2599.88, 0.531240
2601.18, 0.527519
2602.49, 0.524813
2603.79, 0.520822
2605.1, 0.513448
2606.41, 0.513245
2607.72, 0.520348
2609.03, 0.523528
2610.35, 0.525422
2611.66, 0.528060
2612.98, 0.527722
2614.3, 0.527519
2615.62, 0.520957
2616.94, 0.512569
2618.26, 0.517710
2619.58, 0.517101
2620.91, 0.514531
2622.23, 0.524610
2623.56, 0.530090
2624.89, 0.527384
2626.22, 0.518590
2627.55, 0.518454
2628.88, 0.519740
2630.21, 0.510539
2631.55, 0.512975
2632.89, 0.520348
2634.22, 0.521566
2635.56, 0.525084
2636.9, 0.527587
2638.25, 0.527587
2639.59, 0.526572
2640.93, 0.525016
2642.28, 0.523663
2643.63, 0.523798
2644.98, 0.520890
2646.33, 0.519131
2647.68, 0.522040
2649.03, 0.523731
2650.39, 0.521904
2651.74, 0.516289
2653.1, 0.513922
2654.46, 0.515681
2655.82, 0.515410
2657.18, 0.517845
2658.54, 0.515410
2659.9, 0.511419
2661.27, 0.511148
2662.64, 0.511622
2664.01, 0.502625
2665.38, 0.489163
2666.74, 0.485780
2668.12, 0.492613
2669.49, 0.487810
2670.87, 0.478948
2672.24, 0.491530
2673.62, 0.498228
2675.0, 0.491598
2676.38, 0.479286
2677.76, 0.474686
2679.15, 0.472589
2680.54, 0.472927
2681.92, 0.469815
2683.31, 0.459668
2684.7, 0.449927
2686.09, 0.440321
2687.48, 0.430580
2688.88, 0.420365
2690.27, 0.407714
2691.67, 0.391411
2693.07, 0.368479
2694.47, 0.347305
2695.87, 0.332084
2697.27, 0.316322
2698.67, 0.297448
2700.08, 0.277695
2701.49, 0.258145
2702.9, 0.241977
2704.31, 0.227568
2705.72, 0.214647
2707.13, 0.203823
2708.54, 0.193609
2709.96, 0.184882
2711.38, 0.179808
2712.8, 0.180282
2714.22, 0.180958
2715.64, 0.179605
2717.06, 0.173517
2718.49, 0.159717
2719.91, 0.147270
2721.34, 0.151734
2722.77, 0.165670
2724.2, 0.173382
2725.63, 0.179876
2727.07, 0.187385
2728.5, 0.190903
2729.94, 0.188603
2731.38, 0.184408
2732.82, 0.187317
2734.26, 0.193406
2735.7, 0.198682
2737.15, 0.202470
2738.59, 0.200644
2740.04, 0.198750
2741.49, 0.201726
2742.94, 0.206935
2744.39, 0.210182
2745.84, 0.212415
2747.3, 0.215053
2748.76, 0.217150
2750.21, 0.218706
2751.67, 0.219653
2753.14, 0.220330
2754.6, 0.217691
2756.06, 0.217082
2757.53, 0.223441
2759.0, 0.228312
2760.46, 0.229665
2761.94, 0.228447
2763.41, 0.228380
2764.88, 0.231221
2766.36, 0.233183
2767.83, 0.234130
2769.31, 0.235347
2770.79, 0.235889
2772.27, 0.238324
2773.76, 0.241977
2775.24, 0.244006
2776.73, 0.244480
2778.22, 0.245427
2779.71, 0.246577
2781.2, 0.247253
2782.69, 0.249080
2784.18, 0.250974
2785.68, 0.250433
2787.18, 0.249418
2788.68, 0.251921
2790.18, 0.255709
2791.68, 0.258212
2793.19, 0.259633
2794.69, 0.260918
2796.2, 0.261933
2797.71, 0.263218
2799.22, 0.264910
2800.73, 0.265045
2802.24, 0.263354
2803.76, 0.263286
2805.28, 0.266533
2806.8, 0.269510
2808.32, 0.271201
2809.84, 0.272689
2811.36, 0.273839
2812.89, 0.274719
2814.42, 0.275124
2815.94, 0.276139
2817.48, 0.277289
2819.01, 0.277289
2820.54, 0.277695
2822.08, 0.278913
2823.61, 0.280469
2825.15, 0.281686
2826.69, 0.282227
2828.23, 0.282769
2829.78, 0.283851
2831.32, 0.284392
2832.87, 0.284122
2834.42, 0.283851
2835.97, 0.283513
2837.52, 0.283039
2839.08, 0.282836
2840.63, 0.283107
2842.19, 0.283310
2843.75, 0.283039
2845.31, 0.282769
2846.87, 0.282701
2848.44, 0.282769
2850.0, 0.283242
2851.57, 0.284054
2853.14, 0.283919
2854.71, 0.284257
2856.28, 0.285339
2857.86, 0.286557
2859.43, 0.287504
2861.01, 0.288248
2862.59, 0.288992
2864.17, 0.289804
2865.76, 0.290413
2867.34, 0.291360
2868.93, 0.292172
2870.52, 0.292375
2872.11, 0.292713
2873.7, 0.293322
2875.29, 0.293998
2876.89, 0.294336
2878.49, 0.294742
2880.08, 0.295148
2881.69, 0.295622
2883.29, 0.296434
2884.89, 0.297042
2886.5, 0.297651
2888.11, 0.298192
2889.72, 0.298734
2891.33, 0.299748
2892.94, 0.300560
2894.56, 0.301034
2896.17, 0.301507
2897.79, 0.301710
2899.42, 0.301642
2901.04, 0.301845
2902.66, 0.302725
2904.29, 0.303198
2905.92, 0.303469
2907.55, 0.304281
2909.18, 0.304754
2910.81, 0.304890
2912.45, 0.304957
2914.08, 0.305025
2915.72, 0.305634
2917.36, 0.305769
2919.01, 0.305972
2920.65, 0.306310
2922.3, 0.306581
2923.94, 0.306784
2925.59, 0.306987
2927.25, 0.307460
2928.9, 0.307934
2930.56, 0.308204
2932.21, 0.308340
2933.87, 0.308475
2935.53, 0.308543
2937.2, 0.309219
2938.86, 0.309828
2940.53, 0.310031
2942.2, 0.310166
2943.87, 0.310504
2945.54, 0.310640
2947.22, 0.310707
2948.89, 0.311248
2950.57, 0.311722
2952.25, 0.311857
2953.93, 0.312196
2955.62, 0.312466
2957.3, 0.312669
2958.99, 0.313143
2960.68, 0.313549
2962.37, 0.313819
2964.07, 0.313819
2965.76, 0.313887
2967.46, 0.314360
2969.16, 0.314428
2970.86, 0.314496
2972.56, 0.314969
2974.27, 0.315037
2975.98, 0.315172
2977.69, 0.315781
2979.4, 0.316051
2981.11, 0.316187
2982.83, 0.316525
2984.54, 0.316728
2986.26, 0.316796
2987.98, 0.316998
2989.71, 0.317404
2991.43, 0.317878
2993.16, 0.318013
2994.89, 0.318149
2996.62, 0.318419
2998.35, 0.318622
3000.09, 0.318757
3001.83, 0.319096
3003.57, 0.319299
3005.31, 0.319299
3007.05, 0.319501
3008.79, 0.319840
3010.54, 0.320313
3012.29, 0.320719
3014.04, 0.320787
3015.8, 0.320922
3017.55, 0.321396
3019.31, 0.321531
3021.07, 0.321531
3022.83, 0.321734
3024.59, 0.322140
3026.36, 0.322546
3028.13, 0.322681
3029.9, 0.322884
3031.67, 0.322884
3033.44, 0.322951
3035.22, 0.323290
3037.0, 0.323560
3038.78, 0.323696
3040.56, 0.323831
3042.34, 0.324169
3044.13, 0.324237
3045.92, 0.324440
3047.71, 0.324778
3049.5, 0.324981
3051.3, 0.325116
3053.09, 0.325319
3054.89, 0.325725
3056.69, 0.326063
3058.5, 0.326063
3060.3, 0.326334
3062.11, 0.326740
3063.92, 0.326672
3065.73, 0.326807
3067.55, 0.327213
3069.36, 0.327416
3071.18, 0.327687
3073.0, 0.327890
3074.82, 0.327890
3076.65, 0.327957
3078.48, 0.328566
3080.31, 0.328905
3082.14, 0.328972
3083.97, 0.328972
3085.8, 0.328972
3087.64, 0.329581
3089.48, 0.330055
3091.33, 0.330325
3093.17, 0.330596
3095.02, 0.330731
3096.87, 0.331069
3098.72, 0.331813
3100.57, 0.332355
3102.43, 0.332558
3104.28, 0.332760
3106.14, 0.332760
3108.01, 0.333099
3109.87, 0.333775
3111.74, 0.334046
3113.61, 0.334384
3115.48, 0.334722
3117.35, 0.335128
3119.23, 0.335263
3121.1, 0.335669
3122.98, 0.336008
3124.87, 0.336616
3126.75, 0.337022
3128.64, 0.337293
3130.53, 0.337699
3132.42, 0.337969
3134.31, 0.338375
3136.21, 0.338849
3138.11, 0.339322
3140.01, 0.339661
3141.91, 0.339864
3143.82, 0.339796
3145.73, 0.339931
3147.64, 0.340337
3149.55, 0.340608
3151.46, 0.340946
3153.38, 0.341216
3155.3, 0.341487
3157.22, 0.341758
3159.14, 0.342164
3161.07, 0.342840
3163.0, 0.343178
3164.93, 0.343111
3166.86, 0.343043
3168.8, 0.343314
3170.74, 0.343787
3172.68, 0.344193
3174.62, 0.344396
3176.56, 0.344531
3178.51, 0.344734
3180.46, 0.345140
3182.42, 0.345478
3184.37, 0.345411
3186.33, 0.345546
3188.29, 0.345952
3190.25, 0.345952
3192.21, 0.345884
3194.18, 0.346222
3196.15, 0.346290
3198.12, 0.346222
3200.09, 0.346425
3202.07, 0.346764
3204.05, 0.347034
3206.03, 0.346967
3208.02, 0.347169
3210.0, 0.347508
3211.99, 0.347440
3213.98, 0.347575
3215.98, 0.347508
3217.97, 0.347372
3219.97, 0.347440
3221.97, 0.347575
3223.98, 0.347711
3225.98, 0.347778
3227.99, 0.347778
3230.0, 0.347914
3232.02, 0.347981
3234.03, 0.347981
3236.05, 0.347914
3238.07, 0.348184
3240.1, 0.348455
3242.12, 0.348455
3244.15, 0.348387
3246.18, 0.348319
3248.22, 0.348455
3250.25, 0.348252
3252.29, 0.348387
3254.33, 0.348658
3256.38, 0.348861
3258.43, 0.348996
3260.47, 0.348861
3262.53, 0.348590
3264.58, 0.348522
3266.64, 0.349064
3268.7, 0.349402
3270.76, 0.349470
3272.82, 0.349334
3274.89, 0.349267
3276.96, 0.349605
3279.04, 0.349740
3281.11, 0.349537
3283.19, 0.349740
3285.27, 0.349875
3287.35, 0.349943
3289.44, 0.349808
3291.53, 0.349740
3293.62, 0.349808
3295.71, 0.349740
3297.81, 0.349470
3299.91, 0.349537
3302.01, 0.349672
3304.11, 0.349537
3306.22, 0.349334
3308.33, 0.349605
3310.44, 0.349875
3312.56, 0.349943
3314.68, 0.349740
3316.8, 0.350011
3318.92, 0.350417
3321.05, 0.350890
3323.18, 0.351364
3325.31, 0.351770
3327.44, 0.352108
3329.58, 0.352378
3331.72, 0.352717
3333.86, 0.352987
3336.01, 0.353190
3338.16, 0.353393
3340.31, 0.353596
3342.46, 0.353867
3344.61, 0.353664
3346.77, 0.353258
3348.94, 0.353055
3351.1, 0.353123
3353.27, 0.352717
3355.44, 0.352108
3357.61, 0.351770
3359.79, 0.351702
3361.97, 0.351567
3364.15, 0.351702
3366.33, 0.351770
3368.52, 0.351431
3370.71, 0.351431
3372.9, 0.351364
3375.1, 0.351296
3377.3, 0.351364
3379.5, 0.351634
3381.71, 0.351837
3383.91, 0.351905
3386.12, 0.351973
3388.34, 0.352581
3390.55, 0.353190
3392.77, 0.353326
3394.99, 0.353461
3397.22, 0.353393
3399.45, 0.353664
3401.68, 0.353934
3403.91, 0.353867
3406.15, 0.353799
3408.39, 0.354137
3410.63, 0.354273
3412.87, 0.354273
3415.12, 0.354205
3417.37, 0.354340
3419.63, 0.354949
3421.88, 0.355693
3424.14, 0.355693
3426.41, 0.356099
3428.67, 0.356437
3430.94, 0.356843
3433.21, 0.357046
3435.49, 0.357520
3437.77, 0.358128
3440.05, 0.358196
3442.33, 0.358061
3444.62, 0.358331
3446.91, 0.358467
3449.2, 0.358467
3451.5, 0.358128
3453.8, 0.358196
3456.1, 0.358670
3458.41, 0.358805
3460.72, 0.358534
3463.03, 0.358331
3465.34, 0.358331
3467.66, 0.358467
3469.98, 0.358399
3472.31, 0.358061
3474.63, 0.357723
3476.96, 0.357520
3479.3, 0.357249
3481.64, 0.357317
3483.97, 0.357181
3486.32, 0.357317
3488.66, 0.357384
3491.01, 0.357181
3493.36, 0.357046
3495.72, 0.354566
3498.08, 0.354853
3500.44, 0.355132
3502.81, 0.355174
3505.18, 0.355179
3507.55, 0.355360
3509.92, 0.355582
3512.3, 0.355821
3514.68, 0.356051
3517.06, 0.356191
3519.45, 0.356170
3521.84, 0.356367
3524.24, 0.356478
3526.64, 0.356597
3529.04, 0.356759
3531.44, 0.356775
3533.85, 0.356850
3536.26, 0.356987
3538.67, 0.356992
3541.09, 0.357022
3543.51, 0.356950
3545.93, 0.356792
3548.36, 0.356833
3550.79, 0.356963
3553.22, 0.356975
3555.66, 0.356932
3558.1, 0.356864
3560.54, 0.356780
3562.99, 0.356727
3565.44, 0.356722
3567.9, 0.356613
3570.35, 0.356457
3572.81, 0.356370
3575.28, 0.356303
3577.75, 0.356273
3580.22, 0.356341
3582.69, 0.356248
3585.17, 0.356086
3587.65, 0.355978
3590.14, 0.355865
3592.62, 0.355867
3595.11, 0.355772
3597.61, 0.355704
3600.11, 0.355598
3602.61, 0.355479
3605.11, 0.355379
3607.62, 0.355194
3610.14, 0.355096
3612.65, 0.355097
3615.17, 0.355012
3617.69, 0.354927
3620.22, 0.354856
3622.75, 0.354832
3625.28, 0.354717
3627.82, 0.354583
3630.36, 0.354563
3632.9, 0.354587
3635.45, 0.354507
3638.0, 0.354372
3640.56, 0.354275
3643.12, 0.354170
3645.68, 0.354141
3648.24, 0.354080
3650.81, 0.353976
3653.39, 0.353879
3655.96, 0.353836
3658.54, 0.353674
3661.13, 0.353622
3663.71, 0.353662
3666.3, 0.353727
3668.9, 0.353615
3671.5, 0.353654
3674.1, 0.353753
3676.7, 0.353706
3679.31, 0.353643
3681.93, 0.353684
3684.54, 0.353606
3687.17, 0.353499
3689.79, 0.353427
3692.42, 0.353548
3695.05, 0.353591
3697.69, 0.353505
3700.32, 0.353449
3702.97, 0.353505
3705.61, 0.353501
3708.27, 0.353445
3710.92, 0.353339
3713.58, 0.353305
3716.24, 0.353271
3718.91, 0.353195
3721.58, 0.353172
3724.25, 0.353113
3726.93, 0.352909
3729.61, 0.352867
3732.29, 0.352832
3734.98, 0.352699
3737.67, 0.352593
3740.37, 0.352424
3743.07, 0.352319
3745.78, 0.352304
3748.49, 0.352088
3751.2, 0.351933
3753.91, 0.351826
3756.63, 0.351757
3759.36, 0.351646
3762.09, 0.351449
3764.82, 0.351281
3767.55, 0.351203
3770.29, 0.350982
3773.04, 0.350816
3775.78, 0.350611
3778.54, 0.350362
3781.29, 0.350166
3784.05, 0.349993
3786.82, 0.349909
3789.59, 0.349849
3792.36, 0.349673
3795.13, 0.349373
3797.92, 0.349167
3800.7, 0.348990
3803.49, 0.348750
3806.28, 0.348636
3809.08, 0.348473
3811.88, 0.348220
3814.68, 0.348013
3817.49, 0.347863
3820.31, 0.347629
3823.12, 0.347519
3825.94, 0.347405
3828.77, 0.347195
3831.6, 0.346962
3834.43, 0.346805
3837.27, 0.346621
3840.11, 0.346416
3842.96, 0.346189
3845.81, 0.345985
3848.67, 0.345741
3851.53, 0.345531
3854.39, 0.345235
3857.26, 0.344939
3860.13, 0.344649
3863.01, 0.344417
3865.89, 0.344146
3868.77, 0.343904
3871.66, 0.343658
3874.55, 0.343409
3877.45, 0.343118
3880.35, 0.342878
3883.26, 0.342609
3886.17, 0.342299
3889.09, 0.341972
3892.01, 0.341713
3894.93, 0.341383
3897.86, 0.341022
3900.79, 0.340694
3903.73, 0.340433
3906.67, 0.340126
3909.62, 0.339845
3912.57, 0.339612
3915.52, 0.339354
3918.48, 0.339153
3921.45, 0.338844
3924.42, 0.338653
3927.39, 0.338476
3930.37, 0.338377
3933.35, 0.338279
3936.34, 0.337990
3939.33, 0.337778
3942.32, 0.337574
3945.32, 0.337322
3948.33, 0.337123
3951.34, 0.337049
3954.35, 0.337029
3957.37, 0.336986
3960.39, 0.336830
3963.42, 0.336711
3966.45, 0.336665
3969.49, 0.336740
3972.53, 0.336807
3975.58, 0.336923
3978.63, 0.336985
3981.68, 0.337131
3984.75, 0.337137
3987.81, 0.337150
3990.88, 0.337218
3993.95, 0.337259
3997.03, 0.337124
4000.12, 0.337003
4003.21, 0.337030
4006.3, 0.337022
4009.4, 0.336950
4012.5, 0.336824
4015.61, 0.336669
4018.72, 0.336509
4021.84, 0.336383
4024.96, 0.336204
4028.09, 0.336024
4031.22, 0.335744
4034.36, 0.335455
4037.5, 0.335280
4040.65, 0.335068
4043.8, 0.334791
4046.96, 0.334500
4050.12, 0.334266
4053.29, 0.334033
4056.46, 0.333761
4059.64, 0.333501
4062.82, 0.333231
4066.0, 0.332949
4069.19, 0.332716
4072.39, 0.332428
4075.59, 0.332136
4078.8, 0.331843
4082.01, 0.331532
4085.23, 0.331264
4088.45, 0.331032
4091.68, 0.330714
4094.91, 0.330489
4098.15, 0.330212
4101.39, 0.330004
4104.63, 0.329749
4107.89, 0.329526
4111.14, 0.329230
4114.41, 0.328977
4117.67, 0.328741
4120.95, 0.328536
4124.23, 0.328304
4127.51, 0.328021
4130.8, 0.327778
4134.09, 0.327529
4137.39, 0.327311
4140.7, 0.327060
4144.01, 0.326756
4147.32, 0.326446
4150.64, 0.326189
4153.97, 0.326069
4157.3, 0.325842
4160.64, 0.325574
4163.98, 0.325293
4167.33, 0.325032
4170.68, 0.324741
4174.04, 0.324475
4177.4, 0.324263
4180.77, 0.324101
4184.14, 0.323783
4187.52, 0.323552
4190.91, 0.323337
4194.3, 0.323170
4197.69, 0.322974
4201.1, 0.322937
4204.5, 0.323111
4207.92, 0.323373
4211.34, 0.323862
4214.76, 0.324486
4218.19, 0.325099
4221.62, 0.325524
4225.06, 0.325885
4228.51, 0.326145
4231.96, 0.326133
4235.42, 0.325835
4238.88, 0.325291
4242.35, 0.324544
4245.83, 0.323462
4249.31, 0.322131
4252.79, 0.320671
4256.28, 0.319892
4259.78, 0.320066
4263.29, 0.320592
4266.79, 0.320952
4270.31, 0.321103
4273.83, 0.321026
4277.35, 0.320883
4280.89, 0.320605
4284.42, 0.320206
4287.97, 0.319766
4291.52, 0.319327
4295.07, 0.318835
4298.63, 0.318316
4302.2, 0.317816
4305.78, 0.317280
4309.35, 0.316652
4312.94, 0.316099
4316.53, 0.315638
4320.13, 0.315253
4323.73, 0.314849
4327.34, 0.314490
4330.96, 0.314238
4334.58, 0.313989
4338.21, 0.313708
4341.84, 0.313454
4345.48, 0.313229
4349.12, 0.312985
4352.77, 0.312671
4356.43, 0.312486
4360.1, 0.312412
4363.76, 0.312273
4367.44, 0.312080
4371.12, 0.311963
4374.81, 0.311832
4378.51, 0.311621
4382.21, 0.311473
4385.92, 0.311283
4389.63, 0.311091
4393.35, 0.310931
4397.08, 0.310749
4400.81, 0.310587
4404.55, 0.310381
4408.29, 0.310191
4412.04, 0.309943
4415.8, 0.309668
4419.57, 0.309440
4423.34, 0.309250
4427.12, 0.309157
4430.9, 0.308994
4434.69, 0.308724
4438.49, 0.308507
4442.29, 0.308188
4446.1, 0.307887
4449.92, 0.307681
4453.74, 0.307519
4457.57, 0.307308
4461.41, 0.306981
4465.25, 0.306634
4469.1, 0.306395
4472.95, 0.306094
4476.82, 0.305837
4480.69, 0.305566
4484.56, 0.305151
4488.44, 0.304759
4492.33, 0.304390
4496.23, 0.303915
4500.13, 0.303455
4504.04, 0.302977
4507.96, 0.302363
4511.88, 0.301665
4515.81, 0.301002
4519.75, 0.300068
4523.69, 0.299043
4527.65, 0.297927
4531.6, 0.296608
4535.57, 0.295148
4539.54, 0.293714
4543.52, 0.292238
4547.5, 0.290712
4551.5, 0.289152
4555.5, 0.287740
4559.5, 0.286144
4563.52, 0.284407
4567.54, 0.282579
4571.56, 0.280819
4575.6, 0.278960
4579.64, 0.277009
4583.69, 0.274991
4587.75, 0.272846
4591.81, 0.270631
4595.88, 0.268428
4599.96, 0.265970
4604.04, 0.263424
4608.14, 0.260893
4612.24, 0.258395
4616.34, 0.255734
4620.46, 0.253113
4624.58, 0.250528
4628.71, 0.247931
4632.84, 0.245454
4636.99, 0.243094
4641.14, 0.240812
4645.3, 0.238546
4649.47, 0.236314
4653.64, 0.234112
4657.82, 0.231966
4662.01, 0.229996
4666.21, 0.228244
4670.41, 0.226704
4674.62, 0.225361
4678.84, 0.224201
4683.07, 0.223089
4687.3, 0.222100
4691.54, 0.221055
4695.79, 0.220054
4700.05, 0.218994
4704.31, 0.218000
4708.59, 0.216955
4712.87, 0.215910
4717.15, 0.214885
4721.45, 0.213890
4725.76, 0.212759
4730.07, 0.211437
4734.39, 0.210031
4738.72, 0.208506
4743.05, 0.206717
4747.39, 0.204931
4751.75, 0.203032
4756.1, 0.201068
4760.47, 0.199030
4764.85, 0.196995
4769.23, 0.194863
4773.62, 0.192673
4778.02, 0.190573
4782.43, 0.188484
4786.85, 0.186322
4791.27, 0.184075
4795.7, 0.181849
4800.14, 0.179807
4804.59, 0.177843
4809.05, 0.175972
4813.51, 0.174192
4817.99, 0.172617
4822.47, 0.171265
4826.96, 0.170065
4831.46, 0.169142
4835.96, 0.168402
4840.48, 0.167767
4845.0, 0.167407
4849.54, 0.167108
4854.08, 0.166916
4858.63, 0.166894
4863.18, 0.166950
4867.75, 0.166999
4872.33, 0.167169
4876.91, 0.167275
4881.5, 0.167439
4886.1, 0.167665
4890.71, 0.167874
4895.33, 0.168036
4899.96, 0.168138
4904.59, 0.168203
4909.24, 0.168322
4913.89, 0.168462
4918.55, 0.168454
4923.22, 0.168382
4927.9, 0.168170
4932.59, 0.167986
4937.29, 0.167901
4942.0, 0.167647
4946.71, 0.167337
4951.44, 0.166943
4956.17, 0.166568
4960.91, 0.166099
4965.67, 0.165645
4970.43, 0.165081
4975.2, 0.164566
4979.98, 0.164075
4984.76, 0.163544
4989.56, 0.163030
4994.37, 0.162351
4999.18, 0.161446
5004.01, 0.160462
5008.84, 0.159426
5013.69, 0.158391
5018.54, 0.157273
5023.4, 0.155906
5028.28, 0.154501
5033.16, 0.153058
5038.05, 0.151481
5042.95, 0.149766
5047.86, 0.148035
5052.78, 0.146227
5057.71, 0.144418
5062.65, 0.142582
5067.6, 0.140787
5072.56, 0.139013
5077.53, 0.137289
5082.5, 0.135691
5087.49, 0.134023
5092.49, 0.132323
5097.5, 0.130752
5102.51, 0.129198
5107.54, 0.127574
5112.58, 0.126021
5117.62, 0.124565
5122.68, 0.123129
5127.75, 0.121892
5132.82, 0.120663
5137.91, 0.119662
5143.01, 0.118984
5148.12, 0.118763
5153.23, 0.118811
5158.36, 0.119361
5163.5, 0.120334
5168.65, 0.121563
5173.81, 0.123140
5178.98, 0.124907
5184.15, 0.126808
5189.34, 0.128814
5194.54, 0.130824
5199.75, 0.132767
5204.98, 0.134589
5210.21, 0.136434
5215.45, 0.138102
5220.7, 0.139565
5225.96, 0.140945
5231.23, 0.142157
5236.52, 0.143334
5241.81, 0.144417
5247.12, 0.145431
5252.44, 0.146474
5257.76, 0.147585
5263.1, 0.148695
5268.45, 0.150009
5273.81, 0.151457
5279.18, 0.153122
5284.56, 0.154830
5289.95, 0.156677
5295.36, 0.158432
5300.77, 0.160128
5306.2, 0.161646
5311.63, 0.163003
5317.08, 0.164184
5322.54, 0.165151
5328.01, 0.165928
5333.49, 0.166410
5338.98, 0.166714
5344.49, 0.166923
5350.0, 0.166868
5355.53, 0.166423
5361.07, 0.165796
5366.62, 0.165027
5372.18, 0.164125
5377.75, 0.162987
5383.34, 0.161645
5388.93, 0.160167
5394.54, 0.158633
5400.16, 0.156931
5405.79, 0.155254
5411.44, 0.153597
5417.09, 0.152366
5422.76, 0.151143
5428.43, 0.149805
5434.12, 0.148834
5439.83, 0.148132
5445.54, 0.147708
5451.26, 0.147500
5457.0, 0.147488
5462.75, 0.147698
5468.52, 0.147953
5474.29, 0.148284
5480.08, 0.148829
5485.88, 0.149497
5491.69, 0.150476
5497.51, 0.151429
5503.35, 0.152420
5509.2, 0.153403
5515.06, 0.154393
5520.93, 0.155025
5526.82, 0.155407
5532.71, 0.155349
5538.63, 0.154767
5544.55, 0.153759
5550.49, 0.152283
5556.44, 0.150202
5562.4, 0.147876
5568.37, 0.145672
5574.36, 0.143989
5580.36, 0.142285
5586.37, 0.140580
5592.4, 0.139351
5598.44, 0.138508
5604.49, 0.137691
5610.56, 0.137052
5616.63, 0.136476
5622.73, 0.135894
5628.83, 0.135348
5634.95, 0.134994
5641.08, 0.134788
5647.23, 0.134081
5653.39, 0.133475
5659.56, 0.132995
5665.74, 0.132500
5671.94, 0.132303
5678.15, 0.131910
5684.38, 0.131517
5690.62, 0.131246
5696.87, 0.130787
5703.14, 0.130524
5709.42, 0.130314
5715.72, 0.129711
5722.03, 0.128964
5728.35, 0.128189
5734.69, 0.127605
5741.03, 0.126995
5747.4, 0.126549
5753.78, 0.126103
5760.17, 0.126305
5766.58, 0.126577
5773.0, 0.126102
5779.44, 0.126135
5785.88, 0.126218
5792.35, 0.126294
5798.83, 0.126525
5805.32, 0.126667
5811.83, 0.126917
5818.35, 0.127435
5824.89, 0.127438
5831.45, 0.127237
5838.01, 0.127189
5844.59, 0.127294
5851.19, 0.127553
5857.8, 0.128006
5864.43, 0.128285
5871.07, 0.128407
5877.73, 0.129172
5884.4, 0.128736
5891.09, 0.128037
5897.79, 0.127128
5904.5, 0.125360
5911.23, 0.123731
5917.98, 0.121756
5924.75, 0.119525
5931.53, 0.117468
5938.32, 0.114591
5945.13, 0.110877
5951.96, 0.107346
5958.8, 0.103865
5965.65, 0.100663
5972.53, 0.0973930
5979.42, 0.0944860
5986.32, 0.0922280
5993.24, 0.0900990
6000.18, 0.0884730
6007.13, 0.0874780
6014.1, 0.0868450
6021.08, 0.0862220
6028.09, 0.0858980
6035.1, 0.0859200
6042.14, 0.0866210
6049.19, 0.0873380
6056.25, 0.0867340
6063.34, 0.0869780
6070.44, 0.0876600
6077.55, 0.0877610
6084.69, 0.0877840
6091.84, 0.0880670
6099.0, 0.0883350
6106.19, 0.0885740
6113.39, 0.0886090
6120.61, 0.0878870
6127.84, 0.0871560
6135.09, 0.0864890
6142.36, 0.0855500
6149.65, 0.0844400
6156.95, 0.0833350
6164.27, 0.0820660
6171.61, 0.0808640
6178.97, 0.0800890
6186.34, 0.0791980
6193.73, 0.0781850
6201.14, 0.0777160
6208.57, 0.0775500
6216.01, 0.0776240
6223.47, 0.0777790
6230.95, 0.0780750
6238.45, 0.0783430
6245.97, 0.0785790
6253.5, 0.0788960
6261.06, 0.0791130
6268.63, 0.0791480
6276.21, 0.0791510
6283.82, 0.0792170
6291.45, 0.0793290
6299.1, 0.0794820
6306.76, 0.0798070
6314.44, 0.0803710
6322.14, 0.0810940
6329.86, 0.0821730
6337.6, 0.0836910
6345.35, 0.0853280
6353.13, 0.0866420
6360.92, 0.0884490
6368.74, 0.0906060
6376.57, 0.0923490
6384.43, 0.0941600
6392.3, 0.0960250
6400.19, 0.0978190
6408.1, 0.0999780
6416.03, 0.101543
6423.98, 0.101944
6431.95, 0.102702
6439.94, 0.103297
6447.95, 0.103905
6455.98, 0.104479
6464.03, 0.105000
6472.1, 0.105664
6480.19, 0.106285
6488.31, 0.107076
6496.44, 0.107205
6504.59, 0.106727
6512.76, 0.106698
6520.95, 0.106658
6529.16, 0.106002
6537.4, 0.105239
6545.65, 0.104468
6553.92, 0.103455
6562.22, 0.102242
6570.54, 0.101130
6578.88, 0.0996060
6587.23, 0.0984110
6595.61, 0.0973960
6604.02, 0.0965070
6612.44, 0.0959450
6620.89, 0.0957490
6629.35, 0.0962660
6637.84, 0.0968060
6646.35, 0.0966810
6654.88, 0.0972250
6663.44, 0.0982060
6672.01, 0.0993050
6680.61, 0.100289
6689.23, 0.100790
6697.88, 0.101281
6706.54, 0.101939
6715.23, 0.102211
6723.94, 0.102242
6732.67, 0.102265
6741.42, 0.102291
6750.2, 0.102219
6759.0, 0.102147
6767.82, 0.102110
6776.67, 0.102024
6785.54, 0.101924
6794.44, 0.101531
6803.35, 0.100897
6812.29, 0.100586
6821.26, 0.100370
6830.24, 0.0998580
6839.25, 0.0991000
6848.29, 0.0986810
6857.35, 0.0985000
6866.43, 0.0977650
6875.54, 0.0967220
6884.67, 0.0960100
6893.82, 0.0952890
6903.0, 0.0946620
6912.2, 0.0939900
6921.43, 0.0933970
6930.69, 0.0927440
6939.96, 0.0921340
6949.27, 0.0916850
6958.59, 0.0914300
6967.95, 0.0907700
6977.33, 0.0902790
6986.73, 0.0898820
6996.16, 0.0895080
7005.61, 0.0890930
7015.09, 0.0887590
7024.6, 0.0883900
7034.13, 0.0881160
7043.69, 0.0878620
7053.27, 0.0873260
7062.88, 0.0869780
7072.52, 0.0866350
7082.18, 0.0863300
7091.87, 0.0859060
7101.58, 0.0854230
7111.32, 0.0849350
7121.09, 0.0842810
7130.88, 0.0835200
7140.71, 0.0828910
7150.56, 0.0820700
7160.43, 0.0812570
7170.33, 0.0804210
7180.27, 0.0794590
7190.23, 0.0786500
7200.21, 0.0780200
7210.23, 0.0773240
7220.27, 0.0764930
7230.34, 0.0756680
7240.44, 0.0748170
7250.56, 0.0739620
7260.72, 0.0729750
7270.9, 0.0719880
7281.12, 0.0710270
7291.36, 0.0700710
7301.63, 0.0690570
7311.93, 0.0678490
7322.25, 0.0666400
7332.61, 0.0654040
7343.0, 0.0641930
7353.41, 0.0628600
7363.86, 0.0612930
7374.33, 0.0596900
7384.83, 0.0582320
7395.37, 0.0573120
7405.93, 0.0569380
7416.53, 0.0570290
7427.15, 0.0571600
7437.81, 0.0570590
7448.5, 0.0567150
7459.22, 0.0560710
7469.96, 0.0553010
7480.74, 0.0543110
7491.55, 0.0532310
7502.39, 0.0522870
7513.27, 0.0514960
7524.17, 0.0509810
7535.11, 0.0506110
7546.08, 0.0502270
7557.08, 0.0497680
7568.11, 0.0491670
7579.17, 0.0484060
7590.27, 0.0476270
7601.4, 0.0470510
7612.56, 0.0463630
7623.76, 0.0457330
7634.98, 0.0450960
7646.24, 0.0443950
7657.54, 0.0436090
7668.87, 0.0429840
7680.23, 0.0422400
7691.62, 0.0413720
7703.05, 0.0404750
7714.51, 0.0395790
7726.01, 0.0386510
7737.54, 0.0378760
7749.11, 0.0370770
7760.71, 0.0362910
7772.35, 0.0356100
7784.02, 0.0349000
7795.72, 0.0341580
7807.46, 0.0334600
7819.23, 0.0326870
7831.04, 0.0318730
7842.89, 0.0309250
7854.77, 0.0300840
7866.69, 0.0292340
7878.65, 0.0283010
7890.64, 0.0274640
7902.67, 0.0265570
7914.74, 0.0255790
7926.84, 0.0247610
7938.98, 0.0239390
7951.16, 0.0230110
7963.37, 0.0221130
7975.62, 0.0213900
7987.91, 0.0206290
8000.24, 0.0198080
8012.6, 0.0190170
8025.01, 0.0182730
8037.45, 0.0174800
8049.93, 0.0167230
8062.45, 0.0160530
8075.01, 0.0154730
8087.61, 0.0148430
8100.24, 0.0141550
8112.91, 0.0134800
8125.63, 0.0129200
8138.39, 0.0123110
8151.18, 0.0116380
8164.02, 0.0110720
8176.9, 0.0106020
8189.81, 0.0101350
8202.77, 0.00973900
8215.77, 0.00936400
8228.82, 0.00889500
8241.9, 0.00835600
8255.02, 0.00791900
8268.19, 0.00759400
8281.39, 0.00743600
8294.65, 0.00717000
8307.94, 0.00696800
8321.28, 0.00682700
8334.66, 0.00663100
8348.08, 0.00638400
8361.54, 0.00624800
8375.05, 0.00625600
8388.6, 0.00626000
8402.2, 0.00627300
8415.84, 0.00632500
8429.52, 0.00652400
8443.25, 0.00687400
8457.02, 0.00737600
8470.84, 0.00791200
8484.7, 0.00861400
8498.61, 0.00970800
8512.57, 0.0111410
8526.57, 0.0128530
8540.62, 0.0149740
8554.71, 0.0177480
8568.85, 0.0210060
8583.04, 0.0249990
8597.27, 0.0297360
8611.55, 0.0354860
8625.88, 0.0421910
8640.26, 0.0498590
8654.68, 0.0583010
8669.16, 0.0676760
8683.68, 0.0780060
8698.25, 0.0884960
8712.87, 0.0978050
8727.53, 0.103814
8742.25, 0.105830
8757.02, 0.107860
8771.83, 0.114947
8786.7, 0.127073
8801.62, 0.141174
8816.59, 0.153924
8831.61, 0.163325
8846.68, 0.168605
8861.8, 0.170154
8876.97, 0.169518
8892.2, 0.169008
8907.48, 0.170975
8922.81, 0.176326
8938.2, 0.183662
8953.63, 0.190769
8969.13, 0.196510
8984.67, 0.200874
9000.27, 0.203857
9015.92, 0.205769
9031.63, 0.207057
9047.39, 0.208197
9063.21, 0.208982
9079.08, 0.209655
9095.01, 0.210175
9111.0, 0.210450
9127.04, 0.210637
9143.13, 0.210637
9159.28, 0.210677
9175.49, 0.210814
9191.76, 0.211152
9208.09, 0.211751
9224.47, 0.212697
9240.92, 0.213990
9257.42, 0.215356
9273.98, 0.217130
9290.6, 0.219201
9307.28, 0.221584
9324.02, 0.224250
9340.82, 0.226998
9357.68, 0.229747
9374.6, 0.232342
9391.58, 0.234543
9408.62, 0.236294
9425.73, 0.237311
9442.9, 0.237589
9460.13, 0.237230
9477.42, 0.236369
9494.78, 0.234230
9512.2, 0.230710
9529.69, 0.225574
9547.24, 0.218828
9564.86, 0.210295
9582.54, 0.200112
9600.28, 0.188492
9618.1, 0.175801
9635.97, 0.162919
9653.92, 0.150534
9671.93, 0.139446
9690.01, 0.129994
9708.16, 0.122140
9726.37, 0.116158
9744.65, 0.112305
9763.0, 0.111053
9781.43, 0.112874
9799.92, 0.117696
9818.48, 0.124686
9837.1, 0.132655
9855.8, 0.140555
9874.58, 0.147205
9893.42, 0.151724
9912.34, 0.153580
9931.33, 0.152273
9950.39, 0.148035
9969.52, 0.141950
9988.74, 0.136220
10008.0, 0.133036
10027.4, 0.134652
10046.8, 0.141219
10066.3, 0.149927
10085.9, 0.158168
10105.6, 0.165842
10125.3, 0.174585
10145.1, 0.186300
10165.0, 0.200366
10185.0, 0.213226
10205.0, 0.221582
10225.2, 0.223713
10245.4, 0.219292
10265.7, 0.209137
10286.0, 0.195511
10306.5, 0.183181
10327.0, 0.176859
10347.6, 0.177937
10368.3, 0.183438
10389.1, 0.189412
10409.9, 0.193772
10430.9, 0.195665
10451.9, 0.195341
10473.0, 0.193304
10494.2, 0.189934
10515.5, 0.185404
10536.9, 0.180223
10558.4, 0.175180
10579.9, 0.170732
10601.5, 0.167201
10623.3, 0.164612
10645.1, 0.163274
10667.0, 0.163595
10689.0, 0.165908
10711.1, 0.169456
10733.2, 0.172874
10755.5, 0.174972
10777.9, 0.174647
10800.3, 0.170835
10822.9, 0.163541
10845.5, 0.153272
10868.2, 0.140683
10891.1, 0.126944
10914.0, 0.113494
10937.0, 0.101948
10960.2, 0.0937790
10983.4, 0.0899170
11006.7, 0.0902500
11030.1, 0.0935960
11053.6, 0.0975370
11077.3, 0.0999620
11101.0, 0.100353
11124.8, 0.0994810
11148.7, 0.0989600
11172.7, 0.101089
11196.9, 0.108094
11221.1, 0.120488
11245.4, 0.135761
11269.9, 0.150301
11294.4, 0.161669
11319.1, 0.169323
11343.9, 0.173723
11368.8, 0.175794
11393.7, 0.176112
11418.8, 0.175163
11444.0, 0.173232
11469.4, 0.170404
11494.8, 0.167264
11520.3, 0.163637
11546.0, 0.159919
11571.8, 0.156190
11597.7, 0.152163
11623.7, 0.147748
11649.8, 0.143242
11676.0, 0.138216
11702.4, 0.132137
11728.9, 0.125263
11755.5, 0.118327
11782.2, 0.111766
11809.0, 0.106046
11836.0, 0.101326
11863.0, 0.0972760
11890.3, 0.0936650
11917.6, 0.0904280
11945.0, 0.0876240
11972.6, 0.0851020
12000.4, 0.0827750
12028.2, 0.0808660
12056.2, 0.0790280
12084.3, 0.0773990
12112.5, 0.0760890
12140.9, 0.0747390
12169.4, 0.0733930
12198.0, 0.0721330
12226.8, 0.0708220
12255.7, 0.0695720
12284.7, 0.0686020
12313.9, 0.0677050
12343.2, 0.0667610
12372.7, 0.0658040
12402.3, 0.0649100
12432.0, 0.0641220
12461.9, 0.0631440
12491.9, 0.0621110
12522.1, 0.0610830
12552.4, 0.0601820
12582.9, 0.0593070
12613.5, 0.0584720
12644.3, 0.0576560
12675.2, 0.0567370
12706.3, 0.0560070
12737.5, 0.0553720
12768.9, 0.0545320
12800.4, 0.0538700
12832.1, 0.0533490
12863.9, 0.0526470
12895.9, 0.0517930
12928.1, 0.0508060
12960.4, 0.0498730
12992.9, 0.0488130
13025.5, 0.0475350
13058.3, 0.0462930
13091.3, 0.0449940
13124.4, 0.0435060
13157.8, 0.0421970
13191.2, 0.0408640
13224.9, 0.0394400
13258.7, 0.0378960
13292.7, 0.0363610
13326.9, 0.0347040
13361.2, 0.0333900
13395.7, 0.0326400
13430.4, 0.0327380
13465.3, 0.0330360
13500.4, 0.0326200
13535.7, 0.0313920
13571.1, 0.0298610
13606.7, 0.0287980
13642.5, 0.0286750
13678.5, 0.0305180
13714.7, 0.0341770
13751.1, 0.0377280
13787.6, 0.0394810
13824.4, 0.0389200
13861.4, 0.0370950
13898.5, 0.0352060
13935.9, 0.0334420
13973.5, 0.0319510
14011.2, 0.0306570
14049.2, 0.0294310
14087.4, 0.0282030
14125.8, 0.0275260
14164.3, 0.0272210
14203.2, 0.0271580
14242.2, 0.0280500
14281.4, 0.0305200
14320.9, 0.0348430
14360.5, 0.0408200
14400.4, 0.0472170
14440.5, 0.0517670
14480.9, 0.0531670
14521.4, 0.0514480
14562.2, 0.0478570
14603.3, 0.0440070
14644.5, 0.0405960
14686.0, 0.0376810
14727.7, 0.0356960
14769.7, 0.0345590
14811.9, 0.0337250
14854.3, 0.0325380
14897.0, 0.0308830
14939.9, 0.0291370
14983.1, 0.0266810
15026.5, 0.0239470
15070.2, 0.0218060
15114.2, 0.0205040
15158.3, 0.0204070
15202.8, 0.0221730
15247.5, 0.0260910
15292.5, 0.0307820
15337.7, 0.0347560
15383.2, 0.0377760
15429.0, 0.0397220
15475.1, 0.0401270
15521.4, 0.0391710
15568.0, 0.0371680
15614.9, 0.0344890
15662.1, 0.0319700
15709.6, 0.0299090
15757.3, 0.0283830
15805.4, 0.0274270
15853.7, 0.0268760
15902.3, 0.0275450
15951.2, 0.0292480
16000.5, 0.0319400
16050.0, 0.0361920
16099.8, 0.0424300
16150.0, 0.0508030
16200.5, 0.0609670
16251.3, 0.0723300
16302.4, 0.0846360
16353.8, 0.0967630
16405.5, 0.107933
16457.6, 0.117616
16510.0, 0.126188
16562.8, 0.133787
16615.9, 0.139974
16669.3, 0.145273
16723.1, 0.150173
16777.2, 0.154400
16831.7, 0.158104
16886.5, 0.161484
16941.7, 0.164868
16997.2, 0.168228
17053.1, 0.172176
17109.4, 0.176930
17166.1, 0.182365
17223.1, 0.188753
17280.5, 0.196041
17338.3, 0.203084
17396.5, 0.208470
17455.1, 0.210405
17514.0, 0.208651
17573.4, 0.204358
17633.2, 0.198972
17693.4, 0.194050
17754.0, 0.192300
17815.0, 0.195753
17876.4, 0.202475
17938.3, 0.207981
18000.5, 0.211630
18063.3, 0.216237
18126.4, 0.223197
18190.0, 0.231342
18254.1, 0.236438
18318.6, 0.234782
18383.5, 0.227006
18449.0, 0.216429
18514.9, 0.206929
18581.2, 0.201257
18648.0, 0.199289
18715.4, 0.197690
18783.2, 0.194921
18851.5, 0.194460
18920.3, 0.201548
18989.6, 0.218954
19059.4, 0.242746
19129.7, 0.266608
19200.6, 0.286060
19272.0, 0.299568
19343.9, 0.306374
19416.3, 0.308142
19489.3, 0.306947
19562.8, 0.304023
19637.0, 0.299114
19711.6, 0.293479
19786.8, 0.287832
19862.6, 0.280142
19939.0, 0.270930
20016.0, 0.260702
20093.6, 0.249748
20171.8, 0.238244
20250.6, 0.225734
20330.0, 0.213465
20410.0, 0.201324
20490.7, 0.189824
20572.0, 0.179431
20654.0, 0.170397
20736.6, 0.161609
20819.9, 0.152636
20903.8, 0.144762
20988.5, 0.136564
21073.8, 0.129856
21159.8, 0.128818
21246.5, 0.133201
21334.0, 0.138846
21422.1, 0.144623
21511.0, 0.153607
21600.7, 0.165862
21691.0, 0.181109
21782.1, 0.195946
21874.0, 0.207435
21966.7, 0.214438
22060.2, 0.218124
22154.5, 0.219479
22249.6, 0.217624
22345.5, 0.211109
22442.2, 0.200363
22539.8, 0.185902
22638.2, 0.170475
22737.5, 0.156557
22837.7, 0.143909
22938.7, 0.134014
23040.7, 0.129528
23143.5, 0.129666
23247.3, 0.127411
23352.1, 0.121016
23457.7, 0.114932
23564.4, 0.109769
23672.0, 0.106092
23780.5, 0.103271
23890.1, 0.100952
24000.7, 0.0996120
24112.3, 0.0987250
24225.0, 0.0972170
24338.7, 0.0984540
24453.5, 0.104885
24569.4, 0.112310
24686.4, 0.120537
24804.5, 0.132712
24923.8, 0.135889
25044.2, 0.139103
25165.8, 0.143919
25288.6, 0.147428
25412.5, 0.148222
25537.7, 0.144892
25664.1, 0.138425
25791.8, 0.131496
25920.8, 0.124772
26051.1, 0.120827
26182.6, 0.118726
26315.5, 0.115256
26449.8, 0.114346
26585.4, 0.116562
26722.5, 0.122722
26860.9, 0.130855
27000.8, 0.133775
27142.1, 0.132520
27285.0, 0.130151
27429.4, 0.128396
27575.3, 0.132187
27722.7, 0.145930
27871.8, 0.164001
28022.4, 0.179434
28174.7, 0.192319
28328.7, 0.203462
28484.4, 0.211761
28641.7, 0.221392
28800.9, 0.224223
28961.8, 0.220905
29124.5, 0.215168
29289.0, 0.210096
29455.4, 0.203987
29623.8, 0.198031
29794.0, 0.197211
29966.3, 0.203462
30140.5, 0.207009
30316.7, 0.204473
30495.1, 0.195521
30675.5, 0.188182
30858.1, 0.179870
31042.8, 0.177078
31229.8, 0.176079
31419.1, 0.169009
31610.7, 0.160364
31804.6, 0.155804
32000.9, 0.155612
32199.7, 0.156739
32400.9, 0.155523
32604.8, 0.149554
32811.1, 0.144662
33020.1, 0.138501
33231.8, 0.136824
33446.2, 0.134236
33663.4, 0.131291
33883.4, 0.130061
34106.3, 0.130791
34332.1, 0.128358
34561.0, 0.123721
34792.9, 0.125386
35028.0, 0.127167
35266.3, 0.123670
35507.8, 0.117100
35752.7, 0.111785
36001.0, 0.107545
36252.8, 0.112963
36508.1, 0.124195
36767.0, 0.137656
37029.7, 0.147569
37296.1, 0.154460
37566.3, 0.157239
37840.5, 0.161056
38118.8, 0.160095
38401.2, 0.151975
38687.8, 0.149849
38978.6, 0.150348
39273.9, 0.141217
39573.7, 0.134531
39878.1, 0.133570
40187.3, 0.128857
40501.2, 0.124247
40820.0, 0.118240
41144.0, 0.115204
41473.2, 0.111196
41807.6, 0.107110
42147.5, 0.109134
42493.0, 0.113642
42844.2, 0.117894
43201.2, 0.126001
43564.3, 0.135159
43933.5, 0.148812
44309.0, 0.172839
44691.0, 0.187964
45079.6, 0.193689
45475.0, 0.199299
45877.5, 0.198377
46287.1, 0.191358
46704.2, 0.181817
47128.7, 0.182367
47561.1, 0.178986
48001.5, 0.169086
48450.1, 0.168164
48907.2, 0.162938
49373.0, 0.154332
49847.7, 0.160454
50331.5, 0.164296
50825.0, 0.165026
51328.2, 0.164719
51841.5, 0.161670
52365.1, 0.161709
52899.4, 0.159391
53444.8, 0.161440
54001.5, 0.164245
54570.1, 0.163515
55150.6, 0.162247
55743.6, 0.160108
56349.5, 0.156791
56968.7, 0.163412
57601.7, 0.164283
58248.9, 0.160569
58910.9, 0.163656
59588.1, 0.171660
60281.0, 0.171455
60990.2, 0.171865
61716.3, 0.174030
62459.8, 0.174580
63221.6, 0.177769
64002.1, 0.184839
64802.1, 0.178000
65622.1, 0.172775
66463.4, 0.166678
67326.6, 0.174465
68212.4, 0.190167
69121.9, 0.196007
70056.0, 0.181343
71015.7, 0.163553
72002.0, 0.166384
73016.3, 0.181586
74059.4, 0.188361
75132.7, 0.189437
76237.6, 0.202565
77375.5, 0.214425
78547.9, 0.217742
79756.3, 0.241193
81002.5, 0.262812
82288.5, 0.274557
83615.7, 0.295715
84986.5, 0.311186
86402.9, 0.337519
87867.4, 0.351940
89382.4, 0.344038
90950.5, 0.358574
92574.6, 0.390248
94257.2, 0.392732
96002.7, 0.394986
97814.1, 0.410496
99695.1, 0.419154
101650.0, 0.439736
103683.0, 0.462879
105799.0, 0.478569
108003.0, 0.485562
110301.0, 0.487265
112699.0, 0.479376
115204.0, 0.513700
117822.0, 0.533693
120562.0, 0.528723
123433.0, 0.529248
126443.0, 0.535767
129604.0, 0.568888
132926.0, 0.582400
136424.0, 0.599037
140111.0, 0.602316
144003.0, 0.632580
148118.0, 0.695414
152474.0, 0.715663
157095.0, 0.683016
162004.0, 0.672975
167231.0, 0.724014
172805.0, 0.719467
178764.0, 0.612626
185148.0, 0.573153
192005.0, 0.634450
199390.0, 0.609514
207366.0, 0.611665
216006.0, 0.722720
