Database of Origin, USGS Spectral Database
Sample Description, See USGS database for additional info
Date Added,2017-07-03 06:06:54.789143

Data ID,USGS_mic04          
Sample ID, microcline_hs107.13706
Mineral Name, microcline
Material Class,Tectosilicate

Wavelength
1788.87, 0.565577
1789.49, 0.566070
1790.11, 0.565577
1790.73, 0.565166
1791.35, 0.565166
1791.96, 0.565659
1792.58, 0.565988
1793.21, 0.565823
1793.83, 0.565741
1794.45, 0.565659
1795.07, 0.565577
1795.69, 0.565906
1796.31, 0.566070
1796.93, 0.566070
1797.56, 0.565988
1798.18, 0.566070
1798.8, 0.565988
1799.43, 0.565577
1800.05, 0.565330
1800.68, 0.565659
1801.3, 0.565906
1801.93, 0.565906
1802.56, 0.565988
1803.18, 0.566152
1803.81, 0.566152
1804.44, 0.566399
1805.07, 0.566234
1805.7, 0.566152
1806.33, 0.566152
1806.95, 0.566070
1807.58, 0.566070
1808.22, 0.566399
1808.85, 0.566399
1809.48, 0.566399
1810.11, 0.566399
1810.74, 0.566399
1811.38, 0.566481
1812.01, 0.566234
1812.64, 0.565988
1813.28, 0.566070
1813.91, 0.566317
1814.55, 0.566399
1815.18, 0.566317
1815.82, 0.566234
1816.45, 0.566317
1817.09, 0.566810
1817.73, 0.567221
1818.36, 0.566810
1819.0, 0.566563
1819.64, 0.566481
1820.28, 0.565906
1820.92, 0.565823
1821.56, 0.566152
1822.2, 0.566563
1822.84, 0.567139
1823.48, 0.567221
1824.12, 0.566974
1824.76, 0.567139
1825.41, 0.566892
1826.05, 0.566317
1826.69, 0.566645
1827.34, 0.567139
1827.98, 0.567303
1828.63, 0.567303
1829.27, 0.567139
1829.92, 0.567056
1830.56, 0.566810
1831.21, 0.566645
1831.86, 0.566892
1832.5, 0.567303
1833.15, 0.567714
1833.8, 0.567878
1834.45, 0.567468
1835.1, 0.567139
1835.75, 0.567139
1836.4, 0.567303
1837.05, 0.567303
1837.7, 0.567221
1838.35, 0.567878
1839.01, 0.567878
1839.66, 0.567303
1840.31, 0.567796
1840.96, 0.568290
1841.62, 0.567303
1842.27, 0.567714
1842.93, 0.568947
1843.58, 0.569358
1844.24, 0.569358
1844.9, 0.569523
1845.55, 0.569440
1846.21, 0.568701
1846.87, 0.567632
1847.53, 0.567961
1848.18, 0.568701
1848.84, 0.569523
1849.5, 0.569934
1850.16, 0.570098
1850.82, 0.570262
1851.48, 0.570262
1852.14, 0.569852
1852.81, 0.569112
1853.47, 0.568618
1854.13, 0.569194
1854.8, 0.570345
1855.46, 0.570673
1856.12, 0.570180
1856.79, 0.570016
1857.45, 0.570427
1858.12, 0.570756
1858.79, 0.570673
1859.45, 0.569605
1860.12, 0.569769
1860.79, 0.570756
1861.46, 0.571331
1862.12, 0.571578
1862.79, 0.571413
1863.46, 0.571167
1864.13, 0.570920
1864.8, 0.571249
1865.48, 0.571496
1866.15, 0.571742
1866.82, 0.571331
1867.49, 0.570262
1868.16, 0.570427
1868.84, 0.570920
1869.51, 0.571002
1870.19, 0.570427
1870.86, 0.569523
1871.54, 0.570016
1872.21, 0.570098
1872.89, 0.569358
1873.56, 0.569687
1874.24, 0.570673
1874.92, 0.570838
1875.6, 0.570756
1876.28, 0.570427
1876.96, 0.570016
1877.64, 0.570591
1878.32, 0.570838
1879.0, 0.570838
1879.68, 0.570673
1880.36, 0.570591
1881.04, 0.571002
1881.73, 0.571002
1882.41, 0.570591
1883.09, 0.570180
1883.78, 0.569605
1884.46, 0.569687
1885.15, 0.569852
1885.83, 0.569687
1886.52, 0.569523
1887.21, 0.569605
1887.89, 0.569687
1888.58, 0.569769
1889.27, 0.569194
1889.96, 0.568207
1890.65, 0.568454
1891.34, 0.568701
1892.03, 0.568207
1892.72, 0.568207
1893.41, 0.567878
1894.1, 0.567714
1894.79, 0.567878
1895.49, 0.567468
1896.18, 0.567139
1896.87, 0.566563
1897.57, 0.566152
1898.26, 0.566070
1898.96, 0.565495
1899.65, 0.564919
1900.35, 0.565412
1901.05, 0.565988
1901.74, 0.566399
1902.44, 0.565659
1903.14, 0.565248
1903.84, 0.566070
1904.54, 0.565906
1905.24, 0.564919
1905.94, 0.565166
1906.64, 0.565495
1907.34, 0.565988
1908.04, 0.566399
1908.75, 0.566645
1909.45, 0.566892
1910.15, 0.566645
1910.86, 0.566234
1911.56, 0.566317
1912.27, 0.566481
1912.97, 0.565823
1913.68, 0.565659
1914.39, 0.566399
1915.09, 0.566728
1915.8, 0.566728
1916.51, 0.566974
1917.22, 0.567139
1917.93, 0.567303
1918.64, 0.567385
1919.35, 0.566645
1920.06, 0.565906
1920.77, 0.566070
1921.48, 0.567056
1922.19, 0.567796
1922.91, 0.568043
1923.62, 0.567796
1924.33, 0.567550
1925.05, 0.567714
1925.76, 0.568043
1926.48, 0.567961
1927.19, 0.567714
1927.91, 0.567796
1928.63, 0.567961
1929.35, 0.568290
1930.07, 0.568372
1930.78, 0.568290
1931.5, 0.568536
1932.22, 0.568783
1932.94, 0.568947
1933.66, 0.569029
1934.39, 0.569029
1935.11, 0.569276
1935.83, 0.569112
1936.55, 0.569112
1937.28, 0.569194
1938.0, 0.569358
1938.73, 0.569440
1939.45, 0.569523
1940.18, 0.569769
1940.9, 0.570180
1941.63, 0.570345
1942.36, 0.570180
1943.09, 0.570262
1943.81, 0.570345
1944.54, 0.570345
1945.27, 0.570509
1946.0, 0.570591
1946.73, 0.570509
1947.47, 0.570591
1948.2, 0.570673
1948.93, 0.570591
1949.66, 0.570756
1950.4, 0.570920
1951.13, 0.570838
1951.86, 0.570920
1952.6, 0.571084
1953.34, 0.570920
1954.07, 0.570838
1954.81, 0.571084
1955.55, 0.571084
1956.29, 0.571002
1957.02, 0.571002
1957.76, 0.571084
1958.5, 0.571084
1959.24, 0.571167
1959.98, 0.571331
1960.72, 0.571249
1961.47, 0.571249
1962.21, 0.571084
1962.95, 0.571002
1963.7, 0.571167
1964.44, 0.571331
1965.18, 0.571167
1965.93, 0.571167
1966.67, 0.571167
1967.42, 0.571413
1968.17, 0.571413
1968.92, 0.571084
1969.66, 0.571002
1970.41, 0.571002
1971.16, 0.571084
1971.91, 0.571167
1972.66, 0.571002
1973.41, 0.570673
1974.16, 0.570673
1974.92, 0.570756
1975.67, 0.570838
1976.42, 0.570756
1977.18, 0.570756
1977.93, 0.570756
1978.69, 0.570673
1979.44, 0.570591
1980.2, 0.570427
1980.95, 0.570180
1981.71, 0.570262
1982.47, 0.570180
1983.23, 0.570180
1983.99, 0.570016
1984.74, 0.569934
1985.51, 0.570016
1986.27, 0.569852
1987.03, 0.569687
1987.79, 0.569687
1988.55, 0.569769
1989.32, 0.569440
1990.08, 0.569194
1990.84, 0.569029
1991.61, 0.568865
1992.37, 0.568865
1993.14, 0.568701
1993.9, 0.568618
1994.67, 0.568947
1995.44, 0.568865
1996.21, 0.568372
1996.98, 0.568207
1997.75, 0.568043
1998.52, 0.567714
1999.29, 0.567550
2000.06, 0.567550
2000.83, 0.567550
2001.6, 0.567385
2002.38, 0.567385
2003.15, 0.567550
2003.93, 0.567632
2004.7, 0.567632
2005.48, 0.567961
2006.25, 0.568125
2007.03, 0.568207
2007.81, 0.568043
2008.58, 0.568043
2009.36, 0.568290
2010.14, 0.568454
2010.92, 0.568701
2011.7, 0.568701
2012.48, 0.568783
2013.26, 0.568783
2014.05, 0.568947
2014.83, 0.569194
2015.61, 0.569276
2016.4, 0.569194
2017.18, 0.569029
2017.97, 0.569112
2018.75, 0.569276
2019.54, 0.569194
2020.32, 0.569358
2021.11, 0.569523
2021.9, 0.569687
2022.69, 0.569852
2023.48, 0.569769
2024.27, 0.569687
2025.06, 0.569769
2025.85, 0.569769
2026.64, 0.569852
2027.44, 0.569934
2028.23, 0.570098
2029.02, 0.569934
2029.82, 0.569934
2030.61, 0.570427
2031.41, 0.570509
2032.2, 0.570180
2033.0, 0.570098
2033.8, 0.570180
2034.6, 0.570427
2035.4, 0.570673
2036.2, 0.570673
2037.0, 0.570756
2037.8, 0.570756
2038.6, 0.570591
2039.4, 0.570591
2040.2, 0.570756
2041.01, 0.571167
2041.81, 0.570920
2042.61, 0.570673
2043.42, 0.570838
2044.22, 0.571084
2045.03, 0.571331
2045.84, 0.571496
2046.65, 0.571496
2047.46, 0.571331
2048.26, 0.571413
2049.07, 0.571496
2049.88, 0.571496
2050.69, 0.571331
2051.51, 0.571167
2052.32, 0.571167
2053.13, 0.571742
2053.94, 0.571824
2054.76, 0.571742
2055.57, 0.571742
2056.39, 0.571907
2057.2, 0.571742
2058.02, 0.571660
2058.84, 0.571578
2059.66, 0.571742
2060.48, 0.571742
2061.29, 0.571742
2062.11, 0.571824
2062.94, 0.571660
2063.76, 0.571578
2064.58, 0.571578
2065.4, 0.571824
2066.22, 0.571742
2067.05, 0.571496
2067.87, 0.571413
2068.7, 0.571496
2069.52, 0.571496
2070.35, 0.571578
2071.18, 0.571578
2072.0, 0.571660
2072.83, 0.571496
2073.66, 0.571331
2074.49, 0.571084
2075.32, 0.570920
2076.15, 0.570838
2076.98, 0.570673
2077.82, 0.570345
2078.65, 0.570509
2079.48, 0.570838
2080.32, 0.570838
2081.15, 0.570509
2081.99, 0.570345
2082.83, 0.570262
2083.66, 0.570098
2084.5, 0.569687
2085.34, 0.569523
2086.18, 0.569440
2087.02, 0.568783
2087.86, 0.568372
2088.7, 0.568207
2089.54, 0.567796
2090.39, 0.567468
2091.23, 0.567468
2092.07, 0.567056
2092.92, 0.566481
2093.76, 0.566234
2094.61, 0.565988
2095.45, 0.565823
2096.3, 0.565577
2097.15, 0.565084
2098.0, 0.565001
2098.85, 0.564590
2099.7, 0.564097
2100.55, 0.563686
2101.4, 0.563850
2102.25, 0.563686
2103.1, 0.563357
2103.96, 0.563522
2104.81, 0.563522
2105.67, 0.563111
2106.52, 0.562946
2107.38, 0.562864
2108.24, 0.562864
2109.09, 0.562864
2109.95, 0.562699
2110.81, 0.562535
2111.67, 0.562371
2112.53, 0.562206
2113.39, 0.562124
2114.25, 0.562206
2115.12, 0.562124
2115.98, 0.562124
2116.84, 0.561960
2117.71, 0.561877
2118.58, 0.561960
2119.44, 0.561877
2120.31, 0.561960
2121.18, 0.561960
2122.04, 0.561960
2122.91, 0.562124
2123.78, 0.562371
2124.65, 0.562535
2125.52, 0.562535
2126.4, 0.562371
2127.27, 0.562535
2128.14, 0.562864
2129.02, 0.562946
2129.89, 0.563111
2130.77, 0.562946
2131.64, 0.562699
2132.52, 0.562946
2133.4, 0.563111
2134.27, 0.563028
2135.15, 0.563193
2136.03, 0.563357
2136.91, 0.563357
2137.79, 0.563439
2138.68, 0.563275
2139.56, 0.563111
2140.44, 0.562946
2141.33, 0.563028
2142.21, 0.563111
2143.1, 0.563028
2143.99, 0.562946
2144.87, 0.562699
2145.76, 0.562535
2146.65, 0.562535
2147.54, 0.562371
2148.43, 0.562288
2149.32, 0.562124
2150.21, 0.561795
2151.1, 0.561631
2151.99, 0.561466
2152.89, 0.561220
2153.78, 0.560973
2154.68, 0.560480
2155.57, 0.560069
2156.47, 0.559822
2157.37, 0.559493
2158.27, 0.558754
2159.16, 0.558014
2160.06, 0.557356
2160.96, 0.556698
2161.86, 0.555876
2162.77, 0.555219
2163.67, 0.554314
2164.57, 0.553328
2165.48, 0.552177
2166.38, 0.551273
2167.29, 0.550040
2168.2, 0.548642
2169.1, 0.547245
2170.01, 0.546012
2170.92, 0.544779
2171.83, 0.543546
2172.74, 0.542395
2173.65, 0.540997
2174.56, 0.539189
2175.47, 0.537134
2176.39, 0.534996
2177.3, 0.532859
2178.22, 0.530557
2179.13, 0.528255
2180.05, 0.526036
2180.96, 0.523816
2181.88, 0.521186
2182.8, 0.518391
2183.72, 0.515596
2184.64, 0.512718
2185.56, 0.509923
2186.48, 0.507375
2187.41, 0.504744
2188.33, 0.502525
2189.25, 0.500552
2190.18, 0.498661
2191.1, 0.496770
2192.03, 0.494962
2192.96, 0.493647
2193.89, 0.492907
2194.82, 0.492413
2195.74, 0.492085
2196.68, 0.492331
2197.61, 0.492824
2198.54, 0.493400
2199.47, 0.494386
2200.4, 0.495948
2201.34, 0.497839
2202.28, 0.499730
2203.21, 0.501621
2204.15, 0.504087
2205.08, 0.506799
2206.02, 0.509841
2206.96, 0.512718
2207.9, 0.515678
2208.84, 0.519130
2209.78, 0.522583
2210.73, 0.525707
2211.67, 0.528666
2212.61, 0.531708
2213.56, 0.534585
2214.5, 0.537051
2215.45, 0.539435
2216.4, 0.541490
2217.35, 0.543217
2218.3, 0.544943
2219.24, 0.546587
2220.2, 0.548149
2221.15, 0.549382
2222.1, 0.550369
2223.05, 0.551191
2224.0, 0.551931
2224.96, 0.552588
2225.91, 0.553328
2226.87, 0.553739
2227.83, 0.554150
2228.79, 0.554726
2229.74, 0.555383
2230.7, 0.555794
2231.66, 0.556123
2232.63, 0.556205
2233.59, 0.556287
2234.55, 0.556781
2235.51, 0.557027
2236.48, 0.557274
2237.44, 0.557521
2238.41, 0.557932
2239.38, 0.558425
2240.34, 0.558589
2241.31, 0.558754
2242.28, 0.559000
2243.25, 0.559247
2244.22, 0.559329
2245.19, 0.559411
2246.17, 0.559576
2247.14, 0.559658
2248.12, 0.560069
2249.09, 0.560316
2250.07, 0.560398
2251.04, 0.560562
2252.02, 0.560727
2253.0, 0.560891
2253.98, 0.561138
2254.96, 0.561302
2255.94, 0.561549
2256.92, 0.561713
2257.91, 0.561795
2258.89, 0.562042
2259.88, 0.562288
2260.86, 0.562206
2261.85, 0.562288
2262.83, 0.562371
2263.82, 0.562617
2264.81, 0.562864
2265.8, 0.562864
2266.79, 0.562946
2267.78, 0.562864
2268.78, 0.563005
2269.77, 0.562581
2270.76, 0.562652
2271.76, 0.563076
2272.75, 0.562935
2273.75, 0.562298
2274.75, 0.561803
2275.75, 0.561591
2276.75, 0.561237
2277.75, 0.561379
2278.75, 0.561662
2279.75, 0.561662
2280.75, 0.561520
2281.76, 0.560955
2282.76, 0.560813
2283.77, 0.561025
2284.77, 0.561025
2285.78, 0.560601
2286.79, 0.560459
2287.8, 0.560459
2288.81, 0.559964
2289.82, 0.559682
2290.83, 0.559257
2291.84, 0.558833
2292.86, 0.558338
2293.87, 0.557631
2294.89, 0.557631
2295.91, 0.557631
2296.92, 0.556570
2297.94, 0.555650
2298.96, 0.555438
2299.98, 0.555014
2301.0, 0.554519
2302.02, 0.554095
2303.04, 0.553387
2304.07, 0.552822
2305.09, 0.552185
2306.12, 0.551407
2307.15, 0.550629
2308.17, 0.549993
2309.2, 0.549215
2310.23, 0.548225
2311.26, 0.547305
2312.29, 0.546598
2313.32, 0.546103
2314.35, 0.545891
2315.39, 0.544901
2316.42, 0.543840
2317.46, 0.542921
2318.5, 0.541789
2319.53, 0.540870
2320.57, 0.540163
2321.61, 0.539173
2322.65, 0.538253
2323.69, 0.537051
2324.73, 0.535778
2325.78, 0.534859
2326.82, 0.534293
2327.86, 0.532949
2328.91, 0.531535
2329.96, 0.530898
2331.01, 0.530050
2332.05, 0.528777
2333.1, 0.527857
2334.15, 0.527150
2335.21, 0.526089
2336.26, 0.524746
2337.31, 0.523756
2338.36, 0.523685
2339.42, 0.523190
2340.48, 0.522483
2341.53, 0.521775
2342.59, 0.520927
2343.65, 0.520432
2344.71, 0.520078
2345.77, 0.519654
2346.83, 0.519583
2347.9, 0.519371
2348.96, 0.518876
2350.02, 0.519088
2351.09, 0.519442
2352.16, 0.520078
2353.23, 0.520927
2354.29, 0.521280
2355.36, 0.521563
2356.43, 0.522129
2357.51, 0.522412
2358.58, 0.522907
2359.65, 0.523402
2360.73, 0.523968
2361.8, 0.524392
2362.88, 0.524604
2363.96, 0.524816
2365.03, 0.525170
2366.11, 0.525170
2367.19, 0.524675
2368.27, 0.524251
2369.36, 0.524180
2370.44, 0.524463
2371.53, 0.524251
2372.61, 0.523897
2373.7, 0.524109
2374.78, 0.524109
2375.87, 0.523968
2376.96, 0.524180
2378.05, 0.524251
2379.14, 0.524180
2380.24, 0.524392
2381.33, 0.524392
2382.42, 0.524675
2383.52, 0.524887
2384.61, 0.524746
2385.71, 0.524321
2386.81, 0.524463
2387.91, 0.524604
2389.01, 0.524604
2390.11, 0.524604
2391.22, 0.524392
2392.32, 0.524746
2393.42, 0.525170
2394.53, 0.525029
2395.64, 0.524392
2396.74, 0.524038
2397.85, 0.524038
2398.96, 0.523473
2400.07, 0.523119
2401.18, 0.522907
2402.3, 0.522270
2403.41, 0.521351
2404.52, 0.520573
2405.64, 0.519795
2406.76, 0.518805
2407.88, 0.517956
2408.99, 0.516825
2410.11, 0.515411
2411.23, 0.514562
2412.36, 0.513713
2413.48, 0.512370
2414.6, 0.511238
2415.73, 0.510672
2416.85, 0.509753
2417.98, 0.508621
2419.11, 0.507561
2420.24, 0.506500
2421.37, 0.505227
2422.5, 0.504307
2423.64, 0.503317
2424.77, 0.502257
2425.9, 0.501479
2427.04, 0.500559
2428.18, 0.499428
2429.31, 0.498650
2430.45, 0.498084
2431.59, 0.497518
2432.73, 0.497023
2433.88, 0.496528
2435.02, 0.495821
2436.16, 0.495750
2437.31, 0.495538
2438.45, 0.495326
2439.6, 0.495397
2440.75, 0.495680
2441.9, 0.495680
2443.05, 0.495962
2444.2, 0.496245
2445.35, 0.496457
2446.51, 0.496670
2447.67, 0.496882
2448.82, 0.497094
2449.98, 0.497660
2451.14, 0.498013
2452.3, 0.498579
2453.46, 0.499145
2454.62, 0.499711
2455.78, 0.500276
2456.94, 0.500276
2458.11, 0.500489
2459.28, 0.501125
2460.44, 0.501761
2461.61, 0.502327
2462.78, 0.502539
2463.95, 0.502681
2465.12, 0.502964
2466.3, 0.503530
2467.47, 0.503671
2468.65, 0.503954
2469.82, 0.504661
2471.0, 0.505156
2472.18, 0.505368
2473.36, 0.505439
2474.54, 0.505934
2475.72, 0.506429
2476.9, 0.506641
2478.08, 0.506712
2479.27, 0.506924
2480.46, 0.507419
2481.64, 0.507348
2482.83, 0.507490
2484.02, 0.507561
2485.21, 0.507843
2486.4, 0.507843
2487.6, 0.507843
2488.79, 0.508268
2489.99, 0.508197
2491.18, 0.508268
2492.38, 0.508763
2493.58, 0.508904
2494.78, 0.509046
2495.98, 0.509399
2497.18, 0.509682
2498.39, 0.510036
2499.59, 0.510672
2500.8, 0.510884
2502.01, 0.511026
2503.21, 0.511309
2504.42, 0.512087
2505.63, 0.512794
2506.84, 0.513218
2508.06, 0.513289
2509.27, 0.513784
2510.49, 0.514350
2511.7, 0.514916
2512.92, 0.515269
2514.14, 0.515411
2515.36, 0.515835
2516.58, 0.516401
2517.8, 0.517108
2519.03, 0.517603
2520.25, 0.518027
2521.48, 0.518098
2522.7, 0.518310
2523.93, 0.518664
2525.16, 0.519229
2526.39, 0.519654
2527.62, 0.519866
2528.86, 0.520007
2530.09, 0.520078
2531.33, 0.519654
2532.56, 0.519512
2533.8, 0.519937
2535.04, 0.519512
2536.28, 0.519583
2537.52, 0.520502
2538.76, 0.521068
2540.01, 0.521139
2541.25, 0.520220
2542.5, 0.518734
2543.75, 0.518876
2544.99, 0.519583
2546.24, 0.519017
2547.49, 0.517603
2548.75, 0.517886
2550.0, 0.517532
2551.26, 0.516189
2552.51, 0.515128
2553.77, 0.516754
2555.03, 0.518169
2556.29, 0.517886
2557.55, 0.517603
2558.81, 0.515906
2560.08, 0.511238
2561.34, 0.507490
2562.61, 0.507490
2563.88, 0.508409
2565.14, 0.511450
2566.41, 0.514350
2567.68, 0.513289
2568.96, 0.509046
2570.23, 0.509258
2571.51, 0.511238
2572.78, 0.506146
2574.06, 0.506712
2575.34, 0.508904
2576.62, 0.507348
2577.9, 0.509329
2579.18, 0.510743
2580.47, 0.507985
2581.75, 0.506995
2583.04, 0.501832
2584.32, 0.501266
2585.61, 0.505368
2586.9, 0.503317
2588.2, 0.503742
2589.49, 0.505227
2590.78, 0.506500
2592.08, 0.504166
2593.37, 0.490658
2594.67, 0.478212
2595.97, 0.487405
2597.27, 0.499003
2598.57, 0.502610
2599.88, 0.501266
2601.18, 0.498084
2602.49, 0.495538
2603.79, 0.491153
2605.1, 0.485142
2606.41, 0.487617
2607.72, 0.492002
2609.03, 0.492568
2610.35, 0.493699
2611.66, 0.495255
2612.98, 0.494477
2614.3, 0.494548
2615.62, 0.488537
2616.94, 0.484859
2618.26, 0.489315
2619.58, 0.485779
2620.91, 0.486557
2622.23, 0.494265
2623.56, 0.496528
2624.89, 0.493629
2626.22, 0.487830
2627.55, 0.490800
2628.88, 0.489456
2630.21, 0.483374
2631.55, 0.488961
2632.89, 0.492921
2634.22, 0.493629
2635.56, 0.496316
2636.9, 0.497023
2638.25, 0.497235
2639.59, 0.496245
2640.93, 0.495467
2642.28, 0.494972
2643.63, 0.494972
2644.98, 0.492356
2646.33, 0.492144
2647.68, 0.493629
2649.03, 0.493841
2650.39, 0.491790
2651.74, 0.487759
2653.1, 0.486769
2654.46, 0.487122
2655.82, 0.486274
2657.18, 0.486910
2658.54, 0.483303
2659.9, 0.480616
2661.27, 0.480050
2662.64, 0.478636
2664.01, 0.469372
2665.38, 0.460885
2666.74, 0.460107
2668.12, 0.464280
2669.49, 0.455369
2670.87, 0.452540
2672.24, 0.463219
2673.62, 0.464845
2675.0, 0.459400
2676.38, 0.453035
2677.76, 0.452116
2679.15, 0.451550
2680.54, 0.454662
2681.92, 0.453955
2683.31, 0.450489
2684.7, 0.447943
2686.09, 0.445114
2687.48, 0.442356
2688.88, 0.438891
2690.27, 0.433799
2691.67, 0.423898
2693.07, 0.406572
2694.47, 0.391508
2695.87, 0.380617
2697.27, 0.370646
2698.67, 0.360533
2700.08, 0.349925
2701.49, 0.341509
2702.9, 0.337195
2704.31, 0.332457
2705.72, 0.327577
2707.13, 0.320293
2708.54, 0.309119
2709.96, 0.294621
2711.38, 0.282104
2712.8, 0.272415
2714.22, 0.258271
2715.64, 0.242218
2717.06, 0.225952
2718.49, 0.209545
2719.91, 0.192430
2721.34, 0.181822
2722.77, 0.173053
2724.2, 0.162940
2725.63, 0.157424
2727.07, 0.153251
2728.5, 0.148584
2729.94, 0.144128
2731.38, 0.140309
2732.82, 0.136703
2734.26, 0.132813
2735.7, 0.130550
2737.15, 0.128358
2738.59, 0.123902
2740.04, 0.120366
2741.49, 0.119376
2742.94, 0.119235
2744.39, 0.118386
2745.84, 0.117820
2747.3, 0.117679
2748.76, 0.117537
2750.21, 0.116972
2751.67, 0.116547
2753.14, 0.115982
2754.6, 0.113931
2756.06, 0.114638
2757.53, 0.117537
2759.0, 0.119447
2760.46, 0.120366
2761.94, 0.120932
2763.41, 0.123124
2764.88, 0.126448
2766.36, 0.129206
2767.83, 0.132530
2769.31, 0.136420
2770.79, 0.140734
2772.27, 0.147311
2773.76, 0.154878
2775.24, 0.162233
2776.73, 0.169870
2778.22, 0.178286
2779.71, 0.186843
2781.2, 0.195471
2782.69, 0.204523
2784.18, 0.213081
2785.68, 0.219233
2787.18, 0.225245
2788.68, 0.232387
2790.18, 0.238540
2791.68, 0.242854
2793.19, 0.246319
2794.69, 0.249431
2796.2, 0.252260
2797.71, 0.254664
2799.22, 0.256432
2800.73, 0.257281
2802.24, 0.257140
2803.76, 0.257210
2805.28, 0.256079
2806.8, 0.254028
2808.32, 0.254735
2809.84, 0.259756
2811.36, 0.266333
2812.89, 0.271566
2814.42, 0.275244
2815.94, 0.278214
2817.48, 0.279982
2819.01, 0.280831
2820.54, 0.282104
2822.08, 0.283448
2823.61, 0.284367
2825.15, 0.284579
2826.69, 0.284367
2828.23, 0.284579
2829.78, 0.285003
2831.32, 0.285003
2832.87, 0.284933
2834.42, 0.284791
2835.97, 0.284862
2837.52, 0.285003
2839.08, 0.285357
2840.63, 0.285711
2842.19, 0.285852
2843.75, 0.286347
2845.31, 0.286559
2846.87, 0.286418
2848.44, 0.285923
2850.0, 0.285640
2851.57, 0.285711
2853.14, 0.285498
2854.71, 0.285357
2856.28, 0.285428
2857.86, 0.285357
2859.43, 0.285074
2861.01, 0.284720
2862.59, 0.284438
2864.17, 0.284013
2865.76, 0.283448
2867.34, 0.283023
2868.93, 0.282599
2870.52, 0.281821
2872.11, 0.281255
2873.7, 0.280760
2875.29, 0.280124
2876.89, 0.279204
2878.49, 0.278639
2880.08, 0.278214
2881.69, 0.277366
2883.29, 0.276800
2884.89, 0.276305
2886.5, 0.275668
2888.11, 0.274890
2889.72, 0.274325
2891.33, 0.273688
2892.94, 0.272769
2894.56, 0.271991
2896.17, 0.271425
2897.79, 0.270930
2899.42, 0.270364
2901.04, 0.269798
2902.66, 0.269516
2904.29, 0.269162
2905.92, 0.268808
2907.55, 0.268243
2909.18, 0.267677
2910.81, 0.267394
2912.45, 0.266899
2914.08, 0.266050
2915.72, 0.265485
2917.36, 0.264707
2919.01, 0.263929
2920.65, 0.263080
2922.3, 0.262231
2923.94, 0.261171
2925.59, 0.260393
2927.25, 0.259403
2928.9, 0.258412
2930.56, 0.257281
2932.21, 0.256432
2933.87, 0.255513
2935.53, 0.254806
2937.2, 0.254169
2938.86, 0.253603
2940.53, 0.253250
2942.2, 0.253179
2943.87, 0.253321
2945.54, 0.253533
2947.22, 0.254028
2948.89, 0.254735
2950.57, 0.255513
2952.25, 0.256149
2953.93, 0.256857
2955.62, 0.257776
2957.3, 0.258412
2958.99, 0.258978
2960.68, 0.259756
2962.37, 0.260463
2964.07, 0.260888
2965.76, 0.261171
2967.46, 0.261524
2969.16, 0.261736
2970.86, 0.261807
2972.56, 0.261807
2974.27, 0.261383
2975.98, 0.260746
2977.69, 0.260393
2979.4, 0.259756
2981.11, 0.258695
2982.83, 0.257564
2984.54, 0.256291
2986.26, 0.254664
2987.98, 0.252613
2989.71, 0.250350
2991.43, 0.248158
2993.16, 0.245541
2994.89, 0.242642
2996.62, 0.239530
2998.35, 0.236701
3000.09, 0.234155
3001.83, 0.231680
3003.57, 0.229629
3005.31, 0.228639
3007.05, 0.228356
3008.79, 0.228922
3010.54, 0.230054
3012.29, 0.231397
3014.04, 0.233236
3015.8, 0.235145
3017.55, 0.236843
3019.31, 0.238469
3021.07, 0.240096
3022.83, 0.241510
3024.59, 0.242500
3026.36, 0.243490
3028.13, 0.244268
3029.9, 0.244622
3031.67, 0.244905
3033.44, 0.244976
3035.22, 0.245117
3037.0, 0.245117
3038.78, 0.244976
3040.56, 0.244834
3042.34, 0.244410
3044.13, 0.243773
3045.92, 0.243349
3047.71, 0.242995
3049.5, 0.242500
3051.3, 0.241864
3053.09, 0.241369
3054.89, 0.241015
3056.69, 0.240732
3058.5, 0.240379
3060.3, 0.240167
3062.11, 0.240096
3063.92, 0.240308
3065.73, 0.240450
3067.55, 0.240803
3069.36, 0.241227
3071.18, 0.241581
3073.0, 0.241935
3074.82, 0.242430
3076.65, 0.243066
3078.48, 0.243632
3080.31, 0.243773
3082.14, 0.243915
3083.97, 0.244268
3085.8, 0.244693
3087.64, 0.245046
3089.48, 0.245329
3091.33, 0.245471
3093.17, 0.245541
3095.02, 0.245966
3096.87, 0.246249
3098.72, 0.246461
3100.57, 0.246956
3102.43, 0.247380
3104.28, 0.247875
3106.14, 0.248441
3108.01, 0.249077
3109.87, 0.249572
3111.74, 0.249997
3113.61, 0.250704
3115.48, 0.251340
3117.35, 0.251977
3119.23, 0.252755
3121.1, 0.253674
3122.98, 0.254664
3124.87, 0.255584
3126.75, 0.256432
3128.64, 0.257493
3130.53, 0.258554
3132.42, 0.259473
3134.31, 0.260463
3136.21, 0.261666
3138.11, 0.262868
3140.01, 0.263787
3141.91, 0.264989
3143.82, 0.266333
3145.73, 0.267394
3147.64, 0.268526
3149.55, 0.269940
3151.46, 0.271425
3153.38, 0.272769
3155.3, 0.274042
3157.22, 0.275244
3159.14, 0.276517
3161.07, 0.277931
3163.0, 0.279558
3164.93, 0.281184
3166.86, 0.282740
3168.8, 0.284225
3170.74, 0.285711
3172.68, 0.287479
3174.62, 0.289247
3176.56, 0.290802
3178.51, 0.292429
3180.46, 0.294126
3182.42, 0.295753
3184.37, 0.297309
3186.33, 0.298794
3188.29, 0.300208
3190.25, 0.301481
3192.21, 0.302542
3194.18, 0.303815
3196.15, 0.305017
3198.12, 0.305795
3200.09, 0.306644
3202.07, 0.307351
3204.05, 0.307846
3206.03, 0.308412
3208.02, 0.308765
3210.0, 0.308836
3211.99, 0.308695
3213.98, 0.308624
3215.98, 0.308695
3217.97, 0.308624
3219.97, 0.308624
3221.97, 0.308765
3223.98, 0.309260
3225.98, 0.309614
3227.99, 0.309897
3230.0, 0.310604
3232.02, 0.311311
3234.03, 0.311806
3236.05, 0.312372
3238.07, 0.312584
3240.1, 0.312584
3242.12, 0.312514
3244.15, 0.312089
3246.18, 0.311311
3248.22, 0.310463
3250.25, 0.309614
3252.29, 0.308765
3254.33, 0.307917
3256.38, 0.307139
3258.43, 0.306432
3260.47, 0.306149
3262.53, 0.306149
3264.58, 0.306715
3266.64, 0.307775
3268.7, 0.309119
3270.76, 0.310816
3272.82, 0.312867
3274.89, 0.315060
3276.96, 0.317464
3279.04, 0.320081
3281.11, 0.322627
3283.19, 0.325385
3285.27, 0.328143
3287.35, 0.330830
3289.44, 0.333518
3291.53, 0.336346
3293.62, 0.338892
3295.71, 0.341368
3297.81, 0.343843
3299.91, 0.346389
3302.01, 0.348793
3304.11, 0.351198
3306.22, 0.353390
3308.33, 0.355441
3310.44, 0.357704
3312.56, 0.359684
3314.68, 0.361381
3316.8, 0.363149
3318.92, 0.365059
3321.05, 0.366898
3323.18, 0.368878
3325.31, 0.370929
3327.44, 0.372838
3329.58, 0.374677
3331.72, 0.376516
3333.86, 0.378071
3336.01, 0.379557
3338.16, 0.381183
3340.31, 0.382598
3342.46, 0.383800
3344.61, 0.385144
3346.77, 0.386275
3348.94, 0.387336
3351.1, 0.388326
3353.27, 0.389245
3355.44, 0.390165
3357.61, 0.390660
3359.79, 0.390872
3361.97, 0.390730
3364.15, 0.390448
3366.33, 0.390094
3368.52, 0.389670
3370.71, 0.389316
3372.9, 0.389245
3375.1, 0.389811
3377.3, 0.391013
3379.5, 0.392994
3381.71, 0.395398
3383.91, 0.397803
3386.12, 0.400065
3388.34, 0.401975
3390.55, 0.403389
3392.77, 0.404379
3394.99, 0.404874
3397.22, 0.404874
3399.45, 0.404592
3401.68, 0.404309
3403.91, 0.403955
3406.15, 0.403531
3408.39, 0.403248
3410.63, 0.402824
3412.87, 0.402753
3415.12, 0.403036
3417.37, 0.403672
3419.63, 0.405016
3421.88, 0.406855
3424.14, 0.408906
3426.41, 0.410957
3428.67, 0.413220
3430.94, 0.415624
3433.21, 0.417887
3435.49, 0.419867
3437.77, 0.421282
3440.05, 0.422342
3442.33, 0.423333
3444.62, 0.424111
3446.91, 0.424747
3449.2, 0.425313
3451.5, 0.425666
3453.8, 0.426091
3456.1, 0.426586
3458.41, 0.427010
3460.72, 0.427364
3463.03, 0.427505
3465.34, 0.427293
3467.66, 0.427010
3469.98, 0.426444
3472.31, 0.426091
3474.63, 0.426161
3476.96, 0.426303
3479.3, 0.426727
3481.64, 0.427151
3483.97, 0.427717
3486.32, 0.428283
3488.66, 0.428566
3491.01, 0.428212
3493.36, 0.427647
3495.72, 0.426586
3498.08, 0.425313
3500.44, 0.424393
3502.81, 0.423828
3505.18, 0.423757
3507.55, 0.424323
3509.92, 0.425878
3512.3, 0.428283
3514.68, 0.430970
3517.06, 0.433799
3519.45, 0.436628
3521.84, 0.439315
3524.24, 0.441720
3526.64, 0.443983
3529.04, 0.446246
3531.44, 0.448509
3533.85, 0.450560
3536.26, 0.452186
3538.67, 0.453742
3541.09, 0.455298
3543.51, 0.456783
3545.93, 0.458056
3548.36, 0.459188
3550.79, 0.460319
3553.22, 0.461380
3555.66, 0.462512
3558.1, 0.463643
3560.54, 0.464633
3562.99, 0.465694
3565.44, 0.466967
3567.9, 0.468240
3570.35, 0.469442
3572.81, 0.470432
3575.28, 0.471776
3577.75, 0.472837
3580.22, 0.473686
3582.69, 0.474817
3585.17, 0.475878
3587.65, 0.476797
3590.14, 0.477575
3592.62, 0.478282
3595.11, 0.478919
3597.61, 0.479485
3600.11, 0.480263
3602.61, 0.480899
3605.11, 0.481535
3607.62, 0.481960
3610.14, 0.482455
3612.65, 0.482808
3615.17, 0.483021
3617.69, 0.483303
3620.22, 0.483728
3622.75, 0.484011
3625.28, 0.484152
3627.82, 0.484364
3630.36, 0.484576
3632.9, 0.484718
3635.45, 0.484789
3638.0, 0.484859
3640.56, 0.484930
3643.12, 0.485072
3645.68, 0.485213
3648.24, 0.485284
3650.81, 0.485354
3653.39, 0.485284
3655.96, 0.485354
3658.54, 0.485425
3661.13, 0.485425
3663.71, 0.485496
3666.3, 0.485637
3668.9, 0.485567
3671.5, 0.485567
3674.1, 0.485567
3676.7, 0.485637
3679.31, 0.485779
3681.93, 0.485849
3684.54, 0.485779
3687.17, 0.485708
3689.79, 0.485779
3692.42, 0.485849
3695.05, 0.485920
3697.69, 0.485779
3700.32, 0.485567
3702.97, 0.485496
3705.61, 0.485354
3708.27, 0.485213
3710.92, 0.485072
3713.58, 0.485001
3716.24, 0.485142
3718.91, 0.485284
3721.58, 0.485354
3724.25, 0.485284
3726.93, 0.485284
3729.61, 0.485284
3732.29, 0.485284
3734.98, 0.485354
3737.67, 0.485567
3740.37, 0.485708
3743.07, 0.485991
3745.78, 0.486344
3748.49, 0.486698
3751.2, 0.486981
3753.91, 0.487264
3756.63, 0.487547
3759.36, 0.487617
3762.09, 0.487688
3764.82, 0.487688
3767.55, 0.487759
3770.29, 0.487688
3773.04, 0.487830
3775.78, 0.487900
3778.54, 0.487830
3781.29, 0.487759
3784.05, 0.487617
3786.82, 0.487547
3789.59, 0.487476
3792.36, 0.487335
3795.13, 0.487335
3797.92, 0.487264
3800.7, 0.487052
3803.49, 0.486981
3806.28, 0.486840
3809.08, 0.486627
3811.88, 0.486486
3814.68, 0.486344
3817.49, 0.485991
3820.31, 0.485567
3823.12, 0.485284
3825.94, 0.484789
3828.77, 0.484364
3831.6, 0.484152
3834.43, 0.483940
3837.27, 0.483445
3840.11, 0.482950
3842.96, 0.482667
3845.81, 0.482172
3848.67, 0.481677
3851.53, 0.481253
3854.39, 0.480616
3857.26, 0.480050
3860.13, 0.479555
3863.01, 0.478919
3865.89, 0.478424
3868.77, 0.477999
3871.66, 0.477717
3874.55, 0.477434
3877.45, 0.477222
3880.35, 0.476939
3883.26, 0.476656
3886.17, 0.476444
3889.09, 0.476373
3892.01, 0.476302
3894.93, 0.476231
3897.86, 0.476302
3900.79, 0.476161
3903.73, 0.475949
3906.67, 0.475949
3909.62, 0.475807
3912.57, 0.475595
3915.52, 0.475312
3918.48, 0.475100
3921.45, 0.474817
3924.42, 0.474534
3927.39, 0.474251
3930.37, 0.473898
3933.35, 0.473403
3936.34, 0.473120
3939.33, 0.472978
3942.32, 0.472554
3945.32, 0.472200
3948.33, 0.471847
3951.34, 0.471422
3954.35, 0.471069
3957.37, 0.470786
3960.39, 0.470362
3963.42, 0.470008
3966.45, 0.469725
3969.49, 0.469442
3972.53, 0.469159
3975.58, 0.468806
3978.63, 0.468523
3981.68, 0.468452
3984.75, 0.468240
3987.81, 0.468311
3990.88, 0.468523
3993.95, 0.468594
3997.03, 0.468523
4000.12, 0.468452
4003.21, 0.468381
4006.3, 0.468240
4009.4, 0.468169
4012.5, 0.468099
4015.61, 0.468099
4018.72, 0.467957
4021.84, 0.467745
4024.96, 0.467674
4028.09, 0.467674
4031.22, 0.467604
4034.36, 0.467533
4037.5, 0.467391
4040.65, 0.467179
4043.8, 0.467109
4046.96, 0.467038
4050.12, 0.466896
4053.29, 0.466684
4056.46, 0.466543
4059.64, 0.466401
4062.82, 0.466189
4066.0, 0.465977
4069.19, 0.465836
4072.39, 0.465623
4075.59, 0.465411
4078.8, 0.465199
4082.01, 0.464916
4085.23, 0.464633
4088.45, 0.464138
4091.68, 0.463785
4094.91, 0.463573
4098.15, 0.463148
4101.39, 0.462724
4104.63, 0.462370
4107.89, 0.461875
4111.14, 0.461239
4114.41, 0.460673
4117.67, 0.460249
4120.95, 0.459754
4124.23, 0.459188
4127.51, 0.458481
4130.8, 0.457773
4134.09, 0.457208
4137.39, 0.456430
4140.7, 0.455652
4144.01, 0.454732
4147.32, 0.453813
4150.64, 0.452752
4153.97, 0.451550
4157.3, 0.450065
4160.64, 0.448650
4163.98, 0.447448
4167.33, 0.446105
4170.68, 0.444619
4174.04, 0.442922
4177.4, 0.440801
4180.77, 0.438467
4184.14, 0.436133
4187.52, 0.433304
4190.91, 0.429980
4194.3, 0.426161
4197.69, 0.421635
4201.1, 0.416331
4204.5, 0.410320
4207.92, 0.403036
4211.34, 0.394762
4214.76, 0.385426
4218.19, 0.375243
4221.62, 0.364564
4225.06, 0.353673
4228.51, 0.342994
4231.96, 0.332952
4235.42, 0.323758
4238.88, 0.315413
4242.35, 0.308129
4245.83, 0.301623
4249.31, 0.295541
4252.79, 0.289742
4256.28, 0.283801
4259.78, 0.278002
4263.29, 0.272910
4266.79, 0.270081
4270.31, 0.270647
4273.83, 0.273335
4277.35, 0.276871
4280.89, 0.280689
4284.42, 0.284933
4287.97, 0.289671
4291.52, 0.294834
4295.07, 0.300562
4298.63, 0.306644
4302.2, 0.313009
4305.78, 0.319373
4309.35, 0.325526
4312.94, 0.331467
4316.53, 0.336983
4320.13, 0.341933
4323.73, 0.346318
4327.34, 0.350137
4330.96, 0.353178
4334.58, 0.355441
4338.21, 0.357209
4341.84, 0.358482
4345.48, 0.359260
4349.12, 0.359684
4352.77, 0.359613
4356.43, 0.359260
4360.1, 0.358553
4363.76, 0.357563
4367.44, 0.356431
4371.12, 0.355087
4374.81, 0.353461
4378.51, 0.351693
4382.21, 0.349854
4385.92, 0.347874
4389.63, 0.345964
4393.35, 0.344196
4397.08, 0.342570
4400.81, 0.340943
4404.55, 0.338963
4408.29, 0.337124
4412.04, 0.335427
4415.8, 0.333800
4419.57, 0.332103
4423.34, 0.330477
4427.12, 0.328850
4430.9, 0.327153
4434.69, 0.325314
4438.49, 0.323546
4442.29, 0.321637
4446.1, 0.319586
4449.92, 0.317323
4453.74, 0.314989
4457.57, 0.312372
4461.41, 0.309614
4465.25, 0.306785
4469.1, 0.303815
4472.95, 0.300915
4476.82, 0.298016
4480.69, 0.295258
4484.56, 0.292641
4488.44, 0.289954
4492.33, 0.287479
4496.23, 0.285003
4500.13, 0.282599
4504.04, 0.280265
4507.96, 0.277861
4511.88, 0.275385
4515.81, 0.272910
4519.75, 0.270294
4523.69, 0.267677
4527.65, 0.264848
4531.6, 0.261878
4535.57, 0.258908
4539.54, 0.255937
4543.52, 0.252896
4547.5, 0.249714
4551.5, 0.246461
4555.5, 0.243137
4559.5, 0.239813
4563.52, 0.236560
4567.54, 0.233448
4571.56, 0.230690
4575.6, 0.228073
4579.64, 0.225669
4583.69, 0.223618
4587.75, 0.221850
4591.81, 0.220365
4595.88, 0.218809
4599.96, 0.217041
4604.04, 0.215061
4608.14, 0.213081
4612.24, 0.211101
4616.34, 0.209050
4620.46, 0.206857
4624.58, 0.204736
4628.71, 0.202614
4632.84, 0.200634
4636.99, 0.198583
4641.14, 0.196532
4645.3, 0.194552
4649.47, 0.192713
4653.64, 0.191228
4657.82, 0.189884
4662.01, 0.188399
4666.21, 0.186985
4670.41, 0.185924
4674.62, 0.185005
4678.84, 0.184156
4683.07, 0.183520
4687.3, 0.183024
4691.54, 0.182742
4695.79, 0.182529
4700.05, 0.182529
4704.31, 0.182883
4708.59, 0.183378
4712.87, 0.184015
4717.15, 0.184934
4721.45, 0.185924
4725.76, 0.186985
4730.07, 0.187833
4734.39, 0.188258
4738.72, 0.188399
4743.05, 0.187904
4747.39, 0.186843
4751.75, 0.185429
4756.1, 0.183873
4760.47, 0.182600
4764.85, 0.181539
4769.23, 0.180832
4773.62, 0.180549
4778.02, 0.180479
4782.43, 0.180549
4786.85, 0.180620
4791.27, 0.180832
4795.7, 0.181186
4800.14, 0.181610
4804.59, 0.182247
4809.05, 0.183024
4813.51, 0.183944
4817.99, 0.185005
4822.47, 0.186065
4826.96, 0.186773
4831.46, 0.187268
4835.96, 0.187409
4840.48, 0.187551
4845.0, 0.187833
4849.54, 0.187975
4854.08, 0.187904
4858.63, 0.187763
4863.18, 0.187409
4867.75, 0.186490
4872.33, 0.185217
4876.91, 0.183944
4881.5, 0.182529
4886.1, 0.180691
4890.71, 0.178711
4895.33, 0.176801
4899.96, 0.174962
4904.59, 0.173336
4909.24, 0.171992
4913.89, 0.170931
4918.55, 0.170224
4923.22, 0.170012
4927.9, 0.170083
4932.59, 0.170153
4937.29, 0.170366
4942.0, 0.170861
4946.71, 0.171851
4951.44, 0.173265
4956.17, 0.174821
4960.91, 0.176447
4965.67, 0.177791
4970.43, 0.178781
4975.2, 0.179276
4979.98, 0.179418
4984.76, 0.179206
4989.56, 0.178569
4994.37, 0.177862
4999.18, 0.176943
5004.01, 0.175811
5008.84, 0.174609
5013.69, 0.172982
5018.54, 0.171073
5023.4, 0.169305
5028.28, 0.167395
5033.16, 0.165203
5038.05, 0.163152
5042.95, 0.161525
5047.86, 0.160606
5052.78, 0.160394
5057.71, 0.160677
5062.65, 0.161101
5067.6, 0.161243
5072.56, 0.160889
5077.53, 0.159899
5082.5, 0.158272
5087.49, 0.156363
5092.49, 0.153958
5097.5, 0.151059
5102.51, 0.147947
5107.54, 0.144694
5112.58, 0.141370
5117.62, 0.137905
5122.68, 0.134510
5127.75, 0.131116
5132.82, 0.127721
5137.91, 0.124327
5143.01, 0.120932
5148.12, 0.117820
5153.23, 0.115274
5158.36, 0.112587
5163.5, 0.109758
5168.65, 0.107141
5173.81, 0.104525
5178.98, 0.101837
5184.15, 0.0991500
5189.34, 0.0965330
5194.54, 0.0937050
5199.75, 0.0908050
5204.98, 0.0881180
5210.21, 0.0852890
5215.45, 0.0828140
5220.7, 0.0808330
5225.96, 0.0787830
5231.23, 0.0768730
5236.52, 0.0752470
5241.81, 0.0741150
5247.12, 0.0732660
5252.44, 0.0724880
5257.76, 0.0717110
5263.1, 0.0709330
5268.45, 0.0702250
5273.81, 0.0695180
5279.18, 0.0687400
5284.56, 0.0677500
5289.95, 0.0666190
5295.36, 0.0658410
5300.77, 0.0651340
5306.2, 0.0642850
5311.63, 0.0634360
5317.08, 0.0625880
5322.54, 0.0617390
5328.01, 0.0606780
5333.49, 0.0596880
5338.98, 0.0587690
5344.49, 0.0577790
5350.0, 0.0567890
5355.53, 0.0562230
5361.07, 0.0559400
5366.62, 0.0555860
5372.18, 0.0551620
5377.75, 0.0548790
5383.34, 0.0547380
5388.93, 0.0544550
5394.54, 0.0541010
5400.16, 0.0537480
5405.79, 0.0532520
5411.44, 0.0526160
5417.09, 0.0516260
5422.76, 0.0508480
5428.43, 0.0507070
5434.12, 0.0503530
5439.83, 0.0498580
5445.54, 0.0495040
5451.26, 0.0492210
5457.0, 0.0489390
5462.75, 0.0485850
5468.52, 0.0485140
5474.29, 0.0484440
5480.08, 0.0481610
5485.88, 0.0480900
5491.69, 0.0476660
5497.51, 0.0469580
5503.35, 0.0461100
5509.2, 0.0450490
5515.06, 0.0437050
5520.93, 0.0420790
5526.82, 0.0404520
5532.71, 0.0392500
5538.63, 0.0381180
5544.55, 0.0371280
5550.49, 0.0363500
5556.44, 0.0360670
5562.4, 0.0360670
5568.37, 0.0360670
5574.36, 0.0358550
5580.36, 0.0357850
5586.37, 0.0359260
5592.4, 0.0357850
5598.44, 0.0352190
5604.49, 0.0345120
5610.56, 0.0337340
5616.63, 0.0330260
5622.73, 0.0323900
5628.83, 0.0316830
5634.95, 0.0308340
5641.08, 0.0301270
5647.23, 0.0303390
5653.39, 0.0305510
5659.56, 0.0308340
5665.74, 0.0312580
5671.94, 0.0312580
5678.15, 0.0314710
5684.38, 0.0321070
5690.62, 0.0324610
5696.87, 0.0329560
5703.14, 0.0331680
5709.42, 0.0332390
5715.72, 0.0336630
5722.03, 0.0340170
5728.35, 0.0342990
5734.69, 0.0344410
5741.03, 0.0345120
5747.4, 0.0345820
5753.78, 0.0349360
5760.17, 0.0345820
5766.58, 0.0342290
5773.0, 0.0350070
5779.44, 0.0356430
5785.88, 0.0359970
5792.35, 0.0362800
5798.83, 0.0364920
5805.32, 0.0367040
5811.83, 0.0365620
5818.35, 0.0359970
5824.89, 0.0361380
5831.45, 0.0370580
5838.01, 0.0375530
5844.59, 0.0379770
5851.19, 0.0381180
5857.8, 0.0379060
5864.43, 0.0377650
5871.07, 0.0377650
5877.73, 0.0367750
5884.4, 0.0368450
5891.09, 0.0371990
5897.79, 0.0371990
5904.5, 0.0381180
5911.23, 0.0383300
5917.98, 0.0383300
5924.75, 0.0383300
5931.53, 0.0374820
5938.32, 0.0372700
5945.13, 0.0384720
5951.96, 0.0390380
5958.8, 0.0391790
5965.65, 0.0387550
5972.53, 0.0389670
5979.42, 0.0393910
5986.32, 0.0390380
5993.24, 0.0391790
6000.18, 0.0396740
6007.13, 0.0394620
6014.1, 0.0389670
6021.08, 0.0390380
6028.09, 0.0391080
6035.1, 0.0386840
6042.14, 0.0371990
6049.19, 0.0358550
6056.25, 0.0369160
6063.34, 0.0370580
6070.44, 0.0361380
6077.55, 0.0361380
6084.69, 0.0364920
6091.84, 0.0364210
6099.0, 0.0360670
6106.19, 0.0351480
6113.39, 0.0342990
6120.61, 0.0346530
6127.84, 0.0348650
6135.09, 0.0344410
6142.36, 0.0339460
6149.65, 0.0336630
6156.95, 0.0330970
6164.27, 0.0328850
6171.61, 0.0328850
6178.97, 0.0321070
6186.34, 0.0314710
6193.73, 0.0318240
6201.14, 0.0318950
6208.57, 0.0316830
6216.01, 0.0314000
6223.47, 0.0312580
6230.95, 0.0311170
6238.45, 0.0310460
6245.97, 0.0310460
6253.5, 0.0311170
6261.06, 0.0311880
6268.63, 0.0311880
6276.21, 0.0311170
6283.82, 0.0311170
6291.45, 0.0313290
6299.1, 0.0314710
6306.76, 0.0314710
6314.44, 0.0315410
6322.14, 0.0316830
6329.86, 0.0318240
6337.6, 0.0314710
6345.35, 0.0312580
6353.13, 0.0321070
6360.92, 0.0323900
6368.74, 0.0322490
6376.57, 0.0327440
6384.43, 0.0331680
6392.3, 0.0333800
6400.19, 0.0330970
6408.1, 0.0318240
6416.03, 0.0315410
6423.98, 0.0327440
6431.95, 0.0333090
6439.94, 0.0338750
6447.95, 0.0342290
6455.98, 0.0345120
6464.03, 0.0346530
6472.1, 0.0343700
6480.19, 0.0340170
6488.31, 0.0335210
6496.44, 0.0337340
6504.59, 0.0348650
6512.76, 0.0350070
6520.95, 0.0347240
6529.16, 0.0351480
6537.4, 0.0352190
6545.65, 0.0348650
6553.92, 0.0345820
6562.22, 0.0340870
6570.54, 0.0333090
6578.88, 0.0334510
6587.23, 0.0335210
6595.61, 0.0335210
6604.02, 0.0336630
6612.44, 0.0333800
6620.89, 0.0330260
6629.35, 0.0321780
6637.84, 0.0316830
6646.35, 0.0323900
6654.88, 0.0328850
6663.44, 0.0325310
6672.01, 0.0318950
6680.61, 0.0314000
6689.23, 0.0313290
6697.88, 0.0310460
6706.54, 0.0304100
6715.23, 0.0298440
6723.94, 0.0294900
6732.67, 0.0290660
6741.42, 0.0285000
6750.2, 0.0278640
6759.0, 0.0275810
6767.82, 0.0270150
6776.67, 0.0263790
6785.54, 0.0258130
6794.44, 0.0258130
6803.35, 0.0260250
6812.29, 0.0260250
6821.26, 0.0257420
6830.24, 0.0256720
6839.25, 0.0257420
6848.29, 0.0253180
6857.35, 0.0244690
6866.43, 0.0239040
6875.54, 0.0239740
6884.67, 0.0237620
6893.82, 0.0232670
6903.0, 0.0227010
6912.2, 0.0222770
6921.43, 0.0217110
6930.69, 0.0212160
6939.96, 0.0206500
6949.27, 0.0201550
6958.59, 0.0196600
6967.95, 0.0197310
6977.33, 0.0198720
6986.73, 0.0198720
6996.16, 0.0199430
7005.61, 0.0200140
7015.09, 0.0200140
7024.6, 0.0199430
7034.13, 0.0197310
7043.69, 0.0193070
7053.27, 0.0194480
7062.88, 0.0195190
7072.52, 0.0193070
7082.18, 0.0192360
7091.87, 0.0191650
7101.58, 0.0189530
7111.32, 0.0185990
7121.09, 0.0182460
7130.88, 0.0179630
7140.71, 0.0176090
7150.56, 0.0171850
7160.43, 0.0167610
7170.33, 0.0164070
7180.27, 0.0161240
7190.23, 0.0156290
7200.21, 0.0152050
7210.23, 0.0147810
7220.27, 0.0146390
7230.34, 0.0144980
7240.44, 0.0141440
7250.56, 0.0137900
7260.72, 0.0135080
7270.9, 0.0132950
7281.12, 0.0129420
7291.36, 0.0125880
7301.63, 0.0121640
7311.93, 0.0118810
7322.25, 0.0117400
7332.61, 0.0115270
7343.0, 0.0112450
7353.41, 0.0110320
7363.86, 0.0107500
7374.33, 0.0104670
7384.83, 0.0103960
7395.37, 0.0101840
7405.93, 0.00997200
7416.53, 0.00990100
7427.15, 0.00954700
7437.81, 0.00933500
7448.5, 0.00919400
7459.22, 0.00891100
7469.96, 0.00862800
7480.74, 0.00841600
7491.55, 0.00827400
7502.39, 0.00813300
7513.27, 0.00792100
7524.17, 0.00763800
7535.11, 0.00742600
7546.08, 0.00728400
7557.08, 0.00700100
7568.11, 0.00678900
7579.17, 0.00664800
7590.27, 0.00650600
7601.4, 0.00622300
7612.56, 0.00601100
7623.76, 0.00579900
7634.98, 0.00572800
7646.24, 0.00558700
7657.54, 0.00530400
7668.87, 0.00516300
7680.23, 0.00509200
7691.62, 0.00502100
7703.05, 0.00488000
7714.51, 0.00473800
7726.01, 0.00459700
7737.54, 0.00452600
7749.11, 0.00438500
7760.71, 0.00424300
7772.35, 0.00424300
7784.02, 0.00417300
7795.72, 0.00417300
7807.46, 0.00417300
7819.23, 0.00417300
7831.04, 0.00417300
7842.89, 0.00424300
7854.77, 0.00431400
7866.69, 0.00452600
7878.65, 0.00473800
7890.64, 0.00509200
7902.67, 0.00537500
7914.74, 0.00565800
7926.84, 0.00594100
7938.98, 0.00643600
7951.16, 0.00714300
7963.37, 0.00792100
7975.62, 0.00848600
7987.91, 0.00912300
8000.24, 0.0100420
8012.6, 0.0111740
8025.01, 0.0123760
8037.45, 0.0137200
8049.93, 0.0150630
8062.45, 0.0167610
8075.01, 0.0186700
8087.61, 0.0206500
8100.24, 0.0228430
8112.91, 0.0252470
8125.63, 0.0276520
8138.39, 0.0301980
8151.18, 0.0330970
8164.02, 0.0360670
8176.9, 0.0390380
8189.81, 0.0422200
8202.77, 0.0456150
8215.77, 0.0493630
8228.82, 0.0534650
8241.9, 0.0577080
8255.02, 0.0621630
8268.19, 0.0671140
8281.39, 0.0722760
8294.65, 0.0776510
8307.94, 0.0830970
8321.28, 0.0886830
8334.66, 0.0942000
8348.08, 0.0990090
8361.54, 0.103252
8375.05, 0.107212
8388.6, 0.110607
8402.2, 0.113648
8415.84, 0.116194
8429.52, 0.118457
8443.25, 0.120649
8457.02, 0.122700
8470.84, 0.124680
8484.7, 0.126660
8498.61, 0.128782
8512.57, 0.131116
8526.57, 0.133449
8540.62, 0.135430
8554.71, 0.137268
8568.85, 0.138824
8583.04, 0.139956
8597.27, 0.141017
8611.55, 0.142077
8625.88, 0.142926
8640.26, 0.143633
8654.68, 0.144623
8669.16, 0.145543
8683.68, 0.146038
8698.25, 0.146321
8712.87, 0.146391
8727.53, 0.146321
8742.25, 0.145967
8757.02, 0.145613
8771.83, 0.145118
8786.7, 0.144270
8801.62, 0.143209
8816.59, 0.141794
8831.61, 0.140592
8846.68, 0.139814
8861.8, 0.139602
8876.97, 0.139461
8892.2, 0.139036
8907.48, 0.137976
8922.81, 0.135995
8938.2, 0.133096
8953.63, 0.130196
8969.13, 0.127580
8984.67, 0.125600
9000.27, 0.125034
9015.92, 0.126519
9031.63, 0.129913
9047.39, 0.134652
9063.21, 0.139531
9079.08, 0.143704
9095.01, 0.147028
9111.0, 0.149857
9127.04, 0.152473
9143.13, 0.155090
9159.28, 0.157212
9175.49, 0.158343
9191.76, 0.158697
9208.09, 0.158555
9224.47, 0.158060
9240.92, 0.156999
9257.42, 0.155302
9273.98, 0.153746
9290.6, 0.151908
9307.28, 0.149715
9324.02, 0.147452
9340.82, 0.145118
9357.68, 0.142926
9374.6, 0.140663
9391.58, 0.139744
9408.62, 0.142007
9425.73, 0.148089
9442.9, 0.156009
9460.13, 0.162657
9477.42, 0.166900
9494.78, 0.168951
9512.2, 0.169163
9529.69, 0.168315
9547.24, 0.166617
9564.86, 0.164354
9582.54, 0.161667
9600.28, 0.158343
9618.1, 0.154948
9635.97, 0.151837
9653.92, 0.149503
9671.93, 0.148654
9690.01, 0.150069
9708.16, 0.153322
9726.37, 0.157777
9744.65, 0.162233
9763.0, 0.165486
9781.43, 0.167537
9799.92, 0.169234
9818.48, 0.170366
9837.1, 0.170861
9855.8, 0.170436
9874.58, 0.168810
9893.42, 0.165769
9912.34, 0.161808
9931.33, 0.157707
9950.39, 0.153534
9969.52, 0.149291
9988.74, 0.144906
10008.0, 0.140309
10027.4, 0.135713
10046.8, 0.131116
10066.3, 0.126519
10085.9, 0.121781
10105.6, 0.116972
10125.3, 0.112163
10145.1, 0.107354
10165.0, 0.102828
10185.0, 0.0987260
10205.0, 0.0951900
10225.2, 0.0920780
10245.4, 0.0889660
10265.7, 0.0859960
10286.0, 0.0835920
10306.5, 0.0813290
10327.0, 0.0793480
10347.6, 0.0775800
10368.3, 0.0758830
10389.1, 0.0744690
10409.9, 0.0728420
10430.9, 0.0710740
10451.9, 0.0696600
10473.0, 0.0683160
10494.2, 0.0668310
10515.5, 0.0655580
10536.9, 0.0644970
10558.4, 0.0635070
10579.9, 0.0625880
10601.5, 0.0616680
10623.3, 0.0608200
10645.1, 0.0600420
10667.0, 0.0594050
10689.0, 0.0585570
10711.1, 0.0577790
10733.2, 0.0570710
10755.5, 0.0562930
10777.9, 0.0555160
10800.3, 0.0548080
10822.9, 0.0541010
10845.5, 0.0534650
10868.2, 0.0531110
10891.1, 0.0524040
10914.0, 0.0516970
10937.0, 0.0512020
10960.2, 0.0507770
10983.4, 0.0502120
11006.7, 0.0495750
11030.1, 0.0490800
11053.6, 0.0487970
11077.3, 0.0484440
11101.0, 0.0479480
11124.8, 0.0475240
11148.7, 0.0471000
11172.7, 0.0466750
11196.9, 0.0463220
11221.1, 0.0459680
11245.4, 0.0456850
11269.9, 0.0453320
11294.4, 0.0449070
11319.1, 0.0442710
11343.9, 0.0439170
11368.8, 0.0437760
11393.7, 0.0434930
11418.8, 0.0430690
11444.0, 0.0427860
11469.4, 0.0424320
11494.8, 0.0422910
11520.3, 0.0420790
11546.0, 0.0417250
11571.8, 0.0414420
11597.7, 0.0412300
11623.7, 0.0410180
11649.8, 0.0408060
11676.0, 0.0403110
11702.4, 0.0399570
11728.9, 0.0397450
11755.5, 0.0393210
11782.2, 0.0387550
11809.0, 0.0384720
11836.0, 0.0383300
11863.0, 0.0381890
11890.3, 0.0379060
11917.6, 0.0373400
11945.0, 0.0368450
11972.6, 0.0364210
12000.4, 0.0359970
12028.2, 0.0355020
12056.2, 0.0351480
12084.3, 0.0346530
12112.5, 0.0340170
12140.9, 0.0332390
12169.4, 0.0325310
12198.0, 0.0319660
12226.8, 0.0312580
12255.7, 0.0301980
12284.7, 0.0289950
12313.9, 0.0280760
12343.2, 0.0275100
12372.7, 0.0265910
12402.3, 0.0256720
12432.0, 0.0249640
12461.9, 0.0241860
12491.9, 0.0231960
12522.1, 0.0219230
12552.4, 0.0210040
12582.9, 0.0209330
12613.5, 0.0213580
12644.3, 0.0215700
12675.2, 0.0209330
12706.3, 0.0195900
12737.5, 0.0186700
12768.9, 0.0190240
12800.4, 0.0214280
12832.1, 0.0260250
12863.9, 0.0318240
12895.9, 0.0375530
12928.1, 0.0415130
12960.4, 0.0436350
12992.9, 0.0443420
13025.5, 0.0436350
13058.3, 0.0416540
13091.3, 0.0394620
13124.4, 0.0367750
13157.8, 0.0342990
13191.2, 0.0323900
13224.9, 0.0309050
13258.7, 0.0292780
13292.7, 0.0281470
13326.9, 0.0275100
13361.2, 0.0268740
13395.7, 0.0263790
13430.4, 0.0264490
13465.3, 0.0272980
13500.4, 0.0293490
13535.7, 0.0328140
13571.1, 0.0374820
13606.7, 0.0413710
13642.5, 0.0432100
13678.5, 0.0432100
13714.7, 0.0423620
13751.1, 0.0409470
13787.6, 0.0390380
13824.4, 0.0371990
13861.4, 0.0360670
13898.5, 0.0350070
13935.9, 0.0342990
13973.5, 0.0337340
14011.2, 0.0331680
14049.2, 0.0323190
14087.4, 0.0314000
14125.8, 0.0306930
14164.3, 0.0302680
14203.2, 0.0297730
14242.2, 0.0291370
14281.4, 0.0284300
14320.9, 0.0276520
14360.5, 0.0270150
14400.4, 0.0268030
14440.5, 0.0263790
14480.9, 0.0258130
14521.4, 0.0253180
14562.2, 0.0247520
14603.3, 0.0238330
14644.5, 0.0232670
14686.0, 0.0231260
14727.7, 0.0226310
14769.7, 0.0218530
14811.9, 0.0214280
14854.3, 0.0211450
14897.0, 0.0207920
14939.9, 0.0206500
14983.1, 0.0207210
15026.5, 0.0211450
15070.2, 0.0222060
15114.2, 0.0231960
15158.3, 0.0249640
15202.8, 0.0277930
15247.5, 0.0314000
15292.5, 0.0353600
15337.7, 0.0378350
15383.2, 0.0374820
15429.0, 0.0351480
15475.1, 0.0320360
15521.4, 0.0285710
15568.0, 0.0253890
15614.9, 0.0231260
15662.1, 0.0217820
15709.6, 0.0208630
15757.3, 0.0205090
15805.4, 0.0203670
15853.7, 0.0206500
15902.3, 0.0222060
15951.2, 0.0245400
16000.5, 0.0272270
16050.0, 0.0306220
16099.8, 0.0351480
16150.0, 0.0403110
16200.5, 0.0461100
16251.3, 0.0529700
16302.4, 0.0611020
16353.8, 0.0718520
16405.5, 0.0842990
16457.6, 0.0952600
16510.0, 0.102969
16562.8, 0.107566
16615.9, 0.110182
16669.3, 0.110890
16723.1, 0.110607
16777.2, 0.109546
16831.7, 0.107283
16886.5, 0.104171
16941.7, 0.100777
16997.2, 0.0973110
17053.1, 0.0932800
17109.4, 0.0888960
17166.1, 0.0848650
17223.1, 0.0812580
17280.5, 0.0773680
17338.3, 0.0737610
17396.5, 0.0704380
17455.1, 0.0673970
17514.0, 0.0650630
17573.4, 0.0628000
17633.2, 0.0602540
17693.4, 0.0575660
17754.0, 0.0548790
17815.0, 0.0525450
17876.4, 0.0505650
17938.3, 0.0485850
18000.5, 0.0465340
18063.3, 0.0449780
18126.4, 0.0442000
18190.0, 0.0440590
18254.1, 0.0466050
18318.6, 0.0519800
18383.5, 0.0584860
18449.0, 0.0640730
18514.9, 0.0681750
18581.2, 0.0691650
18648.0, 0.0666890
18715.4, 0.0635780
18783.2, 0.0596170
18851.5, 0.0555860
18920.3, 0.0528990
18989.6, 0.0498580
19059.4, 0.0465340
19129.7, 0.0439880
19200.6, 0.0432810
19272.0, 0.0420080
19343.9, 0.0402400
19416.3, 0.0396030
19489.3, 0.0379060
19562.8, 0.0366330
19637.0, 0.0367040
19711.6, 0.0356430
19786.8, 0.0345120
19862.6, 0.0342990
19939.0, 0.0345820
20016.0, 0.0342990
20093.6, 0.0342990
20171.8, 0.0350690
20250.6, 0.0362280
20330.0, 0.0374970
20410.0, 0.0386200
20490.7, 0.0397770
20572.0, 0.0412270
20654.0, 0.0430630
20736.6, 0.0453140
20819.9, 0.0479190
20903.8, 0.0508000
20988.5, 0.0539270
21073.8, 0.0572160
21159.8, 0.0603280
21246.5, 0.0628980
21334.0, 0.0647430
21422.1, 0.0659250
21511.0, 0.0673420
21600.7, 0.0699000
21691.0, 0.0735470
21782.1, 0.0780340
21874.0, 0.0833550
21966.7, 0.0895300
22060.2, 0.0964500
22154.5, 0.103751
22249.6, 0.110160
22345.5, 0.114355
22442.2, 0.115924
22539.8, 0.114936
22638.2, 0.112515
22737.5, 0.110119
22837.7, 0.109327
22938.7, 0.111461
23040.7, 0.116512
23143.5, 0.123815
23247.3, 0.131472
23352.1, 0.137492
23457.7, 0.141061
23564.4, 0.141851
23672.0, 0.140348
23780.5, 0.137045
23890.1, 0.131518
24000.7, 0.123415
24112.3, 0.113688
24225.0, 0.103635
24338.7, 0.0943920
24453.5, 0.0868920
24569.4, 0.0812230
24686.4, 0.0771600
24804.5, 0.0741350
24923.8, 0.0714850
25044.2, 0.0686170
25165.8, 0.0652950
25288.6, 0.0627570
25412.5, 0.0624460
25537.7, 0.0649130
25664.1, 0.0700690
25791.8, 0.0760960
25920.8, 0.0812510
26051.1, 0.0862000
26182.6, 0.0919760
26315.5, 0.0984140
26449.8, 0.104930
26585.4, 0.110553
26722.5, 0.114370
26860.9, 0.116267
27000.8, 0.116377
27142.1, 0.114992
27285.0, 0.112325
27429.4, 0.108052
27575.3, 0.101977
27722.7, 0.0950550
27871.8, 0.0884450
28022.4, 0.0827440
28174.7, 0.0782490
28328.7, 0.0745530
28484.4, 0.0711420
28641.7, 0.0679060
28800.9, 0.0649100
28961.8, 0.0625110
29124.5, 0.0610330
29289.0, 0.0602790
29455.4, 0.0601940
29623.8, 0.0619220
29794.0, 0.0666320
29966.3, 0.0740890
30140.5, 0.0832430
30316.7, 0.0912550
30495.1, 0.0953770
30675.5, 0.0956420
30858.1, 0.0929670
31042.8, 0.0888480
31229.8, 0.0847540
31419.1, 0.0811730
31610.7, 0.0782890
31804.6, 0.0759990
32000.9, 0.0741190
32199.7, 0.0724430
32400.9, 0.0708550
32604.8, 0.0696720
32811.1, 0.0691740
33020.1, 0.0689610
33231.8, 0.0685600
33446.2, 0.0680530
33663.4, 0.0676840
33883.4, 0.0677590
34106.3, 0.0684430
34332.1, 0.0691820
34561.0, 0.0693380
34792.9, 0.0688140
35028.0, 0.0677640
35266.3, 0.0668030
35507.8, 0.0665200
35752.7, 0.0668030
36001.0, 0.0673700
36252.8, 0.0680780
36508.1, 0.0688570
36767.0, 0.0698430
37029.7, 0.0711510
37296.1, 0.0725650
37566.3, 0.0738400
37840.5, 0.0750180
38118.8, 0.0761870
38401.2, 0.0772990
38687.8, 0.0782800
38978.6, 0.0791380
39273.9, 0.0798780
39573.7, 0.0803890
39878.1, 0.0805860
40187.3, 0.0806340
40501.2, 0.0806650
40820.0, 0.0803640
41144.0, 0.0793830
41473.2, 0.0778140
41807.6, 0.0758280
42147.5, 0.0733750
42493.0, 0.0705150
42844.2, 0.0680050
43201.2, 0.0665850
43564.3, 0.0659690
43933.5, 0.0656390
44309.0, 0.0653800
44691.0, 0.0651940
45079.6, 0.0656750
45475.0, 0.0673720
45877.5, 0.0698190
46287.1, 0.0722780
46704.2, 0.0741600
47128.7, 0.0750170
47561.1, 0.0749690
48001.5, 0.0743530
48450.1, 0.0737180
48907.2, 0.0735640
49373.0, 0.0737920
49847.7, 0.0741000
50331.5, 0.0740610
50825.0, 0.0733480
51328.2, 0.0722960
51841.5, 0.0713370
52365.1, 0.0704080
52899.4, 0.0693620
53444.8, 0.0682990
54001.5, 0.0673290
54570.1, 0.0663120
55150.6, 0.0650630
55743.6, 0.0635410
56349.5, 0.0617670
56968.7, 0.0598380
57601.7, 0.0578570
58248.9, 0.0558160
58910.9, 0.0537120
59588.1, 0.0516720
60281.0, 0.0498560
60990.2, 0.0483610
61716.3, 0.0472730
62459.8, 0.0466930
63221.6, 0.0466350
64002.1, 0.0466930
64802.1, 0.0467570
65622.1, 0.0486310
66463.4, 0.0538600
67326.6, 0.0599350
68212.4, 0.0636030
69121.9, 0.0644240
70056.0, 0.0630810
71015.7, 0.0617020
72002.0, 0.0623830
73016.3, 0.0644720
74059.4, 0.0663900
75132.7, 0.0662880
76237.6, 0.0628400
77375.5, 0.0579990
78547.9, 0.0543690
79756.3, 0.0523580
81002.5, 0.0520310
82288.5, 0.0546880
83615.7, 0.0613420
84986.5, 0.0696010
86402.9, 0.0763420
87867.4, 0.0808070
89382.4, 0.0828320
90950.5, 0.0820060
92574.6, 0.0785310
94257.2, 0.0757780
96002.7, 0.0776620
97814.1, 0.0845330
99695.1, 0.0950130
101650.0, 0.104912
103683.0, 0.109662
105799.0, 0.109155
108003.0, 0.104906
110301.0, 0.0992720
112699.0, 0.0947600
115204.0, 0.0918900
117822.0, 0.0904730
120562.0, 0.0897570
123433.0, 0.0890060
126443.0, 0.0889480
129604.0, 0.0902780
132926.0, 0.0908850
136424.0, 0.0884990
140111.0, 0.0859800
144003.0, 0.0876670
148118.0, 0.0944410
152474.0, 0.105659
157095.0, 0.118695
162004.0, 0.130423
167231.0, 0.141134
172805.0, 0.141134
178764.0, 0.141134
185148.0, 0.141134
192005.0, 0.141134
199390.0, 0.141134
207366.0, 0.141134
216006.0, 0.141134
