Database of Origin, USGS Spectral Database
Sample Description, See USGS database for additional info
Date Added,2016-08-10 02:44:15.993611

Data ID,USGS_fas02          
Sample ID, fassaite_hs118.7779
Mineral Name, fassaite
Material Class,Inosilicate

Wavelength
1602.52, 0.458648
1603.02, 0.459015
1603.51, 0.458722
1604.01, 0.459088
1604.5, 0.459674
1605.0, 0.459821
1605.5, 0.460114
1606.0, 0.460261
1606.49, 0.460261
1606.99, 0.460627
1607.49, 0.460920
1607.99, 0.460847
1608.49, 0.461067
1608.99, 0.461433
1609.49, 0.461360
1609.99, 0.461726
1610.49, 0.461946
1610.99, 0.461580
1611.49, 0.461507
1611.99, 0.461800
1612.49, 0.462753
1612.99, 0.462899
1613.49, 0.462533
1614.0, 0.462753
1614.5, 0.462753
1615.0, 0.462899
1615.51, 0.463192
1616.01, 0.463339
1616.51, 0.463485
1617.02, 0.463632
1617.52, 0.463632
1618.03, 0.463998
1618.53, 0.464072
1619.04, 0.463779
1619.54, 0.463925
1620.05, 0.464072
1620.55, 0.463779
1621.06, 0.463632
1621.57, 0.463998
1622.08, 0.464585
1622.58, 0.465025
1623.09, 0.465244
1623.6, 0.465244
1624.11, 0.465318
1624.62, 0.465538
1625.13, 0.465538
1625.64, 0.465538
1626.15, 0.465904
1626.66, 0.466051
1627.17, 0.465904
1627.68, 0.466051
1628.19, 0.466344
1628.7, 0.466710
1629.21, 0.466637
1629.72, 0.466710
1630.24, 0.466857
1630.75, 0.466783
1631.26, 0.466710
1631.78, 0.466637
1632.29, 0.466857
1632.8, 0.467003
1633.32, 0.467150
1633.83, 0.467223
1634.35, 0.467370
1634.86, 0.467516
1635.38, 0.467810
1635.9, 0.467810
1636.41, 0.467663
1636.93, 0.467956
1637.45, 0.468396
1637.96, 0.468396
1638.48, 0.468249
1639.0, 0.468469
1639.52, 0.468762
1640.04, 0.468396
1640.56, 0.468836
1641.08, 0.469642
1641.59, 0.469642
1642.11, 0.469495
1642.63, 0.469568
1643.16, 0.469129
1643.68, 0.469055
1644.2, 0.469495
1644.72, 0.469495
1645.24, 0.469568
1645.76, 0.469788
1646.29, 0.470008
1646.81, 0.470301
1647.33, 0.470155
1647.86, 0.470082
1648.38, 0.470301
1648.9, 0.470301
1649.43, 0.470741
1649.95, 0.470888
1650.48, 0.471034
1651.0, 0.471034
1651.53, 0.470741
1652.06, 0.470668
1652.58, 0.470888
1653.11, 0.471181
1653.64, 0.471547
1654.17, 0.471914
1654.69, 0.471914
1655.22, 0.471840
1655.75, 0.471767
1656.28, 0.472060
1656.81, 0.472720
1657.34, 0.473013
1657.87, 0.472500
1658.4, 0.471914
1658.93, 0.472207
1659.46, 0.472573
1659.99, 0.472940
1660.52, 0.472940
1661.05, 0.472867
1661.59, 0.472793
1662.12, 0.472573
1662.65, 0.473013
1663.19, 0.473380
1663.72, 0.473673
1664.26, 0.474039
1664.79, 0.473966
1665.32, 0.473893
1665.86, 0.474112
1666.39, 0.474039
1666.93, 0.474259
1667.47, 0.474699
1668.0, 0.474845
1668.54, 0.474479
1669.08, 0.474406
1669.61, 0.474479
1670.15, 0.474699
1670.69, 0.475065
1671.23, 0.475285
1671.77, 0.475212
1672.31, 0.474992
1672.85, 0.475285
1673.39, 0.475945
1673.93, 0.476091
1674.47, 0.476165
1675.01, 0.476018
1675.55, 0.475945
1676.09, 0.476311
1676.64, 0.476458
1677.18, 0.476091
1677.72, 0.476018
1678.26, 0.476311
1678.81, 0.476971
1679.35, 0.477117
1679.89, 0.476678
1680.44, 0.476531
1680.98, 0.476971
1681.53, 0.477411
1682.07, 0.477411
1682.62, 0.477191
1683.17, 0.477264
1683.71, 0.477484
1684.26, 0.477630
1684.81, 0.477704
1685.36, 0.477484
1685.9, 0.477484
1686.45, 0.477924
1687.0, 0.478070
1687.55, 0.477704
1688.1, 0.477411
1688.65, 0.477630
1689.2, 0.477850
1689.75, 0.477997
1690.3, 0.478143
1690.85, 0.478510
1691.41, 0.478510
1691.96, 0.478363
1692.51, 0.478583
1693.06, 0.478437
1693.61, 0.478363
1694.17, 0.478510
1694.72, 0.478656
1695.28, 0.479023
1695.83, 0.479243
1696.39, 0.479389
1696.94, 0.479609
1697.5, 0.479609
1698.05, 0.479243
1698.61, 0.478950
1699.17, 0.479096
1699.72, 0.479243
1700.28, 0.479389
1700.84, 0.479463
1701.4, 0.479536
1701.95, 0.479683
1702.51, 0.479829
1703.07, 0.479976
1703.63, 0.480049
1704.19, 0.479829
1704.75, 0.479609
1705.31, 0.479829
1705.88, 0.479902
1706.44, 0.479829
1707.0, 0.480196
1707.56, 0.480122
1708.12, 0.479976
1708.69, 0.480122
1709.25, 0.480489
1709.81, 0.480415
1710.38, 0.480196
1710.94, 0.480562
1711.51, 0.480635
1712.07, 0.480342
1712.64, 0.480489
1713.2, 0.480489
1713.77, 0.480489
1714.34, 0.480415
1714.9, 0.480415
1715.47, 0.480562
1716.04, 0.481002
1716.61, 0.481002
1717.18, 0.480928
1717.74, 0.480635
1718.31, 0.480489
1718.88, 0.481002
1719.45, 0.481441
1720.02, 0.481368
1720.59, 0.481222
1721.17, 0.481295
1721.74, 0.481441
1722.31, 0.481661
1722.88, 0.481588
1723.45, 0.481441
1724.03, 0.481441
1724.6, 0.481588
1725.18, 0.481808
1725.75, 0.481881
1726.33, 0.482101
1726.9, 0.481881
1727.48, 0.481735
1728.05, 0.481954
1728.63, 0.482028
1729.2, 0.482028
1729.78, 0.482248
1730.36, 0.482174
1730.94, 0.482028
1731.51, 0.482028
1732.09, 0.482028
1732.67, 0.482321
1733.25, 0.482541
1733.83, 0.482394
1734.41, 0.482394
1734.99, 0.482614
1735.57, 0.482687
1736.15, 0.482687
1736.73, 0.482687
1737.32, 0.482687
1737.9, 0.482981
1738.48, 0.483127
1739.07, 0.483054
1739.65, 0.482981
1740.23, 0.483274
1740.82, 0.483420
1741.4, 0.483567
1741.99, 0.483713
1742.57, 0.484153
1743.16, 0.484373
1743.74, 0.484373
1744.33, 0.484153
1744.92, 0.484080
1745.51, 0.484226
1746.09, 0.484300
1746.68, 0.484520
1747.27, 0.484593
1747.86, 0.484813
1748.45, 0.484739
1749.04, 0.484959
1749.63, 0.484813
1750.22, 0.484813
1750.81, 0.484886
1751.4, 0.484959
1751.99, 0.484813
1752.59, 0.484886
1753.18, 0.485253
1753.77, 0.485326
1754.37, 0.485253
1754.96, 0.485326
1755.56, 0.485546
1756.15, 0.485546
1756.74, 0.485399
1757.34, 0.485179
1757.94, 0.485106
1758.53, 0.485326
1759.13, 0.485839
1759.73, 0.485912
1760.32, 0.485766
1760.92, 0.485839
1761.52, 0.485985
1762.12, 0.486279
1762.72, 0.486498
1763.32, 0.486352
1763.92, 0.486352
1764.52, 0.486425
1765.12, 0.486498
1765.72, 0.486498
1766.32, 0.486498
1766.92, 0.486572
1767.53, 0.486645
1768.13, 0.486425
1768.73, 0.486352
1769.34, 0.486645
1769.94, 0.487011
1770.55, 0.487085
1771.15, 0.487011
1771.76, 0.487011
1772.36, 0.486718
1772.97, 0.486498
1773.57, 0.486718
1774.18, 0.486938
1774.79, 0.487305
1775.4, 0.487451
1776.0, 0.487378
1776.61, 0.487158
1777.22, 0.487231
1777.83, 0.487378
1778.44, 0.487158
1779.05, 0.487011
1779.66, 0.487011
1780.27, 0.487158
1780.88, 0.487231
1781.5, 0.487305
1782.11, 0.487524
1782.72, 0.487378
1783.33, 0.487305
1783.95, 0.487378
1784.56, 0.487378
1785.18, 0.487231
1785.79, 0.487011
1786.41, 0.487085
1787.02, 0.487524
1787.64, 0.487818
1788.26, 0.487598
1788.87, 0.487158
1789.49, 0.487231
1790.11, 0.487231
1790.73, 0.487158
1791.35, 0.487305
1791.96, 0.487378
1792.58, 0.487378
1793.21, 0.487451
1793.83, 0.487598
1794.45, 0.487524
1795.07, 0.487964
1795.69, 0.488038
1796.31, 0.487964
1796.93, 0.488038
1797.56, 0.487818
1798.18, 0.487818
1798.8, 0.488111
1799.43, 0.488331
1800.05, 0.488111
1800.68, 0.488111
1801.3, 0.488038
1801.93, 0.487891
1802.56, 0.487744
1803.18, 0.487891
1803.81, 0.488184
1804.44, 0.488184
1805.07, 0.488404
1805.7, 0.488477
1806.33, 0.488551
1806.95, 0.488404
1807.58, 0.488257
1808.22, 0.488404
1808.85, 0.488697
1809.48, 0.488624
1810.11, 0.488624
1810.74, 0.488697
1811.38, 0.488551
1812.01, 0.488697
1812.64, 0.488697
1813.28, 0.488551
1813.91, 0.488844
1814.55, 0.489064
1815.18, 0.489210
1815.82, 0.488990
1816.45, 0.489064
1817.09, 0.489210
1817.73, 0.489064
1818.36, 0.489210
1819.0, 0.489210
1819.64, 0.489430
1820.28, 0.489943
1820.92, 0.489797
1821.56, 0.489943
1822.2, 0.489577
1822.84, 0.489430
1823.48, 0.489723
1824.12, 0.489797
1824.76, 0.489357
1825.41, 0.489870
1826.05, 0.491042
1826.69, 0.490456
1827.34, 0.489870
1827.98, 0.490163
1828.63, 0.490310
1829.27, 0.490236
1829.92, 0.490383
1830.56, 0.491042
1831.21, 0.491189
1831.86, 0.490676
1832.5, 0.490456
1833.15, 0.490383
1833.8, 0.490529
1834.45, 0.491116
1835.1, 0.491409
1835.75, 0.491775
1836.4, 0.491775
1837.05, 0.491775
1837.7, 0.491849
1838.35, 0.490896
1839.01, 0.491042
1839.66, 0.491922
1840.31, 0.491849
1840.96, 0.491775
1841.62, 0.492655
1842.27, 0.492288
1842.93, 0.491482
1843.58, 0.491262
1844.24, 0.491042
1844.9, 0.491042
1845.55, 0.491409
1846.21, 0.492508
1846.87, 0.493534
1847.53, 0.493021
1848.18, 0.492508
1848.84, 0.491849
1849.5, 0.491629
1850.16, 0.491629
1850.82, 0.491482
1851.48, 0.491556
1852.14, 0.491922
1852.81, 0.492362
1853.47, 0.493021
1854.13, 0.492801
1854.8, 0.491849
1855.46, 0.491702
1856.12, 0.492362
1856.79, 0.492362
1857.45, 0.491629
1858.12, 0.491116
1858.79, 0.491556
1859.45, 0.492508
1860.12, 0.492068
1860.79, 0.491409
1861.46, 0.491409
1862.12, 0.491482
1862.79, 0.491409
1863.46, 0.491629
1864.13, 0.491849
1864.8, 0.491556
1865.48, 0.491336
1866.15, 0.491409
1866.82, 0.492068
1867.49, 0.493095
1868.16, 0.492801
1868.84, 0.491922
1869.51, 0.491995
1870.19, 0.493021
1870.86, 0.493754
1871.54, 0.492508
1872.21, 0.492362
1872.89, 0.493168
1873.56, 0.492508
1874.24, 0.491556
1874.92, 0.491556
1875.6, 0.491629
1876.28, 0.491922
1876.96, 0.492288
1877.64, 0.491482
1878.32, 0.490896
1879.0, 0.490823
1879.68, 0.491116
1880.36, 0.491336
1881.04, 0.491262
1881.73, 0.491042
1882.41, 0.490969
1883.09, 0.491336
1883.78, 0.491702
1884.46, 0.491116
1885.15, 0.490823
1885.83, 0.490749
1886.52, 0.490896
1887.21, 0.490896
1887.89, 0.490603
1888.58, 0.490090
1889.27, 0.490529
1889.96, 0.491116
1890.65, 0.490456
1891.34, 0.490236
1892.03, 0.490163
1892.72, 0.489943
1893.41, 0.489870
1894.1, 0.489577
1894.79, 0.489577
1895.49, 0.489503
1896.18, 0.488917
1896.87, 0.488551
1897.57, 0.488624
1898.26, 0.488624
1898.96, 0.489137
1899.65, 0.489430
1900.35, 0.488770
1901.05, 0.487891
1901.74, 0.487598
1902.44, 0.488038
1903.14, 0.487964
1903.84, 0.487231
1904.54, 0.487524
1905.24, 0.488111
1905.94, 0.487891
1906.64, 0.487671
1907.34, 0.486792
1908.04, 0.486352
1908.75, 0.486645
1909.45, 0.486645
1910.15, 0.486718
1910.86, 0.487011
1911.56, 0.486938
1912.27, 0.486645
1912.97, 0.487231
1913.68, 0.487671
1914.39, 0.487085
1915.09, 0.486718
1915.8, 0.487011
1916.51, 0.487231
1917.22, 0.487231
1917.93, 0.487085
1918.64, 0.487231
1919.35, 0.487818
1920.06, 0.488770
1920.77, 0.488551
1921.48, 0.487598
1922.19, 0.487378
1922.91, 0.487524
1923.62, 0.488111
1924.33, 0.488257
1925.05, 0.488111
1925.76, 0.488038
1926.48, 0.488038
1927.19, 0.488038
1927.91, 0.488404
1928.63, 0.488697
1929.35, 0.488551
1930.07, 0.488624
1930.78, 0.488624
1931.5, 0.488477
1932.22, 0.488551
1932.94, 0.488697
1933.66, 0.488844
1934.39, 0.488990
1935.11, 0.489283
1935.83, 0.489577
1936.55, 0.489503
1937.28, 0.489283
1938.0, 0.489210
1938.73, 0.489430
1939.45, 0.489650
1940.18, 0.489503
1940.9, 0.489577
1941.63, 0.489503
1942.36, 0.489503
1943.09, 0.489503
1943.81, 0.489650
1944.54, 0.490016
1945.27, 0.489797
1946.0, 0.489577
1946.73, 0.489723
1947.47, 0.489943
1948.2, 0.489943
1948.93, 0.489797
1949.66, 0.489797
1950.4, 0.489797
1951.13, 0.489723
1951.86, 0.489870
1952.6, 0.489870
1953.34, 0.489943
1954.07, 0.490090
1954.81, 0.490163
1955.55, 0.490016
1956.29, 0.489723
1957.02, 0.490016
1957.76, 0.490163
1958.5, 0.490016
1959.24, 0.490016
1959.98, 0.490163
1960.72, 0.490236
1961.47, 0.490310
1962.21, 0.490163
1962.95, 0.489943
1963.7, 0.490016
1964.44, 0.490090
1965.18, 0.490163
1965.93, 0.490236
1966.67, 0.490236
1967.42, 0.490163
1968.17, 0.490090
1968.92, 0.490163
1969.66, 0.490163
1970.41, 0.490090
1971.16, 0.489943
1971.91, 0.490016
1972.66, 0.490016
1973.41, 0.490016
1974.16, 0.490090
1974.92, 0.489943
1975.67, 0.489723
1976.42, 0.489943
1977.18, 0.490236
1977.93, 0.490310
1978.69, 0.490236
1979.44, 0.490163
1980.2, 0.490016
1980.95, 0.490236
1981.71, 0.490456
1982.47, 0.490310
1983.23, 0.490310
1983.99, 0.490456
1984.74, 0.490529
1985.51, 0.490529
1986.27, 0.490310
1987.03, 0.490310
1987.79, 0.490456
1988.55, 0.490603
1989.32, 0.490676
1990.08, 0.490749
1990.84, 0.490603
1991.61, 0.490676
1992.37, 0.490823
1993.14, 0.490749
1993.9, 0.490603
1994.67, 0.490676
1995.44, 0.490749
1996.21, 0.490823
1996.98, 0.490896
1997.75, 0.491116
1998.52, 0.491116
1999.29, 0.491116
2000.06, 0.491336
2000.83, 0.491262
2001.6, 0.491336
2002.38, 0.491629
2003.15, 0.491629
2003.93, 0.491629
2004.7, 0.491849
2005.48, 0.491995
2006.25, 0.492068
2007.03, 0.492142
2007.81, 0.492142
2008.58, 0.491995
2009.36, 0.491922
2010.14, 0.492215
2010.92, 0.492288
2011.7, 0.492435
2012.48, 0.492728
2013.26, 0.492728
2014.05, 0.492655
2014.83, 0.492728
2015.61, 0.492948
2016.4, 0.493168
2017.18, 0.493241
2017.97, 0.493168
2018.75, 0.493241
2019.54, 0.493534
2020.32, 0.493681
2021.11, 0.493681
2021.9, 0.493534
2022.69, 0.493608
2023.48, 0.493754
2024.27, 0.493901
2025.06, 0.493901
2025.85, 0.494121
2026.64, 0.494194
2027.44, 0.494121
2028.23, 0.494267
2029.02, 0.494560
2029.82, 0.494634
2030.61, 0.494634
2031.41, 0.494780
2032.2, 0.494560
2033.0, 0.494560
2033.8, 0.494780
2034.6, 0.495000
2035.4, 0.495147
2036.2, 0.495147
2037.0, 0.495220
2037.8, 0.495440
2038.6, 0.495586
2039.4, 0.495586
2040.2, 0.495660
2041.01, 0.495733
2041.81, 0.495733
2042.61, 0.495733
2043.42, 0.495880
2044.22, 0.496099
2045.03, 0.495953
2045.84, 0.496026
2046.65, 0.495953
2047.46, 0.495806
2048.26, 0.495880
2049.07, 0.496026
2049.88, 0.496246
2050.69, 0.496319
2051.51, 0.496173
2052.32, 0.495953
2053.13, 0.496026
2053.94, 0.496246
2054.76, 0.496173
2055.57, 0.496173
2056.39, 0.496173
2057.2, 0.496246
2058.02, 0.496466
2058.84, 0.496466
2059.66, 0.496099
2060.48, 0.496173
2061.29, 0.496612
2062.11, 0.496612
2062.94, 0.496246
2063.76, 0.496173
2064.58, 0.496099
2065.4, 0.496246
2066.22, 0.496393
2067.05, 0.496246
2067.87, 0.496173
2068.7, 0.496246
2069.52, 0.496173
2070.35, 0.496173
2071.18, 0.496319
2072.0, 0.496246
2072.83, 0.496173
2073.66, 0.495953
2074.49, 0.495586
2075.32, 0.495293
2076.15, 0.495367
2076.98, 0.495733
2077.82, 0.495660
2078.65, 0.495367
2079.48, 0.495513
2080.32, 0.495733
2081.15, 0.495513
2081.99, 0.495367
2082.83, 0.495513
2083.66, 0.495513
2084.5, 0.495440
2085.34, 0.495293
2086.18, 0.495220
2087.02, 0.495367
2087.86, 0.495440
2088.7, 0.495440
2089.54, 0.495440
2090.39, 0.495440
2091.23, 0.495440
2092.07, 0.495440
2092.92, 0.495367
2093.76, 0.495293
2094.61, 0.495293
2095.45, 0.495147
2096.3, 0.495147
2097.15, 0.495147
2098.0, 0.494927
2098.85, 0.494634
2099.7, 0.494707
2100.55, 0.494854
2101.4, 0.494854
2102.25, 0.494927
2103.1, 0.495000
2103.96, 0.495073
2104.81, 0.495073
2105.67, 0.495073
2106.52, 0.494927
2107.38, 0.495000
2108.24, 0.495147
2109.09, 0.494927
2109.95, 0.495073
2110.81, 0.495147
2111.67, 0.495000
2112.53, 0.495073
2113.39, 0.495073
2114.25, 0.494780
2115.12, 0.494927
2115.98, 0.495293
2116.84, 0.495220
2117.71, 0.495147
2118.58, 0.495073
2119.44, 0.495000
2120.31, 0.495147
2121.18, 0.495367
2122.04, 0.495440
2122.91, 0.495660
2123.78, 0.495513
2124.65, 0.495440
2125.52, 0.495513
2126.4, 0.495586
2127.27, 0.495586
2128.14, 0.495440
2129.02, 0.495586
2129.89, 0.495733
2130.77, 0.495733
2131.64, 0.495733
2132.52, 0.495586
2133.4, 0.495733
2134.27, 0.496026
2135.15, 0.495953
2136.03, 0.495806
2136.91, 0.495733
2137.79, 0.495880
2138.68, 0.495953
2139.56, 0.495660
2140.44, 0.495733
2141.33, 0.495880
2142.21, 0.495953
2143.1, 0.495880
2143.99, 0.495953
2144.87, 0.496099
2145.76, 0.496173
2146.65, 0.496173
2147.54, 0.495953
2148.43, 0.496099
2149.32, 0.495707
2150.21, 0.495903
2151.1, 0.496165
2151.99, 0.496100
2152.89, 0.495641
2153.78, 0.495183
2154.68, 0.495052
2155.57, 0.495183
2156.47, 0.495183
2157.37, 0.495052
2158.27, 0.495118
2159.16, 0.495380
2160.06, 0.495445
2160.96, 0.495249
2161.86, 0.494791
2162.77, 0.494463
2163.67, 0.494594
2164.57, 0.494660
2165.48, 0.494398
2166.38, 0.494594
2167.29, 0.494856
2168.2, 0.494856
2169.1, 0.494856
2170.01, 0.495118
2170.92, 0.494791
2171.83, 0.494463
2172.74, 0.494529
2173.65, 0.494594
2174.56, 0.494463
2175.47, 0.494202
2176.39, 0.494005
2177.3, 0.493940
2178.22, 0.493940
2179.13, 0.493940
2180.05, 0.493744
2180.96, 0.493875
2181.88, 0.494005
2182.8, 0.493744
2183.72, 0.493220
2184.64, 0.493089
2185.56, 0.492893
2186.48, 0.492893
2187.41, 0.492566
2188.33, 0.492500
2189.25, 0.492435
2190.18, 0.492239
2191.1, 0.492369
2192.03, 0.492369
2192.96, 0.491977
2193.89, 0.491388
2194.82, 0.491519
2195.74, 0.491388
2196.68, 0.491126
2197.61, 0.490537
2198.54, 0.489948
2199.47, 0.489621
2200.4, 0.489490
2201.34, 0.489425
2202.28, 0.489556
2203.21, 0.489425
2204.15, 0.488967
2205.08, 0.488378
2206.02, 0.488247
2206.96, 0.488050
2207.9, 0.488050
2208.84, 0.487920
2209.78, 0.487854
2210.73, 0.487723
2211.67, 0.487200
2212.61, 0.487069
2213.56, 0.486938
2214.5, 0.486349
2215.45, 0.485760
2216.4, 0.485498
2217.35, 0.485236
2218.3, 0.485040
2219.24, 0.484582
2220.2, 0.484255
2221.15, 0.483797
2222.1, 0.483077
2223.05, 0.482619
2224.0, 0.482292
2224.96, 0.481310
2225.91, 0.480328
2226.87, 0.479739
2227.83, 0.479151
2228.79, 0.478300
2229.74, 0.477384
2230.7, 0.476926
2231.66, 0.476206
2232.63, 0.475290
2233.59, 0.474439
2234.55, 0.473850
2235.51, 0.472868
2236.48, 0.471625
2237.44, 0.470578
2238.41, 0.469858
2239.38, 0.468942
2240.34, 0.467633
2241.31, 0.466128
2242.28, 0.464492
2243.25, 0.463118
2244.22, 0.462333
2245.19, 0.461416
2246.17, 0.460369
2247.14, 0.459257
2248.12, 0.458014
2249.09, 0.457359
2250.07, 0.457294
2251.04, 0.457883
2252.02, 0.458210
2253.0, 0.458733
2253.98, 0.459650
2254.96, 0.460762
2255.94, 0.461678
2256.92, 0.462071
2257.91, 0.463052
2258.89, 0.464165
2259.88, 0.465343
2260.86, 0.466652
2261.85, 0.467895
2262.83, 0.468877
2263.82, 0.469662
2264.81, 0.470251
2265.8, 0.471036
2266.79, 0.472018
2267.78, 0.472868
2268.78, 0.473392
2269.77, 0.473719
2270.76, 0.474308
2271.76, 0.474897
2272.75, 0.475159
2273.75, 0.475028
2274.75, 0.475290
2275.75, 0.475748
2276.75, 0.475879
2277.75, 0.475944
2278.75, 0.475879
2279.75, 0.475879
2280.75, 0.475682
2281.76, 0.475355
2282.76, 0.475617
2283.77, 0.475421
2284.77, 0.475421
2285.78, 0.475290
2286.79, 0.474766
2287.8, 0.474373
2288.81, 0.473523
2289.82, 0.473130
2290.83, 0.472999
2291.84, 0.472868
2292.86, 0.472476
2293.87, 0.472279
2294.89, 0.471821
2295.91, 0.471036
2296.92, 0.470774
2297.94, 0.470120
2298.96, 0.469335
2299.98, 0.468680
2301.0, 0.467895
2302.02, 0.466782
2303.04, 0.466193
2304.07, 0.465605
2305.09, 0.464885
2306.12, 0.464492
2307.15, 0.463183
2308.17, 0.462202
2309.2, 0.461155
2310.23, 0.459977
2311.26, 0.459322
2312.29, 0.458341
2313.32, 0.457163
2314.35, 0.456181
2315.39, 0.455461
2316.42, 0.454872
2317.46, 0.454349
2318.5, 0.454087
2319.53, 0.453694
2320.57, 0.453236
2321.61, 0.453171
2322.65, 0.453106
2323.69, 0.452909
2324.73, 0.452844
2325.78, 0.452713
2326.82, 0.452320
2327.86, 0.452189
2328.91, 0.452582
2329.96, 0.453171
2331.01, 0.453040
2332.05, 0.453106
2333.1, 0.453367
2334.15, 0.453629
2335.21, 0.453694
2336.26, 0.453694
2337.31, 0.453498
2338.36, 0.453694
2339.42, 0.454218
2340.48, 0.454414
2341.53, 0.454611
2342.59, 0.455003
2343.65, 0.455330
2344.71, 0.455592
2345.77, 0.455527
2346.83, 0.455592
2347.9, 0.455985
2348.96, 0.456377
2350.02, 0.456639
2351.09, 0.456901
2352.16, 0.456966
2353.23, 0.456836
2354.29, 0.457032
2355.36, 0.457294
2356.43, 0.457163
2357.51, 0.457032
2358.58, 0.457097
2359.65, 0.457097
2360.73, 0.456966
2361.8, 0.456836
2362.88, 0.456443
2363.96, 0.455789
2365.03, 0.455265
2366.11, 0.454676
2367.19, 0.454022
2368.27, 0.453433
2369.36, 0.452647
2370.44, 0.452058
2371.53, 0.451404
2372.61, 0.450750
2373.7, 0.449964
2374.78, 0.449114
2375.87, 0.448590
2376.96, 0.448590
2378.05, 0.448067
2379.14, 0.447936
2380.24, 0.448198
2381.33, 0.448590
2382.42, 0.448721
2383.52, 0.448786
2384.61, 0.449310
2385.71, 0.450030
2386.81, 0.450684
2387.91, 0.451142
2389.01, 0.451666
2390.11, 0.452058
2391.22, 0.452386
2392.32, 0.453040
2393.42, 0.453629
2394.53, 0.453956
2395.64, 0.454087
2396.74, 0.454545
2397.85, 0.455330
2398.96, 0.455461
2400.07, 0.455919
2401.18, 0.456181
2402.3, 0.456574
2403.41, 0.457097
2404.52, 0.457621
2405.64, 0.458210
2406.76, 0.458537
2407.88, 0.459061
2408.99, 0.459715
2410.11, 0.459977
2411.23, 0.460435
2412.36, 0.460762
2413.48, 0.460762
2414.6, 0.460827
2415.73, 0.460762
2416.85, 0.461089
2417.98, 0.461416
2419.11, 0.461547
2420.24, 0.461220
2421.37, 0.461024
2422.5, 0.461089
2423.64, 0.460893
2424.77, 0.460893
2425.9, 0.460827
2427.04, 0.460631
2428.18, 0.460435
2429.31, 0.460435
2430.45, 0.460304
2431.59, 0.459977
2432.73, 0.459846
2433.88, 0.460042
2435.02, 0.459780
2436.16, 0.459650
2437.31, 0.459519
2438.45, 0.459322
2439.6, 0.458799
2440.75, 0.458472
2441.9, 0.458341
2443.05, 0.458210
2444.2, 0.457948
2445.35, 0.457883
2446.51, 0.457621
2447.67, 0.457425
2448.82, 0.457228
2449.98, 0.457163
2451.14, 0.456705
2452.3, 0.456050
2453.46, 0.455789
2454.62, 0.455789
2455.78, 0.455330
2456.94, 0.454938
2458.11, 0.454480
2459.28, 0.454087
2460.44, 0.453956
2461.61, 0.453825
2462.78, 0.453302
2463.95, 0.452909
2465.12, 0.452647
2466.3, 0.452386
2467.47, 0.451797
2468.65, 0.451208
2469.82, 0.450684
2471.0, 0.450422
2472.18, 0.450030
2473.36, 0.449441
2474.54, 0.448852
2475.72, 0.448590
2476.9, 0.448525
2478.08, 0.448198
2479.27, 0.447478
2480.46, 0.447150
2481.64, 0.447150
2482.83, 0.446823
2484.02, 0.446300
2485.21, 0.446169
2486.4, 0.446169
2487.6, 0.445776
2488.79, 0.445515
2489.99, 0.445318
2491.18, 0.445187
2492.38, 0.444860
2493.58, 0.444402
2494.78, 0.444009
2495.98, 0.444206
2497.18, 0.444337
2498.39, 0.443878
2499.59, 0.443682
2500.8, 0.443617
2502.01, 0.443420
2503.21, 0.443420
2504.42, 0.443486
2505.63, 0.443355
2506.84, 0.443420
2508.06, 0.443486
2509.27, 0.443617
2510.49, 0.443224
2511.7, 0.443028
2512.92, 0.443093
2514.14, 0.442962
2515.36, 0.442897
2516.58, 0.442701
2517.8, 0.442570
2519.03, 0.442504
2520.25, 0.442570
2521.48, 0.442635
2522.7, 0.442177
2523.93, 0.441850
2525.16, 0.441981
2526.39, 0.441915
2527.62, 0.441523
2528.86, 0.441326
2530.09, 0.440934
2531.33, 0.440214
2532.56, 0.439952
2533.8, 0.440345
2535.04, 0.439494
2536.28, 0.438709
2537.52, 0.439494
2538.76, 0.439887
2540.01, 0.439887
2541.25, 0.438905
2542.5, 0.437138
2543.75, 0.437269
2544.99, 0.438512
2546.24, 0.438251
2547.49, 0.436746
2548.75, 0.437204
2550.0, 0.436811
2551.26, 0.435306
2552.51, 0.434455
2553.77, 0.436484
2555.03, 0.438054
2556.29, 0.437596
2557.55, 0.437531
2558.81, 0.436484
2560.08, 0.432165
2561.34, 0.427911
2562.61, 0.427846
2563.88, 0.429154
2565.14, 0.433015
2566.41, 0.436549
2567.68, 0.435371
2568.96, 0.431445
2570.23, 0.432165
2571.51, 0.434586
2572.78, 0.429547
2574.06, 0.430332
2575.34, 0.433015
2576.62, 0.431445
2577.9, 0.433932
2579.18, 0.435960
2580.47, 0.433146
2581.75, 0.431968
2583.04, 0.426471
2584.32, 0.426013
2585.61, 0.430791
2586.9, 0.429089
2588.2, 0.430136
2589.49, 0.432427
2590.78, 0.434455
2592.08, 0.432361
2593.37, 0.418030
2594.67, 0.405269
2595.97, 0.416197
2597.27, 0.430005
2598.57, 0.434979
2599.88, 0.434063
2601.18, 0.431576
2602.49, 0.429743
2603.79, 0.425228
2605.1, 0.418684
2606.41, 0.421956
2607.72, 0.427584
2609.03, 0.428762
2610.35, 0.430332
2611.66, 0.431772
2612.98, 0.431052
2614.3, 0.430856
2615.62, 0.424508
2616.94, 0.420582
2618.26, 0.425032
2619.58, 0.420647
2620.91, 0.420844
2622.23, 0.429416
2623.56, 0.431445
2624.89, 0.427846
2626.22, 0.420844
2627.55, 0.423461
2628.88, 0.421367
2630.21, 0.413711
2631.55, 0.419077
2632.89, 0.423199
2634.22, 0.423330
2635.56, 0.425948
2636.9, 0.426144
2638.25, 0.425686
2639.59, 0.424639
2640.93, 0.423396
2642.28, 0.422414
2643.63, 0.422152
2644.98, 0.419469
2646.33, 0.419469
2647.68, 0.421302
2649.03, 0.421760
2650.39, 0.419797
2651.74, 0.415805
2653.1, 0.415020
2654.46, 0.415674
2655.82, 0.414823
2657.18, 0.416132
2658.54, 0.412860
2659.9, 0.410439
2661.27, 0.410046
2662.64, 0.408672
2664.01, 0.398267
2665.38, 0.389040
2666.74, 0.387993
2668.12, 0.391854
2669.49, 0.381645
2670.87, 0.377064
2672.24, 0.386357
2673.62, 0.384590
2675.0, 0.373989
2676.38, 0.361424
2677.76, 0.353310
2679.15, 0.343559
2680.54, 0.336361
2681.92, 0.325563
2683.31, 0.313195
2684.7, 0.303510
2686.09, 0.294741
2687.48, 0.287216
2688.88, 0.279886
2690.27, 0.271772
2691.67, 0.261825
2693.07, 0.249457
2694.47, 0.242455
2695.87, 0.240099
2697.27, 0.238921
2698.67, 0.237219
2700.08, 0.234667
2701.49, 0.233424
2702.9, 0.234602
2704.31, 0.234733
2705.72, 0.234275
2707.13, 0.232377
2708.54, 0.227796
2709.96, 0.220925
2711.38, 0.217129
2712.8, 0.216737
2714.22, 0.212352
2715.64, 0.206528
2717.06, 0.200115
2718.49, 0.192459
2719.91, 0.183297
2721.34, 0.180221
2722.77, 0.177538
2724.2, 0.171256
2725.63, 0.168835
2727.07, 0.166414
2728.5, 0.161833
2729.94, 0.156205
2731.38, 0.150512
2732.82, 0.144295
2734.26, 0.136835
2735.7, 0.131011
2737.15, 0.124794
2738.59, 0.116352
2740.04, 0.109939
2741.49, 0.106929
2742.94, 0.105424
2744.39, 0.103853
2745.84, 0.102217
2747.3, 0.101366
2748.76, 0.100908
2750.21, 0.100516
2751.67, 0.100123
2753.14, 0.0990760
2754.6, 0.0967200
2756.06, 0.0967860
2757.53, 0.0990100
2759.0, 0.100058
2760.46, 0.100254
2761.94, 0.0995340
2763.41, 0.100254
2764.88, 0.102086
2766.36, 0.103199
2767.83, 0.104246
2769.31, 0.105620
2770.79, 0.107190
2772.27, 0.109874
2773.76, 0.112164
2775.24, 0.113865
2776.73, 0.115436
2778.22, 0.116941
2779.71, 0.118315
2781.2, 0.119559
2782.69, 0.120998
2784.18, 0.122503
2785.68, 0.122634
2787.18, 0.122765
2788.68, 0.124401
2790.18, 0.125972
2791.68, 0.126822
2793.19, 0.127477
2794.69, 0.127935
2796.2, 0.128458
2797.71, 0.129047
2799.22, 0.129702
2800.73, 0.129636
2802.24, 0.128982
2803.76, 0.129505
2805.28, 0.131141
2806.8, 0.131992
2808.32, 0.132777
2809.84, 0.133694
2811.36, 0.134544
2812.89, 0.135002
2814.42, 0.135395
2815.94, 0.136311
2817.48, 0.137162
2819.01, 0.137489
2820.54, 0.138274
2822.08, 0.139518
2823.61, 0.140630
2825.15, 0.141481
2826.69, 0.142135
2828.23, 0.142855
2829.78, 0.143771
2831.32, 0.144426
2832.87, 0.145080
2834.42, 0.145800
2835.97, 0.146716
2837.52, 0.147632
2839.08, 0.148418
2840.63, 0.149072
2842.19, 0.149857
2843.75, 0.150577
2845.31, 0.151362
2846.87, 0.151951
2848.44, 0.152409
2850.0, 0.153064
2851.57, 0.153980
2853.14, 0.154176
2854.71, 0.154438
2856.28, 0.155223
2857.86, 0.156009
2859.43, 0.156401
2861.01, 0.156728
2862.59, 0.157121
2864.17, 0.157383
2865.76, 0.157514
2867.34, 0.157710
2868.93, 0.158037
2870.52, 0.158103
2872.11, 0.158299
2873.7, 0.158561
2875.29, 0.158757
2876.89, 0.158626
2878.49, 0.158430
2880.08, 0.158430
2881.69, 0.158299
2883.29, 0.158037
2884.89, 0.157775
2886.5, 0.157710
2888.11, 0.157448
2889.72, 0.157317
2891.33, 0.157187
2892.94, 0.156859
2894.56, 0.156598
2896.17, 0.156467
2897.79, 0.156270
2899.42, 0.155812
2901.04, 0.155354
2902.66, 0.155420
2904.29, 0.155223
2905.92, 0.155027
2907.55, 0.154896
2909.18, 0.154765
2910.81, 0.154700
2912.45, 0.154569
2914.08, 0.154307
2915.72, 0.154307
2917.36, 0.154307
2919.01, 0.154176
2920.65, 0.154176
2922.3, 0.154111
2923.94, 0.154242
2925.59, 0.154373
2927.25, 0.154438
2928.9, 0.154503
2930.56, 0.154634
2932.21, 0.154896
2933.87, 0.154962
2935.53, 0.155158
2937.2, 0.155616
2938.86, 0.155812
2940.53, 0.156139
2942.2, 0.156401
2943.87, 0.156663
2945.54, 0.156990
2947.22, 0.157317
2948.89, 0.157775
2950.57, 0.158168
2952.25, 0.158953
2953.93, 0.159477
2955.62, 0.159804
2957.3, 0.160393
2958.99, 0.161047
2960.68, 0.161636
2962.37, 0.162095
2964.07, 0.162618
2965.76, 0.163338
2967.46, 0.163927
2969.16, 0.164254
2970.86, 0.164974
2972.56, 0.165890
2974.27, 0.166806
2975.98, 0.167591
2977.69, 0.168050
2979.4, 0.168769
2981.11, 0.169686
2982.83, 0.170733
2984.54, 0.171780
2986.26, 0.172630
2987.98, 0.173416
2989.71, 0.174332
2991.43, 0.175182
2993.16, 0.176033
2994.89, 0.177080
2996.62, 0.178193
2998.35, 0.179174
3000.09, 0.180287
3001.83, 0.181399
3003.57, 0.182446
3005.31, 0.183428
3007.05, 0.184475
3008.79, 0.185457
3010.54, 0.186634
3012.29, 0.187812
3014.04, 0.188859
3015.8, 0.189841
3017.55, 0.191019
3019.31, 0.192262
3021.07, 0.193309
3022.83, 0.194291
3024.59, 0.195403
3026.36, 0.196516
3028.13, 0.197563
3029.9, 0.198479
3031.67, 0.199526
3033.44, 0.200639
3035.22, 0.201555
3037.0, 0.202602
3038.78, 0.203780
3040.56, 0.204827
3042.34, 0.205677
3044.13, 0.206659
3045.92, 0.207837
3047.71, 0.208949
3049.5, 0.209866
3051.3, 0.210651
3053.09, 0.211502
3054.89, 0.212614
3056.69, 0.213661
3058.5, 0.214643
3060.3, 0.215755
3062.11, 0.216802
3063.92, 0.217784
3065.73, 0.218700
3067.55, 0.219551
3069.36, 0.220598
3071.18, 0.221907
3073.0, 0.222888
3074.82, 0.223804
3076.65, 0.224786
3078.48, 0.225767
3080.31, 0.226815
3082.14, 0.227796
3083.97, 0.228974
3085.8, 0.230021
3087.64, 0.231003
3089.48, 0.232246
3091.33, 0.233358
3093.17, 0.234340
3095.02, 0.235322
3096.87, 0.236369
3098.72, 0.237612
3100.57, 0.238855
3102.43, 0.239968
3104.28, 0.241080
3106.14, 0.242193
3108.01, 0.243371
3109.87, 0.244549
3111.74, 0.245792
3113.61, 0.246839
3115.48, 0.248017
3117.35, 0.249260
3119.23, 0.250504
3121.1, 0.251878
3122.98, 0.253121
3124.87, 0.254365
3126.75, 0.255477
3128.64, 0.256721
3130.53, 0.258095
3132.42, 0.259338
3134.31, 0.260712
3136.21, 0.262087
3138.11, 0.263134
3140.01, 0.264181
3141.91, 0.265489
3143.82, 0.266929
3145.73, 0.268303
3147.64, 0.269481
3149.55, 0.270528
3151.46, 0.271837
3153.38, 0.273342
3155.3, 0.274389
3157.22, 0.275502
3159.14, 0.276745
3161.07, 0.278054
3163.0, 0.279297
3164.93, 0.280541
3166.86, 0.281719
3168.8, 0.282831
3170.74, 0.284009
3172.68, 0.285318
3174.62, 0.286430
3176.56, 0.287608
3178.51, 0.289048
3180.46, 0.290226
3182.42, 0.291273
3184.37, 0.292451
3186.33, 0.293694
3188.29, 0.295003
3190.25, 0.296115
3192.21, 0.297293
3194.18, 0.298667
3196.15, 0.299715
3198.12, 0.300827
3200.09, 0.302005
3202.07, 0.303117
3204.05, 0.304426
3206.03, 0.305670
3208.02, 0.306913
3210.0, 0.308156
3211.99, 0.309334
3213.98, 0.310512
3215.98, 0.311690
3217.97, 0.312737
3219.97, 0.313915
3221.97, 0.315158
3223.98, 0.316205
3225.98, 0.317449
3227.99, 0.318627
3230.0, 0.319674
3232.02, 0.320852
3234.03, 0.321964
3236.05, 0.323077
3238.07, 0.324124
3240.1, 0.325236
3242.12, 0.326283
3244.15, 0.327330
3246.18, 0.328377
3248.22, 0.329490
3250.25, 0.330602
3252.29, 0.331584
3254.33, 0.332696
3256.38, 0.333809
3258.43, 0.334856
3260.47, 0.335837
3262.53, 0.336688
3264.58, 0.337801
3266.64, 0.338848
3268.7, 0.339764
3270.76, 0.340680
3272.82, 0.341596
3274.89, 0.342643
3276.96, 0.343559
3279.04, 0.344541
3281.11, 0.345522
3283.19, 0.346504
3285.27, 0.347420
3287.35, 0.348336
3289.44, 0.349252
3291.53, 0.350234
3293.62, 0.351019
3295.71, 0.351739
3297.81, 0.352590
3299.91, 0.353506
3302.01, 0.354422
3304.11, 0.355404
3306.22, 0.356385
3308.33, 0.357171
3310.44, 0.358087
3312.56, 0.358872
3314.68, 0.359527
3316.8, 0.360443
3318.92, 0.361293
3321.05, 0.362013
3323.18, 0.362602
3325.31, 0.363257
3327.44, 0.364042
3329.58, 0.364827
3331.72, 0.365547
3333.86, 0.366201
3336.01, 0.366921
3338.16, 0.367576
3340.31, 0.368165
3342.46, 0.368623
3344.61, 0.369015
3346.77, 0.369539
3348.94, 0.370062
3351.1, 0.370520
3353.27, 0.370979
3355.44, 0.371371
3357.61, 0.371633
3359.79, 0.372026
3361.97, 0.372484
3364.15, 0.372876
3366.33, 0.373138
3368.52, 0.373596
3370.71, 0.374120
3372.9, 0.374578
3375.1, 0.375036
3377.3, 0.375756
3379.5, 0.376345
3381.71, 0.376803
3383.91, 0.377326
3386.12, 0.377981
3388.34, 0.378635
3390.55, 0.379355
3392.77, 0.380075
3394.99, 0.380664
3397.22, 0.381318
3399.45, 0.381972
3401.68, 0.382627
3403.91, 0.383216
3406.15, 0.383608
3408.39, 0.383936
3410.63, 0.384394
3412.87, 0.385048
3415.12, 0.385702
3417.37, 0.386226
3419.63, 0.386946
3421.88, 0.387797
3424.14, 0.388582
3426.41, 0.389302
3428.67, 0.390087
3430.94, 0.390676
3433.21, 0.391265
3435.49, 0.391854
3437.77, 0.392246
3440.05, 0.392705
3442.33, 0.393293
3444.62, 0.394013
3446.91, 0.394864
3449.2, 0.395715
3451.5, 0.396565
3453.8, 0.397351
3456.1, 0.398267
3458.41, 0.399314
3460.72, 0.400230
3463.03, 0.401015
3465.34, 0.401801
3467.66, 0.402455
3469.98, 0.402848
3472.31, 0.403568
3474.63, 0.404222
3476.96, 0.404615
3479.3, 0.405073
3481.64, 0.405596
3483.97, 0.406054
3486.32, 0.406578
3488.66, 0.406970
3491.01, 0.407298
3493.36, 0.407625
3495.72, 0.407952
3498.08, 0.408279
3500.44, 0.408737
3502.81, 0.409195
3505.18, 0.409915
3507.55, 0.410700
3509.92, 0.411617
3512.3, 0.412598
3514.68, 0.413711
3517.06, 0.414692
3519.45, 0.415739
3521.84, 0.416786
3524.24, 0.417703
3526.64, 0.418619
3529.04, 0.419535
3531.44, 0.420516
3533.85, 0.421367
3536.26, 0.422218
3538.67, 0.422938
3541.09, 0.423592
3543.51, 0.424312
3545.93, 0.425032
3548.36, 0.425621
3550.79, 0.426079
3553.22, 0.426602
3555.66, 0.427322
3558.1, 0.428042
3560.54, 0.428762
3562.99, 0.429220
3565.44, 0.429809
3567.9, 0.430332
3570.35, 0.430856
3572.81, 0.431445
3575.28, 0.432034
3577.75, 0.432492
3580.22, 0.432885
3582.69, 0.433408
3585.17, 0.433932
3587.65, 0.434455
3590.14, 0.434913
3592.62, 0.435371
3595.11, 0.435960
3597.61, 0.436484
3600.11, 0.436876
3602.61, 0.437400
3605.11, 0.437858
3607.62, 0.438251
3610.14, 0.438774
3612.65, 0.439232
3615.17, 0.439690
3617.69, 0.440214
3620.22, 0.440737
3622.75, 0.441195
3625.28, 0.441654
3627.82, 0.441981
3630.36, 0.442373
3632.9, 0.442962
3635.45, 0.443486
3638.0, 0.443813
3640.56, 0.444140
3643.12, 0.444729
3645.68, 0.445056
3648.24, 0.445384
3650.81, 0.445842
3653.39, 0.446300
3655.96, 0.446627
3658.54, 0.446889
3661.13, 0.447281
3663.71, 0.447805
3666.3, 0.448263
3668.9, 0.448721
3671.5, 0.449114
3674.1, 0.449506
3676.7, 0.449964
3679.31, 0.450357
3681.93, 0.450619
3684.54, 0.451077
3687.17, 0.451535
3689.79, 0.451993
3692.42, 0.452451
3695.05, 0.452778
3697.69, 0.453171
3700.32, 0.453564
3702.97, 0.453760
3705.61, 0.454022
3708.27, 0.454414
3710.92, 0.454938
3713.58, 0.455265
3716.24, 0.455592
3718.91, 0.456116
3721.58, 0.456508
3724.25, 0.456836
3726.93, 0.457163
3729.61, 0.457425
3732.29, 0.457752
3734.98, 0.457948
3737.67, 0.458341
3740.37, 0.458799
3743.07, 0.459126
3745.78, 0.459453
3748.49, 0.459780
3751.2, 0.459977
3753.91, 0.460238
3756.63, 0.460566
3759.36, 0.460958
3762.09, 0.461285
3764.82, 0.461482
3767.55, 0.461744
3770.29, 0.462071
3773.04, 0.462333
3775.78, 0.462594
3778.54, 0.462856
3781.29, 0.463118
3784.05, 0.463314
3786.82, 0.463576
3789.59, 0.463903
3792.36, 0.464034
3795.13, 0.464165
3797.92, 0.464361
3800.7, 0.464623
3803.49, 0.464819
3806.28, 0.464950
3809.08, 0.465146
3811.88, 0.465277
3814.68, 0.465474
3817.49, 0.465670
3820.31, 0.465670
3823.12, 0.465801
3825.94, 0.466063
3828.77, 0.466193
3831.6, 0.466324
3834.43, 0.466324
3837.27, 0.466455
3840.11, 0.466586
3842.96, 0.466652
3845.81, 0.466652
3848.67, 0.466717
3851.53, 0.466782
3854.39, 0.466782
3857.26, 0.466848
3860.13, 0.467044
3863.01, 0.467044
3865.89, 0.467044
3868.77, 0.467044
3871.66, 0.467241
3874.55, 0.467241
3877.45, 0.467110
3880.35, 0.467175
3883.26, 0.467306
3886.17, 0.467306
3889.09, 0.467241
3892.01, 0.467110
3894.93, 0.467175
3897.86, 0.467306
3900.79, 0.467241
3903.73, 0.467110
3906.67, 0.467175
3909.62, 0.467241
3912.57, 0.467110
3915.52, 0.467110
3918.48, 0.467175
3921.45, 0.467241
3924.42, 0.466979
3927.39, 0.466782
3930.37, 0.466782
3933.35, 0.466782
3936.34, 0.466717
3939.33, 0.466717
3942.32, 0.466521
3945.32, 0.466128
3948.33, 0.465866
3951.34, 0.465670
3954.35, 0.465343
3957.37, 0.465081
3960.39, 0.464819
3963.42, 0.464688
3966.45, 0.464427
3969.49, 0.464165
3972.53, 0.464165
3975.58, 0.464165
3978.63, 0.464099
3981.68, 0.464034
3984.75, 0.464099
3987.81, 0.464230
3990.88, 0.464361
3993.95, 0.464623
3997.03, 0.464819
4000.12, 0.465016
4003.21, 0.465408
4006.3, 0.465605
4009.4, 0.465735
4012.5, 0.465997
4015.61, 0.466128
4018.72, 0.466193
4021.84, 0.466259
4024.96, 0.466259
4028.09, 0.466324
4031.22, 0.466259
4034.36, 0.466128
4037.5, 0.466128
4040.65, 0.466128
4043.8, 0.466193
4046.96, 0.466193
4050.12, 0.466128
4053.29, 0.465997
4056.46, 0.465932
4059.64, 0.465866
4062.82, 0.465735
4066.0, 0.465539
4069.19, 0.465277
4072.39, 0.465212
4075.59, 0.465277
4078.8, 0.465016
4082.01, 0.464754
4085.23, 0.464557
4088.45, 0.464492
4091.68, 0.464361
4094.91, 0.464165
4098.15, 0.463903
4101.39, 0.463707
4104.63, 0.463510
4107.89, 0.463380
4111.14, 0.463249
4114.41, 0.462987
4117.67, 0.462856
4120.95, 0.462594
4124.23, 0.462398
4127.51, 0.462267
4130.8, 0.461940
4134.09, 0.461744
4137.39, 0.461547
4140.7, 0.461351
4144.01, 0.461089
4147.32, 0.460958
4150.64, 0.460827
4153.97, 0.460631
4157.3, 0.460238
4160.64, 0.460042
4163.98, 0.459715
4167.33, 0.459388
4170.68, 0.459191
4174.04, 0.458995
4177.4, 0.458668
4180.77, 0.458406
4184.14, 0.458144
4187.52, 0.457686
4190.91, 0.457359
4194.3, 0.456836
4197.69, 0.456181
4201.1, 0.455527
4204.5, 0.454611
4207.92, 0.453236
4211.34, 0.451535
4214.76, 0.449768
4218.19, 0.448067
4221.62, 0.446234
4225.06, 0.444467
4228.51, 0.443028
4231.96, 0.442177
4235.42, 0.441784
4238.88, 0.441719
4242.35, 0.442243
4245.83, 0.443355
4249.31, 0.444729
4252.79, 0.446234
4256.28, 0.447085
4259.78, 0.445907
4263.29, 0.443682
4266.79, 0.441784
4270.31, 0.440410
4273.83, 0.439363
4277.35, 0.438643
4280.89, 0.438054
4284.42, 0.437662
4287.97, 0.437531
4291.52, 0.437335
4295.07, 0.437204
4298.63, 0.437400
4302.2, 0.437531
4305.78, 0.437531
4309.35, 0.437596
4312.94, 0.437596
4316.53, 0.437465
4320.13, 0.437400
4323.73, 0.437204
4327.34, 0.436876
4330.96, 0.436549
4334.58, 0.436157
4338.21, 0.435764
4341.84, 0.435175
4345.48, 0.434717
4349.12, 0.434324
4352.77, 0.433866
4356.43, 0.433343
4360.1, 0.432623
4363.76, 0.432034
4367.44, 0.431445
4371.12, 0.430987
4374.81, 0.430398
4378.51, 0.429809
4382.21, 0.429220
4385.92, 0.428696
4389.63, 0.428173
4393.35, 0.427453
4397.08, 0.426799
4400.81, 0.426275
4404.55, 0.425686
4408.29, 0.424966
4412.04, 0.424312
4415.8, 0.423658
4419.57, 0.422938
4423.34, 0.422218
4427.12, 0.421498
4430.9, 0.420713
4434.69, 0.419862
4438.49, 0.418880
4442.29, 0.418095
4446.1, 0.417310
4449.92, 0.416525
4453.74, 0.415739
4457.57, 0.414889
4461.41, 0.414038
4465.25, 0.413187
4469.1, 0.412271
4472.95, 0.411355
4476.82, 0.410504
4480.69, 0.409523
4484.56, 0.408606
4488.44, 0.407690
4492.33, 0.406774
4496.23, 0.405596
4500.13, 0.404549
4504.04, 0.403371
4507.96, 0.402062
4511.88, 0.400623
4515.81, 0.399052
4519.75, 0.397351
4523.69, 0.395584
4527.65, 0.393490
4531.6, 0.391199
4535.57, 0.388516
4539.54, 0.385637
4543.52, 0.382496
4547.5, 0.379158
4551.5, 0.375756
4555.5, 0.372287
4559.5, 0.368819
4563.52, 0.365351
4567.54, 0.361817
4571.56, 0.358283
4575.6, 0.354815
4579.64, 0.351281
4583.69, 0.347682
4587.75, 0.344148
4591.81, 0.340614
4595.88, 0.337212
4599.96, 0.333743
4604.04, 0.330209
4608.14, 0.326872
4612.24, 0.323665
4616.34, 0.320459
4620.46, 0.317252
4624.58, 0.314177
4628.71, 0.311166
4632.84, 0.308287
4636.99, 0.305539
4641.14, 0.302659
4645.3, 0.299780
4649.47, 0.296966
4653.64, 0.294152
4657.82, 0.291404
4662.01, 0.288590
4666.21, 0.285710
4670.41, 0.282831
4674.62, 0.280017
4678.84, 0.277007
4683.07, 0.274062
4687.3, 0.271117
4691.54, 0.267976
4695.79, 0.264901
4700.05, 0.261694
4704.31, 0.258487
4708.59, 0.255215
4712.87, 0.251747
4717.15, 0.248213
4721.45, 0.244745
4725.76, 0.241080
4730.07, 0.237612
4734.39, 0.234275
4738.72, 0.231003
4743.05, 0.227665
4747.39, 0.224524
4751.75, 0.221710
4756.1, 0.219093
4760.47, 0.216606
4764.85, 0.214250
4769.23, 0.211960
4773.62, 0.209800
4778.02, 0.207837
4782.43, 0.205874
4786.85, 0.203911
4791.27, 0.201882
4795.7, 0.199853
4800.14, 0.197694
4804.59, 0.195600
4809.05, 0.193506
4813.51, 0.191281
4817.99, 0.189056
4822.47, 0.186700
4826.96, 0.184409
4831.46, 0.181988
4835.96, 0.179502
4840.48, 0.177015
4845.0, 0.174397
4849.54, 0.171780
4854.08, 0.169162
4858.63, 0.166479
4863.18, 0.163796
4867.75, 0.161113
4872.33, 0.158561
4876.91, 0.156205
4881.5, 0.154045
4886.1, 0.152017
4890.71, 0.150184
4895.33, 0.148548
4899.96, 0.147109
4904.59, 0.145865
4909.24, 0.144884
4913.89, 0.143902
4918.55, 0.143052
4923.22, 0.142332
4927.9, 0.141612
4932.59, 0.140957
4937.29, 0.140303
4942.0, 0.139714
4946.71, 0.139125
4951.44, 0.138602
4956.17, 0.137947
4960.91, 0.137620
4965.67, 0.137358
4970.43, 0.136900
4975.2, 0.136442
4979.98, 0.135919
4984.76, 0.135460
4989.56, 0.134872
4994.37, 0.134152
4999.18, 0.133366
5004.01, 0.132385
5008.84, 0.131272
5013.69, 0.129833
5018.54, 0.128197
5023.4, 0.126822
5028.28, 0.125383
5033.16, 0.123616
5038.05, 0.121784
5042.95, 0.119951
5047.86, 0.118184
5052.78, 0.116483
5057.71, 0.114912
5062.65, 0.113538
5067.6, 0.112426
5072.56, 0.111575
5077.53, 0.110855
5082.5, 0.110332
5087.49, 0.110201
5092.49, 0.110201
5097.5, 0.110332
5102.51, 0.110593
5107.54, 0.111051
5112.58, 0.111444
5117.62, 0.111771
5122.68, 0.112033
5127.75, 0.112295
5132.82, 0.112491
5137.91, 0.112818
5143.01, 0.112949
5148.12, 0.113015
5153.23, 0.113734
5158.36, 0.114389
5163.5, 0.114782
5168.65, 0.115240
5173.81, 0.115698
5178.98, 0.116287
5184.15, 0.116876
5189.34, 0.117595
5194.54, 0.118053
5199.75, 0.118381
5204.98, 0.119166
5210.21, 0.119362
5215.45, 0.119755
5220.7, 0.120737
5225.96, 0.121195
5231.23, 0.121391
5236.52, 0.121456
5241.81, 0.121718
5247.12, 0.121849
5252.44, 0.121784
5257.76, 0.121718
5263.1, 0.121718
5268.45, 0.121587
5273.81, 0.121325
5279.18, 0.121260
5284.56, 0.121195
5289.95, 0.120802
5295.36, 0.121064
5300.77, 0.121456
5306.2, 0.121784
5311.63, 0.122242
5317.08, 0.122634
5322.54, 0.123092
5328.01, 0.123550
5333.49, 0.124074
5338.98, 0.124597
5344.49, 0.124532
5350.0, 0.124401
5355.53, 0.125645
5361.07, 0.127215
5366.62, 0.128328
5372.18, 0.129244
5377.75, 0.130160
5383.34, 0.131207
5388.93, 0.132254
5394.54, 0.133236
5400.16, 0.134348
5405.79, 0.135330
5411.44, 0.136180
5417.09, 0.136049
5422.76, 0.136246
5428.43, 0.138994
5434.12, 0.141023
5439.83, 0.142070
5445.54, 0.143182
5451.26, 0.144426
5457.0, 0.144949
5462.75, 0.144884
5468.52, 0.146258
5474.29, 0.147567
5480.08, 0.148287
5485.88, 0.149988
5491.69, 0.151166
5497.51, 0.152213
5503.35, 0.153260
5509.2, 0.154438
5515.06, 0.155092
5520.93, 0.155747
5526.82, 0.156859
5532.71, 0.158037
5538.63, 0.158757
5544.55, 0.159150
5550.49, 0.159019
5556.44, 0.159542
5562.4, 0.160524
5568.37, 0.160917
5574.36, 0.159608
5580.36, 0.159477
5586.37, 0.162029
5592.4, 0.163600
5598.44, 0.163534
5604.49, 0.163796
5610.56, 0.164450
5616.63, 0.164581
5622.73, 0.165301
5628.83, 0.165497
5634.95, 0.163796
5641.08, 0.161636
5647.23, 0.163469
5653.39, 0.164647
5659.56, 0.165432
5665.74, 0.166217
5671.94, 0.164516
5678.15, 0.163992
5684.38, 0.164516
5690.62, 0.163534
5696.87, 0.163534
5703.14, 0.162095
5709.42, 0.159150
5715.72, 0.159019
5722.03, 0.159411
5728.35, 0.159215
5734.69, 0.158103
5741.03, 0.156598
5747.4, 0.154700
5753.78, 0.154765
5760.17, 0.150970
5766.58, 0.146454
5773.0, 0.148941
5779.44, 0.150512
5785.88, 0.150054
5792.35, 0.149203
5798.83, 0.147829
5805.32, 0.146847
5811.83, 0.144491
5818.35, 0.139321
5824.89, 0.137555
5831.45, 0.139518
5838.01, 0.140434
5844.59, 0.140172
5851.19, 0.138536
5857.8, 0.136311
5864.43, 0.134283
5871.07, 0.132581
5877.73, 0.126364
5884.4, 0.124532
5891.09, 0.123812
5897.79, 0.120998
5904.5, 0.122176
5911.23, 0.120606
5917.98, 0.117334
5924.75, 0.113407
5931.53, 0.106602
5938.32, 0.101955
5945.13, 0.102348
5951.96, 0.100450
5958.8, 0.0972440
5965.65, 0.0925970
5972.53, 0.0898490
5979.42, 0.0877550
5986.32, 0.0843520
5993.24, 0.0822580
6000.18, 0.0814070
6007.13, 0.0791820
6014.1, 0.0770230
6021.08, 0.0760410
6028.09, 0.0749940
6035.1, 0.0730960
6042.14, 0.0689740
6049.19, 0.0654400
6056.25, 0.0675990
6063.34, 0.0682540
6070.44, 0.0660290
6077.55, 0.0655710
6084.69, 0.0664210
6091.84, 0.0662250
6099.0, 0.0655710
6106.19, 0.0640000
6113.39, 0.0626910
6120.61, 0.0640660
6127.84, 0.0653740
6135.09, 0.0653740
6142.36, 0.0655710
6149.65, 0.0658320
6156.95, 0.0656360
6164.27, 0.0661600
6171.61, 0.0669450
6178.97, 0.0657670
6186.34, 0.0651130
6193.73, 0.0668800
6201.14, 0.0674680
6208.57, 0.0673380
6216.01, 0.0671410
6223.47, 0.0670100
6230.95, 0.0668800
6238.45, 0.0665520
6245.97, 0.0662250
6253.5, 0.0660290
6261.06, 0.0657670
6268.63, 0.0654400
6276.21, 0.0651780
6283.82, 0.0649160
6291.45, 0.0646550
6299.1, 0.0644580
6306.76, 0.0641960
6314.44, 0.0639350
6322.14, 0.0636730
6329.86, 0.0632150
6337.6, 0.0614480
6345.35, 0.0600740
6353.13, 0.0611860
6360.92, 0.0610550
6368.74, 0.0597470
6376.57, 0.0595500
6384.43, 0.0594850
6392.3, 0.0588300
6400.19, 0.0576530
6408.1, 0.0544460
6416.03, 0.0532030
6423.98, 0.0550350
6431.95, 0.0555580
6439.94, 0.0557550
6447.95, 0.0557550
6455.98, 0.0555580
6464.03, 0.0552970
6472.1, 0.0544460
6480.19, 0.0534640
6488.31, 0.0520900
6496.44, 0.0521560
6504.59, 0.0544460
6512.76, 0.0551660
6520.95, 0.0549690
6529.16, 0.0563440
6537.4, 0.0571290
6545.65, 0.0573250
6553.92, 0.0576530
6562.22, 0.0579800
6570.54, 0.0575220
6578.88, 0.0588300
6587.23, 0.0603360
6595.61, 0.0610550
6604.02, 0.0620370
6612.44, 0.0622990
6620.89, 0.0621020
6629.35, 0.0606630
6637.84, 0.0597470
6646.35, 0.0620370
6654.88, 0.0640000
6663.44, 0.0640660
6672.01, 0.0636730
6680.61, 0.0634770
6689.23, 0.0647200
6697.88, 0.0658320
6706.54, 0.0656360
6715.23, 0.0660290
6723.94, 0.0671410
6732.67, 0.0682540
6741.42, 0.0689740
6750.2, 0.0694320
6759.0, 0.0699550
6767.82, 0.0700210
6776.67, 0.0697590
6785.54, 0.0691040
6794.44, 0.0697590
6803.35, 0.0715910
6812.29, 0.0721800
6821.26, 0.0718530
6830.24, 0.0721150
6839.25, 0.0730310
6848.29, 0.0727040
6857.35, 0.0707400
6866.43, 0.0706100
6875.54, 0.0730310
6884.67, 0.0739470
6893.82, 0.0739470
6903.0, 0.0733580
6912.2, 0.0732930
6921.43, 0.0734240
6930.69, 0.0732270
6939.96, 0.0728350
6949.27, 0.0715260
6958.59, 0.0696280
6967.95, 0.0700210
6977.33, 0.0704130
6986.73, 0.0695630
6996.16, 0.0688430
7005.61, 0.0684500
7015.09, 0.0676650
7024.6, 0.0668140
7034.13, 0.0657020
7043.69, 0.0639350
7053.27, 0.0636080
7062.88, 0.0637380
7072.52, 0.0631490
7082.18, 0.0624300
7091.87, 0.0616440
7101.58, 0.0608590
7111.32, 0.0598770
7121.09, 0.0590920
7130.88, 0.0585690
7140.71, 0.0575220
7150.56, 0.0566050
7160.43, 0.0560170
7170.33, 0.0553620
7180.27, 0.0552970
7190.23, 0.0549040
7200.21, 0.0539880
7210.23, 0.0533990
7220.27, 0.0532680
7230.34, 0.0528100
7240.44, 0.0522210
7250.56, 0.0515670
7260.72, 0.0509780
7270.9, 0.0503890
7281.12, 0.0500610
7291.36, 0.0498650
7301.63, 0.0496030
7311.93, 0.0492760
7322.25, 0.0488840
7332.61, 0.0482950
7343.0, 0.0479020
7353.41, 0.0476400
7363.86, 0.0473130
7374.33, 0.0467890
7384.83, 0.0463310
7395.37, 0.0458730
7405.93, 0.0453500
7416.53, 0.0448260
7427.15, 0.0442370
7437.81, 0.0436480
7448.5, 0.0429290
7459.22, 0.0420780
7469.96, 0.0414230
7480.74, 0.0409000
7491.55, 0.0403760
7502.39, 0.0398530
7513.27, 0.0392640
7524.17, 0.0386100
7535.11, 0.0380860
7546.08, 0.0375620
7557.08, 0.0370390
7568.11, 0.0364500
7579.17, 0.0359260
7590.27, 0.0354030
7601.4, 0.0350100
7612.56, 0.0346180
7623.76, 0.0342900
7634.98, 0.0338320
7646.24, 0.0335050
7657.54, 0.0330470
7668.87, 0.0325890
7680.23, 0.0321310
7691.62, 0.0317380
7703.05, 0.0312800
7714.51, 0.0306910
7726.01, 0.0300370
7737.54, 0.0295130
7749.11, 0.0289900
7760.71, 0.0285320
7772.35, 0.0279430
7784.02, 0.0275500
7795.72, 0.0269610
7807.46, 0.0264380
7819.23, 0.0259800
7831.04, 0.0255220
7842.89, 0.0251290
7854.77, 0.0246050
7866.69, 0.0242130
7878.65, 0.0238200
7890.64, 0.0233620
7902.67, 0.0229040
7914.74, 0.0223800
7926.84, 0.0217910
7938.98, 0.0213330
7951.16, 0.0210060
7963.37, 0.0204830
7975.62, 0.0198940
7987.91, 0.0193700
8000.24, 0.0189780
8012.6, 0.0184540
8025.01, 0.0179310
8037.45, 0.0174720
8049.93, 0.0172110
8062.45, 0.0168180
8075.01, 0.0163600
8087.61, 0.0158360
8100.24, 0.0154440
8112.91, 0.0150510
8125.63, 0.0146590
8138.39, 0.0143310
8151.18, 0.0140700
8164.02, 0.0136770
8176.9, 0.0132190
8189.81, 0.0127610
8202.77, 0.0124990
8215.77, 0.0122370
8228.82, 0.0118450
8241.9, 0.0115170
8255.02, 0.0111900
8268.19, 0.0107980
8281.39, 0.0103390
8294.65, 0.0100780
8307.94, 0.00975100
8321.28, 0.00935800
8334.66, 0.00896500
8348.08, 0.00870400
8361.54, 0.00850700
8375.05, 0.00818000
8388.6, 0.00785300
8402.2, 0.00752600
8415.84, 0.00732900
8429.52, 0.00719800
8443.25, 0.00713300
8457.02, 0.00700200
8470.84, 0.00674000
8484.7, 0.00654400
8498.61, 0.00660900
8512.57, 0.00660900
8526.57, 0.00660900
8540.62, 0.00647900
8554.71, 0.00654400
8568.85, 0.00680600
8583.04, 0.00706800
8597.27, 0.00752600
8611.55, 0.00804900
8625.88, 0.00870400
8640.26, 0.00942300
8654.68, 0.0103390
8669.16, 0.0115830
8683.68, 0.0131530
8698.25, 0.0153130
8712.87, 0.0179960
8727.53, 0.0212680
8742.25, 0.0249980
8757.02, 0.0294480
8771.83, 0.0344210
8786.7, 0.0401150
8801.62, 0.0463970
8816.59, 0.0529410
8831.61, 0.0598120
8846.68, 0.0670100
8861.8, 0.0742090
8876.97, 0.0812760
8892.2, 0.0882780
8907.48, 0.0950840
8922.81, 0.101432
8938.2, 0.107256
8953.63, 0.112491
8969.13, 0.117334
8984.67, 0.121784
9000.27, 0.125645
9015.92, 0.128917
9031.63, 0.131665
9047.39, 0.133694
9063.21, 0.135002
9079.08, 0.135657
9095.01, 0.135853
9111.0, 0.135460
9127.04, 0.134675
9143.13, 0.133759
9159.28, 0.132712
9175.49, 0.131469
9191.76, 0.130225
9208.09, 0.128982
9224.47, 0.127477
9240.92, 0.125972
9257.42, 0.124532
9273.98, 0.122961
9290.6, 0.121456
9307.28, 0.119689
9324.02, 0.117857
9340.82, 0.115698
9357.68, 0.113146
9374.6, 0.110070
9391.58, 0.106536
9408.62, 0.102544
9425.73, 0.0983560
9442.9, 0.0940370
9460.13, 0.0897180
9477.42, 0.0857260
9494.78, 0.0818650
9512.2, 0.0782660
9529.69, 0.0752560
9547.24, 0.0727040
9564.86, 0.0706750
9582.54, 0.0689080
9600.28, 0.0674680
9618.1, 0.0663560
9635.97, 0.0655050
9653.92, 0.0649820
9671.93, 0.0647200
9690.01, 0.0645890
9708.16, 0.0645240
9726.37, 0.0642620
9744.65, 0.0638040
9763.0, 0.0633460
9781.43, 0.0630840
9799.92, 0.0628220
9818.48, 0.0630190
9837.1, 0.0635420
9855.8, 0.0642620
9874.58, 0.0653090
9893.42, 0.0662910
9912.34, 0.0674030
9931.33, 0.0682540
9950.39, 0.0686460
9969.52, 0.0689080
9988.74, 0.0689740
10008.0, 0.0692350
10027.4, 0.0696280
10046.8, 0.0701520
10066.3, 0.0711990
10085.9, 0.0728350
10105.6, 0.0751900
10125.3, 0.0782010
10145.1, 0.0815380
10165.0, 0.0851370
10185.0, 0.0888670
10205.0, 0.0924010
10225.2, 0.0956730
10245.4, 0.0985520
10265.7, 0.101366
10286.0, 0.103984
10306.5, 0.106340
10327.0, 0.108499
10347.6, 0.110332
10368.3, 0.111575
10389.1, 0.111968
10409.9, 0.112098
10430.9, 0.112033
10451.9, 0.111837
10473.0, 0.111771
10494.2, 0.111706
10515.5, 0.111575
10536.9, 0.111575
10558.4, 0.111706
10579.9, 0.111902
10601.5, 0.111837
10623.3, 0.111771
10645.1, 0.111248
10667.0, 0.110201
10689.0, 0.108761
10711.1, 0.107190
10733.2, 0.106078
10755.5, 0.105293
10777.9, 0.105031
10800.3, 0.105424
10822.9, 0.106013
10845.5, 0.106536
10868.2, 0.106732
10891.1, 0.107060
10914.0, 0.107060
10937.0, 0.106471
10960.2, 0.105751
10983.4, 0.104966
11006.7, 0.104246
11030.1, 0.103395
11053.6, 0.102741
11077.3, 0.102217
11101.0, 0.101628
11124.8, 0.101366
11148.7, 0.101301
11172.7, 0.100974
11196.9, 0.100581
11221.1, 0.100516
11245.4, 0.100319
11269.9, 0.0999270
11294.4, 0.0994690
11319.1, 0.0988800
11343.9, 0.0980940
11368.8, 0.0971780
11393.7, 0.0961970
11418.8, 0.0950190
11444.0, 0.0936440
11469.4, 0.0922050
11494.8, 0.0907650
11520.3, 0.0891950
11546.0, 0.0875590
11571.8, 0.0859230
11597.7, 0.0842870
11623.7, 0.0826510
11649.8, 0.0811450
11676.0, 0.0795750
11702.4, 0.0778730
11728.9, 0.0763680
11755.5, 0.0748630
11782.2, 0.0734240
11809.0, 0.0721150
11836.0, 0.0711330
11863.0, 0.0702820
11890.3, 0.0696930
11917.6, 0.0691700
11945.0, 0.0685810
11972.6, 0.0677960
12000.4, 0.0672070
12028.2, 0.0666830
12056.2, 0.0662250
12084.3, 0.0657670
12112.5, 0.0651780
12140.9, 0.0644580
12169.4, 0.0635420
12198.0, 0.0625600
12226.8, 0.0617750
12255.7, 0.0608590
12284.7, 0.0600080
12313.9, 0.0589610
12343.2, 0.0577180
12372.7, 0.0566050
12402.3, 0.0555580
12432.0, 0.0546420
12461.9, 0.0537260
12491.9, 0.0526140
12522.1, 0.0516970
12552.4, 0.0508470
12582.9, 0.0501270
12613.5, 0.0494730
12644.3, 0.0491450
12675.2, 0.0488840
12706.3, 0.0485560
12737.5, 0.0482290
12768.9, 0.0478370
12800.4, 0.0473130
12832.1, 0.0471170
12863.9, 0.0466590
12895.9, 0.0461350
12928.1, 0.0457420
12960.4, 0.0452190
12992.9, 0.0448920
13025.5, 0.0446300
13058.3, 0.0443680
13091.3, 0.0442370
13124.4, 0.0441720
13157.8, 0.0440410
13191.2, 0.0437790
13224.9, 0.0437140
13258.7, 0.0440410
13292.7, 0.0441060
13326.9, 0.0437790
13361.2, 0.0433210
13395.7, 0.0429940
13430.4, 0.0426670
13465.3, 0.0420780
13500.4, 0.0414890
13535.7, 0.0411620
13571.1, 0.0409000
13606.7, 0.0405730
13642.5, 0.0399180
13678.5, 0.0393290
13714.7, 0.0388060
13751.1, 0.0381510
13787.6, 0.0374970
13824.4, 0.0367120
13861.4, 0.0355990
13898.5, 0.0349450
13935.9, 0.0344210
13973.5, 0.0335050
14011.2, 0.0329820
14049.2, 0.0325240
14087.4, 0.0318040
14125.8, 0.0313460
14164.3, 0.0308220
14203.2, 0.0304300
14242.2, 0.0300370
14281.4, 0.0291860
14320.9, 0.0283350
14360.5, 0.0280740
14400.4, 0.0274190
14440.5, 0.0265690
14480.9, 0.0260450
14521.4, 0.0256520
14562.2, 0.0251290
14603.3, 0.0248670
14644.5, 0.0244750
14686.0, 0.0238860
14727.7, 0.0234270
14769.7, 0.0232310
14811.9, 0.0237550
14854.3, 0.0244090
14897.0, 0.0246710
14939.9, 0.0245400
14983.1, 0.0245400
15026.5, 0.0249330
15070.2, 0.0250630
15114.2, 0.0248670
15158.3, 0.0242780
15202.8, 0.0238200
15247.5, 0.0234270
15292.5, 0.0230350
15337.7, 0.0228390
15383.2, 0.0225110
15429.0, 0.0227080
15475.1, 0.0229040
15521.4, 0.0233620
15568.0, 0.0247360
15614.9, 0.0265690
15662.1, 0.0282050
15709.6, 0.0294480
15757.3, 0.0298410
15805.4, 0.0295130
15853.7, 0.0289240
15902.3, 0.0280080
15951.2, 0.0268300
16000.5, 0.0257830
16050.0, 0.0247360
16099.8, 0.0239510
16150.0, 0.0233620
16200.5, 0.0229040
16251.3, 0.0227080
16302.4, 0.0227730
16353.8, 0.0229690
16405.5, 0.0234270
16457.6, 0.0236890
16510.0, 0.0236240
16562.8, 0.0238200
16615.9, 0.0247360
16669.3, 0.0259140
16723.1, 0.0272880
16777.2, 0.0297750
16831.7, 0.0332430
16886.5, 0.0374970
16941.7, 0.0425360
16997.2, 0.0483600
17053.1, 0.0550350
17109.4, 0.0625600
17166.1, 0.0708710
17223.1, 0.0789200
17280.5, 0.0874280
17338.3, 0.0962620
17396.5, 0.104377
17455.1, 0.112360
17514.0, 0.119166
17573.4, 0.124794
17633.2, 0.130356
17693.4, 0.134479
17754.0, 0.137489
17815.0, 0.139780
17876.4, 0.141219
17938.3, 0.142135
18000.5, 0.142070
18063.3, 0.141677
18126.4, 0.141154
18190.0, 0.139910
18254.1, 0.138798
18318.6, 0.138144
18383.5, 0.137620
18449.0, 0.137489
18514.9, 0.137162
18581.2, 0.136966
18648.0, 0.137227
18715.4, 0.137685
18783.2, 0.138602
18851.5, 0.139125
18920.3, 0.140303
18989.6, 0.142397
19059.4, 0.144753
19129.7, 0.146651
19200.6, 0.148941
19272.0, 0.151493
19343.9, 0.153980
19416.3, 0.155551
19489.3, 0.155747
19562.8, 0.155452
19637.0, 0.154794
19711.6, 0.153972
19786.8, 0.154082
19862.6, 0.153123
19939.0, 0.150135
20016.0, 0.148984
20093.6, 0.148272
20171.8, 0.149340
20250.6, 0.151889
20330.0, 0.152766
20410.0, 0.156713
20490.7, 0.161016
20572.0, 0.162660
20654.0, 0.163099
20736.6, 0.164414
20819.9, 0.167922
20903.8, 0.169320
20988.5, 0.172033
21073.8, 0.173184
21159.8, 0.175130
21246.5, 0.175788
21334.0, 0.173596
21422.1, 0.171595
21511.0, 0.168498
21600.7, 0.167127
21691.0, 0.167456
21782.1, 0.163510
21874.0, 0.158796
21966.7, 0.155945
22060.2, 0.154740
22154.5, 0.151752
22249.6, 0.147230
22345.5, 0.143777
22442.2, 0.140241
22539.8, 0.136843
22638.2, 0.136185
22737.5, 0.137692
22837.7, 0.136706
22938.7, 0.135856
23040.7, 0.136075
23143.5, 0.135747
23247.3, 0.134787
23352.1, 0.132513
23457.7, 0.126565
23564.4, 0.126236
23672.0, 0.125962
23780.5, 0.122098
23890.1, 0.119823
24000.7, 0.120536
24112.3, 0.124619
24225.0, 0.128676
24338.7, 0.133006
24453.5, 0.133773
24569.4, 0.131361
24686.4, 0.131224
24804.5, 0.131663
24923.8, 0.130320
25044.2, 0.129470
25165.8, 0.128593
25288.6, 0.129881
25412.5, 0.130868
25537.7, 0.131115
25664.1, 0.130183
25791.8, 0.127799
25920.8, 0.125579
26051.1, 0.125387
26182.6, 0.125743
26315.5, 0.122482
26449.8, 0.117274
26585.4, 0.114972
26722.5, 0.114205
26860.9, 0.114698
27000.8, 0.112725
27142.1, 0.111628
27285.0, 0.112615
27429.4, 0.110094
27575.3, 0.105626
27722.7, 0.105023
27871.8, 0.104448
28022.4, 0.101981
28174.7, 0.100309
28328.7, 0.101625
28484.4, 0.104366
28641.7, 0.110121
28800.9, 0.116370
28961.8, 0.120207
29124.5, 0.125688
29289.0, 0.132184
29455.4, 0.136158
29623.8, 0.137747
29794.0, 0.137966
29966.3, 0.139145
30140.5, 0.139282
30316.7, 0.137638
30495.1, 0.136404
30675.5, 0.136130
30858.1, 0.132951
31042.8, 0.131334
31229.8, 0.129635
31419.1, 0.126976
31610.7, 0.125442
31804.6, 0.123578
32000.9, 0.121248
32199.7, 0.118206
32400.9, 0.117466
32604.8, 0.119823
32811.1, 0.121961
33020.1, 0.121303
33231.8, 0.124208
33446.2, 0.127826
33663.4, 0.132759
33883.4, 0.135582
34106.3, 0.139995
34332.1, 0.145476
34561.0, 0.150053
34792.9, 0.155973
35028.0, 0.159399
35266.3, 0.159371
35507.8, 0.157234
35752.7, 0.151506
36001.0, 0.145421
36252.8, 0.146052
36508.1, 0.145366
36767.0, 0.139529
37029.7, 0.134486
37296.1, 0.130704
37566.3, 0.127333
37840.5, 0.130320
38118.8, 0.134294
38401.2, 0.145969
38687.8, 0.162523
38978.6, 0.176994
39273.9, 0.188505
39573.7, 0.200893
39878.1, 0.209964
40187.3, 0.211636
40501.2, 0.209170
40820.0, 0.209526
41144.0, 0.214240
41473.2, 0.211828
41807.6, 0.203003
42147.5, 0.194480
42493.0, 0.189601
42844.2, 0.184887
43201.2, 0.174390
43564.3, 0.166415
43933.5, 0.160769
44309.0, 0.160413
44691.0, 0.162688
45079.6, 0.163948
45475.0, 0.169375
45877.5, 0.172061
46287.1, 0.168059
46704.2, 0.159015
47128.7, 0.155644
47561.1, 0.154219
48001.5, 0.147367
48450.1, 0.145613
48907.2, 0.144955
49373.0, 0.136158
49847.7, 0.134458
50331.5, 0.138405
50825.0, 0.137035
51328.2, 0.127744
51841.5, 0.129388
52365.1, 0.135856
52899.4, 0.132841
53444.8, 0.129470
54001.5, 0.132184
54570.1, 0.129690
55150.6, 0.124373
55743.6, 0.120453
56349.5, 0.119741
56968.7, 0.122043
57601.7, 0.122893
58248.9, 0.120399
58910.9, 0.119138
59588.1, 0.120645
60281.0, 0.126044
60990.2, 0.134349
61716.3, 0.141776
62459.8, 0.149094
63221.6, 0.162660
64002.1, 0.180995
64802.1, 0.184476
65622.1, 0.177871
66463.4, 0.171759
67326.6, 0.179351
68212.4, 0.187984
69121.9, 0.190122
70056.0, 0.185161
71015.7, 0.179515
72002.0, 0.180529
73016.3, 0.182503
74059.4, 0.175432
75132.7, 0.164140
76237.6, 0.166634
77375.5, 0.170224
78547.9, 0.158056
79756.3, 0.156302
81002.5, 0.160961
82288.5, 0.161016
83615.7, 0.161646
84986.5, 0.159892
86402.9, 0.159700
87867.4, 0.157617
89382.4, 0.153808
90950.5, 0.153205
92574.6, 0.157124
94257.2, 0.154274
96002.7, 0.160440
97814.1, 0.171650
99695.1, 0.171458
101650.0, 0.167347
103683.0, 0.172910
105799.0, 0.175240
108003.0, 0.170553
110301.0, 0.179159
112699.0, 0.177460
115204.0, 0.189382
117822.0, 0.210622
120562.0, 0.202345
123433.0, 0.201030
126443.0, 0.200016
129604.0, 0.219831
132926.0, 0.243922
136424.0, 0.234987
140111.0, 0.216515
144003.0, 0.219749
148118.0, 0.244716
152474.0, 0.261681
157095.0, 0.268506
162004.0, 0.277906
167231.0, 0.277303
172805.0, 0.282922
178764.0, 0.285745
185148.0, 0.280839
192005.0, 0.304190
199390.0, 0.269054
207366.0, 0.272069
216006.0, 0.342148
