Database of Origin, USGS Spectral Database
Sample Description, See USGS database for additional info
Date Added,2016-08-10 05:16:19.147126

Data ID,USGS_nep04          
Sample ID, nephrite_hs296.15839
Mineral Name, nephrite
Material Class,Inosilicate

Wavelength
1602.52, 0.270651
1603.02, 0.270258
1603.51, 0.270707
1604.01, 0.271828
1604.5, 0.271828
1605.0, 0.271548
1605.5, 0.271884
1606.0, 0.271996
1606.49, 0.272165
1606.99, 0.272389
1607.49, 0.272725
1607.99, 0.272894
1608.49, 0.273342
1608.99, 0.273622
1609.49, 0.273679
1609.99, 0.273791
1610.49, 0.274183
1610.99, 0.274744
1611.49, 0.274632
1611.99, 0.274856
1612.49, 0.275641
1612.99, 0.275417
1613.49, 0.274968
1614.0, 0.275361
1614.5, 0.275585
1615.0, 0.275921
1615.51, 0.276202
1616.01, 0.276314
1616.51, 0.276314
1617.02, 0.276370
1617.52, 0.276875
1618.03, 0.276987
1618.53, 0.276650
1619.04, 0.276650
1619.54, 0.277491
1620.05, 0.277772
1620.55, 0.277716
1621.06, 0.278052
1621.57, 0.278220
1622.08, 0.278052
1622.58, 0.277996
1623.09, 0.278164
1623.6, 0.278501
1624.11, 0.278613
1624.62, 0.278613
1625.13, 0.278893
1625.64, 0.279061
1626.15, 0.279622
1626.66, 0.280295
1627.17, 0.280351
1627.68, 0.280351
1628.19, 0.280631
1628.7, 0.281024
1629.21, 0.280687
1629.72, 0.280407
1630.24, 0.280463
1630.75, 0.280743
1631.26, 0.281136
1631.78, 0.281416
1632.29, 0.281304
1632.8, 0.281304
1633.32, 0.281528
1633.83, 0.281977
1634.35, 0.282426
1634.86, 0.282482
1635.38, 0.282482
1635.9, 0.282426
1636.41, 0.282650
1636.93, 0.282594
1637.45, 0.282930
1637.96, 0.283042
1638.48, 0.283267
1639.0, 0.283771
1639.52, 0.283995
1640.04, 0.284108
1640.56, 0.284612
1641.08, 0.284780
1641.59, 0.284724
1642.11, 0.284444
1642.63, 0.284444
1643.16, 0.284556
1643.68, 0.285061
1644.2, 0.285341
1644.72, 0.285229
1645.24, 0.285285
1645.76, 0.285341
1646.29, 0.285734
1646.81, 0.285846
1647.33, 0.286070
1647.86, 0.286350
1648.38, 0.286463
1648.9, 0.286406
1649.43, 0.286182
1649.95, 0.286238
1650.48, 0.286519
1651.0, 0.286967
1651.53, 0.287135
1652.06, 0.287191
1652.58, 0.287472
1653.11, 0.287976
1653.64, 0.288145
1654.17, 0.288425
1654.69, 0.288369
1655.22, 0.288257
1655.75, 0.288145
1656.28, 0.288145
1656.81, 0.288874
1657.34, 0.289210
1657.87, 0.289098
1658.4, 0.288986
1658.93, 0.288930
1659.46, 0.288986
1659.99, 0.289715
1660.52, 0.290275
1661.05, 0.290387
1661.59, 0.289995
1662.12, 0.289883
1662.65, 0.290500
1663.19, 0.290668
1663.72, 0.290444
1664.26, 0.290500
1664.79, 0.290948
1665.32, 0.290892
1665.86, 0.291060
1666.39, 0.291285
1666.93, 0.291229
1667.47, 0.291397
1668.0, 0.292126
1668.54, 0.292350
1669.08, 0.292182
1669.61, 0.292014
1670.15, 0.291901
1670.69, 0.292238
1671.23, 0.292855
1671.77, 0.292798
1672.31, 0.292630
1672.85, 0.292574
1673.39, 0.292630
1673.93, 0.292798
1674.47, 0.293247
1675.01, 0.293640
1675.55, 0.293640
1676.09, 0.293079
1676.64, 0.292855
1677.18, 0.293471
1677.72, 0.293864
1678.26, 0.294088
1678.81, 0.294144
1679.35, 0.294425
1679.89, 0.294761
1680.44, 0.294817
1680.98, 0.294985
1681.53, 0.295266
1682.07, 0.294985
1682.62, 0.295153
1683.17, 0.295658
1683.71, 0.295714
1684.26, 0.295826
1684.81, 0.295714
1685.36, 0.295658
1685.9, 0.295770
1686.45, 0.295882
1687.0, 0.295882
1687.55, 0.296331
1688.1, 0.296611
1688.65, 0.296555
1689.2, 0.296499
1689.75, 0.296892
1690.3, 0.297228
1690.85, 0.297172
1691.41, 0.296836
1691.96, 0.296667
1692.51, 0.296836
1693.06, 0.297340
1693.61, 0.297733
1694.17, 0.297845
1694.72, 0.297845
1695.28, 0.297957
1695.83, 0.298069
1696.39, 0.298293
1696.94, 0.298237
1697.5, 0.298237
1698.05, 0.298237
1698.61, 0.298125
1699.17, 0.298630
1699.72, 0.298910
1700.28, 0.298798
1700.84, 0.299078
1701.4, 0.299583
1701.95, 0.299639
1702.51, 0.299303
1703.07, 0.299247
1703.63, 0.299359
1704.19, 0.299471
1704.75, 0.299807
1705.31, 0.299695
1705.88, 0.299527
1706.44, 0.299639
1707.0, 0.299695
1707.56, 0.300032
1708.12, 0.300424
1708.69, 0.300760
1709.25, 0.300592
1709.81, 0.300312
1710.38, 0.300424
1710.94, 0.300480
1711.51, 0.300368
1712.07, 0.300536
1712.64, 0.300985
1713.2, 0.301209
1713.77, 0.301097
1714.34, 0.301377
1714.9, 0.301658
1715.47, 0.301545
1716.04, 0.301433
1716.61, 0.301601
1717.18, 0.301770
1717.74, 0.301770
1718.31, 0.301545
1718.88, 0.301882
1719.45, 0.301994
1720.02, 0.301994
1720.59, 0.302106
1721.17, 0.302330
1721.74, 0.302555
1722.31, 0.302555
1722.88, 0.302386
1723.45, 0.302667
1724.03, 0.302891
1724.6, 0.302891
1725.18, 0.302779
1725.75, 0.302779
1726.33, 0.303396
1726.9, 0.303788
1727.48, 0.303564
1728.05, 0.303284
1728.63, 0.303284
1729.2, 0.303564
1729.78, 0.303676
1730.36, 0.303788
1730.94, 0.304237
1731.51, 0.304517
1732.09, 0.304125
1732.67, 0.303844
1733.25, 0.303956
1733.83, 0.304293
1734.41, 0.304405
1734.99, 0.304573
1735.57, 0.304741
1736.15, 0.304854
1736.73, 0.304798
1737.32, 0.305078
1737.9, 0.305470
1738.48, 0.305246
1739.07, 0.305078
1739.65, 0.305190
1740.23, 0.305358
1740.82, 0.305639
1741.4, 0.306087
1741.99, 0.305919
1742.57, 0.305695
1743.16, 0.305975
1743.74, 0.306311
1744.33, 0.306255
1744.92, 0.306143
1745.51, 0.306311
1746.09, 0.306367
1746.68, 0.306311
1747.27, 0.306199
1747.86, 0.306424
1748.45, 0.306536
1749.04, 0.306760
1749.63, 0.306872
1750.22, 0.306872
1750.81, 0.306760
1751.4, 0.306816
1751.99, 0.307265
1752.59, 0.307377
1753.18, 0.307265
1753.77, 0.307209
1754.37, 0.307152
1754.96, 0.307040
1755.56, 0.307321
1756.15, 0.307657
1756.74, 0.307881
1757.34, 0.307937
1757.94, 0.308162
1758.53, 0.308498
1759.13, 0.308442
1759.73, 0.308218
1760.32, 0.308106
1760.92, 0.308330
1761.52, 0.308386
1762.12, 0.308442
1762.72, 0.308666
1763.32, 0.309003
1763.92, 0.309003
1764.52, 0.308835
1765.12, 0.308891
1765.72, 0.309059
1766.32, 0.309115
1766.92, 0.308947
1767.53, 0.309003
1768.13, 0.309171
1768.73, 0.309451
1769.34, 0.309620
1769.94, 0.309395
1770.55, 0.309395
1771.15, 0.309563
1771.76, 0.309788
1772.36, 0.309732
1772.97, 0.309844
1773.57, 0.309956
1774.18, 0.310124
1774.79, 0.310236
1775.4, 0.310180
1776.0, 0.310180
1776.61, 0.310236
1777.22, 0.310461
1777.83, 0.310461
1778.44, 0.310629
1779.05, 0.310629
1779.66, 0.310573
1780.27, 0.310685
1780.88, 0.310629
1781.5, 0.310629
1782.11, 0.310685
1782.72, 0.310909
1783.33, 0.311077
1783.95, 0.310853
1784.56, 0.310965
1785.18, 0.311358
1785.79, 0.311582
1786.41, 0.311414
1787.02, 0.311358
1787.64, 0.311189
1788.26, 0.311077
1788.87, 0.311358
1789.49, 0.311246
1790.11, 0.311302
1790.73, 0.311358
1791.35, 0.311526
1791.96, 0.311638
1792.58, 0.311806
1793.21, 0.311750
1793.83, 0.311694
1794.45, 0.311974
1795.07, 0.312311
1795.69, 0.312255
1796.31, 0.312087
1796.93, 0.312199
1797.56, 0.312311
1798.18, 0.312199
1798.8, 0.311974
1799.43, 0.311918
1800.05, 0.312199
1800.68, 0.312367
1801.3, 0.312199
1801.93, 0.312143
1802.56, 0.312367
1803.18, 0.312423
1803.81, 0.312143
1804.44, 0.312143
1805.07, 0.312703
1805.7, 0.313096
1806.33, 0.312872
1806.95, 0.312703
1807.58, 0.312647
1808.22, 0.312759
1808.85, 0.312703
1809.48, 0.312816
1810.11, 0.312984
1810.74, 0.312928
1811.38, 0.313264
1812.01, 0.313769
1812.64, 0.313713
1813.28, 0.313320
1813.91, 0.313320
1814.55, 0.313432
1815.18, 0.313881
1815.82, 0.313937
1816.45, 0.313937
1817.09, 0.313713
1817.73, 0.313769
1818.36, 0.314161
1819.0, 0.314273
1819.64, 0.314329
1820.28, 0.314554
1820.92, 0.314778
1821.56, 0.314890
1822.2, 0.314666
1822.84, 0.314610
1823.48, 0.314554
1824.12, 0.314498
1824.76, 0.314442
1825.41, 0.315002
1826.05, 0.315675
1826.69, 0.315227
1827.34, 0.315114
1827.98, 0.315563
1828.63, 0.315563
1829.27, 0.315451
1829.92, 0.315507
1830.56, 0.315787
1831.21, 0.315843
1831.86, 0.315563
1832.5, 0.315619
1833.15, 0.315731
1833.8, 0.315787
1834.45, 0.316180
1835.1, 0.316236
1835.75, 0.316292
1836.4, 0.316068
1837.05, 0.316292
1837.7, 0.316572
1838.35, 0.316068
1839.01, 0.316236
1839.66, 0.316853
1840.31, 0.316236
1840.96, 0.316292
1841.62, 0.317021
1842.27, 0.316404
1842.93, 0.315675
1843.58, 0.315899
1844.24, 0.316012
1844.9, 0.316012
1845.55, 0.316292
1846.21, 0.317021
1846.87, 0.317413
1847.53, 0.317189
1848.18, 0.317189
1848.84, 0.316684
1849.5, 0.316180
1850.16, 0.316572
1850.82, 0.316684
1851.48, 0.316236
1852.14, 0.316460
1852.81, 0.317301
1853.47, 0.317638
1854.13, 0.317077
1854.8, 0.316628
1855.46, 0.316628
1856.12, 0.317021
1856.79, 0.317021
1857.45, 0.316516
1858.12, 0.316348
1858.79, 0.316853
1859.45, 0.317582
1860.12, 0.317469
1860.79, 0.317189
1861.46, 0.316965
1862.12, 0.317021
1862.79, 0.317133
1863.46, 0.317189
1864.13, 0.317301
1864.8, 0.317357
1865.48, 0.317189
1866.15, 0.317301
1866.82, 0.317918
1867.49, 0.318479
1868.16, 0.318086
1868.84, 0.317750
1869.51, 0.317750
1870.19, 0.318198
1870.86, 0.318423
1871.54, 0.317582
1872.21, 0.317918
1872.89, 0.318647
1873.56, 0.318086
1874.24, 0.317357
1874.92, 0.317133
1875.6, 0.317189
1876.28, 0.317301
1876.96, 0.317245
1877.64, 0.316909
1878.32, 0.316740
1879.0, 0.316628
1879.68, 0.316684
1880.36, 0.316628
1881.04, 0.316348
1881.73, 0.316012
1882.41, 0.316180
1883.09, 0.316460
1883.78, 0.316460
1884.46, 0.315955
1885.15, 0.315619
1885.83, 0.315675
1886.52, 0.315507
1887.21, 0.314946
1887.89, 0.314722
1888.58, 0.315058
1889.27, 0.315507
1889.96, 0.315563
1890.65, 0.314834
1891.34, 0.314554
1892.03, 0.314329
1892.72, 0.314049
1893.41, 0.313881
1894.1, 0.313544
1894.79, 0.313208
1895.49, 0.312928
1896.18, 0.312703
1896.87, 0.312759
1897.57, 0.312535
1898.26, 0.312311
1898.96, 0.312703
1899.65, 0.312647
1900.35, 0.311862
1901.05, 0.311021
1901.74, 0.310909
1902.44, 0.311246
1903.14, 0.310853
1903.84, 0.310236
1904.54, 0.310741
1905.24, 0.310741
1905.94, 0.310348
1906.64, 0.310405
1907.34, 0.309956
1908.04, 0.309620
1908.75, 0.309788
1909.45, 0.309788
1910.15, 0.309620
1910.86, 0.309676
1911.56, 0.309563
1912.27, 0.309283
1912.97, 0.309339
1913.68, 0.309451
1914.39, 0.309115
1915.09, 0.308722
1915.8, 0.308610
1916.51, 0.308610
1917.22, 0.308722
1917.93, 0.308666
1918.64, 0.308666
1919.35, 0.308947
1920.06, 0.309283
1920.77, 0.309059
1921.48, 0.308722
1922.19, 0.308442
1922.91, 0.308162
1923.62, 0.308442
1924.33, 0.308442
1925.05, 0.308218
1925.76, 0.308442
1926.48, 0.308666
1927.19, 0.308554
1927.91, 0.308554
1928.63, 0.308442
1929.35, 0.308498
1930.07, 0.308778
1930.78, 0.308554
1931.5, 0.308442
1932.22, 0.308666
1932.94, 0.308386
1933.66, 0.308106
1934.39, 0.308106
1935.11, 0.308162
1935.83, 0.308330
1936.55, 0.308218
1937.28, 0.307881
1938.0, 0.307881
1938.73, 0.308106
1939.45, 0.307994
1940.18, 0.307713
1940.9, 0.307601
1941.63, 0.307489
1942.36, 0.307377
1943.09, 0.307265
1943.81, 0.307096
1944.54, 0.307209
1945.27, 0.307152
1946.0, 0.307096
1946.73, 0.307096
1947.47, 0.306648
1948.2, 0.306311
1948.93, 0.306311
1949.66, 0.305975
1950.4, 0.305863
1951.13, 0.305919
1951.86, 0.305807
1952.6, 0.305639
1953.34, 0.305414
1954.07, 0.305246
1954.81, 0.305078
1955.55, 0.304854
1956.29, 0.304685
1957.02, 0.304629
1957.76, 0.304573
1958.5, 0.304237
1959.24, 0.303956
1959.98, 0.303844
1960.72, 0.303676
1961.47, 0.303620
1962.21, 0.303508
1962.95, 0.303340
1963.7, 0.303284
1964.44, 0.303059
1965.18, 0.302723
1965.93, 0.302499
1966.67, 0.302723
1967.42, 0.302667
1968.17, 0.302499
1968.92, 0.302274
1969.66, 0.301826
1970.41, 0.301882
1971.16, 0.301994
1971.91, 0.301770
1972.66, 0.301770
1973.41, 0.301826
1974.16, 0.301826
1974.92, 0.301601
1975.67, 0.301265
1976.42, 0.301097
1977.18, 0.301153
1977.93, 0.301265
1978.69, 0.301321
1979.44, 0.301377
1980.2, 0.301770
1980.95, 0.301770
1981.71, 0.301545
1982.47, 0.301433
1983.23, 0.301209
1983.99, 0.301153
1984.74, 0.301433
1985.51, 0.301714
1986.27, 0.301826
1987.03, 0.301714
1987.79, 0.301826
1988.55, 0.302162
1989.32, 0.302386
1990.08, 0.302443
1990.84, 0.302555
1991.61, 0.302779
1992.37, 0.303059
1993.14, 0.303284
1993.9, 0.303228
1994.67, 0.303171
1995.44, 0.303452
1996.21, 0.303844
1996.98, 0.303956
1997.75, 0.304125
1998.52, 0.304461
1999.29, 0.304685
2000.06, 0.304629
2000.83, 0.304741
2001.6, 0.304910
2002.38, 0.305134
2003.15, 0.305470
2003.93, 0.305975
2004.7, 0.306143
2005.48, 0.305975
2006.25, 0.306087
2007.03, 0.306199
2007.81, 0.306199
2008.58, 0.306255
2009.36, 0.306536
2010.14, 0.306760
2010.92, 0.306928
2011.7, 0.307096
2012.48, 0.307265
2013.26, 0.307265
2014.05, 0.307545
2014.83, 0.307937
2015.61, 0.307937
2016.4, 0.307994
2017.18, 0.308218
2017.97, 0.308610
2018.75, 0.308947
2019.54, 0.309115
2020.32, 0.308891
2021.11, 0.308835
2021.9, 0.309115
2022.69, 0.309563
2023.48, 0.309676
2024.27, 0.309676
2025.06, 0.309900
2025.85, 0.310292
2026.64, 0.310461
2027.44, 0.310517
2028.23, 0.310685
2029.02, 0.311021
2029.82, 0.311470
2030.61, 0.311862
2031.41, 0.312199
2032.2, 0.312143
2033.0, 0.312143
2033.8, 0.312423
2034.6, 0.312703
2035.4, 0.312759
2036.2, 0.313096
2037.0, 0.313488
2037.8, 0.313657
2038.6, 0.313881
2039.4, 0.314049
2040.2, 0.314329
2041.01, 0.314722
2041.81, 0.315002
2042.61, 0.315227
2043.42, 0.315395
2044.22, 0.315731
2045.03, 0.315675
2045.84, 0.315731
2046.65, 0.316180
2047.46, 0.316572
2048.26, 0.316740
2049.07, 0.317077
2049.88, 0.317357
2050.69, 0.317638
2051.51, 0.317862
2052.32, 0.317862
2053.13, 0.317974
2053.94, 0.318086
2054.76, 0.318366
2055.57, 0.318647
2056.39, 0.318591
2057.2, 0.318647
2058.02, 0.318703
2058.84, 0.318815
2059.66, 0.318815
2060.48, 0.318815
2061.29, 0.319208
2062.11, 0.319376
2062.94, 0.319432
2063.76, 0.319432
2064.58, 0.319376
2065.4, 0.319320
2066.22, 0.319432
2067.05, 0.319488
2067.87, 0.319432
2068.7, 0.319432
2069.52, 0.319320
2070.35, 0.319320
2071.18, 0.319095
2072.0, 0.318927
2072.83, 0.318927
2073.66, 0.318759
2074.49, 0.318703
2075.32, 0.318647
2076.15, 0.318198
2076.98, 0.317694
2077.82, 0.317357
2078.65, 0.317133
2079.48, 0.317077
2080.32, 0.316628
2081.15, 0.316012
2081.99, 0.315395
2082.83, 0.314498
2083.66, 0.313825
2084.5, 0.313152
2085.34, 0.312423
2086.18, 0.311918
2087.02, 0.311414
2087.86, 0.311077
2088.7, 0.310741
2089.54, 0.310629
2090.39, 0.310461
2091.23, 0.310012
2092.07, 0.309620
2092.92, 0.309451
2093.76, 0.309227
2094.61, 0.308947
2095.45, 0.308778
2096.3, 0.308666
2097.15, 0.308498
2098.0, 0.308274
2098.85, 0.308218
2099.7, 0.308274
2100.55, 0.308274
2101.4, 0.308106
2102.25, 0.307994
2103.1, 0.307713
2103.96, 0.307433
2104.81, 0.307377
2105.67, 0.307489
2106.52, 0.307377
2107.38, 0.307152
2108.24, 0.307152
2109.09, 0.307152
2109.95, 0.307209
2110.81, 0.307489
2111.67, 0.307657
2112.53, 0.307825
2113.39, 0.308050
2114.25, 0.308386
2115.12, 0.308778
2115.98, 0.309003
2116.84, 0.309059
2117.71, 0.309171
2118.58, 0.309115
2119.44, 0.309227
2120.31, 0.309507
2121.18, 0.309676
2122.04, 0.309620
2122.91, 0.309620
2123.78, 0.309507
2124.65, 0.309227
2125.52, 0.308891
2126.4, 0.308666
2127.27, 0.308666
2128.14, 0.308330
2129.02, 0.307601
2129.89, 0.307489
2130.77, 0.307545
2131.64, 0.307433
2132.52, 0.307265
2133.4, 0.307433
2134.27, 0.307713
2135.15, 0.308050
2136.03, 0.308274
2136.91, 0.308442
2137.79, 0.308610
2138.68, 0.308835
2139.56, 0.309171
2140.44, 0.309451
2141.33, 0.309676
2142.21, 0.310012
2143.1, 0.310629
2143.99, 0.310909
2144.87, 0.310965
2145.76, 0.311133
2146.65, 0.311358
2147.54, 0.311582
2148.43, 0.311750
2149.32, 0.312199
2150.21, 0.312816
2151.1, 0.313152
2151.99, 0.313376
2152.89, 0.313713
2153.78, 0.314049
2154.68, 0.314386
2155.57, 0.314722
2156.47, 0.314834
2157.37, 0.315058
2158.27, 0.315507
2159.16, 0.315675
2160.06, 0.315731
2160.96, 0.315955
2161.86, 0.316236
2162.77, 0.316292
2163.67, 0.316404
2164.57, 0.316740
2165.48, 0.317021
2166.38, 0.317021
2167.29, 0.317189
2168.2, 0.317245
2169.1, 0.317357
2170.01, 0.317694
2170.92, 0.317750
2171.83, 0.317806
2172.74, 0.317974
2173.65, 0.317918
2174.56, 0.317918
2175.47, 0.317918
2176.39, 0.317750
2177.3, 0.317918
2178.22, 0.317974
2179.13, 0.317862
2180.05, 0.317862
2180.96, 0.317750
2181.88, 0.317750
2182.8, 0.317806
2183.72, 0.317638
2184.64, 0.317413
2185.56, 0.317413
2186.48, 0.317469
2187.41, 0.317469
2188.33, 0.317469
2189.25, 0.317245
2190.18, 0.317077
2191.1, 0.316965
2192.03, 0.316965
2192.96, 0.316965
2193.89, 0.316797
2194.82, 0.316572
2195.74, 0.316516
2196.68, 0.316516
2197.61, 0.316292
2198.54, 0.316404
2199.47, 0.316460
2200.4, 0.316516
2201.34, 0.316404
2202.28, 0.316236
2203.21, 0.316124
2204.15, 0.315843
2205.08, 0.315731
2206.02, 0.315675
2206.96, 0.315339
2207.9, 0.315283
2208.84, 0.315227
2209.78, 0.315058
2210.73, 0.314890
2211.67, 0.314666
2212.61, 0.314273
2213.56, 0.314105
2214.5, 0.313769
2215.45, 0.313544
2216.4, 0.313376
2217.35, 0.313040
2218.3, 0.312535
2219.24, 0.311918
2220.2, 0.311526
2221.15, 0.311077
2222.1, 0.310573
2223.05, 0.309900
2224.0, 0.309059
2224.96, 0.308274
2225.91, 0.307489
2226.87, 0.306928
2227.83, 0.306087
2228.79, 0.304798
2229.74, 0.303452
2230.7, 0.302050
2231.66, 0.300536
2232.63, 0.299078
2233.59, 0.297733
2234.55, 0.296163
2235.51, 0.294537
2236.48, 0.292798
2237.44, 0.291172
2238.41, 0.289659
2239.38, 0.288257
2240.34, 0.286799
2241.31, 0.285509
2242.28, 0.284612
2243.25, 0.283939
2244.22, 0.283042
2245.19, 0.281977
2246.17, 0.281136
2247.14, 0.280519
2248.12, 0.279734
2249.09, 0.278893
2250.07, 0.278332
2251.04, 0.277884
2252.02, 0.277547
2253.0, 0.276987
2253.98, 0.276314
2254.96, 0.275921
2255.94, 0.275809
2256.92, 0.275697
2257.91, 0.275417
2258.89, 0.275024
2259.88, 0.274464
2260.86, 0.273735
2261.85, 0.273006
2262.83, 0.271884
2263.82, 0.270426
2264.81, 0.268744
2265.8, 0.267062
2266.79, 0.265324
2267.78, 0.263642
2268.78, 0.261960
2269.77, 0.260222
2270.76, 0.258652
2271.76, 0.257138
2272.75, 0.255624
2273.75, 0.254559
2274.75, 0.253774
2275.75, 0.253213
2276.75, 0.252596
2277.75, 0.251811
2278.75, 0.251250
2279.75, 0.250858
2280.75, 0.250297
2281.76, 0.249512
2282.76, 0.248671
2283.77, 0.247718
2284.77, 0.246597
2285.78, 0.245587
2286.79, 0.244466
2287.8, 0.243232
2288.81, 0.241887
2289.82, 0.240149
2290.83, 0.238467
2291.84, 0.237121
2292.86, 0.235439
2293.87, 0.233813
2294.89, 0.232299
2295.91, 0.230897
2296.92, 0.229607
2297.94, 0.228374
2298.96, 0.226860
2299.98, 0.225851
2301.0, 0.224898
2302.02, 0.223888
2303.04, 0.222767
2304.07, 0.221477
2305.09, 0.219851
2306.12, 0.218001
2307.15, 0.216151
2308.17, 0.214356
2309.2, 0.212226
2310.23, 0.209871
2311.26, 0.207460
2312.29, 0.204937
2313.32, 0.202638
2314.35, 0.200339
2315.39, 0.198096
2316.42, 0.196134
2317.46, 0.194507
2318.5, 0.193050
2319.53, 0.192040
2320.57, 0.191087
2321.61, 0.189798
2322.65, 0.188957
2323.69, 0.188620
2324.73, 0.188564
2325.78, 0.188844
2326.82, 0.189629
2327.86, 0.190919
2328.91, 0.192545
2329.96, 0.194395
2331.01, 0.196414
2332.05, 0.198264
2333.1, 0.200171
2334.15, 0.202245
2335.21, 0.204152
2336.26, 0.205890
2337.31, 0.207740
2338.36, 0.209927
2339.42, 0.212057
2340.48, 0.214300
2341.53, 0.216992
2342.59, 0.220075
2343.65, 0.223552
2344.71, 0.227028
2345.77, 0.230224
2346.83, 0.233532
2347.9, 0.236784
2348.96, 0.239812
2350.02, 0.242616
2351.09, 0.245139
2352.16, 0.247157
2353.23, 0.249064
2354.29, 0.250746
2355.36, 0.251979
2356.43, 0.253045
2357.51, 0.253998
2358.58, 0.254839
2359.65, 0.255344
2360.73, 0.255736
2361.8, 0.255960
2362.88, 0.256016
2363.96, 0.255631
2365.03, 0.255245
2366.11, 0.254695
2367.19, 0.253979
2368.27, 0.253098
2369.36, 0.252162
2370.44, 0.251115
2371.53, 0.249683
2372.61, 0.247701
2373.7, 0.245994
2374.78, 0.243681
2375.87, 0.241203
2376.96, 0.239000
2378.05, 0.236632
2379.14, 0.234319
2380.24, 0.232557
2381.33, 0.231401
2382.42, 0.230464
2383.52, 0.229418
2384.61, 0.228867
2385.71, 0.228922
2386.81, 0.229859
2387.91, 0.231180
2389.01, 0.232282
2390.11, 0.233108
2391.22, 0.233989
2392.32, 0.234209
2393.42, 0.234705
2394.53, 0.235365
2395.64, 0.235916
2396.74, 0.236302
2397.85, 0.236797
2398.96, 0.237348
2400.07, 0.237954
2401.18, 0.238615
2402.3, 0.239275
2403.41, 0.239110
2404.52, 0.238394
2405.64, 0.237789
2406.76, 0.237238
2407.88, 0.236742
2408.99, 0.236081
2410.11, 0.235310
2411.23, 0.234705
2412.36, 0.234044
2413.48, 0.233273
2414.6, 0.232337
2415.73, 0.231456
2416.85, 0.230905
2417.98, 0.230519
2419.11, 0.229969
2420.24, 0.229748
2421.37, 0.229363
2422.5, 0.228922
2423.64, 0.228592
2424.77, 0.228537
2425.9, 0.228482
2427.04, 0.228372
2428.18, 0.228427
2429.31, 0.228812
2430.45, 0.229198
2431.59, 0.229693
2432.73, 0.230024
2433.88, 0.230134
2435.02, 0.230024
2436.16, 0.229418
2437.31, 0.228592
2438.45, 0.227986
2439.6, 0.227160
2440.75, 0.226279
2441.9, 0.225288
2443.05, 0.224517
2444.2, 0.223746
2445.35, 0.223360
2446.51, 0.222865
2447.67, 0.222094
2448.82, 0.221268
2449.98, 0.220717
2451.14, 0.220387
2452.3, 0.220166
2453.46, 0.220387
2454.62, 0.220717
2455.78, 0.220827
2456.94, 0.221158
2458.11, 0.221763
2459.28, 0.222534
2460.44, 0.223305
2461.61, 0.224242
2462.78, 0.225398
2463.95, 0.226610
2465.12, 0.227656
2466.3, 0.228372
2467.47, 0.228867
2468.65, 0.229198
2469.82, 0.229308
2471.0, 0.229583
2472.18, 0.229748
2473.36, 0.229418
2474.54, 0.228978
2475.72, 0.228427
2476.9, 0.227656
2478.08, 0.226940
2479.27, 0.226004
2480.46, 0.225178
2481.64, 0.224242
2482.83, 0.223250
2484.02, 0.222204
2485.21, 0.221268
2486.4, 0.220221
2487.6, 0.219175
2488.79, 0.218184
2489.99, 0.217083
2491.18, 0.215926
2492.38, 0.215045
2493.58, 0.214274
2494.78, 0.213723
2495.98, 0.213063
2497.18, 0.212512
2498.39, 0.212181
2499.59, 0.211796
2500.8, 0.211521
2502.01, 0.211410
2503.21, 0.210805
2504.42, 0.210474
2505.63, 0.210144
2506.84, 0.209538
2508.06, 0.208932
2509.27, 0.208216
2510.49, 0.207390
2511.7, 0.206840
2512.92, 0.206399
2514.14, 0.205848
2515.36, 0.205243
2516.58, 0.205133
2517.8, 0.205353
2519.03, 0.205518
2520.25, 0.205738
2521.48, 0.206069
2522.7, 0.206619
2523.93, 0.207280
2525.16, 0.208051
2526.39, 0.209318
2527.62, 0.210474
2528.86, 0.211465
2530.09, 0.212787
2531.33, 0.214109
2532.56, 0.215045
2533.8, 0.215816
2535.04, 0.217248
2536.28, 0.218514
2537.52, 0.218790
2538.76, 0.219175
2540.01, 0.219836
2541.25, 0.220552
2542.5, 0.221378
2543.75, 0.221488
2544.99, 0.220992
2546.24, 0.220607
2547.49, 0.220552
2548.75, 0.219726
2550.0, 0.219285
2551.26, 0.219395
2552.51, 0.219120
2553.77, 0.217909
2555.03, 0.216587
2556.29, 0.215926
2557.55, 0.215375
2558.81, 0.215210
2560.08, 0.216312
2561.34, 0.217193
2562.61, 0.216587
2563.88, 0.215706
2565.14, 0.213723
2566.41, 0.212347
2567.68, 0.213007
2568.96, 0.214825
2570.23, 0.214549
2571.51, 0.213778
2572.78, 0.216587
2574.06, 0.217413
2575.34, 0.217468
2576.62, 0.219395
2577.9, 0.219010
2579.18, 0.218845
2580.47, 0.221103
2581.75, 0.222369
2583.04, 0.225068
2584.32, 0.226114
2585.61, 0.224902
2586.9, 0.226995
2588.2, 0.227436
2589.49, 0.226830
2590.78, 0.226444
2592.08, 0.227986
2593.37, 0.234044
2594.67, 0.240322
2595.97, 0.235586
2597.27, 0.230685
2598.57, 0.229693
2599.88, 0.230905
2601.18, 0.232667
2602.49, 0.233879
2603.79, 0.235861
2605.1, 0.238780
2606.41, 0.237954
2607.72, 0.236632
2609.03, 0.236742
2610.35, 0.236412
2611.66, 0.236357
2612.98, 0.237183
2614.3, 0.237018
2615.62, 0.240157
2616.94, 0.242469
2618.26, 0.239716
2619.58, 0.240983
2620.91, 0.240983
2622.23, 0.237293
2623.56, 0.236632
2624.89, 0.238284
2626.22, 0.241698
2627.55, 0.240267
2628.88, 0.240762
2630.21, 0.243846
2631.55, 0.241203
2632.89, 0.239330
2634.22, 0.239110
2635.56, 0.237128
2636.9, 0.236302
2638.25, 0.235696
2639.59, 0.235255
2640.93, 0.234870
2642.28, 0.234264
2643.63, 0.232998
2644.98, 0.233163
2646.33, 0.231731
2647.68, 0.229308
2649.03, 0.227325
2650.39, 0.226224
2651.74, 0.226114
2653.1, 0.224242
2654.46, 0.221708
2655.82, 0.220056
2657.18, 0.217413
2658.54, 0.217413
2659.9, 0.217193
2661.27, 0.215596
2662.64, 0.214219
2664.01, 0.216146
2665.38, 0.218184
2666.74, 0.216422
2668.12, 0.211686
2669.49, 0.212622
2670.87, 0.210915
2672.24, 0.203040
2673.62, 0.199240
2675.0, 0.197588
2676.38, 0.195440
2677.76, 0.190264
2679.15, 0.184096
2680.54, 0.175120
2681.92, 0.166309
2683.31, 0.157333
2684.7, 0.146869
2686.09, 0.136682
2687.48, 0.126769
2688.88, 0.118233
2690.27, 0.110524
2691.67, 0.104411
2693.07, 0.0993450
2694.47, 0.0929570
2695.87, 0.0853570
2697.27, 0.0782530
2698.67, 0.0709840
2700.08, 0.0628340
2701.49, 0.0545180
2702.9, 0.0479100
2704.31, 0.0438350
2705.72, 0.0417970
2707.13, 0.0394850
2708.54, 0.0371170
2709.96, 0.0350790
2711.38, 0.0333170
2712.8, 0.0315000
2714.22, 0.0302330
2715.64, 0.0291870
2717.06, 0.0281400
2718.49, 0.0268740
2719.91, 0.0256620
2721.34, 0.0245060
2722.77, 0.0248360
2724.2, 0.0264330
2725.63, 0.0276450
2727.07, 0.0289110
2728.5, 0.0299030
2729.94, 0.0299580
2731.38, 0.0298470
2732.82, 0.0305080
2734.26, 0.0317200
2735.7, 0.0329310
2737.15, 0.0341430
2738.59, 0.0355200
2740.04, 0.0364560
2741.49, 0.0366210
2742.94, 0.0366210
2744.39, 0.0370060
2745.84, 0.0378880
2747.3, 0.0389340
2748.76, 0.0397050
2750.21, 0.0405310
2751.67, 0.0418530
2753.14, 0.0434500
2754.6, 0.0457070
2756.06, 0.0470840
2757.53, 0.0470840
2759.0, 0.0471390
2760.46, 0.0476350
2761.94, 0.0486260
2763.41, 0.0491770
2764.88, 0.0497270
2766.36, 0.0508290
2767.83, 0.0522610
2769.31, 0.0535270
2770.79, 0.0544080
2772.27, 0.0545740
2773.76, 0.0544080
2775.24, 0.0543530
2776.73, 0.0545180
2778.22, 0.0546840
2779.71, 0.0548490
2781.2, 0.0550140
2782.69, 0.0549040
2784.18, 0.0547940
2785.68, 0.0550140
2787.18, 0.0552890
2788.68, 0.0551240
2790.18, 0.0549590
2791.68, 0.0551240
2793.19, 0.0552340
2794.69, 0.0552890
2796.2, 0.0555100
2797.71, 0.0556750
2799.22, 0.0555100
2800.73, 0.0556200
2802.24, 0.0562810
2803.76, 0.0564460
2805.28, 0.0562810
2806.8, 0.0563910
2808.32, 0.0567210
2809.84, 0.0568310
2811.36, 0.0569970
2812.89, 0.0575470
2814.42, 0.0582080
2815.94, 0.0585380
2817.48, 0.0590890
2819.01, 0.0598050
2820.54, 0.0601910
2822.08, 0.0606860
2823.61, 0.0612370
2825.15, 0.0617880
2826.69, 0.0625030
2828.23, 0.0630540
2829.78, 0.0635500
2831.32, 0.0643210
2832.87, 0.0649270
2834.42, 0.0655320
2835.97, 0.0664130
2837.52, 0.0670190
2839.08, 0.0672940
2840.63, 0.0677350
2842.19, 0.0683410
2843.75, 0.0688910
2845.31, 0.0693320
2846.87, 0.0698830
2848.44, 0.0703780
2850.0, 0.0708740
2851.57, 0.0713700
2853.14, 0.0720300
2854.71, 0.0724710
2856.28, 0.0726910
2857.86, 0.0729120
2859.43, 0.0731870
2861.01, 0.0735170
2862.59, 0.0739030
2864.17, 0.0742880
2865.76, 0.0742880
2867.34, 0.0743980
2868.93, 0.0747290
2870.52, 0.0748390
2872.11, 0.0751690
2873.7, 0.0755000
2875.29, 0.0756100
2876.89, 0.0757750
2878.49, 0.0757750
2880.08, 0.0758300
2881.69, 0.0759400
2883.29, 0.0759950
2884.89, 0.0761060
2886.5, 0.0763260
2888.11, 0.0764360
2889.72, 0.0766010
2891.33, 0.0767110
2892.94, 0.0766010
2894.56, 0.0766010
2896.17, 0.0767660
2897.79, 0.0767110
2899.42, 0.0768210
2901.04, 0.0770970
2902.66, 0.0772070
2904.29, 0.0773170
2905.92, 0.0775920
2907.55, 0.0777580
2909.18, 0.0779780
2910.81, 0.0781430
2912.45, 0.0782530
2914.08, 0.0783630
2915.72, 0.0786390
2917.36, 0.0789690
2919.01, 0.0791890
2920.65, 0.0794100
2922.3, 0.0797950
2923.94, 0.0801810
2925.59, 0.0804560
2927.25, 0.0806760
2928.9, 0.0809520
2930.56, 0.0813920
2932.21, 0.0818880
2933.87, 0.0823830
2935.53, 0.0827140
2937.2, 0.0829890
2938.86, 0.0833750
2940.53, 0.0839250
2942.2, 0.0844760
2943.87, 0.0848620
2945.54, 0.0852470
2947.22, 0.0856880
2948.89, 0.0861280
2950.57, 0.0866790
2952.25, 0.0872850
2953.93, 0.0878900
2955.62, 0.0883860
2957.3, 0.0887710
2958.99, 0.0892120
2960.68, 0.0897630
2962.37, 0.0902580
2964.07, 0.0906990
2965.76, 0.0911390
2967.46, 0.0915800
2969.16, 0.0922960
2970.86, 0.0930670
2972.56, 0.0936180
2974.27, 0.0940030
2975.98, 0.0944990
2977.69, 0.0948840
2979.4, 0.0954900
2981.11, 0.0961510
2982.83, 0.0965360
2984.54, 0.0969770
2986.26, 0.0974720
2987.98, 0.0981330
2989.71, 0.0985190
2991.43, 0.0989590
2993.16, 0.0994550
2994.89, 0.0998950
2996.62, 0.100556
2998.35, 0.101162
3000.09, 0.101658
3001.83, 0.101988
3003.57, 0.102429
3005.31, 0.102814
3007.05, 0.103365
3008.79, 0.103915
3010.54, 0.104356
3012.29, 0.104852
3014.04, 0.105512
3015.8, 0.106008
3017.55, 0.106283
3019.31, 0.106779
3021.07, 0.107330
3022.83, 0.107770
3024.59, 0.108211
3026.36, 0.108706
3028.13, 0.109257
3029.9, 0.109643
3031.67, 0.110138
3033.44, 0.110689
3035.22, 0.111185
3037.0, 0.111625
3038.78, 0.112011
3040.56, 0.112286
3042.34, 0.112727
3044.13, 0.113167
3045.92, 0.113553
3047.71, 0.113993
3049.5, 0.114379
3051.3, 0.114764
3053.09, 0.115260
3054.89, 0.115755
3056.69, 0.116141
3058.5, 0.116471
3060.3, 0.116857
3062.11, 0.117352
3063.92, 0.117793
3065.73, 0.118344
3067.55, 0.118839
3069.36, 0.119115
3071.18, 0.119555
3073.0, 0.119996
3074.82, 0.120161
3076.65, 0.120436
3078.48, 0.121042
3080.31, 0.121538
3082.14, 0.121868
3083.97, 0.122198
3085.8, 0.122529
3087.64, 0.122859
3089.48, 0.123245
3091.33, 0.123465
3093.17, 0.123906
3095.02, 0.124291
3096.87, 0.124621
3098.72, 0.125062
3100.57, 0.125503
3102.43, 0.125778
3104.28, 0.126218
3106.14, 0.126549
3108.01, 0.126934
3109.87, 0.127430
3111.74, 0.127815
3113.61, 0.128256
3115.48, 0.128862
3117.35, 0.129247
3119.23, 0.129578
3121.1, 0.129963
3122.98, 0.130183
3124.87, 0.130569
3126.75, 0.131009
3128.64, 0.131505
3130.53, 0.131946
3132.42, 0.132386
3134.31, 0.132937
3136.21, 0.133377
3138.11, 0.133928
3140.01, 0.134534
3141.91, 0.135085
3143.82, 0.135690
3145.73, 0.136351
3147.64, 0.137067
3149.55, 0.137508
3151.46, 0.137893
3153.38, 0.138609
3155.3, 0.139215
3157.22, 0.139710
3159.14, 0.140371
3161.07, 0.140867
3163.0, 0.141307
3164.93, 0.141748
3166.86, 0.142189
3168.8, 0.142794
3170.74, 0.143400
3172.68, 0.144006
3174.62, 0.144722
3176.56, 0.145327
3178.51, 0.145768
3180.46, 0.146264
3182.42, 0.147035
3184.37, 0.147695
3186.33, 0.148301
3188.29, 0.148962
3190.25, 0.149513
3192.21, 0.149953
3194.18, 0.150394
3196.15, 0.151000
3198.12, 0.151715
3200.09, 0.152431
3202.07, 0.152927
3204.05, 0.153423
3206.03, 0.154028
3208.02, 0.154689
3210.0, 0.155075
3211.99, 0.155350
3213.98, 0.155625
3215.98, 0.156066
3217.97, 0.156396
3219.97, 0.156562
3221.97, 0.156562
3223.98, 0.156672
3225.98, 0.156782
3227.99, 0.156837
3230.0, 0.156837
3232.02, 0.156947
3234.03, 0.156947
3236.05, 0.156837
3238.07, 0.156837
3240.1, 0.157112
3242.12, 0.157277
3244.15, 0.157553
3246.18, 0.157938
3248.22, 0.158214
3250.25, 0.158489
3252.29, 0.158819
3254.33, 0.159205
3256.38, 0.159645
3258.43, 0.160086
3260.47, 0.160527
3262.53, 0.160857
3264.58, 0.161242
3266.64, 0.161628
3268.7, 0.161793
3270.76, 0.162068
3272.82, 0.162399
3274.89, 0.162674
3276.96, 0.162729
3279.04, 0.162895
3281.11, 0.163005
3283.19, 0.163005
3285.27, 0.162895
3287.35, 0.162619
3289.44, 0.162289
3291.53, 0.161793
3293.62, 0.161132
3295.71, 0.160251
3297.81, 0.159260
3299.91, 0.158048
3302.01, 0.157222
3304.11, 0.156727
3306.22, 0.156562
3308.33, 0.156562
3310.44, 0.156947
3312.56, 0.157608
3314.68, 0.158434
3316.8, 0.159260
3318.92, 0.160031
3321.05, 0.160692
3323.18, 0.161408
3325.31, 0.162068
3327.44, 0.162674
3329.58, 0.163115
3331.72, 0.163335
3333.86, 0.163500
3336.01, 0.163610
3338.16, 0.163831
3340.31, 0.164051
3342.46, 0.164271
3344.61, 0.164932
3346.77, 0.165758
3348.94, 0.166474
3351.1, 0.167190
3353.27, 0.167961
3355.44, 0.168677
3357.61, 0.169393
3359.79, 0.170164
3361.97, 0.170880
3364.15, 0.171706
3366.33, 0.172311
3368.52, 0.172807
3370.71, 0.173358
3372.9, 0.173908
3375.1, 0.174514
3377.3, 0.174734
3379.5, 0.174789
3381.71, 0.175065
3383.91, 0.175450
3386.12, 0.175726
3388.34, 0.176166
3390.55, 0.176772
3392.77, 0.177102
3394.99, 0.177213
3397.22, 0.177488
3399.45, 0.177818
3401.68, 0.177983
3403.91, 0.178094
3406.15, 0.178094
3408.39, 0.178204
3410.63, 0.178369
3412.87, 0.178534
3415.12, 0.178754
3417.37, 0.179140
3419.63, 0.179580
3421.88, 0.180021
3424.14, 0.180462
3426.41, 0.180957
3428.67, 0.181398
3430.94, 0.181508
3433.21, 0.181398
3435.49, 0.181288
3437.77, 0.181177
3440.05, 0.181012
3442.33, 0.180847
3444.62, 0.180792
3446.91, 0.180957
3449.2, 0.181343
3451.5, 0.181893
3453.8, 0.182334
3456.1, 0.182995
3458.41, 0.183656
3460.72, 0.184316
3463.03, 0.185087
3465.34, 0.185748
3467.66, 0.186354
3469.98, 0.186850
3472.31, 0.187455
3474.63, 0.188061
3476.96, 0.188777
3479.3, 0.189493
3481.64, 0.190264
3483.97, 0.191200
3486.32, 0.192081
3488.66, 0.193017
3491.01, 0.194009
3493.36, 0.195220
3495.72, 0.196432
3498.08, 0.197698
3500.44, 0.198745
3502.81, 0.200121
3505.18, 0.201553
3507.55, 0.202820
3509.92, 0.204141
3512.3, 0.205298
3514.68, 0.206344
3517.06, 0.207666
3519.45, 0.208877
3521.84, 0.209979
3524.24, 0.210860
3526.64, 0.211851
3529.04, 0.212842
3531.44, 0.213613
3533.85, 0.214329
3536.26, 0.214935
3538.67, 0.215596
3541.09, 0.216201
3543.51, 0.216697
3545.93, 0.217138
3548.36, 0.217633
3550.79, 0.218129
3553.22, 0.218790
3555.66, 0.219506
3558.1, 0.220111
3560.54, 0.220662
3562.99, 0.221048
3565.44, 0.221543
3567.9, 0.221874
3570.35, 0.222259
3572.81, 0.222755
3575.28, 0.223195
3577.75, 0.223581
3580.22, 0.223966
3582.69, 0.224242
3585.17, 0.224462
3587.65, 0.224792
3590.14, 0.225123
3592.62, 0.225453
3595.11, 0.225728
3597.61, 0.225949
3600.11, 0.226279
3602.61, 0.226499
3605.11, 0.226885
3607.62, 0.227105
3610.14, 0.227215
3612.65, 0.227380
3615.17, 0.227766
3617.69, 0.228151
3620.22, 0.228482
3622.75, 0.228702
3625.28, 0.228922
3627.82, 0.229033
3630.36, 0.229253
3632.9, 0.229473
3635.45, 0.229748
3638.0, 0.229914
3640.56, 0.230189
3643.12, 0.230464
3645.68, 0.230685
3648.24, 0.230850
3650.81, 0.230960
3653.39, 0.231180
3655.96, 0.231456
3658.54, 0.231621
3661.13, 0.231621
3663.71, 0.231621
3666.3, 0.231676
3668.9, 0.231786
3671.5, 0.232061
3674.1, 0.232116
3676.7, 0.232282
3679.31, 0.232447
3681.93, 0.232502
3684.54, 0.232447
3687.17, 0.232282
3689.79, 0.231896
3692.42, 0.231731
3695.05, 0.231841
3697.69, 0.231841
3700.32, 0.231621
3702.97, 0.231456
3705.61, 0.231290
3708.27, 0.231345
3710.92, 0.231511
3713.58, 0.231731
3716.24, 0.231951
3718.91, 0.232282
3721.58, 0.232832
3724.25, 0.233438
3726.93, 0.233824
3729.61, 0.234209
3732.29, 0.234484
3734.98, 0.234650
3737.67, 0.234650
3740.37, 0.234650
3743.07, 0.234539
3745.78, 0.234319
3748.49, 0.233934
3751.2, 0.233713
3753.91, 0.233383
3756.63, 0.232832
3759.36, 0.232227
3762.09, 0.231621
3764.82, 0.231070
3767.55, 0.230574
3770.29, 0.230079
3773.04, 0.229363
3775.78, 0.228702
3778.54, 0.228041
3781.29, 0.227270
3784.05, 0.226554
3786.82, 0.225839
3789.59, 0.225013
3792.36, 0.224021
3795.13, 0.223195
3797.92, 0.222534
3800.7, 0.222094
3803.49, 0.221708
3806.28, 0.221653
3809.08, 0.222094
3811.88, 0.223140
3814.68, 0.224242
3817.49, 0.225453
3820.31, 0.226610
3823.12, 0.227821
3825.94, 0.228867
3828.77, 0.229638
3831.6, 0.230409
3834.43, 0.231180
3837.27, 0.231731
3840.11, 0.232061
3842.96, 0.232061
3845.81, 0.231676
3848.67, 0.230740
3851.53, 0.229363
3854.39, 0.227931
3857.26, 0.226554
3860.13, 0.225398
3863.01, 0.224572
3865.89, 0.223966
3868.77, 0.223526
3871.66, 0.223030
3874.55, 0.222755
3877.45, 0.222314
3880.35, 0.221929
3883.26, 0.221598
3886.17, 0.221323
3889.09, 0.221213
3892.01, 0.221048
3894.93, 0.220607
3897.86, 0.219891
3900.79, 0.218900
3903.73, 0.217523
3906.67, 0.216036
3909.62, 0.214715
3912.57, 0.213503
3915.52, 0.212402
3918.48, 0.211521
3921.45, 0.210970
3924.42, 0.210529
3927.39, 0.210034
3930.37, 0.209483
3933.35, 0.209042
3936.34, 0.208602
3939.33, 0.208161
3942.32, 0.207776
3945.32, 0.207390
3948.33, 0.206950
3951.34, 0.206840
3954.35, 0.206730
3957.37, 0.206619
3960.39, 0.206564
3963.42, 0.206950
3966.45, 0.207721
3969.49, 0.208877
3972.53, 0.210860
3975.58, 0.213338
3978.63, 0.215871
3981.68, 0.218349
3984.75, 0.220607
3987.81, 0.222700
3990.88, 0.224517
3993.95, 0.225894
3997.03, 0.227160
4000.12, 0.228537
4003.21, 0.229969
4006.3, 0.231235
4009.4, 0.232447
4012.5, 0.233548
4015.61, 0.234429
4018.72, 0.235200
4021.84, 0.235861
4024.96, 0.236577
4028.09, 0.237128
4031.22, 0.237513
4034.36, 0.237844
4037.5, 0.238229
4040.65, 0.238560
4043.8, 0.238835
4046.96, 0.239055
4050.12, 0.239165
4053.29, 0.239165
4056.46, 0.239275
4059.64, 0.239386
4062.82, 0.239386
4066.0, 0.239275
4069.19, 0.239441
4072.39, 0.239551
4075.59, 0.239441
4078.8, 0.239165
4082.01, 0.239110
4085.23, 0.238945
4088.45, 0.238890
4091.68, 0.238780
4094.91, 0.238780
4098.15, 0.238560
4101.39, 0.238394
4104.63, 0.238284
4107.89, 0.238229
4111.14, 0.238009
4114.41, 0.237789
4117.67, 0.237568
4120.95, 0.237403
4124.23, 0.237293
4127.51, 0.237183
4130.8, 0.236962
4134.09, 0.236797
4137.39, 0.236577
4140.7, 0.236357
4144.01, 0.236081
4147.32, 0.235806
4150.64, 0.235641
4153.97, 0.235531
4157.3, 0.235421
4160.64, 0.235255
4163.98, 0.234980
4167.33, 0.234815
4170.68, 0.234595
4174.04, 0.234595
4177.4, 0.234484
4180.77, 0.234319
4184.14, 0.234044
4187.52, 0.233824
4190.91, 0.233603
4194.3, 0.233493
4197.69, 0.233383
4201.1, 0.233218
4204.5, 0.233108
4207.92, 0.233108
4211.34, 0.233163
4214.76, 0.233383
4218.19, 0.233603
4221.62, 0.233713
4225.06, 0.233824
4228.51, 0.233879
4231.96, 0.233824
4235.42, 0.233603
4238.88, 0.233273
4242.35, 0.232777
4245.83, 0.232061
4249.31, 0.231456
4252.79, 0.230740
4256.28, 0.230299
4259.78, 0.230299
4263.29, 0.230464
4266.79, 0.230519
4270.31, 0.230519
4273.83, 0.230409
4277.35, 0.230244
4280.89, 0.229969
4284.42, 0.229748
4287.97, 0.229528
4291.52, 0.229198
4295.07, 0.228922
4298.63, 0.228592
4302.2, 0.228207
4305.78, 0.227931
4309.35, 0.227656
4312.94, 0.227325
4316.53, 0.226995
4320.13, 0.226720
4323.73, 0.226499
4327.34, 0.226334
4330.96, 0.226114
4334.58, 0.225949
4338.21, 0.225894
4341.84, 0.225783
4345.48, 0.225673
4349.12, 0.225673
4352.77, 0.225508
4356.43, 0.225288
4360.1, 0.225068
4363.76, 0.224847
4367.44, 0.224572
4371.12, 0.224407
4374.81, 0.224242
4378.51, 0.224076
4382.21, 0.223801
4385.92, 0.223471
4389.63, 0.223195
4393.35, 0.223030
4397.08, 0.222865
4400.81, 0.222589
4404.55, 0.222204
4408.29, 0.221929
4412.04, 0.221653
4415.8, 0.221268
4419.57, 0.220937
4423.34, 0.220552
4427.12, 0.220056
4430.9, 0.219836
4434.69, 0.219671
4438.49, 0.219395
4442.29, 0.219120
4446.1, 0.218790
4449.92, 0.218404
4453.74, 0.218239
4457.57, 0.218074
4461.41, 0.217854
4465.25, 0.217633
4469.1, 0.217358
4472.95, 0.217193
4476.82, 0.216862
4480.69, 0.216312
4484.56, 0.215871
4488.44, 0.215486
4492.33, 0.214990
4496.23, 0.214384
4500.13, 0.213889
4504.04, 0.213283
4507.96, 0.212622
4511.88, 0.211906
4515.81, 0.211245
4519.75, 0.210529
4523.69, 0.209758
4527.65, 0.208987
4531.6, 0.208161
4535.57, 0.207390
4539.54, 0.206619
4543.52, 0.205738
4547.5, 0.204747
4551.5, 0.203756
4555.5, 0.202820
4559.5, 0.201828
4563.52, 0.201002
4567.54, 0.200121
4571.56, 0.199240
4575.6, 0.198359
4579.64, 0.197533
4583.69, 0.196762
4587.75, 0.195936
4591.81, 0.195165
4595.88, 0.194504
4599.96, 0.193733
4604.04, 0.192962
4608.14, 0.192246
4612.24, 0.191586
4616.34, 0.190760
4620.46, 0.190044
4624.58, 0.189328
4628.71, 0.188667
4632.84, 0.188006
4636.99, 0.187455
4641.14, 0.186795
4645.3, 0.186134
4649.47, 0.185363
4653.64, 0.184757
4657.82, 0.184096
4662.01, 0.183380
4666.21, 0.182609
4670.41, 0.181948
4674.62, 0.181012
4678.84, 0.179966
4683.07, 0.178810
4687.3, 0.177653
4691.54, 0.176442
4695.79, 0.175175
4700.05, 0.173853
4704.31, 0.172697
4708.59, 0.171485
4712.87, 0.170329
4717.15, 0.169172
4721.45, 0.168016
4725.76, 0.167025
4730.07, 0.166033
4734.39, 0.164767
4738.72, 0.163500
4743.05, 0.162289
4747.39, 0.161242
4751.75, 0.160141
4756.1, 0.158930
4760.47, 0.157773
4764.85, 0.156837
4769.23, 0.155846
4773.62, 0.155020
4778.02, 0.154194
4782.43, 0.153368
4786.85, 0.152652
4791.27, 0.151881
4795.7, 0.151165
4800.14, 0.150614
4804.59, 0.150284
4809.05, 0.149953
4813.51, 0.149513
4817.99, 0.149292
4822.47, 0.149017
4826.96, 0.148577
4831.46, 0.148136
4835.96, 0.147695
4840.48, 0.147145
4845.0, 0.146539
4849.54, 0.145823
4854.08, 0.145107
4858.63, 0.144281
4863.18, 0.143400
4867.75, 0.142464
4872.33, 0.141583
4876.91, 0.140647
4881.5, 0.139986
4886.1, 0.139380
4890.71, 0.138829
4895.33, 0.138334
4899.96, 0.137838
4904.59, 0.137287
4909.24, 0.136902
4913.89, 0.136461
4918.55, 0.136076
4923.22, 0.135635
4927.9, 0.135195
4932.59, 0.134809
4937.29, 0.134424
4942.0, 0.133818
4946.71, 0.133267
4951.44, 0.132662
4956.17, 0.131946
4960.91, 0.130899
4965.67, 0.129853
4970.43, 0.128752
4975.2, 0.127650
4979.98, 0.126604
4984.76, 0.125503
4989.56, 0.124346
4994.37, 0.123300
4999.18, 0.122309
5004.01, 0.121427
5008.84, 0.120491
5013.69, 0.119775
5018.54, 0.119115
5023.4, 0.118233
5028.28, 0.117518
5033.16, 0.117022
5038.05, 0.116581
5042.95, 0.116196
5047.86, 0.115810
5052.78, 0.115425
5057.71, 0.115150
5062.65, 0.114984
5067.6, 0.114874
5072.56, 0.114819
5077.53, 0.114764
5082.5, 0.114654
5087.49, 0.114268
5092.49, 0.113883
5097.5, 0.113442
5102.51, 0.113002
5107.54, 0.112341
5112.58, 0.111790
5117.62, 0.111240
5122.68, 0.110799
5127.75, 0.110469
5132.82, 0.110248
5137.91, 0.110193
5143.01, 0.110414
5148.12, 0.110634
5153.23, 0.110579
5158.36, 0.110689
5163.5, 0.110909
5168.65, 0.111185
5173.81, 0.111405
5178.98, 0.111460
5184.15, 0.111515
5189.34, 0.111405
5194.54, 0.111240
5199.75, 0.110854
5204.98, 0.110083
5210.21, 0.109588
5215.45, 0.108706
5220.7, 0.107109
5225.96, 0.105733
5231.23, 0.104411
5236.52, 0.102979
5241.81, 0.101547
5247.12, 0.100281
5252.44, 0.0991240
5257.76, 0.0982430
5263.1, 0.0975270
5268.45, 0.0969220
5273.81, 0.0962060
5279.18, 0.0955450
5284.56, 0.0948840
5289.95, 0.0944990
5295.36, 0.0937280
5300.77, 0.0927920
5306.2, 0.0921310
5311.63, 0.0914150
5317.08, 0.0905890
5322.54, 0.0900380
5328.01, 0.0895970
5333.49, 0.0891570
5338.98, 0.0888820
5344.49, 0.0891020
5350.0, 0.0894320
5355.53, 0.0888820
5361.07, 0.0883310
5366.62, 0.0880000
5372.18, 0.0874500
5377.75, 0.0871190
5383.34, 0.0868440
5388.93, 0.0864590
5394.54, 0.0860730
5400.16, 0.0856880
5405.79, 0.0851920
5411.44, 0.0846410
5417.09, 0.0845310
5422.76, 0.0842010
5428.43, 0.0826590
5434.12, 0.0813370
5439.83, 0.0802910
5445.54, 0.0793000
5451.26, 0.0781430
5457.0, 0.0772620
5462.75, 0.0766560
5468.52, 0.0754450
5474.29, 0.0743980
5480.08, 0.0737380
5485.88, 0.0729120
5491.69, 0.0723610
5497.51, 0.0720300
5503.35, 0.0718650
5509.2, 0.0715900
5515.06, 0.0714250
5520.93, 0.0713700
5526.82, 0.0712040
5532.71, 0.0710390
5538.63, 0.0709290
5544.55, 0.0707640
5550.49, 0.0708740
5556.44, 0.0705990
5562.4, 0.0699930
5568.37, 0.0694970
5574.36, 0.0697180
5580.36, 0.0695520
5586.37, 0.0684510
5592.4, 0.0676250
5598.44, 0.0672940
5604.49, 0.0669640
5610.56, 0.0665790
5616.63, 0.0662480
5622.73, 0.0656970
5628.83, 0.0653120
5634.95, 0.0654770
5641.08, 0.0659730
5647.23, 0.0653120
5653.39, 0.0646510
5659.56, 0.0641560
5665.74, 0.0637150
5671.94, 0.0639350
5678.15, 0.0637700
5684.38, 0.0633850
5690.62, 0.0634950
5696.87, 0.0631640
5703.14, 0.0632190
5709.42, 0.0638250
5715.72, 0.0636050
5722.03, 0.0631640
5728.35, 0.0627240
5734.69, 0.0623930
5741.03, 0.0622830
5747.4, 0.0622280
5753.78, 0.0614020
5760.17, 0.0617330
5766.58, 0.0622830
5773.0, 0.0607410
5779.44, 0.0598050
5785.88, 0.0591990
5792.35, 0.0586490
5798.83, 0.0583730
5805.32, 0.0579330
5811.83, 0.0578230
5818.35, 0.0584280
5824.89, 0.0581530
5831.45, 0.0569410
5838.01, 0.0560600
5844.59, 0.0554000
5851.19, 0.0551790
5857.8, 0.0550690
5864.43, 0.0547390
5871.07, 0.0542430
5877.73, 0.0552340
5884.4, 0.0546840
5891.09, 0.0537470
5897.79, 0.0534170
5904.5, 0.0519850
5911.23, 0.0513800
5917.98, 0.0512140
5924.75, 0.0511040
5931.53, 0.0520400
5938.32, 0.0523710
5945.13, 0.0509390
5951.96, 0.0503330
5958.8, 0.0502230
5965.65, 0.0507190
5972.53, 0.0504980
5979.42, 0.0500580
5986.32, 0.0502230
5993.24, 0.0496720
6000.18, 0.0486260
6007.13, 0.0482960
6014.1, 0.0479100
6021.08, 0.0468090
6028.09, 0.0459280
6035.1, 0.0453220
6042.14, 0.0460380
6049.19, 0.0464780
6056.25, 0.0440550
6063.34, 0.0428990
6070.44, 0.0427890
6077.55, 0.0417420
6084.69, 0.0404760
6091.84, 0.0398150
6099.0, 0.0395400
6106.19, 0.0397600
6113.39, 0.0400900
6120.61, 0.0392640
6127.84, 0.0386030
6135.09, 0.0386030
6142.36, 0.0387140
6149.65, 0.0388240
6156.95, 0.0393190
6164.27, 0.0393740
6171.61, 0.0392090
6178.97, 0.0399250
6186.34, 0.0405310
6193.73, 0.0401450
6201.14, 0.0400350
6208.57, 0.0403110
6216.01, 0.0406410
6223.47, 0.0408610
6230.95, 0.0410820
6238.45, 0.0413570
6245.97, 0.0415770
6253.5, 0.0419080
6261.06, 0.0423480
6268.63, 0.0427890
6276.21, 0.0432290
6283.82, 0.0436150
6291.45, 0.0441650
6299.1, 0.0447160
6306.76, 0.0453770
6314.44, 0.0460380
6322.14, 0.0466990
6329.86, 0.0475250
6337.6, 0.0489560
6345.35, 0.0502230
6353.13, 0.0500580
6360.92, 0.0504980
6368.74, 0.0514900
6376.57, 0.0517100
6384.43, 0.0518200
6392.3, 0.0521500
6400.19, 0.0527560
6408.1, 0.0550140
6416.03, 0.0560600
6423.98, 0.0545740
6431.95, 0.0540230
6439.94, 0.0536920
6447.95, 0.0536370
6455.98, 0.0535820
6464.03, 0.0535820
6472.1, 0.0539680
6480.19, 0.0545180
6488.31, 0.0554000
6496.44, 0.0549040
6504.59, 0.0528660
6512.76, 0.0521500
6520.95, 0.0520950
6529.16, 0.0511040
6537.4, 0.0505530
6545.65, 0.0503880
6553.92, 0.0501680
6562.22, 0.0499480
6570.54, 0.0501130
6578.88, 0.0491220
6587.23, 0.0481860
6595.61, 0.0474700
6604.02, 0.0465880
6612.44, 0.0460930
6620.89, 0.0457070
6629.35, 0.0460930
6637.84, 0.0463130
6646.35, 0.0446060
6654.88, 0.0432840
6663.44, 0.0430640
6672.01, 0.0430090
6680.61, 0.0427890
6689.23, 0.0420730
6697.88, 0.0415770
6706.54, 0.0416870
6715.23, 0.0415770
6723.94, 0.0411920
6732.67, 0.0405860
6741.42, 0.0403660
6750.2, 0.0403660
6759.0, 0.0402560
6767.82, 0.0403110
6776.67, 0.0404760
6785.54, 0.0408060
6794.44, 0.0406960
6803.35, 0.0400350
6812.29, 0.0399250
6821.26, 0.0404210
6830.24, 0.0404760
6839.25, 0.0402000
6848.29, 0.0406960
6857.35, 0.0416870
6866.43, 0.0417970
6875.54, 0.0409710
6884.67, 0.0409710
6893.82, 0.0412470
6903.0, 0.0414670
6912.2, 0.0414120
6921.43, 0.0415220
6930.69, 0.0416320
6939.96, 0.0419080
6949.27, 0.0425130
6958.59, 0.0433940
6967.95, 0.0432840
6977.33, 0.0431190
6986.73, 0.0434500
6996.16, 0.0435600
7005.61, 0.0435050
7015.09, 0.0435050
7024.6, 0.0431190
7034.13, 0.0425680
7043.69, 0.0420180
7053.27, 0.0405860
7062.88, 0.0392640
7072.52, 0.0382730
7082.18, 0.0375020
7091.87, 0.0371170
7101.58, 0.0370060
7111.32, 0.0372820
7121.09, 0.0373920
7130.88, 0.0375020
7140.71, 0.0378880
7150.56, 0.0383280
7160.43, 0.0385480
7170.33, 0.0388790
7180.27, 0.0387690
7190.23, 0.0388240
7200.21, 0.0390440
7210.23, 0.0390990
7220.27, 0.0388240
7230.34, 0.0387140
7240.44, 0.0387140
7250.56, 0.0386590
7260.72, 0.0386590
7270.9, 0.0387690
7281.12, 0.0386590
7291.36, 0.0383830
7301.63, 0.0381630
7311.93, 0.0378880
7322.25, 0.0377220
7332.61, 0.0376120
7343.0, 0.0373370
7353.41, 0.0368960
7363.86, 0.0365110
7374.33, 0.0361800
7384.83, 0.0358500
7395.37, 0.0355200
7405.93, 0.0352440
7416.53, 0.0349140
7427.15, 0.0345280
7437.81, 0.0341980
7448.5, 0.0338680
7459.22, 0.0335920
7469.96, 0.0333170
7480.74, 0.0329860
7491.55, 0.0327110
7502.39, 0.0326010
7513.27, 0.0326010
7524.17, 0.0326010
7535.11, 0.0324910
7546.08, 0.0323810
7557.08, 0.0323260
7568.11, 0.0321600
7579.17, 0.0320500
7590.27, 0.0319400
7601.4, 0.0316650
7612.56, 0.0313340
7623.76, 0.0311690
7634.98, 0.0309490
7646.24, 0.0306180
7657.54, 0.0302880
7668.87, 0.0300130
7680.23, 0.0297370
7691.62, 0.0293520
7703.05, 0.0289660
7714.51, 0.0287460
7726.01, 0.0284710
7737.54, 0.0282500
7749.11, 0.0279200
7760.71, 0.0276450
7772.35, 0.0274800
7784.02, 0.0272590
7795.72, 0.0270390
7807.46, 0.0267640
7819.23, 0.0264880
7831.04, 0.0261580
7842.89, 0.0258270
7854.77, 0.0256070
7866.69, 0.0253320
7878.65, 0.0249460
7890.64, 0.0246160
7902.67, 0.0242300
7914.74, 0.0238450
7926.84, 0.0236250
7938.98, 0.0232390
7951.16, 0.0228540
7963.37, 0.0224130
7975.62, 0.0220280
7987.91, 0.0217520
8000.24, 0.0213670
8012.6, 0.0209810
8025.01, 0.0205410
8037.45, 0.0202650
8049.93, 0.0198250
8062.45, 0.0193840
8075.01, 0.0191090
8087.61, 0.0187240
8100.24, 0.0182830
8112.91, 0.0178420
8125.63, 0.0174570
8138.39, 0.0171270
8151.18, 0.0166860
8164.02, 0.0162450
8176.9, 0.0160250
8189.81, 0.0156950
8202.77, 0.0153090
8215.77, 0.0149790
8228.82, 0.0145930
8241.9, 0.0141530
8255.02, 0.0136570
8268.19, 0.0132170
8281.39, 0.0130510
8294.65, 0.0128860
8307.94, 0.0126660
8321.28, 0.0125560
8334.66, 0.0126660
8348.08, 0.0128310
8361.54, 0.0129960
8375.05, 0.0132170
8388.6, 0.0135470
8402.2, 0.0137120
8415.84, 0.0139880
8429.52, 0.0142630
8443.25, 0.0145380
8457.02, 0.0149240
8470.84, 0.0153090
8484.7, 0.0155850
8498.61, 0.0161350
8512.57, 0.0167960
8526.57, 0.0176220
8540.62, 0.0186130
8554.71, 0.0197150
8568.85, 0.0209260
8583.04, 0.0221380
8597.27, 0.0234590
8611.55, 0.0245610
8625.88, 0.0253870
8640.26, 0.0261030
8654.68, 0.0263230
8669.16, 0.0262130
8683.68, 0.0259380
8698.25, 0.0254420
8712.87, 0.0251670
8727.53, 0.0248910
8742.25, 0.0246160
8757.02, 0.0243410
8771.83, 0.0238450
8786.7, 0.0232390
8801.62, 0.0227440
8816.59, 0.0224130
8831.61, 0.0219730
8846.68, 0.0216420
8861.8, 0.0215870
8876.97, 0.0218620
8892.2, 0.0225230
8907.48, 0.0232940
8922.81, 0.0240650
8938.2, 0.0250010
8953.63, 0.0261580
8969.13, 0.0276450
8984.67, 0.0295170
9000.27, 0.0315550
9015.92, 0.0334820
9031.63, 0.0357400
9047.39, 0.0379980
9063.21, 0.0397600
9079.08, 0.0411920
9095.01, 0.0421280
9111.0, 0.0427890
9127.04, 0.0431740
9143.13, 0.0433940
9159.28, 0.0433940
9175.49, 0.0431190
9191.76, 0.0427890
9208.09, 0.0426790
9224.47, 0.0426790
9240.92, 0.0427890
9257.42, 0.0431190
9273.98, 0.0435050
9290.6, 0.0442760
9307.28, 0.0455970
9324.02, 0.0474700
9340.82, 0.0500030
9357.68, 0.0532520
9374.6, 0.0572170
9391.58, 0.0616770
9408.62, 0.0660830
9425.73, 0.0703230
9442.9, 0.0742880
9460.13, 0.0777030
9477.42, 0.0801810
9494.78, 0.0819980
9512.2, 0.0832650
9529.69, 0.0841460
9547.24, 0.0847510
9564.86, 0.0846410
9582.54, 0.0840910
9600.28, 0.0832090
9618.1, 0.0819980
9635.97, 0.0801260
9653.92, 0.0778130
9671.93, 0.0756100
9690.01, 0.0736270
9708.16, 0.0718100
9726.37, 0.0703230
9744.65, 0.0692220
9763.0, 0.0685610
9781.43, 0.0679000
9799.92, 0.0670740
9818.48, 0.0660280
9837.1, 0.0651470
9855.8, 0.0645410
9874.58, 0.0641560
9893.42, 0.0638250
9912.34, 0.0635500
9931.33, 0.0632190
9950.39, 0.0627240
9969.52, 0.0623380
9988.74, 0.0620630
10008.0, 0.0617330
10027.4, 0.0613470
10046.8, 0.0609620
10066.3, 0.0602460
10085.9, 0.0595850
10105.6, 0.0588690
10125.3, 0.0577120
10145.1, 0.0564460
10165.0, 0.0548490
10185.0, 0.0534170
10205.0, 0.0524810
10225.2, 0.0519850
10245.4, 0.0517100
10265.7, 0.0516000
10286.0, 0.0516000
10306.5, 0.0513800
10327.0, 0.0510490
10347.6, 0.0506640
10368.3, 0.0500030
10389.1, 0.0495070
10409.9, 0.0490670
10430.9, 0.0484610
10451.9, 0.0476350
10473.0, 0.0471390
10494.2, 0.0465880
10515.5, 0.0457620
10536.9, 0.0448260
10558.4, 0.0440000
10579.9, 0.0433390
10601.5, 0.0429540
10623.3, 0.0426790
10645.1, 0.0422930
10667.0, 0.0418530
10689.0, 0.0414120
10711.1, 0.0406960
10733.2, 0.0397050
10755.5, 0.0389340
10777.9, 0.0384930
10800.3, 0.0385480
10822.9, 0.0386590
10845.5, 0.0388240
10868.2, 0.0393190
10891.1, 0.0398150
10914.0, 0.0399800
10937.0, 0.0399800
10960.2, 0.0400900
10983.4, 0.0399800
11006.7, 0.0399800
11030.1, 0.0400350
11053.6, 0.0396500
11077.3, 0.0393190
11101.0, 0.0392090
11124.8, 0.0390990
11148.7, 0.0388790
11172.7, 0.0385480
11196.9, 0.0382180
11221.1, 0.0376120
11245.4, 0.0369510
11269.9, 0.0362350
11294.4, 0.0351890
11319.1, 0.0344730
11343.9, 0.0340880
11368.8, 0.0335920
11393.7, 0.0330970
11418.8, 0.0326560
11444.0, 0.0324360
11469.4, 0.0322710
11494.8, 0.0321600
11520.3, 0.0319400
11546.0, 0.0315000
11571.8, 0.0310040
11597.7, 0.0305080
11623.7, 0.0300130
11649.8, 0.0294070
11676.0, 0.0286360
11702.4, 0.0277550
11728.9, 0.0271490
11755.5, 0.0272040
11782.2, 0.0270390
11809.0, 0.0265980
11836.0, 0.0261580
11863.0, 0.0258270
11890.3, 0.0254970
11917.6, 0.0251670
11945.0, 0.0246710
11972.6, 0.0240100
12000.4, 0.0234040
12028.2, 0.0228540
12056.2, 0.0223580
12084.3, 0.0221930
12112.5, 0.0218620
12140.9, 0.0211470
12169.4, 0.0206510
12198.0, 0.0202100
12226.8, 0.0197700
12255.7, 0.0193290
12284.7, 0.0189440
12313.9, 0.0184480
12343.2, 0.0179530
12372.7, 0.0175670
12402.3, 0.0174570
12432.0, 0.0170160
12461.9, 0.0164660
12491.9, 0.0160250
12522.1, 0.0156400
12552.4, 0.0150890
12582.9, 0.0147590
12613.5, 0.0145380
12644.3, 0.0141530
12675.2, 0.0138220
12706.3, 0.0135470
12737.5, 0.0131620
12768.9, 0.0127760
12800.4, 0.0123350
12832.1, 0.0120600
12863.9, 0.0118400
12895.9, 0.0116200
12928.1, 0.0116750
12960.4, 0.0119500
12992.9, 0.0123350
13025.5, 0.0130510
13058.3, 0.0139320
13091.3, 0.0146480
13124.4, 0.0150340
13157.8, 0.0149790
13191.2, 0.0144280
13224.9, 0.0137670
13258.7, 0.0131060
13292.7, 0.0125560
13326.9, 0.0122250
13361.2, 0.0120050
13395.7, 0.0116200
13430.4, 0.0112340
13465.3, 0.0109590
13500.4, 0.0107940
13535.7, 0.0106830
13571.1, 0.0102980
13606.7, 0.00991200
13642.5, 0.00963700
13678.5, 0.00958200
13714.7, 0.0100230
13751.1, 0.0105730
13787.6, 0.0112340
13824.4, 0.0117850
13861.4, 0.0121150
13898.5, 0.0123910
13935.9, 0.0126660
13973.5, 0.0132170
14011.2, 0.0138770
14049.2, 0.0140980
14087.4, 0.0144830
14125.8, 0.0148140
14164.3, 0.0152540
14203.2, 0.0160250
14242.2, 0.0167410
14281.4, 0.0176770
14320.9, 0.0188890
14360.5, 0.0206510
14400.4, 0.0231290
14440.5, 0.0257720
14480.9, 0.0281400
14521.4, 0.0302330
14562.2, 0.0326010
14603.3, 0.0348040
14644.5, 0.0370060
14686.0, 0.0393190
14727.7, 0.0413570
14769.7, 0.0426240
14811.9, 0.0435050
14854.3, 0.0442210
14897.0, 0.0447160
14939.9, 0.0447710
14983.1, 0.0446060
15026.5, 0.0441650
15070.2, 0.0436700
15114.2, 0.0430090
15158.3, 0.0427340
15202.8, 0.0429540
15247.5, 0.0430090
15292.5, 0.0427890
15337.7, 0.0427340
15383.2, 0.0426790
15429.0, 0.0423480
15475.1, 0.0421830
15521.4, 0.0414670
15568.0, 0.0405860
15614.9, 0.0402000
15662.1, 0.0403110
15709.6, 0.0402000
15757.3, 0.0394300
15805.4, 0.0388240
15853.7, 0.0386030
15902.3, 0.0384930
15951.2, 0.0380530
16000.5, 0.0372270
16050.0, 0.0362350
16099.8, 0.0352440
16150.0, 0.0348040
16200.5, 0.0341430
16251.3, 0.0330410
16302.4, 0.0323260
16353.8, 0.0315550
16405.5, 0.0304530
16457.6, 0.0296820
16510.0, 0.0290210
16562.8, 0.0284160
16615.9, 0.0278100
16669.3, 0.0268190
16723.1, 0.0258820
16777.2, 0.0250010
16831.7, 0.0239550
16886.5, 0.0235150
16941.7, 0.0231290
16997.2, 0.0227990
17053.1, 0.0225230
17109.4, 0.0224680
17166.1, 0.0220830
17223.1, 0.0218070
17280.5, 0.0219730
17338.3, 0.0221380
17396.5, 0.0220830
17455.1, 0.0222480
17514.0, 0.0228540
17573.4, 0.0232940
17633.2, 0.0242300
17693.4, 0.0249460
17754.0, 0.0252770
17815.0, 0.0252220
17876.4, 0.0253870
17938.3, 0.0257720
18000.5, 0.0257170
18063.3, 0.0258820
18126.4, 0.0263230
18190.0, 0.0263780
18254.1, 0.0260480
18318.6, 0.0265980
18383.5, 0.0275900
18449.0, 0.0280300
18514.9, 0.0282500
18581.2, 0.0287460
18648.0, 0.0301230
18715.4, 0.0312790
18783.2, 0.0323810
18851.5, 0.0344730
18920.3, 0.0375570
18989.6, 0.0418530
19059.4, 0.0460930
19129.7, 0.0501130
19200.6, 0.0534720
19272.0, 0.0570520
19343.9, 0.0608510
19416.3, 0.0641560
19489.3, 0.0665240
19562.8, 0.0682860
19637.0, 0.0695520
19711.6, 0.0705990
19786.8, 0.0715900
19862.6, 0.0734070
19939.0, 0.0761060
20016.0, 0.0787490
20093.6, 0.0824390
20171.8, 0.0857980
20250.6, 0.0886060
20330.0, 0.0915800
20410.0, 0.0936730
20490.7, 0.0949390
20572.0, 0.0954900
20654.0, 0.0953250
20736.6, 0.0952150
20819.9, 0.0956550
20903.8, 0.0958200
20988.5, 0.0957650
21073.8, 0.0957100
21159.8, 0.0951590
21246.5, 0.0947190
21334.0, 0.0947740
21422.1, 0.0937830
21511.0, 0.0928470
21600.7, 0.0911940
21691.0, 0.0897630
21782.1, 0.0899830
21874.0, 0.0884410
21966.7, 0.0876700
22060.2, 0.0870640
22154.5, 0.0840360
22249.6, 0.0824390
22345.5, 0.0816680
22442.2, 0.0811720
22539.8, 0.0788590
22638.2, 0.0747840
22737.5, 0.0739580
22837.7, 0.0755550
22938.7, 0.0759950
23040.7, 0.0743430
23143.5, 0.0718100
23247.3, 0.0690570
23352.1, 0.0671290
23457.7, 0.0652570
23564.4, 0.0616220
23672.0, 0.0590890
23780.5, 0.0595300
23890.1, 0.0603010
24000.7, 0.0578780
24112.3, 0.0548490
24225.0, 0.0552340
24338.7, 0.0562810
24453.5, 0.0590340
24569.4, 0.0595300
24686.4, 0.0568310
24804.5, 0.0580980
