Database of Origin, USGS Spectral Database
Sample Description, See USGS database for additional info
Date Added,2016-08-10 05:24:25.876999

Data ID,USGS_phl06          
Sample ID, phlogopite_ws496.17744
Mineral Name, phlogopite
Material Class,Phyllosilicate

Wavelength
1612.49, 0.523717
1612.99, 0.524060
1613.49, 0.524472
1614.0, 0.525022
1614.5, 0.524678
1615.0, 0.524884
1615.51, 0.525228
1616.01, 0.525983
1616.51, 0.526257
1617.02, 0.526395
1617.52, 0.526051
1618.03, 0.526257
1618.53, 0.526326
1619.04, 0.526944
1619.54, 0.526875
1620.05, 0.527493
1620.55, 0.527768
1621.06, 0.528523
1621.57, 0.528935
1622.08, 0.529140
1622.58, 0.529690
1623.09, 0.530719
1623.6, 0.530513
1624.11, 0.530651
1624.62, 0.530582
1625.13, 0.530994
1625.64, 0.531406
1626.15, 0.531955
1626.66, 0.532161
1627.17, 0.532504
1627.68, 0.532367
1628.19, 0.532985
1628.7, 0.533053
1629.21, 0.533053
1629.72, 0.533122
1630.24, 0.533740
1630.75, 0.533946
1631.26, 0.534632
1631.78, 0.534495
1632.29, 0.534770
1632.8, 0.534495
1633.32, 0.535113
1633.83, 0.535662
1634.35, 0.536211
1634.86, 0.536211
1635.38, 0.536211
1635.9, 0.536143
1636.41, 0.536898
1636.93, 0.537310
1637.45, 0.537790
1637.96, 0.537653
1638.48, 0.537790
1639.0, 0.538202
1639.52, 0.538614
1640.04, 0.538339
1640.56, 0.539232
1641.08, 0.539850
1641.59, 0.539918
1642.11, 0.539506
1642.63, 0.539918
1643.16, 0.540330
1643.68, 0.541291
1644.2, 0.541017
1644.72, 0.541085
1645.24, 0.541566
1645.76, 0.542252
1646.29, 0.541909
1646.81, 0.541909
1647.33, 0.542664
1647.86, 0.542939
1648.38, 0.542870
1648.9, 0.543557
1649.43, 0.543763
1649.95, 0.543900
1650.48, 0.543968
1651.0, 0.544518
1651.53, 0.544724
1652.06, 0.544930
1652.58, 0.544930
1653.11, 0.545341
1653.64, 0.545479
1654.17, 0.545891
1654.69, 0.545753
1655.22, 0.546165
1655.75, 0.546371
1656.28, 0.546852
1656.81, 0.546920
1657.34, 0.547470
1657.87, 0.547881
1658.4, 0.548431
1658.93, 0.548431
1659.46, 0.548842
1659.99, 0.548705
1660.52, 0.549186
1661.05, 0.549460
1661.59, 0.549735
1662.12, 0.549323
1662.65, 0.549598
1663.19, 0.550078
1663.72, 0.550765
1664.26, 0.550627
1664.79, 0.550902
1665.32, 0.550627
1665.86, 0.551314
1666.39, 0.551588
1666.93, 0.552206
1667.47, 0.552344
1668.0, 0.552824
1668.54, 0.553167
1669.08, 0.553648
1669.61, 0.553373
1670.15, 0.553854
1670.69, 0.554197
1671.23, 0.554609
1671.77, 0.554060
1672.31, 0.554403
1672.85, 0.554952
1673.39, 0.555982
1673.93, 0.555776
1674.47, 0.555845
1675.01, 0.555433
1675.55, 0.555639
1676.09, 0.555913
1676.64, 0.556256
1677.18, 0.556119
1677.72, 0.556943
1678.26, 0.557286
1678.81, 0.557767
1679.35, 0.557973
1679.89, 0.558247
1680.44, 0.557904
1680.98, 0.558934
1681.53, 0.559071
1682.07, 0.559071
1682.62, 0.558865
1683.17, 0.559826
1683.71, 0.560101
1684.26, 0.560307
1684.81, 0.560581
1685.36, 0.560856
1685.9, 0.560856
1686.45, 0.561131
1687.0, 0.561199
1687.55, 0.561611
1688.1, 0.561680
1688.65, 0.561886
1689.2, 0.561611
1689.75, 0.562229
1690.3, 0.562435
1690.85, 0.562641
1691.41, 0.562298
1691.96, 0.563121
1692.51, 0.563259
1693.06, 0.563465
1693.61, 0.563533
1694.17, 0.563808
1694.72, 0.563877
1695.28, 0.564426
1695.83, 0.564632
1696.39, 0.564975
1696.94, 0.564769
1697.5, 0.564906
1698.05, 0.565112
1698.61, 0.565455
1699.17, 0.565730
1699.72, 0.566416
1700.28, 0.566348
1700.84, 0.566554
1701.4, 0.566691
1701.95, 0.566966
1702.51, 0.566966
1703.07, 0.567240
1703.63, 0.567103
1704.19, 0.567721
1704.75, 0.567378
1705.31, 0.567378
1705.88, 0.567515
1706.44, 0.567995
1707.0, 0.567995
1707.56, 0.568407
1708.12, 0.568407
1708.69, 0.568407
1709.25, 0.568819
1709.81, 0.569094
1710.38, 0.569094
1710.94, 0.569574
1711.51, 0.569643
1712.07, 0.570261
1712.64, 0.570329
1713.2, 0.570467
1713.77, 0.570673
1714.34, 0.570947
1714.9, 0.570879
1715.47, 0.571428
1716.04, 0.571565
1716.61, 0.571840
1717.18, 0.571702
1717.74, 0.571977
1718.31, 0.572046
1718.88, 0.572595
1719.45, 0.572457
1720.02, 0.572595
1720.59, 0.572732
1721.17, 0.573144
1721.74, 0.572869
1722.31, 0.573213
1722.88, 0.573487
1723.45, 0.574105
1724.03, 0.574380
1724.6, 0.574311
1725.18, 0.573899
1725.75, 0.574517
1726.33, 0.574586
1726.9, 0.574448
1727.48, 0.574860
1728.05, 0.575615
1728.63, 0.575478
1729.2, 0.575684
1729.78, 0.575753
1730.36, 0.576439
1730.94, 0.576164
1731.51, 0.576370
1732.09, 0.576576
1732.67, 0.576988
1733.25, 0.577194
1733.83, 0.577332
1734.41, 0.577332
1734.99, 0.577675
1735.57, 0.577949
1736.15, 0.578087
1736.73, 0.578087
1737.32, 0.578430
1737.9, 0.578636
1738.48, 0.578979
1739.07, 0.578704
1739.65, 0.578910
1740.23, 0.579185
1740.82, 0.579871
1741.4, 0.579666
1741.99, 0.579940
1742.57, 0.580352
1743.16, 0.580764
1743.74, 0.580970
1744.33, 0.581244
1744.92, 0.581313
1745.51, 0.581588
1746.09, 0.581656
1746.68, 0.581794
1747.27, 0.582068
1747.86, 0.582686
1748.45, 0.582549
1749.04, 0.582961
1749.63, 0.582961
1750.22, 0.583029
1750.81, 0.583098
1751.4, 0.583235
1751.99, 0.583373
1752.59, 0.583990
1753.18, 0.584265
1753.77, 0.584471
1754.37, 0.584540
1754.96, 0.585157
1755.56, 0.585501
1756.15, 0.585432
1756.74, 0.585569
1757.34, 0.585981
1757.94, 0.585295
1758.53, 0.585569
1759.13, 0.586187
1759.73, 0.586805
1760.32, 0.586599
1760.92, 0.586530
1761.52, 0.586530
1762.12, 0.587217
1762.72, 0.587148
1763.32, 0.587697
1763.92, 0.587697
1764.52, 0.588041
1765.12, 0.588315
1765.72, 0.588590
1766.32, 0.588727
1766.92, 0.588933
1767.53, 0.588864
1768.13, 0.589345
1768.73, 0.589070
1769.34, 0.589139
1769.94, 0.589551
1770.55, 0.589825
1771.15, 0.589757
1771.76, 0.589963
1772.36, 0.590100
1772.97, 0.590581
1773.57, 0.590512
1774.18, 0.590924
1774.79, 0.590649
1775.4, 0.590855
1776.0, 0.591061
1776.61, 0.591404
1777.22, 0.591816
1777.83, 0.592160
1778.44, 0.591954
1779.05, 0.591748
1779.66, 0.591954
1780.27, 0.592640
1780.88, 0.592571
1781.5, 0.592777
1782.11, 0.592709
1782.72, 0.592777
1783.33, 0.592915
1783.95, 0.593464
1784.56, 0.593532
1785.18, 0.593464
1785.79, 0.593258
1786.41, 0.593670
1787.02, 0.593738
1787.64, 0.594013
1788.26, 0.594288
1788.87, 0.594494
1789.49, 0.594494
1790.11, 0.594700
1790.73, 0.594425
1791.35, 0.594494
1791.96, 0.594562
1792.58, 0.595043
1793.21, 0.595317
1793.83, 0.595317
1794.45, 0.595386
1795.07, 0.595661
1795.69, 0.595798
1796.31, 0.596141
1796.93, 0.596210
1797.56, 0.596278
1798.18, 0.596278
1798.8, 0.596553
1799.43, 0.596553
1800.05, 0.596828
1800.68, 0.597102
1801.3, 0.597651
1801.93, 0.597514
1802.56, 0.597789
1803.18, 0.597789
1803.81, 0.597926
1804.44, 0.598063
1805.07, 0.598132
1805.7, 0.598201
1806.33, 0.598406
1806.95, 0.598475
1807.58, 0.598956
1808.22, 0.598612
1808.85, 0.599024
1809.48, 0.599436
1810.11, 0.599779
1810.74, 0.599779
1811.38, 0.599917
1812.01, 0.600191
1812.64, 0.600535
1813.28, 0.600329
1813.91, 0.600603
1814.55, 0.600466
1815.18, 0.600535
1815.82, 0.600878
1816.45, 0.601221
1817.09, 0.601015
1817.73, 0.601290
1818.36, 0.601564
1819.0, 0.601633
1819.64, 0.601702
1820.28, 0.602525
1820.92, 0.602388
1821.56, 0.602869
1822.2, 0.602800
1822.84, 0.602663
1823.48, 0.602525
1824.12, 0.603075
1824.76, 0.602869
1825.41, 0.603486
1826.05, 0.604310
1826.69, 0.604173
1827.34, 0.603830
1827.98, 0.604242
1828.63, 0.604173
1829.27, 0.604448
1829.92, 0.604516
1830.56, 0.605065
1831.21, 0.605134
1831.86, 0.605065
1832.5, 0.604997
1833.15, 0.604997
1833.8, 0.605203
1834.45, 0.606026
1835.1, 0.606164
1835.75, 0.606713
1836.4, 0.606850
1837.05, 0.606919
1837.7, 0.607125
1838.35, 0.606850
1839.01, 0.606988
1839.66, 0.607949
1840.31, 0.607743
1840.96, 0.607399
1841.62, 0.608223
1842.27, 0.608360
1842.93, 0.607262
1843.58, 0.607194
1844.24, 0.607331
1844.9, 0.607468
1845.55, 0.607399
1846.21, 0.608772
1846.87, 0.609733
1847.53, 0.609665
1848.18, 0.609459
1848.84, 0.608910
1849.5, 0.608360
1850.16, 0.608704
1850.82, 0.608566
1851.48, 0.608635
1852.14, 0.608704
1852.81, 0.609459
1853.47, 0.610283
1854.13, 0.610283
1854.8, 0.609390
1855.46, 0.609596
1856.12, 0.610008
1856.79, 0.609939
1857.45, 0.609322
1858.12, 0.609528
1858.79, 0.610145
1859.45, 0.611656
1860.12, 0.611106
1860.79, 0.610351
1861.46, 0.609871
1862.12, 0.610077
1862.79, 0.610008
1863.46, 0.610489
1864.13, 0.610763
1864.8, 0.610763
1865.48, 0.610420
1866.15, 0.610557
1866.82, 0.610900
1867.49, 0.611862
1868.16, 0.612067
1868.84, 0.611793
1869.51, 0.611587
1870.19, 0.612479
1870.86, 0.613235
1871.54, 0.612411
1872.21, 0.612205
1872.89, 0.613646
1873.56, 0.613029
1874.24, 0.612411
1874.92, 0.612617
1875.6, 0.612479
1876.28, 0.612617
1876.96, 0.613097
1877.64, 0.612411
1878.32, 0.612342
1879.0, 0.612411
1879.68, 0.612823
1880.36, 0.612754
1881.04, 0.612891
1881.73, 0.612754
1882.41, 0.612960
1883.09, 0.613303
1883.78, 0.614058
1884.46, 0.613852
1885.15, 0.613578
1885.83, 0.613646
1886.52, 0.613921
1887.21, 0.613921
1887.89, 0.614264
1888.58, 0.614264
1889.27, 0.614745
1889.96, 0.615431
1890.65, 0.615225
1891.34, 0.614813
1892.03, 0.615225
1892.72, 0.615019
1893.41, 0.615225
1894.1, 0.615225
1894.79, 0.614951
1895.49, 0.614539
1896.18, 0.614951
1896.87, 0.615294
1897.57, 0.615843
1898.26, 0.615843
1898.96, 0.616530
1899.65, 0.616873
1900.35, 0.616736
1901.05, 0.616118
1901.74, 0.616255
1902.44, 0.616873
1903.14, 0.617010
1903.84, 0.616461
1904.54, 0.617148
1905.24, 0.617834
1905.94, 0.617628
1906.64, 0.617422
1907.34, 0.617148
1908.04, 0.616804
1908.75, 0.617010
1909.45, 0.617079
1910.15, 0.617559
1910.86, 0.617491
1911.56, 0.617834
1912.27, 0.617765
1912.97, 0.618452
1913.68, 0.618726
1914.39, 0.618589
1915.09, 0.618109
1915.8, 0.618315
1916.51, 0.618246
1917.22, 0.618315
1917.93, 0.618383
1918.64, 0.618726
1919.35, 0.619482
1920.06, 0.620580
1920.77, 0.620580
1921.48, 0.619962
1922.19, 0.619756
1922.91, 0.620031
1923.62, 0.620168
1924.33, 0.620168
1925.05, 0.620099
1925.76, 0.620443
1926.48, 0.620374
1927.19, 0.620786
1927.91, 0.620992
1928.63, 0.621266
1929.35, 0.620992
1930.07, 0.621060
1930.78, 0.620923
1931.5, 0.621678
1932.22, 0.621884
1932.94, 0.621953
1933.66, 0.621816
1934.39, 0.621953
1935.11, 0.621816
1935.83, 0.622227
1936.55, 0.622365
1937.28, 0.622433
1938.0, 0.622433
1938.73, 0.622914
1939.45, 0.622777
1940.18, 0.622983
1940.9, 0.623120
1941.63, 0.623394
1942.36, 0.623326
1943.09, 0.623394
1943.81, 0.623394
1944.54, 0.623600
1945.27, 0.623394
1946.0, 0.623600
1946.73, 0.623600
1947.47, 0.623738
1948.2, 0.623738
1948.93, 0.624150
1949.66, 0.624150
1950.4, 0.624356
1951.13, 0.624356
1951.86, 0.624356
1952.6, 0.624424
1953.34, 0.624699
1954.07, 0.624836
1954.81, 0.624973
1955.55, 0.624767
1956.29, 0.624973
1957.02, 0.625042
1957.76, 0.625317
1958.5, 0.625042
1959.24, 0.624836
1959.98, 0.624973
1960.72, 0.625317
1961.47, 0.625179
1962.21, 0.625248
1962.95, 0.625317
1963.7, 0.625523
1964.44, 0.625317
1965.18, 0.625591
1965.93, 0.625729
1966.67, 0.625797
1967.42, 0.625591
1968.17, 0.625591
1968.92, 0.625523
1969.66, 0.625660
1970.41, 0.625591
1971.16, 0.625797
1971.91, 0.625934
1972.66, 0.626003
1973.41, 0.625523
1974.16, 0.625797
1974.92, 0.626003
1975.67, 0.626278
1976.42, 0.626140
1977.18, 0.626278
1977.93, 0.626346
1978.69, 0.626484
1979.44, 0.626690
1980.2, 0.627033
1980.95, 0.626827
1981.71, 0.627101
1982.47, 0.627239
1983.23, 0.627376
1983.99, 0.627170
1984.74, 0.627513
1985.51, 0.627445
1986.27, 0.627513
1987.03, 0.627513
1987.79, 0.627651
1988.55, 0.627719
1989.32, 0.628063
1990.08, 0.628200
1990.84, 0.628474
1991.61, 0.628337
1992.37, 0.628749
1993.14, 0.628749
1993.9, 0.628955
1994.67, 0.628818
1995.44, 0.628955
1996.21, 0.629092
1996.98, 0.629504
1997.75, 0.629435
1998.52, 0.629642
1999.29, 0.629504
2000.06, 0.629710
2000.83, 0.629710
2001.6, 0.630053
2002.38, 0.629847
2003.15, 0.630191
2003.93, 0.630328
2004.7, 0.630534
2005.48, 0.630259
2006.25, 0.630328
2007.03, 0.630191
2007.81, 0.630397
2008.58, 0.630534
2009.36, 0.630740
2010.14, 0.630740
2010.92, 0.630877
2011.7, 0.630877
2012.48, 0.631152
2013.26, 0.631152
2014.05, 0.631495
2014.83, 0.631426
2015.61, 0.631701
2016.4, 0.631770
2017.18, 0.631701
2017.97, 0.631632
2018.75, 0.631838
2019.54, 0.631975
2020.32, 0.632319
2021.11, 0.632319
2021.9, 0.632319
2022.69, 0.632044
2023.48, 0.632181
2024.27, 0.632044
2025.06, 0.632456
2025.85, 0.632387
2026.64, 0.632456
2027.44, 0.632387
2028.23, 0.632387
2029.02, 0.632113
2029.82, 0.632250
2030.61, 0.632456
2031.41, 0.633005
2032.2, 0.633074
2033.0, 0.633074
2033.8, 0.633005
2034.6, 0.633074
2035.4, 0.632731
2036.2, 0.632731
2037.0, 0.632799
2037.8, 0.633005
2038.6, 0.633005
2039.4, 0.633211
2040.2, 0.633074
2041.01, 0.633280
2041.81, 0.633417
2042.61, 0.633486
2043.42, 0.633142
2044.22, 0.633074
2045.03, 0.633142
2045.84, 0.633486
2046.65, 0.633280
2047.46, 0.633417
2048.26, 0.633692
2049.07, 0.633966
2049.88, 0.633760
2050.69, 0.633760
2051.51, 0.633760
2052.32, 0.633898
2053.13, 0.633760
2053.94, 0.633692
2054.76, 0.633760
2055.57, 0.633898
2056.39, 0.633486
2057.2, 0.633554
2058.02, 0.633623
2058.84, 0.633760
2059.66, 0.633486
2060.48, 0.633623
2061.29, 0.633417
2062.11, 0.633417
2062.94, 0.633280
2063.76, 0.633211
2064.58, 0.633142
2065.4, 0.633280
2066.22, 0.633074
2067.05, 0.632799
2067.87, 0.632113
2068.7, 0.631838
2069.52, 0.631564
2070.35, 0.631358
2071.18, 0.630808
2072.0, 0.630328
2072.83, 0.629435
2073.66, 0.629024
2074.49, 0.628131
2075.32, 0.626964
2076.15, 0.625660
2076.98, 0.625111
2077.82, 0.624356
2078.65, 0.623738
2079.48, 0.622983
2080.32, 0.622433
2081.15, 0.621747
2081.99, 0.621404
2082.83, 0.620992
2083.66, 0.621060
2084.5, 0.620237
2085.34, 0.620099
2086.18, 0.620374
2087.02, 0.620305
2087.86, 0.619893
2088.7, 0.620237
2089.54, 0.620511
2090.39, 0.620580
2091.23, 0.620649
2092.07, 0.620923
2092.92, 0.620854
2093.76, 0.620992
2094.61, 0.621198
2095.45, 0.621266
2096.3, 0.621266
2097.15, 0.621610
2098.0, 0.621747
2098.85, 0.621816
2099.7, 0.621816
2100.55, 0.622227
2101.4, 0.622296
2102.25, 0.622365
2103.1, 0.622227
2103.96, 0.622639
2104.81, 0.622708
2105.67, 0.622983
2106.52, 0.623257
2107.38, 0.623463
2108.24, 0.623394
2109.09, 0.623738
2109.95, 0.623944
2110.81, 0.624218
2111.67, 0.624218
2112.53, 0.624699
2113.39, 0.624973
2114.25, 0.624836
2115.12, 0.624493
2115.98, 0.624699
2116.84, 0.624767
2117.71, 0.625042
2118.58, 0.625317
2119.44, 0.625660
2120.31, 0.625797
2121.18, 0.626003
2122.04, 0.625934
2122.91, 0.626484
2123.78, 0.626621
2124.65, 0.627307
2125.52, 0.627582
2126.4, 0.627719
2127.27, 0.627857
2128.14, 0.628406
2129.02, 0.628749
2129.89, 0.629024
2130.77, 0.629230
2131.64, 0.629435
2132.52, 0.629298
2133.4, 0.629779
2134.27, 0.629916
2135.15, 0.630259
2136.03, 0.630534
2136.91, 0.630946
2137.79, 0.631152
2138.68, 0.631564
2139.56, 0.631632
2140.44, 0.631838
2141.33, 0.631770
2142.21, 0.632181
2143.1, 0.632319
2143.99, 0.632593
2144.87, 0.632387
2145.76, 0.632731
2146.65, 0.632937
2147.54, 0.633280
2148.43, 0.633348
2149.32, 0.633623
2150.21, 0.633692
2151.1, 0.633692
2151.99, 0.633692
2152.89, 0.634104
2153.78, 0.634172
2154.68, 0.634241
2155.57, 0.634310
2156.47, 0.634310
2157.37, 0.634310
2158.27, 0.634721
2159.16, 0.634859
2160.06, 0.634996
2160.96, 0.634790
2161.86, 0.634996
2162.77, 0.635065
2163.67, 0.635614
2164.57, 0.635888
2165.48, 0.636094
2166.38, 0.636094
2167.29, 0.636644
2168.2, 0.636712
2169.1, 0.636849
2170.01, 0.636918
2170.92, 0.637055
2171.83, 0.637193
2172.74, 0.637673
2173.65, 0.637673
2174.56, 0.638017
2175.47, 0.638085
2176.39, 0.638291
2177.3, 0.638085
2178.22, 0.638291
2179.13, 0.638360
2180.05, 0.638291
2180.96, 0.638154
2181.88, 0.638634
2182.8, 0.638566
2183.72, 0.638634
2184.64, 0.638428
2185.56, 0.638497
2186.48, 0.638428
2187.41, 0.638428
2188.33, 0.638291
2189.25, 0.638291
2190.18, 0.637948
2191.1, 0.637673
2192.03, 0.637742
2192.96, 0.638085
2193.89, 0.637879
2194.82, 0.637742
2195.74, 0.637399
2196.68, 0.637742
2197.61, 0.637536
2198.54, 0.637399
2199.47, 0.637055
2200.4, 0.636987
2201.34, 0.636644
2202.28, 0.636506
2203.21, 0.636163
2204.15, 0.636026
2205.08, 0.635545
2206.02, 0.635202
2206.96, 0.634790
2207.9, 0.634790
2208.84, 0.634653
2209.78, 0.634790
2210.73, 0.634721
2211.67, 0.634927
2212.61, 0.634859
2213.56, 0.634927
2214.5, 0.634996
2215.45, 0.635271
2216.4, 0.635133
2217.35, 0.635339
2218.3, 0.635396
2219.24, 0.635910
2220.2, 0.635453
2221.15, 0.635225
2222.1, 0.635567
2223.05, 0.635910
2224.0, 0.635225
2224.96, 0.634598
2225.91, 0.634084
2226.87, 0.633628
2227.83, 0.633115
2228.79, 0.632316
2229.74, 0.631175
2230.7, 0.629920
2231.66, 0.628836
2232.63, 0.627639
2233.59, 0.626155
2234.55, 0.624958
2235.51, 0.622733
2236.48, 0.620565
2237.44, 0.618398
2238.41, 0.616344
2239.38, 0.613891
2240.34, 0.612123
2241.31, 0.609955
2242.28, 0.608415
2243.25, 0.607160
2244.22, 0.605905
2245.19, 0.604707
2246.17, 0.604422
2247.14, 0.604308
2248.12, 0.604593
2249.09, 0.604764
2250.07, 0.605278
2251.04, 0.606419
2252.02, 0.607560
2253.0, 0.608301
2253.98, 0.609214
2254.96, 0.610469
2255.94, 0.611610
2256.92, 0.612522
2257.91, 0.613093
2258.89, 0.613093
2259.88, 0.613720
2260.86, 0.614633
2261.85, 0.615317
2262.83, 0.615431
2263.82, 0.615374
2264.81, 0.615089
2265.8, 0.614519
2266.79, 0.614005
2267.78, 0.613777
2268.78, 0.612979
2269.77, 0.612009
2270.76, 0.610754
2271.76, 0.609784
2272.75, 0.608700
2273.75, 0.607388
2274.75, 0.605734
2275.75, 0.604023
2276.75, 0.601855
2277.75, 0.599745
2278.75, 0.597463
2279.75, 0.595124
2280.75, 0.592272
2281.76, 0.589306
2282.76, 0.586169
2283.77, 0.582860
2284.77, 0.579438
2285.78, 0.576414
2286.79, 0.572650
2287.8, 0.569626
2288.81, 0.566375
2289.82, 0.563466
2290.83, 0.560728
2291.84, 0.557990
2292.86, 0.555708
2293.87, 0.553540
2294.89, 0.551202
2295.91, 0.549034
2296.92, 0.546923
2297.94, 0.544528
2298.96, 0.542132
2299.98, 0.539622
2301.0, 0.536770
2302.02, 0.533518
2303.04, 0.530153
2304.07, 0.526274
2305.09, 0.522395
2306.12, 0.518687
2307.15, 0.514238
2308.17, 0.509447
2309.2, 0.504826
2310.23, 0.500491
2311.26, 0.496156
2312.29, 0.492391
2313.32, 0.488512
2314.35, 0.485089
2315.39, 0.481610
2316.42, 0.478472
2317.46, 0.475449
2318.5, 0.472825
2319.53, 0.470258
2320.57, 0.467577
2321.61, 0.465181
2322.65, 0.463299
2323.69, 0.461702
2324.73, 0.461017
2325.78, 0.460504
2326.82, 0.460162
2327.86, 0.460504
2328.91, 0.461987
2329.96, 0.464155
2331.01, 0.466893
2332.05, 0.470258
2333.1, 0.474479
2334.15, 0.479214
2335.21, 0.483948
2336.26, 0.488170
2337.31, 0.492904
2338.36, 0.497753
2339.42, 0.502202
2340.48, 0.506081
2341.53, 0.509789
2342.59, 0.513325
2343.65, 0.516862
2344.71, 0.519885
2345.77, 0.522452
2346.83, 0.524163
2347.9, 0.525818
2348.96, 0.527700
2350.02, 0.528898
2351.09, 0.529525
2352.16, 0.530096
2353.23, 0.529925
2354.29, 0.529640
2355.36, 0.529183
2356.43, 0.528556
2357.51, 0.527757
2358.58, 0.526502
2359.65, 0.525076
2360.73, 0.523650
2361.8, 0.521768
2362.88, 0.519714
2363.96, 0.517147
2365.03, 0.514694
2366.11, 0.511956
2367.19, 0.508933
2368.27, 0.505454
2369.36, 0.501746
2370.44, 0.497924
2371.53, 0.494615
2372.61, 0.491079
2373.7, 0.487086
2374.78, 0.483264
2375.87, 0.480298
2376.96, 0.477503
2378.05, 0.475392
2379.14, 0.473852
2380.24, 0.472882
2381.33, 0.472483
2382.42, 0.473224
2383.52, 0.474879
2384.61, 0.477217
2385.71, 0.480241
2386.81, 0.483948
2387.91, 0.488341
2389.01, 0.493075
2390.11, 0.497411
2391.22, 0.501974
2392.32, 0.506537
2393.42, 0.510644
2394.53, 0.514409
2395.64, 0.518003
2396.74, 0.520684
2397.85, 0.523137
2398.96, 0.525133
2400.07, 0.526844
2401.18, 0.528270
2402.3, 0.529754
2403.41, 0.530609
2404.52, 0.531294
2405.64, 0.531693
2406.76, 0.532549
2407.88, 0.533119
2408.99, 0.533689
2410.11, 0.534488
2411.23, 0.535230
2412.36, 0.535686
2413.48, 0.536542
2414.6, 0.537397
2415.73, 0.538196
2416.85, 0.538937
2417.98, 0.539907
2419.11, 0.540421
2420.24, 0.540421
2421.37, 0.540306
2422.5, 0.539964
2423.64, 0.539508
2424.77, 0.538880
2425.9, 0.537625
2427.04, 0.536542
2428.18, 0.535458
2429.31, 0.534374
2430.45, 0.533119
2431.59, 0.531921
2432.73, 0.530609
2433.88, 0.529411
2435.02, 0.528270
2436.16, 0.527415
2437.31, 0.526502
2438.45, 0.525932
2439.6, 0.525190
2440.75, 0.524905
2441.9, 0.525133
2443.05, 0.525532
2444.2, 0.526160
2445.35, 0.527301
2446.51, 0.528042
2447.67, 0.528955
2448.82, 0.530324
2449.98, 0.531978
2451.14, 0.533005
2452.3, 0.534545
2453.46, 0.536199
2454.62, 0.537854
2455.78, 0.539394
2456.94, 0.541276
2458.11, 0.542873
2459.28, 0.544242
2460.44, 0.545611
2461.61, 0.546866
2462.78, 0.547836
2463.95, 0.548749
2465.12, 0.549490
2466.3, 0.550289
2467.47, 0.550631
2468.65, 0.551316
2469.82, 0.551829
2471.0, 0.552171
2472.18, 0.552514
2473.36, 0.552799
2474.54, 0.552856
2475.72, 0.552913
2476.9, 0.553027
2478.08, 0.553654
2479.27, 0.553997
2480.46, 0.554282
2481.64, 0.554453
2482.83, 0.554510
2484.02, 0.554567
2485.21, 0.554738
2486.4, 0.554909
2487.6, 0.554909
2488.79, 0.554282
2489.99, 0.554168
2491.18, 0.553769
2492.38, 0.553198
2493.58, 0.552342
2494.78, 0.551601
2495.98, 0.550859
2497.18, 0.550061
2498.39, 0.549091
2499.59, 0.548806
2500.8, 0.548635
2502.01, 0.548806
2503.21, 0.548692
2504.42, 0.548920
2505.63, 0.548920
2506.84, 0.549376
2508.06, 0.549833
2509.27, 0.550517
2510.49, 0.551202
2511.7, 0.552342
2512.92, 0.553426
2514.14, 0.554225
2515.36, 0.555138
2516.58, 0.556221
2517.8, 0.556849
2519.03, 0.557761
2520.25, 0.558389
2521.48, 0.559245
2522.7, 0.559473
2523.93, 0.559758
2525.16, 0.559872
2526.39, 0.559929
2527.62, 0.559530
2528.86, 0.559359
2530.09, 0.558845
2531.33, 0.558617
2532.56, 0.557933
2533.8, 0.556906
2535.04, 0.556450
2536.28, 0.556107
2537.52, 0.554852
2538.76, 0.553997
2540.01, 0.553597
2541.25, 0.553940
2542.5, 0.554339
2543.75, 0.553883
2544.99, 0.552685
2546.24, 0.552342
2547.49, 0.552342
2548.75, 0.551544
2550.0, 0.550916
2551.26, 0.550916
2552.51, 0.550289
2553.77, 0.548692
2555.03, 0.547095
2556.29, 0.546695
2557.55, 0.546524
2558.81, 0.547266
2560.08, 0.549547
2561.34, 0.551886
2562.61, 0.552171
2563.88, 0.552114
2565.14, 0.550460
2566.41, 0.549034
2567.68, 0.549890
2568.96, 0.552399
2570.23, 0.552171
2571.51, 0.551544
2572.78, 0.554624
2574.06, 0.554339
2575.34, 0.553483
2576.62, 0.555366
2577.9, 0.554054
2579.18, 0.553826
2580.47, 0.556450
2581.75, 0.557647
2583.04, 0.560956
2584.32, 0.562382
2585.61, 0.560557
2586.9, 0.562838
2588.2, 0.562838
2589.49, 0.562268
2590.78, 0.561355
2592.08, 0.563009
2593.37, 0.570824
2594.67, 0.578411
2595.97, 0.571223
2597.27, 0.564207
2598.57, 0.562040
2599.88, 0.563066
2601.18, 0.564607
2602.49, 0.565405
2603.79, 0.566831
2605.1, 0.569626
2606.41, 0.567630
2607.72, 0.564778
2609.03, 0.563694
2610.35, 0.562382
2611.66, 0.561013
2612.98, 0.561127
2614.3, 0.560500
2615.62, 0.563979
2616.94, 0.565919
2618.26, 0.562211
2619.58, 0.563523
2620.91, 0.562211
2622.23, 0.556278
2623.56, 0.554624
2624.89, 0.555195
2626.22, 0.557647
2627.55, 0.553769
2628.88, 0.552970
2630.21, 0.555366
2631.55, 0.550004
2632.89, 0.546296
2634.22, 0.544642
2635.56, 0.541162
2636.9, 0.539850
2638.25, 0.539166
2639.59, 0.539508
2640.93, 0.540363
2642.28, 0.541676
2643.63, 0.542759
2644.98, 0.546239
2646.33, 0.548178
2647.68, 0.549433
2649.03, 0.551487
2650.39, 0.555138
2651.74, 0.559758
2653.1, 0.562040
2654.46, 0.563181
2655.82, 0.564492
2657.18, 0.563808
2658.54, 0.566033
2659.9, 0.566717
2661.27, 0.565063
2662.64, 0.562952
2664.01, 0.565234
2665.38, 0.565747
2666.74, 0.559986
2668.12, 0.549604
2669.49, 0.546638
2670.87, 0.536656
2672.24, 0.516919
2673.62, 0.500491
2675.0, 0.481724
2676.38, 0.451948
2677.76, 0.407968
2679.15, 0.355261
2680.54, 0.302439
2681.92, 0.260114
2683.31, 0.228170
2684.7, 0.203813
2686.09, 0.186643
2687.48, 0.173010
2688.88, 0.163655
2690.27, 0.156639
2691.67, 0.152817
2693.07, 0.151619
2694.47, 0.152189
2695.87, 0.152760
2697.27, 0.155041
2698.67, 0.159149
2700.08, 0.165537
2701.49, 0.172782
2702.9, 0.180654
2704.31, 0.189666
2705.72, 0.200219
2707.13, 0.211742
2708.54, 0.224861
2709.96, 0.238495
2711.38, 0.250645
2712.8, 0.258916
2714.22, 0.266845
2715.64, 0.273519
2717.06, 0.278596
2718.49, 0.281790
2719.91, 0.285155
2721.34, 0.282931
2722.77, 0.280079
2724.2, 0.279965
2725.63, 0.277398
2727.07, 0.274603
2728.5, 0.274146
2729.94, 0.274660
2731.38, 0.276086
2732.82, 0.278367
2734.26, 0.282417
2735.7, 0.285498
2737.15, 0.289434
2738.59, 0.296906
2740.04, 0.304493
2741.49, 0.309684
2742.94, 0.314361
2744.39, 0.320864
2745.84, 0.329192
2747.3, 0.337692
2748.76, 0.346647
2750.21, 0.355831
2751.67, 0.365015
2753.14, 0.374313
2754.6, 0.386064
2756.06, 0.393650
2757.53, 0.396616
2759.0, 0.401294
2760.46, 0.407112
2761.94, 0.413957
2763.41, 0.418407
2764.88, 0.420574
2766.36, 0.423883
2767.83, 0.426906
2769.31, 0.429473
2770.79, 0.432040
2772.27, 0.432952
2773.76, 0.433922
2775.24, 0.435691
2776.73, 0.437744
2778.22, 0.439341
2779.71, 0.440710
2781.2, 0.442079
2782.69, 0.442935
2784.18, 0.444076
2785.68, 0.446529
2787.18, 0.448126
2788.68, 0.446415
2790.18, 0.442992
2791.68, 0.438086
2793.19, 0.431412
2794.69, 0.424396
2796.2, 0.418749
2797.71, 0.414300
2799.22, 0.411105
2800.73, 0.409508
2802.24, 0.410078
2803.76, 0.410592
2805.28, 0.410421
2806.8, 0.410250
2808.32, 0.409964
2809.84, 0.409850
2811.36, 0.411562
2812.89, 0.415440
2814.42, 0.420631
2815.94, 0.424738
2817.48, 0.428104
2819.01, 0.431583
2820.54, 0.434550
2822.08, 0.436945
2823.61, 0.438942
2825.15, 0.440824
2826.69, 0.442992
2828.23, 0.444874
2829.78, 0.446529
2831.32, 0.448240
2832.87, 0.449894
2834.42, 0.451377
2835.97, 0.452632
2837.52, 0.454001
2839.08, 0.455256
2840.63, 0.456511
2842.19, 0.457937
2843.75, 0.459135
2845.31, 0.460162
2846.87, 0.461246
2848.44, 0.462615
2850.0, 0.463641
2851.57, 0.464383
2853.14, 0.465410
2854.71, 0.466322
2856.28, 0.466494
2857.86, 0.467007
2859.43, 0.467691
2861.01, 0.468091
2862.59, 0.468547
2864.17, 0.469232
2865.76, 0.469688
2867.34, 0.470201
2868.93, 0.470429
2870.52, 0.471114
2872.11, 0.471627
2873.7, 0.471741
2875.29, 0.471970
2876.89, 0.472597
2878.49, 0.472939
2880.08, 0.473282
2881.69, 0.473396
2883.29, 0.473624
2884.89, 0.473681
2886.5, 0.473909
2888.11, 0.474023
2889.72, 0.473909
2891.33, 0.473852
2892.94, 0.473966
2894.56, 0.473738
2896.17, 0.473510
2897.79, 0.473282
2899.42, 0.473339
2901.04, 0.473167
2902.66, 0.472939
2904.29, 0.472825
2905.92, 0.472597
2907.55, 0.472255
2909.18, 0.472084
2910.81, 0.471913
2912.45, 0.471741
2914.08, 0.471570
2915.72, 0.471627
2917.36, 0.471627
2919.01, 0.471684
2920.65, 0.471627
2922.3, 0.471399
2923.94, 0.471057
2925.59, 0.470715
2927.25, 0.470429
2928.9, 0.470315
2930.56, 0.470087
2932.21, 0.470087
2933.87, 0.469973
2935.53, 0.469973
2937.2, 0.469802
2938.86, 0.469859
2940.53, 0.469517
2942.2, 0.469460
2943.87, 0.469631
2945.54, 0.469916
2947.22, 0.470258
2948.89, 0.470886
2950.57, 0.471399
2952.25, 0.472027
2953.93, 0.472711
2955.62, 0.473510
2957.3, 0.474137
2958.99, 0.474993
2960.68, 0.475620
2962.37, 0.476305
2964.07, 0.476932
2965.76, 0.477503
2967.46, 0.477788
2969.16, 0.478586
2970.86, 0.479043
2972.56, 0.479442
2974.27, 0.479841
2975.98, 0.480184
2977.69, 0.480070
2979.4, 0.480298
2981.11, 0.480469
2982.83, 0.480640
2984.54, 0.480868
2986.26, 0.481153
2987.98, 0.481210
2989.71, 0.481210
2991.43, 0.481267
2993.16, 0.481439
2994.89, 0.481724
2996.62, 0.482066
2998.35, 0.482123
3000.09, 0.482294
3001.83, 0.482579
3003.57, 0.482922
3005.31, 0.483036
3007.05, 0.483663
3008.79, 0.484063
3010.54, 0.484519
3012.29, 0.484975
3014.04, 0.485546
3015.8, 0.486002
3017.55, 0.486458
3019.31, 0.486801
3021.07, 0.487257
3022.83, 0.487656
3024.59, 0.487998
3026.36, 0.488455
3028.13, 0.488911
3029.9, 0.489253
3031.67, 0.489710
3033.44, 0.489938
3035.22, 0.490337
3037.0, 0.490565
3038.78, 0.490908
3040.56, 0.491193
3042.34, 0.491478
3044.13, 0.491649
3045.92, 0.491877
3047.71, 0.492220
3049.5, 0.492790
3051.3, 0.493189
3053.09, 0.493589
3054.89, 0.494045
3056.69, 0.494159
3058.5, 0.494159
3060.3, 0.494672
3062.11, 0.495015
3063.92, 0.495357
3065.73, 0.495414
3067.55, 0.495300
3069.36, 0.495015
3071.18, 0.494729
3073.0, 0.494444
3074.82, 0.494045
3076.65, 0.493532
3078.48, 0.493075
3080.31, 0.492505
3082.14, 0.491763
3083.97, 0.490965
3085.8, 0.490394
3087.64, 0.489710
3089.48, 0.489025
3091.33, 0.488455
3093.17, 0.488056
3095.02, 0.487713
3096.87, 0.487599
3098.72, 0.487428
3100.57, 0.487485
3102.43, 0.487599
3104.28, 0.487998
3106.14, 0.488455
3108.01, 0.489196
3109.87, 0.489995
3111.74, 0.490908
3113.61, 0.491934
3115.48, 0.493246
3117.35, 0.494444
3119.23, 0.495870
3121.1, 0.497125
3122.98, 0.498551
3124.87, 0.499749
3126.75, 0.501232
3128.64, 0.502487
3130.53, 0.503742
3132.42, 0.504997
3134.31, 0.506252
3136.21, 0.507279
3138.11, 0.508363
3140.01, 0.509332
3141.91, 0.510302
3143.82, 0.511158
3145.73, 0.512013
3147.64, 0.512698
3149.55, 0.513668
3151.46, 0.514295
3153.38, 0.514866
3155.3, 0.515265
3157.22, 0.515721
3159.14, 0.515949
3161.07, 0.516349
3163.0, 0.516577
3164.93, 0.516805
3166.86, 0.516634
3168.8, 0.516463
3170.74, 0.516177
3172.68, 0.515892
3174.62, 0.515265
3176.56, 0.514809
3178.51, 0.513953
3180.46, 0.513211
3182.42, 0.512413
3184.37, 0.511443
3186.33, 0.510530
3188.29, 0.509618
3190.25, 0.508477
3192.21, 0.507735
3194.18, 0.506880
3196.15, 0.506195
3198.12, 0.505568
3200.09, 0.505111
3202.07, 0.504541
3204.05, 0.504199
3206.03, 0.504027
3208.02, 0.504142
3210.0, 0.504084
3211.99, 0.504027
3213.98, 0.504084
3215.98, 0.504655
3217.97, 0.505168
3219.97, 0.505910
3221.97, 0.506594
3223.98, 0.507564
3225.98, 0.508363
3227.99, 0.509218
3230.0, 0.510188
3232.02, 0.511272
3234.03, 0.512356
3236.05, 0.513554
3238.07, 0.514580
3240.1, 0.515892
3242.12, 0.516976
3244.15, 0.518174
3246.18, 0.519258
3248.22, 0.520399
3250.25, 0.521368
3252.29, 0.522338
3254.33, 0.523251
3256.38, 0.524335
3258.43, 0.525418
3260.47, 0.526502
3262.53, 0.527415
3264.58, 0.528385
3266.64, 0.529183
3268.7, 0.530153
3270.76, 0.531009
3272.82, 0.531807
3274.89, 0.532720
3276.96, 0.533861
3279.04, 0.534887
3281.11, 0.535857
3283.19, 0.536542
3285.27, 0.537511
3287.35, 0.538538
3289.44, 0.539565
3291.53, 0.540535
3293.62, 0.541676
3295.71, 0.542588
3297.81, 0.543444
3299.91, 0.544128
3302.01, 0.544756
3304.11, 0.545326
3306.22, 0.545954
3308.33, 0.546524
3310.44, 0.547095
3312.56, 0.547608
3314.68, 0.547950
3316.8, 0.548064
3318.92, 0.548235
3321.05, 0.548121
3323.18, 0.547836
3325.31, 0.547323
3327.44, 0.546524
3329.58, 0.545212
3331.72, 0.543729
3333.86, 0.541504
3336.01, 0.538253
3338.16, 0.533689
3340.31, 0.528042
3342.46, 0.521654
3344.61, 0.515721
3346.77, 0.511158
3348.94, 0.508477
3351.1, 0.507450
3353.27, 0.507792
3355.44, 0.508762
3357.61, 0.510302
3359.79, 0.512013
3361.97, 0.513611
3364.15, 0.514751
3366.33, 0.515721
3368.52, 0.516292
3370.71, 0.516691
3372.9, 0.516862
3375.1, 0.517147
3377.3, 0.517375
3379.5, 0.517889
3381.71, 0.518345
3383.91, 0.518858
3386.12, 0.519429
3388.34, 0.520170
3390.55, 0.520798
3392.77, 0.521254
3394.99, 0.521425
3397.22, 0.521711
3399.45, 0.521654
3401.68, 0.521597
3403.91, 0.521540
3406.15, 0.521597
3408.39, 0.521425
3410.63, 0.521540
3412.87, 0.521540
3415.12, 0.521882
3417.37, 0.522395
3419.63, 0.523308
3421.88, 0.524278
3424.14, 0.525418
3426.41, 0.526502
3428.67, 0.527700
3430.94, 0.528613
3433.21, 0.529583
3435.49, 0.530267
3437.77, 0.530951
3440.05, 0.531408
3442.33, 0.531921
3444.62, 0.532149
3446.91, 0.532435
3449.2, 0.532549
3451.5, 0.532435
3453.8, 0.532035
3456.1, 0.531465
3458.41, 0.530381
3460.72, 0.528613
3463.03, 0.525761
3465.34, 0.521882
3467.66, 0.516976
3469.98, 0.512127
3472.31, 0.507906
3474.63, 0.504997
3476.96, 0.503514
3479.3, 0.503514
3481.64, 0.504484
3483.97, 0.505910
3486.32, 0.507393
3488.66, 0.509447
3491.01, 0.511329
3493.36, 0.513382
3495.72, 0.515322
3498.08, 0.517147
3500.44, 0.519144
3502.81, 0.521425
3505.18, 0.523935
3507.55, 0.526559
3509.92, 0.529468
3512.3, 0.532891
3514.68, 0.536656
3517.06, 0.541048
3519.45, 0.545783
3521.84, 0.551087
3524.24, 0.556392
3526.64, 0.561412
3529.04, 0.565747
3531.44, 0.569854
3533.85, 0.573277
3536.26, 0.576186
3538.67, 0.578639
3541.09, 0.580807
3543.51, 0.582746
3545.93, 0.584457
3548.36, 0.585712
3550.79, 0.587024
3553.22, 0.587994
3555.66, 0.588907
3558.1, 0.589705
3560.54, 0.590276
3562.99, 0.590675
3565.44, 0.591131
3567.9, 0.591417
3570.35, 0.591759
3572.81, 0.592329
3575.28, 0.593071
3577.75, 0.594098
3580.22, 0.595238
3582.69, 0.596094
3585.17, 0.597007
3587.65, 0.597805
3590.14, 0.598604
3592.62, 0.599174
3595.11, 0.599688
3597.61, 0.600258
3600.11, 0.601000
3602.61, 0.601513
3605.11, 0.602084
3607.62, 0.602483
3610.14, 0.602825
3612.65, 0.603110
3615.17, 0.603624
3617.69, 0.603909
3620.22, 0.604308
3622.75, 0.604593
3625.28, 0.604936
3627.82, 0.605164
3630.36, 0.605392
3632.9, 0.605449
3635.45, 0.605563
3638.0, 0.605563
3640.56, 0.605449
3643.12, 0.605107
3645.68, 0.604936
3648.24, 0.604593
3650.81, 0.604479
3653.39, 0.604593
3655.96, 0.604936
3658.54, 0.605392
3661.13, 0.605848
3663.71, 0.606362
3666.3, 0.606932
3668.9, 0.607388
3671.5, 0.608016
3674.1, 0.608301
3676.7, 0.608586
3679.31, 0.608586
3681.93, 0.608757
3684.54, 0.608986
3687.17, 0.609385
3689.79, 0.609556
3692.42, 0.609727
3695.05, 0.609727
3697.69, 0.609784
3700.32, 0.609898
3702.97, 0.610126
3705.61, 0.610184
3708.27, 0.610298
3710.92, 0.610298
3713.58, 0.610583
3716.24, 0.610754
3718.91, 0.610925
3721.58, 0.611096
3724.25, 0.611324
3726.93, 0.611324
3729.61, 0.611438
3732.29, 0.611438
3734.98, 0.611438
3737.67, 0.611381
3740.37, 0.611438
3743.07, 0.611381
3745.78, 0.611438
3748.49, 0.611438
3751.2, 0.611438
3753.91, 0.611381
3756.63, 0.611495
3759.36, 0.611495
3762.09, 0.611495
3764.82, 0.611324
3767.55, 0.611096
3770.29, 0.610754
3773.04, 0.610412
3775.78, 0.609898
3778.54, 0.609442
3781.29, 0.608814
3784.05, 0.608016
3786.82, 0.606761
3789.59, 0.605107
3792.36, 0.602996
3795.13, 0.600543
3797.92, 0.597634
3800.7, 0.594497
3803.49, 0.591359
3806.28, 0.588336
3809.08, 0.585313
3811.88, 0.582461
3814.68, 0.579495
3817.49, 0.576814
3820.31, 0.574019
3823.12, 0.571052
3825.94, 0.568029
3828.77, 0.565177
3831.6, 0.562040
3834.43, 0.559016
3837.27, 0.556392
3840.11, 0.554339
3842.96, 0.552742
3845.81, 0.551487
3848.67, 0.550403
3851.53, 0.549661
3854.39, 0.548977
3857.26, 0.548464
3860.13, 0.547893
3863.01, 0.547323
3865.89, 0.546752
3868.77, 0.546410
3871.66, 0.546068
3874.55, 0.545897
3877.45, 0.545554
3880.35, 0.545155
3883.26, 0.544699
3886.17, 0.544242
3889.09, 0.543786
3892.01, 0.543387
3894.93, 0.542702
3897.86, 0.542303
3900.79, 0.541790
3903.73, 0.541219
3906.67, 0.540421
3909.62, 0.539679
3912.57, 0.538823
3915.52, 0.538139
3918.48, 0.537055
3921.45, 0.535800
3924.42, 0.534317
3927.39, 0.532834
3930.37, 0.531579
3933.35, 0.530495
3936.34, 0.528213
3939.33, 0.523821
3942.32, 0.517604
3945.32, 0.511101
3948.33, 0.504484
3951.34, 0.497981
3954.35, 0.491763
3957.37, 0.486572
3960.39, 0.481952
3963.42, 0.478130
3966.45, 0.475107
3969.49, 0.472939
3972.53, 0.471228
3975.58, 0.470087
3978.63, 0.469174
3981.68, 0.469346
3984.75, 0.470772
3987.81, 0.473795
3990.88, 0.478130
3993.95, 0.483777
3997.03, 0.490109
4000.12, 0.497011
4003.21, 0.504142
4006.3, 0.511557
4009.4, 0.518744
4012.5, 0.525418
4015.61, 0.531294
4018.72, 0.536542
4021.84, 0.541219
4024.96, 0.545954
4028.09, 0.550517
4031.22, 0.555138
4034.36, 0.559530
4037.5, 0.564093
4040.65, 0.568428
4043.8, 0.572592
4046.96, 0.576129
4050.12, 0.579209
4053.29, 0.581662
4056.46, 0.583602
4059.64, 0.585142
4062.82, 0.586454
4066.0, 0.587538
4069.19, 0.588679
4072.39, 0.589477
4075.59, 0.590390
4078.8, 0.591131
4082.01, 0.591930
4085.23, 0.592557
4088.45, 0.593185
4091.68, 0.593698
4094.91, 0.594212
4098.15, 0.594497
4101.39, 0.594725
4104.63, 0.594953
4107.89, 0.595352
4111.14, 0.595581
4114.41, 0.595980
4117.67, 0.596265
4120.95, 0.596436
4124.23, 0.596493
4127.51, 0.596836
4130.8, 0.596950
4134.09, 0.597178
4137.39, 0.597349
4140.7, 0.597520
4144.01, 0.597577
4147.32, 0.597691
4150.64, 0.597634
4153.97, 0.597691
4157.3, 0.597748
4160.64, 0.597691
4163.98, 0.597691
4167.33, 0.597862
4170.68, 0.597748
4174.04, 0.597634
4177.4, 0.597520
4180.77, 0.597577
4184.14, 0.597634
4187.52, 0.597748
4190.91, 0.597691
4194.3, 0.597748
4197.69, 0.597748
4201.1, 0.598148
4204.5, 0.598775
4207.92, 0.599517
4211.34, 0.600486
4214.76, 0.601855
4218.19, 0.603281
4221.62, 0.604707
4225.06, 0.605734
4228.51, 0.606590
4231.96, 0.606989
4235.42, 0.607046
4238.88, 0.606419
4242.35, 0.605335
4245.83, 0.603624
4249.31, 0.601627
4252.79, 0.599174
4256.28, 0.597805
4259.78, 0.598433
4263.29, 0.600030
4266.79, 0.601171
4270.31, 0.602084
4273.83, 0.602255
4277.35, 0.602198
4280.89, 0.601912
4284.42, 0.601513
4287.97, 0.600771
4291.52, 0.600144
4295.07, 0.599288
4298.63, 0.598433
4302.2, 0.597463
4305.78, 0.596550
4309.35, 0.595638
4312.94, 0.594896
4316.53, 0.594155
4320.13, 0.593470
4323.73, 0.592843
4327.34, 0.592443
4330.96, 0.591930
4334.58, 0.591588
4338.21, 0.591131
4341.84, 0.590960
4345.48, 0.590561
4349.12, 0.590276
4352.77, 0.590047
4356.43, 0.590105
4360.1, 0.589819
4363.76, 0.589591
4367.44, 0.589420
4371.12, 0.589249
4374.81, 0.589021
4378.51, 0.588850
4382.21, 0.588507
4385.92, 0.588108
4389.63, 0.587823
4393.35, 0.587595
4397.08, 0.587252
4400.81, 0.586910
4404.55, 0.586511
4408.29, 0.586340
4412.04, 0.585826
4415.8, 0.585541
4419.57, 0.585085
4423.34, 0.584800
4427.12, 0.584286
4430.9, 0.583887
4434.69, 0.583374
4438.49, 0.582974
4442.29, 0.582404
4446.1, 0.581947
4449.92, 0.581377
4453.74, 0.580921
4457.57, 0.580350
4461.41, 0.579894
4465.25, 0.579266
4469.1, 0.578867
4472.95, 0.578183
4476.82, 0.577498
4480.69, 0.576757
4484.56, 0.576129
4488.44, 0.575559
4492.33, 0.574931
4496.23, 0.574076
4500.13, 0.573334
4504.04, 0.572592
4507.96, 0.571965
4511.88, 0.571166
4515.81, 0.570368
4519.75, 0.569455
4523.69, 0.568600
4527.65, 0.567516
4531.6, 0.566489
4535.57, 0.565291
4539.54, 0.563979
4543.52, 0.562496
4547.5, 0.561070
4551.5, 0.559530
4555.5, 0.557933
4559.5, 0.555993
4563.52, 0.553997
4567.54, 0.551829
4571.56, 0.549604
4575.6, 0.547095
4579.64, 0.544528
4583.69, 0.541676
4587.75, 0.538994
4591.81, 0.535971
4595.88, 0.533005
4599.96, 0.529925
4604.04, 0.526730
4608.14, 0.523479
4612.24, 0.520285
4616.34, 0.516862
4620.46, 0.513211
4624.58, 0.509503
4628.71, 0.505910
4632.84, 0.502202
4636.99, 0.498323
4641.14, 0.494330
4645.3, 0.490223
4649.47, 0.486287
4653.64, 0.482465
4657.82, 0.478872
4662.01, 0.475620
4666.21, 0.472426
4670.41, 0.469574
4674.62, 0.466608
4678.84, 0.464041
4683.07, 0.461645
4687.3, 0.459363
4691.54, 0.457310
4695.79, 0.455313
4700.05, 0.453488
4704.31, 0.451719
4708.59, 0.450179
4712.87, 0.448297
4717.15, 0.446757
4721.45, 0.444817
4725.76, 0.443049
4730.07, 0.440824
4734.39, 0.438771
4738.72, 0.436375
4743.05, 0.433979
4747.39, 0.431526
4751.75, 0.429074
4756.1, 0.426621
4760.47, 0.423940
4764.85, 0.421601
4769.23, 0.418863
4773.62, 0.416524
4778.02, 0.413843
4782.43, 0.411562
4786.85, 0.408881
4791.27, 0.406656
4795.7, 0.404317
4800.14, 0.402150
4804.59, 0.399925
4809.05, 0.397928
4813.51, 0.395989
4817.99, 0.393878
4822.47, 0.391939
4826.96, 0.390171
4831.46, 0.388345
4835.96, 0.386634
4840.48, 0.384809
4845.0, 0.383154
4849.54, 0.381386
4854.08, 0.379732
4858.63, 0.377849
4863.18, 0.376252
4867.75, 0.374598
4872.33, 0.373001
4876.91, 0.371347
4881.5, 0.369863
4886.1, 0.368437
4890.71, 0.367354
4895.33, 0.366156
4899.96, 0.365243
4904.59, 0.364159
4909.24, 0.363304
4913.89, 0.362391
4918.55, 0.361935
4923.22, 0.361478
4927.9, 0.361079
4932.59, 0.360623
4937.29, 0.360394
4942.0, 0.360166
4946.71, 0.360109
4951.44, 0.359881
4956.17, 0.359881
4960.91, 0.359653
4965.67, 0.359311
4970.43, 0.358968
4975.2, 0.358797
4979.98, 0.358341
4984.76, 0.357885
4989.56, 0.357371
4994.37, 0.356858
4999.18, 0.356116
5004.01, 0.355489
5008.84, 0.354690
5013.69, 0.354234
5018.54, 0.353778
5023.4, 0.353036
5028.28, 0.352294
5033.16, 0.351667
5038.05, 0.350925
5042.95, 0.350355
5047.86, 0.349670
5052.78, 0.349271
5057.71, 0.348701
5062.65, 0.348301
5067.6, 0.347845
5072.56, 0.347503
5077.53, 0.347218
5082.5, 0.347047
5087.49, 0.346362
5092.49, 0.345620
5097.5, 0.345164
5102.51, 0.345335
5107.54, 0.345506
5112.58, 0.345906
5117.62, 0.346191
5122.68, 0.346419
5127.75, 0.346362
5132.82, 0.346476
5137.91, 0.346590
5143.01, 0.346932
5148.12, 0.347161
5153.23, 0.346818
5158.36, 0.346590
5163.5, 0.346704
5168.65, 0.346647
5173.81, 0.346647
5178.98, 0.346476
5184.15, 0.346419
5189.34, 0.346362
5194.54, 0.346590
5199.75, 0.346704
5204.98, 0.346533
5210.21, 0.346989
5215.45, 0.346989
5220.7, 0.346134
5225.96, 0.346020
5231.23, 0.346077
5236.52, 0.346305
5241.81, 0.346077
5247.12, 0.345849
5252.44, 0.345563
5257.76, 0.345449
5263.1, 0.345050
5268.45, 0.344651
5273.81, 0.344137
5279.18, 0.343396
5284.56, 0.342426
5289.95, 0.341685
5295.36, 0.339916
5300.77, 0.337863
5306.2, 0.335695
5311.63, 0.333299
5317.08, 0.330618
5322.54, 0.327709
5328.01, 0.324515
5333.49, 0.321149
5338.98, 0.317670
5344.49, 0.314817
5350.0, 0.311794
5355.53, 0.307459
5361.07, 0.302896
5366.62, 0.298903
5372.18, 0.295138
5377.75, 0.291544
5383.34, 0.287836
5388.93, 0.284243
5394.54, 0.280649
5400.16, 0.277284
5405.79, 0.274032
5411.44, 0.271066
5417.09, 0.268955
5422.76, 0.266731
5428.43, 0.262338
5434.12, 0.258973
5439.83, 0.256463
5445.54, 0.254181
5451.26, 0.251729
5457.0, 0.250074
5462.75, 0.249048
5468.52, 0.246880
5474.29, 0.244883
5480.08, 0.243514
5485.88, 0.241461
5491.69, 0.239978
5497.51, 0.238666
5503.35, 0.237468
5509.2, 0.236042
5515.06, 0.234958
5520.93, 0.233589
5526.82, 0.231593
5532.71, 0.228740
5538.63, 0.225432
5544.55, 0.220983
5550.49, 0.216362
5556.44, 0.212141
5562.4, 0.209631
5568.37, 0.208718
5574.36, 0.209346
5580.36, 0.211000
5586.37, 0.213168
5592.4, 0.215963
5598.44, 0.218701
5604.49, 0.220127
5610.56, 0.220869
5616.63, 0.221154
5622.73, 0.220583
5628.83, 0.220184
5634.95, 0.220526
5641.08, 0.220869
5647.23, 0.218872
5653.39, 0.216818
5659.56, 0.215050
5665.74, 0.213396
5671.94, 0.213054
5678.15, 0.211856
5684.38, 0.210316
5690.62, 0.209517
5696.87, 0.208262
5703.14, 0.207692
5709.42, 0.208034
5715.72, 0.207007
5722.03, 0.205638
5728.35, 0.204440
5734.69, 0.203813
5741.03, 0.203414
5747.4, 0.203242
5753.78, 0.201873
5760.17, 0.202729
5766.58, 0.203699
5773.0, 0.200961
5779.44, 0.199192
5785.88, 0.198166
5792.35, 0.197253
5798.83, 0.196911
5805.32, 0.196283
5811.83, 0.196511
5818.35, 0.198109
5824.89, 0.197880
5831.45, 0.195884
5838.01, 0.194344
5844.59, 0.193374
5851.19, 0.193317
5857.8, 0.193488
5864.43, 0.193374
5871.07, 0.192918
5877.73, 0.195371
5884.4, 0.194515
5891.09, 0.192861
5897.79, 0.192461
5904.5, 0.189552
5911.23, 0.188354
5917.98, 0.187898
5924.75, 0.187556
5931.53, 0.189381
5938.32, 0.189723
5945.13, 0.186586
5951.96, 0.184818
5958.8, 0.184133
5965.65, 0.184761
5972.53, 0.183848
5979.42, 0.182479
5986.32, 0.182479
5993.24, 0.180939
6000.18, 0.178543
6007.13, 0.177744
6014.1, 0.177231
6021.08, 0.175177
6028.09, 0.173637
6035.1, 0.172953
6042.14, 0.174892
6049.19, 0.176261
6056.25, 0.171527
6063.34, 0.169131
6070.44, 0.169473
6077.55, 0.167819
6084.69, 0.165423
6091.84, 0.164339
6099.0, 0.164111
6106.19, 0.165024
6113.39, 0.165994
6120.61, 0.164054
6127.84, 0.162628
6135.09, 0.162742
6142.36, 0.163084
6149.65, 0.163199
6156.95, 0.164111
6164.27, 0.164054
6171.61, 0.163883
6178.97, 0.165765
6186.34, 0.167477
6193.73, 0.166792
6201.14, 0.167134
6208.57, 0.168275
6216.01, 0.169530
6223.47, 0.170671
6230.95, 0.171983
6238.45, 0.173352
6245.97, 0.174835
6253.5, 0.176204
6261.06, 0.177687
6268.63, 0.178999
6276.21, 0.180254
6283.82, 0.181281
6291.45, 0.182422
6299.1, 0.183620
6306.76, 0.185103
6314.44, 0.186643
6322.14, 0.188297
6329.86, 0.190123
6337.6, 0.193602
6345.35, 0.196740
6353.13, 0.196568
6360.92, 0.197823
6368.74, 0.200733
6376.57, 0.201759
6384.43, 0.202672
6392.3, 0.204269
6400.19, 0.206608
6408.1, 0.212540
6416.03, 0.215963
6423.98, 0.213624
6431.95, 0.213225
6439.94, 0.213396
6447.95, 0.213852
6455.98, 0.214138
6464.03, 0.214423
6472.1, 0.215564
6480.19, 0.216818
6488.31, 0.218644
6496.44, 0.217617
6504.59, 0.213054
6512.76, 0.211285
6520.95, 0.210886
6529.16, 0.208262
6537.4, 0.206266
6545.65, 0.205125
6553.92, 0.203813
6562.22, 0.202444
6570.54, 0.201873
6578.88, 0.198679
6587.23, 0.195485
6595.61, 0.192690
6604.02, 0.189495
6612.44, 0.187213
6620.89, 0.185331
6629.35, 0.185388
6637.84, 0.184589
6646.35, 0.179570
6654.88, 0.175463
6663.44, 0.173637
6672.01, 0.172382
6680.61, 0.170899
6689.23, 0.167933
6697.88, 0.165480
6706.54, 0.164453
6715.23, 0.162856
6723.94, 0.160518
6732.67, 0.158236
6741.42, 0.156353
6750.2, 0.154927
6759.0, 0.153387
6767.82, 0.152360
6776.67, 0.151334
6785.54, 0.150763
6794.44, 0.149052
6803.35, 0.146314
6812.29, 0.144774
6821.26, 0.144203
6830.24, 0.143006
6839.25, 0.141180
6848.29, 0.140667
6857.35, 0.141294
6866.43, 0.140325
6875.54, 0.137472
6884.67, 0.135818
6893.82, 0.134906
6903.0, 0.134335
6912.2, 0.133422
6921.43, 0.132510
6930.69, 0.131825
6939.96, 0.131141
6949.27, 0.131084
6958.59, 0.131540
6967.95, 0.130456
6977.33, 0.129372
6986.73, 0.129258
6996.16, 0.129087
7005.61, 0.128688
7015.09, 0.128631
7024.6, 0.128631
7034.13, 0.128916
7043.69, 0.129829
7053.27, 0.129372
7062.88, 0.128745
7072.52, 0.128688
7082.18, 0.128745
7091.87, 0.128460
7101.58, 0.127946
7111.32, 0.127262
7121.09, 0.126235
7130.88, 0.124980
7140.71, 0.124524
7150.56, 0.124296
7160.43, 0.124182
7170.33, 0.124124
7180.27, 0.123668
7190.23, 0.123611
7200.21, 0.124182
7210.23, 0.124467
7220.27, 0.124353
7230.34, 0.124410
7240.44, 0.124581
7250.56, 0.124581
7260.72, 0.124581
7270.9, 0.124638
7281.12, 0.124467
7291.36, 0.124182
7301.63, 0.124182
7311.93, 0.124239
7322.25, 0.124239
7332.61, 0.124239
7343.0, 0.124067
7353.41, 0.123497
7363.86, 0.122870
7374.33, 0.122299
7384.83, 0.121615
7395.37, 0.120816
7405.93, 0.120074
7416.53, 0.119276
7427.15, 0.118477
7437.81, 0.117622
7448.5, 0.116880
7459.22, 0.116139
7469.96, 0.115226
7480.74, 0.114142
7491.55, 0.113286
7502.39, 0.112260
7513.27, 0.111119
7524.17, 0.110035
7535.11, 0.109008
7546.08, 0.107981
7557.08, 0.106955
7568.11, 0.105757
7579.17, 0.104787
7590.27, 0.103760
7601.4, 0.102734
7612.56, 0.101707
7623.76, 0.100908
7634.98, 0.100053
7646.24, 0.0993680
7657.54, 0.0986840
7668.87, 0.0978850
7680.23, 0.0969720
7691.62, 0.0961740
7703.05, 0.0953180
7714.51, 0.0943480
7726.01, 0.0933220
7737.54, 0.0923520
7749.11, 0.0912680
7760.71, 0.0901840
7772.35, 0.0890430
7784.02, 0.0877310
7795.72, 0.0863050
7807.46, 0.0851640
7819.23, 0.0839670
7831.04, 0.0828260
7842.89, 0.0816850
7854.77, 0.0804870
7866.69, 0.0790610
7878.65, 0.0777490
7890.64, 0.0764940
7902.67, 0.0751820
7914.74, 0.0738130
7926.84, 0.0726720
7938.98, 0.0715310
7951.16, 0.0704470
7963.37, 0.0692500
7975.62, 0.0680520
7987.91, 0.0666830
8000.24, 0.0653710
8012.6, 0.0641160
8025.01, 0.0628040
8037.45, 0.0613210
8049.93, 0.0600090
8062.45, 0.0586400
8075.01, 0.0574990
8087.61, 0.0562440
8100.24, 0.0549890
8112.91, 0.0536200
8125.63, 0.0523080
8138.39, 0.0509390
8151.18, 0.0495700
8164.02, 0.0480870
8176.9, 0.0468320
8189.81, 0.0455200
8202.77, 0.0441510
8215.77, 0.0426110
8228.82, 0.0411850
8241.9, 0.0397590
8255.02, 0.0382760
8268.19, 0.0367350
8281.39, 0.0354800
8294.65, 0.0342250
8307.94, 0.0330850
8321.28, 0.0318870
8334.66, 0.0306890
8348.08, 0.0296620
8361.54, 0.0285210
8375.05, 0.0273800
8388.6, 0.0264110
8402.2, 0.0254980
8415.84, 0.0247560
8429.52, 0.0239580
8443.25, 0.0233300
8457.02, 0.0227600
8470.84, 0.0221900
8484.7, 0.0217900
8498.61, 0.0216190
8512.57, 0.0213910
8526.57, 0.0214480
8540.62, 0.0216760
8554.71, 0.0218470
8568.85, 0.0220750
8583.04, 0.0225890
8597.27, 0.0233300
8611.55, 0.0244140
8625.88, 0.0255550
8640.26, 0.0270380
8654.68, 0.0288640
8669.16, 0.0309170
8683.68, 0.0332560
8698.25, 0.0360510
8712.87, 0.0390170
8727.53, 0.0424400
8742.25, 0.0461470
8757.02, 0.0505400
8771.83, 0.0551600
8786.7, 0.0604650
8801.62, 0.0663400
8816.59, 0.0729000
8831.61, 0.0799170
8846.68, 0.0875600
8861.8, 0.0958880
8876.97, 0.104730
8892.2, 0.114256
8907.48, 0.124581
8922.81, 0.135305
8938.2, 0.146428
8953.63, 0.158122
8969.13, 0.170272
8984.67, 0.182650
9000.27, 0.195085
9015.92, 0.206950
9031.63, 0.217845
9047.39, 0.227485
9063.21, 0.235814
9079.08, 0.243172
9095.01, 0.249903
9111.0, 0.256121
9127.04, 0.261939
9143.13, 0.267472
9159.28, 0.272492
9175.49, 0.276656
9191.76, 0.279565
9208.09, 0.281448
9224.47, 0.282303
9240.92, 0.281961
9257.42, 0.280649
9273.98, 0.278424
9290.6, 0.275515
9307.28, 0.272150
9324.02, 0.268556
9340.82, 0.264962
9357.68, 0.261654
9374.6, 0.258517
9391.58, 0.255550
9408.62, 0.253269
9425.73, 0.251671
9442.9, 0.250816
9460.13, 0.250474
9477.42, 0.250816
9494.78, 0.252185
9512.2, 0.254295
9529.69, 0.257148
9547.24, 0.260684
9564.86, 0.264563
9582.54, 0.268727
9600.28, 0.272606
9618.1, 0.276428
9635.97, 0.280250
9653.92, 0.284186
9671.93, 0.288236
9690.01, 0.292400
9708.16, 0.296621
9726.37, 0.301298
9744.65, 0.305976
9763.0, 0.310140
9781.43, 0.313506
9799.92, 0.315103
9818.48, 0.313848
9837.1, 0.309912
9855.8, 0.303523
9874.58, 0.295195
9893.42, 0.285212
9912.34, 0.274374
9931.33, 0.263137
9950.39, 0.251900
9969.52, 0.240890
9988.74, 0.230566
10008.0, 0.220754
10027.4, 0.211456
10046.8, 0.202900
10066.3, 0.194971
10085.9, 0.187670
10105.6, 0.180939
10125.3, 0.174949
10145.1, 0.169758
10165.0, 0.165537
10185.0, 0.162400
10205.0, 0.160232
10225.2, 0.159320
10245.4, 0.159263
10265.7, 0.159662
10286.0, 0.160346
10306.5, 0.160803
10327.0, 0.160803
10347.6, 0.160175
10368.3, 0.158977
10389.1, 0.157095
10409.9, 0.154471
10430.9, 0.151448
10451.9, 0.148310
10473.0, 0.145059
10494.2, 0.141408
10515.5, 0.137701
10536.9, 0.134050
10558.4, 0.130513
10579.9, 0.127034
10601.5, 0.123839
10623.3, 0.120930
10645.1, 0.118306
10667.0, 0.115853
10689.0, 0.113515
10711.1, 0.111689
10733.2, 0.110149
10755.5, 0.108780
10777.9, 0.107411
10800.3, 0.106270
10822.9, 0.105186
10845.5, 0.103988
10868.2, 0.102962
10891.1, 0.102277
10914.0, 0.101422
10937.0, 0.100794
10960.2, 0.100338
10983.4, 0.0998810
11006.7, 0.0995390
11030.1, 0.0994250
11053.6, 0.0995390
11077.3, 0.0998240
11101.0, 0.100395
11124.8, 0.101136
11148.7, 0.101821
11172.7, 0.102734
11196.9, 0.103817
11221.1, 0.104844
11245.4, 0.106099
11269.9, 0.107183
11294.4, 0.107582
11319.1, 0.107639
11343.9, 0.107525
11368.8, 0.107069
11393.7, 0.106841
11418.8, 0.106955
11444.0, 0.107354
11469.4, 0.107924
11494.8, 0.108780
11520.3, 0.109350
11546.0, 0.109636
11571.8, 0.109807
11597.7, 0.109579
11623.7, 0.109179
11649.8, 0.108723
11676.0, 0.108210
11702.4, 0.107468
11728.9, 0.106898
11755.5, 0.106270
11782.2, 0.105415
11809.0, 0.105129
11836.0, 0.105243
11863.0, 0.104730
11890.3, 0.103817
11917.6, 0.102848
11945.0, 0.101307
11972.6, 0.0995960
12000.4, 0.0974860
12028.2, 0.0950900
12056.2, 0.0926370
12084.3, 0.0897280
12112.5, 0.0866480
12140.9, 0.0838520
12169.4, 0.0817420
12198.0, 0.0798590
12226.8, 0.0784900
12255.7, 0.0776920
12284.7, 0.0773500
12313.9, 0.0772360
12343.2, 0.0771210
12372.7, 0.0770640
12402.3, 0.0770070
12432.0, 0.0770640
12461.9, 0.0771780
12491.9, 0.0772930
12522.1, 0.0776350
12552.4, 0.0778630
12582.9, 0.0777490
12613.5, 0.0774070
12644.3, 0.0767790
12675.2, 0.0755810
12706.3, 0.0738130
12737.5, 0.0717020
12768.9, 0.0691360
12800.4, 0.0659980
12832.1, 0.0628040
12863.9, 0.0600090
12895.9, 0.0576130
12928.1, 0.0559020
12960.4, 0.0545330
12992.9, 0.0533920
13025.5, 0.0521940
13058.3, 0.0511100
13091.3, 0.0500830
13124.4, 0.0490570
13157.8, 0.0482580
13191.2, 0.0472310
13224.9, 0.0461470
13258.7, 0.0449490
13292.7, 0.0437520
13326.9, 0.0426110
13361.2, 0.0413560
13395.7, 0.0397020
13430.4, 0.0382180
13465.3, 0.0369060
13500.4, 0.0355370
13535.7, 0.0343970
13571.1, 0.0338260
13606.7, 0.0338260
13642.5, 0.0338830
13678.5, 0.0341110
13714.7, 0.0346820
13751.1, 0.0350810
13787.6, 0.0354800
13824.4, 0.0355370
13861.4, 0.0355370
13898.5, 0.0352520
13935.9, 0.0345110
13973.5, 0.0341110
14011.2, 0.0338830
14049.2, 0.0336550
14087.4, 0.0336550
14125.8, 0.0337120
14164.3, 0.0337690
14203.2, 0.0334270
14242.2, 0.0333130
14281.4, 0.0329140
14320.9, 0.0323430
14360.5, 0.0317160
14400.4, 0.0314870
14440.5, 0.0312590
14480.9, 0.0308030
14521.4, 0.0304610
14562.2, 0.0302900
14603.3, 0.0300610
14644.5, 0.0297190
14686.0, 0.0295480
14727.7, 0.0291490
14769.7, 0.0286350
14811.9, 0.0284640
14854.3, 0.0281220
14897.0, 0.0276090
14939.9, 0.0274370
14983.1, 0.0277800
15026.5, 0.0276660
15070.2, 0.0276660
15114.2, 0.0275520
15158.3, 0.0278370
15202.8, 0.0281790
15247.5, 0.0284640
15292.5, 0.0283500
15337.7, 0.0283500
15383.2, 0.0281220
15429.0, 0.0277800
15475.1, 0.0276090
15521.4, 0.0272660
15568.0, 0.0268670
15614.9, 0.0264680
15662.1, 0.0261830
15709.6, 0.0258400
15757.3, 0.0257830
15805.4, 0.0259540
15853.7, 0.0261250
15902.3, 0.0257260
15951.2, 0.0257830
16000.5, 0.0262400
16050.0, 0.0266390
16099.8, 0.0273800
16150.0, 0.0280650
16200.5, 0.0285780
16251.3, 0.0292630
16302.4, 0.0301750
16353.8, 0.0309170
16405.5, 0.0316020
16457.6, 0.0321150
16510.0, 0.0324570
16562.8, 0.0327420
16615.9, 0.0333700
16669.3, 0.0339400
16723.1, 0.0342830
16777.2, 0.0342250
16831.7, 0.0342250
16886.5, 0.0343970
16941.7, 0.0345110
16997.2, 0.0344540
17053.1, 0.0346820
17109.4, 0.0353090
17166.1, 0.0367920
17223.1, 0.0394160
17280.5, 0.0436380
17338.3, 0.0495130
17396.5, 0.0580690
17455.1, 0.0698200
17514.0, 0.0855070
17573.4, 0.105129
17633.2, 0.128174
17693.4, 0.153958
17754.0, 0.181395
17815.0, 0.208890
17876.4, 0.235243
17938.3, 0.260399
18000.5, 0.283558
18063.3, 0.302724
18126.4, 0.318925
18190.0, 0.333413
18254.1, 0.344251
18318.6, 0.352009
18383.5, 0.357257
18449.0, 0.359482
18514.9, 0.359425
18581.2, 0.357656
18648.0, 0.353036
18715.4, 0.346875
18783.2, 0.339460
18851.5, 0.332273
18920.3, 0.325884
18989.6, 0.320008
19059.4, 0.312536
19129.7, 0.306375
19200.6, 0.303010
19272.0, 0.302896
19343.9, 0.303352
19416.3, 0.304778
19489.3, 0.307003
19562.8, 0.307687
19637.0, 0.307174
19711.6, 0.307402
19786.8, 0.308372
19862.6, 0.310539
19939.0, 0.313334
20016.0, 0.314076
20093.6, 0.311338
20171.8, 0.304379
20250.6, 0.296108
20330.0, 0.288635
20410.0, 0.282246
20490.7, 0.278881
20572.0, 0.279965
20654.0, 0.284072
20736.6, 0.290860
20819.9, 0.299245
20903.8, 0.306489
20988.5, 0.312422
21073.8, 0.316358
21159.8, 0.318468
21246.5, 0.318069
21334.0, 0.315445
21422.1, 0.311851
21511.0, 0.306774
21600.7, 0.298389
21691.0, 0.290574
21782.1, 0.282531
21874.0, 0.272720
21966.7, 0.263023
22060.2, 0.254524
22154.5, 0.244826
22249.6, 0.236669
22345.5, 0.230395
22442.2, 0.224291
22539.8, 0.218416
22638.2, 0.213567
22737.5, 0.209232
22837.7, 0.203756
22938.7, 0.198451
23040.7, 0.192632
23143.5, 0.188411
23247.3, 0.184818
23352.1, 0.181680
23457.7, 0.179399
23564.4, 0.176547
23672.0, 0.173352
23780.5, 0.170386
23890.1, 0.166678
24000.7, 0.167134
24112.3, 0.168846
24225.0, 0.166792
24338.7, 0.162571
24453.5, 0.159491
