Database of Origin, USGS Spectral Database
Sample Description, See USGS database for additional info
Date Added,2016-08-10 04:57:04.108826

Data ID,USGS_jar04          
Sample ID, jarosite_gds101.11277
Mineral Name, jarosite
Material Class,Sulfate

Wavelength
1429.32, 0.656416
1429.72, 0.655817
1430.11, 0.655304
1430.51, 0.654962
1430.9, 0.654876
1431.3, 0.654876
1431.69, 0.654534
1432.09, 0.654363
1432.48, 0.654363
1432.88, 0.654192
1433.28, 0.654363
1433.67, 0.654278
1434.07, 0.654192
1434.46, 0.653679
1434.86, 0.653594
1435.26, 0.653765
1435.66, 0.653337
1436.05, 0.652311
1436.45, 0.652396
1436.85, 0.652311
1437.25, 0.651969
1437.65, 0.651284
1438.05, 0.651541
1438.44, 0.651798
1438.84, 0.651455
1439.24, 0.651028
1439.64, 0.651370
1440.04, 0.651455
1440.44, 0.651113
1440.84, 0.650173
1441.24, 0.649574
1441.65, 0.649061
1442.05, 0.648890
1442.45, 0.648804
1442.85, 0.648205
1443.25, 0.647949
1443.65, 0.648120
1444.05, 0.647521
1444.46, 0.646751
1444.86, 0.646153
1445.26, 0.645982
1445.67, 0.645982
1446.07, 0.645554
1446.47, 0.645127
1446.88, 0.645298
1447.28, 0.644528
1447.68, 0.643673
1448.09, 0.642988
1448.49, 0.643074
1448.9, 0.642390
1449.3, 0.641534
1449.71, 0.641449
1450.11, 0.641192
1450.52, 0.639824
1450.93, 0.639567
1451.33, 0.639482
1451.74, 0.638969
1452.14, 0.637942
1452.55, 0.637515
1452.96, 0.636574
1453.36, 0.636061
1453.77, 0.635462
1454.18, 0.634350
1454.59, 0.633837
1455.0, 0.633153
1455.41, 0.632126
1455.81, 0.631015
1456.22, 0.629903
1456.63, 0.629390
1457.04, 0.628363
1457.45, 0.627508
1457.86, 0.625969
1458.27, 0.624942
1458.68, 0.624001
1459.09, 0.622462
1459.5, 0.621179
1459.91, 0.620238
1460.32, 0.618699
1460.74, 0.616646
1461.15, 0.615620
1461.56, 0.614679
1461.97, 0.613567
1462.39, 0.612028
1462.8, 0.610659
1463.21, 0.610146
1463.62, 0.608949
1464.04, 0.607153
1464.45, 0.605699
1464.86, 0.605015
1465.28, 0.604074
1465.69, 0.602962
1466.11, 0.601850
1466.52, 0.600396
1466.94, 0.598942
1467.35, 0.597574
1467.77, 0.596633
1468.18, 0.595778
1468.6, 0.594837
1469.02, 0.593982
1469.43, 0.592613
1469.85, 0.591074
1470.27, 0.589791
1470.68, 0.588508
1471.1, 0.586712
1471.52, 0.585343
1471.94, 0.583205
1472.35, 0.581324
1472.77, 0.579442
1473.19, 0.577561
1473.61, 0.574824
1474.03, 0.573370
1474.45, 0.571232
1474.87, 0.569179
1475.29, 0.567896
1475.71, 0.567639
1476.13, 0.567212
1476.55, 0.566784
1476.97, 0.566442
1477.39, 0.566613
1477.81, 0.566784
1478.23, 0.567554
1478.65, 0.568153
1479.07, 0.568666
1479.5, 0.569179
1479.92, 0.570034
1480.34, 0.571146
1480.76, 0.572429
1481.19, 0.573626
1481.61, 0.575166
1482.03, 0.577047
1482.46, 0.579613
1482.88, 0.582350
1483.31, 0.585343
1483.73, 0.588679
1484.16, 0.591929
1484.58, 0.595521
1485.01, 0.599028
1485.43, 0.601251
1485.86, 0.603732
1486.28, 0.606126
1486.71, 0.608093
1487.14, 0.610317
1487.56, 0.612284
1487.99, 0.613054
1488.42, 0.614679
1488.84, 0.616133
1489.27, 0.617416
1489.7, 0.618271
1490.13, 0.619297
1490.56, 0.619469
1490.98, 0.620238
1491.41, 0.621350
1491.84, 0.622120
1492.27, 0.622291
1492.7, 0.622975
1493.13, 0.623488
1493.56, 0.623659
1493.99, 0.624001
1494.42, 0.624515
1494.85, 0.624857
1495.29, 0.624942
1495.72, 0.625284
1496.15, 0.625712
1496.58, 0.626054
1497.01, 0.626396
1497.44, 0.626653
1497.88, 0.626909
1498.31, 0.627080
1498.74, 0.627166
1499.18, 0.627423
1499.61, 0.628278
1500.04, 0.628534
1500.48, 0.628449
1500.91, 0.628278
1501.35, 0.628705
1501.78, 0.629133
1502.22, 0.629304
1502.65, 0.629561
1503.09, 0.630159
1503.53, 0.630245
1503.96, 0.629988
1504.4, 0.630330
1504.83, 0.630929
1505.27, 0.631100
1505.71, 0.631271
1506.15, 0.631271
1506.58, 0.631528
1507.02, 0.631613
1507.46, 0.631613
1507.9, 0.631784
1508.34, 0.632126
1508.78, 0.631870
1509.21, 0.631870
1509.66, 0.631870
1510.09, 0.632041
1510.53, 0.631870
1510.97, 0.631870
1511.42, 0.632126
1511.86, 0.632298
1512.3, 0.631870
1512.74, 0.631784
1513.18, 0.632041
1513.62, 0.632298
1514.06, 0.632126
1514.51, 0.631870
1514.95, 0.631613
1515.39, 0.631528
1515.83, 0.631271
1516.28, 0.631186
1516.72, 0.631442
1517.16, 0.631528
1517.61, 0.631271
1518.05, 0.631357
1518.5, 0.631186
1518.94, 0.631186
1519.39, 0.631357
1519.83, 0.630929
1520.28, 0.630673
1520.73, 0.631186
1521.17, 0.631186
1521.62, 0.631528
1522.07, 0.632212
1522.51, 0.631870
1522.96, 0.631186
1523.41, 0.631186
1523.85, 0.631528
1524.3, 0.632041
1524.75, 0.631955
1525.2, 0.631784
1525.65, 0.631699
1526.1, 0.631870
1526.55, 0.632041
1527.0, 0.632298
1527.45, 0.631784
1527.9, 0.631528
1528.35, 0.631528
1528.8, 0.631699
1529.25, 0.631870
1529.7, 0.631955
1530.15, 0.632126
1530.6, 0.632640
1531.05, 0.632383
1531.51, 0.632212
1531.96, 0.632383
1532.41, 0.632725
1532.87, 0.632640
1533.32, 0.632811
1533.77, 0.632982
1534.23, 0.633067
1534.68, 0.633409
1535.14, 0.633324
1535.59, 0.633751
1536.05, 0.634179
1536.5, 0.633923
1536.96, 0.634179
1537.41, 0.634265
1537.87, 0.634692
1538.32, 0.634607
1538.78, 0.634863
1539.24, 0.635376
1539.7, 0.635804
1540.15, 0.635633
1540.61, 0.635548
1541.07, 0.635804
1541.53, 0.635975
1541.98, 0.636745
1542.44, 0.637087
1542.9, 0.637001
1543.36, 0.637001
1543.82, 0.637001
1544.28, 0.637344
1544.74, 0.637771
1545.2, 0.638028
1545.66, 0.638370
1546.12, 0.638626
1546.59, 0.638712
1547.05, 0.639054
1547.51, 0.639054
1547.97, 0.639054
1548.43, 0.639567
1548.9, 0.639995
1549.36, 0.639909
1549.82, 0.640166
1550.29, 0.640508
1550.75, 0.640936
1551.21, 0.641363
1551.68, 0.641876
1552.14, 0.642048
1552.61, 0.642048
1553.07, 0.641705
1553.54, 0.642133
1554.0, 0.643245
1554.47, 0.644100
1554.93, 0.644100
1555.4, 0.644100
1555.87, 0.644528
1556.34, 0.645212
1556.8, 0.645298
1557.27, 0.645640
1557.74, 0.646238
1558.21, 0.646923
1558.68, 0.647521
1559.14, 0.647521
1559.61, 0.647692
1560.08, 0.648377
1560.55, 0.648633
1561.02, 0.648719
1561.49, 0.649146
1561.96, 0.649574
1562.43, 0.650002
1562.9, 0.650173
1563.38, 0.650173
1563.85, 0.650515
1564.32, 0.650857
1564.79, 0.651284
1565.26, 0.651541
1565.74, 0.651712
1566.21, 0.651798
1566.68, 0.652225
1567.16, 0.652482
1567.63, 0.652824
1568.1, 0.653080
1568.58, 0.653337
1569.05, 0.653423
1569.53, 0.653850
1570.0, 0.654278
1570.48, 0.654620
1570.96, 0.655304
1571.43, 0.655646
1571.91, 0.655817
1572.39, 0.656159
1572.86, 0.656587
1573.34, 0.657100
1573.82, 0.657442
1574.3, 0.658126
1574.77, 0.658298
1575.25, 0.658554
1575.73, 0.658725
1576.21, 0.659238
1576.69, 0.659923
1577.17, 0.660094
1577.65, 0.660179
1578.13, 0.660778
1578.61, 0.661291
1579.09, 0.661804
1579.57, 0.662146
1580.05, 0.662403
1580.54, 0.662488
1581.02, 0.662916
1581.5, 0.663002
1581.98, 0.662916
1582.47, 0.663258
1582.95, 0.664028
1583.43, 0.664883
1583.92, 0.665140
1584.4, 0.665311
1584.88, 0.665567
1585.37, 0.665824
1585.85, 0.666252
1586.34, 0.666423
1586.82, 0.666508
1587.31, 0.666679
1587.8, 0.667107
1588.28, 0.667706
1588.77, 0.668390
1589.26, 0.668732
1589.74, 0.668903
1590.23, 0.668903
1590.72, 0.669416
1591.21, 0.669844
1591.7, 0.670100
1592.19, 0.670784
1592.67, 0.671127
1593.16, 0.671298
1593.65, 0.671383
1594.14, 0.671127
1594.63, 0.671383
1595.12, 0.671896
1595.61, 0.672666
1596.11, 0.672837
1596.6, 0.673265
1597.09, 0.674034
1597.58, 0.674548
1598.08, 0.675146
1598.57, 0.675488
1599.06, 0.675403
1599.55, 0.675574
1600.05, 0.675574
1600.54, 0.676173
1601.04, 0.676686
1601.53, 0.676771
1602.03, 0.676857
1602.52, 0.677712
1603.02, 0.678225
1603.51, 0.678909
1604.01, 0.679252
1604.5, 0.679765
1605.0, 0.680021
1605.5, 0.680192
1606.0, 0.680449
1606.49, 0.681048
1606.99, 0.681219
1607.49, 0.681646
1607.99, 0.682074
1608.49, 0.682416
1608.99, 0.682587
1609.49, 0.682844
1609.99, 0.683357
1610.49, 0.683784
1610.99, 0.684041
1611.49, 0.684469
1611.99, 0.684640
1612.49, 0.685067
1612.99, 0.685409
1613.49, 0.685666
1614.0, 0.685837
1614.5, 0.686094
1615.0, 0.686521
1615.51, 0.687120
1616.01, 0.687377
1616.51, 0.688061
1617.02, 0.688574
1617.52, 0.688831
1618.03, 0.688831
1618.53, 0.689002
1619.04, 0.689344
1619.54, 0.689771
1620.05, 0.690199
1620.55, 0.690712
1621.06, 0.691054
1621.57, 0.691396
1622.08, 0.691824
1622.58, 0.691824
1623.09, 0.691653
1623.6, 0.692080
1624.11, 0.692423
1624.62, 0.692850
1625.13, 0.693107
1625.64, 0.693534
1626.15, 0.694048
1626.66, 0.694390
1627.17, 0.694390
1627.68, 0.694133
1628.19, 0.694646
1628.7, 0.695331
1629.21, 0.695502
1629.72, 0.695844
1630.24, 0.695587
1630.75, 0.695758
1631.26, 0.696186
1631.78, 0.696528
1632.29, 0.697127
1632.8, 0.697554
1633.32, 0.697554
1633.83, 0.697725
1634.35, 0.697982
1634.86, 0.698495
1635.38, 0.698837
1635.9, 0.699179
1636.41, 0.698923
1636.93, 0.699008
1637.45, 0.699607
1637.96, 0.699949
1638.48, 0.700120
1639.0, 0.700377
1639.52, 0.700890
1640.04, 0.701232
1640.56, 0.701232
1641.08, 0.701232
1641.59, 0.701403
1642.11, 0.701660
1642.63, 0.702002
1643.16, 0.702258
1643.68, 0.702429
1644.2, 0.702600
1644.72, 0.702942
1645.24, 0.703456
1645.76, 0.703541
1646.29, 0.703627
1646.81, 0.703627
1647.33, 0.703969
1647.86, 0.703969
1648.38, 0.704054
1648.9, 0.704311
1649.43, 0.704995
1649.95, 0.705508
1650.48, 0.705765
1651.0, 0.705423
1651.53, 0.705337
1652.06, 0.705508
1652.58, 0.705850
1653.11, 0.706107
1653.64, 0.706620
1654.17, 0.706877
1654.69, 0.707304
1655.22, 0.707133
1655.75, 0.707390
1656.28, 0.707732
1656.81, 0.708074
1657.34, 0.707988
1657.87, 0.708245
1658.4, 0.708502
1658.93, 0.708929
1659.46, 0.708758
1659.99, 0.708673
1660.52, 0.709442
1661.05, 0.710212
1661.59, 0.710469
1662.12, 0.710554
1662.65, 0.710725
1663.19, 0.710982
1663.72, 0.711495
1664.26, 0.711666
1664.79, 0.711666
1665.32, 0.711923
1665.86, 0.712265
1666.39, 0.712436
1666.93, 0.712778
1667.47, 0.712949
1668.0, 0.713120
1668.54, 0.713633
1669.08, 0.713633
1669.61, 0.713975
1670.15, 0.714317
1670.69, 0.714403
1671.23, 0.714660
1671.77, 0.715258
1672.31, 0.715429
1672.85, 0.715857
1673.39, 0.716113
1673.93, 0.716285
1674.47, 0.716541
1675.01, 0.716798
1675.55, 0.717054
1676.09, 0.717311
1676.64, 0.717482
1677.18, 0.718081
1677.72, 0.718337
1678.26, 0.718850
1678.81, 0.719107
1679.35, 0.719021
1679.89, 0.719278
1680.44, 0.719706
1680.98, 0.719877
1681.53, 0.720304
1682.07, 0.720646
1682.62, 0.721074
1683.17, 0.721416
1683.71, 0.721758
1684.26, 0.721758
1684.81, 0.721844
1685.36, 0.722186
1685.9, 0.722442
1686.45, 0.722186
1687.0, 0.722015
1687.55, 0.722357
1688.1, 0.722870
1688.65, 0.723212
1689.2, 0.723725
1689.75, 0.724068
1690.3, 0.724495
1690.85, 0.725008
1691.41, 0.725265
1691.96, 0.725179
1692.51, 0.724923
1693.06, 0.725350
1693.61, 0.725949
1694.17, 0.726035
1694.72, 0.726377
1695.28, 0.726548
1695.83, 0.726633
1696.39, 0.727061
1696.94, 0.727403
1697.5, 0.727403
1698.05, 0.727660
1698.61, 0.727916
1699.17, 0.727916
1699.72, 0.727916
1700.28, 0.728344
1700.84, 0.728429
1701.4, 0.728429
1701.95, 0.728600
1702.51, 0.728600
1703.07, 0.728942
1703.63, 0.729114
1704.19, 0.728771
1704.75, 0.728857
1705.31, 0.729114
1705.88, 0.729285
1706.44, 0.729370
1707.0, 0.729541
1707.56, 0.729627
1708.12, 0.730054
1708.69, 0.730140
1709.25, 0.730311
1709.81, 0.730482
1710.38, 0.730396
1710.94, 0.730653
1711.51, 0.730995
1712.07, 0.730824
1712.64, 0.730910
1713.2, 0.731081
1713.77, 0.730995
1714.34, 0.730995
1714.9, 0.731423
1715.47, 0.731508
1716.04, 0.731594
1716.61, 0.731679
1717.18, 0.731936
1717.74, 0.731850
1718.31, 0.732192
1718.88, 0.732449
1719.45, 0.732449
1720.02, 0.732364
1720.59, 0.732620
1721.17, 0.732620
1721.74, 0.732620
1722.31, 0.732706
1722.88, 0.732877
1723.45, 0.733048
1724.03, 0.733390
1724.6, 0.733219
1725.18, 0.732877
1725.75, 0.733048
1726.33, 0.733304
1726.9, 0.733475
1727.48, 0.733817
1728.05, 0.733903
1728.63, 0.734160
1729.2, 0.734074
1729.78, 0.734074
1730.36, 0.733903
1730.94, 0.733903
1731.51, 0.733989
1732.09, 0.734245
1732.67, 0.733989
1733.25, 0.733989
1733.83, 0.734245
1734.41, 0.734502
1734.99, 0.734331
1735.57, 0.734587
1736.15, 0.734502
1736.73, 0.734502
1737.32, 0.734929
1737.9, 0.735271
1738.48, 0.735186
1739.07, 0.735443
1739.65, 0.735870
1740.23, 0.736041
1740.82, 0.735956
1741.4, 0.735699
1741.99, 0.735956
1742.57, 0.736127
1743.16, 0.736041
1743.74, 0.736041
1744.33, 0.736212
1744.92, 0.736298
1745.51, 0.736298
1746.09, 0.736469
1746.68, 0.736640
1747.27, 0.736811
1747.86, 0.736640
1748.45, 0.736896
1749.04, 0.737153
1749.63, 0.737324
1750.22, 0.737153
1750.81, 0.736982
1751.4, 0.737239
1751.99, 0.737239
1752.59, 0.737068
1753.18, 0.737153
1753.77, 0.737324
1754.37, 0.737581
1754.96, 0.737581
1755.56, 0.737581
1756.15, 0.737581
1756.74, 0.737666
1757.34, 0.737495
1757.94, 0.737495
1758.53, 0.737666
1759.13, 0.738179
1759.73, 0.738179
1760.32, 0.738265
1760.92, 0.738265
1761.52, 0.738350
1762.12, 0.738094
1762.72, 0.737923
1763.32, 0.738008
1763.92, 0.737923
1764.52, 0.737837
1765.12, 0.737923
1765.72, 0.737837
1766.32, 0.737581
1766.92, 0.737410
1767.53, 0.737752
1768.13, 0.737837
1768.73, 0.737837
1769.34, 0.738008
1769.94, 0.738265
1770.55, 0.738008
1771.15, 0.738094
1771.76, 0.738094
1772.36, 0.737923
1772.97, 0.737837
1773.57, 0.738008
1774.18, 0.738008
1774.79, 0.738350
1775.4, 0.738436
1776.0, 0.738179
1776.61, 0.737923
1777.22, 0.738179
1777.83, 0.737666
1778.44, 0.737324
1779.05, 0.737410
1779.66, 0.737495
1780.27, 0.737666
1780.88, 0.737752
1781.5, 0.737581
1782.11, 0.737495
1782.72, 0.737324
1783.33, 0.737239
1783.95, 0.737239
1784.56, 0.737153
1785.18, 0.736982
1785.79, 0.736982
1786.41, 0.736811
1787.02, 0.736554
1787.64, 0.736554
1788.26, 0.736554
1788.87, 0.735956
1789.49, 0.735870
1790.11, 0.735785
1790.73, 0.735528
1791.35, 0.735443
1791.96, 0.735357
1792.58, 0.735100
1793.21, 0.735186
1793.83, 0.735271
1794.45, 0.734844
1795.07, 0.734673
1795.69, 0.734758
1796.31, 0.734160
1796.93, 0.733989
1797.56, 0.733903
1798.18, 0.733989
1798.8, 0.733817
1799.43, 0.733390
1800.05, 0.732962
1800.68, 0.732706
1801.3, 0.732535
1801.93, 0.732449
1802.56, 0.732107
1803.18, 0.731679
1803.81, 0.731081
1804.44, 0.730738
1805.07, 0.730054
1805.7, 0.729712
1806.33, 0.729285
1806.95, 0.728771
1807.58, 0.728087
1808.22, 0.727489
1808.85, 0.726890
1809.48, 0.726633
1810.11, 0.725949
1810.74, 0.725179
1811.38, 0.724410
1812.01, 0.724068
1812.64, 0.723554
1813.28, 0.723127
1813.91, 0.722442
1814.55, 0.721929
1815.18, 0.721502
1815.82, 0.720989
1816.45, 0.720561
1817.09, 0.719962
1817.73, 0.719364
1818.36, 0.719021
1819.0, 0.718337
1819.64, 0.718081
1820.28, 0.717824
1820.92, 0.716969
1821.56, 0.716370
1822.2, 0.715942
1822.84, 0.715344
1823.48, 0.714660
1824.12, 0.713975
1824.76, 0.713291
1825.41, 0.712436
1826.05, 0.711324
1826.69, 0.710212
1827.34, 0.709100
1827.98, 0.707475
1828.63, 0.705936
1829.27, 0.704225
1829.92, 0.702429
1830.56, 0.700633
1831.21, 0.698495
1831.86, 0.696442
1832.5, 0.694390
1833.15, 0.691738
1833.8, 0.689087
1834.45, 0.686265
1835.1, 0.683442
1835.75, 0.680620
1836.4, 0.677883
1837.05, 0.674975
1837.7, 0.671982
1838.35, 0.669074
1839.01, 0.666337
1839.66, 0.663600
1840.31, 0.660607
1840.96, 0.658041
1841.62, 0.655646
1842.27, 0.652738
1842.93, 0.650515
1843.58, 0.649146
1844.24, 0.648291
1844.9, 0.647607
1845.55, 0.647179
1846.21, 0.647179
1846.87, 0.647778
1847.53, 0.649061
1848.18, 0.650173
1848.84, 0.651284
1849.5, 0.652824
1850.16, 0.654705
1850.82, 0.656673
1851.48, 0.658725
1852.14, 0.660607
1852.81, 0.661890
1853.47, 0.663429
1854.13, 0.664712
1854.8, 0.665311
1855.46, 0.665909
1856.12, 0.666423
1856.79, 0.666508
1857.45, 0.666850
1858.12, 0.666679
1858.79, 0.666679
1859.45, 0.666936
1860.12, 0.667620
1860.79, 0.668390
1861.46, 0.669501
1862.12, 0.670955
1862.79, 0.672324
1863.46, 0.673778
1864.13, 0.675916
1864.8, 0.678225
1865.48, 0.680877
1866.15, 0.683186
1866.82, 0.685495
1867.49, 0.688061
1868.16, 0.690969
1868.84, 0.693877
1869.51, 0.696784
1870.19, 0.699607
1870.86, 0.702686
1871.54, 0.705337
1872.21, 0.708502
1872.89, 0.711324
1873.56, 0.713548
1874.24, 0.715686
1874.92, 0.717739
1875.6, 0.719364
1876.28, 0.721416
1876.96, 0.723212
1877.64, 0.724324
1878.32, 0.725607
1879.0, 0.726804
1879.68, 0.727831
1880.36, 0.728600
1881.04, 0.729114
1881.73, 0.729969
1882.41, 0.730653
1883.09, 0.731423
1883.78, 0.731936
1884.46, 0.732449
1885.15, 0.732877
1885.83, 0.733646
1886.52, 0.733989
1887.21, 0.734331
1887.89, 0.734331
1888.58, 0.734758
1889.27, 0.735186
1889.96, 0.735528
1890.65, 0.735528
1891.34, 0.735443
1892.03, 0.735443
1892.72, 0.735443
1893.41, 0.735528
1894.1, 0.735699
1894.79, 0.735271
1895.49, 0.734929
1896.18, 0.734929
1896.87, 0.735100
1897.57, 0.734673
1898.26, 0.734673
1898.96, 0.734502
1899.65, 0.734074
1900.35, 0.733903
1901.05, 0.733817
1901.74, 0.733475
1902.44, 0.733219
1903.14, 0.732791
1903.84, 0.732706
1904.54, 0.732278
1905.24, 0.731850
1905.94, 0.731508
1906.64, 0.731508
1907.34, 0.731252
1908.04, 0.730738
1908.75, 0.730140
1909.45, 0.729969
1910.15, 0.729798
1910.86, 0.729456
1911.56, 0.729370
1912.27, 0.729199
1912.97, 0.728771
1913.68, 0.728344
1914.39, 0.728429
1915.09, 0.728173
1915.8, 0.727660
1916.51, 0.727317
1917.22, 0.727232
1917.93, 0.727146
1918.64, 0.727061
1919.35, 0.726975
1920.06, 0.726633
1920.77, 0.726462
1921.48, 0.726377
1922.19, 0.726206
1922.91, 0.726035
1923.62, 0.725949
1924.33, 0.725778
1925.05, 0.725607
1925.76, 0.725265
1926.48, 0.725265
1927.19, 0.725179
1927.91, 0.725350
1928.63, 0.725179
1929.35, 0.725179
1930.07, 0.725008
1930.78, 0.724923
1931.5, 0.724923
1932.22, 0.724923
1932.94, 0.724837
1933.66, 0.724752
1934.39, 0.724495
1935.11, 0.724581
1935.83, 0.724923
1936.55, 0.724923
1937.28, 0.724752
1938.0, 0.724666
1938.73, 0.724581
1939.45, 0.724666
1940.18, 0.724666
1940.9, 0.724837
1941.63, 0.724923
1942.36, 0.724666
1943.09, 0.724581
1943.81, 0.724581
1944.54, 0.724837
1945.27, 0.725008
1946.0, 0.724581
1946.73, 0.724581
1947.47, 0.724495
1948.2, 0.724239
1948.93, 0.723982
1949.66, 0.723896
1950.4, 0.724239
1951.13, 0.724239
1951.86, 0.723811
1952.6, 0.723640
1953.34, 0.723554
1954.07, 0.723554
1954.81, 0.723640
1955.55, 0.723554
1956.29, 0.723127
1957.02, 0.722870
1957.76, 0.722785
1958.5, 0.722956
1959.24, 0.722956
1959.98, 0.722699
1960.72, 0.722442
1961.47, 0.722357
1962.21, 0.722015
1962.95, 0.721844
1963.7, 0.721673
1964.44, 0.721587
1965.18, 0.721245
1965.93, 0.721245
1966.67, 0.721416
1967.42, 0.721331
1968.17, 0.721245
1968.92, 0.721160
1969.66, 0.720989
1970.41, 0.720989
1971.16, 0.721074
1971.91, 0.721416
1972.66, 0.721502
1973.41, 0.721331
1974.16, 0.721502
1974.92, 0.721587
1975.67, 0.721416
1976.42, 0.721587
1977.18, 0.721245
1977.93, 0.721160
1978.69, 0.721758
1979.44, 0.722100
1980.2, 0.721844
1980.95, 0.721587
1981.71, 0.721758
1982.47, 0.721502
1983.23, 0.721160
1983.99, 0.721160
1984.74, 0.720903
1985.51, 0.720818
1986.27, 0.720903
1987.03, 0.721074
1987.79, 0.721074
1988.55, 0.720903
1989.32, 0.720732
1990.08, 0.720989
1990.84, 0.720989
1991.61, 0.720903
1992.37, 0.720561
1993.14, 0.720561
1993.9, 0.720390
1994.67, 0.720390
1995.44, 0.720133
1996.21, 0.719877
1996.98, 0.719791
1997.75, 0.719791
1998.52, 0.719535
1999.29, 0.719620
2000.06, 0.719449
2000.83, 0.719107
2001.6, 0.718936
2002.38, 0.718765
2003.15, 0.718679
2003.93, 0.718765
2004.7, 0.719021
2005.48, 0.719192
2006.25, 0.719021
2007.03, 0.719021
2007.81, 0.718850
2008.58, 0.718765
2009.36, 0.718679
2010.14, 0.718850
2010.92, 0.718765
2011.7, 0.718594
2012.48, 0.718679
2013.26, 0.718936
2014.05, 0.718936
2014.83, 0.719021
2015.61, 0.718765
2016.4, 0.718765
2017.18, 0.718594
2017.97, 0.718508
2018.75, 0.718423
2019.54, 0.718765
2020.32, 0.718679
2021.11, 0.718423
2021.9, 0.718081
2022.69, 0.717910
2023.48, 0.717824
2024.27, 0.717739
2025.06, 0.717225
2025.85, 0.716969
2026.64, 0.716712
2027.44, 0.716712
2028.23, 0.716541
2029.02, 0.716028
2029.82, 0.715258
2030.61, 0.714831
2031.41, 0.714488
2032.2, 0.714061
2033.0, 0.713291
2033.8, 0.712778
2034.6, 0.712436
2035.4, 0.712265
2036.2, 0.711837
2037.0, 0.711238
2037.8, 0.710554
2038.6, 0.710298
2039.4, 0.709870
2040.2, 0.709357
2041.01, 0.708844
2041.81, 0.708587
2042.61, 0.708074
2043.42, 0.707732
2044.22, 0.707561
2045.03, 0.707048
2045.84, 0.706278
2046.65, 0.706021
2047.46, 0.705765
2048.26, 0.705423
2049.07, 0.705081
2049.88, 0.704738
2050.69, 0.704225
2051.51, 0.703712
2052.32, 0.703456
2053.13, 0.703285
2053.94, 0.703113
2054.76, 0.702515
2055.57, 0.702087
2056.39, 0.701831
2057.2, 0.701574
2058.02, 0.701317
2058.84, 0.700975
2059.66, 0.700548
2060.48, 0.700035
2061.29, 0.699778
2062.11, 0.699521
2062.94, 0.699436
2063.76, 0.699179
2064.58, 0.698837
2065.4, 0.698324
2066.22, 0.698067
2067.05, 0.697811
2067.87, 0.697383
2068.7, 0.696956
2069.52, 0.696699
2070.35, 0.696271
2071.18, 0.696015
2072.0, 0.695758
2072.83, 0.695331
2073.66, 0.694732
2074.49, 0.694561
2075.32, 0.694219
2076.15, 0.693877
2076.98, 0.693534
2077.82, 0.693363
2078.65, 0.693192
2079.48, 0.693107
2080.32, 0.692850
2081.15, 0.692594
2081.99, 0.692252
2082.83, 0.692166
2083.66, 0.691909
2084.5, 0.691995
2085.34, 0.691995
2086.18, 0.691824
2087.02, 0.691738
2087.86, 0.691396
2088.7, 0.690883
2089.54, 0.690712
2090.39, 0.690798
2091.23, 0.690712
2092.07, 0.690541
2092.92, 0.690627
2093.76, 0.690199
2094.61, 0.689857
2095.45, 0.689857
2096.3, 0.689857
2097.15, 0.689515
2098.0, 0.689087
2098.85, 0.688745
2099.7, 0.688659
2100.55, 0.688831
2101.4, 0.688403
2102.25, 0.688061
2103.1, 0.687719
2103.96, 0.687548
2104.81, 0.687291
2105.67, 0.686692
2106.52, 0.686436
2107.38, 0.686436
2108.24, 0.686350
2109.09, 0.685666
2109.95, 0.685324
2110.81, 0.684811
2111.67, 0.684383
2112.53, 0.684212
2113.39, 0.683699
2114.25, 0.683271
2115.12, 0.683186
2115.98, 0.682758
2116.84, 0.682416
2117.71, 0.682159
2118.58, 0.681732
2119.44, 0.681048
2120.31, 0.680534
2121.18, 0.680192
2122.04, 0.679936
2122.91, 0.679765
2123.78, 0.679594
2124.65, 0.679337
2125.52, 0.679166
2126.4, 0.678482
2127.27, 0.677969
2128.14, 0.677712
2129.02, 0.677541
2129.89, 0.677113
2130.77, 0.676600
2131.64, 0.675830
2132.52, 0.675659
2133.4, 0.675488
2134.27, 0.674890
2135.15, 0.674462
2136.03, 0.674205
2136.91, 0.673607
2137.79, 0.673008
2138.68, 0.672495
2139.56, 0.672153
2140.44, 0.671383
2141.33, 0.671127
2142.21, 0.670528
2143.1, 0.670100
2143.99, 0.669929
2144.87, 0.669501
2145.76, 0.668732
2146.65, 0.668304
2147.54, 0.667962
2148.43, 0.667449
2149.32, 0.666765
2150.21, 0.666252
2151.1, 0.665738
2151.99, 0.665396
2152.89, 0.664969
2153.78, 0.664455
2154.68, 0.663857
2155.57, 0.663173
2156.47, 0.662659
2157.37, 0.662146
2158.27, 0.661633
2159.16, 0.661462
2160.06, 0.660863
2160.96, 0.660179
2161.86, 0.659923
2162.77, 0.659751
2163.67, 0.659495
2164.57, 0.658982
2165.48, 0.658469
2166.38, 0.658126
2167.29, 0.657613
2168.2, 0.657100
2169.1, 0.656587
2170.01, 0.656245
2170.92, 0.655732
2171.83, 0.655390
2172.74, 0.654962
2173.65, 0.654363
2174.56, 0.653765
2175.47, 0.653166
2176.39, 0.652653
2177.3, 0.652140
2178.22, 0.651626
2179.13, 0.651028
2180.05, 0.650087
2180.96, 0.649146
2181.88, 0.648291
2182.8, 0.647607
2183.72, 0.646666
2184.64, 0.645640
2185.56, 0.644613
2186.48, 0.643673
2187.41, 0.642475
2188.33, 0.641705
2189.25, 0.640679
2190.18, 0.639396
2191.1, 0.638199
2192.03, 0.637258
2192.96, 0.635975
2193.89, 0.635120
2194.82, 0.634094
2195.74, 0.633409
2196.68, 0.632469
2197.61, 0.631613
2198.54, 0.630245
2199.47, 0.629133
2200.4, 0.628278
2201.34, 0.627166
2202.28, 0.626054
2203.21, 0.625284
2204.15, 0.624173
2205.08, 0.623146
2206.02, 0.621949
2206.96, 0.620837
2207.9, 0.619725
2208.84, 0.618528
2209.78, 0.617159
2210.73, 0.615705
2211.67, 0.614337
2212.61, 0.612712
2213.56, 0.611001
2214.5, 0.609719
2215.45, 0.608179
2216.4, 0.606383
2217.35, 0.604758
2218.3, 0.603218
2219.24, 0.601765
2220.2, 0.600482
2221.15, 0.599028
2222.1, 0.597830
2223.05, 0.596718
2224.0, 0.595607
2224.96, 0.594666
2225.91, 0.593896
2226.87, 0.592955
2227.83, 0.592100
2228.79, 0.591330
2229.74, 0.590646
2230.7, 0.589962
2231.66, 0.589107
2232.63, 0.588337
2233.59, 0.587738
2234.55, 0.587225
2235.51, 0.586968
2236.48, 0.586712
2237.44, 0.586541
2238.41, 0.587112
2239.38, 0.587030
2240.34, 0.586541
2241.31, 0.586051
2242.28, 0.586296
2243.25, 0.586133
2244.22, 0.585072
2245.19, 0.583522
2246.17, 0.581890
2247.14, 0.579850
2248.12, 0.577891
2249.09, 0.576178
2250.07, 0.573974
2251.04, 0.571934
2252.02, 0.569568
2253.0, 0.566712
2253.98, 0.563203
2254.96, 0.559858
2255.94, 0.555696
2256.92, 0.550800
2257.91, 0.545496
2258.89, 0.540274
2259.88, 0.535622
2260.86, 0.531134
2261.85, 0.527218
2262.83, 0.524198
2263.82, 0.522322
2264.81, 0.520771
2265.8, 0.519058
2266.79, 0.518160
2267.78, 0.518160
2268.78, 0.518242
2269.77, 0.518242
2270.76, 0.519302
2271.76, 0.520934
2272.75, 0.522240
2273.75, 0.523627
2274.75, 0.525667
2275.75, 0.528115
2276.75, 0.530237
2277.75, 0.532848
2278.75, 0.535949
2279.75, 0.539702
2280.75, 0.543701
2281.76, 0.548270
2282.76, 0.552758
2283.77, 0.557736
2284.77, 0.563040
2285.78, 0.568915
2286.79, 0.574546
2287.8, 0.579360
2288.81, 0.583930
2289.82, 0.589070
2290.83, 0.594048
2291.84, 0.598454
2292.86, 0.601882
2293.87, 0.604656
2294.89, 0.606859
2295.91, 0.608899
2296.92, 0.609878
2297.94, 0.609960
2298.96, 0.609144
2299.98, 0.607920
2301.0, 0.606778
2302.02, 0.605064
2303.04, 0.603758
2304.07, 0.604166
2305.09, 0.604330
2306.12, 0.605064
2307.15, 0.607104
2308.17, 0.610286
2309.2, 0.613958
2310.23, 0.618283
2311.26, 0.622363
2312.29, 0.625954
2313.32, 0.630034
2314.35, 0.634440
2315.39, 0.637949
2316.42, 0.640723
2317.46, 0.643171
2318.5, 0.645456
2319.53, 0.647659
2320.57, 0.650026
2321.61, 0.651658
2322.65, 0.653208
2323.69, 0.654269
2324.73, 0.655166
2325.78, 0.656390
2326.82, 0.657451
2327.86, 0.658267
2328.91, 0.659328
2329.96, 0.660062
2331.01, 0.661042
2332.05, 0.661776
2333.1, 0.662266
2334.15, 0.662102
2335.21, 0.662102
2336.26, 0.662429
2337.31, 0.662674
2338.36, 0.663082
2339.42, 0.663082
2340.48, 0.662918
2341.53, 0.662918
2342.59, 0.663082
2343.65, 0.662918
2344.71, 0.662347
2345.77, 0.662347
2346.83, 0.662184
2347.9, 0.661531
2348.96, 0.661042
2350.02, 0.660389
2351.09, 0.658838
2352.16, 0.657859
2353.23, 0.657533
2354.29, 0.656962
2355.36, 0.655982
2356.43, 0.654677
2357.51, 0.653126
2358.58, 0.651576
2359.65, 0.650434
2360.73, 0.649373
2361.8, 0.648394
2362.88, 0.647006
2363.96, 0.645374
2365.03, 0.643906
2366.11, 0.642518
2367.19, 0.640478
2368.27, 0.638846
2369.36, 0.636806
2370.44, 0.635174
2371.53, 0.634195
2372.61, 0.632237
2373.7, 0.629952
2374.78, 0.627830
2375.87, 0.625546
2376.96, 0.622771
2378.05, 0.620650
2379.14, 0.618283
2380.24, 0.615672
2381.33, 0.613469
2382.42, 0.610613
2383.52, 0.607675
2384.61, 0.604574
2385.71, 0.601555
2386.81, 0.598536
2387.91, 0.595762
2389.01, 0.592742
2390.11, 0.589315
2391.22, 0.585970
2392.32, 0.583032
2393.42, 0.579605
2394.53, 0.575851
2395.64, 0.572506
2396.74, 0.569160
2397.85, 0.565733
2398.96, 0.562632
2400.07, 0.559776
2401.18, 0.557410
2402.3, 0.554962
2403.41, 0.552350
2404.52, 0.550392
2405.64, 0.548189
2406.76, 0.546394
2407.88, 0.544680
2408.99, 0.542966
2410.11, 0.541253
2411.23, 0.539621
2412.36, 0.538805
2413.48, 0.537989
2414.6, 0.537091
2415.73, 0.536030
2416.85, 0.535296
2417.98, 0.535214
2419.11, 0.535296
2420.24, 0.535051
2421.37, 0.534480
2422.5, 0.534562
2423.64, 0.534725
2424.77, 0.534643
2425.9, 0.534562
2427.04, 0.534725
2428.18, 0.535133
2429.31, 0.534806
2430.45, 0.534888
2431.59, 0.535214
2432.73, 0.535133
2433.88, 0.534806
2435.02, 0.534480
2436.16, 0.534072
2437.31, 0.533338
2438.45, 0.532603
2439.6, 0.531706
2440.75, 0.530074
2441.9, 0.528523
2443.05, 0.526973
2444.2, 0.524770
2445.35, 0.521914
2446.51, 0.519302
2447.67, 0.517099
2448.82, 0.514570
2449.98, 0.511795
2451.14, 0.509347
2452.3, 0.506899
2453.46, 0.504125
2454.62, 0.501514
2455.78, 0.499474
2456.94, 0.498005
2458.11, 0.496210
2459.28, 0.494496
2460.44, 0.493680
2461.61, 0.493272
2462.78, 0.493272
2463.95, 0.493354
2465.12, 0.493843
2466.3, 0.494496
2467.47, 0.495067
2468.65, 0.495557
2469.82, 0.496536
2471.0, 0.497760
2472.18, 0.498658
2473.36, 0.499229
2474.54, 0.499718
2475.72, 0.500371
2476.9, 0.501024
2478.08, 0.501432
2479.27, 0.501758
2480.46, 0.502166
2481.64, 0.502574
2482.83, 0.503227
2484.02, 0.503635
2485.21, 0.503064
2486.4, 0.502656
2487.6, 0.502574
2488.79, 0.502411
2489.99, 0.501840
2491.18, 0.501269
2492.38, 0.500290
2493.58, 0.498902
2494.78, 0.497760
2495.98, 0.496128
2497.18, 0.493680
2498.39, 0.490742
2499.59, 0.487968
2500.8, 0.484786
2502.01, 0.480950
2503.21, 0.476626
2504.42, 0.471811
2505.63, 0.466915
2506.84, 0.461530
2508.06, 0.456634
2509.27, 0.452390
2510.49, 0.448066
2511.7, 0.444394
2512.92, 0.441538
2514.14, 0.439416
2515.36, 0.438437
2516.58, 0.438274
2517.8, 0.439171
2519.03, 0.440640
2520.25, 0.442598
2521.48, 0.445454
2522.7, 0.448637
2523.93, 0.451248
2525.16, 0.453778
2526.39, 0.456307
2527.62, 0.458674
2528.86, 0.460469
2530.09, 0.462590
2531.33, 0.464222
2532.56, 0.465120
2533.8, 0.465936
2535.04, 0.467160
2536.28, 0.468221
2537.52, 0.469037
2538.76, 0.469526
2540.01, 0.470179
2541.25, 0.470669
2542.5, 0.471403
2543.75, 0.471730
2544.99, 0.472301
2546.24, 0.472790
2547.49, 0.473525
2548.75, 0.473933
2550.0, 0.473933
2551.26, 0.474259
2552.51, 0.474830
2553.77, 0.474749
2555.03, 0.474586
2556.29, 0.474341
2557.55, 0.474259
2558.81, 0.474096
2560.08, 0.474178
2561.34, 0.474667
2562.61, 0.474259
2563.88, 0.472790
2565.14, 0.470914
2566.41, 0.469445
2567.68, 0.468139
2568.96, 0.467242
2570.23, 0.465365
2571.51, 0.463162
2572.78, 0.462101
2574.06, 0.460306
2575.34, 0.458021
2576.62, 0.456634
2577.9, 0.453778
2579.18, 0.450840
2580.47, 0.449045
2581.75, 0.446760
2583.04, 0.444720
2584.32, 0.442272
2585.61, 0.438682
2586.9, 0.436152
2588.2, 0.433541
2589.49, 0.430930
2590.78, 0.427666
2592.08, 0.424646
2593.37, 0.423586
2594.67, 0.423178
2595.97, 0.418445
2597.27, 0.413549
2598.57, 0.409795
2599.88, 0.406368
2601.18, 0.403594
2602.49, 0.400738
2603.79, 0.397637
2605.1, 0.395270
2606.41, 0.392333
2607.72, 0.389232
2609.03, 0.386702
2610.35, 0.384744
2611.66, 0.383357
2612.98, 0.382378
2614.3, 0.381480
2615.62, 0.381235
2616.94, 0.381072
2618.26, 0.379848
2619.58, 0.380093
2620.91, 0.380174
2622.23, 0.378950
2623.56, 0.378869
2624.89, 0.379195
2626.22, 0.380338
2627.55, 0.380827
2628.88, 0.381643
2630.21, 0.383928
2631.55, 0.384418
2632.89, 0.385478
2634.22, 0.387926
2635.56, 0.389966
2636.9, 0.392414
2638.25, 0.395515
2639.59, 0.398779
2640.93, 0.402043
2642.28, 0.404736
2643.63, 0.407184
2644.98, 0.410122
2646.33, 0.412814
2647.68, 0.414528
2649.03, 0.416650
2650.39, 0.418690
2651.74, 0.421464
2653.1, 0.423667
2654.46, 0.424891
2655.82, 0.426523
2657.18, 0.427829
2658.54, 0.429624
2659.9, 0.431093
2661.27, 0.431827
2662.64, 0.432806
2664.01, 0.435173
2665.38, 0.438192
2666.74, 0.439579
2668.12, 0.439824
2669.49, 0.442435
2670.87, 0.444638
2672.24, 0.443741
2673.62, 0.444638
2675.0, 0.446515
2676.38, 0.448066
2677.76, 0.448637
2679.15, 0.449861
2680.54, 0.450269
2681.92, 0.451493
2683.31, 0.453451
2684.7, 0.455165
2686.09, 0.457368
2687.48, 0.459898
2688.88, 0.462346
2690.27, 0.465038
2691.67, 0.467894
2693.07, 0.471403
2694.47, 0.474014
2695.87, 0.475320
2697.27, 0.475810
2698.67, 0.475646
2700.08, 0.475810
2701.49, 0.475483
2702.9, 0.473933
2704.31, 0.472219
2705.72, 0.470261
2707.13, 0.468384
2708.54, 0.466670
2709.96, 0.464712
2711.38, 0.461611
2712.8, 0.456960
2714.22, 0.453125
2715.64, 0.449371
2717.06, 0.445699
2718.49, 0.442680
2719.91, 0.440722
2721.34, 0.436234
2722.77, 0.431419
2724.2, 0.428318
2725.63, 0.423912
2727.07, 0.419098
2728.5, 0.415262
2729.94, 0.411264
2731.38, 0.407429
2732.82, 0.403512
2734.26, 0.399922
2735.7, 0.395678
2737.15, 0.391680
2738.59, 0.389150
2740.04, 0.385886
2741.49, 0.380827
2742.94, 0.375686
2744.39, 0.370954
2745.84, 0.366221
2747.3, 0.361488
2748.76, 0.356592
2750.21, 0.351941
2751.67, 0.347045
2753.14, 0.342067
2754.6, 0.338232
2756.06, 0.333173
2757.53, 0.326971
2759.0, 0.321259
2760.46, 0.315710
2761.94, 0.310243
2763.41, 0.304205
2764.88, 0.297595
2766.36, 0.291230
2767.83, 0.285029
2769.31, 0.278990
2770.79, 0.273278
2772.27, 0.267158
2773.76, 0.261528
2775.24, 0.256632
2776.73, 0.251491
2778.22, 0.246350
2779.71, 0.241373
2781.2, 0.236722
2782.69, 0.232152
2784.18, 0.227419
2785.68, 0.223013
2787.18, 0.218770
2788.68, 0.214445
2790.18, 0.210365
2791.68, 0.207101
2793.19, 0.204734
2794.69, 0.202368
2796.2, 0.200165
2797.71, 0.198370
2799.22, 0.196819
2800.73, 0.195514
2802.24, 0.194371
2803.76, 0.193066
2805.28, 0.191434
2806.8, 0.189720
2808.32, 0.188333
2809.84, 0.186538
2811.36, 0.184253
2812.89, 0.182131
2814.42, 0.179765
2815.94, 0.177154
2817.48, 0.174298
2819.01, 0.171197
2820.54, 0.168014
2822.08, 0.164261
2823.61, 0.160181
2825.15, 0.155856
2826.69, 0.151286
2828.23, 0.146798
2829.78, 0.142147
2831.32, 0.137088
2832.87, 0.131947
2834.42, 0.126398
2835.97, 0.121013
2837.52, 0.116198
2839.08, 0.111874
2840.63, 0.108038
2842.19, 0.104774
2843.75, 0.101837
2845.31, 0.0986540
2846.87, 0.0960430
2848.44, 0.0939220
2850.0, 0.0915550
2851.57, 0.0895150
2853.14, 0.0875570
2854.71, 0.0854350
2856.28, 0.0831500
2857.86, 0.0811100
2859.43, 0.0790700
2861.01, 0.0767860
2862.59, 0.0745010
2864.17, 0.0722160
2865.76, 0.0698500
2867.34, 0.0673200
2868.93, 0.0647090
2870.52, 0.0620980
2872.11, 0.0591600
2873.7, 0.0562220
2875.29, 0.0534480
2876.89, 0.0507550
2878.49, 0.0478990
2880.08, 0.0448800
2881.69, 0.0421870
2883.29, 0.0399020
2884.89, 0.0371280
2886.5, 0.0345170
2888.11, 0.0322320
2889.72, 0.0302740
2891.33, 0.0286420
2892.94, 0.0273360
2894.56, 0.0259490
2896.17, 0.0247250
2897.79, 0.0235820
2899.42, 0.0226850
2901.04, 0.0217060
2902.66, 0.0207260
2904.29, 0.0196660
2905.92, 0.0188500
2907.55, 0.0179520
2909.18, 0.0172180
2910.81, 0.0168100
2912.45, 0.0163200
2914.08, 0.0159120
2915.72, 0.0156670
2917.36, 0.0150960
2919.01, 0.0146880
2920.65, 0.0144430
2922.3, 0.0142800
2923.94, 0.0141170
2925.59, 0.0137090
2927.25, 0.0133010
2928.9, 0.0132190
2930.56, 0.0127300
2932.21, 0.0125660
2933.87, 0.0123220
2935.53, 0.0116690
2937.2, 0.0108530
2938.86, 0.0106080
2940.53, 0.0105260
2942.2, 0.00995500
2943.87, 0.00954700
2945.54, 0.00930200
2947.22, 0.00913900
2948.89, 0.00897600
2950.57, 0.00881300
2952.25, 0.00873100
2953.93, 0.00865000
2955.62, 0.00881300
2957.3, 0.00881300
2958.99, 0.00873100
2960.68, 0.00881300
2962.37, 0.00922100
2964.07, 0.0100370
2965.76, 0.0110980
2967.46, 0.0119950
2969.16, 0.0129740
2970.86, 0.0143620
2972.56, 0.0151780
2974.27, 0.0159940
2975.98, 0.0165650
2977.69, 0.0171360
2979.4, 0.0173810
2981.11, 0.0172180
2982.83, 0.0169730
2984.54, 0.0172180
2986.26, 0.0173810
2987.98, 0.0177070
2989.71, 0.0182780
2991.43, 0.0191760
2993.16, 0.0201550
2994.89, 0.0212160
2996.62, 0.0220320
2998.35, 0.0228480
3000.09, 0.0237460
3001.83, 0.0244800
3003.57, 0.0252140
3005.31, 0.0260300
3007.05, 0.0264380
3008.79, 0.0269280
3010.54, 0.0274180
3012.29, 0.0277440
3014.04, 0.0281520
3015.8, 0.0286420
3017.55, 0.0291310
3019.31, 0.0295390
3021.07, 0.0297020
3022.83, 0.0297840
3024.59, 0.0301100
3026.36, 0.0303550
3028.13, 0.0306000
3029.9, 0.0309260
3031.67, 0.0314160
3033.44, 0.0320690
3035.22, 0.0328030
3037.0, 0.0332930
3038.78, 0.0337010
3040.56, 0.0344350
3042.34, 0.0354960
3044.13, 0.0367200
3045.92, 0.0379440
3047.71, 0.0390860
3049.5, 0.0402290
3051.3, 0.0414530
3053.09, 0.0429220
3054.89, 0.0443900
3056.69, 0.0456140
3058.5, 0.0468380
3060.3, 0.0481440
3062.11, 0.0496940
3063.92, 0.0512450
3065.73, 0.0527950
3067.55, 0.0546720
3069.36, 0.0568750
3071.18, 0.0590780
3073.0, 0.0614450
3074.82, 0.0637300
3076.65, 0.0657700
3078.48, 0.0676460
3080.31, 0.0696050
3082.14, 0.0714820
3083.97, 0.0729500
3085.8, 0.0741740
3087.64, 0.0753980
3089.48, 0.0766220
3091.33, 0.0776020
3093.17, 0.0786620
3095.02, 0.0798050
3096.87, 0.0806210
3098.72, 0.0813550
3100.57, 0.0822530
3102.43, 0.0832320
3104.28, 0.0842110
3106.14, 0.0849460
3108.01, 0.0855980
3109.87, 0.0862510
3111.74, 0.0871490
3113.61, 0.0879650
3115.48, 0.0885360
3117.35, 0.0891890
3119.23, 0.0898420
3121.1, 0.0906580
3122.98, 0.0915550
3124.87, 0.0926160
3126.75, 0.0935140
3128.64, 0.0946560
3130.53, 0.0960430
3132.42, 0.0979200
3134.31, 0.100042
3136.21, 0.102408
3138.11, 0.104774
3140.01, 0.106733
3141.91, 0.108854
3143.82, 0.110976
3145.73, 0.113016
3147.64, 0.114648
3149.55, 0.115627
3151.46, 0.117096
3153.38, 0.118238
3155.3, 0.119054
3157.22, 0.119626
3159.14, 0.120197
3161.07, 0.120768
3163.0, 0.120931
3164.93, 0.120931
3166.86, 0.120931
3168.8, 0.121013
3170.74, 0.120931
3172.68, 0.120850
3174.62, 0.120768
3176.56, 0.120768
3178.51, 0.120768
3180.46, 0.120850
3182.42, 0.121176
3184.37, 0.121747
3186.33, 0.122237
3188.29, 0.122890
3190.25, 0.123869
3192.21, 0.125256
3194.18, 0.126806
3196.15, 0.128928
3198.12, 0.131131
3200.09, 0.133090
3202.07, 0.135456
3204.05, 0.137822
3206.03, 0.140026
3208.02, 0.141984
3210.0, 0.144024
3211.99, 0.146146
3213.98, 0.148186
3215.98, 0.150226
3217.97, 0.152674
3219.97, 0.155448
3221.97, 0.158304
3223.98, 0.161160
3225.98, 0.164179
3227.99, 0.166872
3230.0, 0.169483
3232.02, 0.172176
3234.03, 0.174706
3236.05, 0.176909
3238.07, 0.179112
3240.1, 0.180826
3242.12, 0.182294
3244.15, 0.183926
3246.18, 0.185477
3248.22, 0.187027
3250.25, 0.188251
3252.29, 0.189394
3254.33, 0.190618
3256.38, 0.191515
3258.43, 0.192413
3260.47, 0.193555
3262.53, 0.194616
3264.58, 0.195595
3266.64, 0.196819
3268.7, 0.198206
3270.76, 0.199594
3272.82, 0.200981
3274.89, 0.202450
3276.96, 0.204000
3279.04, 0.205469
3281.11, 0.207182
3283.19, 0.209222
3285.27, 0.211018
3287.35, 0.212976
3289.44, 0.215098
3291.53, 0.217382
3293.62, 0.219994
3295.71, 0.222442
3297.81, 0.224971
3299.91, 0.227419
3302.01, 0.230112
3304.11, 0.232642
3306.22, 0.235253
3308.33, 0.237538
3310.44, 0.239822
3312.56, 0.242352
3314.68, 0.244474
3316.8, 0.246514
3318.92, 0.248390
3321.05, 0.249778
3323.18, 0.251246
3325.31, 0.252634
3327.44, 0.254021
3329.58, 0.255490
3331.72, 0.256795
3333.86, 0.258019
3336.01, 0.259162
3338.16, 0.260304
3340.31, 0.261610
3342.46, 0.262915
3344.61, 0.264221
3346.77, 0.265690
3348.94, 0.267077
3351.1, 0.268382
3353.27, 0.269525
3355.44, 0.270994
3357.61, 0.272381
3359.79, 0.273850
3361.97, 0.275318
3364.15, 0.276542
3366.33, 0.277685
3368.52, 0.279154
3370.71, 0.280541
3372.9, 0.281602
3375.1, 0.282581
3377.3, 0.283886
3379.5, 0.285274
3381.71, 0.286416
3383.91, 0.287395
3386.12, 0.288456
3388.34, 0.289435
3390.55, 0.290659
3392.77, 0.291394
3394.99, 0.292291
3397.22, 0.293270
3399.45, 0.294005
3401.68, 0.294658
3403.91, 0.295637
3406.15, 0.296616
3408.39, 0.297432
3410.63, 0.298248
3412.87, 0.298901
3415.12, 0.299717
3417.37, 0.300696
3419.63, 0.301512
3421.88, 0.302491
3424.14, 0.303797
3426.41, 0.305021
3428.67, 0.306163
3430.94, 0.307469
3433.21, 0.308693
3435.49, 0.310080
3437.77, 0.311467
3440.05, 0.312528
3442.33, 0.313670
3444.62, 0.314976
3446.91, 0.316200
3449.2, 0.317342
3451.5, 0.318403
3453.8, 0.319382
3456.1, 0.320525
3458.41, 0.321830
3460.72, 0.323299
3463.03, 0.324523
3465.34, 0.325666
3467.66, 0.326890
3469.98, 0.328114
3472.31, 0.329501
3474.63, 0.330888
3476.96, 0.332357
3479.3, 0.333744
3481.64, 0.335131
3483.97, 0.336437
3486.32, 0.337579
3488.66, 0.338722
3491.01, 0.340027
3493.36, 0.341333
3495.72, 0.342638
3498.08, 0.344026
3500.44, 0.345086
3502.81, 0.345984
3505.18, 0.347045
3507.55, 0.348350
3509.92, 0.349493
3512.3, 0.350635
3514.68, 0.351451
3517.06, 0.352430
3519.45, 0.353491
3521.84, 0.354307
3524.24, 0.355042
3526.64, 0.355939
3529.04, 0.357082
3531.44, 0.357898
3533.85, 0.358714
3536.26, 0.359611
3538.67, 0.360346
3541.09, 0.360917
3543.51, 0.361570
3545.93, 0.362304
3548.36, 0.363202
3550.79, 0.363854
3553.22, 0.364507
3555.66, 0.365242
3558.1, 0.365976
3560.54, 0.366710
3562.99, 0.367445
3565.44, 0.368424
3567.9, 0.369240
3570.35, 0.369893
3572.81, 0.370627
3575.28, 0.371443
3577.75, 0.372504
3580.22, 0.373320
3582.69, 0.373973
3585.17, 0.374952
3587.65, 0.376013
3590.14, 0.376747
3592.62, 0.377645
3595.11, 0.378706
3597.61, 0.379603
3600.11, 0.380419
3602.61, 0.381317
3605.11, 0.382214
3607.62, 0.383112
3610.14, 0.384091
3612.65, 0.384826
3615.17, 0.385397
3617.69, 0.386131
3620.22, 0.386947
3622.75, 0.387600
3625.28, 0.388253
3627.82, 0.388824
3630.36, 0.389395
3632.9, 0.390048
3635.45, 0.390538
3638.0, 0.390864
3640.56, 0.391517
3643.12, 0.392251
3645.68, 0.392822
3648.24, 0.393475
3650.81, 0.394373
3653.39, 0.395189
3655.96, 0.396086
3658.54, 0.396739
3661.13, 0.397555
3663.71, 0.398534
3666.3, 0.399514
3668.9, 0.400574
3671.5, 0.401635
3674.1, 0.402778
3676.7, 0.403920
3679.31, 0.404981
3681.93, 0.405960
3684.54, 0.406858
3687.17, 0.407837
3689.79, 0.408653
3692.42, 0.409550
3695.05, 0.410530
3697.69, 0.411346
3700.32, 0.412080
3702.97, 0.412814
3705.61, 0.413549
3708.27, 0.414120
3710.92, 0.414854
3713.58, 0.415834
3716.24, 0.416650
3718.91, 0.417221
3721.58, 0.417792
3724.25, 0.418363
3726.93, 0.419261
3729.61, 0.419832
3732.29, 0.420403
3734.98, 0.420893
3737.67, 0.421464
3740.37, 0.421954
3743.07, 0.422443
3745.78, 0.423096
3748.49, 0.423830
3751.2, 0.424483
3753.91, 0.425054
3756.63, 0.425707
3759.36, 0.426278
3762.09, 0.426850
3764.82, 0.427421
3767.55, 0.427829
3770.29, 0.428318
3773.04, 0.428890
3775.78, 0.429379
3778.54, 0.429787
3781.29, 0.430114
3784.05, 0.430522
3786.82, 0.430848
3789.59, 0.431174
3792.36, 0.431746
3795.13, 0.432235
3797.92, 0.432480
3800.7, 0.432725
3803.49, 0.433051
3806.28, 0.433459
3809.08, 0.433786
3811.88, 0.434112
3814.68, 0.434438
3817.49, 0.434765
3820.31, 0.435010
3823.12, 0.435418
3825.94, 0.435744
3828.77, 0.435907
3831.6, 0.436070
3834.43, 0.436478
3837.27, 0.436560
3840.11, 0.436805
3842.96, 0.436968
3845.81, 0.436968
3848.67, 0.437131
3851.53, 0.437376
3854.39, 0.437458
3857.26, 0.437702
3860.13, 0.437866
3863.01, 0.437947
3865.89, 0.438029
3868.77, 0.438110
3871.66, 0.438110
3874.55, 0.438110
3877.45, 0.438110
3880.35, 0.438192
3883.26, 0.438355
3886.17, 0.438437
3889.09, 0.438518
3892.01, 0.438518
3894.93, 0.438600
3897.86, 0.438763
3900.79, 0.438763
3903.73, 0.438682
3906.67, 0.438763
3909.62, 0.438926
3912.57, 0.438763
3915.52, 0.438682
3918.48, 0.438763
3921.45, 0.438926
3924.42, 0.439090
3927.39, 0.439008
3930.37, 0.439008
3933.35, 0.438926
3936.34, 0.438845
3939.33, 0.438763
3942.32, 0.438845
3945.32, 0.438763
3948.33, 0.438600
3951.34, 0.438274
3954.35, 0.438110
3957.37, 0.438029
3960.39, 0.437702
3963.42, 0.437458
3966.45, 0.437213
3969.49, 0.436723
3972.53, 0.436070
3975.58, 0.435499
3978.63, 0.435010
3981.68, 0.433867
3984.75, 0.432154
3987.81, 0.430195
3990.88, 0.427666
3993.95, 0.424238
3997.03, 0.420485
4000.12, 0.417874
4003.21, 0.418363
4006.3, 0.421709
4009.4, 0.425870
4012.5, 0.429298
4015.61, 0.431582
4018.72, 0.433133
4021.84, 0.434112
4024.96, 0.434683
4028.09, 0.434928
4031.22, 0.434928
4034.36, 0.434928
4037.5, 0.434765
4040.65, 0.434602
4043.8, 0.434357
4046.96, 0.434275
4050.12, 0.434112
4053.29, 0.433704
4056.46, 0.433133
4059.64, 0.432725
4062.82, 0.432317
4066.0, 0.431909
4069.19, 0.431338
4072.39, 0.430685
4075.59, 0.430277
4078.8, 0.429787
4082.01, 0.429298
4085.23, 0.428726
4088.45, 0.428237
4091.68, 0.427829
4094.91, 0.427421
4098.15, 0.427094
4101.39, 0.426686
4104.63, 0.426278
4107.89, 0.426034
4111.14, 0.425626
4114.41, 0.425218
4117.67, 0.424728
4120.95, 0.424238
4124.23, 0.423749
4127.51, 0.423259
4130.8, 0.422525
4134.09, 0.422035
4137.39, 0.421464
4140.7, 0.420811
4144.01, 0.420158
4147.32, 0.419342
4150.64, 0.418363
4153.97, 0.417710
4157.3, 0.416976
4160.64, 0.416160
4163.98, 0.415099
4167.33, 0.414202
4170.68, 0.413222
4174.04, 0.412162
4177.4, 0.410938
4180.77, 0.409795
4184.14, 0.408653
4187.52, 0.407510
4190.91, 0.406286
4194.3, 0.405062
4197.69, 0.403757
4201.1, 0.402533
4204.5, 0.401309
4207.92, 0.399922
4211.34, 0.398534
4214.76, 0.397229
4218.19, 0.395842
4221.62, 0.394373
4225.06, 0.392904
4228.51, 0.391435
4231.96, 0.389640
4235.42, 0.387926
4238.88, 0.386213
4242.35, 0.384499
4245.83, 0.382786
4249.31, 0.380909
4252.79, 0.378950
4256.28, 0.376910
4259.78, 0.375034
4263.29, 0.373320
4266.79, 0.371606
4270.31, 0.369974
4273.83, 0.368424
4277.35, 0.366710
4280.89, 0.365078
4284.42, 0.363691
4287.97, 0.362386
4291.52, 0.361243
4295.07, 0.360101
4298.63, 0.359122
4302.2, 0.358469
4305.78, 0.357979
4309.35, 0.357734
4312.94, 0.357653
4316.53, 0.357734
4320.13, 0.358061
4323.73, 0.358550
4327.34, 0.358795
4330.96, 0.359040
4334.58, 0.359285
4338.21, 0.359530
4341.84, 0.359448
4345.48, 0.359122
4349.12, 0.358714
4352.77, 0.358306
4356.43, 0.357979
4360.1, 0.357082
4363.76, 0.356102
4367.44, 0.355205
4371.12, 0.354389
4374.81, 0.353410
4378.51, 0.352430
4382.21, 0.351370
4385.92, 0.350390
4389.63, 0.349330
4393.35, 0.348269
4397.08, 0.347126
4400.81, 0.346066
4404.55, 0.344760
4408.29, 0.343454
4412.04, 0.341986
4415.8, 0.340680
4419.57, 0.339293
4423.34, 0.337742
4427.12, 0.335947
4430.9, 0.333989
4434.69, 0.331786
4438.49, 0.329011
4442.29, 0.325421
4446.1, 0.321422
4449.92, 0.317261
4453.74, 0.312936
4457.57, 0.309019
4461.41, 0.305510
4465.25, 0.302818
4469.1, 0.301267
4472.95, 0.300533
4476.82, 0.300043
4480.69, 0.299717
4484.56, 0.298982
4488.44, 0.297758
4492.33, 0.296126
4496.23, 0.294250
4500.13, 0.291883
4504.04, 0.288946
4507.96, 0.285682
4511.88, 0.281846
4515.81, 0.277766
4519.75, 0.273115
4523.69, 0.267974
4527.65, 0.262507
4531.6, 0.256958
4535.57, 0.251736
4539.54, 0.246840
4543.52, 0.242434
4547.5, 0.239170
4551.5, 0.236966
4555.5, 0.236069
4559.5, 0.236477
4563.52, 0.238272
4567.54, 0.241046
4571.56, 0.243902
4575.6, 0.246432
4579.64, 0.248309
4583.69, 0.249451
4587.75, 0.249941
4591.81, 0.249778
4595.88, 0.249043
4599.96, 0.247901
4604.04, 0.246432
4608.14, 0.244718
4612.24, 0.243005
4616.34, 0.241210
4620.46, 0.239578
4624.58, 0.238354
4628.71, 0.237619
4632.84, 0.237130
4636.99, 0.237048
4641.14, 0.237048
4645.3, 0.237048
4649.47, 0.236722
4653.64, 0.236069
4657.82, 0.234763
4662.01, 0.232723
4666.21, 0.229704
4670.41, 0.226195
4674.62, 0.222197
4678.84, 0.217872
4683.07, 0.213792
4687.3, 0.210038
4691.54, 0.206693
4695.79, 0.203755
4700.05, 0.201226
4704.31, 0.198696
4708.59, 0.196493
4712.87, 0.195106
4717.15, 0.194698
4721.45, 0.195432
4725.76, 0.197064
4730.07, 0.199267
4734.39, 0.201797
4738.72, 0.203510
4743.05, 0.204000
4747.39, 0.202939
4751.75, 0.200410
4756.1, 0.196982
4760.47, 0.193066
4764.85, 0.188986
4769.23, 0.184498
4773.62, 0.179928
4778.02, 0.175930
4782.43, 0.173400
4786.85, 0.172421
4791.27, 0.173074
4795.7, 0.174787
4800.14, 0.176827
4804.59, 0.177970
4809.05, 0.177643
4813.51, 0.175603
4817.99, 0.172094
4822.47, 0.167688
4826.96, 0.162629
4831.46, 0.157162
4835.96, 0.151613
4840.48, 0.146064
4845.0, 0.140678
4849.54, 0.135701
4854.08, 0.131050
4858.63, 0.126562
4863.18, 0.121910
4867.75, 0.117096
4872.33, 0.111955
4876.91, 0.106978
4881.5, 0.102653
4886.1, 0.0995520
4890.71, 0.0984910
4895.33, 0.100286
4899.96, 0.105101
4904.59, 0.112771
4909.24, 0.122563
4913.89, 0.133661
4918.55, 0.145003
4923.22, 0.155448
4927.9, 0.164587
4932.59, 0.172584
4937.29, 0.178786
4942.0, 0.183029
4946.71, 0.185232
4951.44, 0.185477
4956.17, 0.184090
4960.91, 0.181478
4965.67, 0.178541
4970.43, 0.175195
4975.2, 0.170789
4979.98, 0.164995
4984.76, 0.158059
4989.56, 0.150144
4994.37, 0.141413
4999.18, 0.132437
5004.01, 0.123542
5008.84, 0.115464
5013.69, 0.108691
5018.54, 0.104040
5023.4, 0.102000
5028.28, 0.102734
5033.16, 0.106080
5038.05, 0.112282
5042.95, 0.120523
5047.86, 0.130478
5052.78, 0.141739
5057.71, 0.153571
5062.65, 0.165811
5067.6, 0.178133
5072.56, 0.190046
5077.53, 0.201307
5082.5, 0.212486
5087.49, 0.223094
5092.49, 0.233213
5097.5, 0.242923
5102.51, 0.252062
5107.54, 0.260630
5112.58, 0.268872
5117.62, 0.276542
5122.68, 0.283642
5127.75, 0.290333
5132.82, 0.296616
5137.91, 0.302410
5143.01, 0.307958
5148.12, 0.313181
5153.23, 0.317832
5158.36, 0.322238
5163.5, 0.326482
5168.65, 0.330398
5173.81, 0.334152
5178.98, 0.337661
5184.15, 0.340843
5189.34, 0.343944
5194.54, 0.346882
5199.75, 0.349574
5204.98, 0.352186
5210.21, 0.354797
5215.45, 0.357408
5220.7, 0.359366
5225.96, 0.361488
5231.23, 0.363365
5236.52, 0.365242
5241.81, 0.367118
5247.12, 0.368750
5252.44, 0.370056
5257.76, 0.371280
5263.1, 0.372341
5268.45, 0.373402
5273.81, 0.374136
5279.18, 0.374870
5284.56, 0.375523
5289.95, 0.376176
5295.36, 0.376502
5300.77, 0.376829
5306.2, 0.377155
5311.63, 0.377318
5317.08, 0.377482
5322.54, 0.377645
5328.01, 0.377563
5333.49, 0.377563
5338.98, 0.377400
5344.49, 0.377482
5350.0, 0.377645
5355.53, 0.377074
5361.07, 0.376339
5366.62, 0.376013
5372.18, 0.375605
5377.75, 0.375278
5383.34, 0.374707
5388.93, 0.374218
5394.54, 0.373728
5400.16, 0.373238
5405.79, 0.372667
5411.44, 0.372096
5417.09, 0.372014
5422.76, 0.371851
5428.43, 0.370382
5434.12, 0.369322
5439.83, 0.368506
5445.54, 0.367526
5451.26, 0.366466
5457.0, 0.365731
5462.75, 0.364915
5468.52, 0.363691
5474.29, 0.362549
5480.08, 0.361406
5485.88, 0.359693
5491.69, 0.358387
5497.51, 0.356837
5503.35, 0.355368
5509.2, 0.353899
5515.06, 0.352512
5520.93, 0.350880
5526.82, 0.349166
5532.71, 0.347290
5538.63, 0.345494
5544.55, 0.343699
5550.49, 0.341986
5556.44, 0.340027
5562.4, 0.338314
5568.37, 0.336845
5574.36, 0.335947
5580.36, 0.334805
5586.37, 0.332928
5592.4, 0.331459
5598.44, 0.330562
5604.49, 0.329582
5610.56, 0.328522
5616.63, 0.327787
5622.73, 0.326808
5628.83, 0.325747
5634.95, 0.325339
5641.08, 0.325094
5647.23, 0.323789
5653.39, 0.322402
5659.56, 0.321014
5665.74, 0.319219
5671.94, 0.318158
5678.15, 0.316363
5684.38, 0.314242
5690.62, 0.312610
5696.87, 0.310733
5703.14, 0.309346
5709.42, 0.308611
5715.72, 0.307224
5722.03, 0.305674
5728.35, 0.304205
5734.69, 0.302981
5741.03, 0.301838
5747.4, 0.300696
5753.78, 0.298819
5760.17, 0.297922
5766.58, 0.297269
5773.0, 0.294576
5779.44, 0.291965
5785.88, 0.289762
5792.35, 0.287558
5798.83, 0.285682
5805.32, 0.283805
5811.83, 0.282336
5818.35, 0.281438
5824.89, 0.279806
5831.45, 0.277766
5838.01, 0.276379
5844.59, 0.275890
5851.19, 0.276379
5857.8, 0.277195
5864.43, 0.278011
5871.07, 0.278338
5877.73, 0.279562
5884.4, 0.278664
5891.09, 0.277114
5897.79, 0.276053
5904.5, 0.273442
5911.23, 0.271320
5917.98, 0.269606
5924.75, 0.267566
5931.53, 0.266261
5938.32, 0.264139
5945.13, 0.260059
5951.96, 0.256387
5958.8, 0.252878
5965.65, 0.249696
5972.53, 0.245861
5979.42, 0.241862
5986.32, 0.238680
5993.24, 0.234763
6000.18, 0.231010
6007.13, 0.228154
6014.1, 0.225706
6021.08, 0.222931
6028.09, 0.220402
6035.1, 0.218035
6042.14, 0.216730
6049.19, 0.214934
6056.25, 0.210446
6063.34, 0.206285
6070.44, 0.202450
6077.55, 0.197554
6084.69, 0.193066
6091.84, 0.189475
6099.0, 0.186782
6106.19, 0.185966
6113.39, 0.187354
6120.61, 0.189394
6127.84, 0.192739
6135.09, 0.197146
6142.36, 0.201389
6149.65, 0.204490
6156.95, 0.207101
6164.27, 0.208814
6171.61, 0.209957
6178.97, 0.211507
6186.34, 0.212894
6193.73, 0.212976
6201.14, 0.213139
6208.57, 0.213384
6216.01, 0.213629
6223.47, 0.213466
6230.95, 0.212976
6238.45, 0.212160
6245.97, 0.211181
6253.5, 0.210120
6261.06, 0.208896
6268.63, 0.207590
6276.21, 0.206203
6283.82, 0.204816
6291.45, 0.203510
6299.1, 0.202368
6306.76, 0.201552
6314.44, 0.200736
6322.14, 0.200410
6329.86, 0.200491
6337.6, 0.201307
6345.35, 0.202205
6353.13, 0.202205
6360.92, 0.202613
6368.74, 0.203592
6376.57, 0.203510
6384.43, 0.203021
6392.3, 0.202694
6400.19, 0.202368
6408.1, 0.202776
6416.03, 0.202450
6423.98, 0.200410
6431.95, 0.199104
6439.94, 0.197880
6447.95, 0.197146
6455.98, 0.196738
6464.03, 0.196493
6472.1, 0.196901
6480.19, 0.197472
6488.31, 0.198288
6496.44, 0.198533
6504.59, 0.197798
6512.76, 0.197880
6520.95, 0.198288
6529.16, 0.197962
6537.4, 0.197472
6545.65, 0.197309
6553.92, 0.196901
6562.22, 0.196166
6570.54, 0.195595
6578.88, 0.194045
6587.23, 0.192168
6595.61, 0.190536
6604.02, 0.188496
6612.44, 0.186619
6620.89, 0.184987
6629.35, 0.183845
6637.84, 0.182050
6646.35, 0.179030
6654.88, 0.176419
6663.44, 0.174298
6672.01, 0.172094
6680.61, 0.169891
6689.23, 0.167035
6697.88, 0.164424
6706.54, 0.161976
6715.23, 0.159202
6723.94, 0.156264
6732.67, 0.153082
6741.42, 0.149654
6750.2, 0.146309
6759.0, 0.143045
6767.82, 0.140026
6776.67, 0.137251
6785.54, 0.135048
6794.44, 0.133171
6803.35, 0.131458
6812.29, 0.130070
6821.26, 0.129254
6830.24, 0.128520
6839.25, 0.127786
6848.29, 0.127296
6857.35, 0.127296
6866.43, 0.127214
6875.54, 0.126480
6884.67, 0.125990
6893.82, 0.125746
6903.0, 0.125664
6912.2, 0.125582
6921.43, 0.125256
6930.69, 0.125093
6939.96, 0.124766
6949.27, 0.124603
6958.59, 0.124522
6967.95, 0.123461
6977.33, 0.122400
6986.73, 0.121666
6996.16, 0.120850
7005.61, 0.119789
7015.09, 0.118891
7024.6, 0.118157
7034.13, 0.117504
7043.69, 0.116933
7053.27, 0.115790
7062.88, 0.114566
7072.52, 0.113342
7082.18, 0.112200
7091.87, 0.110976
7101.58, 0.109997
7111.32, 0.108936
7121.09, 0.107875
7130.88, 0.106896
7140.71, 0.106162
7150.56, 0.105264
7160.43, 0.104285
7170.33, 0.103387
7180.27, 0.102326
7190.23, 0.101347
7200.21, 0.100776
7210.23, 0.100042
7220.27, 0.0992260
7230.34, 0.0984100
7240.44, 0.0975940
7250.56, 0.0969410
7260.72, 0.0962880
7270.9, 0.0954720
7281.12, 0.0945740
7291.36, 0.0935140
7301.63, 0.0925340
7311.93, 0.0914740
7322.25, 0.0903310
7332.61, 0.0891070
7343.0, 0.0879650
7353.41, 0.0866590
7363.86, 0.0855980
7374.33, 0.0844560
7384.83, 0.0833140
7395.37, 0.0820080
7405.93, 0.0811100
7416.53, 0.0804580
7427.15, 0.0798860
7437.81, 0.0791520
7448.5, 0.0783360
7459.22, 0.0773570
7469.96, 0.0763780
7480.74, 0.0753170
7491.55, 0.0741740
7502.39, 0.0728690
7513.27, 0.0715630
7524.17, 0.0701760
7535.11, 0.0687890
7546.08, 0.0672380
7557.08, 0.0660140
7568.11, 0.0646270
7579.17, 0.0632400
7590.27, 0.0620980
7601.4, 0.0611180
7612.56, 0.0601390
7623.76, 0.0593230
7634.98, 0.0584260
7646.24, 0.0576100
7657.54, 0.0567940
7668.87, 0.0559780
7680.23, 0.0549980
7691.62, 0.0538560
7703.05, 0.0523870
7714.51, 0.0508370
7726.01, 0.0489600
7737.54, 0.0470020
7749.11, 0.0449620
7760.71, 0.0430030
7772.35, 0.0408820
7784.02, 0.0390050
7795.72, 0.0369650
7807.46, 0.0350060
7819.23, 0.0329660
7831.04, 0.0312530
7842.89, 0.0297840
7854.77, 0.0285600
7866.69, 0.0270100
7878.65, 0.0256220
7890.64, 0.0241540
7902.67, 0.0229300
7914.74, 0.0219500
7926.84, 0.0212160
7938.98, 0.0202370
7951.16, 0.0191760
7963.37, 0.0184420
7975.62, 0.0178700
7987.91, 0.0172990
8000.24, 0.0168100
8012.6, 0.0165650
8025.01, 0.0163200
8037.45, 0.0159940
8049.93, 0.0158300
8062.45, 0.0156670
8075.01, 0.0155860
8087.61, 0.0153410
8100.24, 0.0154220
8112.91, 0.0156670
8125.63, 0.0159940
8138.39, 0.0161570
8151.18, 0.0163200
8164.02, 0.0165650
8176.9, 0.0169730
8189.81, 0.0174620
8202.77, 0.0177890
8215.77, 0.0179520
8228.82, 0.0186050
8241.9, 0.0191760
8255.02, 0.0196660
8268.19, 0.0200740
8281.39, 0.0204000
8294.65, 0.0205630
8307.94, 0.0207260
8321.28, 0.0207260
8334.66, 0.0205630
8348.08, 0.0201550
8361.54, 0.0197470
8375.05, 0.0191760
8388.6, 0.0186050
8402.2, 0.0180340
8415.84, 0.0173810
8429.52, 0.0168910
8443.25, 0.0165650
8457.02, 0.0163200
8470.84, 0.0162380
8484.7, 0.0163200
8498.61, 0.0163200
8512.57, 0.0164830
8526.57, 0.0168910
8540.62, 0.0169730
8554.71, 0.0172180
8568.85, 0.0178700
8583.04, 0.0184420
8597.27, 0.0187680
8611.55, 0.0193390
8625.88, 0.0199100
8640.26, 0.0206450
8654.68, 0.0212980
8669.16, 0.0219500
8683.68, 0.0225220
8698.25, 0.0233380
8712.87, 0.0239900
8727.53, 0.0245620
8742.25, 0.0253780
8757.02, 0.0261120
8771.83, 0.0265200
8786.7, 0.0266830
8801.62, 0.0266020
8816.59, 0.0266020
8831.61, 0.0266020
8846.68, 0.0271730
8861.8, 0.0279890
8876.97, 0.0293760
8892.2, 0.0310080
8907.48, 0.0329660
8922.81, 0.0341090
8938.2, 0.0344350
8953.63, 0.0343540
8969.13, 0.0341900
8984.67, 0.0338640
9000.27, 0.0336190
9015.92, 0.0332930
9031.63, 0.0330480
9047.39, 0.0328030
9063.21, 0.0327220
9079.08, 0.0323950
9095.01, 0.0322320
9111.0, 0.0315790
9127.04, 0.0307630
9143.13, 0.0295390
9159.28, 0.0282340
9175.49, 0.0271730
9191.76, 0.0270100
9208.09, 0.0278260
9224.47, 0.0294580
9240.92, 0.0303550
9257.42, 0.0308450
9273.98, 0.0309260
9290.6, 0.0305180
9307.28, 0.0298660
9324.02, 0.0288860
9340.82, 0.0274990
9357.68, 0.0255410
9374.6, 0.0231740
9391.58, 0.0208080
9408.62, 0.0182780
9425.73, 0.0160750
9442.9, 0.0144430
9460.13, 0.0128930
9477.42, 0.0110160
9494.78, 0.00971000
9512.2, 0.00897600
9529.69, 0.00922100
9547.24, 0.0106080
9564.86, 0.0121580
9582.54, 0.0140350
9600.28, 0.0165650
9618.1, 0.0186050
9635.97, 0.0204820
9653.92, 0.0219500
9671.93, 0.0230110
9690.01, 0.0236640
9708.16, 0.0243170
9726.37, 0.0253780
9744.65, 0.0261120
9763.0, 0.0265200
9781.43, 0.0271730
9799.92, 0.0279070
9818.48, 0.0283150
9837.1, 0.0279070
9855.8, 0.0261940
9874.58, 0.0239900
9893.42, 0.0236640
9912.34, 0.0255410
9931.33, 0.0294580
9950.39, 0.0357410
9969.52, 0.0425140
9988.74, 0.0484700
10008.0, 0.0536930
10027.4, 0.0585070
10046.8, 0.0629950
10066.3, 0.0665860
10085.9, 0.0687890
10105.6, 0.0715630
10125.3, 0.0754800
10145.1, 0.0783360
10165.0, 0.0802130
10185.0, 0.0818450
10205.0, 0.0832320
10225.2, 0.0842110
10245.4, 0.0849460
10265.7, 0.0856800
10286.0, 0.0861700
10306.5, 0.0865780
10327.0, 0.0868220
10347.6, 0.0869860
10368.3, 0.0871490
10389.1, 0.0873940
10409.9, 0.0873940
10430.9, 0.0873940
10451.9, 0.0874750
10473.0, 0.0874750
10494.2, 0.0877200
10515.5, 0.0880460
10536.9, 0.0881280
10558.4, 0.0884540
10579.9, 0.0890260
10601.5, 0.0894340
10623.3, 0.0901680
10645.1, 0.0909840
10667.0, 0.0917180
10689.0, 0.0922900
10711.1, 0.0929420
10733.2, 0.0931870
10755.5, 0.0932690
10777.9, 0.0928610
10800.3, 0.0922080
10822.9, 0.0918000
10845.5, 0.0913920
10868.2, 0.0909020
10891.1, 0.0904130
10914.0, 0.0896780
10937.0, 0.0886990
10960.2, 0.0875570
10983.4, 0.0865780
11006.7, 0.0852720
11030.1, 0.0838030
11053.6, 0.0827420
11077.3, 0.0819260
11101.0, 0.0807840
11124.8, 0.0796420
11148.7, 0.0786620
11172.7, 0.0779280
11196.9, 0.0771120
11221.1, 0.0762140
11245.4, 0.0749090
11269.9, 0.0739300
11294.4, 0.0727870
11319.1, 0.0718080
11343.9, 0.0709100
11368.8, 0.0704210
11393.7, 0.0698500
11418.8, 0.0691970
11444.0, 0.0687070
11469.4, 0.0681360
11494.8, 0.0676460
11520.3, 0.0674830
11546.0, 0.0674830
11571.8, 0.0676460
11597.7, 0.0674020
11623.7, 0.0674020
11649.8, 0.0679730
11676.0, 0.0685440
11702.4, 0.0689520
11728.9, 0.0696860
11755.5, 0.0702580
11782.2, 0.0702580
11809.0, 0.0700130
11836.0, 0.0706660
11863.0, 0.0709920
11890.3, 0.0709920
11917.6, 0.0709920
11945.0, 0.0708290
11972.6, 0.0705020
12000.4, 0.0699310
12028.2, 0.0691970
12056.2, 0.0682990
12084.3, 0.0672380
12112.5, 0.0662590
12140.9, 0.0650350
12169.4, 0.0641380
12198.0, 0.0629140
12226.8, 0.0615260
12255.7, 0.0604660
12284.7, 0.0593230
12313.9, 0.0579360
12343.2, 0.0570380
12372.7, 0.0562220
12402.3, 0.0547540
12432.0, 0.0535300
12461.9, 0.0525500
12491.9, 0.0517340
12522.1, 0.0505920
12552.4, 0.0490420
12582.9, 0.0478180
12613.5, 0.0465940
12644.3, 0.0453700
12675.2, 0.0441460
12706.3, 0.0432480
12737.5, 0.0425950
12768.9, 0.0415340
12800.4, 0.0404740
12832.1, 0.0395760
12863.9, 0.0380260
12895.9, 0.0368020
12928.1, 0.0361490
12960.4, 0.0354140
12992.9, 0.0341090
13025.5, 0.0330480
13058.3, 0.0322320
13091.3, 0.0316610
13124.4, 0.0306820
13157.8, 0.0292940
13191.2, 0.0284780
13224.9, 0.0276620
13258.7, 0.0264380
13292.7, 0.0252140
13326.9, 0.0239090
13361.2, 0.0227660
13395.7, 0.0220320
13430.4, 0.0212160
13465.3, 0.0200740
13500.4, 0.0187680
13535.7, 0.0176260
13571.1, 0.0162380
13606.7, 0.0153410
13642.5, 0.0147700
13678.5, 0.0136270
13714.7, 0.0127300
13751.1, 0.0120770
13787.6, 0.0107710
13824.4, 0.00987400
13861.4, 0.00954700
13898.5, 0.00881300
13935.9, 0.00807800
13973.5, 0.00742600
14011.2, 0.00734400
14049.2, 0.00685400
14087.4, 0.00620200
14125.8, 0.00554900
14164.3, 0.00505900
14203.2, 0.00481400
14242.2, 0.00497800
14281.4, 0.00481400
14320.9, 0.00465100
14360.5, 0.00416200
14400.4, 0.00424300
14440.5, 0.00416200
14480.9, 0.00440600
14521.4, 0.00432500
14562.2, 0.00432500
14603.3, 0.00424300
14644.5, 0.00432500
14686.0, 0.00440600
14727.7, 0.00448800
14769.7, 0.00440600
14811.9, 0.00481400
14854.3, 0.00448800
14897.0, 0.00481400
14939.9, 0.00538600
14983.1, 0.00514100
15026.5, 0.00530400
15070.2, 0.00563000
15114.2, 0.00473300
15158.3, 0.00424300
15202.8, 0.00448800
15247.5, 0.00522200
15292.5, 0.00530400
15337.7, 0.00489600
15383.2, 0.00457000
15429.0, 0.00489600
15475.1, 0.00546700
15521.4, 0.00628300
15568.0, 0.00661000
15614.9, 0.00750700
15662.1, 0.00946600
15709.6, 0.0110160
15757.3, 0.0115060
15805.4, 0.0116690
15853.7, 0.0119950
15902.3, 0.0120770
15951.2, 0.0110160
16000.5, 0.0108530
16050.0, 0.0108530
16099.8, 0.0107710
16150.0, 0.0106080
16200.5, 0.00995500
16251.3, 0.00889400
16302.4, 0.00791500
16353.8, 0.00669100
16405.5, 0.00644600
16457.6, 0.00628300
16510.0, 0.00644600
16562.8, 0.00669100
16615.9, 0.00677300
16669.3, 0.00571200
16723.1, 0.00489600
16777.2, 0.00465100
16831.7, 0.00522200
16886.5, 0.00587500
16941.7, 0.00546700
16997.2, 0.00448800
17053.1, 0.00432500
17109.4, 0.00457000
17166.1, 0.00457000
17223.1, 0.00408000
17280.5, 0.00489600
17338.3, 0.00522200
17396.5, 0.00546700
17455.1, 0.00554900
17514.0, 0.00554900
17573.4, 0.00612000
17633.2, 0.00644600
17693.4, 0.00579400
17754.0, 0.00628300
17815.0, 0.00734400
17876.4, 0.00791500
17938.3, 0.00816000
18000.5, 0.00873100
18063.3, 0.00905800
18126.4, 0.00995500
18190.0, 0.0117500
18254.1, 0.0136270
18318.6, 0.0135460
18383.5, 0.0137900
18449.0, 0.0149330
18514.9, 0.0150140
18581.2, 0.0152590
18648.0, 0.0168100
18715.4, 0.0176260
18783.2, 0.0164020
18851.5, 0.0156670
18920.3, 0.0171360
18989.6, 0.0172180
19059.4, 0.0177070
19129.7, 0.0183600
19200.6, 0.0192580
19272.0, 0.0198290
19343.9, 0.0202370
19416.3, 0.0187680
19489.3, 0.0186050
19562.8, 0.0192580
19637.0, 0.0196660
19711.6, 0.0204000
19786.8, 0.0197470
19862.6, 0.0188500
19939.0, 0.0190130
20016.0, 0.0203180
20093.6, 0.0198290
20171.8, 0.0165650
20250.6, 0.0137900
20330.0, 0.0117500
20410.0, 0.0109340
20490.7, 0.0123220
20572.0, 0.0142800
20654.0, 0.0157490
20736.6, 0.0173810
20819.9, 0.0187680
20903.8, 0.0199920
20988.5, 0.0209710
21073.8, 0.0226850
21159.8, 0.0245620
21246.5, 0.0261120
21334.0, 0.0274180
21422.1, 0.0301920
21511.0, 0.0311710
21600.7, 0.0328030
21691.0, 0.0328850
21782.1, 0.0307630
21874.0, 0.0283150
21966.7, 0.0266020
22060.2, 0.0243170
22154.5, 0.0224400
22249.6, 0.0190130
22345.5, 0.0179520
22442.2, 0.0183600
22539.8, 0.0194210
22638.2, 0.0212160
22737.5, 0.0255410
22837.7, 0.0308450
22938.7, 0.0329660
23040.7, 0.0312530
23143.5, 0.0289680
23247.3, 0.0281520
23352.1, 0.0283970
23457.7, 0.0267650
23564.4, 0.0310080
23672.0, 0.0340270
23780.5, 0.0358220
23890.1, 0.0380260
24000.7, 0.0356590
24112.3, 0.0291310
24225.0, 0.0288050
24338.7, 0.0312530
24453.5, 0.0283970
24569.4, 0.0259490
24686.4, 0.0274180
24804.5, 0.0275810
24923.8, 0.0306000
