Database of Origin, USGS Spectral Database
Sample Description, See USGS database for additional info
Date Added,2016-08-10 02:56:51.819425

Data ID,USGS_heu04          
Sample ID, heulandite_nmnh84534.9855
Mineral Name, heulandite
Material Class,Tectosilicate

Wavelength
1499.61, 0.314604
1500.04, 0.314425
1500.48, 0.313887
1500.91, 0.313946
1501.35, 0.313647
1501.78, 0.313767
1502.22, 0.314186
1502.65, 0.314006
1503.09, 0.314006
1503.53, 0.313468
1503.96, 0.313289
1504.4, 0.313468
1504.83, 0.313468
1505.27, 0.313588
1505.71, 0.313229
1506.15, 0.313049
1506.58, 0.313348
1507.02, 0.312810
1507.46, 0.312392
1507.9, 0.312870
1508.34, 0.312930
1508.78, 0.312451
1509.21, 0.312033
1509.66, 0.312392
1510.09, 0.313109
1510.53, 0.312990
1510.97, 0.312750
1511.42, 0.313049
1511.86, 0.313169
1512.3, 0.313289
1512.74, 0.313169
1513.18, 0.313348
1513.62, 0.313528
1514.06, 0.313468
1514.51, 0.312750
1514.95, 0.312511
1515.39, 0.313109
1515.83, 0.313528
1516.28, 0.313767
1516.72, 0.313647
1517.16, 0.313946
1517.61, 0.314365
1518.05, 0.314305
1518.5, 0.313946
1518.94, 0.313946
1519.39, 0.314186
1519.83, 0.314604
1520.28, 0.314724
1520.73, 0.314186
1521.17, 0.314365
1521.62, 0.315023
1522.07, 0.315142
1522.51, 0.314843
1522.96, 0.314724
1523.41, 0.314724
1523.85, 0.315322
1524.3, 0.315740
1524.75, 0.315800
1525.2, 0.315501
1525.65, 0.315382
1526.1, 0.315501
1526.55, 0.315441
1527.0, 0.316039
1527.45, 0.316518
1527.9, 0.316637
1528.35, 0.317235
1528.8, 0.317116
1529.25, 0.316877
1529.7, 0.317594
1530.15, 0.317475
1530.6, 0.317534
1531.05, 0.317475
1531.51, 0.317116
1531.96, 0.317056
1532.41, 0.317295
1532.87, 0.317833
1533.32, 0.318252
1533.77, 0.318431
1534.23, 0.318671
1534.68, 0.318970
1535.14, 0.319508
1535.59, 0.319687
1536.05, 0.319687
1536.5, 0.319807
1536.96, 0.319568
1537.41, 0.319747
1537.87, 0.320405
1538.32, 0.321063
1538.78, 0.320704
1539.24, 0.320764
1539.7, 0.320644
1540.15, 0.320943
1540.61, 0.321840
1541.07, 0.322079
1541.53, 0.321959
1541.98, 0.321840
1542.44, 0.322019
1542.9, 0.322617
1543.36, 0.322976
1543.82, 0.323335
1544.28, 0.323514
1544.74, 0.323574
1545.2, 0.323514
1545.66, 0.323634
1546.12, 0.323873
1546.59, 0.323753
1547.05, 0.324172
1547.51, 0.324531
1547.97, 0.325129
1548.43, 0.325488
1548.9, 0.325966
1549.36, 0.326145
1549.82, 0.326265
1550.29, 0.326624
1550.75, 0.326624
1551.21, 0.326684
1551.68, 0.326624
1552.14, 0.326624
1552.61, 0.327162
1553.07, 0.327581
1553.54, 0.327939
1554.0, 0.328119
1554.47, 0.328298
1554.93, 0.328657
1555.4, 0.328657
1555.87, 0.328597
1556.34, 0.329076
1556.8, 0.329434
1557.27, 0.329733
1557.74, 0.329733
1558.21, 0.330092
1558.68, 0.330870
1559.14, 0.331228
1559.61, 0.331468
1560.08, 0.331826
1560.55, 0.331886
1561.02, 0.331647
1561.49, 0.331767
1561.96, 0.332305
1562.43, 0.332723
1562.9, 0.332723
1563.38, 0.332424
1563.85, 0.332544
1564.32, 0.333022
1564.79, 0.333800
1565.26, 0.333919
1565.74, 0.333860
1566.21, 0.333800
1566.68, 0.334398
1567.16, 0.334637
1567.63, 0.334338
1568.1, 0.334876
1568.58, 0.335654
1569.05, 0.336012
1569.53, 0.336252
1570.0, 0.336371
1570.48, 0.336311
1570.96, 0.336730
1571.43, 0.337149
1571.91, 0.337388
1572.39, 0.337687
1572.86, 0.337687
1573.34, 0.337926
1573.82, 0.338105
1574.3, 0.338643
1574.77, 0.338942
1575.25, 0.338883
1575.73, 0.339182
1576.21, 0.339600
1576.69, 0.339541
1577.17, 0.339600
1577.65, 0.340079
1578.13, 0.340617
1578.61, 0.340736
1579.09, 0.340557
1579.57, 0.340856
1580.05, 0.340916
1580.54, 0.341095
1581.02, 0.341454
1581.5, 0.341394
1581.98, 0.341633
1582.47, 0.341873
1582.95, 0.342112
1583.43, 0.342411
1583.92, 0.342650
1584.4, 0.342530
1584.88, 0.342710
1585.37, 0.343009
1585.85, 0.343487
1586.34, 0.344025
1586.82, 0.344145
1587.31, 0.344504
1587.8, 0.344743
1588.28, 0.344982
1588.77, 0.345102
1589.26, 0.345341
1589.74, 0.345819
1590.23, 0.346059
1590.72, 0.346298
1591.21, 0.346298
1591.7, 0.346537
1592.19, 0.346776
1592.67, 0.346776
1593.16, 0.346836
1593.65, 0.346956
1594.14, 0.347434
1594.63, 0.348092
1595.12, 0.348391
1595.61, 0.348211
1596.11, 0.348211
1596.6, 0.348211
1597.09, 0.348510
1597.58, 0.348989
1598.08, 0.349348
1598.57, 0.349766
1599.06, 0.349706
1599.55, 0.349467
1600.05, 0.349946
1600.54, 0.350364
1601.04, 0.350544
1601.53, 0.350603
1602.03, 0.350484
1602.52, 0.350723
1603.02, 0.351201
1603.51, 0.351620
1604.01, 0.351740
1604.5, 0.351859
1605.0, 0.351979
1605.5, 0.352158
1606.0, 0.352278
1606.49, 0.352218
1606.99, 0.352637
1607.49, 0.353055
1607.99, 0.353175
1608.49, 0.353055
1608.99, 0.353474
1609.49, 0.354072
1609.99, 0.353892
1610.49, 0.354191
1610.99, 0.354670
1611.49, 0.354969
1611.99, 0.355148
1612.49, 0.355507
1612.99, 0.355806
1613.49, 0.355746
1614.0, 0.356045
1614.5, 0.356225
1615.0, 0.356344
1615.51, 0.356404
1616.01, 0.356523
1616.51, 0.356583
1617.02, 0.356942
1617.52, 0.357301
1618.03, 0.357600
1618.53, 0.357779
1619.04, 0.358078
1619.54, 0.358198
1620.05, 0.358078
1620.55, 0.358198
1621.06, 0.358557
1621.57, 0.358796
1622.08, 0.359155
1622.58, 0.359394
1623.09, 0.359454
1623.6, 0.359513
1624.11, 0.359633
1624.62, 0.359753
1625.13, 0.359812
1625.64, 0.359992
1626.15, 0.360590
1626.66, 0.360650
1627.17, 0.360470
1627.68, 0.361008
1628.19, 0.361307
1628.7, 0.361188
1629.21, 0.361367
1629.72, 0.361606
1630.24, 0.361487
1630.75, 0.361726
1631.26, 0.362324
1631.78, 0.362444
1632.29, 0.362264
1632.8, 0.362623
1633.32, 0.362802
1633.83, 0.363042
1634.35, 0.363341
1634.86, 0.363101
1635.38, 0.363161
1635.9, 0.363520
1636.41, 0.363520
1636.93, 0.363759
1637.45, 0.364178
1637.96, 0.364118
1638.48, 0.364537
1639.0, 0.364716
1639.52, 0.364836
1640.04, 0.365075
1640.56, 0.365374
1641.08, 0.365434
1641.59, 0.365254
1642.11, 0.365374
1642.63, 0.365852
1643.16, 0.366032
1643.68, 0.366032
1644.2, 0.366211
1644.72, 0.366151
1645.24, 0.366151
1645.76, 0.366570
1646.29, 0.366809
1646.81, 0.366869
1647.33, 0.366869
1647.86, 0.367287
1648.38, 0.367407
1648.9, 0.367527
1649.43, 0.368005
1649.95, 0.368184
1650.48, 0.368065
1651.0, 0.368125
1651.53, 0.368483
1652.06, 0.368723
1652.58, 0.368902
1653.11, 0.369081
1653.64, 0.369022
1654.17, 0.369022
1654.69, 0.369081
1655.22, 0.369261
1655.75, 0.369679
1656.28, 0.369620
1656.81, 0.369799
1657.34, 0.370218
1657.87, 0.370756
1658.4, 0.370576
1658.93, 0.370337
1659.46, 0.370636
1659.99, 0.370875
1660.52, 0.370875
1661.05, 0.370816
1661.59, 0.370875
1662.12, 0.371115
1662.65, 0.371593
1663.19, 0.371653
1663.72, 0.371354
1664.26, 0.371234
1664.79, 0.371713
1665.32, 0.372251
1665.86, 0.372430
1666.39, 0.372550
1666.93, 0.372849
1667.47, 0.372968
1668.0, 0.373028
1668.54, 0.373148
1669.08, 0.373327
1669.61, 0.373566
1670.15, 0.373686
1670.69, 0.373806
1671.23, 0.373925
1671.77, 0.374045
1672.31, 0.374045
1672.85, 0.374104
1673.39, 0.374344
1673.93, 0.374643
1674.47, 0.374882
1675.01, 0.375121
1675.55, 0.374942
1676.09, 0.374882
1676.64, 0.375121
1677.18, 0.375121
1677.72, 0.375181
1678.26, 0.375241
1678.81, 0.375181
1679.35, 0.375360
1679.89, 0.375599
1680.44, 0.375779
1680.98, 0.375839
1681.53, 0.376138
1682.07, 0.376197
1682.62, 0.376257
1683.17, 0.376437
1683.71, 0.376496
1684.26, 0.376556
1684.81, 0.376377
1685.36, 0.376496
1685.9, 0.376676
1686.45, 0.376736
1687.0, 0.376795
1687.55, 0.376795
1688.1, 0.377094
1688.65, 0.377393
1689.2, 0.377633
1689.75, 0.377513
1690.3, 0.377453
1690.85, 0.377692
1691.41, 0.377752
1691.96, 0.377633
1692.51, 0.377692
1693.06, 0.377812
1693.61, 0.377513
1694.17, 0.377752
1694.72, 0.378290
1695.28, 0.378350
1695.83, 0.378231
1696.39, 0.378350
1696.94, 0.378530
1697.5, 0.378589
1698.05, 0.378410
1698.61, 0.378350
1699.17, 0.378589
1699.72, 0.378709
1700.28, 0.378649
1700.84, 0.378709
1701.4, 0.378829
1701.95, 0.378769
1702.51, 0.378530
1703.07, 0.378709
1703.63, 0.378888
1704.19, 0.379008
1704.75, 0.379128
1705.31, 0.379128
1705.88, 0.379187
1706.44, 0.379247
1707.0, 0.379247
1707.56, 0.379008
1708.12, 0.379068
1708.69, 0.379187
1709.25, 0.379128
1709.81, 0.379068
1710.38, 0.379008
1710.94, 0.379008
1711.51, 0.379307
1712.07, 0.379546
1712.64, 0.379486
1713.2, 0.379187
1713.77, 0.379187
1714.34, 0.379128
1714.9, 0.379068
1715.47, 0.379008
1716.04, 0.378948
1716.61, 0.379128
1717.18, 0.379367
1717.74, 0.379606
1718.31, 0.379546
1718.88, 0.379187
1719.45, 0.379008
1720.02, 0.379307
1720.59, 0.379427
1721.17, 0.379367
1721.74, 0.379486
1722.31, 0.379247
1722.88, 0.378888
1723.45, 0.379187
1724.03, 0.379367
1724.6, 0.379486
1725.18, 0.379247
1725.75, 0.378948
1726.33, 0.378709
1726.9, 0.378769
1727.48, 0.378709
1728.05, 0.378709
1728.63, 0.378649
1729.2, 0.378769
1729.78, 0.378829
1730.36, 0.378709
1730.94, 0.378589
1731.51, 0.378589
1732.09, 0.378709
1732.67, 0.378709
1733.25, 0.378589
1733.83, 0.378410
1734.41, 0.378410
1734.99, 0.378410
1735.57, 0.378470
1736.15, 0.378769
1736.73, 0.378829
1737.32, 0.378589
1737.9, 0.378589
1738.48, 0.378888
1739.07, 0.378829
1739.65, 0.378470
1740.23, 0.378290
1740.82, 0.378410
1741.4, 0.378470
1741.99, 0.378410
1742.57, 0.378470
1743.16, 0.378290
1743.74, 0.378111
1744.33, 0.378051
1744.92, 0.378111
1745.51, 0.377752
1746.09, 0.377872
1746.68, 0.378231
1747.27, 0.378171
1747.86, 0.377872
1748.45, 0.377633
1749.04, 0.377872
1749.63, 0.377991
1750.22, 0.377812
1750.81, 0.377513
1751.4, 0.377393
1751.99, 0.377453
1752.59, 0.377453
1753.18, 0.377692
1753.77, 0.377752
1754.37, 0.377513
1754.96, 0.377752
1755.56, 0.377991
1756.15, 0.377633
1756.74, 0.377513
1757.34, 0.377513
1757.94, 0.377692
1758.53, 0.377633
1759.13, 0.377334
1759.73, 0.377393
1760.32, 0.377692
1760.92, 0.377812
1761.52, 0.377334
1762.12, 0.377035
1762.72, 0.377154
1763.32, 0.377094
1763.92, 0.377094
1764.52, 0.376975
1765.12, 0.376676
1765.72, 0.376915
1766.32, 0.376915
1766.92, 0.376736
1767.53, 0.376795
1768.13, 0.377035
1768.73, 0.377334
1769.34, 0.377035
1769.94, 0.376795
1770.55, 0.376795
1771.15, 0.376616
1771.76, 0.376377
1772.36, 0.376317
1772.97, 0.376496
1773.57, 0.376257
1774.18, 0.376078
1774.79, 0.376078
1775.4, 0.375958
1776.0, 0.375898
1776.61, 0.376078
1777.22, 0.375839
1777.83, 0.375719
1778.44, 0.375719
1779.05, 0.375779
1779.66, 0.375898
1780.27, 0.375779
1780.88, 0.375540
1781.5, 0.375300
1782.11, 0.375420
1782.72, 0.375420
1783.33, 0.375360
1783.95, 0.375001
1784.56, 0.374762
1785.18, 0.374942
1785.79, 0.375061
1786.41, 0.375001
1787.02, 0.375001
1787.64, 0.374942
1788.26, 0.374762
1788.87, 0.374523
1789.49, 0.374344
1790.11, 0.374344
1790.73, 0.374404
1791.35, 0.374643
1791.96, 0.374523
1792.58, 0.374344
1793.21, 0.374463
1793.83, 0.374643
1794.45, 0.374643
1795.07, 0.374523
1795.69, 0.374523
1796.31, 0.374344
1796.93, 0.374045
1797.56, 0.374045
1798.18, 0.374045
1798.8, 0.374164
1799.43, 0.374164
1800.05, 0.374104
1800.68, 0.374045
1801.3, 0.373806
1801.93, 0.373686
1802.56, 0.373746
1803.18, 0.373925
1803.81, 0.374104
1804.44, 0.373925
1805.07, 0.373865
1805.7, 0.373925
1806.33, 0.373985
1806.95, 0.373925
1807.58, 0.373865
1808.22, 0.373925
1808.85, 0.374164
1809.48, 0.374224
1810.11, 0.374045
1810.74, 0.373985
1811.38, 0.373806
1812.01, 0.373746
1812.64, 0.373746
1813.28, 0.373925
1813.91, 0.373865
1814.55, 0.373806
1815.18, 0.373806
1815.82, 0.373626
1816.45, 0.373686
1817.09, 0.373865
1817.73, 0.373985
1818.36, 0.373746
1819.0, 0.373566
1819.64, 0.373447
1820.28, 0.373387
1820.92, 0.373865
1821.56, 0.373925
1822.2, 0.373806
1822.84, 0.373985
1823.48, 0.374104
1824.12, 0.374164
1824.76, 0.374284
1825.41, 0.373746
1826.05, 0.372909
1826.69, 0.373267
1827.34, 0.373925
1827.98, 0.373686
1828.63, 0.373267
1829.27, 0.373387
1829.92, 0.373507
1830.56, 0.373387
1831.21, 0.373447
1831.86, 0.373626
1832.5, 0.373566
1833.15, 0.373626
1833.8, 0.373626
1834.45, 0.373148
1835.1, 0.372610
1835.75, 0.372310
1836.4, 0.372310
1837.05, 0.372131
1837.7, 0.371892
1838.35, 0.372550
1839.01, 0.372490
1839.66, 0.371952
1840.31, 0.372131
1840.96, 0.371892
1841.62, 0.370995
1842.27, 0.371115
1842.93, 0.371772
1843.58, 0.371952
1844.24, 0.371832
1844.9, 0.371713
1845.55, 0.371473
1846.21, 0.370397
1846.87, 0.369201
1847.53, 0.369141
1848.18, 0.369201
1848.84, 0.369679
1849.5, 0.369859
1850.16, 0.369560
1850.82, 0.369201
1851.48, 0.368962
1852.14, 0.368364
1852.81, 0.367646
1853.47, 0.366510
1854.13, 0.366151
1854.8, 0.366570
1855.46, 0.366331
1856.12, 0.365194
1856.79, 0.364477
1857.45, 0.364357
1858.12, 0.364178
1858.79, 0.363161
1859.45, 0.361965
1860.12, 0.361726
1860.79, 0.361726
1861.46, 0.361307
1862.12, 0.360590
1862.79, 0.359992
1863.46, 0.359035
1864.13, 0.357660
1864.8, 0.356703
1865.48, 0.356165
1866.15, 0.355268
1866.82, 0.353952
1867.49, 0.352338
1868.16, 0.351441
1868.84, 0.351022
1869.51, 0.349946
1870.19, 0.348331
1870.86, 0.346477
1871.54, 0.345640
1872.21, 0.344324
1872.89, 0.342231
1873.56, 0.341095
1874.24, 0.340318
1874.92, 0.338524
1875.6, 0.337089
1876.28, 0.335355
1876.96, 0.333022
1877.64, 0.331228
1878.32, 0.329554
1879.0, 0.327581
1879.68, 0.325248
1880.36, 0.322976
1881.04, 0.320883
1881.73, 0.318431
1882.41, 0.315681
1883.09, 0.312930
1883.78, 0.310059
1884.46, 0.307309
1885.15, 0.304677
1885.83, 0.301688
1886.52, 0.298339
1887.21, 0.294990
1887.89, 0.291462
1888.58, 0.287515
1889.27, 0.283568
1889.96, 0.279442
1890.65, 0.275735
1891.34, 0.272027
1892.03, 0.267722
1892.72, 0.263117
1893.41, 0.258811
1894.1, 0.254685
1894.79, 0.250320
1895.49, 0.245775
1896.18, 0.241171
1896.87, 0.236566
1897.57, 0.231782
1898.26, 0.227297
1898.96, 0.222872
1899.65, 0.218208
1900.35, 0.214201
1901.05, 0.210613
1901.74, 0.207025
1902.44, 0.203198
1903.14, 0.199789
1903.84, 0.196800
1904.54, 0.193570
1905.24, 0.190461
1905.94, 0.187949
1906.64, 0.185557
1907.34, 0.183584
1908.04, 0.181790
1908.75, 0.179936
1909.45, 0.178202
1910.15, 0.176587
1910.86, 0.175092
1911.56, 0.173777
1912.27, 0.172700
1912.97, 0.171803
1913.68, 0.171026
1914.39, 0.170727
1915.09, 0.170488
1915.8, 0.170488
1916.51, 0.170488
1917.22, 0.170607
1917.93, 0.170906
1918.64, 0.171205
1919.35, 0.171445
1920.06, 0.171803
1920.77, 0.172641
1921.48, 0.173777
1922.19, 0.174734
1922.91, 0.175810
1923.62, 0.176647
1924.33, 0.177604
1925.05, 0.178979
1925.76, 0.180235
1926.48, 0.181491
1927.19, 0.182926
1927.91, 0.184301
1928.63, 0.185557
1929.35, 0.187112
1930.07, 0.188667
1930.78, 0.190102
1931.5, 0.191597
1932.22, 0.192972
1932.94, 0.194467
1933.66, 0.195962
1934.39, 0.197517
1935.11, 0.198952
1935.83, 0.200268
1936.55, 0.201464
1937.28, 0.202839
1938.0, 0.204334
1938.73, 0.205889
1939.45, 0.207145
1940.18, 0.208520
1940.9, 0.209955
1941.63, 0.211391
1942.36, 0.212886
1943.09, 0.214201
1943.81, 0.215337
1944.54, 0.216234
1945.27, 0.217371
1946.0, 0.218865
1946.73, 0.220181
1947.47, 0.221138
1948.2, 0.222274
1948.93, 0.223410
1949.66, 0.224247
1950.4, 0.225384
1951.13, 0.226639
1951.86, 0.227716
1952.6, 0.228553
1953.34, 0.229510
1954.07, 0.230467
1954.81, 0.231423
1955.55, 0.232320
1956.29, 0.233277
1957.02, 0.234234
1957.76, 0.235071
1958.5, 0.235968
1959.24, 0.236925
1959.98, 0.237702
1960.72, 0.238480
1961.47, 0.239436
1962.21, 0.240214
1962.95, 0.240931
1963.7, 0.241709
1964.44, 0.242307
1965.18, 0.242905
1965.93, 0.243862
1966.67, 0.244699
1967.42, 0.245596
1968.17, 0.246313
1968.92, 0.246911
1969.66, 0.247808
1970.41, 0.248406
1971.16, 0.249004
1971.91, 0.249662
1972.66, 0.250260
1973.41, 0.250978
1974.16, 0.251934
1974.92, 0.252712
1975.67, 0.253310
1976.42, 0.254087
1977.18, 0.254865
1977.93, 0.255463
1978.69, 0.256001
1979.44, 0.256778
1980.2, 0.257735
1980.95, 0.258393
1981.71, 0.259170
1982.47, 0.260007
1983.23, 0.260605
1983.99, 0.261263
1984.74, 0.262041
1985.51, 0.262878
1986.27, 0.263715
1987.03, 0.264492
1987.79, 0.265210
1988.55, 0.265868
1989.32, 0.266645
1990.08, 0.267363
1990.84, 0.268080
1991.61, 0.269037
1992.37, 0.269994
1993.14, 0.270831
1993.9, 0.271608
1994.67, 0.272386
1995.44, 0.273044
1996.21, 0.273701
1996.98, 0.274718
1997.75, 0.275794
1998.52, 0.276512
1999.29, 0.277230
2000.06, 0.278067
2000.83, 0.278844
2001.6, 0.279801
2002.38, 0.280698
2003.15, 0.281535
2003.93, 0.282372
2004.7, 0.283150
2005.48, 0.284047
2006.25, 0.284824
2007.03, 0.285721
2007.81, 0.286738
2008.58, 0.287455
2009.36, 0.288173
2010.14, 0.288950
2010.92, 0.289847
2011.7, 0.290684
2012.48, 0.291522
2013.26, 0.292239
2014.05, 0.293017
2014.83, 0.293914
2015.61, 0.294751
2016.4, 0.295648
2017.18, 0.296306
2017.97, 0.296904
2018.75, 0.297801
2019.54, 0.298638
2020.32, 0.299116
2021.11, 0.299953
2021.9, 0.300910
2022.69, 0.301628
2023.48, 0.302465
2024.27, 0.303242
2025.06, 0.303840
2025.85, 0.304378
2026.64, 0.305036
2027.44, 0.305574
2028.23, 0.306352
2029.02, 0.307069
2029.82, 0.307667
2030.61, 0.308385
2031.41, 0.308863
2032.2, 0.309461
2033.0, 0.310179
2033.8, 0.310837
2034.6, 0.311315
2035.4, 0.311913
2036.2, 0.312571
2037.0, 0.313109
2037.8, 0.313707
2038.6, 0.314245
2039.4, 0.314724
2040.2, 0.315262
2041.01, 0.315920
2041.81, 0.316398
2042.61, 0.316877
2043.42, 0.317475
2044.22, 0.318252
2045.03, 0.318431
2045.84, 0.318790
2046.65, 0.319388
2047.46, 0.319926
2048.26, 0.320345
2049.07, 0.320704
2049.88, 0.321242
2050.69, 0.321780
2051.51, 0.322378
2052.32, 0.322737
2053.13, 0.322916
2053.94, 0.323096
2054.76, 0.323514
2055.57, 0.324112
2056.39, 0.324471
2057.2, 0.324710
2058.02, 0.325189
2058.84, 0.325727
2059.66, 0.325787
2060.48, 0.326026
2061.29, 0.326385
2062.11, 0.326624
2062.94, 0.326923
2063.76, 0.327222
2064.58, 0.327461
2065.4, 0.327640
2066.22, 0.327939
2067.05, 0.328537
2067.87, 0.328836
2068.7, 0.328836
2069.52, 0.329135
2070.35, 0.329375
2071.18, 0.329733
2072.0, 0.329973
2072.83, 0.329913
2073.66, 0.330092
2074.49, 0.330571
2075.32, 0.330929
2076.15, 0.331049
2076.98, 0.331109
2077.82, 0.331288
2078.65, 0.331647
2079.48, 0.331826
2080.32, 0.332006
2081.15, 0.332245
2081.99, 0.332365
2082.83, 0.332544
2083.66, 0.332723
2084.5, 0.332903
2085.34, 0.333142
2086.18, 0.333501
2087.02, 0.333680
2087.86, 0.333800
2088.7, 0.334099
2089.54, 0.334218
2090.39, 0.334458
2091.23, 0.334697
2092.07, 0.334876
2092.92, 0.335175
2093.76, 0.335355
2094.61, 0.335534
2095.45, 0.335773
2096.3, 0.336012
2097.15, 0.336192
2098.0, 0.336551
2098.85, 0.336730
2099.7, 0.337029
2100.55, 0.337328
2101.4, 0.337507
2102.25, 0.337687
2103.1, 0.337986
2103.96, 0.338225
2104.81, 0.338345
2105.67, 0.338584
2106.52, 0.338823
2107.38, 0.339122
2108.24, 0.339481
2109.09, 0.339600
2109.95, 0.339899
2110.81, 0.340138
2111.67, 0.340438
2112.53, 0.340856
2113.39, 0.340976
2114.25, 0.341215
2115.12, 0.341394
2115.98, 0.341574
2116.84, 0.341753
2117.71, 0.342172
2118.58, 0.342590
2119.44, 0.342829
2120.31, 0.343069
2121.18, 0.343308
2122.04, 0.343607
2122.91, 0.343786
2123.78, 0.343966
2124.65, 0.344205
2125.52, 0.344444
2126.4, 0.344743
2127.27, 0.345042
2128.14, 0.345221
2129.02, 0.345341
2129.89, 0.345580
2130.77, 0.345819
2131.64, 0.345999
2132.52, 0.346298
2133.4, 0.346477
2134.27, 0.346716
2135.15, 0.346956
2136.03, 0.347195
2136.91, 0.347255
2137.79, 0.347494
2138.68, 0.347793
2139.56, 0.347912
2140.44, 0.348211
2141.33, 0.348391
2142.21, 0.348510
2143.1, 0.348809
2143.99, 0.349049
2144.87, 0.349108
2145.76, 0.349049
2146.65, 0.349228
2147.54, 0.349647
2148.43, 0.349946
2149.32, 0.349946
2150.21, 0.350065
2151.1, 0.350484
2151.99, 0.350603
2152.89, 0.350663
2153.78, 0.350843
2154.68, 0.351022
2155.57, 0.351142
2156.47, 0.351142
2157.37, 0.351201
2158.27, 0.351500
2159.16, 0.351799
2160.06, 0.351979
2160.96, 0.351979
2161.86, 0.352158
2162.77, 0.352457
2163.67, 0.352577
2164.57, 0.352517
2165.48, 0.352696
2166.38, 0.352995
2167.29, 0.353055
2168.2, 0.352995
2169.1, 0.353294
2170.01, 0.353593
2170.92, 0.353534
2171.83, 0.353534
2172.74, 0.353534
2173.65, 0.353593
2174.56, 0.353653
2175.47, 0.353653
2176.39, 0.353833
2177.3, 0.354131
2178.22, 0.354131
2179.13, 0.354191
2180.05, 0.354430
2180.96, 0.354481
2181.88, 0.354838
2182.8, 0.355093
2183.72, 0.355042
2184.64, 0.354991
2185.56, 0.355297
2186.48, 0.355348
2187.41, 0.355246
2188.33, 0.354889
2189.25, 0.354787
2190.18, 0.355042
2191.1, 0.355246
2192.03, 0.355246
2192.96, 0.355399
2193.89, 0.355093
2194.82, 0.354991
2195.74, 0.355144
2196.68, 0.355195
2197.61, 0.354889
2198.54, 0.354991
2199.47, 0.354940
2200.4, 0.355195
2201.34, 0.355144
2202.28, 0.354991
2203.21, 0.354940
2204.15, 0.354991
2205.08, 0.355042
2206.02, 0.354889
2206.96, 0.354787
2207.9, 0.354685
2208.84, 0.354685
2209.78, 0.355297
2210.73, 0.355450
2211.67, 0.355399
2212.61, 0.355246
2213.56, 0.355195
2214.5, 0.355144
2215.45, 0.355093
2216.4, 0.354889
2217.35, 0.354787
2218.3, 0.355093
2219.24, 0.355500
2220.2, 0.355399
2221.15, 0.355195
2222.1, 0.354991
2223.05, 0.354991
2224.0, 0.354787
2224.96, 0.354634
2225.91, 0.354685
2226.87, 0.354838
2227.83, 0.354736
2228.79, 0.354685
2229.74, 0.354634
2230.7, 0.354481
2231.66, 0.354583
2232.63, 0.354685
2233.59, 0.354481
2234.55, 0.354227
2235.51, 0.354125
2236.48, 0.354074
2237.44, 0.353972
2238.41, 0.353870
2239.38, 0.353870
2240.34, 0.353819
2241.31, 0.353615
2242.28, 0.353513
2243.25, 0.353717
2244.22, 0.353870
2245.19, 0.353615
2246.17, 0.353717
2247.14, 0.353768
2248.12, 0.353717
2249.09, 0.353513
2250.07, 0.353360
2251.04, 0.353157
2252.02, 0.352851
2253.0, 0.352545
2253.98, 0.352290
2254.96, 0.352087
2255.94, 0.352087
2256.92, 0.351883
2257.91, 0.351781
2258.89, 0.351628
2259.88, 0.351628
2260.86, 0.351271
2261.85, 0.350915
2262.83, 0.350813
2263.82, 0.350813
2264.81, 0.350558
2265.8, 0.350150
2266.79, 0.349845
2267.78, 0.349692
2268.78, 0.349488
2269.77, 0.349284
2270.76, 0.348928
2271.76, 0.348775
2272.75, 0.348418
2273.75, 0.347857
2274.75, 0.347705
2275.75, 0.347603
2276.75, 0.347399
2277.75, 0.347144
2278.75, 0.346635
2279.75, 0.346176
2280.75, 0.345463
2281.76, 0.345004
2282.76, 0.344902
2283.77, 0.344647
2284.77, 0.344087
2285.78, 0.343425
2286.79, 0.342915
2287.8, 0.342507
2288.81, 0.342405
2289.82, 0.342304
2290.83, 0.341590
2291.84, 0.341234
2292.86, 0.340622
2293.87, 0.339960
2294.89, 0.339501
2295.91, 0.338788
2296.92, 0.338635
2297.94, 0.338227
2298.96, 0.337514
2299.98, 0.336699
2301.0, 0.336138
2302.02, 0.335934
2303.04, 0.335221
2304.07, 0.334406
2305.09, 0.333794
2306.12, 0.333285
2307.15, 0.332826
2308.17, 0.332419
2309.2, 0.331502
2310.23, 0.330431
2311.26, 0.329718
2312.29, 0.329311
2313.32, 0.328597
2314.35, 0.327629
2315.39, 0.326916
2316.42, 0.326406
2317.46, 0.325795
2318.5, 0.325234
2319.53, 0.324521
2320.57, 0.323553
2321.61, 0.322483
2322.65, 0.321617
2323.69, 0.320750
2324.73, 0.320037
2325.78, 0.319273
2326.82, 0.318305
2327.86, 0.317235
2328.91, 0.316470
2329.96, 0.315910
2331.01, 0.314891
2332.05, 0.313770
2333.1, 0.313006
2334.15, 0.312088
2335.21, 0.311069
2336.26, 0.310254
2337.31, 0.309286
2338.36, 0.308063
2339.42, 0.307044
2340.48, 0.306229
2341.53, 0.305006
2342.59, 0.303732
2343.65, 0.302662
2344.71, 0.301694
2345.77, 0.300624
2346.83, 0.299401
2347.9, 0.298433
2348.96, 0.297516
2350.02, 0.296344
2351.09, 0.295070
2352.16, 0.293745
2353.23, 0.292522
2354.29, 0.291554
2355.36, 0.290535
2356.43, 0.289159
2357.51, 0.287733
2358.58, 0.286510
2359.65, 0.285338
2360.73, 0.284064
2361.8, 0.282790
2362.88, 0.281771
2363.96, 0.280548
2365.03, 0.279274
2366.11, 0.277899
2367.19, 0.276472
2368.27, 0.275300
2369.36, 0.274230
2370.44, 0.272905
2371.53, 0.271581
2372.61, 0.270307
2373.7, 0.269288
2374.78, 0.268065
2375.87, 0.266638
2376.96, 0.265568
2378.05, 0.264396
2379.14, 0.263071
2380.24, 0.261899
2381.33, 0.260829
2382.42, 0.259556
2383.52, 0.258027
2384.61, 0.256804
2385.71, 0.255632
2386.81, 0.254511
2387.91, 0.253288
2389.01, 0.252269
2390.11, 0.251301
2391.22, 0.249976
2392.32, 0.248499
2393.42, 0.247174
2394.53, 0.246155
2395.64, 0.244983
2396.74, 0.243709
2397.85, 0.242690
2398.96, 0.241722
2400.07, 0.240550
2401.18, 0.239378
2402.3, 0.238359
2403.41, 0.236983
2404.52, 0.235760
2405.64, 0.234792
2406.76, 0.233875
2407.88, 0.232703
2408.99, 0.231480
2410.11, 0.230308
2411.23, 0.229340
2412.36, 0.228474
2413.48, 0.227251
2414.6, 0.226079
2415.73, 0.225060
2416.85, 0.224143
2417.98, 0.223175
2419.11, 0.222309
2420.24, 0.221341
2421.37, 0.220067
2422.5, 0.218997
2423.64, 0.218131
2424.77, 0.217468
2425.9, 0.216653
2427.04, 0.215736
2428.18, 0.214819
2429.31, 0.214003
2430.45, 0.213239
2431.59, 0.212271
2432.73, 0.211252
2433.88, 0.210233
2435.02, 0.209316
2436.16, 0.208602
2437.31, 0.208144
2438.45, 0.207685
2439.6, 0.206870
2440.75, 0.206004
2441.9, 0.205087
2443.05, 0.204628
2444.2, 0.204169
2445.35, 0.203303
2446.51, 0.202488
2447.67, 0.201978
2448.82, 0.201316
2449.98, 0.200654
2451.14, 0.199889
2452.3, 0.199278
2453.46, 0.198819
2454.62, 0.198157
2455.78, 0.197597
2456.94, 0.196985
2458.11, 0.196425
2459.28, 0.196017
2460.44, 0.195406
2461.61, 0.194692
2462.78, 0.194285
2463.95, 0.193928
2465.12, 0.193418
2466.3, 0.193011
2467.47, 0.192348
2468.65, 0.191584
2469.82, 0.191024
2471.0, 0.190718
2472.18, 0.190157
2473.36, 0.189801
2474.54, 0.189138
2475.72, 0.188629
2476.9, 0.188323
2478.08, 0.187712
2479.27, 0.186998
2480.46, 0.186336
2481.64, 0.185928
2482.83, 0.185368
2484.02, 0.184705
2485.21, 0.184196
2486.4, 0.183788
2487.6, 0.183126
2488.79, 0.182412
2489.99, 0.182005
2491.18, 0.181495
2492.38, 0.180935
2493.58, 0.180476
2494.78, 0.179865
2495.98, 0.179304
2497.18, 0.178795
2498.39, 0.178183
2499.59, 0.177776
2500.8, 0.177317
2502.01, 0.176655
2503.21, 0.176094
2504.42, 0.175738
2505.63, 0.175279
2506.84, 0.174719
2508.06, 0.174056
2509.27, 0.173699
2510.49, 0.173292
2511.7, 0.172680
2512.92, 0.172222
2514.14, 0.171610
2515.36, 0.170948
2516.58, 0.170693
2517.8, 0.170438
2519.03, 0.169980
2520.25, 0.169419
2521.48, 0.168910
2522.7, 0.168349
2523.93, 0.167891
2525.16, 0.167432
2526.39, 0.167279
2527.62, 0.166872
2528.86, 0.166362
2530.09, 0.165955
2531.33, 0.165394
2532.56, 0.164885
2533.8, 0.164885
2535.04, 0.164324
2536.28, 0.163662
2537.52, 0.163967
2538.76, 0.164120
2540.01, 0.163611
2541.25, 0.162999
2542.5, 0.162031
2543.75, 0.161827
2544.99, 0.161929
2546.24, 0.161674
2547.49, 0.161063
2548.75, 0.161063
2550.0, 0.160808
2551.26, 0.160146
2552.51, 0.159534
2553.77, 0.159891
2555.03, 0.160452
2556.29, 0.160554
2557.55, 0.160452
2558.81, 0.159687
2560.08, 0.157496
2561.34, 0.155560
2562.61, 0.155203
2563.88, 0.155407
2565.14, 0.156885
2566.41, 0.158668
2567.68, 0.158312
2568.96, 0.156172
2570.23, 0.156019
2571.51, 0.157140
2572.78, 0.155000
2574.06, 0.155102
2575.34, 0.156070
2576.62, 0.154949
2577.9, 0.155968
2579.18, 0.156885
2580.47, 0.155356
2581.75, 0.154796
2583.04, 0.152656
2584.32, 0.151942
2585.61, 0.153879
2586.9, 0.153063
2588.2, 0.153216
2589.49, 0.154133
2590.78, 0.155000
2592.08, 0.154133
2593.37, 0.148580
2594.67, 0.142669
2595.97, 0.146541
2597.27, 0.152146
2598.57, 0.154032
2599.88, 0.153420
2601.18, 0.151993
2602.49, 0.150923
2603.79, 0.149089
2605.1, 0.146338
2606.41, 0.146949
2607.72, 0.148732
2609.03, 0.148936
2610.35, 0.149497
2611.66, 0.149853
2612.98, 0.148987
2614.3, 0.148630
2615.62, 0.145777
2616.94, 0.143280
2618.26, 0.144911
2619.58, 0.143484
2620.91, 0.142924
2622.23, 0.145675
2623.56, 0.146134
2624.89, 0.144503
2626.22, 0.141395
2627.55, 0.141548
2628.88, 0.140835
2630.21, 0.137472
2631.55, 0.138898
2632.89, 0.140121
2634.22, 0.139510
2635.56, 0.139917
2636.9, 0.139765
2638.25, 0.138949
2639.59, 0.137828
2640.93, 0.136656
2642.28, 0.135637
2643.63, 0.135128
2644.98, 0.133294
2646.33, 0.132275
2647.68, 0.132325
2649.03, 0.131714
2650.39, 0.130491
2651.74, 0.127994
2653.1, 0.126568
2654.46, 0.126109
2655.82, 0.125243
2657.18, 0.124886
2658.54, 0.122950
2659.9, 0.121320
2661.27, 0.120453
2662.64, 0.119332
2664.01, 0.115511
2665.38, 0.111638
2666.74, 0.110365
2668.12, 0.111180
2669.49, 0.108072
2670.87, 0.105881
2672.24, 0.108836
2673.62, 0.108836
2675.0, 0.106186
2676.38, 0.102875
2677.76, 0.101754
2679.15, 0.100989
2680.54, 0.101397
2681.92, 0.100734
2683.31, 0.0985430
2684.7, 0.0968110
2686.09, 0.0951300
2687.48, 0.0937030
2688.88, 0.0923270
2690.27, 0.0906460
2691.67, 0.0885570
2693.07, 0.0851430
2694.47, 0.0829010
2695.87, 0.0822890
2697.27, 0.0814740
2698.67, 0.0798950
2700.08, 0.0775510
2701.49, 0.0752580
2702.9, 0.0737800
2704.31, 0.0718950
2705.72, 0.0698060
2707.13, 0.0673090
2708.54, 0.0643030
2709.96, 0.0612460
2711.38, 0.0593100
2712.8, 0.0587490
2714.22, 0.0572710
2715.64, 0.0550290
2717.06, 0.0525840
2718.49, 0.0500870
2719.91, 0.0467750
2721.34, 0.0449410
2722.77, 0.0437690
2724.2, 0.0411190
2725.63, 0.0396930
2727.07, 0.0388260
2728.5, 0.0374000
2729.94, 0.0356160
2731.38, 0.0341900
2732.82, 0.0328140
2734.26, 0.0309290
2735.7, 0.0297060
2737.15, 0.0288900
2738.59, 0.0272600
2740.04, 0.0258840
2741.49, 0.0252730
2742.94, 0.0250180
2744.39, 0.0246610
2745.84, 0.0242030
2747.3, 0.0234890
2748.76, 0.0229800
2750.21, 0.0227760
2751.67, 0.0224700
2753.14, 0.0218590
2754.6, 0.0209930
2756.06, 0.0207890
2757.53, 0.0211970
2759.0, 0.0213490
2760.46, 0.0212470
2761.94, 0.0207890
2763.41, 0.0205340
2764.88, 0.0206870
2766.36, 0.0206870
2767.83, 0.0207380
2769.31, 0.0206360
2770.79, 0.0204320
2772.27, 0.0206360
2773.76, 0.0208910
2775.24, 0.0209420
2776.73, 0.0208400
2778.22, 0.0207380
2779.71, 0.0206870
2781.2, 0.0206870
2782.69, 0.0207380
2784.18, 0.0207890
2785.68, 0.0206360
2787.18, 0.0205850
2788.68, 0.0208910
2790.18, 0.0210950
2791.68, 0.0208910
2793.19, 0.0208400
2794.69, 0.0208910
2796.2, 0.0209420
2797.71, 0.0210440
2799.22, 0.0209930
2800.73, 0.0209420
2802.24, 0.0206870
2803.76, 0.0205850
2805.28, 0.0207380
2806.8, 0.0208910
2808.32, 0.0210440
2809.84, 0.0209930
2811.36, 0.0207890
2812.89, 0.0207380
2814.42, 0.0208910
2815.94, 0.0209420
2817.48, 0.0209420
2819.01, 0.0208400
2820.54, 0.0206870
2822.08, 0.0207890
2823.61, 0.0208400
2825.15, 0.0207380
2826.69, 0.0207890
2828.23, 0.0208910
2829.78, 0.0208400
2831.32, 0.0208400
2832.87, 0.0206360
2834.42, 0.0204830
2835.97, 0.0206360
2837.52, 0.0207890
2839.08, 0.0208400
2840.63, 0.0207890
2842.19, 0.0208400
2843.75, 0.0207890
2845.31, 0.0207380
2846.87, 0.0207890
2848.44, 0.0207890
2850.0, 0.0207890
2851.57, 0.0207890
2853.14, 0.0207890
2854.71, 0.0208910
2856.28, 0.0209930
2857.86, 0.0209420
2859.43, 0.0207890
2861.01, 0.0207890
2862.59, 0.0209420
2864.17, 0.0209930
2865.76, 0.0209930
2867.34, 0.0209930
2868.93, 0.0209930
2870.52, 0.0210440
2872.11, 0.0211970
2873.7, 0.0212470
2875.29, 0.0210440
2876.89, 0.0209930
2878.49, 0.0210950
2880.08, 0.0210440
2881.69, 0.0210950
2883.29, 0.0210950
2884.89, 0.0210440
2886.5, 0.0209930
2888.11, 0.0209930
2889.72, 0.0211970
2891.33, 0.0214510
2892.94, 0.0213490
2894.56, 0.0212980
2896.17, 0.0214510
2897.79, 0.0215530
2899.42, 0.0214510
2901.04, 0.0214000
2902.66, 0.0215020
2904.29, 0.0215020
2905.92, 0.0213490
2907.55, 0.0212980
2909.18, 0.0214510
2910.81, 0.0216040
2912.45, 0.0216550
2914.08, 0.0216550
2915.72, 0.0217060
2917.36, 0.0217060
2919.01, 0.0218080
2920.65, 0.0217570
2922.3, 0.0217570
2923.94, 0.0217570
2925.59, 0.0217570
2927.25, 0.0218080
2928.9, 0.0218590
2930.56, 0.0217570
2932.21, 0.0218080
2933.87, 0.0219610
2935.53, 0.0220630
2937.2, 0.0220630
2938.86, 0.0221140
2940.53, 0.0223180
2942.2, 0.0222160
2943.87, 0.0221650
2945.54, 0.0222160
2947.22, 0.0221650
2948.89, 0.0223180
2950.57, 0.0224700
2952.25, 0.0224700
2953.93, 0.0225720
2955.62, 0.0225720
2957.3, 0.0225720
2958.99, 0.0227250
2960.68, 0.0228270
2962.37, 0.0228270
2964.07, 0.0228270
2965.76, 0.0230310
2967.46, 0.0230820
2969.16, 0.0231330
2970.86, 0.0233880
2972.56, 0.0234890
2974.27, 0.0233370
2975.98, 0.0232350
2977.69, 0.0233370
2979.4, 0.0234890
2981.11, 0.0236930
2982.83, 0.0237950
2984.54, 0.0238460
2986.26, 0.0238970
2987.98, 0.0238970
2989.71, 0.0240500
2991.43, 0.0242030
2993.16, 0.0243050
2994.89, 0.0242030
2996.62, 0.0242540
2998.35, 0.0245080
3000.09, 0.0246610
3001.83, 0.0246610
3003.57, 0.0247630
3005.31, 0.0247630
3007.05, 0.0248650
3008.79, 0.0250690
3010.54, 0.0251200
3012.29, 0.0251710
3014.04, 0.0251710
3015.8, 0.0253240
3017.55, 0.0253240
3019.31, 0.0254770
3021.07, 0.0256800
3022.83, 0.0258330
3024.59, 0.0257310
3026.36, 0.0257310
3028.13, 0.0258840
3029.9, 0.0259860
3031.67, 0.0258840
3033.44, 0.0258330
3035.22, 0.0260370
3037.0, 0.0262920
3038.78, 0.0264450
3040.56, 0.0265980
3042.34, 0.0265980
3044.13, 0.0266490
3045.92, 0.0266490
3047.71, 0.0267500
3049.5, 0.0268010
3051.3, 0.0268010
3053.09, 0.0269030
3054.89, 0.0270560
3056.69, 0.0272090
3058.5, 0.0272090
3060.3, 0.0272600
3062.11, 0.0273620
3063.92, 0.0275150
3065.73, 0.0275660
3067.55, 0.0275150
3069.36, 0.0275660
3071.18, 0.0275660
3073.0, 0.0276680
3074.82, 0.0277190
3076.65, 0.0278200
3078.48, 0.0278710
3080.31, 0.0280240
3082.14, 0.0280750
3083.97, 0.0281260
3085.8, 0.0281770
3087.64, 0.0282280
3089.48, 0.0283810
3091.33, 0.0284830
3093.17, 0.0284830
3095.02, 0.0285850
3096.87, 0.0286360
3098.72, 0.0287380
3100.57, 0.0288900
3102.43, 0.0289920
3104.28, 0.0290940
3106.14, 0.0292980
3108.01, 0.0293490
3109.87, 0.0294000
3111.74, 0.0295530
3113.61, 0.0297570
3115.48, 0.0298590
3117.35, 0.0300110
3119.23, 0.0301640
3121.1, 0.0302660
3122.98, 0.0305210
3124.87, 0.0307250
3126.75, 0.0308780
3128.64, 0.0310810
3130.53, 0.0312850
3132.42, 0.0315400
3134.31, 0.0317440
3136.21, 0.0318970
3138.11, 0.0321510
3140.01, 0.0324570
3141.91, 0.0326610
3143.82, 0.0327630
3145.73, 0.0331200
3147.64, 0.0335780
3149.55, 0.0337310
3151.46, 0.0339350
3153.38, 0.0342410
3155.3, 0.0344440
3157.22, 0.0347500
3159.14, 0.0350560
3161.07, 0.0352600
3163.0, 0.0355650
3164.93, 0.0358710
3166.86, 0.0362280
3168.8, 0.0364820
3170.74, 0.0367880
3172.68, 0.0370940
3174.62, 0.0372980
3176.56, 0.0375530
3178.51, 0.0379090
3180.46, 0.0383170
3182.42, 0.0385720
3184.37, 0.0388260
3186.33, 0.0391830
3188.29, 0.0394380
3190.25, 0.0397940
3192.21, 0.0402020
3194.18, 0.0405590
3196.15, 0.0408640
3198.12, 0.0412210
3200.09, 0.0414760
3202.07, 0.0418330
3204.05, 0.0422910
3206.03, 0.0426990
3208.02, 0.0430050
3210.0, 0.0434120
3211.99, 0.0437690
3213.98, 0.0440750
3215.98, 0.0444310
3217.97, 0.0448900
3219.97, 0.0452970
3221.97, 0.0456030
3223.98, 0.0460620
3225.98, 0.0464180
3227.99, 0.0467750
3230.0, 0.0471830
3232.02, 0.0476410
3234.03, 0.0480490
3236.05, 0.0484560
3238.07, 0.0488130
3240.1, 0.0493230
3242.12, 0.0498830
3244.15, 0.0503930
3246.18, 0.0507490
3248.22, 0.0510550
3250.25, 0.0515140
3252.29, 0.0519720
3254.33, 0.0523800
3256.38, 0.0528890
3258.43, 0.0533990
3260.47, 0.0538580
3262.53, 0.0542650
3264.58, 0.0548260
3266.64, 0.0553350
3268.7, 0.0557430
3270.76, 0.0562520
3272.82, 0.0567620
3274.89, 0.0572200
3276.96, 0.0577300
3279.04, 0.0582900
3281.11, 0.0589530
3283.19, 0.0594620
3285.27, 0.0599210
3287.35, 0.0604810
3289.44, 0.0610930
3291.53, 0.0615510
3293.62, 0.0619590
3295.71, 0.0625200
3297.81, 0.0630800
3299.91, 0.0636910
3302.01, 0.0643540
3304.11, 0.0648630
3306.22, 0.0652710
3308.33, 0.0659330
3310.44, 0.0665960
3312.56, 0.0672070
3314.68, 0.0678190
3316.8, 0.0684810
3318.92, 0.0690930
3321.05, 0.0698060
3323.18, 0.0704680
3325.31, 0.0710290
3327.44, 0.0715890
3329.58, 0.0722010
3331.72, 0.0729140
3333.86, 0.0736780
3336.01, 0.0743920
3338.16, 0.0750540
3340.31, 0.0756660
3342.46, 0.0762770
3344.61, 0.0769390
3346.77, 0.0776530
3348.94, 0.0784170
3351.1, 0.0790280
3353.27, 0.0796400
3355.44, 0.0803530
3357.61, 0.0811680
3359.79, 0.0818820
3361.97, 0.0824930
3364.15, 0.0832070
3366.33, 0.0840220
3368.52, 0.0848880
3370.71, 0.0855500
3372.9, 0.0862640
3375.1, 0.0871300
3377.3, 0.0879450
3379.5, 0.0886590
3381.71, 0.0894230
3383.91, 0.0900340
3386.12, 0.0908500
3388.34, 0.0918180
3390.55, 0.0926330
3392.77, 0.0933970
3394.99, 0.0941110
3397.22, 0.0950790
3399.45, 0.0958940
3401.68, 0.0966580
3403.91, 0.0974730
3406.15, 0.0984930
3408.39, 0.0994610
3410.63, 0.100327
3412.87, 0.101193
3415.12, 0.102008
3417.37, 0.102925
3419.63, 0.103792
3421.88, 0.104811
3424.14, 0.105728
3426.41, 0.106594
3428.67, 0.107562
3430.94, 0.108479
3433.21, 0.109447
3435.49, 0.110314
3437.77, 0.111282
3440.05, 0.112301
3442.33, 0.113320
3444.62, 0.114237
3446.91, 0.115205
3449.2, 0.116071
3451.5, 0.117040
3453.8, 0.118059
3456.1, 0.119027
3458.41, 0.119893
3460.72, 0.120912
3463.03, 0.122033
3465.34, 0.122950
3467.66, 0.123816
3469.98, 0.124784
3472.31, 0.125854
3474.63, 0.126823
3476.96, 0.127740
3479.3, 0.128759
3481.64, 0.129829
3483.97, 0.130797
3486.32, 0.131765
3488.66, 0.132682
3491.01, 0.133599
3493.36, 0.134567
3495.72, 0.135586
3498.08, 0.136606
3500.44, 0.137523
3502.81, 0.138491
3505.18, 0.139408
3507.55, 0.140325
3509.92, 0.141395
3512.3, 0.142516
3514.68, 0.143586
3517.06, 0.144605
3519.45, 0.145624
3521.84, 0.146592
3524.24, 0.147510
3526.64, 0.148478
3529.04, 0.149497
3531.44, 0.150516
3533.85, 0.151535
3536.26, 0.152554
3538.67, 0.153471
3541.09, 0.154388
3543.51, 0.155254
3545.93, 0.156172
3548.36, 0.157242
3550.79, 0.158261
3553.22, 0.159178
3555.66, 0.160095
3558.1, 0.161012
3560.54, 0.161980
3562.99, 0.163050
3565.44, 0.164069
3567.9, 0.164885
3570.35, 0.165802
3572.81, 0.166719
3575.28, 0.167585
3577.75, 0.168451
3580.22, 0.169419
3582.69, 0.170337
3585.17, 0.171254
3587.65, 0.172222
3590.14, 0.173241
3592.62, 0.174158
3595.11, 0.174922
3597.61, 0.175789
3600.11, 0.176757
3602.61, 0.177674
3605.11, 0.178693
3607.62, 0.179661
3610.14, 0.180578
3612.65, 0.181393
3615.17, 0.182209
3617.69, 0.183126
3620.22, 0.184043
3622.75, 0.184858
3625.28, 0.185673
3627.82, 0.186591
3630.36, 0.187559
3632.9, 0.188425
3635.45, 0.189342
3638.0, 0.190259
3640.56, 0.191125
3643.12, 0.191992
3645.68, 0.192807
3648.24, 0.193673
3650.81, 0.194590
3653.39, 0.195456
3655.96, 0.196323
3658.54, 0.197189
3661.13, 0.198055
3663.71, 0.198921
3666.3, 0.199737
3668.9, 0.200654
3671.5, 0.201520
3674.1, 0.202335
3676.7, 0.203201
3679.31, 0.204017
3681.93, 0.204883
3684.54, 0.205749
3687.17, 0.206513
3689.79, 0.207278
3692.42, 0.208093
3695.05, 0.208806
3697.69, 0.209571
3700.32, 0.210437
3702.97, 0.211201
3705.61, 0.212016
3708.27, 0.212882
3710.92, 0.213596
3713.58, 0.214258
3716.24, 0.215023
3718.91, 0.215838
3721.58, 0.216602
3724.25, 0.217213
3726.93, 0.217825
3729.61, 0.218487
3732.29, 0.219303
3734.98, 0.220067
3737.67, 0.220678
3740.37, 0.221341
3743.07, 0.221952
3745.78, 0.222564
3748.49, 0.223175
3751.2, 0.223786
3753.91, 0.224449
3756.63, 0.225111
3759.36, 0.225621
3762.09, 0.226130
3764.82, 0.226742
3767.55, 0.227302
3770.29, 0.227812
3773.04, 0.228321
3775.78, 0.228780
3778.54, 0.229238
3781.29, 0.229799
3784.05, 0.230359
3786.82, 0.230716
3789.59, 0.231175
3792.36, 0.231684
3795.13, 0.232143
3797.92, 0.232550
3800.7, 0.233009
3803.49, 0.233468
3806.28, 0.233875
3809.08, 0.234232
3811.88, 0.234639
3814.68, 0.234996
3817.49, 0.235353
3820.31, 0.235710
3823.12, 0.235964
3825.94, 0.236270
3828.77, 0.236627
3831.6, 0.237034
3834.43, 0.237238
3837.27, 0.237493
3840.11, 0.237850
3842.96, 0.238104
3845.81, 0.238410
3848.67, 0.238563
3851.53, 0.238716
3854.39, 0.238818
3857.26, 0.238971
3860.13, 0.239123
3863.01, 0.239327
3865.89, 0.239429
3868.77, 0.239633
3871.66, 0.239786
3874.55, 0.239837
3877.45, 0.239888
3880.35, 0.239990
3883.26, 0.240091
3886.17, 0.240142
3889.09, 0.240193
3892.01, 0.240295
3894.93, 0.240397
3897.86, 0.240397
3900.79, 0.240397
3903.73, 0.240346
3906.67, 0.240346
3909.62, 0.240346
3912.57, 0.240244
3915.52, 0.240193
3918.48, 0.240142
3921.45, 0.240091
3924.42, 0.240041
3927.39, 0.240091
3930.37, 0.240091
3933.35, 0.240091
3936.34, 0.239990
3939.33, 0.239888
3942.32, 0.239735
3945.32, 0.239684
3948.33, 0.239633
3951.34, 0.239480
3954.35, 0.239378
3957.37, 0.239327
3960.39, 0.239276
3963.42, 0.239174
3966.45, 0.238920
3969.49, 0.238767
3972.53, 0.238716
3975.58, 0.238563
3978.63, 0.238359
3981.68, 0.238206
3984.75, 0.238002
3987.81, 0.237748
3990.88, 0.237595
3993.95, 0.237391
3997.03, 0.237085
4000.12, 0.236830
4003.21, 0.236474
4006.3, 0.236219
4009.4, 0.235811
4012.5, 0.235404
4015.61, 0.235098
4018.72, 0.234690
4021.84, 0.234232
4024.96, 0.233773
4028.09, 0.233417
4031.22, 0.233009
4034.36, 0.232499
4037.5, 0.231939
4040.65, 0.231429
4043.8, 0.230818
4046.96, 0.230258
4050.12, 0.229748
4053.29, 0.229188
4056.46, 0.228627
4059.64, 0.228016
4062.82, 0.227404
4066.0, 0.226793
4069.19, 0.226079
4072.39, 0.225468
4075.59, 0.224856
4078.8, 0.224092
4082.01, 0.223379
4085.23, 0.222716
4088.45, 0.222054
4091.68, 0.221341
4094.91, 0.220678
4098.15, 0.219965
4101.39, 0.219303
4104.63, 0.218538
4107.89, 0.217825
4111.14, 0.217112
4114.41, 0.216398
4117.67, 0.215583
4120.95, 0.214870
4124.23, 0.214105
4127.51, 0.213392
4130.8, 0.212679
4134.09, 0.212016
4137.39, 0.211150
4140.7, 0.210284
4144.01, 0.209571
4147.32, 0.208908
4150.64, 0.208093
4153.97, 0.207278
4157.3, 0.206513
4160.64, 0.205749
4163.98, 0.204883
4167.33, 0.204068
4170.68, 0.203252
4174.04, 0.202488
4177.4, 0.201673
4180.77, 0.200807
4184.14, 0.199940
4187.52, 0.199074
4190.91, 0.198106
4194.3, 0.197189
4197.69, 0.196272
4201.1, 0.195202
4204.5, 0.194081
4207.92, 0.192858
4211.34, 0.191533
4214.76, 0.190106
4218.19, 0.188731
4221.62, 0.187355
4225.06, 0.186030
4228.51, 0.184756
4231.96, 0.183635
4235.42, 0.182769
4238.88, 0.182005
4242.35, 0.181393
4245.83, 0.180884
4249.31, 0.180680
4252.79, 0.180527
4256.28, 0.180018
4259.78, 0.178744
4263.29, 0.177215
4266.79, 0.175789
4270.31, 0.174617
4273.83, 0.173547
4277.35, 0.172477
4280.89, 0.171508
4284.42, 0.170642
4287.97, 0.169827
4291.52, 0.169012
4295.07, 0.168247
4298.63, 0.167534
4302.2, 0.166770
4305.78, 0.166006
4309.35, 0.165241
4312.94, 0.164477
4316.53, 0.163713
4320.13, 0.162999
4323.73, 0.162184
4327.34, 0.161369
4330.96, 0.160554
4334.58, 0.159636
4338.21, 0.158770
4341.84, 0.158108
4345.48, 0.157343
4349.12, 0.156324
4352.77, 0.155407
4356.43, 0.154643
4360.1, 0.153828
4363.76, 0.152911
4367.44, 0.152095
4371.12, 0.151280
4374.81, 0.150465
4378.51, 0.149650
4382.21, 0.148783
4385.92, 0.148070
4389.63, 0.147255
4393.35, 0.146490
4397.08, 0.145726
4400.81, 0.144911
4404.55, 0.144045
4408.29, 0.143331
4412.04, 0.142618
4415.8, 0.141854
4419.57, 0.141140
4423.34, 0.140376
4427.12, 0.139663
4430.9, 0.139051
4434.69, 0.138389
4438.49, 0.137625
4442.29, 0.136962
4446.1, 0.136402
4449.92, 0.135739
4453.74, 0.135128
4457.57, 0.134516
4461.41, 0.133854
4465.25, 0.133345
4469.1, 0.132886
4472.95, 0.132275
4476.82, 0.131714
4480.69, 0.131154
4484.56, 0.130644
4488.44, 0.130134
4492.33, 0.129676
4496.23, 0.129268
4500.13, 0.128861
4504.04, 0.128402
4507.96, 0.127994
4511.88, 0.127536
4515.81, 0.127077
4519.75, 0.126721
4523.69, 0.126364
4527.65, 0.125956
4531.6, 0.125600
4535.57, 0.125243
4539.54, 0.124835
4543.52, 0.124530
4547.5, 0.124275
4551.5, 0.124020
4555.5, 0.123714
4559.5, 0.123409
4563.52, 0.123154
4567.54, 0.122848
4571.56, 0.122491
4575.6, 0.122237
4579.64, 0.122033
4583.69, 0.121829
4587.75, 0.121676
4591.81, 0.121625
4595.88, 0.121421
4599.96, 0.121116
4604.04, 0.120963
4608.14, 0.120810
4612.24, 0.120555
4616.34, 0.120402
4620.46, 0.120351
4624.58, 0.120199
4628.71, 0.119995
4632.84, 0.119893
4636.99, 0.119791
4641.14, 0.119740
4645.3, 0.119587
4649.47, 0.119536
4653.64, 0.119434
4657.82, 0.119332
4662.01, 0.119281
4666.21, 0.119129
4670.41, 0.118976
4674.62, 0.118976
4678.84, 0.118925
4683.07, 0.118823
4687.3, 0.118772
4691.54, 0.118772
4695.79, 0.118721
4700.05, 0.118619
4704.31, 0.118517
4708.59, 0.118466
4712.87, 0.118364
4717.15, 0.118313
4721.45, 0.118211
4725.76, 0.118211
4730.07, 0.118160
4734.39, 0.118160
4738.72, 0.118059
4743.05, 0.117957
4747.39, 0.117906
4751.75, 0.117957
4756.1, 0.118008
4760.47, 0.117957
4764.85, 0.117855
4769.23, 0.117753
4773.62, 0.117804
4778.02, 0.117753
4782.43, 0.117702
4786.85, 0.117702
4791.27, 0.117753
4795.7, 0.117702
4800.14, 0.117753
4804.59, 0.117855
4809.05, 0.117855
4813.51, 0.117804
4817.99, 0.117804
4822.47, 0.117804
4826.96, 0.117855
4831.46, 0.117804
4835.96, 0.117702
4840.48, 0.117651
4845.0, 0.117753
4849.54, 0.117855
4854.08, 0.117753
4858.63, 0.117753
4863.18, 0.117753
4867.75, 0.117753
4872.33, 0.117753
4876.91, 0.117753
4881.5, 0.117702
4886.1, 0.117753
4890.71, 0.117804
4895.33, 0.117702
4899.96, 0.117651
4904.59, 0.117651
4909.24, 0.117600
4913.89, 0.117498
4918.55, 0.117447
4923.22, 0.117447
4927.9, 0.117498
4932.59, 0.117396
4937.29, 0.117345
4942.0, 0.117294
4946.71, 0.117141
4951.44, 0.116836
4956.17, 0.116581
4960.91, 0.116530
4965.67, 0.116530
4970.43, 0.116224
4975.2, 0.115969
4979.98, 0.115715
4984.76, 0.115511
4989.56, 0.115256
4994.37, 0.114950
4999.18, 0.114645
5004.01, 0.114288
5008.84, 0.113982
5013.69, 0.113524
5018.54, 0.112861
5023.4, 0.112454
5028.28, 0.112199
5033.16, 0.111893
5038.05, 0.111435
5042.95, 0.110874
5047.86, 0.110416
5052.78, 0.109957
5057.71, 0.109397
5062.65, 0.108887
5067.6, 0.108377
5072.56, 0.107766
5077.53, 0.107155
5082.5, 0.106492
5087.49, 0.105932
5092.49, 0.105473
5097.5, 0.104913
5102.51, 0.104454
5107.54, 0.103995
5112.58, 0.103486
5117.62, 0.102976
5122.68, 0.102467
5127.75, 0.101906
5132.82, 0.101448
5137.91, 0.100938
5143.01, 0.100276
5148.12, 0.0996140
5153.23, 0.0996140
5158.36, 0.0994100
5163.5, 0.0990530
5168.65, 0.0986960
5173.81, 0.0983910
5178.98, 0.0981360
5184.15, 0.0977790
5189.34, 0.0974730
5194.54, 0.0969640
5199.75, 0.0964030
5204.98, 0.0963020
5210.21, 0.0956900
5215.45, 0.0953840
5220.7, 0.0957920
5225.96, 0.0957410
5231.23, 0.0953840
5236.52, 0.0950280
5241.81, 0.0948750
5247.12, 0.0948240
5252.44, 0.0947220
5257.76, 0.0945180
5263.1, 0.0943650
5268.45, 0.0940600
5273.81, 0.0937030
5279.18, 0.0935500
5284.56, 0.0933460
5289.95, 0.0927350
5295.36, 0.0926840
5300.77, 0.0928370
5306.2, 0.0926330
5311.63, 0.0924290
5317.08, 0.0922250
5322.54, 0.0919710
5328.01, 0.0917160
5333.49, 0.0914610
5338.98, 0.0911550
5344.49, 0.0902380
5350.0, 0.0890150
5355.53, 0.0891170
5361.07, 0.0893720
5366.62, 0.0892190
5372.18, 0.0886590
5377.75, 0.0881490
5383.34, 0.0876900
5388.93, 0.0872830
5394.54, 0.0867220
5400.16, 0.0861620
5405.79, 0.0854490
5411.44, 0.0846840
5417.09, 0.0832070
5422.76, 0.0818820
5428.43, 0.0823910
5434.12, 0.0823910
5439.83, 0.0816780
5445.54, 0.0811180
5451.26, 0.0806080
5457.0, 0.0797420
5462.75, 0.0783150
5468.52, 0.0778560
5474.29, 0.0775000
5480.08, 0.0767860
5485.88, 0.0767860
5491.69, 0.0764300
5497.51, 0.0758690
5503.35, 0.0754110
5509.2, 0.0750540
5515.06, 0.0743920
5520.93, 0.0736780
5526.82, 0.0733220
5532.71, 0.0731690
5538.63, 0.0727610
5544.55, 0.0721500
5550.49, 0.0713340
5556.44, 0.0709270
5562.4, 0.0708760
5568.37, 0.0705700
5574.36, 0.0692960
5580.36, 0.0684810
5586.37, 0.0691430
5592.4, 0.0694490
5598.44, 0.0688380
5604.49, 0.0684300
5610.56, 0.0682260
5616.63, 0.0677170
5622.73, 0.0676150
5628.83, 0.0671560
5634.95, 0.0659330
5641.08, 0.0643030
5647.23, 0.0646090
5653.39, 0.0648630
5659.56, 0.0649140
5665.74, 0.0650160
5671.94, 0.0638950
5678.15, 0.0632330
5684.38, 0.0632840
5690.62, 0.0626210
5696.87, 0.0624180
5703.14, 0.0617550
5709.42, 0.0601250
5715.72, 0.0597680
5722.03, 0.0598190
5728.35, 0.0595640
5734.69, 0.0589530
5741.03, 0.0581380
5747.4, 0.0570680
5753.78, 0.0568640
5760.17, 0.0552330
5766.58, 0.0528890
5773.0, 0.0536030
5779.44, 0.0539080
5785.88, 0.0532460
5792.35, 0.0525330
5798.83, 0.0515140
5805.32, 0.0504950
5811.83, 0.0490170
5818.35, 0.0464690
5824.89, 0.0449920
5831.45, 0.0448900
5838.01, 0.0445840
5844.59, 0.0437180
5851.19, 0.0423420
5857.8, 0.0407120
5864.43, 0.0391320
5871.07, 0.0379090
5877.73, 0.0352600
5884.4, 0.0338840
5891.09, 0.0333740
5897.79, 0.0318460
5904.5, 0.0316930
5911.23, 0.0309290
5917.98, 0.0296040
5924.75, 0.0282790
5931.53, 0.0262410
5938.32, 0.0245590
5945.13, 0.0244580
5951.96, 0.0238970
5958.8, 0.0229290
5965.65, 0.0215530
5972.53, 0.0205850
5979.42, 0.0199740
5986.32, 0.0189550
5993.24, 0.0182410
6000.18, 0.0178340
6007.13, 0.0170690
6014.1, 0.0162540
6021.08, 0.0158460
6028.09, 0.0153880
6035.1, 0.0147250
6042.14, 0.0136050
6049.19, 0.0125850
6056.25, 0.0128910
6063.34, 0.0129420
6070.44, 0.0124330
6077.55, 0.0123310
6084.69, 0.0125850
6091.84, 0.0126870
6099.0, 0.0126360
6106.19, 0.0124840
6113.39, 0.0123820
6120.61, 0.0128910
6127.84, 0.0134010
6135.09, 0.0136550
6142.36, 0.0139610
6149.65, 0.0144200
6156.95, 0.0147250
6164.27, 0.0152860
6171.61, 0.0159990
6178.97, 0.0162030
6186.34, 0.0164580
6193.73, 0.0175790
6201.14, 0.0184450
6208.57, 0.0192090
6216.01, 0.0199740
6223.47, 0.0208400
6230.95, 0.0216550
6238.45, 0.0225720
6245.97, 0.0235910
6253.5, 0.0245590
6261.06, 0.0254260
6268.63, 0.0263940
6276.21, 0.0273620
6283.82, 0.0282790
6291.45, 0.0292470
6299.1, 0.0301640
6306.76, 0.0308780
6314.44, 0.0316420
6322.14, 0.0323040
6329.86, 0.0329160
6337.6, 0.0326610
6345.35, 0.0325590
6353.13, 0.0339860
6360.92, 0.0346990
6368.74, 0.0344950
6376.57, 0.0351070
6384.43, 0.0357690
6392.3, 0.0361260
6400.19, 0.0360240
6408.1, 0.0342410
6416.03, 0.0337310
6423.98, 0.0355650
6431.95, 0.0364820
6439.94, 0.0370940
6447.95, 0.0375530
6455.98, 0.0377050
6464.03, 0.0376540
6472.1, 0.0371450
6480.19, 0.0365330
6488.31, 0.0355140
6496.44, 0.0355140
6504.59, 0.0371450
6512.76, 0.0376540
6520.95, 0.0372470
6529.16, 0.0378070
6537.4, 0.0379600
6545.65, 0.0376030
6553.92, 0.0372980
6562.22, 0.0370940
6570.54, 0.0362280
6578.88, 0.0364820
6587.23, 0.0368900
6595.61, 0.0370430
6604.02, 0.0374510
6612.44, 0.0372980
6620.89, 0.0369410
6629.35, 0.0357180
6637.84, 0.0347500
6646.35, 0.0361260
6654.88, 0.0372470
6663.44, 0.0369410
6672.01, 0.0362790
6680.61, 0.0358200
6689.23, 0.0363300
6697.88, 0.0365840
6706.54, 0.0359220
6715.23, 0.0356670
6723.94, 0.0358200
6732.67, 0.0361260
6741.42, 0.0361260
6750.2, 0.0358710
6759.0, 0.0356670
6767.82, 0.0352600
6776.67, 0.0346990
6785.54, 0.0338840
6794.44, 0.0337310
6803.35, 0.0344950
6812.29, 0.0344440
6821.26, 0.0337310
6830.24, 0.0334250
6839.25, 0.0336290
6848.29, 0.0330690
6857.35, 0.0316420
6866.43, 0.0310300
6875.54, 0.0320500
6884.67, 0.0323040
6893.82, 0.0320500
6903.0, 0.0315910
6912.2, 0.0313870
6921.43, 0.0312850
6930.69, 0.0310300
6939.96, 0.0307250
6949.27, 0.0301640
6958.59, 0.0292980
6967.95, 0.0294510
6977.33, 0.0296550
6986.73, 0.0292470
6996.16, 0.0287890
7005.61, 0.0285850
7015.09, 0.0282790
7024.6, 0.0279730
7034.13, 0.0274640
7043.69, 0.0266490
7053.27, 0.0266490
7062.88, 0.0268520
7072.52, 0.0266490
7082.18, 0.0263430
7091.87, 0.0260370
7101.58, 0.0257310
7111.32, 0.0252730
7121.09, 0.0249160
7130.88, 0.0246100
7140.71, 0.0242030
7150.56, 0.0237440
7160.43, 0.0234380
7170.33, 0.0229290
7180.27, 0.0228270
7190.23, 0.0226740
7200.21, 0.0221650
7210.23, 0.0218080
7220.27, 0.0217060
7230.34, 0.0213490
7240.44, 0.0209930
7250.56, 0.0205850
7260.72, 0.0202280
7270.9, 0.0197190
7281.12, 0.0193110
7291.36, 0.0190060
7301.63, 0.0187000
7311.93, 0.0182410
7322.25, 0.0178340
7332.61, 0.0173240
7343.0, 0.0169670
7353.41, 0.0167130
7363.86, 0.0163050
7374.33, 0.0158460
7384.83, 0.0154390
7395.37, 0.0150310
7405.93, 0.0145220
7416.53, 0.0141140
7427.15, 0.0138590
7437.81, 0.0134520
7448.5, 0.0130440
7459.22, 0.0127380
7469.96, 0.0123310
7480.74, 0.0119230
7491.55, 0.0114640
7502.39, 0.0110060
7513.27, 0.0105470
7524.17, 0.0101400
7535.11, 0.00983400
7546.08, 0.00942600
7557.08, 0.00912100
7568.11, 0.00866200
7579.17, 0.00820300
7590.27, 0.00779600
7601.4, 0.00749000
7612.56, 0.00713300
7623.76, 0.00682800
7634.98, 0.00652200
7646.24, 0.00616500
7657.54, 0.00586000
7668.87, 0.00555400
7680.23, 0.00519700
7691.62, 0.00489200
7703.05, 0.00458600
7714.51, 0.00422900
7726.01, 0.00387200
7737.54, 0.00361800
7749.11, 0.00336300
7760.71, 0.00315900
7772.35, 0.00290400
7784.02, 0.00265000
7795.72, 0.00244600
7807.46, 0.00224200
7819.23, 0.00198700
7831.04, 0.00183400
7842.89, 0.00173200
7854.77, 0.00163100
7866.69, 0.00147800
7878.65, 0.00137600
7890.64, 0.00132500
7902.67, 0.00132500
7914.74, 0.00137600
7926.84, 0.00137600
7938.98, 0.00142700
7951.16, 0.00152900
7963.37, 0.00173200
7975.62, 0.00193600
7987.91, 0.00219100
8000.24, 0.00265000
8012.6, 0.00305700
8025.01, 0.00361800
8037.45, 0.00428000
8049.93, 0.00504400
8062.45, 0.00596200
8075.01, 0.00723500
8087.61, 0.00866200
8100.24, 0.0102420
8112.91, 0.0119740
8125.63, 0.0138590
8138.39, 0.0157950
8151.18, 0.0178850
8164.02, 0.0200760
8176.9, 0.0221650
8189.81, 0.0242030
8202.77, 0.0261390
8215.77, 0.0280240
8228.82, 0.0297060
8241.9, 0.0312340
8255.02, 0.0327630
8268.19, 0.0341900
8281.39, 0.0356670
8294.65, 0.0372470
8307.94, 0.0387750
8321.28, 0.0402530
8334.66, 0.0417310
8348.08, 0.0431060
8361.54, 0.0444310
8375.05, 0.0456540
8388.6, 0.0467240
8402.2, 0.0475900
8415.84, 0.0483550
8429.52, 0.0488640
8443.25, 0.0493230
8457.02, 0.0496790
8470.84, 0.0499850
8484.7, 0.0503420
8498.61, 0.0506980
8512.57, 0.0509020
8526.57, 0.0512590
8540.62, 0.0516160
8554.71, 0.0520230
8568.85, 0.0526350
8583.04, 0.0533480
8597.27, 0.0540610
8611.55, 0.0548260
8625.88, 0.0556410
8640.26, 0.0566600
8654.68, 0.0576280
8669.16, 0.0585960
8683.68, 0.0595640
8698.25, 0.0606340
8712.87, 0.0616530
8727.53, 0.0625710
8742.25, 0.0634880
8757.02, 0.0643030
8771.83, 0.0650670
8786.7, 0.0658820
8801.62, 0.0668000
8816.59, 0.0677680
8831.61, 0.0688380
8846.68, 0.0698060
8861.8, 0.0707740
8876.97, 0.0717420
8892.2, 0.0726590
8907.48, 0.0737290
8922.81, 0.0748500
8938.2, 0.0758690
8953.63, 0.0768880
8969.13, 0.0780090
8984.67, 0.0791810
9000.27, 0.0803020
9015.92, 0.0816270
9031.63, 0.0830030
9047.39, 0.0843280
9063.21, 0.0857540
9079.08, 0.0871300
9095.01, 0.0885060
9111.0, 0.0899320
9127.04, 0.0912570
9143.13, 0.0924800
9159.28, 0.0939070
9175.49, 0.0953330
9191.76, 0.0964540
9208.09, 0.0976260
9224.47, 0.0986960
9240.92, 0.0996640
9257.42, 0.100633
9273.98, 0.101295
9290.6, 0.101703
9307.28, 0.101804
9324.02, 0.101550
9340.82, 0.101040
9357.68, 0.100378
9374.6, 0.0995120
9391.58, 0.0982890
9408.62, 0.0968620
9425.73, 0.0954350
9442.9, 0.0940090
9460.13, 0.0926330
9477.42, 0.0912060
9494.78, 0.0897800
9512.2, 0.0885570
9529.69, 0.0874360
9547.24, 0.0864170
9564.86, 0.0856010
9582.54, 0.0846840
9600.28, 0.0838180
9618.1, 0.0831050
9635.97, 0.0824930
9653.92, 0.0820350
9671.93, 0.0816780
9690.01, 0.0813720
9708.16, 0.0811680
9726.37, 0.0810160
9744.65, 0.0807610
9763.0, 0.0806080
9781.43, 0.0805570
9799.92, 0.0803530
9818.48, 0.0800980
9837.1, 0.0796910
9855.8, 0.0791300
9874.58, 0.0786210
9893.42, 0.0779580
9912.34, 0.0772450
9931.33, 0.0765320
9950.39, 0.0758180
9969.52, 0.0751560
9988.74, 0.0744430
10008.0, 0.0736270
10027.4, 0.0728630
10046.8, 0.0722010
10066.3, 0.0712840
10085.9, 0.0704680
10105.6, 0.0698060
10125.3, 0.0690420
10145.1, 0.0682260
10165.0, 0.0676150
10185.0, 0.0671050
10205.0, 0.0666470
10225.2, 0.0660350
10245.4, 0.0654240
10265.7, 0.0650160
10286.0, 0.0646600
10306.5, 0.0643030
10327.0, 0.0640990
10347.6, 0.0638950
10368.3, 0.0636910
10389.1, 0.0635900
10409.9, 0.0635900
10430.9, 0.0637930
10451.9, 0.0640480
10473.0, 0.0642520
10494.2, 0.0644560
10515.5, 0.0648630
10536.9, 0.0652710
10558.4, 0.0658820
10579.9, 0.0664940
10601.5, 0.0669020
10623.3, 0.0672580
10645.1, 0.0678190
10667.0, 0.0683790
10689.0, 0.0689910
10711.1, 0.0695510
10733.2, 0.0699590
10755.5, 0.0704170
10777.9, 0.0708250
10800.3, 0.0711820
10822.9, 0.0715380
10845.5, 0.0717930
10868.2, 0.0719970
10891.1, 0.0722010
10914.0, 0.0724550
10937.0, 0.0723540
10960.2, 0.0723030
10983.4, 0.0723030
11006.7, 0.0721500
11030.1, 0.0719970
11053.6, 0.0717420
11077.3, 0.0716400
11101.0, 0.0715380
11124.8, 0.0712840
11148.7, 0.0709780
11172.7, 0.0706210
11196.9, 0.0702140
11221.1, 0.0697550
11245.4, 0.0695510
11269.9, 0.0692450
11294.4, 0.0688380
11319.1, 0.0685320
11343.9, 0.0681240
11368.8, 0.0676660
11393.7, 0.0672070
11418.8, 0.0667490
11444.0, 0.0663920
11469.4, 0.0658820
11494.8, 0.0652710
11520.3, 0.0646090
11546.0, 0.0640480
11571.8, 0.0633350
11597.7, 0.0627230
11623.7, 0.0622650
11649.8, 0.0616020
11676.0, 0.0608890
11702.4, 0.0602780
11728.9, 0.0595640
11755.5, 0.0588000
11782.2, 0.0578830
11809.0, 0.0570680
11836.0, 0.0563030
11863.0, 0.0554370
11890.3, 0.0544690
11917.6, 0.0535520
11945.0, 0.0524820
11972.6, 0.0515140
12000.4, 0.0505970
12028.2, 0.0494760
12056.2, 0.0483040
12084.3, 0.0472850
12112.5, 0.0459600
12140.9, 0.0444310
12169.4, 0.0430050
12198.0, 0.0415270
12226.8, 0.0397940
12255.7, 0.0383170
12284.7, 0.0369410
12313.9, 0.0355140
12343.2, 0.0340880
12372.7, 0.0328650
12402.3, 0.0316930
12432.0, 0.0303680
12461.9, 0.0290430
12491.9, 0.0280240
12522.1, 0.0272600
12552.4, 0.0267500
12582.9, 0.0264450
12613.5, 0.0260370
12644.3, 0.0258330
12675.2, 0.0256800
12706.3, 0.0256290
12737.5, 0.0258330
12768.9, 0.0259350
12800.4, 0.0257820
12832.1, 0.0254770
12863.9, 0.0253240
12895.9, 0.0254260
12928.1, 0.0255280
12960.4, 0.0252220
12992.9, 0.0250690
13025.5, 0.0250690
13058.3, 0.0249160
13091.3, 0.0247120
13124.4, 0.0245590
13157.8, 0.0242030
13191.2, 0.0239480
13224.9, 0.0239480
13258.7, 0.0237440
13292.7, 0.0232860
13326.9, 0.0230310
13361.2, 0.0228270
13395.7, 0.0225210
13430.4, 0.0224190
13465.3, 0.0224190
13500.4, 0.0225210
13535.7, 0.0226230
13571.1, 0.0227250
13606.7, 0.0227760
13642.5, 0.0229290
13678.5, 0.0231330
13714.7, 0.0232860
13751.1, 0.0235400
13787.6, 0.0236420
13824.4, 0.0238460
13861.4, 0.0242540
13898.5, 0.0245080
13935.9, 0.0246100
13973.5, 0.0247120
14011.2, 0.0248650
14049.2, 0.0249160
14087.4, 0.0249670
14125.8, 0.0251710
14164.3, 0.0253750
14203.2, 0.0254260
14242.2, 0.0252730
14281.4, 0.0251710
14320.9, 0.0250180
14360.5, 0.0249160
14400.4, 0.0251710
14440.5, 0.0251200
14480.9, 0.0245080
14521.4, 0.0240500
14562.2, 0.0241010
14603.3, 0.0242030
14644.5, 0.0239480
14686.0, 0.0235910
14727.7, 0.0232860
14769.7, 0.0229800
14811.9, 0.0225210
14854.3, 0.0222670
14897.0, 0.0220120
14939.9, 0.0214510
14983.1, 0.0208910
15026.5, 0.0209420
15070.2, 0.0209420
15114.2, 0.0205340
15158.3, 0.0198720
15202.8, 0.0196170
15247.5, 0.0197700
15292.5, 0.0196680
15337.7, 0.0191580
15383.2, 0.0187510
15429.0, 0.0185980
15475.1, 0.0184450
15521.4, 0.0183940
15568.0, 0.0185980
15614.9, 0.0187510
15662.1, 0.0189040
15709.6, 0.0190060
15757.3, 0.0187000
15805.4, 0.0187510
15853.7, 0.0193110
15902.3, 0.0195660
15951.2, 0.0199230
16000.5, 0.0204830
16050.0, 0.0210440
16099.8, 0.0215020
16150.0, 0.0219610
16200.5, 0.0223680
16251.3, 0.0223180
16302.4, 0.0221650
16353.8, 0.0220630
16405.5, 0.0220630
16457.6, 0.0219610
16510.0, 0.0221650
16562.8, 0.0224190
16615.9, 0.0225210
16669.3, 0.0224190
16723.1, 0.0223180
16777.2, 0.0224700
16831.7, 0.0222160
16886.5, 0.0218590
16941.7, 0.0218590
16997.2, 0.0216040
17053.1, 0.0215020
17109.4, 0.0216550
17166.1, 0.0216040
17223.1, 0.0214000
17280.5, 0.0210950
17338.3, 0.0206870
17396.5, 0.0206870
17455.1, 0.0205340
17514.0, 0.0204830
17573.4, 0.0208400
17633.2, 0.0206870
17693.4, 0.0201770
17754.0, 0.0199740
17815.0, 0.0196170
17876.4, 0.0193110
17938.3, 0.0192600
18000.5, 0.0189040
18063.3, 0.0188020
18126.4, 0.0187000
18190.0, 0.0185470
18254.1, 0.0187510
18318.6, 0.0190060
18383.5, 0.0196680
18449.0, 0.0202280
18514.9, 0.0209420
18581.2, 0.0224700
18648.0, 0.0248650
18715.4, 0.0273110
18783.2, 0.0301130
18851.5, 0.0317950
18920.3, 0.0332210
18989.6, 0.0345970
19059.4, 0.0360750
19129.7, 0.0369410
19200.6, 0.0367370
19272.0, 0.0371450
19343.9, 0.0377560
19416.3, 0.0376540
19489.3, 0.0381640
19562.8, 0.0394380
19637.0, 0.0412720
19711.6, 0.0438200
19786.8, 0.0474880
19862.6, 0.0518190
19939.0, 0.0558450
20016.0, 0.0602270
20093.6, 0.0651690
20171.8, 0.0703660
20250.6, 0.0754620
20330.0, 0.0807100
20410.0, 0.0861110
20490.7, 0.0921740
20572.0, 0.0973210
20654.0, 0.100684
20736.6, 0.104760
20819.9, 0.107919
20903.8, 0.109855
20988.5, 0.112759
21073.8, 0.114033
21159.8, 0.112810
21246.5, 0.112097
21334.0, 0.110772
21422.1, 0.109447
21511.0, 0.106798
21600.7, 0.103078
21691.0, 0.100072
21782.1, 0.0972190
21874.0, 0.0949770
21966.7, 0.0937540
22060.2, 0.0920210
22154.5, 0.0905440
22249.6, 0.0884040
22345.5, 0.0858560
22442.2, 0.0816780
22539.8, 0.0779070
22638.2, 0.0766340
22737.5, 0.0755640
22837.7, 0.0737800
22938.7, 0.0715890
23040.7, 0.0710800
23143.5, 0.0711820
23247.3, 0.0696530
23352.1, 0.0671560
23457.7, 0.0658320
23564.4, 0.0651180
23672.0, 0.0642520
23780.5, 0.0641850
23890.1, 0.0642970
24000.7, 0.0648240
24112.3, 0.0652230
24225.0, 0.0657010
24338.7, 0.0653340
24453.5, 0.0646960
24569.4, 0.0643130
24686.4, 0.0642810
24804.5, 0.0642650
24923.8, 0.0641850
25044.2, 0.0643770
25165.8, 0.0644080
25288.6, 0.0644080
25412.5, 0.0647280
25537.7, 0.0648870
25664.1, 0.0649670
25791.8, 0.0650790
25920.8, 0.0652230
26051.1, 0.0654460
26182.6, 0.0654620
26315.5, 0.0652070
26449.8, 0.0648390
26585.4, 0.0644720
26722.5, 0.0643450
26860.9, 0.0642330
27000.8, 0.0636580
27142.1, 0.0631310
27285.0, 0.0626370
27429.4, 0.0622850
27575.3, 0.0618860
27722.7, 0.0613120
27871.8, 0.0609130
28022.4, 0.0604980
28174.7, 0.0601310
28328.7, 0.0596840
28484.4, 0.0596520
28641.7, 0.0596840
28800.9, 0.0599550
28961.8, 0.0601310
29124.5, 0.0598270
29289.0, 0.0596040
29455.4, 0.0594280
29623.8, 0.0591730
29794.0, 0.0591890
29966.3, 0.0595560
30140.5, 0.0598750
30316.7, 0.0594600
30495.1, 0.0593160
30675.5, 0.0598590
30858.1, 0.0600510
31042.8, 0.0604980
31229.8, 0.0607530
31419.1, 0.0608010
31610.7, 0.0606570
31804.6, 0.0607210
32000.9, 0.0607370
32199.7, 0.0604180
32400.9, 0.0604660
32604.8, 0.0607690
32811.1, 0.0604980
33020.1, 0.0600830
33231.8, 0.0604660
33446.2, 0.0607850
33663.4, 0.0607210
33883.4, 0.0607050
34106.3, 0.0609770
34332.1, 0.0606890
34561.0, 0.0606570
34792.9, 0.0606410
35028.0, 0.0604500
35266.3, 0.0599550
35507.8, 0.0593000
35752.7, 0.0585180
36001.0, 0.0583270
36252.8, 0.0591890
36508.1, 0.0592530
36767.0, 0.0586140
37029.7, 0.0582630
37296.1, 0.0580550
37566.3, 0.0574010
37840.5, 0.0572730
38118.8, 0.0572570
38401.2, 0.0571140
38687.8, 0.0567470
38978.6, 0.0560920
39273.9, 0.0546390
39573.7, 0.0544160
39878.1, 0.0548630
40187.3, 0.0540810
40501.2, 0.0537460
40820.0, 0.0541610
41144.0, 0.0545120
41473.2, 0.0544960
41807.6, 0.0545440
42147.5, 0.0545120
42493.0, 0.0545440
42844.2, 0.0544800
43201.2, 0.0539050
43564.3, 0.0529160
43933.5, 0.0523730
44309.0, 0.0528520
44691.0, 0.0531870
45079.6, 0.0532350
45475.0, 0.0541450
45877.5, 0.0544160
46287.1, 0.0536820
46704.2, 0.0530110
47128.7, 0.0530750
47561.1, 0.0531390
48001.5, 0.0528840
48450.1, 0.0532350
48907.2, 0.0526280
49373.0, 0.0514790
49847.7, 0.0514790
50331.5, 0.0513030
50825.0, 0.0506490
51328.2, 0.0500740
51841.5, 0.0502660
52365.1, 0.0502020
52899.4, 0.0490690
53444.8, 0.0482230
54001.5, 0.0477920
54570.1, 0.0474720
55150.6, 0.0467380
55743.6, 0.0459880
56349.5, 0.0445350
56968.7, 0.0438810
57601.7, 0.0442480
58248.9, 0.0435620
58910.9, 0.0424600
59588.1, 0.0416780
60281.0, 0.0411350
60990.2, 0.0406400
61716.3, 0.0402570
62459.8, 0.0392840
63221.6, 0.0385490
64002.1, 0.0385650
64802.1, 0.0380700
65622.1, 0.0372880
66463.4, 0.0370330
67326.6, 0.0376390
68212.4, 0.0376390
69121.9, 0.0371130
70056.0, 0.0359950
71015.7, 0.0352130
72002.0, 0.0351650
73016.3, 0.0354850
74059.4, 0.0352130
75132.7, 0.0341920
76237.6, 0.0337450
77375.5, 0.0336650
78547.9, 0.0335370
79756.3, 0.0336330
81002.5, 0.0334410
82288.5, 0.0329940
83615.7, 0.0334250
84986.5, 0.0343350
86402.9, 0.0343510
87867.4, 0.0348460
89382.4, 0.0352130
90950.5, 0.0377350
92574.6, 0.0379910
94257.2, 0.0355800
96002.7, 0.0351970
97814.1, 0.0354050
99695.1, 0.0359630
101650.0, 0.0365220
103683.0, 0.0364900
105799.0, 0.0362190
108003.0, 0.0351650
110301.0, 0.0345590
112699.0, 0.0353890
115204.0, 0.0352130
117822.0, 0.0366500
120562.0, 0.0381020
123433.0, 0.0383100
126443.0, 0.0377190
129604.0, 0.0380070
132926.0, 0.0379110
136424.0, 0.0368090
140111.0, 0.0369530
144003.0, 0.0398100
148118.0, 0.0415660
152474.0, 0.0420450
157095.0, 0.0408160
162004.0, 0.0380390
167231.0, 0.0372880
172805.0, 0.0360270
178764.0, 0.0347660
185148.0, 0.0342390
192005.0, 0.0396990
199390.0, 0.0455730
207366.0, 0.0492600
216006.0, 0.0479350
