Database of Origin, USGS Spectral Database
Sample Description, See USGS database for additional info
Date Added,2016-08-10 05:18:26.177308

Data ID,USGS_oli07          
Sample ID, olivine_gds70.16402
Mineral Name, olivine
Material Class,Nesosilicate

Wavelength
263.6, 0.0533810
268.6, 0.0556720
273.1, 0.0546970
277.1, 0.0571070
281.1, 0.0578230
285.1, 0.0594330
289.1, 0.0616680
293.1, 0.0630570
297.1, 0.0646260
301.1, 0.0661490
305.1, 0.0705670
309.1, 0.0723680
313.1, 0.0762700
317.1, 0.0816500
321.1, 0.0872440
325.1, 0.0952240
329.1, 0.105326
333.1, 0.114825
337.1, 0.125078
341.1, 0.137972
345.1, 0.149210
349.1, 0.162407
353.1, 0.169688
357.1, 0.178585
360.6, 0.189159
363.6, 0.197166
366.6, 0.200568
369.6, 0.209062
372.6, 0.214471
375.6, 0.219861
378.6, 0.227005
381.1, 0.232678
383.1, 0.233707
385.1, 0.236261
387.1, 0.239780
389.1, 0.244639
391.1, 0.246092
393.1, 0.248870
395.1, 0.251463
397.1, 0.257002
399.1, 0.256815
401.1, 0.257729
403.1, 0.262331
405.1, 0.268689
407.1, 0.272060
409.1, 0.274764
411.1, 0.279716
412.8, 0.281156
415.8, 0.281737
418.8, 0.286106
421.8, 0.288471
424.8, 0.290284
427.8, 0.291435
430.8, 0.293281
433.8, 0.294503
436.8, 0.295941
439.8, 0.298440
442.8, 0.297007
445.8, 0.295886
448.8, 0.297328
451.3, 0.299317
453.3, 0.299042
455.3, 0.300234
457.3, 0.303548
459.3, 0.305360
461.3, 0.305584
463.3, 0.309640
465.3, 0.312885
467.3, 0.314657
469.3, 0.313961
471.3, 0.317537
473.3, 0.321531
475.3, 0.326290
477.3, 0.328646
479.3, 0.332821
481.3, 0.335942
483.3, 0.337955
485.3, 0.339685
487.3, 0.342096
489.3, 0.344067
491.3, 0.346756
493.3, 0.349075
495.3, 0.352550
497.3, 0.358874
499.3, 0.366183
501.3, 0.372978
503.3, 0.375784
505.3, 0.380381
507.3, 0.387494
509.3, 0.390478
511.3, 0.392157
513.3, 0.397658
515.3, 0.401328
517.3, 0.404566
519.3, 0.409121
521.3, 0.411010
523.3, 0.413821
525.3, 0.416938
527.3, 0.420066
529.3, 0.423112
531.3, 0.428154
533.3, 0.430677
535.3, 0.433801
537.3, 0.437499
539.3, 0.437579
541.3, 0.441395
543.3, 0.445079
545.3, 0.447875
547.3, 0.449369
549.3, 0.451591
551.3, 0.453976
553.3, 0.455645
555.3, 0.455033
557.3, 0.458597
559.3, 0.458116
561.3, 0.459465
563.3, 0.457576
565.3, 0.460041
567.3, 0.458119
569.3, 0.458677
571.3, 0.459268
573.3, 0.460993
575.3, 0.460010
577.3, 0.458227
579.3, 0.458833
581.3, 0.456508
583.3, 0.455905
585.3, 0.457548
587.3, 0.454082
589.3, 0.453531
591.3, 0.453296
593.3, 0.454075
595.3, 0.451166
597.3, 0.449828
599.3, 0.449423
601.1, 0.449767
602.7, 0.446616
604.3, 0.444590
605.9, 0.444399
607.5, 0.444224
609.1, 0.443691
610.7, 0.443791
612.3, 0.441145
613.9, 0.442058
615.5, 0.437810
617.1, 0.434981
618.7, 0.434518
620.3, 0.433572
621.9, 0.433059
623.5, 0.430681
625.1, 0.430353
626.7, 0.427560
628.3, 0.426430
629.9, 0.424918
631.7, 0.424771
633.7, 0.421091
635.7, 0.421503
637.7, 0.420780
639.7, 0.421461
641.7, 0.419889
643.7, 0.420719
645.7, 0.419265
647.7, 0.421545
649.7, 0.422291
651.7, 0.419802
653.7, 0.421248
655.7, 0.421353
657.7, 0.421959
659.7, 0.422896
661.7, 0.423066
663.7, 0.421448
665.7, 0.422161
667.7, 0.421482
670.2, 0.422108
673.2, 0.422853
676.2, 0.425319
679.2, 0.426290
682.2, 0.427653
685.2, 0.423800
688.2, 0.421598
691.2, 0.420371
694.2, 0.417327
697.2, 0.418882
700.2, 0.415835
702.0, 0.417651
704.0, 0.416133
706.0, 0.417755
708.0, 0.415985
710.0, 0.414481
712.0, 0.413381
714.0, 0.410728
716.0, 0.413263
718.0, 0.412250
720.0, 0.411677
722.0, 0.409950
724.0, 0.409906
726.0, 0.408177
728.0, 0.407649
730.0, 0.405590
732.0, 0.405584
734.0, 0.402466
736.0, 0.400989
738.0, 0.401863
740.0, 0.398647
742.0, 0.395510
744.0, 0.393758
746.0, 0.392713
748.0, 0.391570
750.5, 0.387971
753.5, 0.383644
756.5, 0.381319
759.5, 0.376868
762.5, 0.373874
765.5, 0.368083
768.5, 0.367158
771.5, 0.364658
774.5, 0.359393
777.5, 0.357449
781.0, 0.351210
785.0, 0.345214
789.0, 0.343487
793.0, 0.338326
797.0, 0.332708
801.5, 0.328940
806.5, 0.324173
811.5, 0.318044
816.5, 0.314413
822.0, 0.308140
828.0, 0.305657
835.0, 0.301079
851.0, 0.278997
859.0, 0.280562
871.0, 0.276096
883.0, 0.269248
894.0, 0.263642
904.0, 0.261238
914.0, 0.248591
924.0, 0.240796
933.0, 0.231647
941.0, 0.225748
949.0, 0.219215
957.0, 0.209115
964.0, 0.201880
970.0, 0.196803
976.0, 0.188456
982.0, 0.184516
988.0, 0.180100
994.0, 0.177425
1000.0, 0.171382
1006.0, 0.166543
1012.0, 0.166210
1018.0, 0.162721
1023.5, 0.158679
1028.5, 0.157030
1033.5, 0.154553
1038.5, 0.155497
1043.5, 0.153252
1048.5, 0.151704
1053.5, 0.150232
1058.5, 0.149890
1063.5, 0.153966
1068.5, 0.157950
1073.5, 0.155924
1078.5, 0.161010
1083.5, 0.159071
1088.5, 0.161549
1093.5, 0.163261
1098.5, 0.163930
1103.5, 0.169381
1108.5, 0.169592
1113.5, 0.172829
1118.5, 0.173908
1123.5, 0.178097
1128.5, 0.181498
1133.5, 0.182993
1138.5, 0.188856
1143.5, 0.188828
1148.5, 0.191370
1153.5, 0.192178
1158.5, 0.193250
1163.5, 0.195761
1168.5, 0.200539
1173.5, 0.201775
1178.5, 0.203114
1183.5, 0.201276
1188.5, 0.204342
1193.5, 0.206030
1198.5, 0.207022
1203.5, 0.211719
1208.5, 0.212904
1213.5, 0.214074
1218.5, 0.211365
1223.5, 0.215709
1228.5, 0.217387
1233.5, 0.218163
1238.5, 0.220510
1243.5, 0.224470
1248.5, 0.224731
1253.5, 0.225552
1258.5, 0.228516
1263.5, 0.229941
1268.5, 0.231341
1273.5, 0.236497
1278.5, 0.233875
1283.5, 0.240485
1288.5, 0.240144
1293.5, 0.245230
1298.5, 0.246990
1303.5, 0.252487
1308.5, 0.253684
1313.5, 0.257174
1318.5, 0.258439
1323.5, 0.263060
1328.5, 0.266626
1333.5, 0.269100
1338.5, 0.274268
1343.5, 0.276128
1348.5, 0.280078
1353.5, 0.286015
1358.5, 0.289616
1363.5, 0.293679
1368.5, 0.297163
1373.5, 0.302540
1378.5, 0.307343
1383.5, 0.316961
1388.5, 0.317642
1393.5, 0.323633
1398.5, 0.329119
1403.5, 0.333959
1408.5, 0.340250
1413.5, 0.345715
1418.5, 0.350931
1423.5, 0.356679
1428.5, 0.364570
1433.5, 0.371902
1438.5, 0.376399
1443.5, 0.387029
1448.5, 0.389892
1453.5, 0.393365
1458.5, 0.397194
1463.5, 0.409564
1468.5, 0.410131
1473.5, 0.421974
1478.5, 0.422729
1483.5, 0.427900
1488.5, 0.438141
1493.5, 0.441569
1498.5, 0.450879
1503.5, 0.453832
1508.5, 0.460796
1513.5, 0.467470
1518.5, 0.473626
1523.5, 0.476193
1528.5, 0.486081
1534.0, 0.491544
1540.0, 0.498539
1546.0, 0.506256
1552.0, 0.514746
1558.0, 0.515655
1564.0, 0.524860
1570.5, 0.532091
1577.5, 0.536915
1584.5, 0.545920
1591.5, 0.549442
1598.5, 0.554412
1605.5, 0.561748
1612.5, 0.565691
1619.5, 0.572883
1626.5, 0.575022
1633.5, 0.577844
1640.5, 0.589070
1647.5, 0.587780
1654.5, 0.594168
1661.5, 0.596444
1668.5, 0.600843
1676.0, 0.602456
1684.0, 0.606129
1692.0, 0.608527
1700.0, 0.608612
1708.0, 0.615009
1716.0, 0.617503
1724.0, 0.621102
1732.0, 0.621657
1740.0, 0.624753
1748.0, 0.619772
1756.0, 0.620050
1764.0, 0.624514
1772.0, 0.623673
1780.0, 0.627713
1788.0, 0.625214
1796.0, 0.628408
1805.0, 0.629977
1815.0, 0.629897
1825.0, 0.627883
1835.0, 0.629762
1845.0, 0.628379
1855.0, 0.628865
1865.0, 0.633454
1875.0, 0.636201
1885.0, 0.629718
1895.0, 0.632396
1905.0, 0.629852
1915.0, 0.630460
1925.0, 0.627935
1935.0, 0.631172
1945.0, 0.629987
1955.0, 0.629005
1965.0, 0.633252
1975.0, 0.634580
1985.0, 0.636259
1995.0, 0.631611
2005.0, 0.635707
2015.0, 0.633200
2025.0, 0.636349
2035.0, 0.636892
2045.0, 0.636868
2055.0, 0.639351
2065.0, 0.635976
2075.0, 0.636433
2085.0, 0.645639
2095.0, 0.638347
2105.0, 0.640241
2115.0, 0.642155
2125.0, 0.647203
2135.0, 0.644667
2145.0, 0.643782
2155.0, 0.643333
2165.0, 0.645157
2175.0, 0.638758
2185.0, 0.641888
2195.0, 0.640462
2205.0, 0.640611
2215.0, 0.639087
2225.0, 0.638316
2235.0, 0.644133
2245.0, 0.634808
2255.0, 0.634292
2265.0, 0.641371
2275.0, 0.635201
2285.0, 0.622120
2295.0, 0.638508
2305.0, 0.636035
2315.0, 0.636283
2325.0, 0.647970
2335.0, 0.647920
2345.0, 0.646560
2355.0, 0.650200
2365.0, 0.653189
2375.0, 0.647990
2386.0, 0.651425
2400.0, 0.650778
2418.0, 0.653411
2440.0, 0.652174
2466.0, 0.654803
2496.0, 0.654936
2528.0, 0.659933
2560.0, 0.652582
2592.0, 0.647172
2624.0, 0.654331
2656.0, 0.637304
2688.0, 0.633590
