Database of Origin, USGS Spectral Database
Sample Description, See USGS database for additional info
Date Added,2016-08-10 02:53:45.400378

Data ID,USGS_hal09          
Sample ID, halloysite_nmnh106237.9010
Mineral Name, halloysite
Material Class,Phyllosilicate

Wavelength
1364.61, 0.791191
1364.97, 0.790781
1365.33, 0.788935
1365.69, 0.787807
1366.05, 0.787295
1366.41, 0.785244
1366.77, 0.782168
1367.13, 0.779604
1367.49, 0.776630
1367.85, 0.775400
1368.21, 0.772324
1368.57, 0.770376
1368.93, 0.769760
1369.3, 0.766684
1369.66, 0.762993
1370.02, 0.760942
1370.38, 0.758173
1370.74, 0.754482
1371.11, 0.752739
1371.47, 0.750688
1371.83, 0.745869
1372.19, 0.742690
1372.56, 0.740332
1372.92, 0.736743
1373.29, 0.732641
1373.65, 0.729257
1374.01, 0.725771
1374.38, 0.721875
1374.74, 0.716953
1375.11, 0.712646
1375.47, 0.707724
1375.84, 0.703007
1376.2, 0.697470
1376.57, 0.690293
1376.93, 0.684858
1377.3, 0.680141
1377.67, 0.674707
1378.03, 0.668144
1378.4, 0.661582
1378.76, 0.655019
1379.13, 0.649175
1379.5, 0.643125
1379.87, 0.635742
1380.23, 0.627231
1380.6, 0.620259
1380.97, 0.614721
1381.34, 0.608569
1381.7, 0.602929
1382.07, 0.595547
1382.44, 0.587036
1382.81, 0.582217
1383.18, 0.578423
1383.55, 0.573193
1383.92, 0.567553
1384.29, 0.563452
1384.66, 0.559555
1385.03, 0.555556
1385.4, 0.552378
1385.77, 0.549302
1386.14, 0.546225
1386.51, 0.543764
1386.88, 0.542636
1387.25, 0.541406
1387.62, 0.538535
1387.99, 0.537202
1388.36, 0.537715
1388.74, 0.537612
1389.11, 0.537509
1389.48, 0.538227
1389.85, 0.538227
1390.23, 0.539048
1390.6, 0.540791
1390.97, 0.542636
1391.35, 0.543457
1391.72, 0.543149
1392.09, 0.543867
1392.47, 0.546225
1392.84, 0.549712
1393.21, 0.552275
1393.59, 0.554121
1393.96, 0.555761
1394.34, 0.557402
1394.71, 0.558222
1395.09, 0.560068
1395.46, 0.562426
1395.84, 0.564067
1396.22, 0.565708
1396.59, 0.568681
1396.97, 0.570835
1397.35, 0.572475
1397.72, 0.574321
1398.1, 0.576064
1398.48, 0.577192
1398.85, 0.577397
1399.23, 0.577500
1399.61, 0.578935
1399.99, 0.580268
1400.37, 0.580576
1400.74, 0.581806
1401.12, 0.583037
1401.5, 0.583652
1401.88, 0.583857
1402.26, 0.583857
1402.64, 0.583652
1403.02, 0.582729
1403.4, 0.582114
1403.78, 0.580986
1404.16, 0.578730
1404.54, 0.575552
1404.92, 0.572885
1405.3, 0.571142
1405.68, 0.568886
1406.06, 0.565400
1406.44, 0.560888
1406.83, 0.555146
1407.21, 0.548481
1407.59, 0.541509
1407.97, 0.534126
1408.35, 0.526435
1408.74, 0.517720
1409.12, 0.508286
1409.5, 0.498852
1409.89, 0.490957
1410.27, 0.482446
1410.65, 0.474038
1411.04, 0.467373
1411.42, 0.462964
1411.81, 0.459067
1412.19, 0.457016
1412.58, 0.456914
1412.96, 0.458042
1413.35, 0.459785
1413.73, 0.462348
1414.12, 0.466963
1414.5, 0.474243
1414.89, 0.483266
1415.28, 0.494546
1415.66, 0.507466
1416.05, 0.521103
1416.44, 0.534228
1416.82, 0.547456
1417.21, 0.558838
1417.6, 0.569809
1417.98, 0.580371
1418.37, 0.589804
1418.76, 0.597187
1419.15, 0.604467
1419.54, 0.613081
1419.93, 0.620976
1420.32, 0.626924
1420.71, 0.631948
1421.09, 0.637690
1421.48, 0.642202
1421.88, 0.645893
1422.27, 0.649790
1422.66, 0.653584
1423.05, 0.656660
1423.44, 0.658095
1423.83, 0.660659
1424.22, 0.663017
1424.61, 0.664863
1425.0, 0.667016
1425.39, 0.669067
1425.78, 0.670605
1426.18, 0.672143
1426.57, 0.673579
1426.96, 0.675630
1427.36, 0.677065
1427.75, 0.677783
1428.14, 0.679321
1428.54, 0.680757
1428.93, 0.681987
1429.32, 0.683115
1429.72, 0.684140
1430.11, 0.685268
1430.51, 0.686601
1430.9, 0.687524
1431.3, 0.689165
1431.69, 0.690190
1432.09, 0.691421
1432.48, 0.692754
1432.88, 0.693676
1433.28, 0.693984
1433.67, 0.695420
1434.07, 0.696958
1434.46, 0.698701
1434.86, 0.699829
1435.26, 0.700547
1435.66, 0.701367
1436.05, 0.701264
1436.45, 0.701674
1436.85, 0.702495
1437.25, 0.702905
1437.65, 0.703828
1438.05, 0.704956
1438.44, 0.705571
1438.84, 0.706494
1439.24, 0.707417
1439.64, 0.707622
1440.04, 0.707929
1440.44, 0.708852
1440.84, 0.709570
1441.24, 0.709775
1441.65, 0.710390
1442.05, 0.710800
1442.45, 0.710800
1442.85, 0.711723
1443.25, 0.711826
1443.65, 0.711621
1444.05, 0.712441
1444.46, 0.712851
1444.86, 0.713159
1445.26, 0.713159
1445.67, 0.713159
1446.07, 0.713774
1446.47, 0.714287
1446.88, 0.715312
1447.28, 0.716235
1447.68, 0.716440
1448.09, 0.716338
1448.49, 0.716543
1448.9, 0.717158
1449.3, 0.717465
1449.71, 0.718388
1450.11, 0.718901
1450.52, 0.718798
1450.93, 0.719106
1451.33, 0.719516
1451.74, 0.719619
1452.14, 0.720542
1452.55, 0.720952
1452.96, 0.721567
1453.36, 0.722080
1453.77, 0.721977
1454.18, 0.721875
1454.59, 0.722285
1455.0, 0.722900
1455.41, 0.722695
1455.81, 0.722900
1456.22, 0.723003
1456.63, 0.722592
1457.04, 0.723310
1457.45, 0.724028
1457.86, 0.723618
1458.27, 0.723515
1458.68, 0.723515
1459.09, 0.723925
1459.5, 0.724848
1459.91, 0.724848
1460.32, 0.724541
1460.74, 0.724131
1461.15, 0.724131
1461.56, 0.724438
1461.97, 0.724848
1462.39, 0.724336
1462.8, 0.724131
1463.21, 0.724746
1463.62, 0.724848
1464.04, 0.724746
1464.45, 0.724951
1464.86, 0.724643
1465.28, 0.724028
1465.69, 0.724643
1466.11, 0.725566
1466.52, 0.725464
1466.94, 0.725771
1467.35, 0.725976
1467.77, 0.726284
1468.18, 0.726284
1468.6, 0.726181
1469.02, 0.726386
1469.43, 0.726284
1469.85, 0.727002
1470.27, 0.727207
1470.68, 0.727412
1471.1, 0.728232
1471.52, 0.728745
1471.94, 0.728950
1472.35, 0.728950
1472.77, 0.729463
1473.19, 0.729565
1473.61, 0.729463
1474.03, 0.729873
1474.45, 0.730590
1474.87, 0.731513
1475.29, 0.731821
1475.71, 0.731821
1476.13, 0.731923
1476.55, 0.732129
1476.97, 0.733051
1477.39, 0.733769
1477.81, 0.733462
1478.23, 0.732949
1478.65, 0.733154
1479.07, 0.733769
1479.5, 0.733667
1479.92, 0.733462
1480.34, 0.734179
1480.76, 0.735102
1481.19, 0.735102
1481.61, 0.735615
1482.03, 0.735820
1482.46, 0.734897
1482.88, 0.735102
1483.31, 0.735615
1483.73, 0.736435
1484.16, 0.736743
1484.58, 0.736333
1485.01, 0.736230
1485.43, 0.736743
1485.86, 0.737666
1486.28, 0.737666
1486.71, 0.737666
1487.14, 0.738076
1487.56, 0.737768
1487.99, 0.738076
1488.42, 0.738589
1488.84, 0.738691
1489.27, 0.738896
1489.7, 0.739409
1490.13, 0.739819
1490.56, 0.739614
1490.98, 0.739409
1491.41, 0.739819
1491.84, 0.740024
1492.27, 0.739819
1492.7, 0.739716
1493.13, 0.739819
1493.56, 0.739819
1493.99, 0.740639
1494.42, 0.741049
1494.85, 0.741255
1495.29, 0.741460
1495.72, 0.741665
1496.15, 0.741460
1496.58, 0.742075
1497.01, 0.743305
1497.44, 0.743613
1497.88, 0.743613
1498.31, 0.743716
1498.74, 0.744331
1499.18, 0.744843
1499.61, 0.744536
1500.04, 0.744536
1500.48, 0.745151
1500.91, 0.745766
1501.35, 0.746381
1501.78, 0.747099
1502.22, 0.747612
1502.65, 0.748125
1503.09, 0.748125
1503.53, 0.748535
1503.96, 0.748125
1504.4, 0.748432
1504.83, 0.749458
1505.27, 0.749663
1505.71, 0.749868
1506.15, 0.750073
1506.58, 0.750278
1507.02, 0.750483
1507.46, 0.750791
1507.9, 0.751406
1508.34, 0.751201
1508.78, 0.750688
1509.21, 0.750688
1509.66, 0.750996
1510.09, 0.751816
1510.53, 0.752534
1510.97, 0.752841
1511.42, 0.753047
1511.86, 0.753047
1512.3, 0.753149
1512.74, 0.753867
1513.18, 0.754174
1513.62, 0.753764
1514.06, 0.753969
1514.51, 0.753969
1514.95, 0.754072
1515.39, 0.754585
1515.83, 0.755097
1516.28, 0.755405
1516.72, 0.755097
1517.16, 0.754687
1517.61, 0.755097
1518.05, 0.756123
1518.5, 0.756020
1518.94, 0.755918
1519.39, 0.755815
1519.83, 0.755507
1520.28, 0.755302
1520.73, 0.755507
1521.17, 0.756430
1521.62, 0.757251
1522.07, 0.756738
1522.51, 0.756533
1522.96, 0.756635
1523.41, 0.757046
1523.85, 0.757456
1524.3, 0.757763
1524.75, 0.757763
1525.2, 0.757661
1525.65, 0.757866
1526.1, 0.758071
1526.55, 0.757968
1527.0, 0.757968
1527.45, 0.758584
1527.9, 0.758789
1528.35, 0.759199
1528.8, 0.758891
1529.25, 0.758686
1529.7, 0.759301
1530.15, 0.760019
1530.6, 0.759917
1531.05, 0.759507
1531.51, 0.759917
1531.96, 0.760429
1532.41, 0.760429
1532.87, 0.760224
1533.32, 0.760532
1533.77, 0.761147
1534.23, 0.761352
1534.68, 0.761455
1535.14, 0.761967
1535.59, 0.762172
1536.05, 0.762685
1536.5, 0.763403
1536.96, 0.763403
1537.41, 0.763095
1537.87, 0.763095
1538.32, 0.763403
1538.78, 0.763403
1539.24, 0.763916
1539.7, 0.764531
1540.15, 0.764941
1540.61, 0.765351
1541.07, 0.765659
1541.53, 0.765351
1541.98, 0.765659
1542.44, 0.765761
1542.9, 0.766172
1543.36, 0.767094
1543.82, 0.767299
1544.28, 0.766787
1544.74, 0.767299
1545.2, 0.768120
1545.66, 0.768222
1546.12, 0.767812
1546.59, 0.768017
1547.05, 0.768632
1547.51, 0.768940
1547.97, 0.769145
1548.43, 0.769145
1548.9, 0.769658
1549.36, 0.770171
1549.82, 0.770683
1550.29, 0.770683
1550.75, 0.770786
1551.21, 0.771401
1551.68, 0.771709
1552.14, 0.771811
1552.61, 0.771914
1553.07, 0.772016
1553.54, 0.772631
1554.0, 0.772939
1554.47, 0.773144
1554.93, 0.773452
1555.4, 0.773759
1555.87, 0.774170
1556.34, 0.774580
1556.8, 0.774682
1557.27, 0.774990
1557.74, 0.775503
1558.21, 0.776015
1558.68, 0.775810
1559.14, 0.776015
1559.61, 0.776015
1560.08, 0.775708
1560.55, 0.776528
1561.02, 0.777041
1561.49, 0.777143
1561.96, 0.776938
1562.43, 0.777246
1562.9, 0.777656
1563.38, 0.777964
1563.85, 0.778579
1564.32, 0.778886
1564.79, 0.778886
1565.26, 0.779501
1565.74, 0.779399
1566.21, 0.779707
1566.68, 0.780219
1567.16, 0.780014
1567.63, 0.779912
1568.1, 0.780322
1568.58, 0.780835
1569.05, 0.780835
1569.53, 0.780835
1570.0, 0.780937
1570.48, 0.781347
1570.96, 0.781552
1571.43, 0.781757
1571.91, 0.781757
1572.39, 0.782270
1572.86, 0.782475
1573.34, 0.782783
1573.82, 0.782578
1574.3, 0.782680
1574.77, 0.783193
1575.25, 0.783603
1575.73, 0.783808
1576.21, 0.784424
1576.69, 0.784526
1577.17, 0.784116
1577.65, 0.783911
1578.13, 0.784424
1578.61, 0.784936
1579.09, 0.784731
1579.57, 0.784629
1580.05, 0.785039
1580.54, 0.785346
1581.02, 0.785654
1581.5, 0.786064
1581.98, 0.786167
1582.47, 0.785962
1582.95, 0.785962
1583.43, 0.786269
1583.92, 0.786577
1584.4, 0.786577
1584.88, 0.786884
1585.37, 0.787295
1585.85, 0.787807
1586.34, 0.787705
1586.82, 0.787192
1587.31, 0.787397
1587.8, 0.787602
1588.28, 0.787807
1588.77, 0.788012
1589.26, 0.788525
1589.74, 0.788833
1590.23, 0.788833
1590.72, 0.788730
1591.21, 0.789550
1591.7, 0.789755
1592.19, 0.789448
1592.67, 0.789550
1593.16, 0.790063
1593.65, 0.790166
1594.14, 0.789755
1594.63, 0.790371
1595.12, 0.791191
1595.61, 0.791499
1596.11, 0.791601
1596.6, 0.791704
1597.09, 0.792011
1597.58, 0.792729
1598.08, 0.793242
1598.57, 0.793037
1599.06, 0.793344
1599.55, 0.793549
1600.05, 0.793344
1600.54, 0.793652
1601.04, 0.794062
1601.53, 0.794370
1602.03, 0.794677
1602.52, 0.794882
1603.02, 0.795395
1603.51, 0.795805
1604.01, 0.796113
1604.5, 0.796318
1605.0, 0.796728
1605.5, 0.796626
1606.0, 0.796831
1606.49, 0.797036
1606.99, 0.797343
1607.49, 0.797958
1607.99, 0.797958
1608.49, 0.798164
1608.99, 0.798881
1609.49, 0.798471
1609.99, 0.798676
1610.49, 0.798471
1610.99, 0.798984
1611.49, 0.799907
1611.99, 0.800214
1612.49, 0.800214
1612.99, 0.800112
1613.49, 0.800214
1614.0, 0.800112
1614.5, 0.800727
1615.0, 0.801137
1615.51, 0.801445
1616.01, 0.801958
1616.51, 0.801855
1617.02, 0.802163
1617.52, 0.802675
1618.03, 0.802778
1618.53, 0.802880
1619.04, 0.802880
1619.54, 0.803291
1620.05, 0.803496
1620.55, 0.804008
1621.06, 0.804829
1621.57, 0.804931
1622.08, 0.804419
1622.58, 0.804419
1623.09, 0.805239
1623.6, 0.805649
1624.11, 0.805854
1624.62, 0.805854
1625.13, 0.806162
1625.64, 0.806264
1626.15, 0.806059
1626.66, 0.806162
1627.17, 0.806572
1627.68, 0.807085
1628.19, 0.807495
1628.7, 0.807392
1629.21, 0.807495
1629.72, 0.808007
1630.24, 0.808007
1630.75, 0.808007
1631.26, 0.808212
1631.78, 0.808417
1632.29, 0.808725
1632.8, 0.809238
1633.32, 0.809135
1633.83, 0.809033
1634.35, 0.809238
1634.86, 0.809340
1635.38, 0.809443
1635.9, 0.809853
1636.41, 0.809956
1636.93, 0.810161
1637.45, 0.810366
1637.96, 0.810468
1638.48, 0.810468
1639.0, 0.810571
1639.52, 0.810366
1640.04, 0.810468
1640.56, 0.810776
1641.08, 0.810879
1641.59, 0.811186
1642.11, 0.811391
1642.63, 0.811494
1643.16, 0.811186
1643.68, 0.810879
1644.2, 0.810981
1644.72, 0.811186
1645.24, 0.811289
1645.76, 0.811186
1646.29, 0.811494
1646.81, 0.812109
1647.33, 0.812519
1647.86, 0.812519
1648.38, 0.812314
1648.9, 0.812109
1649.43, 0.811801
1649.95, 0.812212
1650.48, 0.812519
1651.0, 0.812314
1651.53, 0.812827
1652.06, 0.813237
1652.58, 0.813032
1653.11, 0.812724
1653.64, 0.813237
1654.17, 0.813647
1654.69, 0.813339
1655.22, 0.813237
1655.75, 0.813237
1656.28, 0.813545
1656.81, 0.814057
1657.34, 0.813955
1657.87, 0.813852
1658.4, 0.813750
1658.93, 0.813750
1659.46, 0.813852
1659.99, 0.814570
1660.52, 0.815083
1661.05, 0.814980
1661.59, 0.814878
1662.12, 0.814672
1662.65, 0.814980
1663.19, 0.815185
1663.72, 0.815288
1664.26, 0.815595
1664.79, 0.815493
1665.32, 0.815595
1665.86, 0.816211
1666.39, 0.816416
1666.93, 0.816518
1667.47, 0.817031
1668.0, 0.817133
1668.54, 0.817031
1669.08, 0.816928
1669.61, 0.816518
1670.15, 0.816723
1670.69, 0.817338
1671.23, 0.817954
1671.77, 0.818261
1672.31, 0.818056
1672.85, 0.817646
1673.39, 0.818056
1673.93, 0.818671
1674.47, 0.818261
1675.01, 0.817851
1675.55, 0.817851
1676.09, 0.818466
1676.64, 0.819287
1677.18, 0.819389
1677.72, 0.819287
1678.26, 0.819184
1678.81, 0.819492
1679.35, 0.819594
1679.89, 0.819799
1680.44, 0.820312
1680.98, 0.820210
1681.53, 0.820107
1682.07, 0.820620
1682.62, 0.820927
1683.17, 0.820722
1683.71, 0.820927
1684.26, 0.821440
1684.81, 0.821645
1685.36, 0.821337
1685.9, 0.821440
1686.45, 0.821440
1687.0, 0.821543
1687.55, 0.821748
1688.1, 0.822055
1688.65, 0.821953
1689.2, 0.822158
1689.75, 0.822363
1690.3, 0.822363
1690.85, 0.822671
1691.41, 0.823183
1691.96, 0.823388
1692.51, 0.823491
1693.06, 0.823388
1693.61, 0.823183
1694.17, 0.823491
1694.72, 0.823696
1695.28, 0.823901
1695.83, 0.824209
1696.39, 0.824311
1696.94, 0.824003
1697.5, 0.823798
1698.05, 0.823593
1698.61, 0.823491
1699.17, 0.824106
1699.72, 0.824209
1700.28, 0.824003
1700.84, 0.824106
1701.4, 0.824209
1701.95, 0.824106
1702.51, 0.824106
1703.07, 0.824106
1703.63, 0.824414
1704.19, 0.824311
1704.75, 0.824209
1705.31, 0.824619
1705.88, 0.824721
1706.44, 0.824721
1707.0, 0.824414
1707.56, 0.824106
1708.12, 0.824003
1708.69, 0.824106
1709.25, 0.824209
1709.81, 0.824414
1710.38, 0.824209
1710.94, 0.823901
1711.51, 0.823901
1712.07, 0.823696
1712.64, 0.823593
1713.2, 0.823286
1713.77, 0.823286
1714.34, 0.823183
1714.9, 0.823286
1715.47, 0.823183
1716.04, 0.822875
1716.61, 0.823081
1717.18, 0.822773
1717.74, 0.822875
1718.31, 0.823081
1718.88, 0.822875
1719.45, 0.822568
1720.02, 0.822363
1720.59, 0.822363
1721.17, 0.821850
1721.74, 0.821748
1722.31, 0.821645
1722.88, 0.821440
1723.45, 0.821440
1724.03, 0.821645
1724.6, 0.821748
1725.18, 0.821953
1725.75, 0.821645
1726.33, 0.821132
1726.9, 0.820927
1727.48, 0.821235
1728.05, 0.821235
1728.63, 0.821030
1729.2, 0.820415
1729.78, 0.820004
1730.36, 0.820004
1730.94, 0.819697
1731.51, 0.819697
1732.09, 0.819902
1732.67, 0.820004
1733.25, 0.819697
1733.83, 0.819697
1734.41, 0.819594
1734.99, 0.819287
1735.57, 0.819697
1736.15, 0.819697
1736.73, 0.819184
1737.32, 0.819184
1737.9, 0.819287
1738.48, 0.819184
1739.07, 0.818774
1739.65, 0.818364
1740.23, 0.818569
1740.82, 0.818671
1741.4, 0.818774
1741.99, 0.818774
1742.57, 0.818364
1743.16, 0.818261
1743.74, 0.818569
1744.33, 0.818466
1744.92, 0.818364
1745.51, 0.818159
1746.09, 0.817954
1746.68, 0.818056
1747.27, 0.818364
1747.86, 0.818261
1748.45, 0.818056
1749.04, 0.817851
1749.63, 0.818159
1750.22, 0.817851
1750.81, 0.817954
1751.4, 0.818261
1751.99, 0.818261
1752.59, 0.817954
1753.18, 0.817851
1753.77, 0.817749
1754.37, 0.817544
1754.96, 0.817749
1755.56, 0.817749
1756.15, 0.817749
1756.74, 0.817954
1757.34, 0.817749
1757.94, 0.817646
1758.53, 0.817749
1759.13, 0.817646
1759.73, 0.817133
1760.32, 0.817338
1760.92, 0.817646
1761.52, 0.817441
1762.12, 0.817236
1762.72, 0.817236
1763.32, 0.816723
1763.92, 0.817133
1764.52, 0.817544
1765.12, 0.817441
1765.72, 0.817236
1766.32, 0.816621
1766.92, 0.816211
1767.53, 0.816313
1768.13, 0.816416
1768.73, 0.816518
1769.34, 0.816211
1769.94, 0.816006
1770.55, 0.815698
1771.15, 0.815493
1771.76, 0.815493
1772.36, 0.815595
1772.97, 0.815185
1773.57, 0.814672
1774.18, 0.814570
1774.79, 0.814570
1775.4, 0.814672
1776.0, 0.814570
1776.61, 0.814160
1777.22, 0.813545
1777.83, 0.813237
1778.44, 0.813339
1779.05, 0.813339
1779.66, 0.813134
1780.27, 0.812827
1780.88, 0.812417
1781.5, 0.812006
1782.11, 0.811904
1782.72, 0.811596
1783.33, 0.811391
1783.95, 0.811289
1784.56, 0.811186
1785.18, 0.810571
1785.79, 0.810263
1786.41, 0.810366
1787.02, 0.810366
1787.64, 0.810058
1788.26, 0.809545
1788.87, 0.809340
1789.49, 0.809135
1790.11, 0.808828
1790.73, 0.808212
1791.35, 0.807802
1791.96, 0.807802
1792.58, 0.807700
1793.21, 0.807495
1793.83, 0.807597
1794.45, 0.807392
1795.07, 0.806674
1795.69, 0.806264
1796.31, 0.806572
1796.93, 0.806674
1797.56, 0.806777
1798.18, 0.806674
1798.8, 0.806674
1799.43, 0.806469
1800.05, 0.805854
1800.68, 0.805649
1801.3, 0.805546
1801.93, 0.805546
1802.56, 0.805546
1803.18, 0.805341
1803.81, 0.805239
1804.44, 0.804931
1805.07, 0.804624
1805.7, 0.804008
1806.33, 0.804419
1806.95, 0.804931
1807.58, 0.804726
1808.22, 0.804624
1808.85, 0.805034
1809.48, 0.805341
1810.11, 0.804419
1810.74, 0.803906
1811.38, 0.803803
1812.01, 0.803701
1812.64, 0.804008
1813.28, 0.804213
1813.91, 0.803906
1814.55, 0.803496
1815.18, 0.802778
1815.82, 0.802675
1816.45, 0.802880
1817.09, 0.802880
1817.73, 0.803085
1818.36, 0.803085
1819.0, 0.802778
1819.64, 0.801650
1820.28, 0.800830
1820.92, 0.801547
1821.56, 0.801855
1822.2, 0.802368
1822.84, 0.802675
1823.48, 0.802880
1824.12, 0.803188
1824.76, 0.803496
1825.41, 0.802163
1826.05, 0.799907
1826.69, 0.801240
1827.34, 0.802778
1827.98, 0.802265
1828.63, 0.801855
1829.27, 0.801958
1829.92, 0.801958
1830.56, 0.801240
1831.21, 0.801035
1831.86, 0.801958
1832.5, 0.802368
1833.15, 0.802470
1833.8, 0.802060
1834.45, 0.800830
1835.1, 0.799907
1835.75, 0.798574
1836.4, 0.797856
1837.05, 0.797754
1837.7, 0.797138
1838.35, 0.798779
1839.01, 0.798164
1839.66, 0.795908
1840.31, 0.796626
1840.96, 0.796421
1841.62, 0.793857
1842.27, 0.794882
1842.93, 0.796728
1843.58, 0.797036
1844.24, 0.797446
1844.9, 0.797958
1845.55, 0.797958
1846.21, 0.796010
1846.87, 0.793755
1847.53, 0.794780
1848.18, 0.796215
1848.84, 0.798676
1849.5, 0.800112
1850.16, 0.800522
1850.82, 0.801342
1851.48, 0.801958
1852.14, 0.801240
1852.81, 0.799907
1853.47, 0.798369
1854.13, 0.799292
1854.8, 0.801855
1855.46, 0.802060
1856.12, 0.800009
1856.79, 0.799497
1857.45, 0.801240
1858.12, 0.801342
1858.79, 0.799702
1859.45, 0.796933
1860.12, 0.797241
1860.79, 0.798984
1861.46, 0.799292
1862.12, 0.798676
1862.79, 0.797958
1863.46, 0.796728
1864.13, 0.795190
1864.8, 0.794985
1865.48, 0.794780
1866.15, 0.793755
1866.82, 0.791396
1867.49, 0.787295
1868.16, 0.786679
1868.84, 0.786987
1869.51, 0.785039
1870.19, 0.780937
1870.86, 0.777348
1871.54, 0.778374
1872.21, 0.776630
1872.89, 0.772119
1873.56, 0.770786
1874.24, 0.770786
1874.92, 0.769145
1875.6, 0.767094
1876.28, 0.763300
1876.96, 0.758994
1877.64, 0.757456
1878.32, 0.755815
1879.0, 0.753252
1879.68, 0.749868
1880.36, 0.746381
1881.04, 0.743408
1881.73, 0.741152
1882.41, 0.738076
1883.09, 0.733872
1883.78, 0.729463
1884.46, 0.727104
1885.15, 0.725053
1885.83, 0.722080
1886.52, 0.719004
1887.21, 0.716440
1887.89, 0.714184
1888.58, 0.711518
1889.27, 0.707827
1889.96, 0.703930
1890.65, 0.701880
1891.34, 0.699214
1892.03, 0.696035
1892.72, 0.693164
1893.41, 0.689780
1894.1, 0.686909
1894.79, 0.683833
1895.49, 0.679834
1896.18, 0.676450
1896.87, 0.672451
1897.57, 0.668042
1898.26, 0.663530
1898.96, 0.657583
1899.65, 0.652045
1900.35, 0.648662
1901.05, 0.645996
1901.74, 0.642099
1902.44, 0.636562
1903.14, 0.632358
1903.84, 0.629384
1904.54, 0.624463
1905.24, 0.619233
1905.94, 0.616772
1906.64, 0.614414
1907.34, 0.612671
1908.04, 0.611235
1908.75, 0.609082
1909.45, 0.607441
1910.15, 0.605903
1910.86, 0.604365
1911.56, 0.603545
1912.27, 0.603955
1912.97, 0.603442
1913.68, 0.603442
1914.39, 0.605493
1915.09, 0.607339
1915.8, 0.609082
1916.51, 0.611133
1917.22, 0.613491
1917.93, 0.615542
1918.64, 0.617080
1919.35, 0.618105
1920.06, 0.618823
1920.77, 0.621284
1921.48, 0.625283
1922.19, 0.627949
1922.91, 0.630307
1923.62, 0.631743
1924.33, 0.633178
1925.05, 0.635537
1925.76, 0.638100
1926.48, 0.639331
1927.19, 0.640459
1927.91, 0.641484
1928.63, 0.642817
1929.35, 0.644765
1930.07, 0.646201
1930.78, 0.647226
1931.5, 0.648354
1932.22, 0.649482
1932.94, 0.650713
1933.66, 0.651635
1934.39, 0.652763
1935.11, 0.654096
1935.83, 0.655122
1936.55, 0.656045
1937.28, 0.657173
1938.0, 0.657890
1938.73, 0.658711
1939.45, 0.659941
1940.18, 0.661069
1940.9, 0.662094
1941.63, 0.663222
1942.36, 0.664248
1943.09, 0.665171
1943.81, 0.665683
1944.54, 0.666299
1945.27, 0.667221
1946.0, 0.668554
1946.73, 0.669580
1947.47, 0.670092
1948.2, 0.670913
1948.93, 0.671938
1949.66, 0.672964
1950.4, 0.673476
1951.13, 0.674297
1951.86, 0.675527
1952.6, 0.676245
1953.34, 0.677475
1954.07, 0.678603
1954.81, 0.679629
1955.55, 0.680859
1956.29, 0.681782
1957.02, 0.682807
1957.76, 0.684038
1958.5, 0.685063
1959.24, 0.686191
1959.98, 0.687319
1960.72, 0.688139
1961.47, 0.689062
1962.21, 0.689677
1962.95, 0.690498
1963.7, 0.691113
1964.44, 0.691421
1965.18, 0.691933
1965.93, 0.692548
1966.67, 0.693164
1967.42, 0.693676
1968.17, 0.694394
1968.92, 0.695009
1969.66, 0.695420
1970.41, 0.695830
1971.16, 0.696445
1971.91, 0.697060
1972.66, 0.697470
1973.41, 0.698086
1974.16, 0.698598
1974.92, 0.699008
1975.67, 0.699726
1976.42, 0.700341
1977.18, 0.700854
1977.93, 0.701469
1978.69, 0.702187
1979.44, 0.702290
1980.2, 0.703007
1980.95, 0.703930
1981.71, 0.704238
1982.47, 0.704853
1983.23, 0.705366
1983.99, 0.705981
1984.74, 0.706596
1985.51, 0.707519
1986.27, 0.708339
1987.03, 0.708750
1987.79, 0.709160
1988.55, 0.709673
1989.32, 0.710185
1990.08, 0.710698
1990.84, 0.711518
1991.61, 0.712646
1992.37, 0.713672
1993.14, 0.714184
1993.9, 0.714800
1994.67, 0.715312
1995.44, 0.716030
1996.21, 0.716850
1996.98, 0.717671
1997.75, 0.718798
1998.52, 0.719824
1999.29, 0.720747
2000.06, 0.721465
2000.83, 0.722387
2001.6, 0.723310
2002.38, 0.723823
2003.15, 0.724438
2003.93, 0.725053
2004.7, 0.725669
2005.48, 0.726796
2006.25, 0.727822
2007.03, 0.728130
2007.81, 0.728745
2008.58, 0.729668
2009.36, 0.730283
2010.14, 0.730898
2010.92, 0.731308
2011.7, 0.731411
2012.48, 0.732026
2013.26, 0.732641
2014.05, 0.733462
2014.83, 0.734179
2015.61, 0.734692
2016.4, 0.735000
2017.18, 0.735102
2017.97, 0.735512
2018.75, 0.736025
2019.54, 0.736435
2020.32, 0.736538
2021.11, 0.736333
2021.9, 0.736743
2022.69, 0.736948
2023.48, 0.737461
2024.27, 0.738076
2025.06, 0.738486
2025.85, 0.738486
2026.64, 0.738383
2027.44, 0.738589
2028.23, 0.738896
2029.02, 0.739204
2029.82, 0.739511
2030.61, 0.739819
2031.41, 0.739614
2032.2, 0.739716
2033.0, 0.739921
2033.8, 0.739921
2034.6, 0.739819
2035.4, 0.740024
2036.2, 0.740229
2037.0, 0.740127
2037.8, 0.740229
2038.6, 0.740332
2039.4, 0.740434
2040.2, 0.740537
2041.01, 0.740332
2041.81, 0.740332
2042.61, 0.740537
2043.42, 0.740229
2044.22, 0.739819
2045.03, 0.739819
2045.84, 0.739716
2046.65, 0.739204
2047.46, 0.738999
2048.26, 0.738896
2049.07, 0.738794
2049.88, 0.738486
2050.69, 0.738178
2051.51, 0.737973
2052.32, 0.737358
2053.13, 0.736948
2053.94, 0.736435
2054.76, 0.735512
2055.57, 0.734692
2056.39, 0.734282
2057.2, 0.734077
2058.02, 0.733667
2058.84, 0.732641
2059.66, 0.731923
2060.48, 0.731206
2061.29, 0.730385
2062.11, 0.729668
2062.94, 0.729052
2063.76, 0.728437
2064.58, 0.727719
2065.4, 0.727104
2066.22, 0.726386
2067.05, 0.725771
2067.87, 0.725258
2068.7, 0.724336
2069.52, 0.723618
2070.35, 0.723003
2071.18, 0.722182
2072.0, 0.721669
2072.83, 0.720849
2073.66, 0.719926
2074.49, 0.719004
2075.32, 0.718491
2076.15, 0.718183
2076.98, 0.717363
2077.82, 0.716338
2078.65, 0.715415
2079.48, 0.714800
2080.32, 0.713979
2081.15, 0.712749
2081.99, 0.711518
2082.83, 0.710288
2083.66, 0.709878
2084.5, 0.709570
2085.34, 0.708750
2086.18, 0.707827
2087.02, 0.707006
2087.86, 0.706186
2088.7, 0.705674
2089.54, 0.705058
2090.39, 0.704751
2091.23, 0.703828
2092.07, 0.703007
2092.92, 0.702392
2093.76, 0.701572
2094.61, 0.701059
2095.45, 0.700341
2096.3, 0.699316
2097.15, 0.698188
2098.0, 0.696958
2098.85, 0.695830
2099.7, 0.694599
2100.55, 0.692651
2101.4, 0.690805
2102.25, 0.689062
2103.1, 0.687319
2103.96, 0.685063
2104.81, 0.682807
2105.67, 0.680551
2106.52, 0.678501
2107.38, 0.676552
2108.24, 0.674707
2109.09, 0.673066
2109.95, 0.671733
2110.81, 0.670503
2111.67, 0.669272
2112.53, 0.668144
2113.39, 0.667324
2114.25, 0.666914
2115.12, 0.666299
2115.98, 0.665581
2116.84, 0.664863
2117.71, 0.664043
2118.58, 0.663017
2119.44, 0.662094
2120.31, 0.661274
2121.18, 0.659839
2122.04, 0.658608
2122.91, 0.657378
2123.78, 0.656250
2124.65, 0.654917
2125.52, 0.653584
2126.4, 0.651943
2127.27, 0.649995
2128.14, 0.648252
2129.02, 0.646714
2129.89, 0.644868
2130.77, 0.642920
2131.64, 0.640664
2132.52, 0.637895
2133.4, 0.635024
2134.27, 0.632256
2135.15, 0.629692
2136.03, 0.626616
2136.91, 0.623027
2137.79, 0.619233
2138.68, 0.615439
2139.56, 0.611543
2140.44, 0.607134
2141.33, 0.602417
2142.21, 0.597905
2143.1, 0.592983
2143.99, 0.587549
2144.87, 0.581909
2145.76, 0.576167
2146.65, 0.569809
2147.54, 0.563554
2148.43, 0.557607
2149.32, 0.551455
2150.21, 0.544687
2151.1, 0.537920
2151.99, 0.531767
2152.89, 0.525615
2153.78, 0.519463
2154.68, 0.513515
2155.57, 0.507773
2156.47, 0.502441
2157.37, 0.497417
2158.27, 0.492597
2159.16, 0.487881
2160.06, 0.483779
2160.96, 0.480190
2161.86, 0.476806
2162.77, 0.473730
2163.67, 0.470859
2164.57, 0.468501
2165.48, 0.466450
2166.38, 0.464707
2167.29, 0.463169
2168.2, 0.462246
2169.1, 0.461631
2170.01, 0.461118
2170.92, 0.460503
2171.83, 0.459990
2172.74, 0.459375
2173.65, 0.458862
2174.56, 0.458349
2175.47, 0.457939
2176.39, 0.457426
2177.3, 0.456299
2178.22, 0.454863
2179.13, 0.453633
2180.05, 0.451992
2180.96, 0.449941
2181.88, 0.447685
2182.8, 0.444917
2183.72, 0.441841
2184.64, 0.438662
2185.56, 0.434868
2186.48, 0.430766
2187.41, 0.426562
2188.33, 0.422051
2189.25, 0.417026
2190.18, 0.412207
2191.1, 0.407593
2192.03, 0.402568
2192.96, 0.397339
2193.89, 0.392314
2194.82, 0.386675
2195.74, 0.380522
2196.68, 0.373857
2197.61, 0.366680
2198.54, 0.359297
2199.47, 0.351504
2200.4, 0.343198
2201.34, 0.334585
2202.28, 0.325664
2203.21, 0.317256
2204.15, 0.309975
2205.08, 0.303823
2206.02, 0.300029
2206.96, 0.299004
2207.9, 0.301055
2208.84, 0.306489
2209.78, 0.315000
2210.73, 0.326484
2211.67, 0.339712
2212.61, 0.354170
2213.56, 0.369448
2214.5, 0.384829
2215.45, 0.399595
2216.4, 0.413540
2217.35, 0.426665
2218.3, 0.439482
2219.24, 0.450967
2220.2, 0.460810
2221.15, 0.469731
2222.1, 0.478037
2223.05, 0.485625
2224.0, 0.492495
2224.96, 0.498647
2225.91, 0.504389
2226.87, 0.509721
2227.83, 0.514541
2228.79, 0.518847
2229.74, 0.522436
2230.7, 0.525820
2231.66, 0.529409
2232.63, 0.532280
2233.59, 0.535254
2234.55, 0.538022
2235.51, 0.540483
2236.48, 0.542329
2237.44, 0.544277
2238.41, 0.546225
2239.38, 0.547661
2240.34, 0.549302
2241.31, 0.550737
2242.28, 0.551762
2243.25, 0.552685
2244.22, 0.553608
2245.19, 0.554633
2246.17, 0.555249
2247.14, 0.555659
2248.12, 0.556069
2249.09, 0.556479
2250.07, 0.556582
2251.04, 0.556479
2252.02, 0.556479
2253.0, 0.556681
2253.98, 0.556479
2254.96, 0.556883
2255.94, 0.557388
2256.92, 0.556883
2257.91, 0.556681
2258.89, 0.556883
2259.88, 0.557489
2260.86, 0.557186
2261.85, 0.556782
2262.83, 0.555974
2263.82, 0.555873
2264.81, 0.555772
2265.8, 0.554863
2266.79, 0.553752
2267.78, 0.553146
2268.78, 0.552439
2269.77, 0.552136
2270.76, 0.551530
2271.76, 0.550216
2272.75, 0.548903
2273.75, 0.547792
2274.75, 0.547186
2275.75, 0.546378
2276.75, 0.544964
2277.75, 0.543651
2278.75, 0.542843
2279.75, 0.541125
2280.75, 0.539105
2281.76, 0.537590
2282.76, 0.536277
2283.77, 0.535570
2284.77, 0.534155
2285.78, 0.531832
2286.79, 0.529105
2287.8, 0.527691
2288.81, 0.526276
2289.82, 0.524054
2290.83, 0.522438
2291.84, 0.521327
2292.86, 0.519307
2293.87, 0.515973
2294.89, 0.513549
2295.91, 0.511428
2296.92, 0.508397
2297.94, 0.505872
2298.96, 0.503549
2299.98, 0.500518
2301.0, 0.497791
2302.02, 0.495063
2303.04, 0.491932
2304.07, 0.489407
2305.09, 0.486679
2306.12, 0.484356
2307.15, 0.481831
2308.17, 0.479609
2309.2, 0.477386
2310.23, 0.475568
2311.26, 0.474457
2312.29, 0.472437
2313.32, 0.470618
2314.35, 0.469709
2315.39, 0.468800
2316.42, 0.467487
2317.46, 0.466174
2318.5, 0.465871
2319.53, 0.464760
2320.57, 0.464154
2321.61, 0.463750
2322.65, 0.462537
2323.69, 0.461426
2324.73, 0.460214
2325.78, 0.459709
2326.82, 0.460012
2327.86, 0.459911
2328.91, 0.459204
2329.96, 0.457992
2331.01, 0.457992
2332.05, 0.458194
2333.1, 0.457184
2334.15, 0.456073
2335.21, 0.454860
2336.26, 0.453648
2337.31, 0.451830
2338.36, 0.450012
2339.42, 0.448093
2340.48, 0.445668
2341.53, 0.443244
2342.59, 0.440517
2343.65, 0.438294
2344.71, 0.436173
2345.77, 0.433042
2346.83, 0.430011
2347.9, 0.427688
2348.96, 0.425163
2350.02, 0.422940
2351.09, 0.420920
2352.16, 0.419910
2353.23, 0.418597
2354.29, 0.417284
2355.36, 0.416981
2356.43, 0.416981
2357.51, 0.416880
2358.58, 0.417082
2359.65, 0.417385
2360.73, 0.417688
2361.8, 0.417486
2362.88, 0.417688
2363.96, 0.417688
2365.03, 0.416779
2366.11, 0.415263
2367.19, 0.413849
2368.27, 0.412233
2369.36, 0.410516
2370.44, 0.407788
2371.53, 0.404354
2372.61, 0.401122
2373.7, 0.398192
2374.78, 0.394859
2375.87, 0.391323
2376.96, 0.388293
2378.05, 0.385263
2379.14, 0.382838
2380.24, 0.380515
2381.33, 0.377990
2382.42, 0.376475
2383.52, 0.375060
2384.61, 0.373747
2385.71, 0.373545
2386.81, 0.373545
2387.91, 0.372737
2389.01, 0.372535
2390.11, 0.373040
2391.22, 0.373545
2392.32, 0.374151
2393.42, 0.373949
2394.53, 0.373545
2395.64, 0.374656
2396.74, 0.375262
2397.85, 0.375262
2398.96, 0.375666
2400.07, 0.375868
2401.18, 0.375464
2402.3, 0.375161
2403.41, 0.374656
2404.52, 0.373949
2405.64, 0.372838
2406.76, 0.372434
2407.88, 0.371828
2408.99, 0.370313
2410.11, 0.368192
2411.23, 0.366777
2412.36, 0.365464
2413.48, 0.363444
2414.6, 0.361424
2415.73, 0.359807
2416.85, 0.358292
2417.98, 0.356979
2419.11, 0.355464
2420.24, 0.353545
2421.37, 0.351928
2422.5, 0.350312
2423.64, 0.348393
2424.77, 0.346676
2425.9, 0.344555
2427.04, 0.342635
2428.18, 0.340615
2429.31, 0.338292
2430.45, 0.335968
2431.59, 0.333948
2432.73, 0.331928
2433.88, 0.329504
2435.02, 0.327584
2436.16, 0.326574
2437.31, 0.324554
2438.45, 0.323039
2439.6, 0.322130
2440.75, 0.321423
2441.9, 0.320008
2443.05, 0.318897
2444.2, 0.318291
2445.35, 0.317887
2446.51, 0.317180
2447.67, 0.317483
2448.82, 0.317180
2449.98, 0.315968
2451.14, 0.315261
2452.3, 0.314857
2453.46, 0.314251
2454.62, 0.314049
2455.78, 0.313039
2456.94, 0.312533
2458.11, 0.311725
2459.28, 0.310311
2460.44, 0.309200
2461.61, 0.308695
2462.78, 0.308291
2463.95, 0.307483
2465.12, 0.305766
2466.3, 0.304351
2467.47, 0.303139
2468.65, 0.301826
2469.82, 0.300109
2471.0, 0.298392
2472.18, 0.296674
2473.36, 0.294553
2474.54, 0.292836
2475.72, 0.291523
2476.9, 0.289503
2478.08, 0.287886
2479.27, 0.286371
2480.46, 0.284149
2481.64, 0.282432
2482.83, 0.281624
2484.02, 0.280108
2485.21, 0.278694
2486.4, 0.278088
2487.6, 0.277078
2488.79, 0.276472
2489.99, 0.276169
2491.18, 0.275866
2492.38, 0.275462
2493.58, 0.274351
2494.78, 0.273846
2495.98, 0.273341
2497.18, 0.272734
2498.39, 0.272027
2499.59, 0.271118
2500.8, 0.270209
2502.01, 0.269199
2503.21, 0.267886
2504.42, 0.266674
2505.63, 0.265462
2506.84, 0.264451
2508.06, 0.264047
2509.27, 0.263542
2510.49, 0.262532
2511.7, 0.261421
2512.92, 0.260714
2514.14, 0.258997
2515.36, 0.257380
2516.58, 0.256269
2517.8, 0.255259
2519.03, 0.254552
2520.25, 0.253542
2521.48, 0.252027
2522.7, 0.251522
2523.93, 0.251118
2525.16, 0.250007
2526.39, 0.248592
2527.62, 0.247178
2528.86, 0.246471
2530.09, 0.245663
2531.33, 0.243845
2532.56, 0.242431
2533.8, 0.241623
2535.04, 0.240006
2536.28, 0.238895
2537.52, 0.237986
2538.76, 0.236269
2540.01, 0.234451
2541.25, 0.232935
2542.5, 0.231319
2543.75, 0.230511
2544.99, 0.229602
2546.24, 0.228592
2547.49, 0.227380
2548.75, 0.225966
2550.0, 0.224955
2551.26, 0.223541
2552.51, 0.221925
2553.77, 0.220915
2555.03, 0.220612
2556.29, 0.219501
2557.55, 0.217682
2558.81, 0.215662
2560.08, 0.213238
2561.34, 0.210915
2562.61, 0.209298
2563.88, 0.208086
2565.14, 0.207278
2566.41, 0.206773
2567.68, 0.205258
2568.96, 0.202935
2570.23, 0.201217
2571.51, 0.200611
2572.78, 0.198490
2574.06, 0.197581
2575.34, 0.197177
2576.62, 0.195662
2577.9, 0.194854
2579.18, 0.193944
2580.47, 0.192530
2581.75, 0.191217
2583.04, 0.188995
2584.32, 0.187682
2585.61, 0.187076
2586.9, 0.185459
2588.2, 0.184550
2589.49, 0.183944
2590.78, 0.183338
2592.08, 0.181520
2593.37, 0.177681
2594.67, 0.173944
2595.97, 0.174348
2597.27, 0.175459
2598.57, 0.175055
2599.88, 0.173338
2601.18, 0.171318
2602.49, 0.170004
2603.79, 0.168287
2605.1, 0.165762
2606.41, 0.164752
2607.72, 0.164449
2609.03, 0.163035
2610.35, 0.161923
2611.66, 0.160913
2612.98, 0.158792
2614.3, 0.157479
2615.62, 0.154954
2616.94, 0.152226
2618.26, 0.151216
2619.58, 0.149196
2620.91, 0.147681
2622.23, 0.147479
2623.56, 0.145862
2624.89, 0.143337
2626.22, 0.140307
2627.55, 0.138590
2628.88, 0.136670
2630.21, 0.133741
2631.55, 0.132529
2632.89, 0.130913
2634.22, 0.128690
2635.56, 0.127074
2636.9, 0.125155
2638.25, 0.123034
2639.59, 0.120710
2640.93, 0.118286
2642.28, 0.115862
2643.63, 0.113437
2644.98, 0.110811
2646.33, 0.108589
2647.68, 0.106265
2649.03, 0.103942
2650.39, 0.101316
2651.74, 0.0981840
2653.1, 0.0953560
2654.46, 0.0930330
2655.82, 0.0904060
2657.18, 0.0876790
2658.54, 0.0848510
2659.9, 0.0820220
2661.27, 0.0790930
2662.64, 0.0758610
2664.01, 0.0724260
2665.38, 0.0694970
2666.74, 0.0667690
2668.12, 0.0637390
2669.49, 0.0605070
2670.87, 0.0573750
2672.24, 0.0553550
2673.62, 0.0530320
2675.0, 0.0502030
2676.38, 0.0467690
2677.76, 0.0437390
2679.15, 0.0409100
2680.54, 0.0386880
2681.92, 0.0361630
2683.31, 0.0330310
2684.7, 0.0303040
2686.09, 0.0277790
2687.48, 0.0254550
2688.88, 0.0225260
2690.27, 0.0196970
2691.67, 0.0177780
2693.07, 0.0160610
2694.47, 0.0141420
2695.87, 0.0125260
2697.27, 0.0114140
2698.67, 0.0109090
2700.08, 0.0105050
2701.49, 0.0101010
2702.9, 0.0100000
2704.31, 0.0104040
2705.72, 0.0106060
2707.13, 0.0110100
2708.54, 0.0117170
2709.96, 0.0120210
2711.38, 0.0120210
2712.8, 0.0122230
2714.22, 0.0125260
2715.64, 0.0131320
2717.06, 0.0132330
2718.49, 0.0131320
2719.91, 0.0133340
2721.34, 0.0135360
2722.77, 0.0136370
2724.2, 0.0135360
2725.63, 0.0134350
2727.07, 0.0137380
2728.5, 0.0139400
2729.94, 0.0140410
2731.38, 0.0140410
2732.82, 0.0139400
2734.26, 0.0136370
2735.7, 0.0138390
2737.15, 0.0139400
2738.59, 0.0137380
2740.04, 0.0137380
2741.49, 0.0134350
2742.94, 0.0131320
2744.39, 0.0132330
2745.84, 0.0127280
2747.3, 0.0118180
2748.76, 0.0113130
2750.21, 0.0115150
2751.67, 0.0116160
2753.14, 0.0113130
2754.6, 0.0111110
2756.06, 0.0116160
2757.53, 0.0122230
2759.0, 0.0125260
2760.46, 0.0132330
2761.94, 0.0142430
2763.41, 0.0153540
2764.88, 0.0166670
2766.36, 0.0175760
2767.83, 0.0182830
2769.31, 0.0189900
2770.79, 0.0197990
2772.27, 0.0209100
2773.76, 0.0216170
2775.24, 0.0219200
2776.73, 0.0223240
2778.22, 0.0230310
2779.71, 0.0235360
2781.2, 0.0239400
2782.69, 0.0242430
2784.18, 0.0247480
2785.68, 0.0255560
2787.18, 0.0262630
2788.68, 0.0266670
2790.18, 0.0268690
2791.68, 0.0270710
2793.19, 0.0271720
2794.69, 0.0274750
2796.2, 0.0281830
2797.71, 0.0285870
2799.22, 0.0285870
2800.73, 0.0288900
2802.24, 0.0285870
2803.76, 0.0285870
2805.28, 0.0285870
2806.8, 0.0280820
2808.32, 0.0275760
2809.84, 0.0274750
2811.36, 0.0271720
2812.89, 0.0268690
2814.42, 0.0267680
2815.94, 0.0270710
2817.48, 0.0274750
2819.01, 0.0276770
2820.54, 0.0281830
2822.08, 0.0286880
2823.61, 0.0290920
2825.15, 0.0293950
2826.69, 0.0297990
2828.23, 0.0301020
2829.78, 0.0302030
2831.32, 0.0303040
2832.87, 0.0309100
2834.42, 0.0316170
2835.97, 0.0319200
2837.52, 0.0319200
2839.08, 0.0321220
2840.63, 0.0322230
2842.19, 0.0325260
2843.75, 0.0333340
2845.31, 0.0334350
2846.87, 0.0333340
2848.44, 0.0335360
2850.0, 0.0338390
2851.57, 0.0339400
2853.14, 0.0340410
2854.71, 0.0341420
2856.28, 0.0344450
2857.86, 0.0347480
2859.43, 0.0350510
2861.01, 0.0350510
2862.59, 0.0352530
2864.17, 0.0355560
2865.76, 0.0358600
2867.34, 0.0360620
2868.93, 0.0358600
2870.52, 0.0358600
2872.11, 0.0362640
2873.7, 0.0363650
2875.29, 0.0362640
2876.89, 0.0362640
2878.49, 0.0363650
2880.08, 0.0365670
2881.69, 0.0369710
2883.29, 0.0372740
2884.89, 0.0371730
2886.5, 0.0369710
2888.11, 0.0372740
2889.72, 0.0372740
2891.33, 0.0374760
2892.94, 0.0380820
2894.56, 0.0380820
2896.17, 0.0377790
2897.79, 0.0379810
2899.42, 0.0384860
2901.04, 0.0387890
2902.66, 0.0386880
2904.29, 0.0382840
2905.92, 0.0384860
2907.55, 0.0389910
2909.18, 0.0387890
2910.81, 0.0388900
2912.45, 0.0396980
2914.08, 0.0403040
2915.72, 0.0407080
2917.36, 0.0410110
2919.01, 0.0413140
2920.65, 0.0420210
2922.3, 0.0425260
2923.94, 0.0431320
2925.59, 0.0435360
2927.25, 0.0439410
2928.9, 0.0440420
2930.56, 0.0439410
2932.21, 0.0439410
2933.87, 0.0442440
2935.53, 0.0447490
2937.2, 0.0451530
2938.86, 0.0450520
2940.53, 0.0451530
2942.2, 0.0452540
2943.87, 0.0453550
2945.54, 0.0455570
2947.22, 0.0459610
2948.89, 0.0464660
2950.57, 0.0466680
2952.25, 0.0465670
2953.93, 0.0465670
2955.62, 0.0465670
2957.3, 0.0465670
2958.99, 0.0468700
2960.68, 0.0473750
2962.37, 0.0475770
2964.07, 0.0473750
2965.76, 0.0474760
2967.46, 0.0476780
2969.16, 0.0477790
2970.86, 0.0480820
2972.56, 0.0483850
2974.27, 0.0485870
2975.98, 0.0487890
2977.69, 0.0493950
2979.4, 0.0499000
2981.11, 0.0495970
2982.83, 0.0494960
2984.54, 0.0499000
2986.26, 0.0504050
2987.98, 0.0505060
2989.71, 0.0507080
2991.43, 0.0512130
2993.16, 0.0513140
2994.89, 0.0517190
2996.62, 0.0519210
2998.35, 0.0520220
3000.09, 0.0523250
3001.83, 0.0527290
3003.57, 0.0530320
3005.31, 0.0533350
3007.05, 0.0537390
3008.79, 0.0539410
3010.54, 0.0541430
3012.29, 0.0542440
3014.04, 0.0544460
3015.8, 0.0548500
3017.55, 0.0551530
3019.31, 0.0552540
3021.07, 0.0556580
3022.83, 0.0558600
3024.59, 0.0561630
3026.36, 0.0563650
3028.13, 0.0568700
3029.9, 0.0574760
3031.67, 0.0576780
3033.44, 0.0577790
3035.22, 0.0579810
3037.0, 0.0584860
3038.78, 0.0587890
3040.56, 0.0589910
3042.34, 0.0589910
3044.13, 0.0589910
3045.92, 0.0592940
3047.71, 0.0598000
3049.5, 0.0601030
3051.3, 0.0604060
3053.09, 0.0606080
3054.89, 0.0606080
3056.69, 0.0608100
3058.5, 0.0610120
3060.3, 0.0613150
3062.11, 0.0617190
3063.92, 0.0620220
3065.73, 0.0620220
3067.55, 0.0620220
3069.36, 0.0625270
3071.18, 0.0631330
3073.0, 0.0637390
3074.82, 0.0637390
3076.65, 0.0636380
3078.48, 0.0641430
3080.31, 0.0646480
3082.14, 0.0650520
3083.97, 0.0655570
3085.8, 0.0658600
3087.64, 0.0658600
3089.48, 0.0659610
3091.33, 0.0666680
3093.17, 0.0672740
3095.02, 0.0676790
3096.87, 0.0681840
3098.72, 0.0685880
3100.57, 0.0688910
3102.43, 0.0691940
3104.28, 0.0695980
3106.14, 0.0699010
3108.01, 0.0705070
3109.87, 0.0710120
3111.74, 0.0714160
3113.61, 0.0715170
3115.48, 0.0722240
3117.35, 0.0728300
3119.23, 0.0733350
3121.1, 0.0738400
3122.98, 0.0740420
3124.87, 0.0745470
3126.75, 0.0751530
3128.64, 0.0756590
3130.53, 0.0762650
3132.42, 0.0769720
3134.31, 0.0775780
3136.21, 0.0780830
3138.11, 0.0785880
3140.01, 0.0791940
3141.91, 0.0796990
3143.82, 0.0798000
3145.73, 0.0805070
3147.64, 0.0814160
3149.55, 0.0821230
3151.46, 0.0826280
3153.38, 0.0832350
3155.3, 0.0840430
3157.22, 0.0846490
3159.14, 0.0852550
3161.07, 0.0858610
3163.0, 0.0863660
3164.93, 0.0870730
3166.86, 0.0876790
3168.8, 0.0880830
3170.74, 0.0886890
3172.68, 0.0895980
3174.62, 0.0906080
3176.56, 0.0911140
3178.51, 0.0917200
3180.46, 0.0925280
3182.42, 0.0929320
3184.37, 0.0932350
3186.33, 0.0939420
3188.29, 0.0947500
3190.25, 0.0953560
3192.21, 0.0961640
3194.18, 0.0971740
3196.15, 0.0978810
3198.12, 0.0983860
3200.09, 0.0990940
3202.07, 0.0998010
3204.05, 0.100306
3206.03, 0.101114
3208.02, 0.102124
3210.0, 0.102730
3211.99, 0.103235
3213.98, 0.104144
3215.98, 0.104952
3217.97, 0.105760
3219.97, 0.106467
3221.97, 0.107074
3223.98, 0.107680
3225.98, 0.108690
3227.99, 0.109397
3230.0, 0.110306
3232.02, 0.111316
3234.03, 0.111821
3236.05, 0.112427
3238.07, 0.113336
3240.1, 0.114245
3242.12, 0.114750
3244.15, 0.115559
3246.18, 0.116367
3248.22, 0.117276
3250.25, 0.117983
3252.29, 0.118488
3254.33, 0.119397
3256.38, 0.120508
3258.43, 0.121316
3260.47, 0.122225
3262.53, 0.122832
3264.58, 0.123236
3266.64, 0.124044
3268.7, 0.125054
3270.76, 0.126266
3272.82, 0.127074
3274.89, 0.127882
3276.96, 0.128892
3279.04, 0.129902
3281.11, 0.130508
3283.19, 0.131317
3285.27, 0.132125
3287.35, 0.132933
3289.44, 0.133943
3291.53, 0.135054
3293.62, 0.136165
3295.71, 0.136771
3297.81, 0.137478
3299.91, 0.138488
3302.01, 0.139499
3304.11, 0.140307
3306.22, 0.141014
3308.33, 0.141822
3310.44, 0.143135
3312.56, 0.144246
3314.68, 0.144751
3316.8, 0.145458
3318.92, 0.146671
3321.05, 0.147580
3323.18, 0.148287
3325.31, 0.148994
3327.44, 0.150105
3329.58, 0.151317
3331.72, 0.152226
3333.86, 0.153135
3336.01, 0.154145
3338.16, 0.155257
3340.31, 0.155964
3342.46, 0.156166
3344.61, 0.156873
3346.77, 0.157883
3348.94, 0.158590
3351.1, 0.159297
3353.27, 0.160105
3355.44, 0.160610
3357.61, 0.161317
3359.79, 0.162226
3361.97, 0.162934
3364.15, 0.163540
3366.33, 0.164348
3368.52, 0.165156
3370.71, 0.165863
3372.9, 0.166469
3375.1, 0.167176
3377.3, 0.168186
3379.5, 0.168994
3381.71, 0.170004
3383.91, 0.171217
3386.12, 0.172227
3388.34, 0.173136
3390.55, 0.173944
3392.77, 0.174752
3394.99, 0.175661
3397.22, 0.176267
3399.45, 0.176873
3401.68, 0.177479
3403.91, 0.177984
3406.15, 0.178389
3408.39, 0.178995
3410.63, 0.180005
3412.87, 0.181217
3415.12, 0.182631
3417.37, 0.184247
3419.63, 0.185661
3421.88, 0.186975
3424.14, 0.188793
3426.41, 0.190510
3428.67, 0.192126
3430.94, 0.193742
3433.21, 0.195258
3435.49, 0.196571
3437.77, 0.197985
3440.05, 0.199601
3442.33, 0.200914
3444.62, 0.202228
3446.91, 0.203339
3449.2, 0.204652
3451.5, 0.206066
3453.8, 0.207581
3456.1, 0.208894
3458.41, 0.210208
3460.72, 0.211319
3463.03, 0.212531
3465.34, 0.213642
3467.66, 0.214349
3469.98, 0.215258
3472.31, 0.216369
3474.63, 0.217177
3476.96, 0.217885
3479.3, 0.218592
3481.64, 0.219602
3483.97, 0.220713
3486.32, 0.221723
3488.66, 0.222733
3491.01, 0.223844
3493.36, 0.224551
3495.72, 0.225460
3498.08, 0.226370
3500.44, 0.227279
3502.81, 0.228491
3505.18, 0.229804
3507.55, 0.230612
3509.92, 0.231723
3512.3, 0.233036
3514.68, 0.234451
3517.06, 0.235663
3519.45, 0.236976
3521.84, 0.238289
3524.24, 0.239703
3526.64, 0.240814
3529.04, 0.242128
3531.44, 0.243643
3533.85, 0.245057
3536.26, 0.246168
3538.67, 0.247178
3541.09, 0.248188
3543.51, 0.248996
3545.93, 0.249906
3548.36, 0.250613
3550.79, 0.251017
3553.22, 0.251219
3555.66, 0.251219
3558.1, 0.250613
3560.54, 0.249603
3562.99, 0.248087
3565.44, 0.245663
3567.9, 0.243340
3570.35, 0.241623
3572.81, 0.241016
3575.28, 0.242229
3577.75, 0.244451
3580.22, 0.247582
3582.69, 0.251926
3585.17, 0.256471
3587.65, 0.260613
3590.14, 0.264047
3592.62, 0.267078
3595.11, 0.269704
3597.61, 0.271522
3600.11, 0.273240
3602.61, 0.275058
3605.11, 0.276674
3607.62, 0.277987
3610.14, 0.278896
3612.65, 0.279906
3615.17, 0.280815
3617.69, 0.281927
3620.22, 0.282937
3622.75, 0.283745
3625.28, 0.284654
3627.82, 0.285664
3630.36, 0.286371
3632.9, 0.286977
3635.45, 0.287886
3638.0, 0.288694
3640.56, 0.289503
3643.12, 0.290109
3645.68, 0.290715
3648.24, 0.291321
3650.81, 0.291927
3653.39, 0.292028
3655.96, 0.292028
3658.54, 0.292129
3661.13, 0.292129
3663.71, 0.291725
3666.3, 0.291220
3668.9, 0.290715
3671.5, 0.290614
3674.1, 0.290513
3676.7, 0.290412
3679.31, 0.290614
3681.93, 0.290816
3684.54, 0.291321
3687.17, 0.291826
3689.79, 0.292533
3692.42, 0.293341
3695.05, 0.294149
3697.69, 0.295159
3700.32, 0.296169
3702.97, 0.297887
3705.61, 0.300311
3708.27, 0.302937
3710.92, 0.305564
3713.58, 0.308291
3716.24, 0.311018
3718.91, 0.313443
3721.58, 0.315261
3724.25, 0.316675
3726.93, 0.317988
3729.61, 0.319200
3732.29, 0.320412
3734.98, 0.321524
3737.67, 0.322837
3740.37, 0.324150
3743.07, 0.325665
3745.78, 0.327483
3748.49, 0.329302
3751.2, 0.330817
3753.91, 0.332029
3756.63, 0.333241
3759.36, 0.334655
3762.09, 0.335766
3764.82, 0.336574
3767.55, 0.337383
3770.29, 0.338191
3773.04, 0.338999
3775.78, 0.339706
3778.54, 0.340615
3781.29, 0.341423
3784.05, 0.342231
3786.82, 0.343140
3789.59, 0.343746
3792.36, 0.344352
3795.13, 0.344959
3797.92, 0.345666
3800.7, 0.346474
3803.49, 0.347383
3806.28, 0.347989
3809.08, 0.348494
3811.88, 0.349100
3814.68, 0.349706
3817.49, 0.350110
3820.31, 0.350514
3823.12, 0.351120
3825.94, 0.351625
3828.77, 0.352130
3831.6, 0.352737
3834.43, 0.353040
3837.27, 0.353444
3840.11, 0.353848
3842.96, 0.354454
3845.81, 0.354959
3848.67, 0.355363
3851.53, 0.355767
3854.39, 0.356070
3857.26, 0.356575
3860.13, 0.356878
3863.01, 0.357181
3865.89, 0.357484
3868.77, 0.357686
3871.66, 0.358090
3874.55, 0.358595
3877.45, 0.358999
3880.35, 0.359403
3883.26, 0.359908
3886.17, 0.360515
3889.09, 0.360919
3892.01, 0.361222
3894.93, 0.361626
3897.86, 0.361929
3900.79, 0.362131
3903.73, 0.362333
3906.67, 0.362636
3909.62, 0.362838
3912.57, 0.362939
3915.52, 0.363141
3918.48, 0.363444
3921.45, 0.363747
3924.42, 0.363747
3927.39, 0.363848
3930.37, 0.363949
3933.35, 0.363747
3936.34, 0.363747
3939.33, 0.363949
3942.32, 0.363949
3945.32, 0.363949
3948.33, 0.364050
3951.34, 0.364151
3954.35, 0.364151
3957.37, 0.363949
3960.39, 0.363747
3963.42, 0.363747
3966.45, 0.363848
3969.49, 0.363747
3972.53, 0.363646
3975.58, 0.363747
3978.63, 0.363747
3981.68, 0.363747
3984.75, 0.363848
3987.81, 0.363848
3990.88, 0.363646
3993.95, 0.363747
3997.03, 0.363747
4000.12, 0.363646
4003.21, 0.363242
4006.3, 0.363040
4009.4, 0.362939
4012.5, 0.362838
4015.61, 0.362535
4018.72, 0.362333
4021.84, 0.362131
4024.96, 0.361828
4028.09, 0.361424
4031.22, 0.361020
4034.36, 0.360515
4037.5, 0.360110
4040.65, 0.359807
4043.8, 0.359504
4046.96, 0.358999
4050.12, 0.358494
4053.29, 0.357989
4056.46, 0.357484
4059.64, 0.356878
4062.82, 0.356373
4066.0, 0.355868
4069.19, 0.355464
4072.39, 0.354959
4075.59, 0.354252
4078.8, 0.353545
4082.01, 0.353141
4085.23, 0.352636
4088.45, 0.352029
4091.68, 0.351423
4094.91, 0.350918
4098.15, 0.350312
4101.39, 0.349908
4104.63, 0.349201
4107.89, 0.348494
4111.14, 0.347888
4114.41, 0.347282
4117.67, 0.346878
4120.95, 0.346070
4124.23, 0.345363
4127.51, 0.344959
4130.8, 0.344453
4134.09, 0.343948
4137.39, 0.343544
4140.7, 0.343039
4144.01, 0.342433
4147.32, 0.342231
4150.64, 0.341928
4153.97, 0.341423
4157.3, 0.340918
4160.64, 0.340514
4163.98, 0.340312
4167.33, 0.340009
4170.68, 0.339605
4174.04, 0.338999
4177.4, 0.338494
4180.77, 0.337989
4184.14, 0.337585
4187.52, 0.337282
4190.91, 0.336676
4194.3, 0.336170
4197.69, 0.335867
4201.1, 0.335463
4204.5, 0.334857
4207.92, 0.334251
4211.34, 0.333544
4214.76, 0.332837
4218.19, 0.332332
4221.62, 0.331928
4225.06, 0.331322
4228.51, 0.330817
4231.96, 0.330110
4235.42, 0.329302
4238.88, 0.328392
4242.35, 0.327685
4245.83, 0.326978
4249.31, 0.326170
4252.79, 0.325463
4256.28, 0.325059
4259.78, 0.324150
4263.29, 0.323039
4266.79, 0.322332
4270.31, 0.321524
4273.83, 0.320716
4277.35, 0.320008
4280.89, 0.319301
4284.42, 0.318695
4287.97, 0.317988
4291.52, 0.317281
4295.07, 0.316473
4298.63, 0.315665
4302.2, 0.314756
4305.78, 0.314150
4309.35, 0.313342
4312.94, 0.312735
4316.53, 0.311927
4320.13, 0.311220
4323.73, 0.310513
4327.34, 0.309806
4330.96, 0.309200
4334.58, 0.308594
4338.21, 0.307887
4341.84, 0.307180
4345.48, 0.306473
4349.12, 0.306170
4352.77, 0.305564
4356.43, 0.304856
4360.1, 0.304149
4363.76, 0.303644
4367.44, 0.303139
4371.12, 0.302432
4374.81, 0.301725
4378.51, 0.301119
4382.21, 0.300614
4385.92, 0.300109
4389.63, 0.299503
4393.35, 0.298695
4397.08, 0.297887
4400.81, 0.297281
4404.55, 0.296674
4408.29, 0.296068
4412.04, 0.295260
4415.8, 0.294654
4419.57, 0.294048
4423.34, 0.293442
4427.12, 0.292634
4430.9, 0.291725
4434.69, 0.290816
4438.49, 0.290109
4442.29, 0.289301
4446.1, 0.288391
4449.92, 0.287381
4453.74, 0.286573
4457.57, 0.285765
4461.41, 0.284957
4465.25, 0.283745
4469.1, 0.282836
4472.95, 0.281927
4476.82, 0.280613
4480.69, 0.279603
4484.56, 0.278795
4488.44, 0.277886
4492.33, 0.276977
4496.23, 0.276169
4500.13, 0.275361
4504.04, 0.274553
4507.96, 0.273543
4511.88, 0.272532
4515.81, 0.271724
4519.75, 0.270916
4523.69, 0.270007
4527.65, 0.268896
4531.6, 0.267987
4535.57, 0.266876
4539.54, 0.266068
4543.52, 0.265159
4547.5, 0.264249
4551.5, 0.263239
4555.5, 0.262229
4559.5, 0.261219
4563.52, 0.260108
4567.54, 0.259098
4571.56, 0.258088
4575.6, 0.256875
4579.64, 0.255562
4583.69, 0.254350
4587.75, 0.253239
4591.81, 0.251522
4595.88, 0.249805
4599.96, 0.248390
4604.04, 0.246875
4608.14, 0.245259
4612.24, 0.243643
4616.34, 0.241926
4620.46, 0.240208
4624.58, 0.238592
4628.71, 0.236774
4632.84, 0.234956
4636.99, 0.233238
4641.14, 0.231319
4645.3, 0.229400
4649.47, 0.227683
4653.64, 0.225966
4657.82, 0.224450
4662.01, 0.222834
4666.21, 0.221521
4670.41, 0.220309
4674.62, 0.219299
4678.84, 0.218491
4683.07, 0.217784
4687.3, 0.217177
4691.54, 0.216571
4695.79, 0.216066
4700.05, 0.215763
4704.31, 0.215258
4708.59, 0.214955
4712.87, 0.214652
4717.15, 0.214147
4721.45, 0.213743
4725.76, 0.213440
4730.07, 0.213238
4734.39, 0.213036
4738.72, 0.212834
4743.05, 0.212531
4747.39, 0.212430
4751.75, 0.212228
4756.1, 0.212026
4760.47, 0.211723
4764.85, 0.211521
4769.23, 0.211117
4773.62, 0.210612
4778.02, 0.210107
4782.43, 0.209500
4786.85, 0.208793
4791.27, 0.207985
4795.7, 0.206773
4800.14, 0.205561
4804.59, 0.204551
4809.05, 0.203743
4813.51, 0.202632
4817.99, 0.201520
4822.47, 0.200207
4826.96, 0.198894
4831.46, 0.197682
4835.96, 0.196268
4840.48, 0.194854
4845.0, 0.193540
4849.54, 0.192328
4854.08, 0.191116
4858.63, 0.189803
4863.18, 0.188490
4867.75, 0.187278
4872.33, 0.186167
4876.91, 0.185055
4881.5, 0.183742
4886.1, 0.182631
4890.71, 0.181520
4895.33, 0.180409
4899.96, 0.179197
4904.59, 0.178187
4909.24, 0.177277
4913.89, 0.176469
4918.55, 0.175560
4923.22, 0.174550
4927.9, 0.173540
4932.59, 0.172328
4937.29, 0.171217
4942.0, 0.170308
4946.71, 0.169297
4951.44, 0.167883
4956.17, 0.166671
4960.91, 0.165459
4965.67, 0.164146
4970.43, 0.162631
4975.2, 0.161115
4979.98, 0.159398
4984.76, 0.157883
4989.56, 0.156368
4994.37, 0.154550
4999.18, 0.152630
5004.01, 0.150610
5008.84, 0.148590
5013.69, 0.146468
5018.54, 0.144347
5023.4, 0.142327
5028.28, 0.140307
5033.16, 0.138286
5038.05, 0.136266
5042.95, 0.134145
5047.86, 0.132024
5052.78, 0.130104
5057.71, 0.128084
5062.65, 0.126064
5067.6, 0.123943
5072.56, 0.122023
5077.53, 0.120306
5082.5, 0.118286
5087.49, 0.116367
5092.49, 0.114649
5097.5, 0.113033
5102.51, 0.111316
5107.54, 0.109498
5112.58, 0.107983
5117.62, 0.106568
5122.68, 0.105154
5127.75, 0.103942
5132.82, 0.102528
5137.91, 0.101215
5143.01, 0.100104
5148.12, 0.0990940
5153.23, 0.0983860
5158.36, 0.0976790
5163.5, 0.0969720
5168.65, 0.0963660
5173.81, 0.0958610
5178.98, 0.0956590
5184.15, 0.0951540
5189.34, 0.0948510
5194.54, 0.0947500
5199.75, 0.0945480
5204.98, 0.0945480
5210.21, 0.0944470
5215.45, 0.0943460
5220.7, 0.0946490
5225.96, 0.0947500
5231.23, 0.0948510
5236.52, 0.0951540
5241.81, 0.0952550
5247.12, 0.0954570
5252.44, 0.0955580
5257.76, 0.0956590
5263.1, 0.0959620
5268.45, 0.0960630
5273.81, 0.0958610
5279.18, 0.0957600
5284.56, 0.0956590
5289.95, 0.0952550
5295.36, 0.0950530
5300.77, 0.0948510
5306.2, 0.0943460
5311.63, 0.0937400
5317.08, 0.0931340
5322.54, 0.0923260
5328.01, 0.0916190
5333.49, 0.0909110
5338.98, 0.0900020
5344.49, 0.0888910
5350.0, 0.0877800
5355.53, 0.0870730
5361.07, 0.0862650
5366.62, 0.0851540
5372.18, 0.0841440
5377.75, 0.0831340
5383.34, 0.0822240
5388.93, 0.0814160
5394.54, 0.0805070
5400.16, 0.0795980
5405.79, 0.0785880
5411.44, 0.0775780
5417.09, 0.0763660
5422.76, 0.0751530
5428.43, 0.0746480
5434.12, 0.0740420
5439.83, 0.0731330
5445.54, 0.0723250
5451.26, 0.0716180
5457.0, 0.0706080
5462.75, 0.0695980
5468.52, 0.0689920
5474.29, 0.0684870
5480.08, 0.0680830
5485.88, 0.0680830
5491.69, 0.0681840
5497.51, 0.0686890
5503.35, 0.0692950
5509.2, 0.0702040
5515.06, 0.0713150
5520.93, 0.0724260
5526.82, 0.0738400
5532.71, 0.0753560
5538.63, 0.0767700
5544.55, 0.0781840
5550.49, 0.0796990
5556.44, 0.0812140
5562.4, 0.0827290
5568.37, 0.0840430
5574.36, 0.0847500
5580.36, 0.0855580
5586.37, 0.0871740
5592.4, 0.0884870
5598.44, 0.0889920
5604.49, 0.0893960
5610.56, 0.0896990
5616.63, 0.0900020
5622.73, 0.0903050
5628.83, 0.0900020
5634.95, 0.0893960
5641.08, 0.0883860
5647.23, 0.0883860
5653.39, 0.0881840
5659.56, 0.0875780
5665.74, 0.0873760
5671.94, 0.0864670
5678.15, 0.0854570
5684.38, 0.0848510
5690.62, 0.0838410
5696.87, 0.0832350
5703.14, 0.0822240
5709.42, 0.0808100
5715.72, 0.0801030
5722.03, 0.0793960
5728.35, 0.0785880
5734.69, 0.0776790
5741.03, 0.0766690
5747.4, 0.0757600
5753.78, 0.0753560
5760.17, 0.0741430
5766.58, 0.0725270
5773.0, 0.0726280
5779.44, 0.0723250
5785.88, 0.0719210
5792.35, 0.0715170
5798.83, 0.0708100
5805.32, 0.0703050
5811.83, 0.0696990
5818.35, 0.0684870
5824.89, 0.0678810
5831.45, 0.0678810
5838.01, 0.0677800
5844.59, 0.0676790
5851.19, 0.0671730
5857.8, 0.0663650
5864.43, 0.0656580
5871.07, 0.0651530
5877.73, 0.0637390
5884.4, 0.0632340
5891.09, 0.0631330
5897.79, 0.0622240
5904.5, 0.0622240
5911.23, 0.0615170
5917.98, 0.0607090
5924.75, 0.0599010
5931.53, 0.0580820
5938.32, 0.0564660
5945.13, 0.0560620
5951.96, 0.0554560
5958.8, 0.0542440
5965.65, 0.0523250
5972.53, 0.0506070
5979.42, 0.0491930
5986.32, 0.0470720
5993.24, 0.0450520
6000.18, 0.0433340
6007.13, 0.0409100
6014.1, 0.0381830
6021.08, 0.0356570
6028.09, 0.0329300
6035.1, 0.0299000
6042.14, 0.0273740
6049.19, 0.0259600
6056.25, 0.0265660
6063.34, 0.0272730
6070.44, 0.0279810
6077.55, 0.0289910
6084.69, 0.0303040
6091.84, 0.0309100
6099.0, 0.0311120
6106.19, 0.0310110
6113.39, 0.0311120
6120.61, 0.0318190
6127.84, 0.0326270
6135.09, 0.0332330
6142.36, 0.0341420
6149.65, 0.0355560
6156.95, 0.0368700
6164.27, 0.0382840
6171.61, 0.0399000
6178.97, 0.0408090
6186.34, 0.0416170
6193.73, 0.0429300
6201.14, 0.0438400
6208.57, 0.0444460
6216.01, 0.0448500
6223.47, 0.0451530
6230.95, 0.0450520
6238.45, 0.0448500
6245.97, 0.0445470
6253.5, 0.0440420
6261.06, 0.0435360
6268.63, 0.0430310
6276.21, 0.0421220
6283.82, 0.0413140
6291.45, 0.0409100
6299.1, 0.0406070
6306.76, 0.0404050
6314.44, 0.0404050
6322.14, 0.0405060
6329.86, 0.0407080
6337.6, 0.0408090
6345.35, 0.0408090
6353.13, 0.0416170
6360.92, 0.0422230
6368.74, 0.0424250
6376.57, 0.0431320
6384.43, 0.0437390
6392.3, 0.0442440
6400.19, 0.0444460
6408.1, 0.0440420
6416.03, 0.0442440
6423.98, 0.0455570
6431.95, 0.0464660
6439.94, 0.0471730
6447.95, 0.0478800
6455.98, 0.0487890
6464.03, 0.0494960
6472.1, 0.0497990
6480.19, 0.0499000
6488.31, 0.0499000
6496.44, 0.0505060
6504.59, 0.0520220
6512.76, 0.0525270
6520.95, 0.0525270
6529.16, 0.0532340
6537.4, 0.0534360
6545.65, 0.0533350
6553.92, 0.0533350
6562.22, 0.0533350
6570.54, 0.0528300
6578.88, 0.0528300
6587.23, 0.0531330
6595.61, 0.0530320
6604.02, 0.0530320
6612.44, 0.0528300
6620.89, 0.0523250
6629.35, 0.0514150
6637.84, 0.0505060
6646.35, 0.0507080
6654.88, 0.0508090
6663.44, 0.0507080
6672.01, 0.0503040
6680.61, 0.0497990
6689.23, 0.0497990
6697.88, 0.0496980
6706.54, 0.0488900
6715.23, 0.0481830
6723.94, 0.0479810
6732.67, 0.0479810
6741.42, 0.0474760
6750.2, 0.0467690
6759.0, 0.0462640
6767.82, 0.0455570
6776.67, 0.0446480
6785.54, 0.0437390
6794.44, 0.0429300
6803.35, 0.0428290
6812.29, 0.0427280
6821.26, 0.0423240
6830.24, 0.0420210
6839.25, 0.0422230
6848.29, 0.0421220
6857.35, 0.0415160
6866.43, 0.0412130
6875.54, 0.0415160
6884.67, 0.0417180
6893.82, 0.0414150
6903.0, 0.0410110
6912.2, 0.0406070
6921.43, 0.0402030
6930.69, 0.0397990
6939.96, 0.0392940
6949.27, 0.0385870
6958.59, 0.0376780
6967.95, 0.0372740
6977.33, 0.0367690
6986.73, 0.0360620
6996.16, 0.0353540
7005.61, 0.0345460
7015.09, 0.0337380
7024.6, 0.0329300
7034.13, 0.0320210
7043.69, 0.0311120
7053.27, 0.0307080
7062.88, 0.0305060
7072.52, 0.0303040
7082.18, 0.0303040
7091.87, 0.0304050
7101.58, 0.0303040
7111.32, 0.0301020
7121.09, 0.0299000
7130.88, 0.0297990
7140.71, 0.0293950
7150.56, 0.0287890
7160.43, 0.0282840
7170.33, 0.0279810
7180.27, 0.0279810
7190.23, 0.0278800
7200.21, 0.0272730
7210.23, 0.0265660
7220.27, 0.0263640
7230.34, 0.0259600
7240.44, 0.0255560
7250.56, 0.0249500
7260.72, 0.0244450
7270.9, 0.0238390
7281.12, 0.0232330
7291.36, 0.0228290
7301.63, 0.0222230
7311.93, 0.0217180
7322.25, 0.0213140
7332.61, 0.0210110
7343.0, 0.0207080
7353.41, 0.0203040
7363.86, 0.0197990
7374.33, 0.0191920
7384.83, 0.0186870
7395.37, 0.0184850
7405.93, 0.0182830
7416.53, 0.0179800
7427.15, 0.0177780
7437.81, 0.0174750
7448.5, 0.0171720
7459.22, 0.0167680
7469.96, 0.0165660
7480.74, 0.0162630
7491.55, 0.0161620
7502.39, 0.0157580
7513.27, 0.0151520
7524.17, 0.0147480
7535.11, 0.0144450
7546.08, 0.0142430
7557.08, 0.0138390
7568.11, 0.0132330
7579.17, 0.0130310
7590.27, 0.0128290
7601.4, 0.0125260
7612.56, 0.0120210
7623.76, 0.0115150
7634.98, 0.0112120
7646.24, 0.0110100
7657.54, 0.0107070
7668.87, 0.0103030
7680.23, 0.00989900
7691.62, 0.00959600
7703.05, 0.00929300
7714.51, 0.00888900
7726.01, 0.00848500
7737.54, 0.00818200
7749.11, 0.00777800
7760.71, 0.00747500
7772.35, 0.00727300
7784.02, 0.00697000
7795.72, 0.00636400
7807.46, 0.00606100
7819.23, 0.00575800
7831.04, 0.00555600
7842.89, 0.00545500
7854.77, 0.00505100
7866.69, 0.00474800
7878.65, 0.00444500
7890.64, 0.00414200
7902.67, 0.00393900
7914.74, 0.00363600
7926.84, 0.00333300
7938.98, 0.00333300
7951.16, 0.00313100
7963.37, 0.00292900
7975.62, 0.00272700
7987.91, 0.00252500
8000.24, 0.00272700
8012.6, 0.00262600
8025.01, 0.00212100
8037.45, 0.00171700
8049.93, 0.00181800
8062.45, 0.00202000
8075.01, 0.00212100
8087.61, 0.00212100
8100.24, 0.00212100
8112.91, 0.00191900
8125.63, 0.00212100
8138.39, 0.00252500
8151.18, 0.00252500
8164.02, 0.00252500
8176.9, 0.00282800
8189.81, 0.00313100
8202.77, 0.00353500
8215.77, 0.00393900
8228.82, 0.00444500
8241.9, 0.00505100
8255.02, 0.00585900
8268.19, 0.00646500
8281.39, 0.00707100
8294.65, 0.00798000
8307.94, 0.00899000
8321.28, 0.00969700
8334.66, 0.0103030
8348.08, 0.0113130
8361.54, 0.0119200
8375.05, 0.0125260
8388.6, 0.0133340
8402.2, 0.0143440
8415.84, 0.0155560
8429.52, 0.0165660
8443.25, 0.0180810
8457.02, 0.0199000
8470.84, 0.0218190
8484.7, 0.0238390
8498.61, 0.0260610
8512.57, 0.0283850
8526.57, 0.0307080
8540.62, 0.0332330
8554.71, 0.0356570
8568.85, 0.0382840
8583.04, 0.0411120
8597.27, 0.0440420
8611.55, 0.0468700
8625.88, 0.0497990
8640.26, 0.0529310
8654.68, 0.0564660
8669.16, 0.0603050
8683.68, 0.0640420
8698.25, 0.0672740
8712.87, 0.0706080
8727.53, 0.0738400
8742.25, 0.0764670
8757.02, 0.0784870
8771.83, 0.0800020
8786.7, 0.0807090
8801.62, 0.0804060
8816.59, 0.0790930
8831.61, 0.0765680
8846.68, 0.0732340
8861.8, 0.0693960
8876.97, 0.0651530
8892.2, 0.0609110
8907.48, 0.0569710
8922.81, 0.0533350
8938.2, 0.0500010
8953.63, 0.0470720
8969.13, 0.0451530
8984.67, 0.0448500
9000.27, 0.0461630
9015.92, 0.0493950
9031.63, 0.0536380
9047.39, 0.0575770
9063.21, 0.0614160
9079.08, 0.0649510
9095.01, 0.0678810
9111.0, 0.0705070
9127.04, 0.0727290
9143.13, 0.0743450
9159.28, 0.0759620
9175.49, 0.0775780
9191.76, 0.0795980
9208.09, 0.0822240
9224.47, 0.0844470
9240.92, 0.0863660
9257.42, 0.0886890
9273.98, 0.0914170
9290.6, 0.0937400
9307.28, 0.0957600
9324.02, 0.0975780
9340.82, 0.0988910
9357.68, 0.0992960
9374.6, 0.0991950
9391.58, 0.0989930
9408.62, 0.0992960
9425.73, 0.0998010
9442.9, 0.100508
9460.13, 0.100508
9477.42, 0.100104
9494.78, 0.0995990
9512.2, 0.0986890
9529.69, 0.0969720
9547.24, 0.0950530
9564.86, 0.0925280
9582.54, 0.0898000
9600.28, 0.0869720
9618.1, 0.0839420
9635.97, 0.0808100
9653.92, 0.0778810
9671.93, 0.0745470
9690.01, 0.0713150
9708.16, 0.0678810
9726.37, 0.0642440
9744.65, 0.0610120
9763.0, 0.0584860
9781.43, 0.0564660
9799.92, 0.0551530
9818.48, 0.0547490
9837.1, 0.0542440
9855.8, 0.0537390
9874.58, 0.0535370
9893.42, 0.0536380
9912.34, 0.0530320
9931.33, 0.0519210
9950.39, 0.0509100
9969.52, 0.0497990
9988.74, 0.0484860
10008.0, 0.0474760
10027.4, 0.0464660
10046.8, 0.0450520
10066.3, 0.0441430
10085.9, 0.0434350
10105.6, 0.0424250
10125.3, 0.0417180
10145.1, 0.0410110
10165.0, 0.0402030
10185.0, 0.0391930
10205.0, 0.0387890
10225.2, 0.0382840
10245.4, 0.0371730
10265.7, 0.0354550
10286.0, 0.0342430
10306.5, 0.0332330
10327.0, 0.0320210
10347.6, 0.0305060
10368.3, 0.0287890
10389.1, 0.0275760
10409.9, 0.0264650
10430.9, 0.0254550
10451.9, 0.0242430
10473.0, 0.0229300
10494.2, 0.0221220
10515.5, 0.0217180
10536.9, 0.0210110
10558.4, 0.0200010
10579.9, 0.0196970
10601.5, 0.0199000
10623.3, 0.0194950
10645.1, 0.0190910
10667.0, 0.0195960
10689.0, 0.0195960
10711.1, 0.0195960
10733.2, 0.0201020
10755.5, 0.0204050
10777.9, 0.0208090
10800.3, 0.0215160
10822.9, 0.0226270
10845.5, 0.0243440
10868.2, 0.0265660
10891.1, 0.0290920
10914.0, 0.0314150
10937.0, 0.0337380
10960.2, 0.0350510
10983.4, 0.0356570
11006.7, 0.0360620
11030.1, 0.0356570
11053.6, 0.0351520
11077.3, 0.0350510
11101.0, 0.0345460
11124.8, 0.0340410
11148.7, 0.0336370
11172.7, 0.0335360
11196.9, 0.0330310
11221.1, 0.0325260
11245.4, 0.0320210
11269.9, 0.0318190
11294.4, 0.0320210
11319.1, 0.0319200
11343.9, 0.0314150
11368.8, 0.0312130
11393.7, 0.0314150
11418.8, 0.0311120
11444.0, 0.0308090
11469.4, 0.0308090
11494.8, 0.0304050
11520.3, 0.0302030
11546.0, 0.0302030
11571.8, 0.0302030
11597.7, 0.0295970
11623.7, 0.0289910
11649.8, 0.0290920
11676.0, 0.0292940
11702.4, 0.0290920
11728.9, 0.0287890
11755.5, 0.0281830
11782.2, 0.0278800
11809.0, 0.0281830
11836.0, 0.0280820
11863.0, 0.0278800
11890.3, 0.0274750
11917.6, 0.0272730
11945.0, 0.0270710
11972.6, 0.0260610
12000.4, 0.0254550
12028.2, 0.0253540
12056.2, 0.0248490
12084.3, 0.0244450
12112.5, 0.0241420
12140.9, 0.0230310
12169.4, 0.0221220
12198.0, 0.0216170
12226.8, 0.0212130
12255.7, 0.0207080
12284.7, 0.0197990
12313.9, 0.0184850
12343.2, 0.0177780
12372.7, 0.0173740
12402.3, 0.0163640
12432.0, 0.0160610
12461.9, 0.0163640
12491.9, 0.0159600
12522.1, 0.0154550
12552.4, 0.0154550
12582.9, 0.0153540
12613.5, 0.0150510
12644.3, 0.0148490
12675.2, 0.0152530
12706.3, 0.0153540
12737.5, 0.0151520
12768.9, 0.0150510
12800.4, 0.0140410
12832.1, 0.0134350
12863.9, 0.0134350
12895.9, 0.0131320
12928.1, 0.0127280
12960.4, 0.0125260
12992.9, 0.0121220
13025.5, 0.0114140
13058.3, 0.0107070
13091.3, 0.0106060
13124.4, 0.0102020
13157.8, 0.00989900
13191.2, 0.0104040
13224.9, 0.0109090
13258.7, 0.0106060
13292.7, 0.0104040
13326.9, 0.0106060
13361.2, 0.0110100
13395.7, 0.0107070
13430.4, 0.0105050
13465.3, 0.0104040
13500.4, 0.0102020
13535.7, 0.00989900
13571.1, 0.00979800
13606.7, 0.0101010
13642.5, 0.0102020
13678.5, 0.00979800
13714.7, 0.00919200
13751.1, 0.00798000
13787.6, 0.00747500
13824.4, 0.00727300
13861.4, 0.00707100
13898.5, 0.00676800
13935.9, 0.00606100
13973.5, 0.00535400
14011.2, 0.00505100
14049.2, 0.00495000
14087.4, 0.00535400
14125.8, 0.00606100
14164.3, 0.00686900
14203.2, 0.00737400
14242.2, 0.00828300
14281.4, 0.00959600
14320.9, 0.0103030
14360.5, 0.0110100
14400.4, 0.0118180
14440.5, 0.0128290
14480.9, 0.0136370
14521.4, 0.0140410
14562.2, 0.0146470
14603.3, 0.0159600
14644.5, 0.0176770
14686.0, 0.0181820
14727.7, 0.0178790
14769.7, 0.0181820
14811.9, 0.0186870
14854.3, 0.0175760
14897.0, 0.0167680
14939.9, 0.0166670
14983.1, 0.0158590
15026.5, 0.0151520
15070.2, 0.0146470
15114.2, 0.0135360
15158.3, 0.0130310
15202.8, 0.0133340
15247.5, 0.0135360
15292.5, 0.0134350
15337.7, 0.0133340
15383.2, 0.0128290
15429.0, 0.0122230
15475.1, 0.0124250
15521.4, 0.0131320
15568.0, 0.0139400
15614.9, 0.0142430
15662.1, 0.0141420
15709.6, 0.0149500
15757.3, 0.0162630
15805.4, 0.0171720
15853.7, 0.0176770
15902.3, 0.0182830
15951.2, 0.0197990
16000.5, 0.0227280
16050.0, 0.0251520
16099.8, 0.0272730
16150.0, 0.0292940
16200.5, 0.0323240
16251.3, 0.0352530
16302.4, 0.0386880
16353.8, 0.0414150
16405.5, 0.0444460
16457.6, 0.0466680
16510.0, 0.0467690
16562.8, 0.0474760
16615.9, 0.0491930
16669.3, 0.0501020
16723.1, 0.0505060
16777.2, 0.0515170
16831.7, 0.0533350
16886.5, 0.0546480
16941.7, 0.0556580
16997.2, 0.0568700
17053.1, 0.0583850
17109.4, 0.0602040
17166.1, 0.0618200
17223.1, 0.0626280
17280.5, 0.0630320
17338.3, 0.0635370
17396.5, 0.0653550
17455.1, 0.0666680
17514.0, 0.0679820
17573.4, 0.0698000
17633.2, 0.0703050
17693.4, 0.0704060
17754.0, 0.0720220
17815.0, 0.0726280
17876.4, 0.0723250
17938.3, 0.0723250
18000.5, 0.0738400
18063.3, 0.0754570
18126.4, 0.0751530
18190.0, 0.0751530
18254.1, 0.0762650
18318.6, 0.0762650
18383.5, 0.0764670
18449.0, 0.0768710
18514.9, 0.0761640
18581.2, 0.0762650
18648.0, 0.0764670
18715.4, 0.0746480
18783.2, 0.0716180
18851.5, 0.0700020
18920.3, 0.0691940
18989.6, 0.0666680
19059.4, 0.0640420
19129.7, 0.0617190
19200.6, 0.0601030
19272.0, 0.0577790
19343.9, 0.0544460
19416.3, 0.0524260
19489.3, 0.0504050
19562.8, 0.0474760
19637.0, 0.0451530
19711.6, 0.0439410
19786.8, 0.0414150
19862.6, 0.0405060
19939.0, 0.0396980
20016.0, 0.0371730
20093.6, 0.0347480
20171.8, 0.0318190
20250.6, 0.0308090
20330.0, 0.0316170
20410.0, 0.0342430
20490.7, 0.0386880
20572.0, 0.0420210
20654.0, 0.0460620
20736.6, 0.0547490
20819.9, 0.0631330
20903.8, 0.0694970
20988.5, 0.0759620
21073.8, 0.0812140
21159.8, 0.0841440
21246.5, 0.0860630
21334.0, 0.0839420
21422.1, 0.0796990
21511.0, 0.0770730
21600.7, 0.0748500
21691.0, 0.0710410
21782.1, 0.0676360
21874.0, 0.0627520
21966.7, 0.0583860
22060.2, 0.0552040
22154.5, 0.0530580
22249.6, 0.0506160
22345.5, 0.0481000
22442.2, 0.0478780
22539.8, 0.0492100
22638.2, 0.0509860
22737.5, 0.0521700
22837.7, 0.0532060
22938.7, 0.0550560
23040.7, 0.0569060
23143.5, 0.0579420
23247.3, 0.0581640
23352.1, 0.0581640
23457.7, 0.0583860
23564.4, 0.0585340
23672.0, 0.0586080
23780.5, 0.0600140
23890.1, 0.0608280
24000.7, 0.0592740
24112.3, 0.0579420
24225.0, 0.0577940
24338.7, 0.0577200
24453.5, 0.0571280
24569.4, 0.0565360
24686.4, 0.0565360
24804.5, 0.0560180
24923.8, 0.0542420
25044.2, 0.0524660
25165.8, 0.0509120
25288.6, 0.0492100
25412.5, 0.0476560
25537.7, 0.0461760
25664.1, 0.0455100
25791.8, 0.0449180
25920.8, 0.0442520
26051.1, 0.0429940
26182.6, 0.0423280
26315.5, 0.0421060
26449.8, 0.0415140
26585.4, 0.0409220
26722.5, 0.0404780
26860.9, 0.0404040
27000.8, 0.0408480
27142.1, 0.0409960
27285.0, 0.0407740
27429.4, 0.0404780
27575.3, 0.0406260
27722.7, 0.0412920
27871.8, 0.0413660
28022.4, 0.0412920
28174.7, 0.0432900
28328.7, 0.0475820
28484.4, 0.0531320
28641.7, 0.0568320
28800.9, 0.0577940
28961.8, 0.0588300
29124.5, 0.0596440
29289.0, 0.0595700
29455.4, 0.0586820
29623.8, 0.0577200
29794.0, 0.0574240
29966.3, 0.0573500
30140.5, 0.0567580
30316.7, 0.0571280
30495.1, 0.0582380
30675.5, 0.0580160
30858.1, 0.0580160
31042.8, 0.0568320
31229.8, 0.0554260
31419.1, 0.0549080
31610.7, 0.0546120
31804.6, 0.0533540
32000.9, 0.0515780
32199.7, 0.0505420
32400.9, 0.0495800
32604.8, 0.0483960
32811.1, 0.0483960
33020.1, 0.0499500
33231.8, 0.0477300
33446.2, 0.0459540
33663.4, 0.0457320
33883.4, 0.0449180
34106.3, 0.0436600
34332.1, 0.0428460
34561.0, 0.0425500
34792.9, 0.0415880
35028.0, 0.0420320
35266.3, 0.0452880
35507.8, 0.0500980
35752.7, 0.0543160
36001.0, 0.0567580
36252.8, 0.0581640
36508.1, 0.0594960
36767.0, 0.0604580
37029.7, 0.0611980
37296.1, 0.0612720
37566.3, 0.0617160
37840.5, 0.0599400
38118.8, 0.0577200
38401.2, 0.0570540
38687.8, 0.0571280
38978.6, 0.0569800
39273.9, 0.0572020
39573.7, 0.0563880
39878.1, 0.0557220
40187.3, 0.0557960
40501.2, 0.0555740
40820.0, 0.0541680
41144.0, 0.0525400
41473.2, 0.0523180
41807.6, 0.0520220
42147.5, 0.0508380
42493.0, 0.0505420
42844.2, 0.0512080
43201.2, 0.0525400
43564.3, 0.0542420
43933.5, 0.0565360
44309.0, 0.0546120
44691.0, 0.0520960
45079.6, 0.0516520
45475.0, 0.0512080
45877.5, 0.0499500
46287.1, 0.0492100
46704.2, 0.0496540
47128.7, 0.0498760
47561.1, 0.0508380
48001.5, 0.0519480
48450.1, 0.0473600
48907.2, 0.0457320
49373.0, 0.0481740
49847.7, 0.0473600
50331.5, 0.0480260
50825.0, 0.0486180
51328.2, 0.0498020
51841.5, 0.0505420
52365.1, 0.0499500
52899.4, 0.0520220
53444.8, 0.0526880
54001.5, 0.0521700
54570.1, 0.0517260
55150.6, 0.0509860
55743.6, 0.0534280
56349.5, 0.0567580
56968.7, 0.0555000
57601.7, 0.0530580
58248.9, 0.0529840
58910.9, 0.0528360
59588.1, 0.0503200
60281.0, 0.0502460
60990.2, 0.0519480
61716.3, 0.0533540
62459.8, 0.0539460
63221.6, 0.0540940
64002.1, 0.0560920
64802.1, 0.0565360
65622.1, 0.0583860
66463.4, 0.0609020
67326.6, 0.0573500
68212.4, 0.0543900
69121.9, 0.0544640
70056.0, 0.0560180
71015.7, 0.0571280
72002.0, 0.0582380
73016.3, 0.0552040
74059.4, 0.0535760
75132.7, 0.0560180
76237.6, 0.0539460
77375.5, 0.0530580
78547.9, 0.0540940
79756.3, 0.0535760
81002.5, 0.0554260
82288.5, 0.0607540
83615.7, 0.0626780
84986.5, 0.0601620
86402.9, 0.0581640
87867.4, 0.0594960
89382.4, 0.0600880
90950.5, 0.0566840
92574.6, 0.0581640
94257.2, 0.0683020
96002.7, 0.0725950
97814.1, 0.0765910
99695.1, 0.0833250
101650.0, 0.0827330
103683.0, 0.0780710
105799.0, 0.0728910
108003.0, 0.0777750
110301.0, 0.0873950
112699.0, 0.0900590
115204.0, 0.0903550
117822.0, 0.0863590
120562.0, 0.0852490
123433.0, 0.0900590
126443.0, 0.0958310
129604.0, 0.0941290
132926.0, 0.0995310
136424.0, 0.107745
140111.0, 0.104267
144003.0, 0.105969
148118.0, 0.104341
152474.0, 0.114183
157095.0, 0.144079
162004.0, 0.134681
167231.0, 0.113961
172805.0, 0.126393
178764.0, 0.158953
185148.0, 0.202391
192005.0, 0.214898
199390.0, 0.214380
207366.0, 0.228884
216006.0, 0.163319
