Database of Origin,USGS Spectral Database
Sample Description,See USGS database for additional info
Date Added,2017-02-22 02:48:43.014977

Data ID,USGS_ura01          
Sample ID,uralite_hs345.23325
Mineral Name,uralite

Wavelength
221.1, 0.0549960
229.1, 0.0602690
236.1, 0.0620060
242.1, 0.0619700
248.1, 0.0592450
253.6, 0.0591050
258.6, 0.0600030
263.6, 0.0597890
268.6, 0.0602050
273.1, 0.0615450
277.1, 0.0624560
281.1, 0.0643420
285.1, 0.0654590
289.1, 0.0663660
293.1, 0.0718810
297.1, 0.0749270
301.1, 0.0777990
305.1, 0.0839790
309.1, 0.0891840
313.1, 0.0938740
317.1, 0.0991700
321.1, 0.105938
325.1, 0.112618
329.1, 0.119539
333.1, 0.126806
337.1, 0.133956
341.1, 0.141504
345.1, 0.148980
349.1, 0.153498
353.1, 0.163270
357.1, 0.169610
360.6, 0.175062
363.6, 0.180774
366.6, 0.184286
369.6, 0.188302
372.6, 0.193824
375.6, 0.196497
378.6, 0.200333
381.1, 0.203916
383.1, 0.206571
385.1, 0.209988
387.1, 0.211670
389.1, 0.214249
391.1, 0.219968
393.1, 0.220007
395.1, 0.220432
397.1, 0.225237
399.1, 0.224285
401.1, 0.229624
403.1, 0.230423
405.1, 0.232381
407.1, 0.233911
409.1, 0.237022
411.1, 0.237159
412.8, 0.240390
415.8, 0.244879
418.8, 0.247543
421.8, 0.251975
424.8, 0.254092
427.8, 0.258270
430.8, 0.262725
433.8, 0.266346
436.8, 0.270941
439.8, 0.271018
442.8, 0.269469
445.8, 0.271418
448.8, 0.273472
451.3, 0.276257
453.3, 0.277380
455.3, 0.279054
457.3, 0.282473
459.3, 0.282448
461.3, 0.288824
463.3, 0.290598
465.3, 0.291871
467.3, 0.292051
469.3, 0.296475
471.3, 0.299284
473.3, 0.302936
475.3, 0.302936
477.3, 0.305611
479.3, 0.310834
481.3, 0.312227
483.3, 0.315124
485.3, 0.315785
487.3, 0.317128
489.3, 0.319656
491.3, 0.322213
493.3, 0.323408
495.3, 0.323861
497.3, 0.324430
499.3, 0.330255
501.3, 0.333004
503.3, 0.334546
505.3, 0.335378
507.3, 0.338858
509.3, 0.337565
511.3, 0.341006
513.3, 0.339757
515.3, 0.341627
517.3, 0.343255
519.3, 0.345031
521.3, 0.345344
523.3, 0.348128
525.3, 0.349895
527.3, 0.347317
529.3, 0.349719
531.3, 0.350178
533.3, 0.349373
535.3, 0.353891
537.3, 0.354833
539.3, 0.354749
541.3, 0.350978
543.3, 0.354960
545.3, 0.355419
547.3, 0.356053
549.3, 0.356794
551.3, 0.356830
553.3, 0.355834
555.3, 0.351906
557.3, 0.354445
559.3, 0.356711
561.3, 0.355497
563.3, 0.354717
565.3, 0.353670
567.3, 0.355575
569.3, 0.353013
571.3, 0.352320
573.3, 0.354029
575.3, 0.353814
577.3, 0.353045
579.3, 0.352223
581.3, 0.350482
583.3, 0.350433
585.3, 0.347282
587.3, 0.349471
589.3, 0.344765
591.3, 0.349307
593.3, 0.346279
595.3, 0.345924
597.3, 0.344337
599.3, 0.342714
601.1, 0.340489
602.7, 0.339421
604.3, 0.341739
605.9, 0.340562
607.5, 0.339303
609.1, 0.337078
610.7, 0.337914
612.3, 0.337197
613.9, 0.334581
615.5, 0.334255
617.1, 0.333783
618.7, 0.332925
620.3, 0.334134
621.9, 0.332634
623.5, 0.333659
625.1, 0.325002
626.7, 0.328852
628.3, 0.329123
629.9, 0.325881
631.7, 0.327286
633.7, 0.325459
635.7, 0.325414
637.7, 0.324731
639.7, 0.321817
641.7, 0.323034
643.7, 0.320076
645.7, 0.321077
647.7, 0.319632
649.7, 0.318569
651.7, 0.316832
653.7, 0.314908
655.7, 0.315088
657.7, 0.315424
659.7, 0.316093
661.7, 0.313261
663.7, 0.313923
665.7, 0.312126
667.7, 0.311133
670.2, 0.309337
673.2, 0.311239
676.2, 0.310574
679.2, 0.309331
682.2, 0.307900
685.2, 0.304982
688.2, 0.304311
691.2, 0.304049
694.2, 0.304522
697.2, 0.303949
700.2, 0.303373
702.0, 0.300123
704.0, 0.300466
706.0, 0.301959
708.0, 0.302351
710.0, 0.299881
712.0, 0.300517
714.0, 0.299074
716.0, 0.299144
718.0, 0.300332
720.0, 0.298521
722.0, 0.297890
724.0, 0.297396
726.0, 0.298019
728.0, 0.296766
730.0, 0.296221
732.0, 0.299824
734.0, 0.298736
736.0, 0.298200
738.0, 0.295275
740.0, 0.297946
742.0, 0.296581
744.0, 0.296639
746.0, 0.297116
748.0, 0.296802
750.5, 0.296257
753.5, 0.297228
756.5, 0.298312
759.5, 0.297795
762.5, 0.297753
765.5, 0.299631
768.5, 0.299149
771.5, 0.300667
774.5, 0.299375
777.5, 0.302598
781.0, 0.300720
785.0, 0.301599
789.0, 0.302385
793.0, 0.302230
797.0, 0.305381
801.5, 0.305430
806.5, 0.306173
811.5, 0.306487
816.5, 0.305869
822.0, 0.307803
828.0, 0.307049
835.0, 0.303058
851.0, 0.305645
859.0, 0.305804
871.0, 0.295861
883.0, 0.295390
894.0, 0.290180
904.0, 0.283163
914.0, 0.282821
924.0, 0.275691
933.0, 0.275748
941.0, 0.272986
949.0, 0.274508
957.0, 0.271136
964.0, 0.272351
970.0, 0.270732
976.0, 0.270208
982.0, 0.269157
988.0, 0.271211
994.0, 0.271744
1000.0, 0.272184
1006.0, 0.270692
1012.0, 0.270593
1018.0, 0.270815
1023.5, 0.272214
1028.5, 0.268415
1033.5, 0.267481
1038.5, 0.268154
1043.5, 0.269906
1048.5, 0.269203
1053.5, 0.267891
1058.5, 0.267577
1063.5, 0.268835
1068.5, 0.270073
1073.5, 0.267760
1078.5, 0.272547
1083.5, 0.274345
1088.5, 0.274090
1093.5, 0.275575
1098.5, 0.277023
1103.5, 0.279911
1108.5, 0.281091
1113.5, 0.284160
1118.5, 0.284702
1123.5, 0.285964
1128.5, 0.286411
1133.5, 0.289166
1138.5, 0.289034
1143.5, 0.289342
1148.5, 0.294704
1153.5, 0.297106
1158.5, 0.297000
1163.5, 0.302092
1168.5, 0.302500
1173.5, 0.304124
1178.5, 0.305720
1183.5, 0.306673
1188.5, 0.314174
1193.5, 0.314191
1198.5, 0.318215
1203.5, 0.321512
1208.5, 0.324655
1213.5, 0.328527
1218.5, 0.330771
1223.5, 0.335130
1228.5, 0.339046
1233.5, 0.341924
1238.5, 0.346747
1243.5, 0.350637
1248.5, 0.354024
1253.5, 0.357116
1258.5, 0.362203
1263.5, 0.367432
1268.5, 0.371195
1273.5, 0.376914
1278.5, 0.380400
1283.5, 0.383868
1288.5, 0.388631
1293.5, 0.392957
1298.5, 0.396491
1303.5, 0.401156
1308.5, 0.407498
1313.5, 0.411436
1318.5, 0.413546
1323.5, 0.411961
1328.5, 0.422011
1333.5, 0.428480
1338.5, 0.431362
1343.5, 0.433113
1348.5, 0.439562
1353.5, 0.442606
1358.5, 0.446670
1363.5, 0.449007
1368.5, 0.452882
1373.5, 0.458175
1378.5, 0.458262
1383.5, 0.461820
1388.5, 0.460831
1393.5, 0.414182
1398.5, 0.417356
1403.5, 0.447340
1408.5, 0.460832
1413.5, 0.465831
1418.5, 0.475610
1423.5, 0.477778
1428.5, 0.484752
1433.5, 0.486101
1438.5, 0.488572
1443.5, 0.494341
1448.5, 0.496480
1453.5, 0.499162
1458.5, 0.502305
1463.5, 0.509027
1468.5, 0.508184
1473.5, 0.512358
1478.5, 0.513260
1483.5, 0.519999
1488.5, 0.523066
1493.5, 0.524411
1498.5, 0.524275
1503.5, 0.528156
1508.5, 0.527217
1513.5, 0.533554
1518.5, 0.533833
1523.5, 0.538898
1528.5, 0.537694
1534.0, 0.544627
1540.0, 0.545726
1546.0, 0.546139
1552.0, 0.551053
1558.0, 0.555481
1564.0, 0.558520
1570.5, 0.559051
1577.5, 0.563317
1584.5, 0.565139
1591.5, 0.568910
1598.5, 0.572359
1605.5, 0.571832
1612.5, 0.573697
1619.5, 0.577589
1626.5, 0.582419
1633.5, 0.582408
1640.5, 0.585212
1647.5, 0.589195
1654.5, 0.588156
1661.5, 0.592053
1668.5, 0.597019
1676.0, 0.598867
1684.0, 0.597973
1692.0, 0.600404
1700.0, 0.603484
1708.0, 0.609115
1716.0, 0.608847
1724.0, 0.612140
1732.0, 0.612826
1740.0, 0.617427
1748.0, 0.620359
1756.0, 0.620145
1764.0, 0.623766
1772.0, 0.625732
1780.0, 0.623694
1788.0, 0.626684
1796.0, 0.630772
1805.0, 0.631310
1815.0, 0.630175
1825.0, 0.631694
1835.0, 0.631800
1845.0, 0.632409
1855.0, 0.635298
1865.0, 0.630852
1875.0, 0.628867
1885.0, 0.621718
1895.0, 0.593636
1905.0, 0.558497
1915.0, 0.552392
1925.0, 0.567101
1935.0, 0.576120
1945.0, 0.591781
1955.0, 0.595772
1965.0, 0.599934
1975.0, 0.605368
1985.0, 0.609583
1995.0, 0.614045
2005.0, 0.616085
2015.0, 0.627816
2025.0, 0.623618
2035.0, 0.636994
2045.0, 0.636007
2055.0, 0.635563
2065.0, 0.636279
2075.0, 0.639406
2085.0, 0.638680
2095.0, 0.639823
2105.0, 0.633187
2115.0, 0.631097
2125.0, 0.630317
2135.0, 0.631633
2145.0, 0.637630
2155.0, 0.635270
2165.0, 0.635445
2175.0, 0.638036
2185.0, 0.633128
2195.0, 0.634255
2205.0, 0.627486
2215.0, 0.625321
2225.0, 0.629024
2235.0, 0.616180
2245.0, 0.603659
2255.0, 0.600396
2265.0, 0.591451
2275.0, 0.558371
2285.0, 0.545357
2295.0, 0.457453
2305.0, 0.446314
2315.0, 0.436259
2325.0, 0.465542
2335.0, 0.519447
2345.0, 0.549347
2355.0, 0.561880
2365.0, 0.550595
2375.0, 0.524616
2386.0, 0.483401
2400.0, 0.505901
2418.0, 0.543156
2440.0, 0.544359
2466.0, 0.523678
2496.0, 0.514577
2528.0, 0.504294
2560.0, 0.516476
2592.0, 0.536900
2624.0, 0.538050
2656.0, 0.526766
2688.0, 0.449878
2720.0, 0.229530
2752.0, 0.113192
2784.0, 0.103829
2816.0, 0.104454
2848.0, 0.124204
2880.0, 0.127783
2912.0, 0.106566
2944.0, 0.118495
2976.0, 0.109134
