Database of Origin, USGS Spectral Database
Sample Description, See USGS database for additional info
Date Added,2016-08-03 20:53:06.230074

Data ID,USGS_alm10          
Sample ID, almandine_ws478.867
Mineral Name, almandine
Material Class,Nesosilicate

Wavelength
1394.34, 0.325026
1394.71, 0.325749
1395.09, 0.326231
1395.46, 0.326291
1395.84, 0.326532
1396.22, 0.326833
1396.59, 0.326472
1396.97, 0.326652
1397.35, 0.327074
1397.72, 0.326713
1398.1, 0.327074
1398.48, 0.327556
1398.85, 0.327616
1399.23, 0.327977
1399.61, 0.327857
1399.99, 0.328278
1400.37, 0.328760
1400.74, 0.328519
1401.12, 0.328339
1401.5, 0.327977
1401.88, 0.327857
1402.26, 0.328218
1402.64, 0.328941
1403.02, 0.329362
1403.4, 0.329182
1403.78, 0.328881
1404.16, 0.328941
1404.54, 0.329663
1404.92, 0.329724
1405.3, 0.329784
1405.68, 0.330507
1406.06, 0.330326
1406.44, 0.330025
1406.83, 0.330085
1407.21, 0.330507
1407.59, 0.330567
1407.97, 0.330507
1408.35, 0.330507
1408.74, 0.331049
1409.12, 0.331109
1409.5, 0.330808
1409.89, 0.330988
1410.27, 0.331530
1410.65, 0.331591
1411.04, 0.331350
1411.42, 0.331470
1411.81, 0.331771
1412.19, 0.331832
1412.58, 0.331530
1412.96, 0.331169
1413.35, 0.331169
1413.73, 0.331711
1414.12, 0.332374
1414.5, 0.332614
1414.89, 0.332735
1415.28, 0.332916
1415.66, 0.333156
1416.05, 0.333217
1416.44, 0.333156
1416.82, 0.333096
1417.21, 0.333337
1417.6, 0.333096
1417.98, 0.333036
1418.37, 0.333337
1418.76, 0.333638
1419.15, 0.333698
1419.54, 0.333939
1419.93, 0.334301
1420.32, 0.334542
1420.71, 0.334602
1421.09, 0.334421
1421.48, 0.334602
1421.88, 0.335144
1422.27, 0.335385
1422.66, 0.335023
1423.05, 0.335144
1423.44, 0.335505
1423.83, 0.335385
1424.22, 0.335324
1424.61, 0.335746
1425.0, 0.336168
1425.39, 0.336589
1425.78, 0.336469
1426.18, 0.336529
1426.57, 0.336469
1426.96, 0.336469
1427.36, 0.336830
1427.75, 0.337312
1428.14, 0.337372
1428.54, 0.337372
1428.93, 0.337191
1429.32, 0.337252
1429.72, 0.337613
1430.11, 0.337613
1430.51, 0.337673
1430.9, 0.337673
1431.3, 0.337733
1431.69, 0.338035
1432.09, 0.338336
1432.48, 0.338155
1432.88, 0.337974
1433.28, 0.338577
1433.67, 0.338938
1434.07, 0.339058
1434.46, 0.339119
1434.86, 0.339420
1435.26, 0.339661
1435.66, 0.339600
1436.05, 0.339781
1436.45, 0.340142
1436.85, 0.340022
1437.25, 0.340142
1437.65, 0.340504
1438.05, 0.340684
1438.44, 0.340684
1438.84, 0.341046
1439.24, 0.341226
1439.64, 0.341046
1440.04, 0.341347
1440.44, 0.341588
1440.84, 0.341708
1441.24, 0.341768
1441.65, 0.341708
1442.05, 0.341949
1442.45, 0.342250
1442.85, 0.342190
1443.25, 0.342310
1443.65, 0.342431
1444.05, 0.342852
1444.46, 0.343093
1444.86, 0.343334
1445.26, 0.343515
1445.67, 0.343635
1446.07, 0.343455
1446.47, 0.343334
1446.88, 0.343635
1447.28, 0.343876
1447.68, 0.343997
1448.09, 0.344358
1448.49, 0.344478
1448.9, 0.344478
1449.3, 0.344478
1449.71, 0.344659
1450.11, 0.344599
1450.52, 0.344900
1450.93, 0.345141
1451.33, 0.345020
1451.74, 0.344840
1452.14, 0.345201
1452.55, 0.345623
1452.96, 0.346044
1453.36, 0.346165
1453.77, 0.346225
1454.18, 0.346165
1454.59, 0.346406
1455.0, 0.346526
1455.41, 0.346586
1455.81, 0.346707
1456.22, 0.346827
1456.63, 0.346827
1457.04, 0.347128
1457.45, 0.347189
1457.86, 0.346767
1458.27, 0.347068
1458.68, 0.347670
1459.09, 0.347911
1459.5, 0.347791
1459.91, 0.347610
1460.32, 0.347550
1460.74, 0.347911
1461.15, 0.348092
1461.56, 0.347911
1461.97, 0.348273
1462.39, 0.348754
1462.8, 0.348453
1463.21, 0.348273
1463.62, 0.348453
1464.04, 0.348574
1464.45, 0.348754
1464.86, 0.348815
1465.28, 0.348935
1465.69, 0.349055
1466.11, 0.349055
1466.52, 0.349055
1466.94, 0.349176
1467.35, 0.348995
1467.77, 0.348935
1468.18, 0.349236
1468.6, 0.349778
1469.02, 0.349899
1469.43, 0.349778
1469.85, 0.350019
1470.27, 0.350501
1470.68, 0.350681
1471.1, 0.350441
1471.52, 0.350441
1471.94, 0.350561
1472.35, 0.350561
1472.77, 0.351103
1473.19, 0.351223
1473.61, 0.351043
1474.03, 0.351223
1474.45, 0.351404
1474.87, 0.351344
1475.29, 0.351344
1475.71, 0.351404
1476.13, 0.351404
1476.55, 0.351645
1476.97, 0.351946
1477.39, 0.352067
1477.81, 0.352247
1478.23, 0.352187
1478.65, 0.352428
1479.07, 0.352609
1479.5, 0.352548
1479.92, 0.352428
1480.34, 0.352669
1480.76, 0.352609
1481.19, 0.353030
1481.61, 0.353331
1482.03, 0.353632
1482.46, 0.353632
1482.88, 0.353572
1483.31, 0.353512
1483.73, 0.353632
1484.16, 0.353753
1484.58, 0.354174
1485.01, 0.354235
1485.43, 0.354114
1485.86, 0.354295
1486.28, 0.354476
1486.71, 0.354476
1487.14, 0.354656
1487.56, 0.354897
1487.99, 0.354837
1488.42, 0.355258
1488.84, 0.355258
1489.27, 0.355258
1489.7, 0.355078
1490.13, 0.355078
1490.56, 0.355198
1490.98, 0.355680
1491.41, 0.355861
1491.84, 0.355981
1492.27, 0.355861
1492.7, 0.355981
1493.13, 0.356162
1493.56, 0.356282
1493.99, 0.356102
1494.42, 0.356162
1494.85, 0.356343
1495.29, 0.356704
1495.72, 0.357005
1496.15, 0.356704
1496.58, 0.356644
1497.01, 0.356824
1497.44, 0.357186
1497.88, 0.357547
1498.31, 0.357848
1498.74, 0.357969
1499.18, 0.357969
1499.61, 0.357667
1500.04, 0.357547
1500.48, 0.357607
1500.91, 0.357788
1501.35, 0.357908
1501.78, 0.358209
1502.22, 0.358390
1502.65, 0.358450
1503.09, 0.358209
1503.53, 0.358270
1503.96, 0.358631
1504.4, 0.358571
1504.83, 0.358330
1505.27, 0.358631
1505.71, 0.358992
1506.15, 0.359173
1506.58, 0.359233
1507.02, 0.359293
1507.46, 0.359233
1507.9, 0.359113
1508.34, 0.358992
1508.78, 0.359293
1509.21, 0.359293
1509.66, 0.359293
1510.09, 0.359414
1510.53, 0.359595
1510.97, 0.359414
1511.42, 0.359354
1511.86, 0.359655
1512.3, 0.359715
1512.74, 0.359775
1513.18, 0.359775
1513.62, 0.359595
1514.06, 0.359956
1514.51, 0.360016
1514.95, 0.359956
1515.39, 0.360076
1515.83, 0.360558
1516.28, 0.360558
1516.72, 0.360438
1517.16, 0.360317
1517.61, 0.360498
1518.05, 0.360558
1518.5, 0.360498
1518.94, 0.360739
1519.39, 0.361100
1519.83, 0.361100
1520.28, 0.360859
1520.73, 0.360558
1521.17, 0.360438
1521.62, 0.360558
1522.07, 0.360618
1522.51, 0.360438
1522.96, 0.360498
1523.41, 0.360618
1523.85, 0.360498
1524.3, 0.360618
1524.75, 0.361040
1525.2, 0.360859
1525.65, 0.360980
1526.1, 0.361341
1526.55, 0.361160
1527.0, 0.361221
1527.45, 0.361221
1527.9, 0.361100
1528.35, 0.360980
1528.8, 0.361040
1529.25, 0.361040
1529.7, 0.361221
1530.15, 0.361341
1530.6, 0.361221
1531.05, 0.361100
1531.51, 0.361281
1531.96, 0.361341
1532.41, 0.361341
1532.87, 0.361461
1533.32, 0.361522
1533.77, 0.361582
1534.23, 0.361582
1534.68, 0.361763
1535.14, 0.361522
1535.59, 0.361522
1536.05, 0.361642
1536.5, 0.361702
1536.96, 0.361642
1537.41, 0.361823
1537.87, 0.362004
1538.32, 0.361943
1538.78, 0.361763
1539.24, 0.362004
1539.7, 0.362064
1540.15, 0.361823
1540.61, 0.361943
1541.07, 0.361883
1541.53, 0.361883
1541.98, 0.362184
1542.44, 0.362425
1542.9, 0.362184
1543.36, 0.362184
1543.82, 0.362425
1544.28, 0.362485
1544.74, 0.362485
1545.2, 0.362365
1545.66, 0.362726
1546.12, 0.362546
1546.59, 0.362365
1547.05, 0.362485
1547.51, 0.362666
1547.97, 0.362726
1548.43, 0.362786
1548.9, 0.362726
1549.36, 0.362606
1549.82, 0.362546
1550.29, 0.362786
1550.75, 0.362726
1551.21, 0.362606
1551.68, 0.362546
1552.14, 0.362606
1552.61, 0.362726
1553.07, 0.363088
1553.54, 0.363268
1554.0, 0.363027
1554.47, 0.362666
1554.93, 0.362786
1555.4, 0.363088
1555.87, 0.363328
1556.34, 0.363208
1556.8, 0.363088
1557.27, 0.363148
1557.74, 0.363328
1558.21, 0.363268
1558.68, 0.363208
1559.14, 0.363449
1559.61, 0.363569
1560.08, 0.363630
1560.55, 0.363690
1561.02, 0.363389
1561.49, 0.363208
1561.96, 0.363268
1562.43, 0.363268
1562.9, 0.363268
1563.38, 0.363208
1563.85, 0.363389
1564.32, 0.363569
1564.79, 0.363569
1565.26, 0.363449
1565.74, 0.363630
1566.21, 0.363569
1566.68, 0.363208
1567.16, 0.363389
1567.63, 0.363870
1568.1, 0.363810
1568.58, 0.363328
1569.05, 0.363449
1569.53, 0.363750
1570.0, 0.363750
1570.48, 0.363750
1570.96, 0.363569
1571.43, 0.363328
1571.91, 0.363328
1572.39, 0.363449
1572.86, 0.363449
1573.34, 0.363268
1573.82, 0.363328
1574.3, 0.363569
1574.77, 0.363750
1575.25, 0.363569
1575.73, 0.363449
1576.21, 0.363690
1576.69, 0.363870
1577.17, 0.363509
1577.65, 0.363328
1578.13, 0.363449
1578.61, 0.363509
1579.09, 0.363449
1579.57, 0.363449
1580.05, 0.363449
1580.54, 0.363569
1581.02, 0.363389
1581.5, 0.363449
1581.98, 0.363449
1582.47, 0.363389
1582.95, 0.363389
1583.43, 0.363208
1583.92, 0.363088
1584.4, 0.363148
1584.88, 0.363148
1585.37, 0.363148
1585.85, 0.363088
1586.34, 0.362967
1586.82, 0.362786
1587.31, 0.362967
1587.8, 0.363208
1588.28, 0.363389
1588.77, 0.363208
1589.26, 0.363088
1589.74, 0.362967
1590.23, 0.362907
1590.72, 0.362726
1591.21, 0.362847
1591.7, 0.362847
1592.19, 0.362847
1592.67, 0.362907
1593.16, 0.362847
1593.65, 0.362666
1594.14, 0.362967
1594.63, 0.363268
1595.12, 0.363208
1595.61, 0.362847
1596.11, 0.362786
1596.6, 0.362907
1597.09, 0.362847
1597.58, 0.362786
1598.08, 0.362907
1598.57, 0.362847
1599.06, 0.362847
1599.55, 0.362967
1600.05, 0.362907
1600.54, 0.362907
1601.04, 0.363148
1601.53, 0.363027
1602.03, 0.362726
1602.52, 0.362425
1603.02, 0.362726
1603.51, 0.362786
1604.01, 0.362726
1604.5, 0.362606
1605.0, 0.362726
1605.5, 0.362847
1606.0, 0.362786
1606.49, 0.362907
1606.99, 0.362847
1607.49, 0.362606
1607.99, 0.362847
1608.49, 0.362907
1608.99, 0.362967
1609.49, 0.362847
1609.99, 0.362726
1610.49, 0.362606
1610.99, 0.362847
1611.49, 0.363148
1611.99, 0.363027
1612.49, 0.362786
1612.99, 0.362847
1613.49, 0.362967
1614.0, 0.362907
1614.5, 0.362726
1615.0, 0.362666
1615.51, 0.362786
1616.01, 0.362847
1616.51, 0.362726
1617.02, 0.362907
1617.52, 0.363148
1618.03, 0.363268
1618.53, 0.363027
1619.04, 0.362907
1619.54, 0.362786
1620.05, 0.362847
1620.55, 0.362847
1621.06, 0.362907
1621.57, 0.362967
1622.08, 0.362967
1622.58, 0.362847
1623.09, 0.363027
1623.6, 0.363208
1624.11, 0.363268
1624.62, 0.363088
1625.13, 0.363148
1625.64, 0.362907
1626.15, 0.362907
1626.66, 0.363268
1627.17, 0.363328
1627.68, 0.362907
1628.19, 0.362786
1628.7, 0.362847
1629.21, 0.362847
1629.72, 0.362907
1630.24, 0.363027
1630.75, 0.363268
1631.26, 0.363449
1631.78, 0.363268
1632.29, 0.362847
1632.8, 0.363027
1633.32, 0.363208
1633.83, 0.362786
1634.35, 0.362967
1634.86, 0.363088
1635.38, 0.363088
1635.9, 0.362907
1636.41, 0.362847
1636.93, 0.362967
1637.45, 0.363027
1637.96, 0.362847
1638.48, 0.363027
1639.0, 0.363027
1639.52, 0.362847
1640.04, 0.362786
1640.56, 0.362967
1641.08, 0.363148
1641.59, 0.363148
1642.11, 0.363148
1642.63, 0.363088
1643.16, 0.363208
1643.68, 0.363268
1644.2, 0.363208
1644.72, 0.363088
1645.24, 0.363027
1645.76, 0.362967
1646.29, 0.362907
1646.81, 0.362786
1647.33, 0.362726
1647.86, 0.363088
1648.38, 0.363208
1648.9, 0.363328
1649.43, 0.363148
1649.95, 0.362786
1650.48, 0.362786
1651.0, 0.362666
1651.53, 0.362546
1652.06, 0.362485
1652.58, 0.362786
1653.11, 0.362907
1653.64, 0.363027
1654.17, 0.363027
1654.69, 0.363148
1655.22, 0.362907
1655.75, 0.362847
1656.28, 0.362847
1656.81, 0.362666
1657.34, 0.362546
1657.87, 0.362485
1658.4, 0.362907
1658.93, 0.363027
1659.46, 0.362847
1659.99, 0.362786
1660.52, 0.363088
1661.05, 0.363208
1661.59, 0.362786
1662.12, 0.362666
1662.65, 0.362786
1663.19, 0.362726
1663.72, 0.362606
1664.26, 0.362666
1664.79, 0.362666
1665.32, 0.362726
1665.86, 0.362786
1666.39, 0.363148
1666.93, 0.363328
1667.47, 0.363268
1668.0, 0.363148
1668.54, 0.363208
1669.08, 0.363088
1669.61, 0.362907
1670.15, 0.362907
1670.69, 0.362847
1671.23, 0.362967
1671.77, 0.363268
1672.31, 0.363389
1672.85, 0.363208
1673.39, 0.363268
1673.93, 0.363328
1674.47, 0.363449
1675.01, 0.363389
1675.55, 0.363389
1676.09, 0.363449
1676.64, 0.363449
1677.18, 0.363449
1677.72, 0.363389
1678.26, 0.363449
1678.81, 0.363569
1679.35, 0.363750
1679.89, 0.363810
1680.44, 0.363991
1680.98, 0.363931
1681.53, 0.363870
1682.07, 0.363931
1682.62, 0.363870
1683.17, 0.363931
1683.71, 0.363991
1684.26, 0.363991
1684.81, 0.364352
1685.36, 0.364292
1685.9, 0.364172
1686.45, 0.364352
1687.0, 0.364232
1687.55, 0.364051
1688.1, 0.364232
1688.65, 0.364533
1689.2, 0.364834
1689.75, 0.364774
1690.3, 0.364533
1690.85, 0.364653
1691.41, 0.364894
1691.96, 0.364954
1692.51, 0.364894
1693.06, 0.364774
1693.61, 0.364714
1694.17, 0.364774
1694.72, 0.365015
1695.28, 0.364894
1695.83, 0.365015
1696.39, 0.364954
1696.94, 0.364894
1697.5, 0.365135
1698.05, 0.364954
1698.61, 0.365015
1699.17, 0.365376
1699.72, 0.365677
1700.28, 0.365557
1700.84, 0.365496
1701.4, 0.365376
1701.95, 0.365376
1702.51, 0.365617
1703.07, 0.365858
1703.63, 0.365858
1704.19, 0.365677
1704.75, 0.365737
1705.31, 0.365858
1705.88, 0.366039
1706.44, 0.366159
1707.0, 0.366159
1707.56, 0.365858
1708.12, 0.365918
1708.69, 0.366340
1709.25, 0.366340
1709.81, 0.366159
1710.38, 0.366219
1710.94, 0.366460
1711.51, 0.366340
1712.07, 0.366340
1712.64, 0.366580
1713.2, 0.366641
1713.77, 0.366761
1714.34, 0.366580
1714.9, 0.366701
1715.47, 0.366821
1716.04, 0.366641
1716.61, 0.366821
1717.18, 0.366942
1717.74, 0.366821
1718.31, 0.366821
1718.88, 0.366882
1719.45, 0.367002
1720.02, 0.367183
1720.59, 0.367243
1721.17, 0.367303
1721.74, 0.367303
1722.31, 0.367484
1722.88, 0.367363
1723.45, 0.367363
1724.03, 0.367303
1724.6, 0.367604
1725.18, 0.367905
1725.75, 0.367725
1726.33, 0.367665
1726.9, 0.367966
1727.48, 0.368086
1728.05, 0.368026
1728.63, 0.368026
1729.2, 0.368086
1729.78, 0.368207
1730.36, 0.368267
1730.94, 0.368508
1731.51, 0.368869
1732.09, 0.368929
1732.67, 0.368628
1733.25, 0.368508
1733.83, 0.368809
1734.41, 0.368869
1734.99, 0.368869
1735.57, 0.368989
1736.15, 0.369230
1736.73, 0.369411
1737.32, 0.369230
1737.9, 0.369291
1738.48, 0.369471
1739.07, 0.369712
1739.65, 0.369772
1740.23, 0.369652
1740.82, 0.369772
1741.4, 0.370013
1741.99, 0.370194
1742.57, 0.370254
1743.16, 0.370435
1743.74, 0.370495
1744.33, 0.370555
1744.92, 0.370676
1745.51, 0.370917
1746.09, 0.371037
1746.68, 0.371037
1747.27, 0.371037
1747.86, 0.371157
1748.45, 0.371157
1749.04, 0.371398
1749.63, 0.371579
1750.22, 0.371579
1750.81, 0.371579
1751.4, 0.371880
1751.99, 0.371940
1752.59, 0.371880
1753.18, 0.371940
1753.77, 0.372121
1754.37, 0.372482
1754.96, 0.372543
1755.56, 0.372543
1756.15, 0.372663
1756.74, 0.372844
1757.34, 0.372964
1757.94, 0.373085
1758.53, 0.373085
1759.13, 0.373145
1759.73, 0.373265
1760.32, 0.373506
1760.92, 0.373627
1761.52, 0.373747
1762.12, 0.373807
1762.72, 0.373988
1763.32, 0.374289
1763.92, 0.374229
1764.52, 0.374349
1765.12, 0.374650
1765.72, 0.374891
1766.32, 0.375072
1766.92, 0.375132
1767.53, 0.375192
1768.13, 0.375433
1768.73, 0.375494
1769.34, 0.375494
1769.94, 0.375855
1770.55, 0.375915
1771.15, 0.375915
1771.76, 0.376036
1772.36, 0.376216
1772.97, 0.376517
1773.57, 0.376819
1774.18, 0.376758
1774.79, 0.376698
1775.4, 0.376698
1776.0, 0.376939
1776.61, 0.377180
1777.22, 0.377300
1777.83, 0.377481
1778.44, 0.377601
1779.05, 0.377722
1779.66, 0.377782
1780.27, 0.377782
1780.88, 0.377903
1781.5, 0.377903
1782.11, 0.378083
1782.72, 0.378023
1783.33, 0.377963
1783.95, 0.378324
1784.56, 0.378565
1785.18, 0.378505
1785.79, 0.378565
1786.41, 0.378685
1787.02, 0.378806
1787.64, 0.378806
1788.26, 0.378866
1788.87, 0.379348
1789.49, 0.379589
1790.11, 0.379649
1790.73, 0.379830
1791.35, 0.379950
1791.96, 0.379950
1792.58, 0.380191
1793.21, 0.380311
1793.83, 0.380191
1794.45, 0.380251
1795.07, 0.380552
1795.69, 0.380673
1796.31, 0.380733
1796.93, 0.380914
1797.56, 0.381034
1798.18, 0.381094
1798.8, 0.381335
1799.43, 0.381697
1800.05, 0.381817
1800.68, 0.381636
1801.3, 0.381697
1801.93, 0.381998
1802.56, 0.382118
1803.18, 0.382178
1803.81, 0.382419
1804.44, 0.382419
1805.07, 0.382660
1805.7, 0.383082
1806.33, 0.383082
1806.95, 0.382901
1807.58, 0.382961
1808.22, 0.383082
1808.85, 0.383323
1809.48, 0.383503
1810.11, 0.383503
1810.74, 0.383744
1811.38, 0.384106
1812.01, 0.384286
1812.64, 0.384407
1813.28, 0.384407
1813.91, 0.384648
1814.55, 0.384708
1815.18, 0.384949
1815.82, 0.384949
1816.45, 0.385069
1817.09, 0.385430
1817.73, 0.385551
1818.36, 0.385671
1819.0, 0.385852
1819.64, 0.386093
1820.28, 0.386454
1820.92, 0.386514
1821.56, 0.386755
1822.2, 0.386936
1822.84, 0.386996
1823.48, 0.386996
1824.12, 0.387117
1824.76, 0.387056
1825.41, 0.387538
1826.05, 0.388321
1826.69, 0.388321
1827.34, 0.388140
1827.98, 0.388562
1828.63, 0.388863
1829.27, 0.388743
1829.92, 0.388863
1830.56, 0.389225
1831.21, 0.389345
1831.86, 0.389285
1832.5, 0.389345
1833.15, 0.389345
1833.8, 0.389405
1834.45, 0.389706
1835.1, 0.390007
1835.75, 0.390369
1836.4, 0.390610
1837.05, 0.390730
1837.7, 0.391152
1838.35, 0.391031
1839.01, 0.391152
1839.66, 0.391633
1840.31, 0.391633
1840.96, 0.391694
1841.62, 0.392175
1842.27, 0.392296
1842.93, 0.392236
1843.58, 0.392236
1844.24, 0.392115
1844.9, 0.392175
1845.55, 0.392296
1846.21, 0.392838
1846.87, 0.393621
1847.53, 0.393862
1848.18, 0.393802
1848.84, 0.393561
1849.5, 0.393320
1850.16, 0.393561
1850.82, 0.393681
1851.48, 0.393741
1852.14, 0.393922
1852.81, 0.394524
1853.47, 0.395126
1854.13, 0.395126
1854.8, 0.394765
1855.46, 0.394705
1856.12, 0.395367
1856.79, 0.395789
1857.45, 0.395548
1858.12, 0.395428
1858.79, 0.395729
1859.45, 0.396331
1860.12, 0.396451
1860.79, 0.396210
1861.46, 0.395970
1862.12, 0.396150
1862.79, 0.396331
1863.46, 0.396512
1864.13, 0.396933
1864.8, 0.397054
1865.48, 0.397054
1866.15, 0.396993
1866.82, 0.397294
1867.49, 0.397897
1868.16, 0.397897
1868.84, 0.397716
1869.51, 0.397656
1870.19, 0.398077
1870.86, 0.398860
1871.54, 0.398559
1872.21, 0.398559
1872.89, 0.399101
1873.56, 0.398921
1874.24, 0.398559
1874.92, 0.398680
1875.6, 0.398680
1876.28, 0.398740
1876.96, 0.399222
1877.64, 0.399222
1878.32, 0.399161
1879.0, 0.399222
1879.68, 0.399402
1880.36, 0.399402
1881.04, 0.399402
1881.73, 0.399463
1882.41, 0.399523
1883.09, 0.399764
1883.78, 0.400245
1884.46, 0.400366
1885.15, 0.400245
1885.83, 0.400366
1886.52, 0.400306
1887.21, 0.400486
1887.89, 0.400607
1888.58, 0.400547
1889.27, 0.400607
1889.96, 0.401149
1890.65, 0.401269
1891.34, 0.401390
1892.03, 0.401450
1892.72, 0.401450
1893.41, 0.401691
1894.1, 0.401932
1894.79, 0.401872
1895.49, 0.401751
1896.18, 0.401691
1896.87, 0.402052
1897.57, 0.402353
1898.26, 0.402594
1898.96, 0.402956
1899.65, 0.403257
1900.35, 0.403136
1901.05, 0.402956
1901.74, 0.402835
1902.44, 0.403196
1903.14, 0.403498
1903.84, 0.403437
1904.54, 0.403738
1905.24, 0.404280
1905.94, 0.404220
1906.64, 0.404220
1907.34, 0.404040
1908.04, 0.403859
1908.75, 0.404160
1909.45, 0.404280
1910.15, 0.404341
1910.86, 0.404461
1911.56, 0.404762
1912.27, 0.404883
1912.97, 0.405364
1913.68, 0.405846
1914.39, 0.405666
1915.09, 0.405545
1915.8, 0.405545
1916.51, 0.405726
1917.22, 0.405846
1917.93, 0.405906
1918.64, 0.405906
1919.35, 0.406328
1920.06, 0.407171
1920.77, 0.407292
1921.48, 0.406870
1922.19, 0.406509
1922.91, 0.406388
1923.62, 0.406750
1924.33, 0.407051
1925.05, 0.407111
1925.76, 0.407171
1926.48, 0.407352
1927.19, 0.407593
1927.91, 0.407954
1928.63, 0.408315
1929.35, 0.408255
1930.07, 0.408315
1930.78, 0.408376
1931.5, 0.408436
1932.22, 0.408617
1932.94, 0.408677
1933.66, 0.408737
1934.39, 0.408918
1935.11, 0.408797
1935.83, 0.408978
1936.55, 0.409098
1937.28, 0.409219
1938.0, 0.409580
1938.73, 0.409640
1939.45, 0.409761
1940.18, 0.409761
1940.9, 0.409821
1941.63, 0.410062
1942.36, 0.410062
1943.09, 0.410002
1943.81, 0.410062
1944.54, 0.410303
1945.27, 0.410544
1946.0, 0.410483
1946.73, 0.410483
1947.47, 0.410544
1948.2, 0.410785
1948.93, 0.410664
1949.66, 0.410785
1950.4, 0.410905
1951.13, 0.410785
1951.86, 0.410905
1952.6, 0.410905
1953.34, 0.410845
1954.07, 0.410905
1954.81, 0.411025
1955.55, 0.411146
1956.29, 0.411146
1957.02, 0.411146
1957.76, 0.411146
1958.5, 0.411447
1959.24, 0.411507
1959.98, 0.411447
1960.72, 0.411507
1961.47, 0.411507
1962.21, 0.411507
1962.95, 0.411748
1963.7, 0.411869
1964.44, 0.411748
1965.18, 0.411567
1965.93, 0.411748
1966.67, 0.411869
1967.42, 0.411929
1968.17, 0.411929
1968.92, 0.411869
1969.66, 0.412049
1970.41, 0.412350
1971.16, 0.412230
1971.91, 0.411929
1972.66, 0.411929
1973.41, 0.412049
1974.16, 0.412049
1974.92, 0.411989
1975.67, 0.412230
1976.42, 0.412109
1977.18, 0.412170
1977.93, 0.412290
1978.69, 0.412290
1979.44, 0.412049
1980.2, 0.412230
1980.95, 0.412411
1981.71, 0.412049
1982.47, 0.411929
1983.23, 0.412049
1983.99, 0.412170
1984.74, 0.412411
1985.51, 0.412411
1986.27, 0.412411
1987.03, 0.412350
1987.79, 0.412230
1988.55, 0.412290
1989.32, 0.412350
1990.08, 0.412591
1990.84, 0.412832
1991.61, 0.412591
1992.37, 0.412591
1993.14, 0.412591
1993.9, 0.412591
1994.67, 0.412772
1995.44, 0.412832
1996.21, 0.412712
1996.98, 0.412651
1997.75, 0.412772
1998.52, 0.412953
1999.29, 0.413193
2000.06, 0.413013
2000.83, 0.412892
2001.6, 0.413073
2002.38, 0.413193
2003.15, 0.413013
2003.93, 0.413013
2004.7, 0.413073
2005.48, 0.413374
2006.25, 0.413555
2007.03, 0.413495
2007.81, 0.413374
2008.58, 0.413555
2009.36, 0.413736
2010.14, 0.413675
2010.92, 0.413675
2011.7, 0.413796
2012.48, 0.413916
2013.26, 0.413976
2014.05, 0.413976
2014.83, 0.414097
2015.61, 0.414097
2016.4, 0.413976
2017.18, 0.414097
2017.97, 0.414338
2018.75, 0.414338
2019.54, 0.414157
2020.32, 0.414217
2021.11, 0.414277
2021.9, 0.414277
2022.69, 0.414277
2023.48, 0.414277
2024.27, 0.414458
2025.06, 0.414518
2025.85, 0.414398
2026.64, 0.414338
2027.44, 0.414338
2028.23, 0.414338
2029.02, 0.414458
2029.82, 0.414579
2030.61, 0.414518
2031.41, 0.414579
2032.2, 0.414518
2033.0, 0.414518
2033.8, 0.414579
2034.6, 0.414579
2035.4, 0.414458
2036.2, 0.414458
2037.0, 0.414398
2037.8, 0.414458
2038.6, 0.414579
2039.4, 0.414699
2040.2, 0.414699
2041.01, 0.414759
2041.81, 0.414820
2042.61, 0.414639
2043.42, 0.414518
2044.22, 0.414458
2045.03, 0.414518
2045.84, 0.414338
2046.65, 0.414037
2047.46, 0.414217
2048.26, 0.414458
2049.07, 0.414277
2049.88, 0.414217
2050.69, 0.414217
2051.51, 0.414217
2052.32, 0.414217
2053.13, 0.414157
2053.94, 0.414097
2054.76, 0.414097
2055.57, 0.414037
2056.39, 0.413916
2057.2, 0.413796
2058.02, 0.413736
2058.84, 0.413736
2059.66, 0.413736
2060.48, 0.413796
2061.29, 0.413675
2062.11, 0.413434
2062.94, 0.413133
2063.76, 0.413073
2064.58, 0.413073
2065.4, 0.413193
2066.22, 0.412953
2067.05, 0.412832
2067.87, 0.412772
2068.7, 0.412832
2069.52, 0.412712
2070.35, 0.412411
2071.18, 0.412290
2072.0, 0.412290
2072.83, 0.412109
2073.66, 0.412049
2074.49, 0.411869
2075.32, 0.411929
2076.15, 0.411989
2076.98, 0.411929
2077.82, 0.411869
2078.65, 0.411748
2079.48, 0.411447
2080.32, 0.411206
2081.15, 0.411206
2081.99, 0.411206
2082.83, 0.411206
2083.66, 0.411266
2084.5, 0.411086
2085.34, 0.410905
2086.18, 0.410905
2087.02, 0.410965
2087.86, 0.411025
2088.7, 0.410724
2089.54, 0.410544
2090.39, 0.410544
2091.23, 0.410303
2092.07, 0.410363
2092.92, 0.410423
2093.76, 0.410182
2094.61, 0.410002
2095.45, 0.410122
2096.3, 0.410182
2097.15, 0.410122
2098.0, 0.409881
2098.85, 0.409701
2099.7, 0.409580
2100.55, 0.409701
2101.4, 0.409520
2102.25, 0.409460
2103.1, 0.409399
2103.96, 0.409339
2104.81, 0.409279
2105.67, 0.409279
2106.52, 0.409339
2107.38, 0.409279
2108.24, 0.409159
2109.09, 0.409339
2109.95, 0.409219
2110.81, 0.409159
2111.67, 0.409038
2112.53, 0.409098
2113.39, 0.408978
2114.25, 0.408918
2115.12, 0.408857
2115.98, 0.408737
2116.84, 0.408617
2117.71, 0.408677
2118.58, 0.408677
2119.44, 0.408496
2120.31, 0.408496
2121.18, 0.408556
2122.04, 0.408617
2122.91, 0.408617
2123.78, 0.408556
2124.65, 0.408116
2125.52, 0.407864
2126.4, 0.407738
2127.27, 0.407864
2128.14, 0.407738
2129.02, 0.407423
2129.89, 0.407234
2130.77, 0.407360
2131.64, 0.407234
2132.52, 0.407045
2133.4, 0.406794
2134.27, 0.406605
2135.15, 0.407108
2136.03, 0.407486
2136.91, 0.406794
2137.79, 0.406164
2138.68, 0.406353
2139.56, 0.406164
2140.44, 0.406290
2141.33, 0.406290
2142.21, 0.405849
2143.1, 0.405786
2143.99, 0.405912
2144.87, 0.405598
2145.76, 0.405535
2146.65, 0.405535
2147.54, 0.405598
2148.43, 0.405660
2149.32, 0.405849
2150.21, 0.404842
2151.1, 0.404590
2151.99, 0.404464
2152.89, 0.404653
2153.78, 0.404653
2154.68, 0.404464
2155.57, 0.404401
2156.47, 0.404716
2157.37, 0.404716
2158.27, 0.404527
2159.16, 0.403961
2160.06, 0.403646
2160.96, 0.403835
2161.86, 0.403898
2162.77, 0.403709
2163.67, 0.403394
2164.57, 0.403583
2165.48, 0.404213
2166.38, 0.404213
2167.29, 0.403835
2168.2, 0.403961
2169.1, 0.403709
2170.01, 0.403646
2170.92, 0.403142
2171.83, 0.402639
2172.74, 0.403079
2173.65, 0.403142
2174.56, 0.402639
2175.47, 0.402702
2176.39, 0.402765
2177.3, 0.403017
2178.22, 0.402891
2179.13, 0.402513
2180.05, 0.402387
2180.96, 0.401883
2181.88, 0.401380
2182.8, 0.401254
2183.72, 0.401317
2184.64, 0.401820
2185.56, 0.402072
2186.48, 0.401569
2187.41, 0.401506
2188.33, 0.401380
2189.25, 0.400939
2190.18, 0.400687
2191.1, 0.400876
2192.03, 0.401128
2192.96, 0.400939
2193.89, 0.400624
2194.82, 0.400876
2195.74, 0.400373
2196.68, 0.400121
2197.61, 0.400058
2198.54, 0.400184
2199.47, 0.400058
2200.4, 0.399806
2201.34, 0.399428
2202.28, 0.399554
2203.21, 0.399491
2204.15, 0.399743
2205.08, 0.399743
2206.02, 0.399491
2206.96, 0.399491
2207.9, 0.399554
2208.84, 0.399365
2209.78, 0.399176
2210.73, 0.398799
2211.67, 0.398673
2212.61, 0.398106
2213.56, 0.398484
2214.5, 0.399051
2215.45, 0.399176
2216.4, 0.398988
2217.35, 0.398673
2218.3, 0.398799
2219.24, 0.398358
2220.2, 0.398547
2221.15, 0.398799
2222.1, 0.398925
2223.05, 0.398988
2224.0, 0.398862
2224.96, 0.398799
2225.91, 0.398862
2226.87, 0.398610
2227.83, 0.397917
2228.79, 0.397603
2229.74, 0.397792
2230.7, 0.397980
2231.66, 0.397854
2232.63, 0.397414
2233.59, 0.397099
2234.55, 0.397225
2235.51, 0.397666
2236.48, 0.397792
2237.44, 0.397540
2238.41, 0.397477
2239.38, 0.397477
2240.34, 0.397288
2241.31, 0.397099
2242.28, 0.396721
2243.25, 0.396847
2244.22, 0.397099
2245.19, 0.396847
2246.17, 0.396532
2247.14, 0.396407
2248.12, 0.396344
2249.09, 0.396344
2250.07, 0.396344
2251.04, 0.396470
2252.02, 0.396721
2253.0, 0.396784
2253.98, 0.396407
2254.96, 0.396092
2255.94, 0.396155
2256.92, 0.396281
2257.91, 0.396721
2258.89, 0.396470
2259.88, 0.395714
2260.86, 0.395525
2261.85, 0.396092
2262.83, 0.396218
2263.82, 0.396155
2264.81, 0.395840
2265.8, 0.396029
2266.79, 0.396155
2267.78, 0.395966
2268.78, 0.395588
2269.77, 0.395525
2270.76, 0.395966
2271.76, 0.395903
2272.75, 0.395903
2273.75, 0.395714
2274.75, 0.395211
2275.75, 0.394833
2276.75, 0.394770
2277.75, 0.395211
2278.75, 0.395588
2279.75, 0.395903
2280.75, 0.396155
2281.76, 0.396218
2282.76, 0.395966
2283.77, 0.395148
2284.77, 0.394644
2285.78, 0.394896
2286.79, 0.395336
2287.8, 0.395525
2288.81, 0.395462
2289.82, 0.395462
2290.83, 0.395211
2291.84, 0.394896
2292.86, 0.395085
2293.87, 0.395588
2294.89, 0.395588
2295.91, 0.394896
2296.92, 0.394959
2297.94, 0.395273
2298.96, 0.395525
2299.98, 0.395399
2301.0, 0.395211
2302.02, 0.394959
2303.04, 0.394896
2304.07, 0.394959
2305.09, 0.395085
2306.12, 0.394833
2307.15, 0.395022
2308.17, 0.395525
2309.2, 0.395273
2310.23, 0.394833
2311.26, 0.394707
2312.29, 0.395211
2313.32, 0.395462
2314.35, 0.395462
2315.39, 0.395211
2316.42, 0.395022
2317.46, 0.395148
2318.5, 0.395651
2319.53, 0.395777
2320.57, 0.395651
2321.61, 0.395336
2322.65, 0.395085
2323.69, 0.395022
2324.73, 0.395148
2325.78, 0.395336
2326.82, 0.395651
2327.86, 0.395588
2328.91, 0.395651
2329.96, 0.395714
2331.01, 0.395525
2332.05, 0.395651
2333.1, 0.395966
2334.15, 0.395651
2335.21, 0.395840
2336.26, 0.395966
2337.31, 0.396155
2338.36, 0.396029
2339.42, 0.396029
2340.48, 0.396029
2341.53, 0.395966
2342.59, 0.396092
2343.65, 0.396029
2344.71, 0.395840
2345.77, 0.396092
2346.83, 0.396281
2347.9, 0.396155
2348.96, 0.395840
2350.02, 0.396029
2351.09, 0.396595
2352.16, 0.396847
2353.23, 0.396784
2354.29, 0.396973
2355.36, 0.396784
2356.43, 0.396532
2357.51, 0.396470
2358.58, 0.396910
2359.65, 0.397225
2360.73, 0.397288
2361.8, 0.397540
2362.88, 0.397477
2363.96, 0.397540
2365.03, 0.397666
2366.11, 0.397162
2367.19, 0.397162
2368.27, 0.397162
2369.36, 0.397414
2370.44, 0.397414
2371.53, 0.397414
2372.61, 0.397414
2373.7, 0.397729
2374.78, 0.397792
2375.87, 0.397854
2376.96, 0.398169
2378.05, 0.398547
2379.14, 0.398610
2380.24, 0.398610
2381.33, 0.398547
2382.42, 0.398547
2383.52, 0.398925
2384.61, 0.399302
2385.71, 0.398799
2386.81, 0.398673
2387.91, 0.398799
2389.01, 0.399176
2390.11, 0.399051
2391.22, 0.399302
2392.32, 0.399554
2393.42, 0.399680
2394.53, 0.399869
2395.64, 0.399995
2396.74, 0.400058
2397.85, 0.400058
2398.96, 0.399995
2400.07, 0.400121
2401.18, 0.400498
2402.3, 0.400687
2403.41, 0.400750
2404.52, 0.401065
2405.64, 0.400939
2406.76, 0.400813
2407.88, 0.400939
2408.99, 0.401002
2410.11, 0.401191
2411.23, 0.401443
2412.36, 0.401506
2413.48, 0.401380
2414.6, 0.401380
2415.73, 0.401820
2416.85, 0.402324
2417.98, 0.402261
2419.11, 0.402450
2420.24, 0.402513
2421.37, 0.402324
2422.5, 0.402576
2423.64, 0.402702
2424.77, 0.402702
2425.9, 0.402954
2427.04, 0.403205
2428.18, 0.403457
2429.31, 0.403709
2430.45, 0.403898
2431.59, 0.404087
2432.73, 0.404276
2433.88, 0.404401
2435.02, 0.404464
2436.16, 0.404716
2437.31, 0.404905
2438.45, 0.404842
2439.6, 0.404653
2440.75, 0.404968
2441.9, 0.405535
2443.05, 0.405786
2444.2, 0.405786
2445.35, 0.405975
2446.51, 0.405912
2447.67, 0.406101
2448.82, 0.406542
2449.98, 0.406416
2451.14, 0.406731
2452.3, 0.407360
2453.46, 0.407612
2454.62, 0.407612
2455.78, 0.407612
2456.94, 0.407864
2458.11, 0.407990
2459.28, 0.408179
2460.44, 0.408745
2461.61, 0.409186
2462.78, 0.409123
2463.95, 0.409186
2465.12, 0.409626
2466.3, 0.410130
2467.47, 0.410256
2468.65, 0.410256
2469.82, 0.410382
2471.0, 0.410697
2472.18, 0.410823
2473.36, 0.410885
2474.54, 0.411011
2475.72, 0.411515
2476.9, 0.412082
2478.08, 0.412585
2479.27, 0.412711
2480.46, 0.412333
2481.64, 0.412585
2482.83, 0.412774
2484.02, 0.412711
2485.21, 0.412900
2486.4, 0.413466
2487.6, 0.414033
2488.79, 0.414285
2489.99, 0.414600
2491.18, 0.414914
2492.38, 0.414977
2493.58, 0.414977
2494.78, 0.415355
2495.98, 0.415796
2497.18, 0.415985
2498.39, 0.416551
2499.59, 0.416866
2500.8, 0.417118
2502.01, 0.417307
2503.21, 0.417495
2504.42, 0.417621
2505.63, 0.417432
2506.84, 0.417873
2508.06, 0.418251
2509.27, 0.418629
2510.49, 0.418503
2511.7, 0.418817
2512.92, 0.419195
2514.14, 0.419636
2515.36, 0.420265
2516.58, 0.420517
2517.8, 0.420643
2519.03, 0.421084
2520.25, 0.421461
2521.48, 0.421839
2522.7, 0.421965
2523.93, 0.422154
2525.16, 0.422469
2526.39, 0.422846
2527.62, 0.423098
2528.86, 0.423287
2530.09, 0.423602
2531.33, 0.424168
2532.56, 0.424735
2533.8, 0.424987
2535.04, 0.425238
2536.28, 0.425931
2537.52, 0.426057
2538.76, 0.426057
2540.01, 0.426435
2541.25, 0.427001
2542.5, 0.427945
2543.75, 0.428701
2544.99, 0.428323
2546.24, 0.428323
2547.49, 0.429016
2548.75, 0.429393
2550.0, 0.429645
2551.26, 0.430212
2552.51, 0.430841
2553.77, 0.430904
2555.03, 0.430904
2556.29, 0.431408
2557.55, 0.431785
2558.81, 0.432037
2560.08, 0.432604
2561.34, 0.433926
2562.61, 0.434807
2563.88, 0.435059
2565.14, 0.434744
2566.41, 0.434178
2567.68, 0.434366
2568.96, 0.435688
2570.23, 0.436381
2571.51, 0.435751
2572.78, 0.436696
2574.06, 0.437073
2575.34, 0.436381
2576.62, 0.437703
2577.9, 0.438144
2579.18, 0.437766
2580.47, 0.438584
2581.75, 0.439088
2583.04, 0.439969
2584.32, 0.441354
2585.61, 0.440284
2586.9, 0.440976
2588.2, 0.441354
2589.49, 0.441417
2590.78, 0.441228
2592.08, 0.441165
2593.37, 0.442676
2594.67, 0.446579
2595.97, 0.445950
2597.27, 0.443746
2598.57, 0.443180
2599.88, 0.443494
2601.18, 0.444502
2602.49, 0.445131
2603.79, 0.445635
2605.1, 0.447397
2606.41, 0.447838
2607.72, 0.447083
2609.03, 0.447020
2610.35, 0.447334
2611.66, 0.447838
2612.98, 0.448405
2614.3, 0.448216
2615.62, 0.449223
2616.94, 0.451175
2618.26, 0.450230
2619.58, 0.450671
2620.91, 0.451867
2622.23, 0.450671
2623.56, 0.450482
2624.89, 0.450923
2626.22, 0.452874
2627.55, 0.453126
2628.88, 0.453000
2630.21, 0.455329
2631.55, 0.455140
2632.89, 0.454511
2634.22, 0.455078
2635.56, 0.454763
2636.9, 0.455078
2638.25, 0.455581
2639.59, 0.455959
2640.93, 0.456337
2642.28, 0.456777
2643.63, 0.457092
2644.98, 0.457847
2646.33, 0.458351
2647.68, 0.458414
2649.03, 0.458477
2650.39, 0.458855
2651.74, 0.459799
2653.1, 0.460365
2654.46, 0.460177
2655.82, 0.460617
2657.18, 0.460428
2658.54, 0.461247
2659.9, 0.462065
2661.27, 0.462128
2662.64, 0.461876
2664.01, 0.462946
2665.38, 0.465087
2666.74, 0.465590
2668.12, 0.463702
2669.49, 0.463954
2670.87, 0.465653
2672.24, 0.463135
2673.62, 0.462380
2675.0, 0.462821
2676.38, 0.463639
2677.76, 0.462821
2679.15, 0.462443
2680.54, 0.460995
2681.92, 0.459547
2683.31, 0.459484
2684.7, 0.458603
2686.09, 0.457155
2687.48, 0.455015
2688.88, 0.452622
2690.27, 0.449601
2691.67, 0.446264
2693.07, 0.443683
2694.47, 0.440158
2695.87, 0.434744
2697.27, 0.429456
2698.67, 0.424483
2700.08, 0.420202
2701.49, 0.416362
2702.9, 0.412837
2704.31, 0.410319
2705.72, 0.409186
2707.13, 0.409060
2708.54, 0.410445
2709.96, 0.412396
2711.38, 0.413970
2712.8, 0.413844
2714.22, 0.414222
2715.64, 0.414788
2717.06, 0.415040
2718.49, 0.414285
2719.91, 0.415355
2721.34, 0.416425
2722.77, 0.415670
2724.2, 0.416929
2725.63, 0.416614
2727.07, 0.415418
2728.5, 0.415103
2729.94, 0.414663
2731.38, 0.414159
2732.82, 0.413781
2734.26, 0.414222
2735.7, 0.413781
2737.15, 0.412396
2738.59, 0.413215
2740.04, 0.414159
2741.49, 0.412963
2742.94, 0.410948
2744.39, 0.409375
2745.84, 0.408430
2747.3, 0.407297
2748.76, 0.406164
2750.21, 0.405031
2751.67, 0.403772
2753.14, 0.402324
2754.6, 0.402639
2756.06, 0.402387
2757.53, 0.399617
2759.0, 0.398106
2760.46, 0.397792
2761.94, 0.398988
2763.41, 0.400624
2764.88, 0.401632
2766.36, 0.402828
2767.83, 0.403898
2769.31, 0.404338
2770.79, 0.405157
2772.27, 0.404842
2773.76, 0.403961
2775.24, 0.403583
2776.73, 0.403520
2778.22, 0.403205
2779.71, 0.403017
2781.2, 0.403142
2782.69, 0.403205
2784.18, 0.402828
2785.68, 0.403017
2787.18, 0.403646
2788.68, 0.403017
2790.18, 0.402072
2791.68, 0.401506
2793.19, 0.400939
2794.69, 0.400310
2796.2, 0.399869
2797.71, 0.399491
2799.22, 0.399051
2800.73, 0.398736
2802.24, 0.399051
2803.76, 0.399051
2805.28, 0.398484
2806.8, 0.397917
2808.32, 0.397477
2809.84, 0.396973
2811.36, 0.396407
2812.89, 0.395840
2814.42, 0.395399
2815.94, 0.394833
2817.48, 0.394203
2819.01, 0.394014
2820.54, 0.393826
2822.08, 0.393259
2823.61, 0.393133
2825.15, 0.393196
2826.69, 0.393259
2828.23, 0.393322
2829.78, 0.393448
2831.32, 0.393511
2832.87, 0.393889
2834.42, 0.394518
2835.97, 0.394707
2837.52, 0.394833
2839.08, 0.395211
2840.63, 0.395588
2842.19, 0.395966
2843.75, 0.396155
2845.31, 0.396595
2846.87, 0.397036
2848.44, 0.397414
2850.0, 0.397540
2851.57, 0.397477
2853.14, 0.397729
2854.71, 0.397666
2856.28, 0.397225
2857.86, 0.396847
2859.43, 0.396595
2861.01, 0.396595
2862.59, 0.396281
2864.17, 0.396092
2865.76, 0.395966
2867.34, 0.395525
2868.93, 0.395148
2870.52, 0.395085
2872.11, 0.394770
2873.7, 0.394077
2875.29, 0.393637
2876.89, 0.393385
2878.49, 0.392944
2880.08, 0.392504
2881.69, 0.392315
2883.29, 0.392063
2884.89, 0.391748
2886.5, 0.391559
2888.11, 0.391433
2889.72, 0.391056
2891.33, 0.390615
2892.94, 0.390237
2894.56, 0.389923
2896.17, 0.389734
2897.79, 0.389671
2899.42, 0.389797
2901.04, 0.389734
2902.66, 0.389482
2904.29, 0.389230
2905.92, 0.389167
2907.55, 0.388915
2909.18, 0.388852
2910.81, 0.388852
2912.45, 0.388727
2914.08, 0.388664
2915.72, 0.388664
2917.36, 0.388223
2919.01, 0.388097
2920.65, 0.387971
2922.3, 0.387719
2923.94, 0.387467
2925.59, 0.387153
2927.25, 0.387027
2928.9, 0.386838
2930.56, 0.386586
2932.21, 0.386586
2933.87, 0.386460
2935.53, 0.386397
2937.2, 0.386271
2938.86, 0.386145
2940.53, 0.386020
2942.2, 0.385831
2943.87, 0.385894
2945.54, 0.385579
2947.22, 0.385327
2948.89, 0.385138
2950.57, 0.384886
2952.25, 0.384572
2953.93, 0.384698
2955.62, 0.385075
2957.3, 0.385516
2958.99, 0.385957
2960.68, 0.386334
2962.37, 0.386838
2964.07, 0.387405
2965.76, 0.387971
2967.46, 0.388601
2969.16, 0.389167
2970.86, 0.389608
2972.56, 0.390237
2974.27, 0.390615
2975.98, 0.391308
2977.69, 0.392315
2979.4, 0.392944
2981.11, 0.393133
2982.83, 0.393511
2984.54, 0.394077
2986.26, 0.394707
2987.98, 0.395273
2989.71, 0.395777
2991.43, 0.396155
2993.16, 0.396721
2994.89, 0.397225
2996.62, 0.397540
2998.35, 0.398043
3000.09, 0.398358
3001.83, 0.398610
3003.57, 0.399176
3005.31, 0.399428
3007.05, 0.399743
3008.79, 0.399932
3010.54, 0.400247
3012.29, 0.400561
3014.04, 0.400750
3015.8, 0.400876
3017.55, 0.401002
3019.31, 0.401317
3021.07, 0.401820
3022.83, 0.402135
3024.59, 0.402324
3026.36, 0.402576
3028.13, 0.402891
3029.9, 0.403142
3031.67, 0.403394
3033.44, 0.403709
3035.22, 0.403772
3037.0, 0.404024
3038.78, 0.404338
3040.56, 0.404401
3042.34, 0.404590
3044.13, 0.404716
3045.92, 0.404968
3047.71, 0.405157
3049.5, 0.405157
3051.3, 0.405409
3053.09, 0.405660
3054.89, 0.405849
3056.69, 0.406038
3058.5, 0.406164
3060.3, 0.406164
3062.11, 0.406416
3063.92, 0.406731
3065.73, 0.406982
3067.55, 0.407108
3069.36, 0.407045
3071.18, 0.407108
3073.0, 0.407360
3074.82, 0.407423
3076.65, 0.407423
3078.48, 0.407486
3080.31, 0.407738
3082.14, 0.408241
3083.97, 0.408304
3085.8, 0.408241
3087.64, 0.408430
3089.48, 0.408871
3091.33, 0.408934
3093.17, 0.409249
3095.02, 0.409438
3096.87, 0.409626
3098.72, 0.409941
3100.57, 0.410256
3102.43, 0.410319
3104.28, 0.410508
3106.14, 0.410823
3108.01, 0.411074
3109.87, 0.411326
3111.74, 0.411452
3113.61, 0.411704
3115.48, 0.411956
3117.35, 0.412207
3119.23, 0.412648
3121.1, 0.412837
3122.98, 0.413089
3124.87, 0.413466
3126.75, 0.413907
3128.64, 0.414285
3130.53, 0.414537
3132.42, 0.414851
3134.31, 0.415229
3136.21, 0.415607
3138.11, 0.415985
3140.01, 0.416299
3141.91, 0.416614
3143.82, 0.417055
3145.73, 0.417621
3147.64, 0.417999
3149.55, 0.418314
3151.46, 0.418691
3153.38, 0.419132
3155.3, 0.419573
3157.22, 0.420013
3159.14, 0.420454
3161.07, 0.420895
3163.0, 0.421335
3164.93, 0.422028
3166.86, 0.422532
3168.8, 0.422846
3170.74, 0.423287
3172.68, 0.423791
3174.62, 0.424294
3176.56, 0.424735
3178.51, 0.425364
3180.46, 0.426120
3182.42, 0.426497
3184.37, 0.427064
3186.33, 0.427505
3188.29, 0.428134
3190.25, 0.428575
3192.21, 0.429078
3194.18, 0.429708
3196.15, 0.430212
3198.12, 0.430715
3200.09, 0.431345
3202.07, 0.431974
3204.05, 0.432667
3206.03, 0.433233
3208.02, 0.433737
3210.0, 0.434303
3211.99, 0.434933
3213.98, 0.435563
3215.98, 0.436318
3217.97, 0.436884
3219.97, 0.437325
3221.97, 0.438018
3223.98, 0.438899
3225.98, 0.439340
3227.99, 0.439780
3230.0, 0.440284
3232.02, 0.441102
3234.03, 0.441795
3236.05, 0.442487
3238.07, 0.442991
3240.1, 0.443620
3242.12, 0.444124
3244.15, 0.444816
3246.18, 0.445635
3248.22, 0.446327
3250.25, 0.446768
3252.29, 0.447397
3254.33, 0.448090
3256.38, 0.448782
3258.43, 0.449349
3260.47, 0.449978
3262.53, 0.450545
3264.58, 0.451112
3266.64, 0.451678
3268.7, 0.452371
3270.76, 0.453189
3272.82, 0.453944
3274.89, 0.454574
3276.96, 0.455015
3279.04, 0.455644
3281.11, 0.456400
3283.19, 0.457092
3285.27, 0.457596
3287.35, 0.458099
3289.44, 0.458918
3291.53, 0.459673
3293.62, 0.460240
3295.71, 0.460806
3297.81, 0.461310
3299.91, 0.461876
3302.01, 0.462506
3304.11, 0.463009
3306.22, 0.463513
3308.33, 0.464268
3310.44, 0.465087
3312.56, 0.465590
3314.68, 0.466157
3316.8, 0.466724
3318.92, 0.466975
3321.05, 0.467542
3323.18, 0.468171
3325.31, 0.468738
3327.44, 0.469368
3329.58, 0.469808
3331.72, 0.470312
3333.86, 0.470878
3336.01, 0.471382
3338.16, 0.471949
3340.31, 0.472578
3342.46, 0.472956
3344.61, 0.473208
3346.77, 0.473522
3348.94, 0.473963
3351.1, 0.474341
3353.27, 0.474655
3355.44, 0.474844
3357.61, 0.475159
3359.79, 0.475411
3361.97, 0.475537
3364.15, 0.475600
3366.33, 0.475600
3368.52, 0.475600
3370.71, 0.475663
3372.9, 0.475600
3375.1, 0.475537
3377.3, 0.475726
3379.5, 0.475852
3381.71, 0.476040
3383.91, 0.476355
3386.12, 0.476859
3388.34, 0.477237
3390.55, 0.477237
3392.77, 0.477299
3394.99, 0.477111
3397.22, 0.476670
3399.45, 0.476040
3401.68, 0.475348
3403.91, 0.474278
3406.15, 0.473019
3408.39, 0.471508
3410.63, 0.470186
3412.87, 0.468990
3415.12, 0.468046
3417.37, 0.467416
3419.63, 0.467290
3421.88, 0.467920
3424.14, 0.469368
3426.41, 0.471382
3428.67, 0.474089
3430.94, 0.477111
3433.21, 0.479755
3435.49, 0.481958
3437.77, 0.483532
3440.05, 0.484728
3442.33, 0.485861
3444.62, 0.486868
3446.91, 0.487812
3449.2, 0.488631
3451.5, 0.489512
3453.8, 0.490267
3456.1, 0.491086
3458.41, 0.491652
3460.72, 0.492408
3463.03, 0.493037
3465.34, 0.493352
3467.66, 0.493541
3469.98, 0.493919
3472.31, 0.494359
3474.63, 0.494737
3476.96, 0.494863
3479.3, 0.494926
3481.64, 0.494989
3483.97, 0.495115
3486.32, 0.495115
3488.66, 0.494863
3491.01, 0.494296
3493.36, 0.493415
3495.72, 0.492282
3498.08, 0.490771
3500.44, 0.489512
3502.81, 0.488631
3505.18, 0.488316
3507.55, 0.489134
3509.92, 0.491023
3512.3, 0.493478
3514.68, 0.495933
3517.06, 0.498074
3519.45, 0.499710
3521.84, 0.501032
3524.24, 0.502039
3526.64, 0.502984
3529.04, 0.503613
3531.44, 0.504369
3533.85, 0.505061
3536.26, 0.505691
3538.67, 0.506257
3541.09, 0.506887
3543.51, 0.507201
3545.93, 0.507264
3548.36, 0.507579
3550.79, 0.508020
3553.22, 0.508524
3555.66, 0.508838
3558.1, 0.508964
3560.54, 0.509279
3562.99, 0.509657
3565.44, 0.509908
3567.9, 0.510034
3570.35, 0.510223
3572.81, 0.510538
3575.28, 0.510601
3577.75, 0.510727
3580.22, 0.510979
3582.69, 0.511293
3585.17, 0.511545
3587.65, 0.511734
3590.14, 0.511986
3592.62, 0.512112
3595.11, 0.512175
3597.61, 0.512301
3600.11, 0.512489
3602.61, 0.512741
3605.11, 0.512867
3607.62, 0.512867
3610.14, 0.513056
3612.65, 0.513182
3615.17, 0.513308
3617.69, 0.513623
3620.22, 0.513686
3622.75, 0.513811
3625.28, 0.514000
3627.82, 0.514000
3630.36, 0.514063
3632.9, 0.514189
3635.45, 0.514315
3638.0, 0.514504
3640.56, 0.514504
3643.12, 0.514630
3645.68, 0.514882
3648.24, 0.514945
3650.81, 0.515007
3653.39, 0.515133
3655.96, 0.515196
3658.54, 0.515196
3661.13, 0.515259
3663.71, 0.515322
3666.3, 0.515511
3668.9, 0.515448
3671.5, 0.515574
3674.1, 0.515826
3676.7, 0.515952
3679.31, 0.516015
3681.93, 0.516141
3684.54, 0.516204
3687.17, 0.516267
3689.79, 0.516267
3692.42, 0.516267
3695.05, 0.516330
3697.69, 0.516518
3700.32, 0.516518
3702.97, 0.516392
3705.61, 0.516392
3708.27, 0.516644
3710.92, 0.516581
3713.58, 0.516518
3716.24, 0.516518
3718.91, 0.516581
3721.58, 0.516581
3724.25, 0.516518
3726.93, 0.516455
3729.61, 0.516581
3732.29, 0.516644
3734.98, 0.516707
3737.67, 0.516581
3740.37, 0.516455
3743.07, 0.516518
3745.78, 0.516392
3748.49, 0.516392
3751.2, 0.516392
3753.91, 0.516330
3756.63, 0.516330
3759.36, 0.516267
3762.09, 0.516330
3764.82, 0.516267
3767.55, 0.516267
3770.29, 0.516204
3773.04, 0.516204
3775.78, 0.516078
3778.54, 0.516141
3781.29, 0.516015
3784.05, 0.515952
3786.82, 0.516015
3789.59, 0.516141
3792.36, 0.516015
3795.13, 0.516078
3797.92, 0.515889
3800.7, 0.515889
3803.49, 0.515952
3806.28, 0.515952
3809.08, 0.515700
3811.88, 0.515700
3814.68, 0.515826
3817.49, 0.515952
3820.31, 0.516015
3823.12, 0.516078
3825.94, 0.516078
3828.77, 0.516204
3831.6, 0.516267
3834.43, 0.516330
3837.27, 0.516455
3840.11, 0.516644
3842.96, 0.516644
3845.81, 0.516896
3848.67, 0.517022
3851.53, 0.517148
3854.39, 0.517274
3857.26, 0.517337
3860.13, 0.517337
3863.01, 0.517651
3865.89, 0.517903
3868.77, 0.517966
3871.66, 0.518029
3874.55, 0.518218
3877.45, 0.518218
3880.35, 0.518344
3883.26, 0.518407
3886.17, 0.518407
3889.09, 0.518470
3892.01, 0.518659
3894.93, 0.518722
3897.86, 0.518911
3900.79, 0.518911
3903.73, 0.518848
3906.67, 0.518659
3909.62, 0.518407
3912.57, 0.518281
3915.52, 0.518281
3918.48, 0.518092
3921.45, 0.517966
3924.42, 0.517777
3927.39, 0.517588
3930.37, 0.517337
3933.35, 0.517211
3936.34, 0.516959
3939.33, 0.516707
3942.32, 0.516455
3945.32, 0.516267
3948.33, 0.516141
3951.34, 0.515952
3954.35, 0.515637
3957.37, 0.515322
3960.39, 0.515070
3963.42, 0.514819
3966.45, 0.514567
3969.49, 0.514378
3972.53, 0.514189
3975.58, 0.514000
3978.63, 0.513686
3981.68, 0.513434
3984.75, 0.513245
3987.81, 0.512930
3990.88, 0.512489
3993.95, 0.512364
3997.03, 0.512175
4000.12, 0.511860
4003.21, 0.511419
4006.3, 0.511230
4009.4, 0.511042
4012.5, 0.510790
4015.61, 0.510412
4018.72, 0.510097
4021.84, 0.509720
4024.96, 0.509279
4028.09, 0.508964
4031.22, 0.508649
4034.36, 0.508335
4037.5, 0.507957
4040.65, 0.507390
4043.8, 0.506887
4046.96, 0.506446
4050.12, 0.505943
4053.29, 0.505439
4056.46, 0.505061
4059.64, 0.504620
4062.82, 0.504054
4066.0, 0.503487
4069.19, 0.502984
4072.39, 0.502543
4075.59, 0.502165
4078.8, 0.501662
4082.01, 0.501032
4085.23, 0.500529
4088.45, 0.500025
4091.68, 0.499584
4094.91, 0.499144
4098.15, 0.498514
4101.39, 0.498011
4104.63, 0.497633
4107.89, 0.497192
4111.14, 0.496689
4114.41, 0.496122
4117.67, 0.495555
4120.95, 0.495178
4124.23, 0.494737
4127.51, 0.494171
4130.8, 0.493604
4134.09, 0.493037
4137.39, 0.492471
4140.7, 0.492093
4144.01, 0.491715
4147.32, 0.491212
4150.64, 0.490708
4153.97, 0.490205
4157.3, 0.489764
4160.64, 0.489197
4163.98, 0.488694
4167.33, 0.488253
4170.68, 0.487749
4174.04, 0.487183
4177.4, 0.486679
4180.77, 0.486050
4184.14, 0.485483
4187.52, 0.485043
4190.91, 0.484602
4194.3, 0.484035
4197.69, 0.483469
4201.1, 0.482776
4204.5, 0.482021
4207.92, 0.481391
4211.34, 0.480573
4214.76, 0.479755
4218.19, 0.479062
4221.62, 0.478433
4225.06, 0.477803
4228.51, 0.477174
4231.96, 0.476544
4235.42, 0.476166
4238.88, 0.475726
4242.35, 0.475285
4245.83, 0.474907
4249.31, 0.474718
4252.79, 0.474593
4256.28, 0.474089
4259.78, 0.473334
4263.29, 0.472641
4266.79, 0.471949
4270.31, 0.471382
4273.83, 0.470815
4277.35, 0.470375
4280.89, 0.469997
4284.42, 0.469556
4287.97, 0.468990
4291.52, 0.468612
4295.07, 0.468109
4298.63, 0.467794
4302.2, 0.467353
4305.78, 0.466975
4309.35, 0.466535
4312.94, 0.466094
4316.53, 0.465716
4320.13, 0.465465
4323.73, 0.465024
4327.34, 0.464457
4330.96, 0.463954
4334.58, 0.463576
4338.21, 0.462884
4341.84, 0.462380
4345.48, 0.462065
4349.12, 0.461625
4352.77, 0.461121
4356.43, 0.460554
4360.1, 0.459988
4363.76, 0.459547
4367.44, 0.459043
4371.12, 0.458540
4374.81, 0.457910
4378.51, 0.457407
4382.21, 0.456966
4385.92, 0.456462
4389.63, 0.455833
4393.35, 0.455203
4397.08, 0.454637
4400.81, 0.454070
4404.55, 0.453693
4408.29, 0.453063
4412.04, 0.452497
4415.8, 0.451930
4419.57, 0.451300
4423.34, 0.450671
4427.12, 0.450041
4430.9, 0.449601
4434.69, 0.449034
4438.49, 0.448342
4442.29, 0.447712
4446.1, 0.447146
4449.92, 0.446642
4453.74, 0.446075
4457.57, 0.445257
4461.41, 0.444753
4465.25, 0.444250
4469.1, 0.443620
4472.95, 0.442865
4476.82, 0.442235
4480.69, 0.441669
4484.56, 0.441102
4488.44, 0.440347
4492.33, 0.439654
4496.23, 0.438836
4500.13, 0.438269
4504.04, 0.437703
4507.96, 0.437010
4511.88, 0.436255
4515.81, 0.435625
4519.75, 0.434807
4523.69, 0.434115
4527.65, 0.433233
4531.6, 0.432478
4535.57, 0.431785
4539.54, 0.431093
4543.52, 0.430275
4547.5, 0.429645
4551.5, 0.428953
4555.5, 0.428134
4559.5, 0.427505
4563.52, 0.426938
4567.54, 0.426309
4571.56, 0.425679
4575.6, 0.424987
4579.64, 0.424357
4583.69, 0.423665
4587.75, 0.423035
4591.81, 0.422343
4595.88, 0.421587
4599.96, 0.420832
4604.04, 0.420202
4608.14, 0.419447
4612.24, 0.418629
4616.34, 0.417810
4620.46, 0.416992
4624.58, 0.416236
4628.71, 0.415481
4632.84, 0.414788
4636.99, 0.414222
4641.14, 0.413466
4645.3, 0.412711
4649.47, 0.412019
4653.64, 0.411326
4657.82, 0.410634
4662.01, 0.409941
4666.21, 0.409249
4670.41, 0.408556
4674.62, 0.407864
4678.84, 0.407108
4683.07, 0.406353
4687.3, 0.405598
4691.54, 0.404779
4695.79, 0.403961
4700.05, 0.403205
4704.31, 0.402450
4708.59, 0.401569
4712.87, 0.400813
4717.15, 0.399995
4721.45, 0.399176
4725.76, 0.398295
4730.07, 0.397477
4734.39, 0.396595
4738.72, 0.395714
4743.05, 0.394770
4747.39, 0.393826
4751.75, 0.392692
4756.1, 0.391685
4760.47, 0.390741
4764.85, 0.389734
4769.23, 0.388601
4773.62, 0.387467
4778.02, 0.386397
4782.43, 0.385390
4786.85, 0.384194
4791.27, 0.383124
4795.7, 0.381928
4800.14, 0.380795
4804.59, 0.379724
4809.05, 0.378780
4813.51, 0.377836
4817.99, 0.377080
4822.47, 0.376199
4826.96, 0.375444
4831.46, 0.374751
4835.96, 0.374185
4840.48, 0.373492
4845.0, 0.372800
4849.54, 0.372107
4854.08, 0.371478
4858.63, 0.370659
4863.18, 0.369841
4867.75, 0.369086
4872.33, 0.368330
4876.91, 0.367449
4881.5, 0.366756
4886.1, 0.366064
4890.71, 0.365308
4895.33, 0.364490
4899.96, 0.363609
4904.59, 0.362539
4909.24, 0.361657
4913.89, 0.360650
4918.55, 0.359454
4923.22, 0.358258
4927.9, 0.357125
4932.59, 0.355866
4937.29, 0.354733
4942.0, 0.353474
4946.71, 0.352152
4951.44, 0.350767
4956.17, 0.349445
4960.91, 0.347997
4965.67, 0.346549
4970.43, 0.345227
4975.2, 0.343905
4979.98, 0.342583
4984.76, 0.341324
4989.56, 0.340065
4994.37, 0.338680
4999.18, 0.337232
5004.01, 0.335784
5008.84, 0.334084
5013.69, 0.332322
5018.54, 0.330559
5023.4, 0.328734
5028.28, 0.326593
5033.16, 0.324579
5038.05, 0.322438
5042.95, 0.320172
5047.86, 0.317591
5052.78, 0.314758
5057.71, 0.311862
5062.65, 0.308904
5067.6, 0.305819
5072.56, 0.302609
5077.53, 0.299335
5082.5, 0.296125
5087.49, 0.292851
5092.49, 0.289641
5097.5, 0.286430
5102.51, 0.283345
5107.54, 0.280450
5112.58, 0.277617
5117.62, 0.274847
5122.68, 0.272140
5127.75, 0.269370
5132.82, 0.266789
5137.91, 0.264271
5143.01, 0.261690
5148.12, 0.259235
5153.23, 0.256843
5158.36, 0.254577
5163.5, 0.252436
5168.65, 0.250422
5173.81, 0.248470
5178.98, 0.246582
5184.15, 0.244504
5189.34, 0.242490
5194.54, 0.240664
5199.75, 0.238964
5204.98, 0.237013
5210.21, 0.235250
5215.45, 0.233425
5220.7, 0.231473
5225.96, 0.229648
5231.23, 0.227885
5236.52, 0.226374
5241.81, 0.225052
5247.12, 0.223604
5252.44, 0.222282
5257.76, 0.221149
5263.1, 0.220142
5268.45, 0.219261
5273.81, 0.218505
5279.18, 0.218002
5284.56, 0.217624
5289.95, 0.217561
5295.36, 0.217498
5300.77, 0.217309
5306.2, 0.217372
5311.63, 0.217498
5317.08, 0.217687
5322.54, 0.217876
5328.01, 0.218065
5333.49, 0.218002
5338.98, 0.217813
5344.49, 0.217561
5350.0, 0.217183
5355.53, 0.216050
5361.07, 0.214539
5366.62, 0.212965
5372.18, 0.211203
5377.75, 0.209314
5383.34, 0.207300
5388.93, 0.205222
5394.54, 0.203271
5400.16, 0.201508
5405.79, 0.200123
5411.44, 0.198675
5417.09, 0.197542
5422.76, 0.196661
5428.43, 0.195024
5434.12, 0.193513
5439.83, 0.192254
5445.54, 0.190806
5451.26, 0.189170
5457.0, 0.187407
5462.75, 0.185896
5468.52, 0.183882
5474.29, 0.181867
5480.08, 0.180168
5485.88, 0.178216
5491.69, 0.176579
5497.51, 0.175446
5503.35, 0.174565
5509.2, 0.173935
5515.06, 0.173369
5520.93, 0.173117
5526.82, 0.172865
5532.71, 0.172550
5538.63, 0.172362
5544.55, 0.172299
5550.49, 0.172173
5556.44, 0.171921
5562.4, 0.171417
5568.37, 0.170977
5574.36, 0.170851
5580.36, 0.170536
5586.37, 0.169466
5592.4, 0.168522
5598.44, 0.167766
5604.49, 0.167200
5610.56, 0.166507
5616.63, 0.166129
5622.73, 0.165563
5628.83, 0.165248
5634.95, 0.165248
5641.08, 0.165500
5647.23, 0.165374
5653.39, 0.165311
5659.56, 0.165374
5665.74, 0.165563
5671.94, 0.166381
5678.15, 0.167200
5684.38, 0.167892
5690.62, 0.169277
5696.87, 0.170662
5703.14, 0.172110
5709.42, 0.174061
5715.72, 0.175887
5722.03, 0.177398
5728.35, 0.179035
5734.69, 0.180860
5741.03, 0.183063
5747.4, 0.185456
5753.78, 0.187722
5760.17, 0.190303
5766.58, 0.194080
5773.0, 0.196598
5779.44, 0.199242
5785.88, 0.202327
5792.35, 0.205789
5798.83, 0.209629
5805.32, 0.213532
5811.83, 0.217435
5818.35, 0.222156
5824.89, 0.226563
5831.45, 0.229836
5838.01, 0.232984
5844.59, 0.236195
5851.19, 0.239405
5857.8, 0.242616
5864.43, 0.245449
5871.07, 0.247589
5877.73, 0.250674
5884.4, 0.252688
5891.09, 0.253317
5897.79, 0.254954
5904.5, 0.254954
5911.23, 0.255206
5917.98, 0.255836
5924.75, 0.256276
5931.53, 0.257598
5938.32, 0.258794
5945.13, 0.257850
5951.96, 0.257346
5958.8, 0.257095
5965.65, 0.257346
5972.53, 0.257283
5979.42, 0.256843
5986.32, 0.257158
5993.24, 0.256717
6000.18, 0.255521
6007.13, 0.255080
6014.1, 0.255017
6021.08, 0.254136
6028.09, 0.253317
6035.1, 0.252751
6042.14, 0.253317
6049.19, 0.254325
6056.25, 0.252310
6063.34, 0.250611
6070.44, 0.250674
6077.55, 0.249918
6084.69, 0.248659
6091.84, 0.247778
6099.0, 0.247337
6106.19, 0.247274
6113.39, 0.247652
6120.61, 0.246582
6127.84, 0.245574
6135.09, 0.245071
6142.36, 0.244882
6149.65, 0.244567
6156.95, 0.244693
6164.27, 0.244315
6171.61, 0.243623
6178.97, 0.243749
6186.34, 0.244127
6193.73, 0.243119
6201.14, 0.242364
6208.57, 0.242049
6216.01, 0.241608
6223.47, 0.241042
6230.95, 0.240475
6238.45, 0.239909
6245.97, 0.239405
6253.5, 0.238650
6261.06, 0.237831
6268.63, 0.236950
6276.21, 0.235943
6283.82, 0.234936
6291.45, 0.233928
6299.1, 0.232669
6306.76, 0.231536
6314.44, 0.230277
6322.14, 0.229144
6329.86, 0.227885
6337.6, 0.227130
6345.35, 0.226311
6353.13, 0.224297
6360.92, 0.222597
6368.74, 0.221590
6376.57, 0.220016
6384.43, 0.218442
6392.3, 0.216931
6400.19, 0.215735
6408.1, 0.215861
6416.03, 0.215421
6423.98, 0.213028
6431.95, 0.211392
6439.94, 0.209818
6447.95, 0.208748
6455.98, 0.207929
6464.03, 0.207048
6472.1, 0.206544
6480.19, 0.206230
6488.31, 0.206167
6496.44, 0.205663
6504.59, 0.203775
6512.76, 0.202704
6520.95, 0.202201
6529.16, 0.200942
6537.4, 0.199934
6545.65, 0.199116
6553.92, 0.198046
6562.22, 0.196913
6570.54, 0.196157
6578.88, 0.194521
6587.23, 0.192632
6595.61, 0.191121
6604.02, 0.189359
6612.44, 0.187911
6620.89, 0.186337
6629.35, 0.185644
6637.84, 0.185015
6646.35, 0.183063
6654.88, 0.181238
6663.44, 0.180357
6672.01, 0.179664
6680.61, 0.179097
6689.23, 0.178090
6697.88, 0.177209
6706.54, 0.176894
6715.23, 0.176454
6723.94, 0.175572
6732.67, 0.174628
6741.42, 0.173810
6750.2, 0.173180
6759.0, 0.172362
6767.82, 0.171858
6776.67, 0.171480
6785.54, 0.171354
6794.44, 0.170977
6803.35, 0.170347
6812.29, 0.170032
6821.26, 0.170158
6830.24, 0.170284
6839.25, 0.170158
6848.29, 0.170347
6857.35, 0.171354
6866.43, 0.171921
6875.54, 0.171354
6884.67, 0.171354
6893.82, 0.171543
6903.0, 0.171984
6912.2, 0.172362
6921.43, 0.172425
6930.69, 0.172488
6939.96, 0.172488
6949.27, 0.172676
6958.59, 0.172928
6967.95, 0.172362
6977.33, 0.171606
6986.73, 0.170977
6996.16, 0.170095
7005.61, 0.168899
7015.09, 0.167703
7024.6, 0.166318
7034.13, 0.164933
7043.69, 0.163926
7053.27, 0.162289
7062.88, 0.160401
7072.52, 0.158827
7082.18, 0.157379
7091.87, 0.155868
7101.58, 0.154483
7111.32, 0.153287
7121.09, 0.152091
7130.88, 0.150769
7140.71, 0.149636
7150.56, 0.148503
7160.43, 0.147181
7170.33, 0.145796
7180.27, 0.144348
7190.23, 0.143026
7200.21, 0.142082
7210.23, 0.141138
7220.27, 0.140067
7230.34, 0.139312
7240.44, 0.138682
7250.56, 0.138053
7260.72, 0.137801
7270.9, 0.137738
7281.12, 0.137675
7291.36, 0.137486
7301.63, 0.137612
7311.93, 0.137738
7322.25, 0.137927
7332.61, 0.138242
7343.0, 0.138431
7353.41, 0.138494
7363.86, 0.138620
7374.33, 0.138745
7384.83, 0.138808
7395.37, 0.138871
7405.93, 0.138934
7416.53, 0.138808
7427.15, 0.138682
7437.81, 0.138431
7448.5, 0.138368
7459.22, 0.138179
7469.96, 0.137864
7480.74, 0.137612
7491.55, 0.137423
7502.39, 0.137046
7513.27, 0.136794
7524.17, 0.136542
7535.11, 0.136164
7546.08, 0.135850
7557.08, 0.135661
7568.11, 0.135472
7579.17, 0.135409
7590.27, 0.135283
7601.4, 0.135220
7612.56, 0.135094
7623.76, 0.134968
7634.98, 0.134842
7646.24, 0.134717
7657.54, 0.134465
7668.87, 0.134213
7680.23, 0.134024
7691.62, 0.133709
7703.05, 0.133017
7714.51, 0.132324
7726.01, 0.131632
7737.54, 0.130814
7749.11, 0.129680
7760.71, 0.128358
7772.35, 0.126973
7784.02, 0.125400
7795.72, 0.123700
7807.46, 0.121811
7819.23, 0.119923
7831.04, 0.118034
7842.89, 0.116083
7854.77, 0.114194
7866.69, 0.112432
7878.65, 0.110669
7890.64, 0.108718
7902.67, 0.106955
7914.74, 0.105066
7926.84, 0.103052
7938.98, 0.101037
7951.16, 0.0992120
7963.37, 0.0971970
7975.62, 0.0951200
7987.91, 0.0930430
8000.24, 0.0911540
8012.6, 0.0892650
8025.01, 0.0874400
8037.45, 0.0854880
8049.93, 0.0837260
8062.45, 0.0819000
8075.01, 0.0802630
8087.61, 0.0786900
8100.24, 0.0770530
8112.91, 0.0756050
8125.63, 0.0742830
8138.39, 0.0727090
8151.18, 0.0711350
8164.02, 0.0693100
8176.9, 0.0674840
8189.81, 0.0659100
8202.77, 0.0645250
8215.77, 0.0627630
8228.82, 0.0611260
8241.9, 0.0596150
8255.02, 0.0580410
8268.19, 0.0563420
8281.39, 0.0547680
8294.65, 0.0531310
8307.94, 0.0514320
8321.28, 0.0499210
8334.66, 0.0484730
8348.08, 0.0468990
8361.54, 0.0453880
8375.05, 0.0436880
8388.6, 0.0421150
8402.2, 0.0406670
8415.84, 0.0392820
8429.52, 0.0377710
8443.25, 0.0363230
8457.02, 0.0348120
8470.84, 0.0334900
8484.7, 0.0321050
8498.61, 0.0307830
8512.57, 0.0295870
8526.57, 0.0286430
8540.62, 0.0275730
8554.71, 0.0263770
8568.85, 0.0249920
8583.04, 0.0239850
8597.27, 0.0229770
8611.55, 0.0220330
8625.88, 0.0210890
8640.26, 0.0202070
8654.68, 0.0193260
8669.16, 0.0185710
8683.68, 0.0179410
8698.25, 0.0174380
8712.87, 0.0166190
8727.53, 0.0159270
8742.25, 0.0152340
8757.02, 0.0146680
8771.83, 0.0140380
8786.7, 0.0134720
8801.62, 0.0129050
8816.59, 0.0125900
8831.61, 0.0119610
8846.68, 0.0114570
8861.8, 0.0110170
8876.97, 0.0107020
8892.2, 0.0101980
8907.48, 0.00994600
8922.81, 0.00963200
8938.2, 0.00944300
8953.63, 0.00906500
8969.13, 0.00881300
8984.67, 0.00831000
9000.27, 0.00812100
9015.92, 0.00786900
9031.63, 0.00761700
9047.39, 0.00749100
9063.21, 0.00768000
9079.08, 0.00786900
9095.01, 0.00805800
9111.0, 0.00805800
9127.04, 0.00831000
9143.13, 0.00856100
9159.28, 0.00900200
9175.49, 0.00925400
9191.76, 0.00975800
9208.09, 0.0106390
9224.47, 0.0122760
9240.92, 0.0141010
9257.42, 0.0163040
9273.98, 0.0188230
9290.6, 0.0220330
9307.28, 0.0258100
9324.02, 0.0302800
9340.82, 0.0348750
9357.68, 0.0397850
9374.6, 0.0453250
9391.58, 0.0516830
9408.62, 0.0586080
9425.73, 0.0662880
9442.9, 0.0744720
9460.13, 0.0829070
9477.42, 0.0915320
9494.78, 0.100345
9512.2, 0.109221
9529.69, 0.118223
9547.24, 0.127225
9564.86, 0.136227
9582.54, 0.145418
9600.28, 0.155239
9618.1, 0.165248
9635.97, 0.174817
9653.92, 0.184071
9671.93, 0.192632
9690.01, 0.199620
9708.16, 0.205474
9726.37, 0.210321
9744.65, 0.213973
9763.0, 0.216806
9781.43, 0.218946
9799.92, 0.220520
9818.48, 0.221842
9837.1, 0.223164
9855.8, 0.224800
9874.58, 0.226626
9893.42, 0.228577
9912.34, 0.230403
9931.33, 0.232292
9950.39, 0.234054
9969.52, 0.235250
9988.74, 0.236069
10008.0, 0.236572
10027.4, 0.236824
10046.8, 0.237013
10066.3, 0.236824
10085.9, 0.236446
10105.6, 0.236132
10125.3, 0.235250
10145.1, 0.234054
10165.0, 0.232543
10185.0, 0.230529
10205.0, 0.228074
10225.2, 0.225052
10245.4, 0.221527
10265.7, 0.217498
10286.0, 0.212336
10306.5, 0.206041
10327.0, 0.198612
10347.6, 0.189359
10368.3, 0.178216
10389.1, 0.164241
10409.9, 0.147936
10430.9, 0.130751
10451.9, 0.114005
10473.0, 0.0990860
10494.2, 0.0861180
10515.5, 0.0749120
10536.9, 0.0654070
10558.4, 0.0567820
10579.9, 0.0490390
10601.5, 0.0424920
10623.3, 0.0373930
10645.1, 0.0340570
10667.0, 0.0338050
10689.0, 0.0367640
10711.1, 0.0443180
10733.2, 0.0563420
10755.5, 0.0723940
10777.9, 0.0911540
10800.3, 0.110039
10822.9, 0.127036
10845.5, 0.141956
10868.2, 0.154483
10891.1, 0.164178
10914.0, 0.171354
10937.0, 0.176705
10960.2, 0.180608
10983.4, 0.183315
11006.7, 0.185078
11030.1, 0.185644
11053.6, 0.184322
11077.3, 0.181112
11101.0, 0.176013
11124.8, 0.168207
11148.7, 0.157568
11172.7, 0.145418
11196.9, 0.133898
11221.1, 0.125903
11245.4, 0.123952
11269.9, 0.128673
11294.4, 0.138305
11319.1, 0.149510
11343.9, 0.159708
11368.8, 0.167766
11393.7, 0.172991
11418.8, 0.175132
11444.0, 0.174439
11469.4, 0.170977
11494.8, 0.164933
11520.3, 0.157631
11546.0, 0.150077
11571.8, 0.142774
11597.7, 0.136039
11623.7, 0.130688
11649.8, 0.126092
11676.0, 0.122000
11702.4, 0.118664
11728.9, 0.115705
11755.5, 0.113376
11782.2, 0.111613
11809.0, 0.109599
11836.0, 0.108025
11863.0, 0.106766
11890.3, 0.105570
11917.6, 0.104626
11945.0, 0.104122
11972.6, 0.103493
12000.4, 0.102485
12028.2, 0.101919
12056.2, 0.101541
12084.3, 0.101100
12112.5, 0.100849
12140.9, 0.100408
12169.4, 0.100219
12198.0, 0.0999670
12226.8, 0.0997150
12255.7, 0.0994010
12284.7, 0.0993380
12313.9, 0.0992120
12343.2, 0.0991490
12372.7, 0.0991490
12402.3, 0.0990860
12432.0, 0.0988970
12461.9, 0.0986450
12491.9, 0.0982680
12522.1, 0.0977640
12552.4, 0.0971970
12582.9, 0.0966940
12613.5, 0.0963160
12644.3, 0.0960010
12675.2, 0.0956240
12706.3, 0.0953720
12737.5, 0.0951200
12768.9, 0.0946790
12800.4, 0.0944900
12832.1, 0.0939240
12863.9, 0.0929800
12895.9, 0.0923500
12928.1, 0.0916580
12960.4, 0.0909650
12992.9, 0.0903360
13025.5, 0.0894540
13058.3, 0.0880060
13091.3, 0.0871880
13124.4, 0.0866840
13157.8, 0.0861810
13191.2, 0.0854250
13224.9, 0.0846070
13258.7, 0.0840400
13292.7, 0.0838520
13326.9, 0.0834740
13361.2, 0.0830330
13395.7, 0.0829070
13430.4, 0.0825930
13465.3, 0.0822780
13500.4, 0.0821520
13535.7, 0.0817740
13571.1, 0.0813340
13606.7, 0.0807040
13642.5, 0.0800750
13678.5, 0.0792560
13714.7, 0.0786270
13751.1, 0.0776820
13787.6, 0.0764860
13824.4, 0.0756680
13861.4, 0.0752270
13898.5, 0.0746610
13935.9, 0.0741570
13973.5, 0.0733390
14011.2, 0.0727720
14049.2, 0.0722690
14087.4, 0.0713870
14125.8, 0.0703170
14164.3, 0.0694990
14203.2, 0.0683650
14242.2, 0.0670440
14281.4, 0.0662250
14320.9, 0.0654070
14360.5, 0.0640220
14400.4, 0.0626370
14440.5, 0.0609370
14480.9, 0.0593000
14521.4, 0.0579780
14562.2, 0.0564680
14603.3, 0.0544530
14644.5, 0.0530050
14686.0, 0.0516830
14727.7, 0.0499840
14769.7, 0.0479690
14811.9, 0.0460810
14854.3, 0.0443810
14897.0, 0.0427440
14939.9, 0.0409190
14983.1, 0.0390300
15026.5, 0.0369530
15070.2, 0.0348750
15114.2, 0.0327980
15158.3, 0.0307200
15202.8, 0.0287690
15247.5, 0.0268170
15292.5, 0.0249920
15337.7, 0.0232290
15383.2, 0.0217180
15429.0, 0.0200190
15475.1, 0.0191370
15521.4, 0.0190740
15568.0, 0.0187600
15614.9, 0.0188230
15662.1, 0.0186340
15709.6, 0.0178780
15757.3, 0.0173120
15805.4, 0.0162420
15853.7, 0.0148570
15902.3, 0.0146050
15951.2, 0.0142900
16000.5, 0.0146050
16050.0, 0.0152970
16099.8, 0.0161790
16150.0, 0.0173750
16200.5, 0.0193260
16251.3, 0.0226000
16302.4, 0.0278880
16353.8, 0.0350010
16405.5, 0.0441290
16457.6, 0.0542640
16510.0, 0.0666660
16562.8, 0.0806410
16615.9, 0.0948050
16669.3, 0.107710
16723.1, 0.118790
16777.2, 0.128358
16831.7, 0.137172
16886.5, 0.144663
16941.7, 0.150517
16997.2, 0.155113
17053.1, 0.157631
17109.4, 0.159645
17166.1, 0.160590
17223.1, 0.160086
17280.5, 0.158198
17338.3, 0.155176
17396.5, 0.151525
17455.1, 0.145670
17514.0, 0.137486
17573.4, 0.128170
17633.2, 0.117153
17693.4, 0.104311
17754.0, 0.0905240
17815.0, 0.0779970
17876.4, 0.0669180
17938.3, 0.0567190
18000.5, 0.0481580
18063.3, 0.0406670
18126.4, 0.0344350
18190.0, 0.0292730
18254.1, 0.0263770
18318.6, 0.0273210
18383.5, 0.0338680
18449.0, 0.0459550
18514.9, 0.0638330
18581.2, 0.0845440
18648.0, 0.102485
18715.4, 0.114194
18783.2, 0.119167
18851.5, 0.116901
18920.3, 0.111424
18989.6, 0.105192
19059.4, 0.102674
19129.7, 0.107458
19200.6, 0.120175
19272.0, 0.139564
19343.9, 0.162352
19416.3, 0.181616
19489.3, 0.197102
19562.8, 0.208055
19637.0, 0.216428
19711.6, 0.222534
19786.8, 0.227255
19862.6, 0.231033
19939.0, 0.233236
20016.0, 0.233740
20093.6, 0.234054
20171.8, 0.234747
20250.6, 0.235376
20330.0, 0.235061
20410.0, 0.234117
20490.7, 0.233362
20572.0, 0.233614
20654.0, 0.234558
20736.6, 0.235817
20819.9, 0.233991
20903.8, 0.231599
20988.5, 0.230403
21073.8, 0.227444
21159.8, 0.222282
21246.5, 0.214224
21334.0, 0.201445
21422.1, 0.184134
21511.0, 0.166066
21600.7, 0.156498
21691.0, 0.160841
21782.1, 0.176768
21874.0, 0.194709
21966.7, 0.208055
22060.2, 0.215924
22154.5, 0.220268
22249.6, 0.221212
22345.5, 0.217120
22442.2, 0.207552
22539.8, 0.192467
22638.2, 0.178127
22737.5, 0.166945
22837.7, 0.158789
22938.7, 0.149777
23040.7, 0.141620
23143.5, 0.133201
23247.3, 0.127478
23352.1, 0.123400
23457.7, 0.118138
23564.4, 0.113862
23672.0, 0.109586
23780.5, 0.104916
23890.1, 0.0984700
24000.7, 0.0937340
24112.3, 0.0903130
24225.0, 0.0862350
24338.7, 0.0815650
24453.5, 0.0776180
24569.4, 0.0731450
24686.4, 0.0684090
24804.5, 0.0613710
24923.8, 0.0557140
25044.2, 0.0517670
25165.8, 0.0505180
25288.6, 0.0531490
25412.5, 0.0626210
25537.7, 0.0774210
25664.1, 0.0957730
25791.8, 0.114651
25920.8, 0.130767
26051.1, 0.144449
26182.6, 0.157473
26315.5, 0.168590
26449.8, 0.172668
26585.4, 0.170958
26722.5, 0.164709
26860.9, 0.157407
27000.8, 0.147014
27142.1, 0.137608
27285.0, 0.129715
27429.4, 0.123400
27575.3, 0.118730
27722.7, 0.112152
27871.8, 0.106824
28022.4, 0.101956
28174.7, 0.0968910
28328.7, 0.0895240
28484.4, 0.0821570
28641.7, 0.0782100
28800.9, 0.0796570
28961.8, 0.0851830
29124.5, 0.0943260
29289.0, 0.102943
29455.4, 0.105574
29623.8, 0.103206
29794.0, 0.0992590
29966.3, 0.0935370
30140.5, 0.0897870
30316.7, 0.0918260
30495.1, 0.0936020
30675.5, 0.0972860
30858.1, 0.102943
31042.8, 0.108600
31229.8, 0.111691
31419.1, 0.109850
31610.7, 0.108797
31804.6, 0.109915
32000.9, 0.112218
32199.7, 0.112481
32400.9, 0.113994
32604.8, 0.114257
32811.1, 0.112086
33020.1, 0.110836
33231.8, 0.113270
33446.2, 0.116164
33663.4, 0.118203
33883.4, 0.118401
34106.3, 0.118203
34332.1, 0.119256
34561.0, 0.120966
34792.9, 0.122742
35028.0, 0.123268
35266.3, 0.120637
35507.8, 0.120045
35752.7, 0.118664
36001.0, 0.117875
36252.8, 0.117743
36508.1, 0.117019
36767.0, 0.114915
37029.7, 0.112218
37296.1, 0.109258
37566.3, 0.104916
37840.5, 0.100772
38118.8, 0.0959050
38401.2, 0.0922870
38687.8, 0.0863010
38978.6, 0.0790650
39273.9, 0.0719610
39573.7, 0.0680800
39878.1, 0.0645280
40187.3, 0.0597270
40501.2, 0.0567010
40820.0, 0.0568980
41144.0, 0.0595290
41473.2, 0.0642650
41807.6, 0.0699880
42147.5, 0.0731450
42493.0, 0.0745920
42844.2, 0.0779470
43201.2, 0.0810390
43564.3, 0.0786050
43933.5, 0.0746580
44309.0, 0.0724880
44691.0, 0.0704480
45079.6, 0.0680150
45475.0, 0.0678170
45877.5, 0.0665680
46287.1, 0.0616340
46704.2, 0.0563060
47128.7, 0.0536750
47561.1, 0.0501890
48001.5, 0.0509780
48450.1, 0.0578190
48907.2, 0.0675540
49373.0, 0.0764340
49847.7, 0.0904450
50331.5, 0.0980750
50825.0, 0.0965620
51328.2, 0.0931420
51841.5, 0.0951150
52365.1, 0.0957070
52899.4, 0.0916950
53444.8, 0.0870900
54001.5, 0.0866300
54570.1, 0.0817620
55150.6, 0.0776840
55743.6, 0.0787360
56349.5, 0.0792630
56968.7, 0.0734080
57601.7, 0.0663700
58248.9, 0.0606470
58910.9, 0.0588710
59588.1, 0.0526880
60281.0, 0.0460450
60990.2, 0.0489390
61716.3, 0.0569640
62459.8, 0.0611740
63221.6, 0.0706460
64002.1, 0.0709750
64802.1, 0.0709090
65622.1, 0.0684750
66463.4, 0.0592000
67326.6, 0.0642650
68212.4, 0.0808410
69121.9, 0.100378
70056.0, 0.118664
71015.7, 0.129254
72002.0, 0.139187
73016.3, 0.149645
74059.4, 0.152079
75132.7, 0.142081
76237.6, 0.136029
77375.5, 0.130504
78547.9, 0.119124
79756.3, 0.116756
81002.5, 0.114849
82288.5, 0.104061
83615.7, 0.104785
84986.5, 0.119848
86402.9, 0.131885
87867.4, 0.132543
89382.4, 0.134451
90950.5, 0.136227
92574.6, 0.134122
94257.2, 0.136621
96002.7, 0.139844
97814.1, 0.142147
99695.1, 0.145567
101650.0, 0.150829
103683.0, 0.153526
105799.0, 0.160236
108003.0, 0.165498
110301.0, 0.163985
112699.0, 0.162867
115204.0, 0.167866
117822.0, 0.171484
120562.0, 0.175299
123433.0, 0.186152
126443.0, 0.193388
129604.0, 0.197598
132926.0, 0.192796
136424.0, 0.196348
140111.0, 0.211016
144003.0, 0.221936
148118.0, 0.222199
152474.0, 0.225488
157095.0, 0.232394
162004.0, 0.250286
167231.0, 0.245287
172805.0, 0.251339
178764.0, 0.275019
185148.0, 0.293173
192005.0, 0.311854
199390.0, 0.413613
207366.0, 0.388091
216006.0, 0.336653
