Database of Origin, USGS Spectral Database
Sample Description, See USGS database for additional info
Date Added,2016-08-03 21:21:43.275575

Data ID,USGS_chl14          
Sample ID, chlorite_smr13.4999
Mineral Name, chlorite
Material Class,Phyllosilicate

Wavelength
1379.5, 0.508554
1379.87, 0.507101
1380.23, 0.504572
1380.6, 0.503819
1380.97, 0.505864
1381.34, 0.506455
1381.7, 0.505917
1382.07, 0.503873
1382.44, 0.501613
1382.81, 0.501882
1383.18, 0.502420
1383.55, 0.501398
1383.92, 0.500429
1384.29, 0.498654
1384.66, 0.495749
1385.03, 0.493112
1385.4, 0.490745
1385.77, 0.487893
1386.14, 0.484719
1386.51, 0.481921
1386.88, 0.478854
1387.25, 0.474926
1387.62, 0.470622
1387.99, 0.468147
1388.36, 0.467071
1388.74, 0.465134
1389.11, 0.463843
1389.48, 0.462552
1389.85, 0.461529
1390.23, 0.461475
1390.6, 0.461422
1390.97, 0.462013
1391.35, 0.462552
1391.72, 0.462283
1392.09, 0.461960
1392.47, 0.463305
1392.84, 0.465457
1393.21, 0.466533
1393.59, 0.467555
1393.96, 0.469223
1394.34, 0.470245
1394.71, 0.470299
1395.09, 0.471537
1395.46, 0.472398
1395.84, 0.472989
1396.22, 0.474173
1396.59, 0.476110
1396.97, 0.477617
1397.35, 0.478639
1397.72, 0.480092
1398.1, 0.481383
1398.48, 0.482298
1398.85, 0.482513
1399.23, 0.483320
1399.61, 0.483965
1399.99, 0.483858
1400.37, 0.483589
1400.74, 0.484342
1401.12, 0.485472
1401.5, 0.485741
1401.88, 0.486225
1402.26, 0.486494
1402.64, 0.486979
1403.02, 0.486387
1403.4, 0.485902
1403.78, 0.486064
1404.16, 0.485849
1404.54, 0.484611
1404.92, 0.484826
1405.3, 0.486010
1405.68, 0.486118
1406.06, 0.486010
1406.44, 0.485364
1406.83, 0.484342
1407.21, 0.484073
1407.59, 0.484342
1407.97, 0.484019
1408.35, 0.483535
1408.74, 0.483051
1409.12, 0.482136
1409.5, 0.481921
1409.89, 0.482244
1410.27, 0.482782
1410.65, 0.482943
1411.04, 0.482405
1411.42, 0.482136
1411.81, 0.481975
1412.19, 0.481813
1412.58, 0.481867
1412.96, 0.482029
1413.35, 0.482082
1413.73, 0.481544
1414.12, 0.481706
1414.5, 0.482728
1414.89, 0.483158
1415.28, 0.482728
1415.66, 0.482889
1416.05, 0.482997
1416.44, 0.483158
1416.82, 0.483374
1417.21, 0.483696
1417.6, 0.483804
1417.98, 0.483481
1418.37, 0.483374
1418.76, 0.483427
1419.15, 0.483374
1419.54, 0.483750
1419.93, 0.483965
1420.32, 0.483965
1420.71, 0.484019
1421.09, 0.483804
1421.48, 0.483804
1421.88, 0.483804
1422.27, 0.483643
1422.66, 0.483427
1423.05, 0.483481
1423.44, 0.483105
1423.83, 0.482997
1424.22, 0.483105
1424.61, 0.483481
1425.0, 0.483535
1425.39, 0.482889
1425.78, 0.482513
1426.18, 0.482782
1426.57, 0.482836
1426.96, 0.482567
1427.36, 0.482190
1427.75, 0.481975
1428.14, 0.481921
1428.54, 0.481652
1428.93, 0.481437
1429.32, 0.481759
1429.72, 0.481652
1430.11, 0.481544
1430.51, 0.481275
1430.9, 0.480845
1431.3, 0.480576
1431.69, 0.480576
1432.09, 0.480683
1432.48, 0.480522
1432.88, 0.480414
1433.28, 0.480576
1433.67, 0.480683
1434.07, 0.479876
1434.46, 0.479554
1434.86, 0.480145
1435.26, 0.480038
1435.66, 0.479984
1436.05, 0.480307
1436.45, 0.480468
1436.85, 0.480092
1437.25, 0.479769
1437.65, 0.479715
1438.05, 0.479823
1438.44, 0.479823
1438.84, 0.479823
1439.24, 0.479715
1439.64, 0.479338
1440.04, 0.479392
1440.44, 0.479554
1440.84, 0.479607
1441.24, 0.479661
1441.65, 0.479446
1442.05, 0.479177
1442.45, 0.479123
1442.85, 0.479392
1443.25, 0.479876
1443.65, 0.479930
1444.05, 0.480092
1444.46, 0.480199
1444.86, 0.480145
1445.26, 0.479876
1445.67, 0.480038
1446.07, 0.480630
1446.47, 0.481060
1446.88, 0.480899
1447.28, 0.480737
1447.68, 0.481114
1448.09, 0.481168
1448.49, 0.481006
1448.9, 0.480899
1449.3, 0.480899
1449.71, 0.481114
1450.11, 0.481329
1450.52, 0.481221
1450.93, 0.481437
1451.33, 0.481329
1451.74, 0.481544
1452.14, 0.481921
1452.55, 0.482298
1452.96, 0.482190
1453.36, 0.482405
1453.77, 0.482567
1454.18, 0.482728
1454.59, 0.482674
1455.0, 0.482459
1455.41, 0.482674
1455.81, 0.483320
1456.22, 0.483266
1456.63, 0.483374
1457.04, 0.483481
1457.45, 0.483643
1457.86, 0.483858
1458.27, 0.484127
1458.68, 0.484396
1459.09, 0.484557
1459.5, 0.484450
1459.91, 0.484611
1460.32, 0.484826
1460.74, 0.485149
1461.15, 0.485364
1461.56, 0.485418
1461.97, 0.485580
1462.39, 0.485418
1462.8, 0.485526
1463.21, 0.485902
1463.62, 0.486064
1464.04, 0.486225
1464.45, 0.486171
1464.86, 0.486279
1465.28, 0.486333
1465.69, 0.486817
1466.11, 0.486871
1466.52, 0.486763
1466.94, 0.486763
1467.35, 0.487355
1467.77, 0.487409
1468.18, 0.487570
1468.6, 0.487678
1469.02, 0.487678
1469.43, 0.487839
1469.85, 0.487893
1470.27, 0.488055
1470.68, 0.488055
1471.1, 0.488324
1471.52, 0.488593
1471.94, 0.488754
1472.35, 0.488593
1472.77, 0.488862
1473.19, 0.489238
1473.61, 0.489184
1474.03, 0.489346
1474.45, 0.489830
1474.87, 0.489992
1475.29, 0.490207
1475.71, 0.490476
1476.13, 0.490368
1476.55, 0.490530
1476.97, 0.490583
1477.39, 0.490745
1477.81, 0.490906
1478.23, 0.491014
1478.65, 0.491068
1479.07, 0.491229
1479.5, 0.491390
1479.92, 0.491498
1480.34, 0.491875
1480.76, 0.492090
1481.19, 0.491875
1481.61, 0.492144
1482.03, 0.492251
1482.46, 0.492628
1482.88, 0.492736
1483.31, 0.492897
1483.73, 0.492897
1484.16, 0.493220
1484.58, 0.493596
1485.01, 0.493758
1485.43, 0.493865
1485.86, 0.493812
1486.28, 0.494242
1486.71, 0.494726
1487.14, 0.494780
1487.56, 0.494350
1487.99, 0.494619
1488.42, 0.495103
1488.84, 0.495372
1489.27, 0.495210
1489.7, 0.495210
1490.13, 0.495695
1490.56, 0.495910
1490.98, 0.496018
1491.41, 0.495910
1491.84, 0.495856
1492.27, 0.496448
1492.7, 0.496609
1493.13, 0.496825
1493.56, 0.496609
1493.99, 0.496394
1494.42, 0.496771
1494.85, 0.497094
1495.29, 0.497094
1495.72, 0.497255
1496.15, 0.497363
1496.58, 0.497578
1497.01, 0.498170
1497.44, 0.498170
1497.88, 0.498170
1498.31, 0.498116
1498.74, 0.498277
1499.18, 0.498439
1499.61, 0.498654
1500.04, 0.498869
1500.48, 0.499138
1500.91, 0.499246
1501.35, 0.499461
1501.78, 0.499461
1502.22, 0.499730
1502.65, 0.500053
1503.09, 0.500053
1503.53, 0.500053
1503.96, 0.500268
1504.4, 0.500591
1504.83, 0.500752
1505.27, 0.500483
1505.71, 0.500429
1506.15, 0.500860
1506.58, 0.501236
1507.02, 0.501452
1507.46, 0.501505
1507.9, 0.501936
1508.34, 0.502097
1508.78, 0.501882
1509.21, 0.502097
1509.66, 0.502205
1510.09, 0.502205
1510.53, 0.502420
1510.97, 0.502904
1511.42, 0.503066
1511.86, 0.502958
1512.3, 0.502797
1512.74, 0.503120
1513.18, 0.503335
1513.62, 0.503442
1514.06, 0.503496
1514.51, 0.503765
1514.95, 0.504249
1515.39, 0.504519
1515.83, 0.504572
1516.28, 0.504788
1516.72, 0.504734
1517.16, 0.504841
1517.61, 0.505218
1518.05, 0.505326
1518.5, 0.505326
1518.94, 0.505164
1519.39, 0.505326
1519.83, 0.505702
1520.28, 0.505917
1520.73, 0.506240
1521.17, 0.506402
1521.62, 0.506724
1522.07, 0.506724
1522.51, 0.506724
1522.96, 0.506724
1523.41, 0.506993
1523.85, 0.507155
1524.3, 0.507424
1524.75, 0.507908
1525.2, 0.508123
1525.65, 0.508339
1526.1, 0.508554
1526.55, 0.508285
1527.0, 0.508554
1527.45, 0.508877
1527.9, 0.509200
1528.35, 0.509361
1528.8, 0.509361
1529.25, 0.509522
1529.7, 0.509845
1530.15, 0.510007
1530.6, 0.510007
1531.05, 0.510329
1531.51, 0.510706
1531.96, 0.511083
1532.41, 0.510921
1532.87, 0.511405
1533.32, 0.511674
1533.77, 0.511728
1534.23, 0.512105
1534.68, 0.512374
1535.14, 0.512751
1535.59, 0.512912
1536.05, 0.512858
1536.5, 0.513181
1536.96, 0.513880
1537.41, 0.514096
1537.87, 0.514203
1538.32, 0.514418
1538.78, 0.514634
1539.24, 0.514956
1539.7, 0.515441
1540.15, 0.515602
1540.61, 0.515871
1541.07, 0.515817
1541.53, 0.516033
1541.98, 0.516355
1542.44, 0.516624
1542.9, 0.517001
1543.36, 0.517700
1543.82, 0.518077
1544.28, 0.518185
1544.74, 0.518454
1545.2, 0.518454
1545.66, 0.518615
1546.12, 0.518615
1546.59, 0.518938
1547.05, 0.519153
1547.51, 0.519584
1547.97, 0.519906
1548.43, 0.520176
1548.9, 0.520337
1549.36, 0.520929
1549.82, 0.521305
1550.29, 0.521628
1550.75, 0.521843
1551.21, 0.521951
1551.68, 0.522274
1552.14, 0.522543
1552.61, 0.522704
1553.07, 0.522973
1553.54, 0.523242
1554.0, 0.523565
1554.47, 0.523888
1554.93, 0.524157
1555.4, 0.524480
1555.87, 0.524749
1556.34, 0.524910
1556.8, 0.524910
1557.27, 0.525233
1557.74, 0.525717
1558.21, 0.526363
1558.68, 0.526686
1559.14, 0.526686
1559.61, 0.526955
1560.08, 0.527331
1560.55, 0.527493
1561.02, 0.527547
1561.49, 0.528031
1561.96, 0.528407
1562.43, 0.528569
1562.9, 0.528838
1563.38, 0.528999
1563.85, 0.529322
1564.32, 0.529753
1564.79, 0.530344
1565.26, 0.530452
1565.74, 0.530506
1566.21, 0.530775
1566.68, 0.530882
1567.16, 0.531098
1567.63, 0.531367
1568.1, 0.531743
1568.58, 0.532066
1569.05, 0.532443
1569.53, 0.532927
1570.0, 0.533304
1570.48, 0.533304
1570.96, 0.533411
1571.43, 0.533842
1571.91, 0.534218
1572.39, 0.534433
1572.86, 0.534487
1573.34, 0.534649
1573.82, 0.535187
1574.3, 0.535725
1574.77, 0.535940
1575.25, 0.536101
1575.73, 0.536532
1576.21, 0.536747
1576.69, 0.536855
1577.17, 0.537178
1577.65, 0.537500
1578.13, 0.537769
1578.61, 0.537716
1579.09, 0.538092
1579.57, 0.538576
1580.05, 0.539061
1580.54, 0.539437
1581.02, 0.539437
1581.5, 0.539599
1581.98, 0.540029
1582.47, 0.540137
1582.95, 0.540352
1583.43, 0.540729
1583.92, 0.541105
1584.4, 0.541536
1584.88, 0.541751
1585.37, 0.541805
1585.85, 0.542074
1586.34, 0.542450
1586.82, 0.542665
1587.31, 0.542934
1587.8, 0.543311
1588.28, 0.543688
1588.77, 0.543957
1589.26, 0.544226
1589.74, 0.544656
1590.23, 0.544871
1590.72, 0.545087
1591.21, 0.545248
1591.7, 0.545517
1592.19, 0.546055
1592.67, 0.546324
1593.16, 0.546486
1593.65, 0.546808
1594.14, 0.547346
1594.63, 0.547508
1595.12, 0.547615
1595.61, 0.548046
1596.11, 0.548369
1596.6, 0.548638
1597.09, 0.548961
1597.58, 0.549230
1598.08, 0.549498
1598.57, 0.549983
1599.06, 0.550144
1599.55, 0.550252
1600.05, 0.550521
1600.54, 0.550951
1601.04, 0.551328
1601.53, 0.551651
1602.03, 0.552189
1602.52, 0.552673
1603.02, 0.552942
1603.51, 0.553157
1604.01, 0.553372
1604.5, 0.553641
1605.0, 0.554287
1605.5, 0.554502
1606.0, 0.554502
1606.49, 0.555040
1606.99, 0.555471
1607.49, 0.555901
1607.99, 0.556009
1608.49, 0.556224
1608.99, 0.556385
1609.49, 0.556923
1609.99, 0.557300
1610.49, 0.557462
1610.99, 0.557677
1611.49, 0.558107
1611.99, 0.558807
1612.49, 0.558968
1612.99, 0.559237
1613.49, 0.559506
1614.0, 0.559883
1614.5, 0.560206
1615.0, 0.560636
1615.51, 0.561066
1616.01, 0.561120
1616.51, 0.561443
1617.02, 0.561766
1617.52, 0.561981
1618.03, 0.562465
1618.53, 0.562950
1619.04, 0.563165
1619.54, 0.563380
1620.05, 0.563488
1620.55, 0.563649
1621.06, 0.564241
1621.57, 0.564725
1622.08, 0.565048
1622.58, 0.565209
1623.09, 0.565317
1623.6, 0.565694
1624.11, 0.566178
1624.62, 0.566716
1625.13, 0.566877
1625.64, 0.567092
1626.15, 0.567200
1626.66, 0.567684
1627.17, 0.568007
1627.68, 0.568222
1628.19, 0.568384
1628.7, 0.568599
1629.21, 0.568653
1629.72, 0.568976
1630.24, 0.569621
1630.75, 0.569944
1631.26, 0.569998
1631.78, 0.570321
1632.29, 0.570697
1632.8, 0.571074
1633.32, 0.571235
1633.83, 0.571343
1634.35, 0.571666
1634.86, 0.572204
1635.38, 0.572527
1635.9, 0.572688
1636.41, 0.572742
1636.93, 0.572957
1637.45, 0.573226
1637.96, 0.573656
1638.48, 0.574033
1639.0, 0.574248
1639.52, 0.574464
1640.04, 0.574625
1640.56, 0.575109
1641.08, 0.575486
1641.59, 0.575647
1642.11, 0.575862
1642.63, 0.575862
1643.16, 0.575970
1643.68, 0.576293
1644.2, 0.576777
1644.72, 0.576992
1645.24, 0.577046
1645.76, 0.577261
1646.29, 0.577530
1646.81, 0.577799
1647.33, 0.578337
1647.86, 0.578768
1648.38, 0.579144
1648.9, 0.578929
1649.43, 0.579306
1649.95, 0.579629
1650.48, 0.579844
1651.0, 0.580167
1651.53, 0.580328
1652.06, 0.580543
1652.58, 0.580812
1653.11, 0.581135
1653.64, 0.581404
1654.17, 0.581727
1654.69, 0.582104
1655.22, 0.582265
1655.75, 0.582426
1656.28, 0.582480
1656.81, 0.582749
1657.34, 0.583234
1657.87, 0.583503
1658.4, 0.583879
1658.93, 0.584041
1659.46, 0.584310
1659.99, 0.584525
1660.52, 0.584740
1661.05, 0.585278
1661.59, 0.585440
1662.12, 0.585493
1662.65, 0.585709
1663.19, 0.585978
1663.72, 0.586139
1664.26, 0.586623
1664.79, 0.586785
1665.32, 0.587054
1665.86, 0.587376
1666.39, 0.588022
1666.93, 0.588184
1667.47, 0.588291
1668.0, 0.588560
1668.54, 0.588991
1669.08, 0.589044
1669.61, 0.589098
1670.15, 0.589475
1670.69, 0.589851
1671.23, 0.590228
1671.77, 0.590443
1672.31, 0.590658
1672.85, 0.590981
1673.39, 0.591358
1673.93, 0.591573
1674.47, 0.591735
1675.01, 0.592111
1675.55, 0.592273
1676.09, 0.592595
1676.64, 0.593241
1677.18, 0.593618
1677.72, 0.593833
1678.26, 0.593994
1678.81, 0.594210
1679.35, 0.594478
1679.89, 0.594801
1680.44, 0.595124
1680.98, 0.595339
1681.53, 0.595555
1682.07, 0.595662
1682.62, 0.596200
1683.17, 0.596685
1683.71, 0.596846
1684.26, 0.596900
1684.81, 0.597384
1685.36, 0.597599
1685.9, 0.597707
1686.45, 0.598030
1687.0, 0.598191
1687.55, 0.598460
1688.1, 0.598837
1688.65, 0.599159
1689.2, 0.599428
1689.75, 0.599375
1690.3, 0.599644
1690.85, 0.600074
1691.41, 0.600451
1691.96, 0.600558
1692.51, 0.600881
1693.06, 0.601473
1693.61, 0.601850
1694.17, 0.602065
1694.72, 0.602280
1695.28, 0.602388
1695.83, 0.602657
1696.39, 0.602926
1696.94, 0.602980
1697.5, 0.603033
1698.05, 0.603356
1698.61, 0.603679
1699.17, 0.604002
1699.72, 0.604325
1700.28, 0.604594
1700.84, 0.604540
1701.4, 0.604701
1701.95, 0.604970
1702.51, 0.605132
1703.07, 0.605401
1703.63, 0.605670
1704.19, 0.605885
1704.75, 0.606100
1705.31, 0.606477
1705.88, 0.606800
1706.44, 0.606961
1707.0, 0.607176
1707.56, 0.607284
1708.12, 0.607607
1708.69, 0.607876
1709.25, 0.607930
1709.81, 0.608145
1710.38, 0.608521
1710.94, 0.608898
1711.51, 0.609006
1712.07, 0.609059
1712.64, 0.609059
1713.2, 0.609167
1713.77, 0.609544
1714.34, 0.610082
1714.9, 0.610189
1715.47, 0.610189
1716.04, 0.610566
1716.61, 0.610781
1717.18, 0.610835
1717.74, 0.610996
1718.31, 0.611265
1718.88, 0.611265
1719.45, 0.611319
1720.02, 0.611481
1720.59, 0.611857
1721.17, 0.612072
1721.74, 0.612341
1722.31, 0.612610
1722.88, 0.612664
1723.45, 0.612933
1724.03, 0.613256
1724.6, 0.613418
1725.18, 0.613579
1725.75, 0.613471
1726.33, 0.613579
1726.9, 0.614117
1727.48, 0.614440
1728.05, 0.614547
1728.63, 0.614709
1729.2, 0.614816
1729.78, 0.615085
1730.36, 0.615354
1730.94, 0.615570
1731.51, 0.615839
1732.09, 0.616000
1732.67, 0.616215
1733.25, 0.616538
1733.83, 0.616700
1734.41, 0.616861
1734.99, 0.616969
1735.57, 0.617076
1736.15, 0.617184
1736.73, 0.617453
1737.32, 0.617722
1737.9, 0.618045
1738.48, 0.617991
1739.07, 0.618314
1739.65, 0.618636
1740.23, 0.618959
1740.82, 0.619121
1741.4, 0.619390
1741.99, 0.619390
1742.57, 0.619820
1743.16, 0.620197
1743.74, 0.620304
1744.33, 0.620627
1744.92, 0.620950
1745.51, 0.620950
1746.09, 0.621219
1746.68, 0.621488
1747.27, 0.621703
1747.86, 0.621972
1748.45, 0.622241
1749.04, 0.622510
1749.63, 0.622726
1750.22, 0.622995
1750.81, 0.623156
1751.4, 0.623210
1751.99, 0.623479
1752.59, 0.623802
1753.18, 0.623963
1753.77, 0.624124
1754.37, 0.624340
1754.96, 0.624663
1755.56, 0.624878
1756.15, 0.625039
1756.74, 0.625201
1757.34, 0.625201
1757.94, 0.625362
1758.53, 0.625631
1759.13, 0.626061
1759.73, 0.626330
1760.32, 0.626599
1760.92, 0.626868
1761.52, 0.627137
1762.12, 0.627084
1762.72, 0.627353
1763.32, 0.627729
1763.92, 0.627998
1764.52, 0.628052
1765.12, 0.628160
1765.72, 0.628321
1766.32, 0.628644
1766.92, 0.629021
1767.53, 0.629290
1768.13, 0.629290
1768.73, 0.629343
1769.34, 0.629666
1769.94, 0.629989
1770.55, 0.629989
1771.15, 0.630258
1771.76, 0.630581
1772.36, 0.630904
1772.97, 0.630904
1773.57, 0.631065
1774.18, 0.631280
1774.79, 0.631442
1775.4, 0.631711
1776.0, 0.631765
1776.61, 0.631980
1777.22, 0.632303
1777.83, 0.632303
1778.44, 0.632356
1779.05, 0.632410
1779.66, 0.632625
1780.27, 0.633002
1780.88, 0.633110
1781.5, 0.633271
1782.11, 0.633325
1782.72, 0.633486
1783.33, 0.633648
1783.95, 0.633755
1784.56, 0.633863
1785.18, 0.633809
1785.79, 0.633917
1786.41, 0.633917
1787.02, 0.634132
1787.64, 0.634347
1788.26, 0.634616
1788.87, 0.634670
1789.49, 0.634778
1790.11, 0.635100
1790.73, 0.635369
1791.35, 0.635423
1791.96, 0.635477
1792.58, 0.635423
1793.21, 0.635639
1793.83, 0.635800
1794.45, 0.635854
1795.07, 0.636123
1795.69, 0.636338
1796.31, 0.636177
1796.93, 0.636123
1797.56, 0.636177
1798.18, 0.636499
1798.8, 0.636553
1799.43, 0.636553
1800.05, 0.636392
1800.68, 0.636553
1801.3, 0.636715
1801.93, 0.636768
1802.56, 0.636661
1803.18, 0.636768
1803.81, 0.637037
1804.44, 0.637091
1805.07, 0.637037
1805.7, 0.636984
1806.33, 0.637037
1806.95, 0.637306
1807.58, 0.637575
1808.22, 0.637629
1808.85, 0.637683
1809.48, 0.638167
1810.11, 0.637898
1810.74, 0.637844
1811.38, 0.638006
1812.01, 0.638060
1812.64, 0.638006
1813.28, 0.638113
1813.91, 0.638329
1814.55, 0.638113
1815.18, 0.637844
1815.82, 0.638221
1816.45, 0.638705
1817.09, 0.639028
1817.73, 0.638813
1818.36, 0.638867
1819.0, 0.639028
1819.64, 0.638329
1820.28, 0.637414
1820.92, 0.638221
1821.56, 0.638651
1822.2, 0.639082
1822.84, 0.639781
1823.48, 0.640104
1824.12, 0.640158
1824.76, 0.640266
1825.41, 0.639082
1826.05, 0.637737
1826.69, 0.639190
1827.34, 0.640481
1827.98, 0.640212
1828.63, 0.640158
1829.27, 0.640266
1829.92, 0.640050
1830.56, 0.639459
1831.21, 0.639728
1831.86, 0.640535
1832.5, 0.640804
1833.15, 0.641342
1833.8, 0.641342
1834.45, 0.640373
1835.1, 0.639835
1835.75, 0.639190
1836.4, 0.639405
1837.05, 0.639566
1837.7, 0.639351
1838.35, 0.641073
1839.01, 0.640642
1839.66, 0.639190
1840.31, 0.640481
1840.96, 0.640373
1841.62, 0.638759
1842.27, 0.639997
1842.93, 0.641611
1843.58, 0.641826
1844.24, 0.641987
1844.9, 0.642256
1845.55, 0.642149
1846.21, 0.640212
1846.87, 0.638060
1847.53, 0.638651
1848.18, 0.639512
1848.84, 0.640911
1849.5, 0.641557
1850.16, 0.641665
1850.82, 0.641934
1851.48, 0.642203
1852.14, 0.641611
1852.81, 0.640535
1853.47, 0.639351
1854.13, 0.640158
1854.8, 0.641772
1855.46, 0.641718
1856.12, 0.640319
1856.79, 0.640266
1857.45, 0.641665
1858.12, 0.641987
1858.79, 0.640750
1859.45, 0.638759
1860.12, 0.639459
1860.79, 0.640857
1861.46, 0.641826
1862.12, 0.641987
1862.79, 0.641772
1863.46, 0.641127
1864.13, 0.640965
1864.8, 0.641395
1865.48, 0.641611
1866.15, 0.641342
1866.82, 0.639997
1867.49, 0.638113
1868.16, 0.639028
1868.84, 0.640104
1869.51, 0.639889
1870.19, 0.638006
1870.86, 0.636768
1871.54, 0.639082
1872.21, 0.638705
1872.89, 0.636553
1873.56, 0.637844
1874.24, 0.639459
1874.92, 0.639459
1875.6, 0.639405
1876.28, 0.638382
1876.96, 0.637737
1877.64, 0.639136
1878.32, 0.639781
1879.0, 0.639728
1879.68, 0.639459
1880.36, 0.639351
1881.04, 0.639297
1881.73, 0.639512
1882.41, 0.639512
1883.09, 0.638759
1883.78, 0.637844
1884.46, 0.638705
1885.15, 0.639566
1885.83, 0.639889
1886.52, 0.639620
1887.21, 0.639943
1887.89, 0.640373
1888.58, 0.640373
1889.27, 0.639566
1889.96, 0.638759
1890.65, 0.639728
1891.34, 0.639943
1892.03, 0.639620
1892.72, 0.639997
1893.41, 0.639835
1894.1, 0.640050
1894.79, 0.640319
1895.49, 0.640481
1896.18, 0.640319
1896.87, 0.639943
1897.57, 0.639243
1898.26, 0.639136
1898.96, 0.637737
1899.65, 0.636984
1900.35, 0.638113
1901.05, 0.639136
1901.74, 0.639028
1902.44, 0.637360
1903.14, 0.637522
1903.84, 0.638598
1904.54, 0.637145
1905.24, 0.635907
1905.94, 0.636392
1906.64, 0.636446
1907.34, 0.637629
1908.04, 0.638275
1908.75, 0.638167
1909.45, 0.638006
1910.15, 0.637737
1910.86, 0.637306
1911.56, 0.637145
1912.27, 0.637253
1912.97, 0.636069
1913.68, 0.635961
1914.39, 0.637360
1915.09, 0.637737
1915.8, 0.637414
1916.51, 0.637791
1917.22, 0.638329
1917.93, 0.638598
1918.64, 0.638221
1919.35, 0.636876
1920.06, 0.635585
1920.77, 0.636338
1921.48, 0.638329
1922.19, 0.638867
1922.91, 0.638651
1923.62, 0.638113
1924.33, 0.638544
1925.05, 0.639190
1925.76, 0.639512
1926.48, 0.639243
1927.19, 0.639082
1927.91, 0.638759
1928.63, 0.638759
1929.35, 0.639405
1930.07, 0.639674
1930.78, 0.639997
1931.5, 0.640158
1932.22, 0.640158
1932.94, 0.640104
1933.66, 0.639997
1934.39, 0.640212
1935.11, 0.640427
1935.83, 0.640266
1936.55, 0.640212
1937.28, 0.640427
1938.0, 0.640427
1938.73, 0.640212
1939.45, 0.640212
1940.18, 0.640427
1940.9, 0.640266
1941.63, 0.640212
1942.36, 0.640481
1943.09, 0.640319
1943.81, 0.640050
1944.54, 0.639728
1945.27, 0.639728
1946.0, 0.639781
1946.73, 0.639835
1947.47, 0.639566
1948.2, 0.639405
1948.93, 0.639566
1949.66, 0.639512
1950.4, 0.639351
1951.13, 0.639082
1951.86, 0.638974
1952.6, 0.638651
1953.34, 0.638490
1954.07, 0.638436
1954.81, 0.638382
1955.55, 0.638382
1956.29, 0.638221
1957.02, 0.638167
1957.76, 0.638167
1958.5, 0.638060
1959.24, 0.638060
1959.98, 0.638113
1960.72, 0.638060
1961.47, 0.637898
1962.21, 0.637737
1962.95, 0.637791
1963.7, 0.637737
1964.44, 0.637737
1965.18, 0.637629
1965.93, 0.637575
1966.67, 0.637360
1967.42, 0.637253
1968.17, 0.637253
1968.92, 0.636930
1969.66, 0.636553
1970.41, 0.636230
1971.16, 0.636177
1971.91, 0.636230
1972.66, 0.636123
1973.41, 0.635854
1974.16, 0.635639
1974.92, 0.635531
1975.67, 0.635154
1976.42, 0.634831
1977.18, 0.634670
1977.93, 0.634562
1978.69, 0.634293
1979.44, 0.634078
1980.2, 0.633755
1980.95, 0.633594
1981.71, 0.633379
1982.47, 0.633217
1983.23, 0.633110
1983.99, 0.632948
1984.74, 0.632895
1985.51, 0.632948
1986.27, 0.632787
1987.03, 0.632572
1987.79, 0.632572
1988.55, 0.632572
1989.32, 0.632464
1990.08, 0.632464
1990.84, 0.632572
1991.61, 0.632625
1992.37, 0.632625
1993.14, 0.632733
1993.9, 0.632679
1994.67, 0.632733
1995.44, 0.632841
1996.21, 0.632895
1996.98, 0.633110
1997.75, 0.633110
1998.52, 0.633217
1999.29, 0.633325
2000.06, 0.633486
2000.83, 0.633648
2001.6, 0.633809
2002.38, 0.634024
2003.15, 0.634293
2003.93, 0.634616
2004.7, 0.634670
2005.48, 0.634831
2006.25, 0.635316
2007.03, 0.635692
2007.81, 0.635907
2008.58, 0.636177
2009.36, 0.636553
2010.14, 0.636930
2010.92, 0.637199
2011.7, 0.637844
2012.48, 0.638275
2013.26, 0.638598
2014.05, 0.638974
2014.83, 0.639566
2015.61, 0.640158
2016.4, 0.640481
2017.18, 0.640965
2017.97, 0.641449
2018.75, 0.642041
2019.54, 0.642633
2020.32, 0.643063
2021.11, 0.643548
2021.9, 0.644193
2022.69, 0.644785
2023.48, 0.645431
2024.27, 0.645754
2025.06, 0.646238
2025.85, 0.647045
2026.64, 0.647744
2027.44, 0.648498
2028.23, 0.649305
2029.02, 0.649843
2029.82, 0.650327
2030.61, 0.650865
2031.41, 0.651403
2032.2, 0.651887
2033.0, 0.652318
2033.8, 0.652963
2034.6, 0.653609
2035.4, 0.654308
2036.2, 0.654739
2037.0, 0.655115
2037.8, 0.655546
2038.6, 0.656245
2039.4, 0.656730
2040.2, 0.657160
2041.01, 0.657913
2041.81, 0.658505
2042.61, 0.658882
2043.42, 0.659366
2044.22, 0.659850
2045.03, 0.660227
2045.84, 0.660603
2046.65, 0.660926
2047.46, 0.661357
2048.26, 0.661949
2049.07, 0.662271
2049.88, 0.662702
2050.69, 0.663025
2051.51, 0.663509
2052.32, 0.663993
2053.13, 0.664155
2053.94, 0.664316
2054.76, 0.664585
2055.57, 0.664908
2056.39, 0.665231
2057.2, 0.665446
2058.02, 0.665822
2058.84, 0.666468
2059.66, 0.666899
2060.48, 0.667168
2061.29, 0.667275
2062.11, 0.667383
2062.94, 0.667598
2063.76, 0.667813
2064.58, 0.668028
2065.4, 0.668136
2066.22, 0.668405
2067.05, 0.668513
2067.87, 0.668674
2068.7, 0.668889
2069.52, 0.669158
2070.35, 0.669266
2071.18, 0.669266
2072.0, 0.669158
2072.83, 0.669643
2073.66, 0.669750
2074.49, 0.669912
2075.32, 0.670019
2076.15, 0.670019
2076.98, 0.670073
2077.82, 0.670127
2078.65, 0.670073
2079.48, 0.670288
2080.32, 0.670396
2081.15, 0.670611
2081.99, 0.670503
2082.83, 0.670719
2083.66, 0.670719
2084.5, 0.670824
2085.34, 0.671195
2086.18, 0.671089
2087.02, 0.670983
2087.86, 0.671036
2088.7, 0.670824
2089.54, 0.670666
2090.39, 0.670877
2091.23, 0.671142
2092.07, 0.670824
2092.92, 0.669767
2093.76, 0.669608
2094.61, 0.669185
2095.45, 0.668339
2096.3, 0.668180
2097.15, 0.667810
2098.0, 0.668074
2098.85, 0.667916
2099.7, 0.667281
2100.55, 0.666488
2101.4, 0.666488
2102.25, 0.666805
2103.1, 0.666594
2103.96, 0.666118
2104.81, 0.665695
2105.67, 0.665325
2106.52, 0.665377
2107.38, 0.665483
2108.24, 0.665166
2109.09, 0.664531
2109.95, 0.664108
2110.81, 0.664425
2111.67, 0.664267
2112.53, 0.664055
2113.39, 0.663632
2114.25, 0.663368
2115.12, 0.663738
2115.98, 0.663685
2116.84, 0.663368
2117.71, 0.663103
2118.58, 0.663579
2119.44, 0.663950
2120.31, 0.664373
2121.18, 0.664320
2122.04, 0.664108
2122.91, 0.663791
2123.78, 0.663474
2124.65, 0.663844
2125.52, 0.664425
2126.4, 0.664796
2127.27, 0.664954
2128.14, 0.665642
2129.02, 0.665007
2129.89, 0.663897
2130.77, 0.664161
2131.64, 0.664690
2132.52, 0.664690
2133.4, 0.665007
2134.27, 0.664690
2135.15, 0.664637
2136.03, 0.664425
2136.91, 0.664584
2137.79, 0.664584
2138.68, 0.664478
2139.56, 0.664584
2140.44, 0.664954
2141.33, 0.664690
2142.21, 0.664214
2143.1, 0.664478
2143.99, 0.664954
2144.87, 0.664214
2145.76, 0.664002
2146.65, 0.664108
2147.54, 0.663897
2148.43, 0.663844
2149.32, 0.663685
2150.21, 0.663368
2151.1, 0.663844
2151.99, 0.663632
2152.89, 0.662945
2153.78, 0.662786
2154.68, 0.662945
2155.57, 0.662839
2156.47, 0.662257
2157.37, 0.662099
2158.27, 0.662204
2159.16, 0.662204
2160.06, 0.661940
2160.96, 0.661147
2161.86, 0.660829
2162.77, 0.660565
2163.67, 0.660671
2164.57, 0.660988
2165.48, 0.661200
2166.38, 0.660618
2167.29, 0.659930
2168.2, 0.659666
2169.1, 0.659983
2170.01, 0.659560
2170.92, 0.659243
2171.83, 0.658608
2172.74, 0.658661
2173.65, 0.658450
2174.56, 0.658185
2175.47, 0.657974
2176.39, 0.657709
2177.3, 0.657181
2178.22, 0.657128
2179.13, 0.656546
2180.05, 0.655753
2180.96, 0.655012
2181.88, 0.654695
2182.8, 0.654060
2183.72, 0.653531
2184.64, 0.653320
2185.56, 0.653003
2186.48, 0.652421
2187.41, 0.652368
2188.33, 0.651945
2189.25, 0.651469
2190.18, 0.650782
2191.1, 0.649618
2192.03, 0.649089
2192.96, 0.648719
2193.89, 0.648243
2194.82, 0.647820
2195.74, 0.647344
2196.68, 0.646234
2197.61, 0.645493
2198.54, 0.644859
2199.47, 0.644171
2200.4, 0.643484
2201.34, 0.642638
2202.28, 0.641897
2203.21, 0.640945
2204.15, 0.640522
2205.08, 0.639888
2206.02, 0.638830
2206.96, 0.637772
2207.9, 0.637085
2208.84, 0.636609
2209.78, 0.636186
2210.73, 0.635234
2211.67, 0.634388
2212.61, 0.633912
2213.56, 0.633013
2214.5, 0.631585
2215.45, 0.630898
2216.4, 0.630422
2217.35, 0.629258
2218.3, 0.627777
2219.24, 0.626244
2220.2, 0.624340
2221.15, 0.622912
2222.1, 0.621960
2223.05, 0.620374
2224.0, 0.618311
2224.96, 0.616672
2225.91, 0.614398
2226.87, 0.611754
2227.83, 0.609374
2228.79, 0.607206
2229.74, 0.604879
2230.7, 0.601653
2231.66, 0.598057
2232.63, 0.594778
2233.59, 0.591552
2234.55, 0.588327
2235.51, 0.584678
2236.48, 0.581134
2237.44, 0.577644
2238.41, 0.574101
2239.38, 0.570928
2240.34, 0.568231
2241.31, 0.565534
2242.28, 0.562784
2243.25, 0.560245
2244.22, 0.558395
2245.19, 0.556702
2246.17, 0.555698
2247.14, 0.555063
2248.12, 0.554375
2249.09, 0.554164
2250.07, 0.554164
2251.04, 0.554481
2252.02, 0.554904
2253.0, 0.555274
2253.98, 0.555962
2254.96, 0.556491
2255.94, 0.556702
2256.92, 0.556702
2257.91, 0.557125
2258.89, 0.557707
2259.88, 0.557813
2260.86, 0.557866
2261.85, 0.557919
2262.83, 0.558183
2263.82, 0.557813
2264.81, 0.557866
2265.8, 0.558130
2266.79, 0.558236
2267.78, 0.558183
2268.78, 0.557443
2269.77, 0.556967
2270.76, 0.556861
2271.76, 0.556967
2272.75, 0.556649
2273.75, 0.556121
2274.75, 0.555169
2275.75, 0.554217
2276.75, 0.553688
2277.75, 0.552736
2278.75, 0.551361
2279.75, 0.549140
2280.75, 0.546866
2281.76, 0.544751
2282.76, 0.541631
2283.77, 0.538299
2284.77, 0.535020
2285.78, 0.531424
2286.79, 0.527511
2287.8, 0.523650
2288.81, 0.520371
2289.82, 0.517357
2290.83, 0.514660
2291.84, 0.512703
2292.86, 0.510482
2293.87, 0.508790
2294.89, 0.507256
2295.91, 0.505723
2296.92, 0.504665
2297.94, 0.504348
2298.96, 0.504401
2299.98, 0.504031
2301.0, 0.503660
2302.02, 0.503819
2303.04, 0.503872
2304.07, 0.503660
2305.09, 0.503607
2306.12, 0.502920
2307.15, 0.501757
2308.17, 0.501281
2309.2, 0.500276
2310.23, 0.498584
2311.26, 0.496627
2312.29, 0.494459
2313.32, 0.492238
2314.35, 0.489699
2315.39, 0.487848
2316.42, 0.486103
2317.46, 0.484675
2318.5, 0.483247
2319.53, 0.481714
2320.57, 0.481079
2321.61, 0.480233
2322.65, 0.479281
2323.69, 0.478488
2324.73, 0.477800
2325.78, 0.476954
2326.82, 0.476161
2327.86, 0.475632
2328.91, 0.475315
2329.96, 0.475262
2331.01, 0.475579
2332.05, 0.476002
2333.1, 0.477060
2334.15, 0.478012
2335.21, 0.478594
2336.26, 0.478964
2337.31, 0.479810
2338.36, 0.480921
2339.42, 0.481872
2340.48, 0.482824
2341.53, 0.484094
2342.59, 0.485416
2343.65, 0.486896
2344.71, 0.488271
2345.77, 0.490069
2346.83, 0.491497
2347.9, 0.493295
2348.96, 0.494776
2350.02, 0.496362
2351.09, 0.498002
2352.16, 0.499377
2353.23, 0.501069
2354.29, 0.502920
2355.36, 0.504348
2356.43, 0.505617
2357.51, 0.507521
2358.58, 0.508949
2359.65, 0.510641
2360.73, 0.512703
2361.8, 0.514766
2362.88, 0.516458
2363.96, 0.518097
2365.03, 0.519896
2366.11, 0.521958
2367.19, 0.524020
2368.27, 0.525713
2369.36, 0.527193
2370.44, 0.528780
2371.53, 0.529785
2372.61, 0.530684
2373.7, 0.531741
2374.78, 0.532376
2375.87, 0.533116
2376.96, 0.533328
2378.05, 0.533487
2379.14, 0.533539
2380.24, 0.533592
2381.33, 0.533169
2382.42, 0.532799
2383.52, 0.532693
2384.61, 0.532482
2385.71, 0.531953
2386.81, 0.531741
2387.91, 0.531636
2389.01, 0.531477
2390.11, 0.531583
2391.22, 0.531794
2392.32, 0.532112
2393.42, 0.532799
2394.53, 0.533328
2395.64, 0.533962
2396.74, 0.534967
2397.85, 0.536236
2398.96, 0.537558
2400.07, 0.538881
2401.18, 0.540361
2402.3, 0.541895
2403.41, 0.543534
2404.52, 0.545121
2405.64, 0.546443
2406.76, 0.547765
2407.88, 0.548981
2408.99, 0.550462
2410.11, 0.551731
2411.23, 0.552577
2412.36, 0.553212
2413.48, 0.553899
2414.6, 0.554058
2415.73, 0.554111
2416.85, 0.553741
2417.98, 0.553424
2419.11, 0.553000
2420.24, 0.552472
2421.37, 0.551467
2422.5, 0.550885
2423.64, 0.549775
2424.77, 0.548347
2425.9, 0.547606
2427.04, 0.546707
2428.18, 0.545491
2429.31, 0.544010
2430.45, 0.542582
2431.59, 0.542054
2432.73, 0.541631
2433.88, 0.540679
2435.02, 0.539674
2436.16, 0.539145
2437.31, 0.538775
2438.45, 0.538087
2439.6, 0.537506
2440.75, 0.537083
2441.9, 0.536025
2443.05, 0.535179
2444.2, 0.534280
2445.35, 0.533539
2446.51, 0.532852
2447.67, 0.531741
2448.82, 0.530261
2449.98, 0.529044
2451.14, 0.528145
2452.3, 0.527088
2453.46, 0.525607
2454.62, 0.524126
2455.78, 0.522698
2456.94, 0.521429
2458.11, 0.519948
2459.28, 0.518521
2460.44, 0.517357
2461.61, 0.516194
2462.78, 0.515030
2463.95, 0.513973
2465.12, 0.513021
2466.3, 0.512333
2467.47, 0.511751
2468.65, 0.511223
2469.82, 0.511011
2471.0, 0.510535
2472.18, 0.510112
2473.36, 0.510059
2474.54, 0.509689
2475.72, 0.509689
2476.9, 0.509848
2478.08, 0.510006
2479.27, 0.510165
2480.46, 0.510112
2481.64, 0.509848
2482.83, 0.509901
2484.02, 0.510165
2485.21, 0.510377
2486.4, 0.510324
2487.6, 0.510271
2488.79, 0.510218
2489.99, 0.510059
2491.18, 0.509953
2492.38, 0.509901
2493.58, 0.509636
2494.78, 0.509477
2495.98, 0.509160
2497.18, 0.509107
2498.39, 0.508896
2499.59, 0.508737
2500.8, 0.508631
2502.01, 0.508578
2503.21, 0.508473
2504.42, 0.508208
2505.63, 0.507891
2506.84, 0.507891
2508.06, 0.507679
2509.27, 0.507309
2510.49, 0.507204
2511.7, 0.507204
2512.92, 0.507309
2514.14, 0.507204
2515.36, 0.506675
2516.58, 0.506410
2517.8, 0.506357
2519.03, 0.506093
2520.25, 0.505511
2521.48, 0.505300
2522.7, 0.505247
2523.93, 0.505511
2525.16, 0.505511
2526.39, 0.505511
2527.62, 0.505353
2528.86, 0.505035
2530.09, 0.504930
2531.33, 0.505405
2532.56, 0.505564
2533.8, 0.505353
2535.04, 0.505405
2536.28, 0.505723
2537.52, 0.505353
2538.76, 0.504877
2540.01, 0.504771
2541.25, 0.504718
2542.5, 0.504665
2543.75, 0.504506
2544.99, 0.503925
2546.24, 0.503607
2547.49, 0.503502
2548.75, 0.503184
2550.0, 0.502444
2551.26, 0.502127
2552.51, 0.501915
2553.77, 0.501651
2555.03, 0.500752
2556.29, 0.500276
2557.55, 0.499853
2558.81, 0.499694
2560.08, 0.499483
2561.34, 0.499906
2562.61, 0.499906
2563.88, 0.499853
2565.14, 0.499430
2566.41, 0.498584
2567.68, 0.498055
2568.96, 0.498425
2570.23, 0.498584
2571.51, 0.497896
2572.78, 0.498108
2574.06, 0.498584
2575.34, 0.498160
2576.62, 0.498742
2577.9, 0.498742
2579.18, 0.498319
2580.47, 0.498795
2581.75, 0.499324
2583.04, 0.500117
2584.32, 0.501281
2585.61, 0.500593
2586.9, 0.501228
2588.2, 0.501757
2589.49, 0.501704
2590.78, 0.501545
2592.08, 0.501386
2593.37, 0.502444
2594.67, 0.505511
2595.97, 0.505458
2597.27, 0.504083
2598.57, 0.503607
2599.88, 0.503872
2601.18, 0.504771
2602.49, 0.505776
2603.79, 0.506252
2605.1, 0.507415
2606.41, 0.507997
2607.72, 0.507521
2609.03, 0.507997
2610.35, 0.508420
2611.66, 0.508261
2612.98, 0.508684
2614.3, 0.508949
2615.62, 0.509425
2616.94, 0.510535
2618.26, 0.510112
2619.58, 0.510165
2620.91, 0.511064
2622.23, 0.510112
2623.56, 0.509901
2624.89, 0.509848
2626.22, 0.510694
2627.55, 0.510535
2628.88, 0.509953
2630.21, 0.510852
2631.55, 0.510535
2632.89, 0.509425
2634.22, 0.509266
2635.56, 0.508314
2636.9, 0.507627
2638.25, 0.506992
2639.59, 0.506463
2640.93, 0.505829
2642.28, 0.505511
2643.63, 0.504771
2644.98, 0.504242
2646.33, 0.503502
2647.68, 0.502603
2649.03, 0.501651
2650.39, 0.500963
2651.74, 0.500540
2653.1, 0.500011
2654.46, 0.498901
2655.82, 0.498266
2657.18, 0.497050
2658.54, 0.496204
2659.9, 0.495358
2661.27, 0.494194
2662.64, 0.492661
2664.01, 0.491973
2665.38, 0.491550
2666.74, 0.490016
2668.12, 0.486896
2669.49, 0.485204
2670.87, 0.484199
2672.24, 0.479969
2673.62, 0.476425
2675.0, 0.473517
2676.38, 0.470873
2677.76, 0.467277
2679.15, 0.462729
2680.54, 0.457705
2681.92, 0.452152
2683.31, 0.446969
2684.7, 0.440994
2686.09, 0.434278
2687.48, 0.426504
2688.88, 0.417937
2690.27, 0.407942
2691.67, 0.397259
2693.07, 0.385889
2694.47, 0.373250
2695.87, 0.359183
2697.27, 0.345063
2698.67, 0.331790
2700.08, 0.319838
2701.49, 0.308944
2702.9, 0.297944
2704.31, 0.284882
2705.72, 0.267537
2707.13, 0.245431
2708.54, 0.221634
2709.96, 0.199846
2711.38, 0.182077
2712.8, 0.169279
2714.22, 0.160977
2715.64, 0.155318
2717.06, 0.151299
2718.49, 0.148496
2719.91, 0.147227
2721.34, 0.146698
2722.77, 0.146381
2724.2, 0.146540
2725.63, 0.146487
2727.07, 0.145852
2728.5, 0.145165
2729.94, 0.144054
2731.38, 0.142785
2732.82, 0.141463
2734.26, 0.140088
2735.7, 0.138343
2737.15, 0.136439
2738.59, 0.135011
2740.04, 0.133636
2741.49, 0.131732
2742.94, 0.129617
2744.39, 0.127607
2745.84, 0.125598
2747.3, 0.123535
2748.76, 0.121261
2750.21, 0.118776
2751.67, 0.116661
2753.14, 0.114387
2754.6, 0.112377
2756.06, 0.110473
2757.53, 0.108358
2759.0, 0.106401
2760.46, 0.104868
2761.94, 0.103916
2763.41, 0.103228
2764.88, 0.102223
2766.36, 0.101007
2767.83, 0.0994730
2769.31, 0.0978340
2770.79, 0.0958770
2772.27, 0.0939210
2773.76, 0.0920170
2775.24, 0.0902190
2776.73, 0.0883680
2778.22, 0.0865700
2779.71, 0.0848780
2781.2, 0.0835030
2782.69, 0.0824450
2784.18, 0.0811230
2785.68, 0.0799600
2787.18, 0.0790610
2788.68, 0.0781090
2790.18, 0.0772100
2791.68, 0.0764690
2793.19, 0.0759400
2794.69, 0.0756760
2796.2, 0.0750410
2797.71, 0.0746710
2799.22, 0.0744070
2800.73, 0.0741950
2802.24, 0.0741420
2803.76, 0.0741950
2805.28, 0.0743010
2806.8, 0.0745130
2808.32, 0.0746710
2809.84, 0.0747770
2811.36, 0.0748830
2812.89, 0.0750940
2814.42, 0.0755700
2815.94, 0.0759930
2817.48, 0.0764160
2819.01, 0.0770510
2820.54, 0.0775800
2822.08, 0.0781090
2823.61, 0.0787430
2825.15, 0.0793250
2826.69, 0.0800120
2828.23, 0.0808590
2829.78, 0.0814930
2831.32, 0.0821810
2832.87, 0.0828680
2834.42, 0.0837670
2835.97, 0.0846130
2837.52, 0.0852480
2839.08, 0.0860940
2840.63, 0.0870460
2842.19, 0.0875220
2843.75, 0.0880510
2845.31, 0.0886320
2846.87, 0.0892670
2848.44, 0.0898490
2850.0, 0.0902190
2851.57, 0.0905890
2853.14, 0.0908530
2854.71, 0.0911180
2856.28, 0.0916470
2857.86, 0.0920170
2859.43, 0.0922280
2861.01, 0.0921760
2862.59, 0.0921230
2864.17, 0.0919640
2865.76, 0.0918580
2867.34, 0.0917520
2868.93, 0.0914880
2870.52, 0.0911180
2872.11, 0.0907480
2873.7, 0.0901660
2875.29, 0.0896900
2876.89, 0.0893730
2878.49, 0.0890550
2880.08, 0.0883150
2881.69, 0.0875220
2883.29, 0.0868340
2884.89, 0.0861470
2886.5, 0.0856710
2888.11, 0.0850360
2889.72, 0.0841900
2891.33, 0.0834500
2892.94, 0.0830800
2894.56, 0.0824450
2896.17, 0.0814930
2897.79, 0.0809640
2899.42, 0.0805940
2901.04, 0.0801710
2902.66, 0.0796420
2904.29, 0.0791130
2905.92, 0.0787430
2907.55, 0.0783730
2909.18, 0.0781090
2910.81, 0.0778970
2912.45, 0.0777380
2914.08, 0.0776330
2915.72, 0.0774740
2917.36, 0.0774740
2919.01, 0.0773150
2920.65, 0.0772620
2922.3, 0.0774740
2923.94, 0.0776860
2925.59, 0.0778440
2927.25, 0.0779500
2928.9, 0.0783200
2930.56, 0.0788490
2932.21, 0.0792190
2933.87, 0.0795890
2935.53, 0.0800120
2937.2, 0.0803300
2938.86, 0.0809110
2940.53, 0.0814400
2942.2, 0.0818630
2943.87, 0.0824980
2945.54, 0.0830800
2947.22, 0.0837670
2948.89, 0.0843490
2950.57, 0.0849830
2952.25, 0.0856710
2953.93, 0.0863580
2955.62, 0.0868870
2957.3, 0.0874160
2958.99, 0.0879980
2960.68, 0.0887910
2962.37, 0.0895840
2964.07, 0.0903250
2965.76, 0.0909060
2967.46, 0.0917000
2969.16, 0.0924400
2970.86, 0.0930750
2972.56, 0.0937090
2974.27, 0.0945020
2975.98, 0.0954540
2977.69, 0.0963000
2979.4, 0.0970410
2981.11, 0.0977810
2982.83, 0.0986800
2984.54, 0.0997910
2986.26, 0.100901
2987.98, 0.101853
2989.71, 0.102858
2991.43, 0.104021
2993.16, 0.105132
2994.89, 0.106190
2996.62, 0.107300
2998.35, 0.108358
3000.09, 0.109786
3001.83, 0.111319
3003.57, 0.112588
3005.31, 0.113752
3007.05, 0.114968
3008.79, 0.116343
3010.54, 0.117824
3012.29, 0.119040
3014.04, 0.120521
3015.8, 0.122055
3017.55, 0.123377
3019.31, 0.124593
3021.07, 0.125968
3022.83, 0.127554
3024.59, 0.128929
3026.36, 0.130093
3028.13, 0.131415
3029.9, 0.132790
3031.67, 0.134218
3033.44, 0.135593
3035.22, 0.136756
3037.0, 0.138025
3038.78, 0.139506
3040.56, 0.140987
3042.34, 0.142097
3044.13, 0.143472
3045.92, 0.144953
3047.71, 0.146381
3049.5, 0.147650
3051.3, 0.149184
3053.09, 0.150612
3054.89, 0.151669
3056.69, 0.152938
3058.5, 0.154578
3060.3, 0.156111
3062.11, 0.157486
3063.92, 0.158861
3065.73, 0.160289
3067.55, 0.161611
3069.36, 0.163039
3071.18, 0.164679
3073.0, 0.166265
3074.82, 0.167693
3076.65, 0.169226
3078.48, 0.170654
3080.31, 0.172029
3082.14, 0.173351
3083.97, 0.174991
3085.8, 0.176577
3087.64, 0.178164
3089.48, 0.179697
3091.33, 0.181231
3093.17, 0.182712
3095.02, 0.184192
3096.87, 0.185673
3098.72, 0.187260
3100.57, 0.188740
3102.43, 0.190274
3104.28, 0.191702
3106.14, 0.193183
3108.01, 0.194769
3109.87, 0.196144
3111.74, 0.197466
3113.61, 0.199106
3115.48, 0.200692
3117.35, 0.202173
3119.23, 0.203601
3121.1, 0.205081
3122.98, 0.206403
3124.87, 0.207831
3126.75, 0.209206
3128.64, 0.210528
3130.53, 0.212168
3132.42, 0.213648
3134.31, 0.214918
3136.21, 0.216345
3138.11, 0.217773
3140.01, 0.219307
3141.91, 0.220682
3143.82, 0.222216
3145.73, 0.223855
3147.64, 0.225441
3149.55, 0.226711
3151.46, 0.227980
3153.38, 0.229513
3155.3, 0.231100
3157.22, 0.232686
3159.14, 0.234167
3161.07, 0.235595
3163.0, 0.237129
3164.93, 0.238556
3166.86, 0.240249
3168.8, 0.241888
3170.74, 0.243475
3172.68, 0.245061
3174.62, 0.246648
3176.56, 0.248128
3178.51, 0.249715
3180.46, 0.251248
3182.42, 0.252729
3184.37, 0.254210
3186.33, 0.255796
3188.29, 0.257436
3190.25, 0.258969
3192.21, 0.260503
3194.18, 0.262037
3196.15, 0.263464
3198.12, 0.264945
3200.09, 0.266690
3202.07, 0.268171
3204.05, 0.269440
3206.03, 0.270815
3208.02, 0.272349
3210.0, 0.273724
3211.99, 0.275046
3213.98, 0.276527
3215.98, 0.278007
3217.97, 0.279541
3219.97, 0.280810
3221.97, 0.282185
3223.98, 0.283560
3225.98, 0.284776
3227.99, 0.285887
3230.0, 0.287156
3232.02, 0.288320
3234.03, 0.289589
3236.05, 0.290805
3238.07, 0.291863
3240.1, 0.292973
3242.12, 0.294190
3244.15, 0.295406
3246.18, 0.296464
3248.22, 0.297416
3250.25, 0.298367
3252.29, 0.299372
3254.33, 0.300430
3256.38, 0.301593
3258.43, 0.302598
3260.47, 0.303497
3262.53, 0.304449
3264.58, 0.305348
3266.64, 0.306406
3268.7, 0.307569
3270.76, 0.308627
3272.82, 0.309579
3274.89, 0.310583
3276.96, 0.311641
3279.04, 0.312646
3281.11, 0.313809
3283.19, 0.315026
3285.27, 0.316189
3287.35, 0.317194
3289.44, 0.318252
3291.53, 0.319627
3293.62, 0.320949
3295.71, 0.321953
3297.81, 0.322905
3299.91, 0.324069
3302.01, 0.325338
3304.11, 0.326396
3306.22, 0.327400
3308.33, 0.328511
3310.44, 0.329621
3312.56, 0.330679
3314.68, 0.331578
3316.8, 0.332530
3318.92, 0.333482
3321.05, 0.334328
3323.18, 0.335121
3325.31, 0.336126
3327.44, 0.336919
3329.58, 0.337766
3331.72, 0.338876
3333.86, 0.339881
3336.01, 0.340727
3338.16, 0.341626
3340.31, 0.342472
3342.46, 0.343265
3344.61, 0.344164
3346.77, 0.345063
3348.94, 0.345857
3351.1, 0.346544
3353.27, 0.347232
3355.44, 0.347708
3357.61, 0.348131
3359.79, 0.348554
3361.97, 0.348818
3364.15, 0.349030
3366.33, 0.349082
3368.52, 0.349082
3370.71, 0.349135
3372.9, 0.349241
3375.1, 0.349506
3377.3, 0.350034
3379.5, 0.350722
3381.71, 0.351462
3383.91, 0.352520
3386.12, 0.353683
3388.34, 0.354688
3390.55, 0.355481
3392.77, 0.356010
3394.99, 0.356116
3397.22, 0.356010
3399.45, 0.355693
3401.68, 0.355164
3403.91, 0.354477
3406.15, 0.353789
3408.39, 0.353102
3410.63, 0.352573
3412.87, 0.352573
3415.12, 0.352890
3417.37, 0.353736
3419.63, 0.355323
3421.88, 0.357650
3424.14, 0.360347
3426.41, 0.363149
3428.67, 0.366058
3430.94, 0.368649
3433.21, 0.370923
3435.49, 0.372880
3437.77, 0.374784
3440.05, 0.376529
3442.33, 0.378115
3444.62, 0.379808
3446.91, 0.381394
3449.2, 0.382822
3451.5, 0.384303
3453.8, 0.385784
3456.1, 0.387158
3458.41, 0.388428
3460.72, 0.389432
3463.03, 0.390437
3465.34, 0.391442
3467.66, 0.392129
3469.98, 0.392658
3472.31, 0.393081
3474.63, 0.393504
3476.96, 0.393875
3479.3, 0.394351
3481.64, 0.394721
3483.97, 0.395144
3486.32, 0.395673
3488.66, 0.395884
3491.01, 0.395620
3493.36, 0.395250
3495.72, 0.394721
3498.08, 0.394298
3500.44, 0.394403
3502.81, 0.395250
3505.18, 0.396942
3507.55, 0.399375
3509.92, 0.402072
3512.3, 0.404927
3514.68, 0.407783
3517.06, 0.410374
3519.45, 0.412913
3521.84, 0.415292
3524.24, 0.417408
3526.64, 0.419259
3529.04, 0.421057
3531.44, 0.422802
3533.85, 0.424441
3536.26, 0.425710
3538.67, 0.426980
3541.09, 0.428302
3543.51, 0.429518
3545.93, 0.430681
3548.36, 0.431845
3550.79, 0.432903
3553.22, 0.434066
3555.66, 0.435124
3558.1, 0.435864
3560.54, 0.436657
3562.99, 0.437556
3565.44, 0.438455
3567.9, 0.439301
3570.35, 0.440306
3572.81, 0.441205
3575.28, 0.442104
3577.75, 0.443215
3580.22, 0.444272
3582.69, 0.445277
3585.17, 0.446388
3587.65, 0.447445
3590.14, 0.448503
3592.62, 0.449455
3595.11, 0.450513
3597.61, 0.451465
3600.11, 0.452258
3602.61, 0.452892
3605.11, 0.453844
3607.62, 0.454743
3610.14, 0.455589
3612.65, 0.456330
3615.17, 0.457176
3617.69, 0.457863
3620.22, 0.458604
3622.75, 0.459397
3625.28, 0.460137
3627.82, 0.460931
3630.36, 0.461565
3632.9, 0.462147
3635.45, 0.462834
3638.0, 0.463522
3640.56, 0.464209
3643.12, 0.464738
3645.68, 0.465373
3648.24, 0.466060
3650.81, 0.466642
3653.39, 0.467277
3655.96, 0.467858
3658.54, 0.468334
3661.13, 0.468916
3663.71, 0.469498
3666.3, 0.470132
3668.9, 0.470661
3671.5, 0.471190
3674.1, 0.471719
3676.7, 0.472195
3679.31, 0.472671
3681.93, 0.473147
3684.54, 0.473676
3687.17, 0.474363
3689.79, 0.474945
3692.42, 0.475474
3695.05, 0.476055
3697.69, 0.476584
3700.32, 0.477166
3702.97, 0.477748
3705.61, 0.478329
3708.27, 0.478911
3710.92, 0.479598
3713.58, 0.480180
3716.24, 0.480815
3718.91, 0.481344
3721.58, 0.481767
3724.25, 0.482454
3726.93, 0.482930
3729.61, 0.483353
3732.29, 0.483935
3734.98, 0.484517
3737.67, 0.484993
3740.37, 0.485469
3743.07, 0.485892
3745.78, 0.486420
3748.49, 0.486791
3751.2, 0.487214
3753.91, 0.487690
3756.63, 0.488166
3759.36, 0.488589
3762.09, 0.488959
3764.82, 0.489276
3767.55, 0.489540
3770.29, 0.489805
3773.04, 0.490122
3775.78, 0.490545
3778.54, 0.490863
3781.29, 0.491074
3784.05, 0.491391
3786.82, 0.491603
3789.59, 0.491814
3792.36, 0.492079
3795.13, 0.492449
3797.92, 0.492766
3800.7, 0.492872
3803.49, 0.493137
3806.28, 0.493612
3809.08, 0.494036
3811.88, 0.494194
3814.68, 0.494617
3817.49, 0.494935
3820.31, 0.495199
3823.12, 0.495622
3825.94, 0.495939
3828.77, 0.496310
3831.6, 0.496733
3834.43, 0.497103
3837.27, 0.497420
3840.11, 0.497790
3842.96, 0.498055
3845.81, 0.498425
3848.67, 0.498901
3851.53, 0.499271
3854.39, 0.499588
3857.26, 0.499747
3860.13, 0.499853
3863.01, 0.500276
3865.89, 0.500752
3868.77, 0.501016
3871.66, 0.501175
3874.55, 0.501439
3877.45, 0.501757
3880.35, 0.501968
3883.26, 0.502180
3886.17, 0.502444
3889.09, 0.502603
3892.01, 0.502761
3894.93, 0.502920
3897.86, 0.503132
3900.79, 0.503237
3903.73, 0.503343
3906.67, 0.503449
3909.62, 0.503555
3912.57, 0.503607
3915.52, 0.503713
3918.48, 0.503819
3921.45, 0.504031
3924.42, 0.504189
3927.39, 0.504189
3930.37, 0.504295
3933.35, 0.504454
3936.34, 0.504559
3939.33, 0.504665
3942.32, 0.504824
3945.32, 0.504824
3948.33, 0.504930
3951.34, 0.505141
3954.35, 0.505247
3957.37, 0.505405
3960.39, 0.505564
3963.42, 0.505617
3966.45, 0.505670
3969.49, 0.505881
3972.53, 0.506040
3975.58, 0.506199
3978.63, 0.506252
3981.68, 0.506463
3984.75, 0.506516
3987.81, 0.506569
3990.88, 0.506675
3993.95, 0.506833
3997.03, 0.506833
4000.12, 0.506992
4003.21, 0.507151
4006.3, 0.506992
4009.4, 0.506886
4012.5, 0.506992
4015.61, 0.507098
4018.72, 0.507151
4021.84, 0.507098
4024.96, 0.507098
4028.09, 0.507098
4031.22, 0.506992
4034.36, 0.506939
4037.5, 0.506886
4040.65, 0.506728
4043.8, 0.506622
4046.96, 0.506516
4050.12, 0.506463
4053.29, 0.506357
4056.46, 0.506199
4059.64, 0.505987
4062.82, 0.505881
4066.0, 0.505723
4069.19, 0.505511
4072.39, 0.505405
4075.59, 0.505300
4078.8, 0.505088
4082.01, 0.504877
4085.23, 0.504718
4088.45, 0.504506
4091.68, 0.504242
4094.91, 0.504031
4098.15, 0.503872
4101.39, 0.503713
4104.63, 0.503449
4107.89, 0.503290
4111.14, 0.503026
4114.41, 0.502814
4117.67, 0.502656
4120.95, 0.502497
4124.23, 0.502232
4127.51, 0.502021
4130.8, 0.501862
4134.09, 0.501651
4137.39, 0.501333
4140.7, 0.501069
4144.01, 0.500910
4147.32, 0.500752
4150.64, 0.500540
4153.97, 0.500223
4157.3, 0.499906
4160.64, 0.499747
4163.98, 0.499483
4167.33, 0.499165
4170.68, 0.498848
4174.04, 0.498584
4177.4, 0.498372
4180.77, 0.498002
4184.14, 0.497632
4187.52, 0.497420
4190.91, 0.497156
4194.3, 0.496944
4197.69, 0.496627
4201.1, 0.496415
4204.5, 0.496204
4207.92, 0.496098
4211.34, 0.496045
4214.76, 0.495887
4218.19, 0.495781
4221.62, 0.495622
4225.06, 0.495358
4228.51, 0.495093
4231.96, 0.494723
4235.42, 0.494459
4238.88, 0.494247
4242.35, 0.493824
4245.83, 0.493137
4249.31, 0.492713
4252.79, 0.492132
4256.28, 0.491497
4259.78, 0.491074
4263.29, 0.491021
4266.79, 0.490863
4270.31, 0.490651
4273.83, 0.490440
4277.35, 0.490228
4280.89, 0.489805
4284.42, 0.489540
4287.97, 0.489012
4291.52, 0.488536
4295.07, 0.488271
4298.63, 0.487901
4302.2, 0.487531
4305.78, 0.487055
4309.35, 0.486632
4312.94, 0.486262
4316.53, 0.485944
4320.13, 0.485521
4323.73, 0.485098
4327.34, 0.484569
4330.96, 0.484199
4334.58, 0.483935
4338.21, 0.483565
4341.84, 0.483089
4345.48, 0.482771
4349.12, 0.482348
4352.77, 0.481872
4356.43, 0.481502
4360.1, 0.480973
4363.76, 0.480603
4367.44, 0.480286
4371.12, 0.479969
4374.81, 0.479546
4378.51, 0.479175
4382.21, 0.478752
4385.92, 0.478329
4389.63, 0.477959
4393.35, 0.477589
4397.08, 0.477113
4400.81, 0.476690
4404.55, 0.476267
4408.29, 0.475897
4412.04, 0.475474
4415.8, 0.474998
4419.57, 0.474469
4423.34, 0.473940
4427.12, 0.473464
4430.9, 0.473041
4434.69, 0.472459
4438.49, 0.471983
4442.29, 0.471402
4446.1, 0.470873
4449.92, 0.470238
4453.74, 0.469656
4457.57, 0.469075
4461.41, 0.468493
4465.25, 0.467858
4469.1, 0.467171
4472.95, 0.466483
4476.82, 0.465796
4480.69, 0.465161
4484.56, 0.464580
4488.44, 0.463945
4492.33, 0.463205
4496.23, 0.462411
4500.13, 0.461724
4504.04, 0.460931
4507.96, 0.460084
4511.88, 0.459344
4515.81, 0.458657
4519.75, 0.457811
4523.69, 0.456964
4527.65, 0.456012
4531.6, 0.455272
4535.57, 0.454373
4539.54, 0.453368
4543.52, 0.452364
4547.5, 0.451359
4551.5, 0.450142
4555.5, 0.448768
4559.5, 0.447445
4563.52, 0.446018
4567.54, 0.444378
4571.56, 0.442739
4575.6, 0.440941
4579.64, 0.438984
4583.69, 0.436869
4587.75, 0.434753
4591.81, 0.432691
4595.88, 0.430787
4599.96, 0.428936
4604.04, 0.427138
4608.14, 0.425393
4612.24, 0.423859
4616.34, 0.422537
4620.46, 0.421215
4624.58, 0.419893
4628.71, 0.418730
4632.84, 0.417672
4636.99, 0.416456
4641.14, 0.415081
4645.3, 0.413653
4649.47, 0.412172
4653.64, 0.410586
4657.82, 0.408841
4662.01, 0.407043
4666.21, 0.405192
4670.41, 0.403288
4674.62, 0.401278
4678.84, 0.399216
4683.07, 0.397312
4687.3, 0.395355
4691.54, 0.393346
4695.79, 0.391283
4700.05, 0.389062
4704.31, 0.386947
4708.59, 0.384937
4712.87, 0.382981
4717.15, 0.380865
4721.45, 0.378803
4725.76, 0.376740
4730.07, 0.374731
4734.39, 0.372774
4738.72, 0.370923
4743.05, 0.369072
4747.39, 0.367221
4751.75, 0.365423
4756.1, 0.363784
4760.47, 0.362250
4764.85, 0.360770
4769.23, 0.359342
4773.62, 0.357967
4778.02, 0.356539
4782.43, 0.355270
4786.85, 0.354054
4791.27, 0.352784
4795.7, 0.351462
4800.14, 0.350193
4804.59, 0.348871
4809.05, 0.347549
4813.51, 0.346121
4817.99, 0.344693
4822.47, 0.343265
4826.96, 0.341679
4831.46, 0.340145
4835.96, 0.338717
4840.48, 0.337237
4845.0, 0.335650
4849.54, 0.334064
4854.08, 0.332530
4858.63, 0.330785
4863.18, 0.329040
4867.75, 0.327453
4872.33, 0.325814
4876.91, 0.324069
4881.5, 0.322429
4886.1, 0.320843
4890.71, 0.319098
4895.33, 0.317353
4899.96, 0.315607
4904.59, 0.313809
4909.24, 0.312064
4913.89, 0.310372
4918.55, 0.308627
4923.22, 0.306882
4927.9, 0.305295
4932.59, 0.303550
4937.29, 0.301858
4942.0, 0.300324
4946.71, 0.298791
4951.44, 0.297310
4956.17, 0.295988
4960.91, 0.294666
4965.67, 0.293502
4970.43, 0.292497
4975.2, 0.291546
4979.98, 0.290594
4984.76, 0.289800
4989.56, 0.289272
4994.37, 0.288848
4999.18, 0.288320
5004.01, 0.287844
5008.84, 0.287579
5013.69, 0.287421
5018.54, 0.287315
5023.4, 0.287262
5028.28, 0.287209
5033.16, 0.287209
5038.05, 0.287103
5042.95, 0.287103
5047.86, 0.287156
5052.78, 0.287209
5057.71, 0.287209
5062.65, 0.287209
5067.6, 0.287156
5072.56, 0.287156
5077.53, 0.287156
5082.5, 0.287209
5087.49, 0.287103
5092.49, 0.286998
5097.5, 0.286839
5102.51, 0.286733
5107.54, 0.286627
5112.58, 0.286522
5117.62, 0.286469
5122.68, 0.286257
5127.75, 0.285993
5132.82, 0.285781
5137.91, 0.285570
5143.01, 0.285305
5148.12, 0.285041
5153.23, 0.284671
5158.36, 0.284406
5163.5, 0.284089
5168.65, 0.283666
5173.81, 0.283190
5178.98, 0.282661
5184.15, 0.282238
5189.34, 0.281815
5194.54, 0.281392
5199.75, 0.280969
5204.98, 0.280387
5210.21, 0.279964
5215.45, 0.279541
5220.7, 0.278854
5225.96, 0.278219
5231.23, 0.277584
5236.52, 0.277003
5241.81, 0.276368
5247.12, 0.275786
5252.44, 0.275152
5257.76, 0.274517
5263.1, 0.273883
5268.45, 0.273248
5273.81, 0.272560
5279.18, 0.271979
5284.56, 0.271397
5289.95, 0.271027
5295.36, 0.270445
5300.77, 0.269758
5306.2, 0.269123
5311.63, 0.268541
5317.08, 0.268012
5322.54, 0.267431
5328.01, 0.266796
5333.49, 0.266267
5338.98, 0.265633
5344.49, 0.265104
5350.0, 0.264575
5355.53, 0.263729
5361.07, 0.262830
5366.62, 0.262037
5372.18, 0.261191
5377.75, 0.260344
5383.34, 0.259498
5388.93, 0.258546
5394.54, 0.257594
5400.16, 0.256695
5405.79, 0.255744
5411.44, 0.254792
5417.09, 0.253945
5422.76, 0.253152
5428.43, 0.251724
5434.12, 0.250455
5439.83, 0.249345
5445.54, 0.248287
5451.26, 0.247071
5457.0, 0.246066
5462.75, 0.245273
5468.52, 0.244321
5474.29, 0.243210
5480.08, 0.242364
5485.88, 0.241359
5491.69, 0.240513
5497.51, 0.239826
5503.35, 0.239191
5509.2, 0.238398
5515.06, 0.237816
5520.93, 0.237340
5526.82, 0.236864
5532.71, 0.236282
5538.63, 0.235807
5544.55, 0.235331
5550.49, 0.234908
5556.44, 0.234484
5562.4, 0.234061
5568.37, 0.233533
5574.36, 0.233268
5580.36, 0.233110
5586.37, 0.232528
5592.4, 0.231946
5598.44, 0.231629
5604.49, 0.231259
5610.56, 0.230783
5616.63, 0.230518
5622.73, 0.230148
5628.83, 0.229831
5634.95, 0.229619
5641.08, 0.229672
5647.23, 0.229355
5653.39, 0.228826
5659.56, 0.228350
5665.74, 0.227715
5671.94, 0.227451
5678.15, 0.227028
5684.38, 0.226340
5690.62, 0.225812
5696.87, 0.225018
5703.14, 0.224225
5709.42, 0.223802
5715.72, 0.222956
5722.03, 0.221951
5728.35, 0.220893
5734.69, 0.219836
5741.03, 0.218672
5747.4, 0.217615
5753.78, 0.216240
5760.17, 0.215129
5766.58, 0.214230
5773.0, 0.212432
5779.44, 0.210634
5785.88, 0.209153
5792.35, 0.207567
5798.83, 0.206298
5805.32, 0.204976
5811.83, 0.203706
5818.35, 0.202860
5824.89, 0.201855
5831.45, 0.200375
5838.01, 0.198947
5844.59, 0.197625
5851.19, 0.196461
5857.8, 0.195509
5864.43, 0.194610
5871.07, 0.193553
5877.73, 0.193183
5884.4, 0.192389
5891.09, 0.191067
5897.79, 0.190327
5904.5, 0.189058
5911.23, 0.188106
5917.98, 0.187260
5924.75, 0.186466
5931.53, 0.186149
5938.32, 0.185938
5945.13, 0.184563
5951.96, 0.183505
5958.8, 0.182712
5965.65, 0.182236
5972.53, 0.181707
5979.42, 0.181072
5986.32, 0.180755
5993.24, 0.180015
6000.18, 0.179010
6007.13, 0.178375
6014.1, 0.177846
6021.08, 0.177106
6028.09, 0.176313
6035.1, 0.175731
6042.14, 0.175572
6049.19, 0.175625
6056.25, 0.174303
6063.34, 0.173140
6070.44, 0.172823
6077.55, 0.172082
6084.69, 0.170972
6091.84, 0.170231
6099.0, 0.169755
6106.19, 0.169491
6113.39, 0.169385
6120.61, 0.168698
6127.84, 0.168063
6135.09, 0.167799
6142.36, 0.167693
6149.65, 0.167534
6156.95, 0.167534
6164.27, 0.167376
6171.61, 0.167164
6178.97, 0.167376
6186.34, 0.167693
6193.73, 0.167481
6201.14, 0.167270
6208.57, 0.167376
6216.01, 0.167640
6223.47, 0.167852
6230.95, 0.168063
6238.45, 0.168275
6245.97, 0.168592
6253.5, 0.168856
6261.06, 0.169226
6268.63, 0.169650
6276.21, 0.169967
6283.82, 0.170231
6291.45, 0.170601
6299.1, 0.171077
6306.76, 0.171606
6314.44, 0.172241
6322.14, 0.172928
6329.86, 0.173722
6337.6, 0.174885
6345.35, 0.176366
6353.13, 0.177053
6360.92, 0.177794
6368.74, 0.179116
6376.57, 0.180226
6384.43, 0.181125
6392.3, 0.182130
6400.19, 0.183135
6408.1, 0.184933
6416.03, 0.186784
6423.98, 0.187260
6431.95, 0.188106
6439.94, 0.189269
6447.95, 0.190380
6455.98, 0.191649
6464.03, 0.192865
6472.1, 0.194505
6480.19, 0.196038
6488.31, 0.197836
6496.44, 0.199370
6504.59, 0.199899
6512.76, 0.200692
6520.95, 0.202173
6529.16, 0.202966
6537.4, 0.203918
6545.65, 0.204923
6553.92, 0.205875
6562.22, 0.206456
6570.54, 0.207514
6578.88, 0.207990
6587.23, 0.208149
6595.61, 0.208413
6604.02, 0.208519
6612.44, 0.208677
6620.89, 0.208942
6629.35, 0.209524
6637.84, 0.210158
6646.35, 0.209682
6654.88, 0.209100
6663.44, 0.209048
6672.01, 0.209259
6680.61, 0.209471
6689.23, 0.209259
6697.88, 0.208836
6706.54, 0.208889
6715.23, 0.208783
6723.94, 0.208413
6732.67, 0.207884
6741.42, 0.207461
6750.2, 0.207144
6759.0, 0.206721
6767.82, 0.206298
6776.67, 0.205716
6785.54, 0.205134
6794.44, 0.204394
6803.35, 0.203283
6812.29, 0.202596
6821.26, 0.202331
6830.24, 0.201961
6839.25, 0.201062
6848.29, 0.200586
6857.35, 0.200586
6866.43, 0.200322
6875.54, 0.199264
6884.67, 0.198365
6893.82, 0.197731
6903.0, 0.197360
6912.2, 0.196832
6921.43, 0.196091
6930.69, 0.195457
6939.96, 0.194663
6949.27, 0.193976
6958.59, 0.193606
6967.95, 0.192760
6977.33, 0.191649
6986.73, 0.190697
6996.16, 0.189692
7005.61, 0.188740
7015.09, 0.187789
7024.6, 0.186837
7034.13, 0.186043
7043.69, 0.185567
7053.27, 0.184721
7062.88, 0.183769
7072.52, 0.183082
7082.18, 0.182447
7091.87, 0.181654
7101.58, 0.180808
7111.32, 0.180120
7121.09, 0.179380
7130.88, 0.178587
7140.71, 0.177899
7150.56, 0.177212
7160.43, 0.176366
7170.33, 0.175572
7180.27, 0.174568
7190.23, 0.173510
7200.21, 0.172823
7210.23, 0.171924
7220.27, 0.170760
7230.34, 0.169702
7240.44, 0.168645
7250.56, 0.167693
7260.72, 0.166847
7270.9, 0.166106
7281.12, 0.165313
7291.36, 0.164255
7301.63, 0.163198
7311.93, 0.162299
7322.25, 0.161453
7332.61, 0.160765
7343.0, 0.159919
7353.41, 0.158808
7363.86, 0.157751
7374.33, 0.156799
7384.83, 0.155741
7395.37, 0.154684
7405.93, 0.153837
7416.53, 0.152991
7427.15, 0.152304
7437.81, 0.151405
7448.5, 0.150612
7459.22, 0.149871
7469.96, 0.148972
7480.74, 0.148073
7491.55, 0.147174
7502.39, 0.146116
7513.27, 0.145165
7524.17, 0.144266
7535.11, 0.143314
7546.08, 0.142362
7557.08, 0.141304
7568.11, 0.140246
7579.17, 0.139242
7590.27, 0.138237
7601.4, 0.137285
7612.56, 0.136227
7623.76, 0.135275
7634.98, 0.134324
7646.24, 0.133266
7657.54, 0.132155
7668.87, 0.131151
7680.23, 0.130093
7691.62, 0.128982
7703.05, 0.127925
7714.51, 0.126867
7726.01, 0.125756
7737.54, 0.124857
7749.11, 0.123641
7760.71, 0.122478
7772.35, 0.121367
7784.02, 0.120151
7795.72, 0.118935
7807.46, 0.117771
7819.23, 0.116449
7831.04, 0.115074
7842.89, 0.113805
7854.77, 0.112588
7866.69, 0.111161
7878.65, 0.109680
7890.64, 0.108252
7902.67, 0.106824
7914.74, 0.105396
7926.84, 0.103916
7938.98, 0.102435
7951.16, 0.101007
7963.37, 0.0994210
7975.62, 0.0979930
7987.91, 0.0963000
8000.24, 0.0945550
8012.6, 0.0928630
8025.01, 0.0912240
8037.45, 0.0894260
8049.93, 0.0877330
8062.45, 0.0860940
8075.01, 0.0844020
8087.61, 0.0826040
8100.24, 0.0808060
8112.91, 0.0791130
8125.63, 0.0773150
8138.39, 0.0752000
8151.18, 0.0731900
8164.02, 0.0711280
8176.9, 0.0688540
8189.81, 0.0667390
8202.77, 0.0645700
8215.77, 0.0623490
8228.82, 0.0602340
8241.9, 0.0580660
8255.02, 0.0558450
8268.19, 0.0535710
8281.39, 0.0514030
8294.65, 0.0493930
8307.94, 0.0473830
8321.28, 0.0451620
8334.66, 0.0429940
8348.08, 0.0408790
8361.54, 0.0389220
8375.05, 0.0368070
8388.6, 0.0349030
8402.2, 0.0329460
8415.84, 0.0310420
8429.52, 0.0292970
8443.25, 0.0277640
8457.02, 0.0261770
8470.84, 0.0246440
8484.7, 0.0231100
8498.61, 0.0217350
8512.57, 0.0204660
8526.57, 0.0193020
8540.62, 0.0181920
8554.71, 0.0173990
8568.85, 0.0167110
8583.04, 0.0158650
8597.27, 0.0152830
8611.55, 0.0148600
8625.88, 0.0144900
8640.26, 0.0144900
8654.68, 0.0145430
8669.16, 0.0147540
8683.68, 0.0151780
8698.25, 0.0160240
8712.87, 0.0168700
8727.53, 0.0179270
8742.25, 0.0191970
8757.02, 0.0207300
8771.83, 0.0224230
8786.7, 0.0242210
8801.62, 0.0263360
8816.59, 0.0287160
8831.61, 0.0310420
8846.68, 0.0335280
8861.8, 0.0361190
8876.97, 0.0388160
8892.2, 0.0415130
8907.48, 0.0443690
8922.81, 0.0471720
8938.2, 0.0500800
8953.63, 0.0532010
8969.13, 0.0566380
8984.67, 0.0604460
9000.27, 0.0648350
9015.92, 0.0698060
9031.63, 0.0747770
9047.39, 0.0795360
9063.21, 0.0842960
9079.08, 0.0888440
9095.01, 0.0927570
9111.0, 0.0961420
9127.04, 0.0993680
9143.13, 0.102488
9159.28, 0.106084
9175.49, 0.110156
9191.76, 0.114915
9208.09, 0.120204
9224.47, 0.126021
9240.92, 0.132050
9257.42, 0.138343
9273.98, 0.144001
9290.6, 0.148655
9307.28, 0.152410
9324.02, 0.154736
9340.82, 0.155583
9357.68, 0.155212
9374.6, 0.153837
9391.58, 0.151987
9408.62, 0.150241
9425.73, 0.149078
9442.9, 0.148602
9460.13, 0.148972
9477.42, 0.150347
9494.78, 0.152727
9512.2, 0.156059
9529.69, 0.160236
9547.24, 0.164890
9564.86, 0.169914
9582.54, 0.175097
9600.28, 0.180332
9618.1, 0.185726
9635.97, 0.191332
9653.92, 0.197149
9671.93, 0.202120
9690.01, 0.205822
9708.16, 0.208201
9726.37, 0.209365
9744.65, 0.209524
9763.0, 0.208730
9781.43, 0.207197
9799.92, 0.204658
9818.48, 0.201221
9837.1, 0.197308
9855.8, 0.193024
9874.58, 0.188212
9893.42, 0.183188
9912.34, 0.178270
9931.33, 0.173351
9950.39, 0.168380
9969.52, 0.163621
9988.74, 0.159232
10008.0, 0.155265
10027.4, 0.151616
10046.8, 0.148232
10066.3, 0.144953
10085.9, 0.141780
10105.6, 0.138924
10125.3, 0.136069
10145.1, 0.133054
10165.0, 0.130252
10185.0, 0.127607
10205.0, 0.125175
10225.2, 0.123271
10245.4, 0.121949
10265.7, 0.121367
10286.0, 0.121684
10306.5, 0.122372
10327.0, 0.122954
10347.6, 0.123694
10368.3, 0.124434
10389.1, 0.124752
10409.9, 0.124699
10430.9, 0.124170
10451.9, 0.123377
10473.0, 0.121790
10494.2, 0.119728
10515.5, 0.117560
10536.9, 0.115021
10558.4, 0.112007
10579.9, 0.108940
10601.5, 0.105978
10623.3, 0.102752
10645.1, 0.0995790
10667.0, 0.0966180
10689.0, 0.0940260
10711.1, 0.0915940
10733.2, 0.0893730
10755.5, 0.0876800
10777.9, 0.0862000
10800.3, 0.0848250
10822.9, 0.0833970
10845.5, 0.0822860
10868.2, 0.0813340
10891.1, 0.0803300
10914.0, 0.0790610
10937.0, 0.0781610
10960.2, 0.0774210
10983.4, 0.0767340
11006.7, 0.0760460
11030.1, 0.0757820
11053.6, 0.0754120
11077.3, 0.0750410
11101.0, 0.0744600
11124.8, 0.0737190
11148.7, 0.0732430
11172.7, 0.0730850
11196.9, 0.0726090
11221.1, 0.0717630
11245.4, 0.0707580
11269.9, 0.0700170
11294.4, 0.0691180
11319.1, 0.0683780
11343.9, 0.0675320
11368.8, 0.0664740
11393.7, 0.0655750
11418.8, 0.0648880
11444.0, 0.0638300
11469.4, 0.0630370
11494.8, 0.0623490
11520.3, 0.0615030
11546.0, 0.0610800
11571.8, 0.0608690
11597.7, 0.0604460
11623.7, 0.0598110
11649.8, 0.0591240
11676.0, 0.0589650
11702.4, 0.0582770
11728.9, 0.0573250
11755.5, 0.0563740
11782.2, 0.0552630
11809.0, 0.0539410
11836.0, 0.0523020
11863.0, 0.0503450
11890.3, 0.0484410
11917.6, 0.0464320
11945.0, 0.0444220
11972.6, 0.0423600
12000.4, 0.0406140
12028.2, 0.0388160
12056.2, 0.0371770
12084.3, 0.0356960
12112.5, 0.0344270
12140.9, 0.0334750
12169.4, 0.0328930
12198.0, 0.0319940
12226.8, 0.0311480
12255.7, 0.0301430
12284.7, 0.0293500
12313.9, 0.0287690
12343.2, 0.0283450
12372.7, 0.0278690
12402.3, 0.0274990
12432.0, 0.0268650
12461.9, 0.0265470
12491.9, 0.0262830
12522.1, 0.0262300
12552.4, 0.0262830
12582.9, 0.0267060
12613.5, 0.0271290
12644.3, 0.0274990
12675.2, 0.0282400
12706.3, 0.0292440
12737.5, 0.0300910
12768.9, 0.0311480
12800.4, 0.0323650
12832.1, 0.0337400
12863.9, 0.0347970
12895.9, 0.0360140
12928.1, 0.0370180
12960.4, 0.0380230
12992.9, 0.0390280
13025.5, 0.0401910
13058.3, 0.0413550
13091.3, 0.0422540
13124.4, 0.0428880
13157.8, 0.0436290
13191.2, 0.0441050
13224.9, 0.0444750
13258.7, 0.0448980
13292.7, 0.0449510
13326.9, 0.0445280
13361.2, 0.0439460
13395.7, 0.0434170
13430.4, 0.0429940
13465.3, 0.0425710
13500.4, 0.0422540
13535.7, 0.0418840
13571.1, 0.0418840
13606.7, 0.0419360
13642.5, 0.0419890
13678.5, 0.0424120
13714.7, 0.0429410
13751.1, 0.0430470
13787.6, 0.0432060
13824.4, 0.0429410
13861.4, 0.0429410
13898.5, 0.0427830
13935.9, 0.0425180
13973.5, 0.0419360
14011.2, 0.0415130
14049.2, 0.0414080
14087.4, 0.0411430
14125.8, 0.0410370
14164.3, 0.0417780
14203.2, 0.0419360
14242.2, 0.0416720
14281.4, 0.0418310
14320.9, 0.0425710
14360.5, 0.0433640
14400.4, 0.0444220
14440.5, 0.0457440
14480.9, 0.0469070
14521.4, 0.0475420
14562.2, 0.0483350
14603.3, 0.0492870
14644.5, 0.0502390
14686.0, 0.0507150
14727.7, 0.0509270
14769.7, 0.0507680
14811.9, 0.0508210
14854.3, 0.0507150
14897.0, 0.0508210
14939.9, 0.0511910
14983.1, 0.0518260
15026.5, 0.0527250
15070.2, 0.0544700
15114.2, 0.0562680
15158.3, 0.0583830
15202.8, 0.0609220
15247.5, 0.0631960
15292.5, 0.0652580
15337.7, 0.0667390
15383.2, 0.0673200
15429.0, 0.0682190
15475.1, 0.0681670
15521.4, 0.0673200
15568.0, 0.0664210
15614.9, 0.0655220
15662.1, 0.0643590
15709.6, 0.0630370
15757.3, 0.0613970
15805.4, 0.0601810
15853.7, 0.0590180
15902.3, 0.0576430
15951.2, 0.0569550
16000.5, 0.0560560
16050.0, 0.0547340
16099.8, 0.0542050
16150.0, 0.0532010
16200.5, 0.0520370
16251.3, 0.0511380
16302.4, 0.0500280
16353.8, 0.0490230
16405.5, 0.0482820
16457.6, 0.0471720
16510.0, 0.0459030
16562.8, 0.0441580
16615.9, 0.0418840
16669.3, 0.0397150
16723.1, 0.0380760
16777.2, 0.0361190
16831.7, 0.0339510
16886.5, 0.0316240
16941.7, 0.0292970
16997.2, 0.0270760
17053.1, 0.0251720
17109.4, 0.0229510
17166.1, 0.0214180
17223.1, 0.0203070
17280.5, 0.0199370
17338.3, 0.0196730
17396.5, 0.0204130
17455.1, 0.0230040
17514.0, 0.0270760
17573.4, 0.0321000
17633.2, 0.0378640
17693.4, 0.0446860
17754.0, 0.0529890
17815.0, 0.0592290
17876.4, 0.0636710
17938.3, 0.0671620
18000.5, 0.0675850
18063.3, 0.0655750
18126.4, 0.0640420
18190.0, 0.0626140
18254.1, 0.0619260
18318.6, 0.0631430
18383.5, 0.0660510
18449.0, 0.0685900
18514.9, 0.0705460
18581.2, 0.0722910
18648.0, 0.0739840
18715.4, 0.0768390
18783.2, 0.0814930
18851.5, 0.0868870
18920.3, 0.0931800
18989.6, 0.0996850
19059.4, 0.108569
19129.7, 0.118987
19200.6, 0.129511
19272.0, 0.140670
19343.9, 0.152938
19416.3, 0.164414
19489.3, 0.172981
19562.8, 0.178904
19637.0, 0.184457
19711.6, 0.188793
19786.8, 0.192601
19862.6, 0.196303
19939.0, 0.198735
20016.0, 0.199317
20093.6, 0.199264
20171.8, 0.199000
20250.6, 0.198101
20330.0, 0.199106
20410.0, 0.202331
20490.7, 0.207302
20572.0, 0.215658
20654.0, 0.223273
20736.6, 0.228826
20819.9, 0.235172
20903.8, 0.239720
20988.5, 0.242999
21073.8, 0.244638
21159.8, 0.244585
21246.5, 0.242893
21334.0, 0.240302
21422.1, 0.238556
21511.0, 0.235754
21600.7, 0.230624
21691.0, 0.223908
21782.1, 0.216557
21874.0, 0.209471
21966.7, 0.201644
22060.2, 0.191332
22154.5, 0.183664
22249.6, 0.181601
22345.5, 0.180596
22442.2, 0.178851
22539.8, 0.180068
22638.2, 0.180438
22737.5, 0.176101
22837.7, 0.168856
22938.7, 0.162986
23040.7, 0.158597
23143.5, 0.153890
23247.3, 0.148496
23352.1, 0.144054
23457.7, 0.141198
23564.4, 0.137232
23672.0, 0.131997
23780.5, 0.129881
23890.1, 0.129405
24000.7, 0.130304
24112.3, 0.130622
24225.0, 0.128242
24338.7, 0.122795
24453.5, 0.122160
24569.4, 0.123377
24686.4, 0.121949
24804.5, 0.117454
24923.8, 0.114862
