Database of Origin, USGS Spectral Database
Sample Description, See USGS database for additional info
Date Added,2016-08-03 21:23:57.292735

Data ID,USGS_cli04          
Sample ID, clinochlore_gds157.5621
Mineral Name, clinochlore
Material Class,Phyllosilicate

Wavelength
1582.95, 0.252563
1583.43, 0.250848
1583.92, 0.250098
1584.4, 0.251384
1584.88, 0.251706
1585.37, 0.251545
1585.85, 0.251062
1586.34, 0.252938
1586.82, 0.252778
1587.31, 0.252081
1587.8, 0.251652
1588.28, 0.251974
1588.77, 0.253528
1589.26, 0.252885
1589.74, 0.251920
1590.23, 0.253903
1590.72, 0.255350
1591.21, 0.255565
1591.7, 0.257226
1592.19, 0.256262
1592.67, 0.255618
1593.16, 0.255672
1593.65, 0.255779
1594.14, 0.257762
1594.63, 0.260014
1595.12, 0.259478
1595.61, 0.257548
1596.11, 0.256369
1596.6, 0.257870
1597.09, 0.259210
1597.58, 0.259102
1598.08, 0.257655
1598.57, 0.259370
1599.06, 0.260121
1599.55, 0.260014
1600.05, 0.261086
1600.54, 0.263283
1601.04, 0.260710
1601.53, 0.258191
1602.03, 0.258834
1602.52, 0.259478
1603.02, 0.260871
1603.51, 0.260871
1604.01, 0.261300
1604.5, 0.260014
1605.0, 0.259478
1605.5, 0.261139
1606.0, 0.261407
1606.49, 0.262318
1606.99, 0.263712
1607.49, 0.264891
1607.99, 0.266338
1608.49, 0.266178
1608.99, 0.265427
1609.49, 0.265320
1609.99, 0.265749
1610.49, 0.265320
1610.99, 0.264462
1611.49, 0.263766
1611.99, 0.264784
1612.49, 0.266124
1612.99, 0.265749
1613.49, 0.265588
1614.0, 0.267571
1614.5, 0.267946
1615.0, 0.268054
1615.51, 0.268697
1616.01, 0.270144
1616.51, 0.270573
1617.02, 0.269662
1617.52, 0.269554
1618.03, 0.268697
1618.53, 0.269769
1619.04, 0.270412
1619.54, 0.270251
1620.05, 0.269822
1620.55, 0.269983
1621.06, 0.272717
1621.57, 0.273146
1622.08, 0.272234
1622.58, 0.271162
1623.09, 0.270626
1623.6, 0.272288
1624.11, 0.272449
1624.62, 0.272931
1625.13, 0.272663
1625.64, 0.273092
1626.15, 0.274968
1626.66, 0.275665
1627.17, 0.274218
1627.68, 0.272985
1628.19, 0.272878
1628.7, 0.274110
1629.21, 0.274861
1629.72, 0.275022
1630.24, 0.275075
1630.75, 0.275772
1631.26, 0.275022
1631.78, 0.274164
1632.29, 0.274164
1632.8, 0.273950
1633.32, 0.275343
1633.83, 0.277648
1634.35, 0.277862
1634.86, 0.277112
1635.38, 0.276201
1635.9, 0.276844
1636.41, 0.276790
1636.93, 0.276576
1637.45, 0.276737
1637.96, 0.279631
1638.48, 0.280221
1639.0, 0.278720
1639.52, 0.277380
1640.04, 0.277219
1640.56, 0.278613
1641.08, 0.278506
1641.59, 0.278130
1642.11, 0.279042
1642.63, 0.280489
1643.16, 0.281775
1643.68, 0.282097
1644.2, 0.281775
1644.72, 0.281078
1645.24, 0.280703
1645.76, 0.280328
1646.29, 0.280918
1646.81, 0.280435
1647.33, 0.280328
1647.86, 0.281561
1648.38, 0.281239
1648.9, 0.280435
1649.43, 0.281668
1649.95, 0.281346
1650.48, 0.282043
1651.0, 0.283973
1651.53, 0.285098
1652.06, 0.284455
1652.58, 0.283490
1653.11, 0.285474
1653.64, 0.286224
1654.17, 0.284562
1654.69, 0.284616
1655.22, 0.284938
1655.75, 0.284616
1656.28, 0.284938
1656.81, 0.285795
1657.34, 0.285795
1657.87, 0.286438
1658.4, 0.286492
1658.93, 0.286385
1659.46, 0.286117
1659.99, 0.286599
1660.52, 0.287564
1661.05, 0.287725
1661.59, 0.287993
1662.12, 0.288636
1662.65, 0.288582
1663.19, 0.287242
1663.72, 0.285313
1664.26, 0.285956
1664.79, 0.288582
1665.32, 0.289762
1665.86, 0.291155
1666.39, 0.290994
1666.93, 0.291316
1667.47, 0.291423
1668.0, 0.291155
1668.54, 0.290994
1669.08, 0.291477
1669.61, 0.291584
1670.15, 0.290994
1670.69, 0.291209
1671.23, 0.290994
1671.77, 0.290351
1672.31, 0.290566
1672.85, 0.291745
1673.39, 0.292227
1673.93, 0.292763
1674.47, 0.293299
1675.01, 0.292602
1675.55, 0.293406
1676.09, 0.293996
1676.64, 0.293085
1677.18, 0.293406
1677.72, 0.294961
1678.26, 0.296086
1678.81, 0.296408
1679.35, 0.295765
1679.89, 0.294586
1680.44, 0.296247
1680.98, 0.297105
1681.53, 0.296515
1682.07, 0.296783
1682.62, 0.298070
1683.17, 0.298498
1683.71, 0.297641
1684.26, 0.296998
1684.81, 0.296783
1685.36, 0.296944
1685.9, 0.297909
1686.45, 0.298874
1687.0, 0.298766
1687.55, 0.298338
1688.1, 0.298552
1688.65, 0.298927
1689.2, 0.299678
1689.75, 0.298659
1690.3, 0.298016
1690.85, 0.298981
1691.41, 0.300106
1691.96, 0.301232
1692.51, 0.301982
1693.06, 0.301714
1693.61, 0.301339
1694.17, 0.301286
1694.72, 0.301446
1695.28, 0.301714
1695.83, 0.302304
1696.39, 0.301822
1696.94, 0.302090
1697.5, 0.303376
1698.05, 0.303590
1698.61, 0.302894
1699.17, 0.303483
1699.72, 0.305038
1700.28, 0.305252
1700.84, 0.304341
1701.4, 0.304984
1701.95, 0.305306
1702.51, 0.305252
1703.07, 0.305359
1703.63, 0.305359
1704.19, 0.305627
1704.75, 0.305842
1705.31, 0.305413
1705.88, 0.304930
1706.44, 0.305198
1707.0, 0.305359
1707.56, 0.306753
1708.12, 0.306163
1708.69, 0.305198
1709.25, 0.306056
1709.81, 0.306699
1710.38, 0.307771
1710.94, 0.308629
1711.51, 0.308146
1712.07, 0.308146
1712.64, 0.307932
1713.2, 0.307718
1713.77, 0.307503
1714.34, 0.308093
1714.9, 0.309326
1715.47, 0.309540
1716.04, 0.309379
1716.61, 0.308950
1717.18, 0.308629
1717.74, 0.308950
1718.31, 0.309326
1718.88, 0.309808
1719.45, 0.309486
1720.02, 0.309486
1720.59, 0.309754
1721.17, 0.311094
1721.74, 0.311309
1722.31, 0.310237
1722.88, 0.309647
1723.45, 0.310558
1724.03, 0.311791
1724.6, 0.312220
1725.18, 0.312113
1725.75, 0.312702
1726.33, 0.313721
1726.9, 0.313828
1727.48, 0.313078
1728.05, 0.313560
1728.63, 0.313560
1729.2, 0.313882
1729.78, 0.313614
1730.36, 0.314150
1730.94, 0.313614
1731.51, 0.313346
1732.09, 0.314471
1732.67, 0.314418
1733.25, 0.314578
1733.83, 0.314525
1734.41, 0.314418
1734.99, 0.315543
1735.57, 0.315811
1736.15, 0.315758
1736.73, 0.315382
1737.32, 0.315918
1737.9, 0.316508
1738.48, 0.316562
1739.07, 0.316347
1739.65, 0.316401
1740.23, 0.317741
1740.82, 0.318116
1741.4, 0.317634
1741.99, 0.317580
1742.57, 0.317794
1743.16, 0.318813
1743.74, 0.318545
1744.33, 0.318491
1744.92, 0.319188
1745.51, 0.320367
1746.09, 0.320099
1746.68, 0.320260
1747.27, 0.320474
1747.86, 0.320474
1748.45, 0.319563
1749.04, 0.319188
1749.63, 0.319510
1750.22, 0.319295
1750.81, 0.319188
1751.4, 0.320314
1751.99, 0.320903
1752.59, 0.321761
1753.18, 0.321922
1753.77, 0.321546
1754.37, 0.322511
1754.96, 0.323154
1755.56, 0.322833
1756.15, 0.323315
1756.74, 0.322565
1757.34, 0.321654
1757.94, 0.322350
1758.53, 0.323154
1759.13, 0.323315
1759.73, 0.323208
1760.32, 0.323530
1760.92, 0.324387
1761.52, 0.324173
1762.12, 0.324602
1762.72, 0.325084
1763.32, 0.325674
1763.92, 0.325995
1764.52, 0.326370
1765.12, 0.326210
1765.72, 0.325674
1766.32, 0.326317
1766.92, 0.327442
1767.53, 0.327335
1768.13, 0.327282
1768.73, 0.327174
1769.34, 0.327121
1769.94, 0.326638
1770.55, 0.326906
1771.15, 0.327550
1771.76, 0.328246
1772.36, 0.328407
1772.97, 0.328890
1773.57, 0.328246
1774.18, 0.328032
1774.79, 0.328836
1775.4, 0.329479
1776.0, 0.329158
1776.61, 0.328729
1777.22, 0.329211
1777.83, 0.330283
1778.44, 0.330444
1779.05, 0.330390
1779.66, 0.330766
1780.27, 0.331141
1780.88, 0.330980
1781.5, 0.330712
1782.11, 0.330283
1782.72, 0.330819
1783.33, 0.331141
1783.95, 0.331998
1784.56, 0.332695
1785.18, 0.332481
1785.79, 0.331891
1786.41, 0.332213
1787.02, 0.332856
1787.64, 0.332642
1788.26, 0.332374
1788.87, 0.332695
1789.49, 0.333231
1790.11, 0.333821
1790.73, 0.334196
1791.35, 0.334089
1791.96, 0.333231
1792.58, 0.333553
1793.21, 0.334678
1793.83, 0.335536
1794.45, 0.335750
1795.07, 0.335268
1795.69, 0.335375
1796.31, 0.335536
1796.93, 0.335375
1797.56, 0.335858
1798.18, 0.336394
1798.8, 0.336286
1799.43, 0.336340
1800.05, 0.335911
1800.68, 0.336018
1801.3, 0.335965
1801.93, 0.336072
1802.56, 0.336930
1803.18, 0.337626
1803.81, 0.337090
1804.44, 0.337090
1805.07, 0.337519
1805.7, 0.337626
1806.33, 0.337894
1806.95, 0.338270
1807.58, 0.338162
1808.22, 0.338538
1808.85, 0.338591
1809.48, 0.338109
1810.11, 0.338806
1810.74, 0.339074
1811.38, 0.338806
1812.01, 0.339234
1812.64, 0.339556
1813.28, 0.339931
1813.91, 0.340146
1814.55, 0.340146
1815.18, 0.340199
1815.82, 0.340574
1816.45, 0.341003
1817.09, 0.341164
1817.73, 0.340896
1818.36, 0.340896
1819.0, 0.340950
1819.64, 0.340574
1820.28, 0.340950
1820.92, 0.341164
1821.56, 0.341378
1822.2, 0.341807
1822.84, 0.341861
1823.48, 0.342236
1824.12, 0.342718
1824.76, 0.342772
1825.41, 0.342182
1826.05, 0.342450
1826.69, 0.342933
1827.34, 0.342558
1827.98, 0.342182
1828.63, 0.342933
1829.27, 0.343737
1829.92, 0.343844
1830.56, 0.343951
1831.21, 0.343844
1831.86, 0.343844
1832.5, 0.344648
1833.15, 0.344648
1833.8, 0.344487
1834.45, 0.344380
1835.1, 0.344434
1835.75, 0.344380
1836.4, 0.344487
1837.05, 0.344166
1837.7, 0.344594
1838.35, 0.346202
1839.01, 0.346363
1839.66, 0.346149
1840.31, 0.346792
1840.96, 0.346310
1841.62, 0.345666
1842.27, 0.346095
1842.93, 0.346899
1843.58, 0.347810
1844.24, 0.348507
1844.9, 0.348454
1845.55, 0.347918
1846.21, 0.347006
1846.87, 0.346095
1847.53, 0.346310
1848.18, 0.346738
1848.84, 0.348078
1849.5, 0.348668
1850.16, 0.348507
1850.82, 0.348775
1851.48, 0.349365
1852.14, 0.349097
1852.81, 0.348990
1853.47, 0.348186
1854.13, 0.348186
1854.8, 0.349043
1855.46, 0.349633
1856.12, 0.349472
1856.79, 0.348829
1857.45, 0.349365
1858.12, 0.349954
1858.79, 0.350115
1859.45, 0.350169
1860.12, 0.350276
1860.79, 0.350758
1861.46, 0.351402
1862.12, 0.351509
1862.79, 0.351348
1863.46, 0.351294
1864.13, 0.351562
1864.8, 0.351723
1865.48, 0.352152
1866.15, 0.352527
1866.82, 0.351616
1867.49, 0.350544
1868.16, 0.351134
1868.84, 0.351884
1869.51, 0.351938
1870.19, 0.351777
1870.86, 0.350330
1871.54, 0.350973
1872.21, 0.351241
1872.89, 0.350598
1873.56, 0.351080
1874.24, 0.352045
1874.92, 0.352581
1875.6, 0.352795
1876.28, 0.353170
1876.96, 0.353278
1877.64, 0.353117
1878.32, 0.353867
1879.0, 0.354189
1879.68, 0.354939
1880.36, 0.354403
1881.04, 0.354242
1881.73, 0.354350
1882.41, 0.354778
1883.09, 0.354403
1883.78, 0.353599
1884.46, 0.353974
1885.15, 0.354993
1885.83, 0.355743
1886.52, 0.355904
1887.21, 0.355529
1887.89, 0.355261
1888.58, 0.356440
1889.27, 0.356708
1889.96, 0.356118
1890.65, 0.356226
1891.34, 0.356922
1892.03, 0.356762
1892.72, 0.356386
1893.41, 0.356922
1894.1, 0.357244
1894.79, 0.357190
1895.49, 0.357405
1896.18, 0.358530
1896.87, 0.358798
1897.57, 0.358370
1898.26, 0.358638
1898.96, 0.358262
1899.65, 0.357994
1900.35, 0.359120
1901.05, 0.360299
1901.74, 0.359978
1902.44, 0.359334
1903.14, 0.359656
1903.84, 0.360674
1904.54, 0.360406
1905.24, 0.359924
1905.94, 0.360460
1906.64, 0.360621
1907.34, 0.361103
1908.04, 0.361800
1908.75, 0.362443
1909.45, 0.362711
1910.15, 0.362818
1910.86, 0.362497
1911.56, 0.362818
1912.27, 0.363086
1912.97, 0.362658
1913.68, 0.362926
1914.39, 0.363462
1915.09, 0.363622
1915.8, 0.363837
1916.51, 0.364534
1917.22, 0.365498
1917.93, 0.365230
1918.64, 0.364534
1919.35, 0.364373
1920.06, 0.364266
1920.77, 0.364105
1921.48, 0.365123
1922.19, 0.366463
1922.91, 0.366624
1923.62, 0.365820
1924.33, 0.365766
1925.05, 0.366999
1925.76, 0.367696
1926.48, 0.366946
1927.19, 0.366678
1927.91, 0.366999
1928.63, 0.367589
1929.35, 0.368125
1930.07, 0.367964
1930.78, 0.367803
1931.5, 0.367857
1932.22, 0.367642
1932.94, 0.368232
1933.66, 0.368661
1934.39, 0.368661
1935.11, 0.368875
1935.83, 0.368875
1936.55, 0.368714
1937.28, 0.369733
1938.0, 0.370430
1938.73, 0.369786
1939.45, 0.369358
1940.18, 0.369733
1940.9, 0.369572
1941.63, 0.369518
1942.36, 0.370001
1943.09, 0.370108
1943.81, 0.370215
1944.54, 0.369840
1945.27, 0.369358
1946.0, 0.369947
1946.73, 0.370054
1947.47, 0.370162
1948.2, 0.370430
1948.93, 0.370751
1949.66, 0.370912
1950.4, 0.370751
1951.13, 0.370858
1951.86, 0.370483
1952.6, 0.370108
1953.34, 0.370269
1954.07, 0.370698
1954.81, 0.370698
1955.55, 0.370376
1956.29, 0.370751
1957.02, 0.371234
1957.76, 0.371180
1958.5, 0.371394
1959.24, 0.371341
1959.98, 0.371073
1960.72, 0.371341
1961.47, 0.371770
1962.21, 0.372038
1962.95, 0.372038
1963.7, 0.371770
1964.44, 0.371823
1965.18, 0.372252
1965.93, 0.372574
1966.67, 0.372520
1967.42, 0.372520
1968.17, 0.372681
1968.92, 0.373110
1969.66, 0.373163
1970.41, 0.373378
1971.16, 0.373378
1971.91, 0.372949
1972.66, 0.372681
1973.41, 0.372520
1974.16, 0.372359
1974.92, 0.372359
1975.67, 0.372091
1976.42, 0.371984
1977.18, 0.372198
1977.93, 0.372198
1978.69, 0.372252
1979.44, 0.372466
1980.2, 0.372466
1980.95, 0.372681
1981.71, 0.372842
1982.47, 0.372681
1983.23, 0.372252
1983.99, 0.372091
1984.74, 0.372413
1985.51, 0.372681
1986.27, 0.372734
1987.03, 0.372681
1987.79, 0.372198
1988.55, 0.371930
1989.32, 0.371984
1990.08, 0.372091
1990.84, 0.372252
1991.61, 0.372038
1992.37, 0.371877
1993.14, 0.372306
1993.9, 0.372574
1994.67, 0.372949
1995.44, 0.373110
1996.21, 0.373485
1996.98, 0.373217
1997.75, 0.372842
1998.52, 0.373002
1999.29, 0.373056
2000.06, 0.373431
2000.83, 0.374021
2001.6, 0.374074
2002.38, 0.373592
2003.15, 0.373699
2003.93, 0.373753
2004.7, 0.373967
2005.48, 0.374342
2006.25, 0.374718
2007.03, 0.374878
2007.81, 0.374878
2008.58, 0.375039
2009.36, 0.375200
2010.14, 0.375361
2010.92, 0.376058
2011.7, 0.376915
2012.48, 0.377076
2013.26, 0.377237
2014.05, 0.377130
2014.83, 0.377505
2015.61, 0.378416
2016.4, 0.379113
2017.18, 0.379274
2017.97, 0.379434
2018.75, 0.379274
2019.54, 0.379542
2020.32, 0.380131
2021.11, 0.380828
2021.9, 0.381632
2022.69, 0.382329
2023.48, 0.382597
2024.27, 0.383186
2025.06, 0.383776
2025.85, 0.384151
2026.64, 0.384312
2027.44, 0.384634
2028.23, 0.384902
2029.02, 0.385062
2029.82, 0.385598
2030.61, 0.386027
2031.41, 0.386402
2032.2, 0.387260
2033.0, 0.387903
2033.8, 0.388118
2034.6, 0.389243
2035.4, 0.389779
2036.2, 0.389779
2037.0, 0.390262
2037.8, 0.390637
2038.6, 0.390583
2039.4, 0.391334
2040.2, 0.392030
2041.01, 0.392406
2041.81, 0.392942
2042.61, 0.393102
2043.42, 0.393210
2044.22, 0.393585
2045.03, 0.393853
2045.84, 0.394389
2046.65, 0.394764
2047.46, 0.395139
2048.26, 0.395675
2049.07, 0.395890
2049.88, 0.396265
2050.69, 0.396318
2051.51, 0.397069
2052.32, 0.397551
2053.13, 0.397766
2053.94, 0.397873
2054.76, 0.398087
2055.57, 0.398248
2056.39, 0.398355
2057.2, 0.398891
2058.02, 0.398998
2058.84, 0.399213
2059.66, 0.399695
2060.48, 0.400070
2061.29, 0.400392
2062.11, 0.400178
2062.94, 0.400446
2063.76, 0.401089
2064.58, 0.401410
2065.4, 0.401518
2066.22, 0.402054
2067.05, 0.402590
2067.87, 0.402375
2068.7, 0.402375
2069.52, 0.402750
2070.35, 0.402804
2071.18, 0.402965
2072.0, 0.403554
2072.83, 0.403983
2073.66, 0.403930
2074.49, 0.403715
2075.32, 0.404251
2076.15, 0.404358
2076.98, 0.404519
2077.82, 0.404466
2078.65, 0.404305
2079.48, 0.404305
2080.32, 0.404251
2081.15, 0.405055
2081.99, 0.406020
2082.83, 0.406556
2083.66, 0.406610
2084.5, 0.406502
2085.34, 0.406556
2086.18, 0.406931
2087.02, 0.407092
2087.86, 0.406931
2088.7, 0.406878
2089.54, 0.407199
2090.39, 0.407467
2091.23, 0.407467
2092.07, 0.407682
2092.92, 0.408110
2093.76, 0.408646
2094.61, 0.408593
2095.45, 0.408218
2096.3, 0.408432
2097.15, 0.408914
2098.0, 0.409075
2098.85, 0.408914
2099.7, 0.408968
2100.55, 0.409236
2101.4, 0.409665
2102.25, 0.409933
2103.1, 0.409826
2103.96, 0.409772
2104.81, 0.409826
2105.67, 0.409772
2106.52, 0.409933
2107.38, 0.410040
2108.24, 0.410254
2109.09, 0.410576
2109.95, 0.410254
2110.81, 0.410040
2111.67, 0.410415
2112.53, 0.411058
2113.39, 0.410951
2114.25, 0.410469
2115.12, 0.410201
2115.98, 0.410362
2116.84, 0.410790
2117.71, 0.410576
2118.58, 0.410630
2119.44, 0.411112
2120.31, 0.411166
2121.18, 0.411166
2122.04, 0.411112
2122.91, 0.411594
2123.78, 0.411970
2124.65, 0.411916
2125.52, 0.411809
2126.4, 0.411809
2127.27, 0.412398
2128.14, 0.412613
2129.02, 0.412613
2129.89, 0.412398
2130.77, 0.412238
2131.64, 0.412666
2132.52, 0.413095
2133.4, 0.413363
2134.27, 0.413524
2135.15, 0.413578
2136.03, 0.413685
2136.91, 0.414060
2137.79, 0.413953
2138.68, 0.414167
2139.56, 0.414542
2140.44, 0.414864
2141.33, 0.415132
2142.21, 0.415078
2143.1, 0.414918
2143.99, 0.415346
2144.87, 0.415722
2145.76, 0.415722
2146.65, 0.416043
2147.54, 0.416097
2148.43, 0.416043
2149.32, 0.416311
2150.21, 0.416043
2151.1, 0.415775
2151.99, 0.415936
2152.89, 0.416579
2153.78, 0.416686
2154.68, 0.416526
2155.57, 0.416472
2156.47, 0.416740
2157.37, 0.416954
2158.27, 0.417008
2159.16, 0.417008
2160.06, 0.417115
2160.96, 0.417276
2161.86, 0.417383
2162.77, 0.417169
2163.67, 0.417330
2164.57, 0.417490
2165.48, 0.417437
2166.38, 0.417705
2167.29, 0.417598
2168.2, 0.417758
2169.1, 0.417866
2170.01, 0.417598
2170.92, 0.417651
2171.83, 0.417705
2172.74, 0.417437
2173.65, 0.417330
2174.56, 0.417705
2175.47, 0.417705
2176.39, 0.417276
2177.3, 0.417544
2178.22, 0.417758
2179.13, 0.417598
2180.05, 0.417115
2180.96, 0.416954
2181.88, 0.417169
2182.8, 0.417330
2183.72, 0.417062
2184.64, 0.416740
2185.56, 0.417222
2186.48, 0.417330
2187.41, 0.416901
2188.33, 0.416526
2189.25, 0.416472
2190.18, 0.416579
2191.1, 0.416365
2192.03, 0.415775
2192.96, 0.415936
2193.89, 0.415936
2194.82, 0.415722
2195.74, 0.415400
2196.68, 0.415186
2197.61, 0.415078
2198.54, 0.414918
2199.47, 0.414757
2200.4, 0.414918
2201.34, 0.414757
2202.28, 0.414489
2203.21, 0.414167
2204.15, 0.413792
2205.08, 0.413470
2206.02, 0.413256
2206.96, 0.413149
2207.9, 0.413042
2208.84, 0.412934
2209.78, 0.412666
2210.73, 0.412184
2211.67, 0.411916
2212.61, 0.412130
2213.56, 0.411970
2214.5, 0.411058
2215.45, 0.410254
2216.4, 0.409986
2217.35, 0.409665
2218.3, 0.409182
2219.24, 0.408968
2220.2, 0.408539
2221.15, 0.407842
2222.1, 0.407628
2223.05, 0.406770
2224.0, 0.405698
2224.96, 0.405377
2225.91, 0.404519
2226.87, 0.403447
2227.83, 0.402322
2228.79, 0.400928
2229.74, 0.399963
2230.7, 0.398784
2231.66, 0.397498
2232.63, 0.396426
2233.59, 0.394764
2234.55, 0.392727
2235.51, 0.390851
2236.48, 0.389136
2237.44, 0.386992
2238.41, 0.384312
2239.38, 0.381578
2240.34, 0.379059
2241.31, 0.376326
2242.28, 0.372842
2243.25, 0.369572
2244.22, 0.366678
2245.19, 0.363783
2246.17, 0.360942
2247.14, 0.358102
2248.12, 0.355636
2249.09, 0.353599
2250.07, 0.351830
2251.04, 0.350169
2252.02, 0.348990
2253.0, 0.348400
2253.98, 0.348239
2254.96, 0.348293
2255.94, 0.348346
2256.92, 0.348561
2257.91, 0.349258
2258.89, 0.349954
2259.88, 0.350866
2260.86, 0.351723
2261.85, 0.352634
2262.83, 0.353814
2263.82, 0.355100
2264.81, 0.356065
2265.8, 0.356815
2266.79, 0.358102
2267.78, 0.359442
2268.78, 0.360406
2269.77, 0.361103
2270.76, 0.361746
2271.76, 0.362711
2272.75, 0.363783
2273.75, 0.364694
2274.75, 0.365123
2275.75, 0.365338
2276.75, 0.365927
2277.75, 0.366356
2278.75, 0.366946
2279.75, 0.366838
2280.75, 0.366410
2281.76, 0.366142
2282.76, 0.366034
2283.77, 0.366034
2284.77, 0.366088
2285.78, 0.365659
2286.79, 0.365016
2287.8, 0.364319
2288.81, 0.363194
2289.82, 0.361961
2290.83, 0.361264
2291.84, 0.360567
2292.86, 0.359817
2293.87, 0.359120
2294.89, 0.358048
2295.91, 0.356762
2296.92, 0.355850
2297.94, 0.355475
2298.96, 0.354886
2299.98, 0.353867
2301.0, 0.353117
2302.02, 0.352527
2303.04, 0.351723
2304.07, 0.351026
2305.09, 0.350383
2306.12, 0.349740
2307.15, 0.349150
2308.17, 0.348614
2309.2, 0.348293
2310.23, 0.347489
2311.26, 0.346631
2312.29, 0.346363
2313.32, 0.345934
2314.35, 0.345452
2315.39, 0.344970
2316.42, 0.344702
2317.46, 0.344273
2318.5, 0.343522
2319.53, 0.342826
2320.57, 0.342182
2321.61, 0.341593
2322.65, 0.341057
2323.69, 0.340682
2324.73, 0.339878
2325.78, 0.338913
2326.82, 0.338002
2327.86, 0.337144
2328.91, 0.336394
2329.96, 0.335590
2331.01, 0.334625
2332.05, 0.333767
2333.1, 0.332802
2334.15, 0.331891
2335.21, 0.331087
2336.26, 0.330176
2337.31, 0.329104
2338.36, 0.328193
2339.42, 0.327389
2340.48, 0.326746
2341.53, 0.326210
2342.59, 0.325727
2343.65, 0.325620
2344.71, 0.325245
2345.77, 0.324762
2346.83, 0.324762
2347.9, 0.325245
2348.96, 0.325406
2350.02, 0.325781
2351.09, 0.326210
2352.16, 0.326424
2353.23, 0.327067
2354.29, 0.328139
2355.36, 0.329318
2356.43, 0.330176
2357.51, 0.330980
2358.58, 0.332320
2359.65, 0.333606
2360.73, 0.334946
2361.8, 0.336340
2362.88, 0.337734
2363.96, 0.339074
2365.03, 0.340628
2366.11, 0.342504
2367.19, 0.343790
2368.27, 0.345559
2369.36, 0.347542
2370.44, 0.349365
2371.53, 0.351241
2372.61, 0.352795
2373.7, 0.354350
2374.78, 0.356011
2375.87, 0.357673
2376.96, 0.359388
2378.05, 0.361157
2379.14, 0.362658
2380.24, 0.363890
2381.33, 0.365230
2382.42, 0.366624
2383.52, 0.367589
2384.61, 0.368768
2385.71, 0.369894
2386.81, 0.370698
2387.91, 0.371287
2389.01, 0.371930
2390.11, 0.372681
2391.22, 0.373056
2392.32, 0.373485
2393.42, 0.374235
2394.53, 0.374664
2395.64, 0.375307
2396.74, 0.375897
2397.85, 0.376486
2398.96, 0.376647
2400.07, 0.376754
2401.18, 0.377076
2402.3, 0.377398
2403.41, 0.377719
2404.52, 0.378309
2405.64, 0.378738
2406.76, 0.379059
2407.88, 0.379488
2408.99, 0.379702
2410.11, 0.379970
2411.23, 0.380238
2412.36, 0.380614
2413.48, 0.380989
2414.6, 0.381418
2415.73, 0.381686
2416.85, 0.382168
2417.98, 0.382650
2419.11, 0.382758
2420.24, 0.382918
2421.37, 0.383026
2422.5, 0.383079
2423.64, 0.383026
2424.77, 0.383186
2425.9, 0.383401
2427.04, 0.383454
2428.18, 0.383240
2429.31, 0.383508
2430.45, 0.383454
2431.59, 0.383133
2432.73, 0.382972
2433.88, 0.382758
2435.02, 0.382758
2436.16, 0.382811
2437.31, 0.382704
2438.45, 0.382436
2439.6, 0.382114
2440.75, 0.381846
2441.9, 0.381739
2443.05, 0.381578
2444.2, 0.381203
2445.35, 0.380721
2446.51, 0.380346
2447.67, 0.379970
2448.82, 0.379702
2449.98, 0.379434
2451.14, 0.378791
2452.3, 0.378362
2453.46, 0.377987
2454.62, 0.377344
2455.78, 0.376701
2456.94, 0.375950
2458.11, 0.375146
2459.28, 0.374235
2460.44, 0.373806
2461.61, 0.373110
2462.78, 0.372413
2463.95, 0.371984
2465.12, 0.371073
2466.3, 0.370269
2467.47, 0.369518
2468.65, 0.368714
2469.82, 0.368286
2471.0, 0.367750
2472.18, 0.367214
2473.36, 0.366570
2474.54, 0.365713
2475.72, 0.365177
2476.9, 0.364426
2478.08, 0.363944
2479.27, 0.363515
2480.46, 0.362979
2481.64, 0.362336
2482.83, 0.361961
2484.02, 0.361425
2485.21, 0.360782
2486.4, 0.360460
2487.6, 0.360192
2488.79, 0.359763
2489.99, 0.359549
2491.18, 0.359281
2492.38, 0.358852
2493.58, 0.358638
2494.78, 0.358530
2495.98, 0.358477
2497.18, 0.358209
2498.39, 0.357887
2499.59, 0.357780
2500.8, 0.357566
2502.01, 0.357512
2503.21, 0.357405
2504.42, 0.357298
2505.63, 0.356976
2506.84, 0.356869
2508.06, 0.356762
2509.27, 0.356708
2510.49, 0.356601
2511.7, 0.356601
2512.92, 0.356386
2514.14, 0.356386
2515.36, 0.356226
2516.58, 0.356118
2517.8, 0.355904
2519.03, 0.355743
2520.25, 0.355636
2521.48, 0.355636
2522.7, 0.355261
2523.93, 0.354832
2525.16, 0.354725
2526.39, 0.354671
2527.62, 0.354350
2528.86, 0.354189
2530.09, 0.353814
2531.33, 0.353117
2532.56, 0.352688
2533.8, 0.353010
2535.04, 0.352474
2536.28, 0.351991
2537.52, 0.352849
2538.76, 0.353170
2540.01, 0.352795
2541.25, 0.351723
2542.5, 0.350276
2543.75, 0.350330
2544.99, 0.350919
2546.24, 0.350866
2547.49, 0.350008
2548.75, 0.350115
2550.0, 0.349633
2551.26, 0.348614
2552.51, 0.347971
2553.77, 0.349097
2555.03, 0.350222
2556.29, 0.350276
2557.55, 0.350062
2558.81, 0.348882
2560.08, 0.345613
2561.34, 0.342772
2562.61, 0.342504
2563.88, 0.342879
2565.14, 0.345452
2566.41, 0.347971
2567.68, 0.347167
2568.96, 0.344112
2570.23, 0.344326
2571.51, 0.345827
2572.78, 0.341968
2574.06, 0.342397
2575.34, 0.344112
2576.62, 0.342826
2577.9, 0.344809
2579.18, 0.346256
2580.47, 0.343844
2581.75, 0.342933
2583.04, 0.339342
2584.32, 0.339127
2585.61, 0.342236
2586.9, 0.340789
2588.2, 0.341539
2589.49, 0.343308
2590.78, 0.344809
2592.08, 0.343362
2593.37, 0.333821
2594.67, 0.324977
2595.97, 0.332749
2597.27, 0.342129
2598.57, 0.345506
2599.88, 0.344970
2601.18, 0.343094
2602.49, 0.342022
2603.79, 0.339342
2605.1, 0.335750
2606.41, 0.337734
2607.72, 0.340896
2609.03, 0.341807
2610.35, 0.343362
2611.66, 0.344541
2612.98, 0.343898
2614.3, 0.344219
2615.62, 0.340092
2616.94, 0.337037
2618.26, 0.340414
2619.58, 0.338216
2620.91, 0.338913
2622.23, 0.344594
2623.56, 0.346095
2624.89, 0.343951
2626.22, 0.339502
2627.55, 0.341325
2628.88, 0.340199
2630.21, 0.335161
2631.55, 0.339020
2632.89, 0.341646
2634.22, 0.341861
2635.56, 0.344005
2636.9, 0.344380
2638.25, 0.343951
2639.59, 0.343094
2640.93, 0.342182
2642.28, 0.341700
2643.63, 0.341432
2644.98, 0.339181
2646.33, 0.339127
2647.68, 0.340628
2649.03, 0.340950
2650.39, 0.339502
2651.74, 0.336018
2653.1, 0.335375
2654.46, 0.336233
2655.82, 0.336018
2657.18, 0.336983
2658.54, 0.334625
2659.9, 0.333017
2661.27, 0.333285
2662.64, 0.333017
2664.01, 0.326799
2665.38, 0.320796
2666.74, 0.320474
2668.12, 0.324280
2669.49, 0.318706
2670.87, 0.317098
2672.24, 0.325674
2673.62, 0.327228
2675.0, 0.323154
2676.38, 0.318491
2677.76, 0.318598
2679.15, 0.319027
2680.54, 0.321922
2681.92, 0.321814
2683.31, 0.319295
2684.7, 0.318009
2686.09, 0.316883
2687.48, 0.316026
2688.88, 0.315222
2690.27, 0.313935
2691.67, 0.310505
2693.07, 0.303858
2694.47, 0.300750
2695.87, 0.301286
2697.27, 0.301607
2698.67, 0.299785
2700.08, 0.295604
2701.49, 0.291745
2702.9, 0.290083
2704.31, 0.286278
2705.72, 0.280435
2707.13, 0.271538
2708.54, 0.258620
2709.96, 0.242647
2711.38, 0.228604
2712.8, 0.217991
2714.22, 0.205288
2715.64, 0.191781
2717.06, 0.179346
2718.49, 0.168250
2719.91, 0.156994
2721.34, 0.150991
2722.77, 0.146810
2724.2, 0.140646
2725.63, 0.137806
2727.07, 0.136090
2728.5, 0.133839
2729.94, 0.131481
2731.38, 0.129658
2732.82, 0.127729
2734.26, 0.125210
2735.7, 0.124298
2737.15, 0.123280
2738.59, 0.119742
2740.04, 0.117116
2741.49, 0.116794
2742.94, 0.117491
2744.39, 0.117277
2745.84, 0.116741
2747.3, 0.116580
2748.76, 0.116526
2750.21, 0.116473
2751.67, 0.116526
2753.14, 0.115937
2754.6, 0.113525
2756.06, 0.113364
2757.53, 0.115562
2759.0, 0.116151
2760.46, 0.115562
2761.94, 0.114168
2763.41, 0.113793
2764.88, 0.114543
2766.36, 0.113900
2767.83, 0.112346
2769.31, 0.110523
2770.79, 0.108004
2772.27, 0.105753
2773.76, 0.102751
2775.24, 0.0990530
2776.73, 0.0950330
2778.22, 0.0912270
2779.71, 0.0874750
2781.2, 0.0838300
2782.69, 0.0802930
2784.18, 0.0772910
2785.68, 0.0742360
2787.18, 0.0713950
2788.68, 0.0693580
2790.18, 0.0677500
2791.68, 0.0660350
2793.19, 0.0643740
2794.69, 0.0629260
2796.2, 0.0615330
2797.71, 0.0604070
2799.22, 0.0595500
2800.73, 0.0583700
2802.24, 0.0570840
2803.76, 0.0563340
2805.28, 0.0562800
2806.8, 0.0559050
2808.32, 0.0554220
2809.84, 0.0552620
2811.36, 0.0551010
2812.89, 0.0547790
2814.42, 0.0545650
2815.94, 0.0546180
2817.48, 0.0546720
2819.01, 0.0545650
2820.54, 0.0545110
2822.08, 0.0547260
2823.61, 0.0550470
2825.15, 0.0552620
2826.69, 0.0555300
2828.23, 0.0557980
2829.78, 0.0560660
2831.32, 0.0562260
2832.87, 0.0566020
2834.42, 0.0570300
2835.97, 0.0574060
2837.52, 0.0577270
2839.08, 0.0582100
2840.63, 0.0585310
2842.19, 0.0589060
2843.75, 0.0593350
2845.31, 0.0597640
2846.87, 0.0601390
2848.44, 0.0605140
2850.0, 0.0609430
2851.57, 0.0614260
2853.14, 0.0615330
2854.71, 0.0616940
2856.28, 0.0620150
2857.86, 0.0623370
2859.43, 0.0625510
2861.01, 0.0627120
2862.59, 0.0628730
2864.17, 0.0628730
2865.76, 0.0628190
2867.34, 0.0628190
2868.93, 0.0626580
2870.52, 0.0624980
2872.11, 0.0622300
2873.7, 0.0619080
2875.29, 0.0616940
2876.89, 0.0613720
2878.49, 0.0609430
2880.08, 0.0605140
2881.69, 0.0601390
2883.29, 0.0596030
2884.89, 0.0589600
2886.5, 0.0583170
2888.11, 0.0577270
2889.72, 0.0571380
2891.33, 0.0564940
2892.94, 0.0559050
2894.56, 0.0554220
2896.17, 0.0549940
2897.79, 0.0545110
2899.42, 0.0540290
2901.04, 0.0534390
2902.66, 0.0530640
2904.29, 0.0526890
2905.92, 0.0522600
2907.55, 0.0519380
2909.18, 0.0516170
2910.81, 0.0512950
2912.45, 0.0509200
2914.08, 0.0505450
2915.72, 0.0503300
2917.36, 0.0500090
2919.01, 0.0499550
2920.65, 0.0499020
2922.3, 0.0497940
2923.94, 0.0497410
2925.59, 0.0496340
2927.25, 0.0495800
2928.9, 0.0496870
2930.56, 0.0496870
2932.21, 0.0496340
2933.87, 0.0496870
2935.53, 0.0497940
2937.2, 0.0498480
2938.86, 0.0500090
2940.53, 0.0500620
2942.2, 0.0502230
2943.87, 0.0503300
2945.54, 0.0504910
2947.22, 0.0507590
2948.89, 0.0511340
2950.57, 0.0514020
2952.25, 0.0514020
2953.93, 0.0515630
2955.62, 0.0519920
2957.3, 0.0524210
2958.99, 0.0526350
2960.68, 0.0527960
2962.37, 0.0530100
2964.07, 0.0533860
2965.76, 0.0539220
2967.46, 0.0542970
2969.16, 0.0546720
2970.86, 0.0550470
2972.56, 0.0554760
2974.27, 0.0557980
2975.98, 0.0561730
2977.69, 0.0566020
2979.4, 0.0570840
2981.11, 0.0576200
2982.83, 0.0582100
2984.54, 0.0587460
2986.26, 0.0593890
2987.98, 0.0599250
2989.71, 0.0604070
2991.43, 0.0609970
2993.16, 0.0615860
2994.89, 0.0621220
2996.62, 0.0626580
2998.35, 0.0631410
3000.09, 0.0635700
3001.83, 0.0642660
3003.57, 0.0650170
3005.31, 0.0656060
3007.05, 0.0663570
3008.79, 0.0671070
3010.54, 0.0676970
3012.29, 0.0686080
3014.04, 0.0694120
3015.8, 0.0699480
3017.55, 0.0705380
3019.31, 0.0713420
3021.07, 0.0721990
3022.83, 0.0728960
3024.59, 0.0737000
3026.36, 0.0745040
3028.13, 0.0752010
3029.9, 0.0760580
3031.67, 0.0770230
3033.44, 0.0777740
3035.22, 0.0785240
3037.0, 0.0793820
3038.78, 0.0802930
3040.56, 0.0811500
3042.34, 0.0821690
3044.13, 0.0830800
3045.92, 0.0839380
3047.71, 0.0848490
3049.5, 0.0858140
3051.3, 0.0866710
3053.09, 0.0876900
3054.89, 0.0887620
3056.69, 0.0897800
3058.5, 0.0907980
3060.3, 0.0917630
3062.11, 0.0926210
3063.92, 0.0935320
3065.73, 0.0946040
3067.55, 0.0955690
3069.36, 0.0966940
3071.18, 0.0978200
3073.0, 0.0988380
3074.82, 0.0998030
3076.65, 0.100982
3078.48, 0.102269
3080.31, 0.103394
3082.14, 0.104574
3083.97, 0.105538
3085.8, 0.106557
3087.64, 0.107790
3089.48, 0.109076
3091.33, 0.110255
3093.17, 0.111434
3095.02, 0.112506
3096.87, 0.113739
3098.72, 0.114972
3100.57, 0.116205
3102.43, 0.117438
3104.28, 0.118510
3106.14, 0.119582
3108.01, 0.120868
3109.87, 0.121994
3111.74, 0.123173
3113.61, 0.124459
3115.48, 0.125746
3117.35, 0.126818
3119.23, 0.127943
3121.1, 0.129176
3122.98, 0.130516
3124.87, 0.131802
3126.75, 0.132928
3128.64, 0.134214
3130.53, 0.135554
3132.42, 0.136734
3134.31, 0.137806
3136.21, 0.138985
3138.11, 0.140218
3140.01, 0.141504
3141.91, 0.142737
3143.82, 0.143916
3145.73, 0.145149
3147.64, 0.146382
3149.55, 0.147454
3151.46, 0.148579
3153.38, 0.149812
3155.3, 0.151098
3157.22, 0.152385
3159.14, 0.153725
3161.07, 0.155065
3163.0, 0.156298
3164.93, 0.157423
3166.86, 0.158710
3168.8, 0.159996
3170.74, 0.161282
3172.68, 0.162515
3174.62, 0.163748
3176.56, 0.164981
3178.51, 0.166267
3180.46, 0.167554
3182.42, 0.168786
3184.37, 0.170073
3186.33, 0.171252
3188.29, 0.172485
3190.25, 0.173771
3192.21, 0.175058
3194.18, 0.176290
3196.15, 0.177416
3198.12, 0.178702
3200.09, 0.179935
3202.07, 0.181061
3204.05, 0.182401
3206.03, 0.183687
3208.02, 0.184866
3210.0, 0.186046
3211.99, 0.187278
3213.98, 0.188511
3215.98, 0.189637
3217.97, 0.190816
3219.97, 0.192049
3221.97, 0.193228
3223.98, 0.194300
3225.98, 0.195372
3227.99, 0.196498
3230.0, 0.197516
3232.02, 0.198695
3234.03, 0.199821
3236.05, 0.200893
3238.07, 0.201858
3240.1, 0.202930
3242.12, 0.204002
3244.15, 0.204966
3246.18, 0.205931
3248.22, 0.206842
3250.25, 0.207861
3252.29, 0.208933
3254.33, 0.209898
3256.38, 0.210755
3258.43, 0.211559
3260.47, 0.212417
3262.53, 0.213328
3264.58, 0.214239
3266.64, 0.215043
3268.7, 0.215954
3270.76, 0.216812
3272.82, 0.217562
3274.89, 0.218259
3276.96, 0.219063
3279.04, 0.219921
3281.11, 0.220725
3283.19, 0.221422
3285.27, 0.222226
3287.35, 0.223030
3289.44, 0.223780
3291.53, 0.224638
3293.62, 0.225334
3295.71, 0.226031
3297.81, 0.226674
3299.91, 0.227478
3302.01, 0.228282
3304.11, 0.229086
3306.22, 0.229890
3308.33, 0.230694
3310.44, 0.231498
3312.56, 0.232302
3314.68, 0.233106
3316.8, 0.233696
3318.92, 0.234232
3321.05, 0.235036
3323.18, 0.235894
3325.31, 0.236537
3327.44, 0.237180
3329.58, 0.237877
3331.72, 0.238574
3333.86, 0.239324
3336.01, 0.240235
3338.16, 0.240986
3340.31, 0.241629
3342.46, 0.242272
3344.61, 0.242969
3346.77, 0.243451
3348.94, 0.244041
3351.1, 0.244738
3353.27, 0.245434
3355.44, 0.246185
3357.61, 0.246828
3359.79, 0.247364
3361.97, 0.247900
3364.15, 0.248490
3366.33, 0.249133
3368.52, 0.249883
3370.71, 0.250526
3372.9, 0.251116
3375.1, 0.251652
3377.3, 0.252295
3379.5, 0.252992
3381.71, 0.253689
3383.91, 0.254439
3386.12, 0.255082
3388.34, 0.255726
3390.55, 0.256530
3392.77, 0.257280
3394.99, 0.257762
3397.22, 0.258352
3399.45, 0.259102
3401.68, 0.259799
3403.91, 0.260282
3406.15, 0.260818
3408.39, 0.261354
3410.63, 0.261836
3412.87, 0.262479
3415.12, 0.263069
3417.37, 0.263766
3419.63, 0.264462
3421.88, 0.265159
3424.14, 0.266017
3426.41, 0.266767
3428.67, 0.267518
3430.94, 0.268322
3433.21, 0.269018
3435.49, 0.269715
3437.77, 0.270573
3440.05, 0.271377
3442.33, 0.272127
3444.62, 0.272717
3446.91, 0.273199
3449.2, 0.273896
3451.5, 0.274593
3453.8, 0.275182
3456.1, 0.275772
3458.41, 0.276362
3460.72, 0.276951
3463.03, 0.277594
3465.34, 0.278130
3467.66, 0.278720
3469.98, 0.279310
3472.31, 0.279846
3474.63, 0.280435
3476.96, 0.280918
3479.3, 0.281400
3481.64, 0.281990
3483.97, 0.282526
3486.32, 0.283008
3488.66, 0.283544
3491.01, 0.284134
3493.36, 0.284616
3495.72, 0.285206
3498.08, 0.285688
3500.44, 0.286170
3502.81, 0.286760
3505.18, 0.287403
3507.55, 0.288154
3509.92, 0.288904
3512.3, 0.289654
3514.68, 0.290351
3517.06, 0.291048
3519.45, 0.291691
3521.84, 0.292388
3524.24, 0.293085
3526.64, 0.293782
3529.04, 0.294371
3531.44, 0.295014
3533.85, 0.295711
3536.26, 0.296408
3538.67, 0.297051
3541.09, 0.297641
3543.51, 0.298391
3545.93, 0.299088
3548.36, 0.299731
3550.79, 0.300428
3553.22, 0.301286
3555.66, 0.302036
3558.1, 0.302679
3560.54, 0.303376
3562.99, 0.304126
3565.44, 0.304984
3567.9, 0.305681
3570.35, 0.306431
3572.81, 0.307289
3575.28, 0.308039
3577.75, 0.308897
3580.22, 0.309701
3582.69, 0.310558
3585.17, 0.311362
3587.65, 0.312220
3590.14, 0.313024
3592.62, 0.313828
3595.11, 0.314578
3597.61, 0.315329
3600.11, 0.316026
3602.61, 0.316722
3605.11, 0.317473
3607.62, 0.318223
3610.14, 0.318920
3612.65, 0.319510
3615.17, 0.320153
3617.69, 0.320742
3620.22, 0.321439
3622.75, 0.322190
3625.28, 0.322779
3627.82, 0.323315
3630.36, 0.323958
3632.9, 0.324548
3635.45, 0.325084
3638.0, 0.325727
3640.56, 0.326370
3643.12, 0.326960
3645.68, 0.327335
3648.24, 0.327871
3650.81, 0.328461
3653.39, 0.329104
3655.96, 0.329586
3658.54, 0.330069
3661.13, 0.330712
3663.71, 0.331194
3666.3, 0.331623
3668.9, 0.332106
3671.5, 0.332588
3674.1, 0.333017
3676.7, 0.333499
3679.31, 0.334035
3681.93, 0.334518
3684.54, 0.335000
3687.17, 0.335429
3689.79, 0.335750
3692.42, 0.336126
3695.05, 0.336554
3697.69, 0.337037
3700.32, 0.337466
3702.97, 0.337841
3705.61, 0.338270
3708.27, 0.338698
3710.92, 0.339181
3713.58, 0.339663
3716.24, 0.340092
3718.91, 0.340360
3721.58, 0.340682
3724.25, 0.341164
3726.93, 0.341593
3729.61, 0.341968
3732.29, 0.342450
3734.98, 0.342826
3737.67, 0.343201
3740.37, 0.343576
3743.07, 0.343951
3745.78, 0.344326
3748.49, 0.344755
3751.2, 0.345184
3753.91, 0.345666
3756.63, 0.346095
3759.36, 0.346363
3762.09, 0.346738
3764.82, 0.347167
3767.55, 0.347435
3770.29, 0.347864
3773.04, 0.348293
3775.78, 0.348507
3778.54, 0.348722
3781.29, 0.349043
3784.05, 0.349472
3786.82, 0.349794
3789.59, 0.350062
3792.36, 0.350330
3795.13, 0.350598
3797.92, 0.350866
3800.7, 0.351080
3803.49, 0.351348
3806.28, 0.351562
3809.08, 0.351830
3811.88, 0.352206
3814.68, 0.352527
3817.49, 0.352795
3820.31, 0.353010
3823.12, 0.353170
3825.94, 0.353438
3828.77, 0.353760
3831.6, 0.354135
3834.43, 0.354457
3837.27, 0.354832
3840.11, 0.355261
3842.96, 0.355529
3845.81, 0.355690
3848.67, 0.356011
3851.53, 0.356333
3854.39, 0.356547
3857.26, 0.356762
3860.13, 0.357137
3863.01, 0.357458
3865.89, 0.357673
3868.77, 0.357887
3871.66, 0.358155
3874.55, 0.358423
3877.45, 0.358691
3880.35, 0.358959
3883.26, 0.359227
3886.17, 0.359388
3889.09, 0.359602
3892.01, 0.359817
3894.93, 0.360031
3897.86, 0.360299
3900.79, 0.360514
3903.73, 0.360674
3906.67, 0.360835
3909.62, 0.360942
3912.57, 0.361050
3915.52, 0.361157
3918.48, 0.361371
3921.45, 0.361478
3924.42, 0.361586
3927.39, 0.361746
3930.37, 0.361854
3933.35, 0.361961
3936.34, 0.362068
3939.33, 0.362175
3942.32, 0.362336
3945.32, 0.362497
3948.33, 0.362604
3951.34, 0.362711
3954.35, 0.362872
3957.37, 0.362979
3960.39, 0.363086
3963.42, 0.363247
3966.45, 0.363354
3969.49, 0.363515
3972.53, 0.363622
3975.58, 0.363783
3978.63, 0.363998
3981.68, 0.364158
3984.75, 0.364373
3987.81, 0.364426
3990.88, 0.364480
3993.95, 0.364587
3997.03, 0.364748
4000.12, 0.364855
4003.21, 0.364962
4006.3, 0.365123
4009.4, 0.365284
4012.5, 0.365391
4015.61, 0.365552
4018.72, 0.365659
4021.84, 0.365659
4024.96, 0.365766
4028.09, 0.365874
4031.22, 0.365874
4034.36, 0.365820
4037.5, 0.365927
4040.65, 0.365981
4043.8, 0.365820
4046.96, 0.365766
4050.12, 0.365820
4053.29, 0.365766
4056.46, 0.365713
4059.64, 0.365713
4062.82, 0.365713
4066.0, 0.365606
4069.19, 0.365552
4072.39, 0.365445
4075.59, 0.365338
4078.8, 0.365284
4082.01, 0.365177
4085.23, 0.365070
4088.45, 0.365016
4091.68, 0.364855
4094.91, 0.364748
4098.15, 0.364587
4101.39, 0.364480
4104.63, 0.364426
4107.89, 0.364266
4111.14, 0.364105
4114.41, 0.363998
4117.67, 0.363783
4120.95, 0.363569
4124.23, 0.363569
4127.51, 0.363462
4130.8, 0.363247
4134.09, 0.363140
4137.39, 0.362926
4140.7, 0.362658
4144.01, 0.362497
4147.32, 0.362336
4150.64, 0.362229
4153.97, 0.362068
4157.3, 0.361907
4160.64, 0.361693
4163.98, 0.361478
4167.33, 0.361318
4170.68, 0.361157
4174.04, 0.360996
4177.4, 0.360728
4180.77, 0.360460
4184.14, 0.360192
4187.52, 0.359924
4190.91, 0.359710
4194.3, 0.359442
4197.69, 0.359066
4201.1, 0.358638
4204.5, 0.358048
4207.92, 0.357351
4211.34, 0.356601
4214.76, 0.355690
4218.19, 0.354832
4221.62, 0.353921
4225.06, 0.353117
4228.51, 0.352474
4231.96, 0.352045
4235.42, 0.351723
4238.88, 0.351616
4242.35, 0.351777
4245.83, 0.352152
4249.31, 0.352581
4252.79, 0.353170
4256.28, 0.353385
4259.78, 0.352742
4263.29, 0.351670
4266.79, 0.350812
4270.31, 0.350062
4273.83, 0.349579
4277.35, 0.349150
4280.89, 0.348722
4284.42, 0.348454
4287.97, 0.348293
4291.52, 0.348132
4295.07, 0.348025
4298.63, 0.347864
4302.2, 0.347703
4305.78, 0.347650
4309.35, 0.347489
4312.94, 0.347382
4316.53, 0.347328
4320.13, 0.347274
4323.73, 0.347006
4327.34, 0.346631
4330.96, 0.346310
4334.58, 0.346095
4338.21, 0.345827
4341.84, 0.345506
4345.48, 0.345184
4349.12, 0.344809
4352.77, 0.344434
4356.43, 0.344058
4360.1, 0.343630
4363.76, 0.343254
4367.44, 0.342826
4371.12, 0.342450
4374.81, 0.342075
4378.51, 0.341593
4382.21, 0.341057
4385.92, 0.340628
4389.63, 0.340146
4393.35, 0.339610
4397.08, 0.339127
4400.81, 0.338645
4404.55, 0.338055
4408.29, 0.337519
4412.04, 0.336983
4415.8, 0.336501
4419.57, 0.335965
4423.34, 0.335375
4427.12, 0.334678
4430.9, 0.334035
4434.69, 0.333553
4438.49, 0.332856
4442.29, 0.332106
4446.1, 0.331355
4449.92, 0.330712
4453.74, 0.330015
4457.57, 0.329211
4461.41, 0.328461
4465.25, 0.327764
4469.1, 0.327014
4472.95, 0.326210
4476.82, 0.325459
4480.69, 0.324709
4484.56, 0.323958
4488.44, 0.323262
4492.33, 0.322511
4496.23, 0.321654
4500.13, 0.320850
4504.04, 0.320206
4507.96, 0.319456
4511.88, 0.318706
4515.81, 0.317902
4519.75, 0.317151
4523.69, 0.316508
4527.65, 0.315811
4531.6, 0.315114
4535.57, 0.314364
4539.54, 0.313614
4543.52, 0.312756
4547.5, 0.311845
4551.5, 0.310934
4555.5, 0.309969
4559.5, 0.309004
4563.52, 0.307878
4567.54, 0.306699
4571.56, 0.305413
4575.6, 0.304019
4579.64, 0.302572
4583.69, 0.301071
4587.75, 0.299570
4591.81, 0.298070
4595.88, 0.296462
4599.96, 0.294907
4604.04, 0.293299
4608.14, 0.291852
4612.24, 0.290512
4616.34, 0.289226
4620.46, 0.287993
4624.58, 0.286867
4628.71, 0.285795
4632.84, 0.284777
4636.99, 0.283812
4641.14, 0.282954
4645.3, 0.281990
4649.47, 0.281025
4653.64, 0.279953
4657.82, 0.278988
4662.01, 0.277970
4666.21, 0.276790
4670.41, 0.275665
4674.62, 0.274486
4678.84, 0.273253
4683.07, 0.271966
4687.3, 0.270573
4691.54, 0.269233
4695.79, 0.267678
4700.05, 0.266285
4704.31, 0.264677
4708.59, 0.263283
4712.87, 0.261568
4717.15, 0.260014
4721.45, 0.258191
4725.76, 0.256583
4730.07, 0.254707
4734.39, 0.252992
4738.72, 0.251009
4743.05, 0.249240
4747.39, 0.247418
4751.75, 0.245702
4756.1, 0.243934
4760.47, 0.242218
4764.85, 0.240771
4769.23, 0.239217
4773.62, 0.237930
4778.02, 0.236376
4782.43, 0.235197
4786.85, 0.233910
4791.27, 0.232785
4795.7, 0.231766
4800.14, 0.230748
4804.59, 0.229730
4809.05, 0.228658
4813.51, 0.227639
4817.99, 0.226621
4822.47, 0.225602
4826.96, 0.224370
4831.46, 0.223244
4835.96, 0.222065
4840.48, 0.220778
4845.0, 0.219706
4849.54, 0.218527
4854.08, 0.217455
4858.63, 0.216383
4863.18, 0.215311
4867.75, 0.214132
4872.33, 0.212953
4876.91, 0.211827
4881.5, 0.210648
4886.1, 0.209576
4890.71, 0.208450
4895.33, 0.207218
4899.96, 0.205985
4904.59, 0.204913
4909.24, 0.203894
4913.89, 0.202822
4918.55, 0.201697
4923.22, 0.200678
4927.9, 0.199660
4932.59, 0.198642
4937.29, 0.197784
4942.0, 0.196873
4946.71, 0.195962
4951.44, 0.195050
4956.17, 0.194300
4960.91, 0.193657
4965.67, 0.193121
4970.43, 0.192531
4975.2, 0.191995
4979.98, 0.191566
4984.76, 0.191191
4989.56, 0.190870
4994.37, 0.190602
4999.18, 0.190334
5004.01, 0.190173
5008.84, 0.190066
5013.69, 0.189905
5018.54, 0.189530
5023.4, 0.189690
5028.28, 0.189905
5033.16, 0.190012
5038.05, 0.190119
5042.95, 0.190226
5047.86, 0.190226
5052.78, 0.190226
5057.71, 0.190226
5062.65, 0.190173
5067.6, 0.190226
5072.56, 0.190173
5077.53, 0.189958
5082.5, 0.189744
5087.49, 0.189798
5092.49, 0.189905
5097.5, 0.189851
5102.51, 0.189744
5107.54, 0.189690
5112.58, 0.189583
5117.62, 0.189530
5122.68, 0.189476
5127.75, 0.189315
5132.82, 0.189047
5137.91, 0.188833
5143.01, 0.188297
5148.12, 0.187922
5153.23, 0.188243
5158.36, 0.188243
5163.5, 0.187975
5168.65, 0.187707
5173.81, 0.187439
5178.98, 0.187064
5184.15, 0.186796
5189.34, 0.186367
5194.54, 0.185724
5199.75, 0.184920
5204.98, 0.184706
5210.21, 0.183741
5215.45, 0.183044
5220.7, 0.183366
5225.96, 0.183044
5231.23, 0.182347
5236.52, 0.181543
5241.81, 0.181061
5247.12, 0.180686
5252.44, 0.180257
5257.76, 0.179774
5263.1, 0.179238
5268.45, 0.178649
5273.81, 0.178059
5279.18, 0.177630
5284.56, 0.177148
5289.95, 0.176237
5295.36, 0.176130
5300.77, 0.176290
5306.2, 0.175969
5311.63, 0.175754
5317.08, 0.175594
5322.54, 0.175486
5328.01, 0.175326
5333.49, 0.175165
5338.98, 0.174897
5344.49, 0.173825
5350.0, 0.172753
5355.53, 0.173396
5361.07, 0.174200
5366.62, 0.174361
5372.18, 0.174254
5377.75, 0.174200
5383.34, 0.174039
5388.93, 0.174039
5394.54, 0.173932
5400.16, 0.173878
5405.79, 0.173557
5411.44, 0.173128
5417.09, 0.171681
5422.76, 0.170502
5428.43, 0.172056
5434.12, 0.172806
5439.83, 0.172485
5445.54, 0.172217
5451.26, 0.172002
5457.0, 0.171145
5462.75, 0.169537
5468.52, 0.169537
5474.29, 0.169430
5480.08, 0.168786
5485.88, 0.169215
5491.69, 0.169054
5497.51, 0.168411
5503.35, 0.167714
5509.2, 0.167286
5515.06, 0.166482
5520.93, 0.165624
5526.82, 0.165195
5532.71, 0.164981
5538.63, 0.164391
5544.55, 0.163426
5550.49, 0.162301
5556.44, 0.161872
5562.4, 0.161818
5568.37, 0.161336
5574.36, 0.159299
5580.36, 0.158174
5586.37, 0.159460
5592.4, 0.159942
5598.44, 0.159138
5604.49, 0.158656
5610.56, 0.158442
5616.63, 0.157906
5622.73, 0.157959
5628.83, 0.157584
5634.95, 0.155869
5641.08, 0.153457
5647.23, 0.154368
5653.39, 0.155172
5659.56, 0.155708
5665.74, 0.156244
5671.94, 0.154850
5678.15, 0.154368
5684.38, 0.154904
5690.62, 0.154207
5696.87, 0.154314
5703.14, 0.153403
5709.42, 0.151045
5715.72, 0.150884
5722.03, 0.151420
5728.35, 0.151474
5734.69, 0.150777
5741.03, 0.149651
5747.4, 0.148204
5753.78, 0.148472
5760.17, 0.145738
5766.58, 0.142094
5773.0, 0.144130
5779.44, 0.145363
5785.88, 0.145202
5792.35, 0.144720
5798.83, 0.143648
5805.32, 0.142844
5811.83, 0.140968
5818.35, 0.137055
5824.89, 0.135876
5831.45, 0.137430
5838.01, 0.138556
5844.59, 0.138824
5851.19, 0.137966
5857.8, 0.136626
5864.43, 0.135715
5871.07, 0.135340
5877.73, 0.131052
5884.4, 0.130838
5891.09, 0.132231
5897.79, 0.131695
5904.5, 0.134858
5911.23, 0.135769
5917.98, 0.135233
5924.75, 0.134590
5931.53, 0.131159
5938.32, 0.129283
5945.13, 0.132821
5951.96, 0.134375
5958.8, 0.134268
5965.65, 0.132124
5972.53, 0.132070
5979.42, 0.132874
5986.32, 0.131534
5993.24, 0.131910
6000.18, 0.133678
6007.13, 0.133142
6014.1, 0.132070
6021.08, 0.132821
6028.09, 0.133196
6035.1, 0.132231
6042.14, 0.127354
6049.19, 0.123066
6056.25, 0.127675
6063.34, 0.129712
6070.44, 0.127300
6077.55, 0.127675
6084.69, 0.129658
6091.84, 0.129766
6099.0, 0.129015
6106.19, 0.126603
6113.39, 0.124084
6120.61, 0.126067
6127.84, 0.127836
6135.09, 0.127193
6142.36, 0.126228
6149.65, 0.125692
6156.95, 0.124513
6164.27, 0.124620
6171.61, 0.125317
6178.97, 0.123119
6186.34, 0.121458
6193.73, 0.123387
6201.14, 0.124138
6208.57, 0.123655
6216.01, 0.123280
6223.47, 0.123173
6230.95, 0.123119
6238.45, 0.122905
6245.97, 0.122905
6253.5, 0.122905
6261.06, 0.122851
6268.63, 0.122744
6276.21, 0.122637
6283.82, 0.122744
6291.45, 0.122905
6299.1, 0.123173
6306.76, 0.123280
6314.44, 0.123494
6322.14, 0.123709
6329.86, 0.123870
6337.6, 0.122047
6345.35, 0.121136
6353.13, 0.124138
6360.92, 0.125049
6368.74, 0.123923
6376.57, 0.125263
6384.43, 0.126710
6392.3, 0.127086
6400.19, 0.126389
6408.1, 0.121940
6416.03, 0.120654
6423.98, 0.125424
6431.95, 0.127782
6439.94, 0.129658
6447.95, 0.130838
6455.98, 0.131642
6464.03, 0.132070
6472.1, 0.131106
6480.19, 0.129766
6488.31, 0.127514
6496.44, 0.128318
6504.59, 0.133303
6512.76, 0.134965
6520.95, 0.134375
6529.16, 0.136305
6537.4, 0.137270
6545.65, 0.136894
6553.92, 0.136573
6562.22, 0.136305
6570.54, 0.134536
6578.88, 0.136090
6587.23, 0.137913
6595.61, 0.138824
6604.02, 0.140325
6612.44, 0.140593
6620.89, 0.140271
6629.35, 0.137216
6637.84, 0.135179
6646.35, 0.139628
6654.88, 0.143219
6663.44, 0.143005
6672.01, 0.141879
6680.61, 0.141182
6689.23, 0.142898
6697.88, 0.144130
6706.54, 0.142790
6715.23, 0.142576
6723.94, 0.143755
6732.67, 0.145095
6741.42, 0.145738
6750.2, 0.145685
6759.0, 0.145846
6767.82, 0.145042
6776.67, 0.143916
6785.54, 0.142201
6794.44, 0.142683
6803.35, 0.145363
6812.29, 0.145899
6821.26, 0.144506
6830.24, 0.144452
6839.25, 0.145738
6848.29, 0.144506
6857.35, 0.140539
6866.43, 0.139950
6875.54, 0.143916
6884.67, 0.145149
6893.82, 0.144988
6903.0, 0.144184
6912.2, 0.144291
6921.43, 0.144666
6930.69, 0.144613
6939.96, 0.144398
6949.27, 0.142951
6958.59, 0.140325
6967.95, 0.141504
6977.33, 0.142683
6986.73, 0.141986
6996.16, 0.141558
7005.61, 0.141718
7015.09, 0.141075
7024.6, 0.140325
7034.13, 0.139146
7043.69, 0.136680
7053.27, 0.137162
7062.88, 0.138502
7072.52, 0.138449
7082.18, 0.137966
7091.87, 0.137430
7101.58, 0.136948
7111.32, 0.135930
7121.09, 0.135340
7130.88, 0.135126
7140.71, 0.133893
7150.56, 0.132874
7160.43, 0.132285
7170.33, 0.131374
7180.27, 0.131802
7190.23, 0.131642
7200.21, 0.130302
7210.23, 0.129337
7220.27, 0.129658
7230.34, 0.129230
7240.44, 0.128640
7250.56, 0.127943
7260.72, 0.127354
7270.9, 0.126121
7281.12, 0.125424
7291.36, 0.125317
7301.63, 0.124727
7311.93, 0.124030
7322.25, 0.123387
7332.61, 0.122154
7343.0, 0.121458
7353.41, 0.121297
7363.86, 0.120868
7374.33, 0.120010
7384.83, 0.119260
7395.37, 0.118670
7405.93, 0.117920
7416.53, 0.117116
7427.15, 0.116580
7437.81, 0.115830
7448.5, 0.114972
7459.22, 0.113846
7469.96, 0.113042
7480.74, 0.112614
7491.55, 0.112185
7502.39, 0.111434
7513.27, 0.110791
7524.17, 0.109987
7535.11, 0.109290
7546.08, 0.108594
7557.08, 0.107843
7568.11, 0.107039
7579.17, 0.106235
7590.27, 0.105538
7601.4, 0.105002
7612.56, 0.104359
7623.76, 0.103716
7634.98, 0.103126
7646.24, 0.102590
7657.54, 0.101894
7668.87, 0.101197
7680.23, 0.100446
7691.62, 0.0998030
7703.05, 0.0990530
7714.51, 0.0982490
7726.01, 0.0974450
7737.54, 0.0968550
7749.11, 0.0961050
7760.71, 0.0953010
7772.35, 0.0944970
7784.02, 0.0938000
7795.72, 0.0930500
7807.46, 0.0922460
7819.23, 0.0914420
7831.04, 0.0906380
7842.89, 0.0898340
7854.77, 0.0889760
7866.69, 0.0880110
7878.65, 0.0870460
7890.64, 0.0862420
7902.67, 0.0853310
7914.74, 0.0842590
7926.84, 0.0833480
7938.98, 0.0823300
7951.16, 0.0813650
7963.37, 0.0802930
7975.62, 0.0792210
7987.91, 0.0782020
8000.24, 0.0771840
8012.6, 0.0760050
8025.01, 0.0748260
8037.45, 0.0737000
8049.93, 0.0726280
8062.45, 0.0715020
8075.01, 0.0703770
8087.61, 0.0691980
8100.24, 0.0680180
8112.91, 0.0668390
8125.63, 0.0656600
8138.39, 0.0643200
8151.18, 0.0630340
8164.02, 0.0616940
8176.9, 0.0603540
8189.81, 0.0589600
8202.77, 0.0576200
8215.77, 0.0561730
8228.82, 0.0548860
8241.9, 0.0535460
8255.02, 0.0522060
8268.19, 0.0508130
8281.39, 0.0494190
8294.65, 0.0479180
8307.94, 0.0463640
8321.28, 0.0449170
8334.66, 0.0434700
8348.08, 0.0420220
8361.54, 0.0406820
8375.05, 0.0391820
8388.6, 0.0376270
8402.2, 0.0362340
8415.84, 0.0350010
8429.52, 0.0335540
8443.25, 0.0321600
8457.02, 0.0307130
8470.84, 0.0294800
8484.7, 0.0280330
8498.61, 0.0267460
8512.57, 0.0256210
8526.57, 0.0243340
8540.62, 0.0229940
8554.71, 0.0218150
8568.85, 0.0207430
8583.04, 0.0198320
8597.27, 0.0187600
8611.55, 0.0176880
8625.88, 0.0166160
8640.26, 0.0157580
8654.68, 0.0149540
8669.16, 0.0142040
8683.68, 0.0135610
8698.25, 0.0130250
8712.87, 0.0124890
8727.53, 0.0121140
8742.25, 0.0117380
8757.02, 0.0115240
8771.83, 0.0113100
8786.7, 0.0113100
8801.62, 0.0114700
8816.59, 0.0117920
8831.61, 0.0121670
8846.68, 0.0128640
8861.8, 0.0135610
8876.97, 0.0144180
8892.2, 0.0155440
8907.48, 0.0168840
8922.81, 0.0183310
8938.2, 0.0201540
8953.63, 0.0222440
8969.13, 0.0246020
8984.67, 0.0271750
9000.27, 0.0301770
9015.92, 0.0336610
9031.63, 0.0373590
9047.39, 0.0414330
9063.21, 0.0458820
9079.08, 0.0504910
9095.01, 0.0552080
9111.0, 0.0599780
9127.04, 0.0648020
9143.13, 0.0692510
9159.28, 0.0733250
9175.49, 0.0769700
9191.76, 0.0803460
9208.09, 0.0836700
9224.47, 0.0874220
9240.92, 0.0916560
9257.42, 0.0963730
9273.98, 0.101840
9290.6, 0.107736
9307.28, 0.113846
9324.02, 0.120010
9340.82, 0.125853
9357.68, 0.130784
9374.6, 0.134590
9391.58, 0.137055
9408.62, 0.138074
9425.73, 0.137752
9442.9, 0.136251
9460.13, 0.134268
9477.42, 0.132017
9494.78, 0.129980
9512.2, 0.128318
9529.69, 0.127193
9547.24, 0.126710
9564.86, 0.126978
9582.54, 0.127943
9600.28, 0.129605
9618.1, 0.132017
9635.97, 0.135126
9653.92, 0.138449
9671.93, 0.141879
9690.01, 0.145470
9708.16, 0.149062
9726.37, 0.152438
9744.65, 0.155172
9763.0, 0.157102
9781.43, 0.158388
9799.92, 0.158978
9818.48, 0.159353
9837.1, 0.159460
9855.8, 0.159246
9874.58, 0.158924
9893.42, 0.158495
9912.34, 0.157959
9931.33, 0.157102
9950.39, 0.156030
9969.52, 0.154797
9988.74, 0.153082
10008.0, 0.151152
10027.4, 0.149008
10046.8, 0.146650
10066.3, 0.143862
10085.9, 0.140486
10105.6, 0.136787
10125.3, 0.132821
10145.1, 0.128479
10165.0, 0.123977
10185.0, 0.119689
10205.0, 0.115776
10225.2, 0.112238
10245.4, 0.109130
10265.7, 0.106342
10286.0, 0.103930
10306.5, 0.101894
10327.0, 0.100018
10347.6, 0.0981420
10368.3, 0.0962660
10389.1, 0.0943900
10409.9, 0.0926210
10430.9, 0.0910660
10451.9, 0.0895120
10473.0, 0.0880650
10494.2, 0.0867780
10515.5, 0.0855460
10536.9, 0.0842060
10558.4, 0.0828660
10579.9, 0.0815260
10601.5, 0.0798100
10623.3, 0.0779880
10645.1, 0.0758980
10667.0, 0.0738610
10689.0, 0.0718780
10711.1, 0.0699480
10733.2, 0.0682330
10755.5, 0.0666250
10777.9, 0.0650170
10800.3, 0.0634090
10822.9, 0.0620150
10845.5, 0.0608360
10868.2, 0.0594960
10891.1, 0.0582100
10914.0, 0.0571910
10937.0, 0.0561190
10960.2, 0.0551010
10983.4, 0.0543500
11006.7, 0.0536540
11030.1, 0.0530100
11053.6, 0.0520990
11077.3, 0.0512950
11101.0, 0.0507590
11124.8, 0.0502230
11148.7, 0.0496870
11172.7, 0.0490980
11196.9, 0.0487220
11221.1, 0.0483470
11245.4, 0.0478110
11269.9, 0.0474360
11294.4, 0.0469540
11319.1, 0.0464180
11343.9, 0.0458280
11368.8, 0.0452920
11393.7, 0.0445950
11418.8, 0.0440590
11444.0, 0.0435770
11469.4, 0.0430410
11494.8, 0.0423440
11520.3, 0.0417540
11546.0, 0.0412720
11571.8, 0.0408430
11597.7, 0.0404140
11623.7, 0.0399320
11649.8, 0.0393960
11676.0, 0.0389140
11702.4, 0.0381630
11728.9, 0.0372520
11755.5, 0.0363940
11782.2, 0.0354300
11809.0, 0.0341970
11836.0, 0.0329640
11863.0, 0.0315700
11890.3, 0.0302300
11917.6, 0.0287830
11945.0, 0.0275500
11972.6, 0.0264250
12000.4, 0.0255140
12028.2, 0.0249240
12056.2, 0.0244420
12084.3, 0.0242810
12112.5, 0.0243340
12140.9, 0.0241740
12169.4, 0.0241200
12198.0, 0.0242810
12226.8, 0.0245490
12255.7, 0.0247630
12284.7, 0.0247100
12313.9, 0.0245490
12343.2, 0.0243340
12372.7, 0.0241740
12402.3, 0.0242270
12432.0, 0.0240660
12461.9, 0.0240130
12491.9, 0.0240130
12522.1, 0.0241740
12552.4, 0.0244420
12582.9, 0.0248170
12613.5, 0.0250850
12644.3, 0.0256740
12675.2, 0.0263180
12706.3, 0.0271750
12737.5, 0.0279260
12768.9, 0.0288370
12800.4, 0.0297480
12832.1, 0.0308740
12863.9, 0.0322670
12895.9, 0.0336610
12928.1, 0.0348940
12960.4, 0.0359660
12992.9, 0.0369300
13025.5, 0.0377880
13058.3, 0.0387530
13091.3, 0.0398250
13124.4, 0.0406820
13157.8, 0.0412720
13191.2, 0.0415400
13224.9, 0.0416470
13258.7, 0.0414330
13292.7, 0.0413260
13326.9, 0.0409500
13361.2, 0.0402540
13395.7, 0.0393420
13430.4, 0.0386990
13465.3, 0.0380560
13500.4, 0.0371980
13535.7, 0.0363940
13571.1, 0.0358050
13606.7, 0.0352150
13642.5, 0.0345720
13678.5, 0.0338750
13714.7, 0.0333390
13751.1, 0.0329100
13787.6, 0.0326420
13824.4, 0.0324820
13861.4, 0.0324280
13898.5, 0.0319460
13935.9, 0.0316240
13973.5, 0.0315700
14011.2, 0.0313020
14049.2, 0.0309810
14087.4, 0.0306590
14125.8, 0.0302300
14164.3, 0.0300160
14203.2, 0.0299090
14242.2, 0.0298020
14281.4, 0.0293730
14320.9, 0.0293730
14360.5, 0.0297480
14400.4, 0.0303380
14440.5, 0.0309270
14480.9, 0.0317310
14521.4, 0.0327500
14562.2, 0.0339820
14603.3, 0.0352690
14644.5, 0.0369840
14686.0, 0.0386460
14727.7, 0.0398250
14769.7, 0.0408430
14811.9, 0.0416470
14854.3, 0.0420760
14897.0, 0.0422900
14939.9, 0.0426120
14983.1, 0.0430940
15026.5, 0.0434700
15070.2, 0.0436300
15114.2, 0.0436840
15158.3, 0.0437380
15202.8, 0.0437380
15247.5, 0.0440060
15292.5, 0.0440060
15337.7, 0.0437380
15383.2, 0.0436300
15429.0, 0.0436300
15475.1, 0.0432020
15521.4, 0.0428260
15568.0, 0.0428260
15614.9, 0.0421830
15662.1, 0.0412180
15709.6, 0.0407900
15757.3, 0.0399860
15805.4, 0.0394500
15853.7, 0.0391280
15902.3, 0.0388060
15951.2, 0.0385380
16000.5, 0.0378950
16050.0, 0.0371980
16099.8, 0.0367700
16150.0, 0.0363410
16200.5, 0.0354830
16251.3, 0.0348400
16302.4, 0.0340900
16353.8, 0.0331780
16405.5, 0.0324280
16457.6, 0.0315700
16510.0, 0.0308740
16562.8, 0.0295870
16615.9, 0.0283540
16669.3, 0.0272290
16723.1, 0.0262100
16777.2, 0.0247630
16831.7, 0.0231550
16886.5, 0.0220830
16941.7, 0.0212260
16997.2, 0.0201540
17053.1, 0.0190820
17109.4, 0.0181700
17166.1, 0.0180630
17223.1, 0.0183850
17280.5, 0.0190280
17338.3, 0.0199390
17396.5, 0.0211180
17455.1, 0.0231550
17514.0, 0.0261570
17573.4, 0.0299620
17633.2, 0.0341430
17693.4, 0.0389670
17754.0, 0.0447020
17815.0, 0.0503300
17876.4, 0.0553690
17938.3, 0.0594960
18000.5, 0.0620150
18063.3, 0.0620150
18126.4, 0.0602460
18190.0, 0.0574590
18254.1, 0.0546720
18318.6, 0.0521530
18383.5, 0.0503840
18449.0, 0.0497940
18514.9, 0.0495800
18581.2, 0.0500620
18648.0, 0.0517780
18715.4, 0.0540290
18783.2, 0.0567090
18851.5, 0.0605680
18920.3, 0.0661420
18989.6, 0.0723600
19059.4, 0.0800780
19129.7, 0.0891370
19200.6, 0.0974980
19272.0, 0.105002
19343.9, 0.112399
19416.3, 0.118724
19489.3, 0.123816
19562.8, 0.128586
19637.0, 0.132553
19711.6, 0.135715
19786.8, 0.138770
19862.6, 0.141665
19939.0, 0.144398
20016.0, 0.147293
20093.6, 0.150455
20171.8, 0.153242
20250.6, 0.155118
20330.0, 0.156941
20410.0, 0.158978
20490.7, 0.161282
20572.0, 0.163158
20654.0, 0.165570
20736.6, 0.167982
20819.9, 0.169698
20903.8, 0.172538
20988.5, 0.175594
21073.8, 0.177148
21159.8, 0.177577
21246.5, 0.178274
21334.0, 0.178274
21422.1, 0.178006
21511.0, 0.177094
21600.7, 0.175165
21691.0, 0.171681
21782.1, 0.166374
21874.0, 0.160746
21966.7, 0.156458
22060.2, 0.151688
22154.5, 0.148954
22249.6, 0.146703
22345.5, 0.145738
22442.2, 0.145470
22539.8, 0.144184
22638.2, 0.144827
22737.5, 0.147132
22837.7, 0.147775
22938.7, 0.147186
23040.7, 0.148258
23143.5, 0.147454
23247.3, 0.142469
23352.1, 0.136573
23457.7, 0.129658
23564.4, 0.121404
23672.0, 0.114972
23780.5, 0.110738
23890.1, 0.106557
24000.7, 0.103877
24112.3, 0.102322
24225.0, 0.101304
24338.7, 0.0994280
24453.5, 0.0985700
24569.4, 0.0993210
24686.4, 0.0981420
24804.5, 0.0968550
24923.8, 0.0953540
