Database of Origin, USGS Spectral Database
Sample Description, See USGS database for additional info
Date Added,2016-08-10 05:01:01.778368

Data ID,USGS_kao16          
Sample ID, kaolinite_kl502.12272
Mineral Name, kaolinite
Material Class,Phyllosilicate

Wavelength
213.1, 0.159381
221.1, 0.161546
229.1, 0.157350
236.1, 0.150568
242.1, 0.144240
248.1, 0.141435
253.6, 0.142319
258.6, 0.145312
263.6, 0.153380
268.6, 0.167838
273.1, 0.186148
277.1, 0.205007
281.1, 0.229241
285.1, 0.253889
289.1, 0.279487
293.1, 0.305485
297.1, 0.329478
301.1, 0.347765
305.1, 0.365116
309.1, 0.379508
313.1, 0.390336
317.1, 0.400493
321.1, 0.408603
325.1, 0.414270
329.1, 0.422243
333.1, 0.426438
337.1, 0.431503
341.1, 0.435939
345.1, 0.439796
349.1, 0.442687
353.1, 0.446651
357.1, 0.450691
360.6, 0.452322
363.6, 0.455145
366.6, 0.456012
369.6, 0.458385
372.6, 0.460097
375.6, 0.463192
378.6, 0.467072
381.1, 0.470703
383.1, 0.471779
385.1, 0.474962
387.1, 0.476795
389.1, 0.479490
391.1, 0.481227
393.1, 0.483034
395.1, 0.484295
397.1, 0.486430
399.1, 0.488623
401.1, 0.491432
403.1, 0.493005
405.1, 0.493813
407.1, 0.494072
409.1, 0.495732
411.1, 0.499145
412.8, 0.500814
415.8, 0.501911
418.8, 0.504059
421.8, 0.506111
424.8, 0.507070
427.8, 0.509012
430.8, 0.511689
433.8, 0.512186
436.8, 0.516140
439.8, 0.517932
442.8, 0.520527
445.8, 0.522260
448.8, 0.524897
451.3, 0.528075
453.3, 0.527735
455.3, 0.528545
457.3, 0.530261
459.3, 0.529998
461.3, 0.531375
463.3, 0.532006
465.3, 0.532192
467.3, 0.533966
469.3, 0.535356
471.3, 0.534304
473.3, 0.536399
475.3, 0.536207
477.3, 0.536580
479.3, 0.537237
481.3, 0.537944
483.3, 0.540246
485.3, 0.540274
487.3, 0.540479
489.3, 0.542293
491.3, 0.543977
493.3, 0.544664
495.3, 0.545558
497.3, 0.547131
499.3, 0.548426
501.3, 0.549146
503.3, 0.551108
505.3, 0.552842
507.3, 0.553368
509.3, 0.555970
511.3, 0.558436
513.3, 0.558333
515.3, 0.560508
517.3, 0.560253
519.3, 0.562053
521.3, 0.565389
523.3, 0.565379
525.3, 0.568553
527.3, 0.568011
529.3, 0.569132
531.3, 0.571339
533.3, 0.572381
535.3, 0.575473
537.3, 0.576041
539.3, 0.577782
541.3, 0.578739
543.3, 0.580719
545.3, 0.581849
547.3, 0.583659
549.3, 0.584659
551.3, 0.587184
553.3, 0.589117
555.3, 0.590972
557.3, 0.591286
559.3, 0.592179
561.3, 0.597557
563.3, 0.599491
565.3, 0.599609
567.3, 0.601005
569.3, 0.602122
571.3, 0.603661
573.3, 0.605355
575.3, 0.606006
577.3, 0.605819
579.3, 0.607824
581.3, 0.608146
583.3, 0.610146
585.3, 0.611224
587.3, 0.612531
589.3, 0.612806
591.3, 0.613420
593.3, 0.614239
595.3, 0.614690
597.3, 0.615093
599.3, 0.615945
601.1, 0.616939
602.7, 0.617790
604.3, 0.617923
605.9, 0.618206
607.5, 0.618207
609.1, 0.619223
610.7, 0.620315
612.3, 0.618548
613.9, 0.620082
615.5, 0.620273
617.1, 0.618961
618.7, 0.619381
620.3, 0.620456
621.9, 0.620831
623.5, 0.621056
625.1, 0.619800
626.7, 0.622531
628.3, 0.621809
629.9, 0.622014
631.7, 0.621056
633.7, 0.622523
635.7, 0.624065
637.7, 0.622595
639.7, 0.624036
641.7, 0.623495
643.7, 0.623737
645.7, 0.623832
647.7, 0.624899
649.7, 0.625151
651.7, 0.625744
653.7, 0.626727
655.7, 0.627503
657.7, 0.626957
659.7, 0.627116
661.7, 0.629452
663.7, 0.628668
665.7, 0.628887
667.7, 0.629238
670.2, 0.629320
673.2, 0.629958
676.2, 0.631015
679.2, 0.632433
682.2, 0.632399
685.2, 0.634033
688.2, 0.634736
691.2, 0.635189
694.2, 0.637030
697.2, 0.637473
700.2, 0.636994
702.0, 0.638628
704.0, 0.638070
706.0, 0.639169
708.0, 0.639781
710.0, 0.640289
712.0, 0.640732
714.0, 0.641321
716.0, 0.642417
718.0, 0.641544
720.0, 0.642251
722.0, 0.643462
724.0, 0.642878
726.0, 0.644030
728.0, 0.644306
730.0, 0.643802
732.0, 0.644952
734.0, 0.643946
736.0, 0.646265
738.0, 0.646554
740.0, 0.647333
742.0, 0.645512
744.0, 0.648007
746.0, 0.646326
748.0, 0.647809
750.5, 0.647493
753.5, 0.647272
756.5, 0.648937
759.5, 0.648735
762.5, 0.648374
765.5, 0.649378
768.5, 0.648620
771.5, 0.649797
774.5, 0.650729
777.5, 0.649505
781.0, 0.651033
785.0, 0.650272
789.0, 0.649808
793.0, 0.651053
797.0, 0.650117
801.5, 0.650155
806.5, 0.649385
811.5, 0.650811
816.5, 0.649465
822.0, 0.649538
828.0, 0.648815
835.0, 0.647796
843.0, 0.649988
851.0, 0.648963
859.0, 0.646497
871.0, 0.645503
883.0, 0.640422
894.0, 0.644764
904.0, 0.642155
914.0, 0.641895
924.0, 0.639513
933.0, 0.640548
941.0, 0.638246
949.0, 0.632751
957.0, 0.633331
964.0, 0.633691
970.0, 0.632600
976.0, 0.640329
982.0, 0.637871
988.0, 0.639352
994.0, 0.639599
1000.0, 0.641397
1006.0, 0.639468
1012.0, 0.639909
1018.0, 0.637971
1023.5, 0.643999
1028.5, 0.640917
1033.5, 0.641302
1038.5, 0.642076
1043.5, 0.641260
1048.5, 0.640385
1053.5, 0.642410
1058.5, 0.642658
1063.5, 0.642271
1068.5, 0.641778
1073.5, 0.641744
1078.5, 0.643306
1083.5, 0.642937
1088.5, 0.642671
1093.5, 0.644530
1098.5, 0.642741
1103.5, 0.643596
1108.5, 0.645674
1113.5, 0.642951
1118.5, 0.644766
1123.5, 0.642823
1128.5, 0.644029
1133.5, 0.644576
1138.5, 0.643041
1143.5, 0.642824
1148.5, 0.642972
1153.5, 0.643022
1158.5, 0.641443
1163.5, 0.643144
1168.5, 0.641670
1173.5, 0.642172
1178.5, 0.641334
1183.5, 0.644015
1188.5, 0.644035
1193.5, 0.644786
1198.5, 0.641238
1203.5, 0.641527
1208.5, 0.641699
1213.5, 0.640933
1218.5, 0.642089
1223.5, 0.640902
1228.5, 0.638484
1233.5, 0.636805
1238.5, 0.635242
1243.5, 0.635871
1248.5, 0.635561
1253.5, 0.636815
1258.5, 0.637500
1263.5, 0.637744
1268.5, 0.637444
1273.5, 0.636472
1278.5, 0.635062
1283.5, 0.632880
1288.5, 0.628185
1293.5, 0.624805
1298.5, 0.620774
1303.5, 0.619825
1308.5, 0.615243
1313.5, 0.612828
1318.5, 0.611586
1323.5, 0.609085
1328.5, 0.608102
1333.5, 0.604341
1338.5, 0.603928
1343.5, 0.599814
1348.5, 0.594728
1353.5, 0.579722
1358.5, 0.569434
1363.5, 0.562322
1368.5, 0.559250
1373.5, 0.548426
1378.5, 0.525778
1383.5, 0.490862
1388.5, 0.457148
1393.5, 0.435656
1398.5, 0.441137
1403.5, 0.455985
1408.5, 0.459608
1413.5, 0.410835
1418.5, 0.444156
1423.5, 0.523542
1428.5, 0.547564
1433.5, 0.559200
1438.5, 0.568691
1443.5, 0.577282
1448.5, 0.584034
1453.5, 0.588148
1458.5, 0.590740
1463.5, 0.591838
1468.5, 0.593582
1473.5, 0.597074
1478.5, 0.599146
1483.5, 0.601520
1488.5, 0.604401
1493.5, 0.606038
1498.5, 0.610268
1503.5, 0.610893
1508.5, 0.611350
1513.5, 0.613851
1518.5, 0.614910
1523.5, 0.617120
1528.5, 0.618652
1534.0, 0.615901
1540.0, 0.617143
1546.0, 0.618503
1552.0, 0.618133
1558.0, 0.618839
1564.0, 0.617936
1570.5, 0.618369
1577.5, 0.619615
1584.5, 0.619343
1591.5, 0.619913
1598.5, 0.620271
1605.5, 0.620477
1612.5, 0.618429
1619.5, 0.620220
1626.5, 0.620109
1633.5, 0.620165
1640.5, 0.618251
1647.5, 0.619917
1654.5, 0.620542
1661.5, 0.619121
1668.5, 0.617809
1676.0, 0.616849
1684.0, 0.614799
1692.0, 0.619997
1700.0, 0.620493
1708.0, 0.620567
1716.0, 0.614202
1724.0, 0.611998
1732.0, 0.609252
1740.0, 0.611342
1748.0, 0.612061
1756.0, 0.608261
1764.0, 0.603891
1772.0, 0.598204
1780.0, 0.595897
1788.0, 0.593790
1796.0, 0.589840
1805.0, 0.585172
1815.0, 0.581857
1825.0, 0.578796
1835.0, 0.580886
1845.0, 0.580385
1855.0, 0.582139
1865.0, 0.576742
1875.0, 0.560014
1885.0, 0.532484
1895.0, 0.496425
1905.0, 0.447047
1915.0, 0.423338
1925.0, 0.443809
1935.0, 0.464887
1945.0, 0.473364
1955.0, 0.481873
1965.0, 0.488081
1975.0, 0.494922
1985.0, 0.499684
1995.0, 0.505647
2005.0, 0.506488
2015.0, 0.512088
2025.0, 0.515832
2035.0, 0.516061
2045.0, 0.515215
2055.0, 0.513170
2065.0, 0.509054
2075.0, 0.500406
2085.0, 0.492362
2095.0, 0.486119
2105.0, 0.478668
2115.0, 0.461359
2125.0, 0.452013
2135.0, 0.437411
2145.0, 0.391237
2155.0, 0.332307
2165.0, 0.319024
2175.0, 0.320440
2185.0, 0.314949
2195.0, 0.293552
2205.0, 0.239259
2215.0, 0.258005
2225.0, 0.351525
2235.0, 0.375365
2245.0, 0.381758
2255.0, 0.389999
2265.0, 0.386738
2275.0, 0.377165
2285.0, 0.364053
2295.0, 0.353717
2305.0, 0.332689
2315.0, 0.317967
2325.0, 0.314783
2335.0, 0.310177
2345.0, 0.303315
2355.0, 0.289834
2365.0, 0.285489
2375.0, 0.276051
2386.0, 0.267264
2400.0, 0.269373
2418.0, 0.264618
2440.0, 0.241116
2466.0, 0.220795
2496.0, 0.196362
2528.0, 0.179489
2560.0, 0.164361
2592.0, 0.148349
2624.0, 0.125800
2656.0, 0.0945020
2688.0, 0.0340380
2720.0, 0.00588200
2752.0, 0.000261000
2784.0, 0.00535300
2816.0, 0.0149000
2848.0, 0.0192740
2880.0, 0.0196980
2912.0, 0.0293460
2944.0, 0.0244650
2976.0, 0.0428740
