Database of Origin, USGS Spectral Database
Sample Description, See USGS database for additional info
Date Added,2016-08-10 05:30:14.876267

Data ID,USGS_pyr15          
Sample ID, pyrophyllite_pys1a.18898
Mineral Name, pyrophyllite
Material Class,Phyllosilicate

Wavelength
1342.7, 0.603464
1343.05, 0.603420
1343.39, 0.603681
1343.74, 0.604203
1344.09, 0.604507
1344.44, 0.604551
1344.79, 0.604638
1345.14, 0.604812
1345.48, 0.605073
1345.83, 0.605203
1346.18, 0.605290
1346.53, 0.605203
1346.88, 0.605464
1347.23, 0.605899
1347.58, 0.606334
1347.93, 0.606290
1348.28, 0.606247
1348.64, 0.606551
1348.99, 0.606725
1349.34, 0.606464
1349.69, 0.607029
1350.04, 0.607029
1350.39, 0.607247
1350.74, 0.607247
1351.1, 0.607421
1351.45, 0.607290
1351.8, 0.607073
1352.15, 0.607160
1352.51, 0.606899
1352.86, 0.606638
1353.21, 0.606856
1353.56, 0.607290
1353.92, 0.607290
1354.27, 0.607247
1354.63, 0.607421
1354.98, 0.607551
1355.33, 0.607508
1355.69, 0.607377
1356.04, 0.607508
1356.4, 0.606986
1356.75, 0.606682
1357.11, 0.606421
1357.46, 0.606203
1357.82, 0.605855
1358.18, 0.605768
1358.53, 0.605420
1358.89, 0.605464
1359.24, 0.604855
1359.6, 0.604072
1359.96, 0.603594
1360.31, 0.603768
1360.67, 0.602942
1361.03, 0.602159
1361.39, 0.601898
1361.74, 0.602072
1362.1, 0.601985
1362.46, 0.602028
1362.82, 0.602116
1363.18, 0.602072
1363.53, 0.601507
1363.89, 0.601463
1364.25, 0.601333
1364.61, 0.601724
1364.97, 0.601985
1365.33, 0.601724
1365.69, 0.601202
1366.05, 0.601289
1366.41, 0.601681
1366.77, 0.601159
1367.13, 0.601246
1367.49, 0.601507
1367.85, 0.601333
1368.21, 0.601159
1368.57, 0.600506
1368.93, 0.600332
1369.3, 0.599985
1369.66, 0.599854
1370.02, 0.600028
1370.38, 0.599724
1370.74, 0.599202
1371.11, 0.599071
1371.47, 0.598767
1371.83, 0.598637
1372.19, 0.598898
1372.56, 0.598332
1372.92, 0.597810
1373.29, 0.597115
1373.65, 0.596897
1374.01, 0.596723
1374.38, 0.596767
1374.74, 0.596636
1375.11, 0.596245
1375.47, 0.595419
1375.84, 0.594897
1376.2, 0.594549
1376.57, 0.593984
1376.93, 0.593809
1377.3, 0.593505
1377.67, 0.593027
1378.03, 0.592940
1378.4, 0.592505
1378.76, 0.592027
1379.13, 0.591418
1379.5, 0.591113
1379.87, 0.590939
1380.23, 0.590418
1380.6, 0.590157
1380.97, 0.589722
1381.34, 0.589026
1381.7, 0.588461
1382.07, 0.587852
1382.44, 0.587547
1382.81, 0.587026
1383.18, 0.586069
1383.55, 0.585112
1383.92, 0.584199
1384.29, 0.583155
1384.66, 0.582155
1385.03, 0.580851
1385.4, 0.579546
1385.77, 0.577980
1386.14, 0.577024
1386.51, 0.575545
1386.88, 0.573153
1387.25, 0.570849
1387.62, 0.568413
1387.99, 0.565630
1388.36, 0.561890
1388.74, 0.557716
1389.11, 0.552889
1389.48, 0.547235
1389.85, 0.540538
1390.23, 0.532450
1390.6, 0.522274
1390.97, 0.509750
1391.35, 0.494530
1391.72, 0.476787
1392.09, 0.456609
1392.47, 0.435257
1392.84, 0.415341
1393.21, 0.400294
1393.59, 0.393684
1393.96, 0.397120
1394.34, 0.408904
1394.71, 0.425734
1395.09, 0.443998
1395.46, 0.461567
1395.84, 0.477831
1396.22, 0.491790
1396.59, 0.503836
1396.97, 0.513751
1397.35, 0.521143
1397.72, 0.527666
1398.1, 0.533537
1398.48, 0.538625
1398.85, 0.542582
1399.23, 0.545931
1399.61, 0.548757
1399.99, 0.551019
1400.37, 0.553106
1400.74, 0.555280
1401.12, 0.556281
1401.5, 0.556889
1401.88, 0.557672
1402.26, 0.557846
1402.64, 0.557629
1403.02, 0.557629
1403.4, 0.557368
1403.78, 0.556672
1404.16, 0.556107
1404.54, 0.555672
1404.92, 0.554976
1405.3, 0.554150
1405.68, 0.553889
1406.06, 0.553802
1406.44, 0.554237
1406.83, 0.554846
1407.21, 0.554976
1407.59, 0.555150
1407.97, 0.555454
1408.35, 0.555628
1408.74, 0.555628
1409.12, 0.555802
1409.5, 0.556063
1409.89, 0.556498
1410.27, 0.556411
1410.65, 0.556455
1411.04, 0.556759
1411.42, 0.557237
1411.81, 0.557585
1412.19, 0.557977
1412.58, 0.557977
1412.96, 0.558150
1413.35, 0.558455
1413.73, 0.558672
1414.12, 0.558846
1414.5, 0.558977
1414.89, 0.559020
1415.28, 0.559151
1415.66, 0.559542
1416.05, 0.559803
1416.44, 0.559716
1416.82, 0.559542
1417.21, 0.559281
1417.6, 0.559194
1417.98, 0.559281
1418.37, 0.559107
1418.76, 0.558455
1419.15, 0.558238
1419.54, 0.558498
1419.93, 0.558368
1420.32, 0.557716
1420.71, 0.557194
1421.09, 0.557237
1421.48, 0.557150
1421.88, 0.556976
1422.27, 0.556846
1422.66, 0.556368
1423.05, 0.555541
1423.44, 0.555193
1423.83, 0.555193
1424.22, 0.554889
1424.61, 0.554411
1425.0, 0.554193
1425.39, 0.553976
1425.78, 0.553671
1426.18, 0.553193
1426.57, 0.552932
1426.96, 0.552454
1427.36, 0.552106
1427.75, 0.551932
1428.14, 0.551671
1428.54, 0.551541
1428.93, 0.551149
1429.32, 0.551019
1429.72, 0.550540
1430.11, 0.550279
1430.51, 0.550062
1430.9, 0.549975
1431.3, 0.550062
1431.69, 0.549932
1432.09, 0.549845
1432.48, 0.549714
1432.88, 0.549453
1433.28, 0.549323
1433.67, 0.549279
1434.07, 0.549105
1434.46, 0.548844
1434.86, 0.548757
1435.26, 0.548670
1435.66, 0.548497
1436.05, 0.548366
1436.45, 0.548322
1436.85, 0.548236
1437.25, 0.548149
1437.65, 0.548149
1438.05, 0.548105
1438.44, 0.547714
1438.84, 0.547279
1439.24, 0.547366
1439.64, 0.547235
1440.04, 0.547018
1440.44, 0.546931
1440.84, 0.546757
1441.24, 0.546540
1441.65, 0.546409
1442.05, 0.546192
1442.45, 0.546105
1442.85, 0.546322
1443.25, 0.545887
1443.65, 0.545322
1444.05, 0.545322
1444.46, 0.545496
1444.86, 0.545452
1445.26, 0.545148
1445.67, 0.545148
1446.07, 0.545148
1446.47, 0.545018
1446.88, 0.544583
1447.28, 0.544322
1447.68, 0.544365
1448.09, 0.544235
1448.49, 0.544278
1448.9, 0.544104
1449.3, 0.543409
1449.71, 0.543409
1450.11, 0.543582
1450.52, 0.543539
1450.93, 0.543278
1451.33, 0.542930
1451.74, 0.542800
1452.14, 0.542539
1452.55, 0.542408
1452.96, 0.542234
1453.36, 0.542191
1453.77, 0.541887
1454.18, 0.541669
1454.59, 0.541495
1455.0, 0.541234
1455.41, 0.541060
1455.81, 0.540669
1456.22, 0.540365
1456.63, 0.540582
1457.04, 0.540495
1457.45, 0.540321
1457.86, 0.540060
1458.27, 0.539973
1458.68, 0.539843
1459.09, 0.539712
1459.5, 0.539495
1459.91, 0.539147
1460.32, 0.539277
1460.74, 0.539451
1461.15, 0.539234
1461.56, 0.539277
1461.97, 0.539016
1462.39, 0.539060
1462.8, 0.539147
1463.21, 0.538582
1463.62, 0.538234
1464.04, 0.538408
1464.45, 0.538408
1464.86, 0.538321
1465.28, 0.538364
1465.69, 0.538234
1466.11, 0.537973
1466.52, 0.537929
1466.94, 0.537799
1467.35, 0.537886
1467.77, 0.537668
1468.18, 0.537538
1468.6, 0.537538
1469.02, 0.537625
1469.43, 0.537494
1469.85, 0.537538
1470.27, 0.537320
1470.68, 0.537277
1471.1, 0.537407
1471.52, 0.537320
1471.94, 0.537277
1472.35, 0.537451
1472.77, 0.537190
1473.19, 0.536668
1473.61, 0.536494
1474.03, 0.536755
1474.45, 0.536973
1474.87, 0.536886
1475.29, 0.536842
1475.71, 0.536886
1476.13, 0.536842
1476.55, 0.536668
1476.97, 0.536625
1477.39, 0.536842
1477.81, 0.536973
1478.23, 0.536842
1478.65, 0.536581
1479.07, 0.536538
1479.5, 0.536494
1479.92, 0.536625
1480.34, 0.536625
1480.76, 0.536538
1481.19, 0.536407
1481.61, 0.536277
1482.03, 0.536190
1482.46, 0.536277
1482.88, 0.536277
1483.31, 0.536233
1483.73, 0.536320
1484.16, 0.536146
1484.58, 0.536190
1485.01, 0.536407
1485.43, 0.536146
1485.86, 0.536059
1486.28, 0.535972
1486.71, 0.536016
1487.14, 0.536103
1487.56, 0.536146
1487.99, 0.536146
1488.42, 0.536233
1488.84, 0.536190
1489.27, 0.536320
1489.7, 0.536277
1490.13, 0.536320
1490.56, 0.536494
1490.98, 0.536625
1491.41, 0.536625
1491.84, 0.536712
1492.27, 0.536755
1492.7, 0.536799
1493.13, 0.536886
1493.56, 0.536886
1493.99, 0.537016
1494.42, 0.536842
1494.85, 0.536886
1495.29, 0.536973
1495.72, 0.536712
1496.15, 0.536625
1496.58, 0.536755
1497.01, 0.537060
1497.44, 0.537016
1497.88, 0.537016
1498.31, 0.536929
1498.74, 0.536842
1499.18, 0.536799
1499.61, 0.536973
1500.04, 0.537103
1500.48, 0.537103
1500.91, 0.537016
1501.35, 0.537060
1501.78, 0.537016
1502.22, 0.537016
1502.65, 0.537320
1503.09, 0.537320
1503.53, 0.537277
1503.96, 0.537320
1504.4, 0.537277
1504.83, 0.537190
1505.27, 0.537190
1505.71, 0.537277
1506.15, 0.537581
1506.58, 0.537625
1507.02, 0.537451
1507.46, 0.537538
1507.9, 0.537712
1508.34, 0.537842
1508.78, 0.537712
1509.21, 0.537451
1509.66, 0.537494
1510.09, 0.537929
1510.53, 0.538016
1510.97, 0.537842
1511.42, 0.538060
1511.86, 0.538147
1512.3, 0.537973
1512.74, 0.537799
1513.18, 0.537929
1513.62, 0.538060
1514.06, 0.538103
1514.51, 0.538060
1514.95, 0.538060
1515.39, 0.538364
1515.83, 0.538277
1516.28, 0.538147
1516.72, 0.538234
1517.16, 0.538408
1517.61, 0.538190
1518.05, 0.538147
1518.5, 0.538408
1518.94, 0.538451
1519.39, 0.538408
1519.83, 0.538321
1520.28, 0.538451
1520.73, 0.538625
1521.17, 0.538712
1521.62, 0.538625
1522.07, 0.538625
1522.51, 0.538755
1522.96, 0.538625
1523.41, 0.538755
1523.85, 0.538842
1524.3, 0.538842
1524.75, 0.539016
1525.2, 0.539060
1525.65, 0.539103
1526.1, 0.539364
1526.55, 0.539669
1527.0, 0.539799
1527.45, 0.539756
1527.9, 0.539669
1528.35, 0.539843
1528.8, 0.539930
1529.25, 0.539973
1529.7, 0.540017
1530.15, 0.540060
1530.6, 0.540147
1531.05, 0.540234
1531.51, 0.540408
1531.96, 0.540365
1532.41, 0.540408
1532.87, 0.540625
1533.32, 0.540930
1533.77, 0.540930
1534.23, 0.540843
1534.68, 0.540886
1535.14, 0.541060
1535.59, 0.541321
1536.05, 0.541582
1536.5, 0.541539
1536.96, 0.541713
1537.41, 0.541930
1537.87, 0.542191
1538.32, 0.542104
1538.78, 0.542321
1539.24, 0.542452
1539.7, 0.542539
1540.15, 0.542582
1540.61, 0.542713
1541.07, 0.542800
1541.53, 0.542713
1541.98, 0.542800
1542.44, 0.543061
1542.9, 0.543235
1543.36, 0.543409
1543.82, 0.543495
1544.28, 0.543756
1544.74, 0.543887
1545.2, 0.544017
1545.66, 0.544061
1546.12, 0.544278
1546.59, 0.544235
1547.05, 0.544017
1547.51, 0.544104
1547.97, 0.544452
1548.43, 0.544583
1548.9, 0.544713
1549.36, 0.544757
1549.82, 0.545018
1550.29, 0.545148
1550.75, 0.545235
1551.21, 0.545409
1551.68, 0.545496
1552.14, 0.545757
1552.61, 0.545974
1553.07, 0.545931
1553.54, 0.545974
1554.0, 0.546192
1554.47, 0.546453
1554.93, 0.546670
1555.4, 0.546670
1555.87, 0.546757
1556.34, 0.546627
1556.8, 0.546800
1557.27, 0.547105
1557.74, 0.547409
1558.21, 0.547583
1558.68, 0.547757
1559.14, 0.547931
1559.61, 0.548149
1560.08, 0.548236
1560.55, 0.548453
1561.02, 0.548453
1561.49, 0.548410
1561.96, 0.548366
1562.43, 0.548540
1562.9, 0.548801
1563.38, 0.549018
1563.85, 0.549149
1564.32, 0.549236
1564.79, 0.549366
1565.26, 0.549410
1565.74, 0.549627
1566.21, 0.549888
1566.68, 0.549845
1567.16, 0.550062
1567.63, 0.550019
1568.1, 0.550062
1568.58, 0.550192
1569.05, 0.550366
1569.53, 0.550453
1570.0, 0.550671
1570.48, 0.550888
1570.96, 0.550975
1571.43, 0.550932
1571.91, 0.551062
1572.39, 0.551106
1572.86, 0.551149
1573.34, 0.551454
1573.82, 0.551671
1574.3, 0.551758
1574.77, 0.551932
1575.25, 0.551932
1575.73, 0.551932
1576.21, 0.552149
1576.69, 0.552280
1577.17, 0.552280
1577.65, 0.552410
1578.13, 0.552454
1578.61, 0.552454
1579.09, 0.552628
1579.57, 0.552976
1580.05, 0.553150
1580.54, 0.553063
1581.02, 0.553280
1581.5, 0.553411
1581.98, 0.553454
1582.47, 0.553367
1582.95, 0.553280
1583.43, 0.553497
1583.92, 0.553802
1584.4, 0.553932
1584.88, 0.554063
1585.37, 0.554193
1585.85, 0.554324
1586.34, 0.554411
1586.82, 0.554454
1587.31, 0.554541
1587.8, 0.554802
1588.28, 0.554976
1588.77, 0.554889
1589.26, 0.554933
1589.74, 0.555237
1590.23, 0.555324
1590.72, 0.555324
1591.21, 0.555411
1591.7, 0.555585
1592.19, 0.555715
1592.67, 0.555715
1593.16, 0.555672
1593.65, 0.555933
1594.14, 0.556237
1594.63, 0.556411
1595.12, 0.556542
1595.61, 0.556585
1596.11, 0.556498
1596.6, 0.556542
1597.09, 0.557063
1597.58, 0.557237
1598.08, 0.557324
1598.57, 0.557498
1599.06, 0.557498
1599.55, 0.557629
1600.05, 0.557716
1600.54, 0.557716
1601.04, 0.557803
1601.53, 0.558150
1602.03, 0.558238
1602.52, 0.558411
1603.02, 0.558455
1603.51, 0.558629
1604.01, 0.558803
1604.5, 0.558846
1605.0, 0.559020
1605.5, 0.559238
1606.0, 0.559325
1606.49, 0.559325
1606.99, 0.559368
1607.49, 0.559629
1607.99, 0.560064
1608.49, 0.560238
1608.99, 0.560194
1609.49, 0.560325
1609.99, 0.560542
1610.49, 0.560542
1610.99, 0.560716
1611.49, 0.560977
1611.99, 0.561108
1612.49, 0.561238
1612.99, 0.561369
1613.49, 0.561673
1614.0, 0.561716
1614.5, 0.561673
1615.0, 0.561847
1615.51, 0.562238
1616.01, 0.562543
1616.51, 0.562717
1617.02, 0.562717
1617.52, 0.562760
1618.03, 0.562977
1618.53, 0.563151
1619.04, 0.563151
1619.54, 0.563282
1620.05, 0.563369
1620.55, 0.563630
1621.06, 0.564021
1621.57, 0.564239
1622.08, 0.564326
1622.58, 0.564456
1623.09, 0.564543
1623.6, 0.564543
1624.11, 0.564456
1624.62, 0.564760
1625.13, 0.564978
1625.64, 0.565326
1626.15, 0.565456
1626.66, 0.565500
1627.17, 0.565587
1627.68, 0.565804
1628.19, 0.565848
1628.7, 0.565935
1629.21, 0.566152
1629.72, 0.566456
1630.24, 0.566283
1630.75, 0.566369
1631.26, 0.566804
1631.78, 0.566978
1632.29, 0.566978
1632.8, 0.567152
1633.32, 0.567283
1633.83, 0.567196
1634.35, 0.567196
1634.86, 0.567500
1635.38, 0.567848
1635.9, 0.568196
1636.41, 0.568370
1636.93, 0.568152
1637.45, 0.568022
1637.96, 0.568370
1638.48, 0.568587
1639.0, 0.568805
1639.52, 0.568848
1640.04, 0.568892
1640.56, 0.568935
1641.08, 0.568935
1641.59, 0.568848
1642.11, 0.568979
1642.63, 0.569327
1643.16, 0.569196
1643.68, 0.569153
1644.2, 0.569457
1644.72, 0.569674
1645.24, 0.569674
1645.76, 0.569935
1646.29, 0.570109
1646.81, 0.569979
1647.33, 0.569935
1647.86, 0.570066
1648.38, 0.570370
1648.9, 0.570414
1649.43, 0.570414
1649.95, 0.570675
1650.48, 0.571023
1651.0, 0.571283
1651.53, 0.571153
1652.06, 0.570979
1652.58, 0.571066
1653.11, 0.571240
1653.64, 0.571501
1654.17, 0.571805
1654.69, 0.571762
1655.22, 0.571588
1655.75, 0.571762
1656.28, 0.571892
1656.81, 0.572023
1657.34, 0.572197
1657.87, 0.572153
1658.4, 0.572240
1658.93, 0.572371
1659.46, 0.572284
1659.99, 0.572284
1660.52, 0.572414
1661.05, 0.572805
1661.59, 0.573153
1662.12, 0.573240
1662.65, 0.573110
1663.19, 0.573023
1663.72, 0.573110
1664.26, 0.573458
1664.79, 0.573719
1665.32, 0.573893
1665.86, 0.573936
1666.39, 0.573893
1666.93, 0.574241
1667.47, 0.574632
1668.0, 0.574458
1668.54, 0.574371
1669.08, 0.574502
1669.61, 0.574806
1670.15, 0.575154
1670.69, 0.575284
1671.23, 0.575328
1671.77, 0.575458
1672.31, 0.575371
1672.85, 0.575371
1673.39, 0.575502
1673.93, 0.575632
1674.47, 0.575850
1675.01, 0.576067
1675.55, 0.576241
1676.09, 0.576328
1676.64, 0.576328
1677.18, 0.576415
1677.72, 0.576502
1678.26, 0.576545
1678.81, 0.576763
1679.35, 0.576806
1679.89, 0.577111
1680.44, 0.577241
1680.98, 0.576937
1681.53, 0.576850
1682.07, 0.577024
1682.62, 0.576980
1683.17, 0.577024
1683.71, 0.577328
1684.26, 0.577546
1684.81, 0.577720
1685.36, 0.577676
1685.9, 0.577676
1686.45, 0.577763
1687.0, 0.578024
1687.55, 0.578111
1688.1, 0.578111
1688.65, 0.578067
1689.2, 0.578372
1689.75, 0.578720
1690.3, 0.579068
1690.85, 0.579154
1691.41, 0.579329
1691.96, 0.579546
1692.51, 0.579676
1693.06, 0.579720
1693.61, 0.579850
1694.17, 0.579807
1694.72, 0.579981
1695.28, 0.580198
1695.83, 0.580285
1696.39, 0.580416
1696.94, 0.580677
1697.5, 0.580764
1698.05, 0.580807
1698.61, 0.580851
1699.17, 0.580938
1699.72, 0.581068
1700.28, 0.581155
1700.84, 0.581242
1701.4, 0.581372
1701.95, 0.581590
1702.51, 0.581590
1703.07, 0.581764
1703.63, 0.582025
1704.19, 0.581981
1704.75, 0.582025
1705.31, 0.582329
1705.88, 0.582416
1706.44, 0.582329
1707.0, 0.582416
1707.56, 0.582546
1708.12, 0.582633
1708.69, 0.582373
1709.25, 0.582546
1709.81, 0.582677
1710.38, 0.582851
1710.94, 0.582938
1711.51, 0.582938
1712.07, 0.582981
1712.64, 0.583242
1713.2, 0.583155
1713.77, 0.583286
1714.34, 0.583503
1714.9, 0.583503
1715.47, 0.583460
1716.04, 0.583590
1716.61, 0.583721
1717.18, 0.583851
1717.74, 0.583895
1718.31, 0.583982
1718.88, 0.583851
1719.45, 0.584025
1720.02, 0.584199
1720.59, 0.584155
1721.17, 0.584199
1721.74, 0.584112
1722.31, 0.584155
1722.88, 0.584243
1723.45, 0.584373
1724.03, 0.584373
1724.6, 0.584547
1725.18, 0.584851
1725.75, 0.584721
1726.33, 0.584634
1726.9, 0.584895
1727.48, 0.584895
1728.05, 0.584982
1728.63, 0.584895
1729.2, 0.585025
1729.78, 0.585199
1730.36, 0.585199
1730.94, 0.585243
1731.51, 0.585460
1732.09, 0.585721
1732.67, 0.585634
1733.25, 0.585721
1733.83, 0.585895
1734.41, 0.586025
1734.99, 0.586330
1735.57, 0.586330
1736.15, 0.586417
1736.73, 0.586547
1737.32, 0.586460
1737.9, 0.586547
1738.48, 0.586591
1739.07, 0.586678
1739.65, 0.586852
1740.23, 0.587069
1740.82, 0.587113
1741.4, 0.587200
1741.99, 0.587243
1742.57, 0.587504
1743.16, 0.587634
1743.74, 0.587721
1744.33, 0.587678
1744.92, 0.587721
1745.51, 0.587895
1746.09, 0.588069
1746.68, 0.588113
1747.27, 0.588287
1747.86, 0.588243
1748.45, 0.588330
1749.04, 0.588330
1749.63, 0.588504
1750.22, 0.588591
1750.81, 0.588678
1751.4, 0.588765
1751.99, 0.588983
1752.59, 0.589069
1753.18, 0.589157
1753.77, 0.589157
1754.37, 0.589157
1754.96, 0.589374
1755.56, 0.589504
1756.15, 0.589635
1756.74, 0.589809
1757.34, 0.589896
1757.94, 0.589939
1758.53, 0.589939
1759.13, 0.590026
1759.73, 0.590070
1760.32, 0.590157
1760.92, 0.590331
1761.52, 0.590548
1762.12, 0.590635
1762.72, 0.590765
1763.32, 0.590809
1763.92, 0.590939
1764.52, 0.591070
1765.12, 0.591113
1765.72, 0.591331
1766.32, 0.591418
1766.92, 0.591418
1767.53, 0.591679
1768.13, 0.591896
1768.73, 0.591896
1769.34, 0.591940
1769.94, 0.591940
1770.55, 0.592114
1771.15, 0.592331
1771.76, 0.592331
1772.36, 0.592461
1772.97, 0.592635
1773.57, 0.592635
1774.18, 0.592592
1774.79, 0.592722
1775.4, 0.592766
1776.0, 0.592853
1776.61, 0.592853
1777.22, 0.593114
1777.83, 0.593375
1778.44, 0.593375
1779.05, 0.593331
1779.66, 0.593375
1780.27, 0.593331
1780.88, 0.593331
1781.5, 0.593462
1782.11, 0.593636
1782.72, 0.593636
1783.33, 0.593679
1783.95, 0.593679
1784.56, 0.593679
1785.18, 0.593679
1785.79, 0.593679
1786.41, 0.593853
1787.02, 0.593897
1787.64, 0.593940
1788.26, 0.593853
1788.87, 0.593809
1789.49, 0.593897
1790.11, 0.594070
1790.73, 0.594114
1791.35, 0.594070
1791.96, 0.594114
1792.58, 0.594244
1793.21, 0.594201
1793.83, 0.594375
1794.45, 0.594288
1795.07, 0.594244
1795.69, 0.594375
1796.31, 0.594375
1796.93, 0.594505
1797.56, 0.594592
1798.18, 0.594592
1798.8, 0.594549
1799.43, 0.594549
1800.05, 0.594505
1800.68, 0.594592
1801.3, 0.594679
1801.93, 0.594636
1802.56, 0.594636
1803.18, 0.594810
1803.81, 0.594853
1804.44, 0.594766
1805.07, 0.594679
1805.7, 0.594940
1806.33, 0.594940
1806.95, 0.594766
1807.58, 0.594636
1808.22, 0.594853
1808.85, 0.595114
1809.48, 0.595288
1810.11, 0.595332
1810.74, 0.595288
1811.38, 0.595375
1812.01, 0.595506
1812.64, 0.595592
1813.28, 0.595636
1813.91, 0.595853
1814.55, 0.595897
1815.18, 0.595940
1815.82, 0.595897
1816.45, 0.595984
1817.09, 0.596245
1817.73, 0.596375
1818.36, 0.596419
1819.0, 0.596375
1819.64, 0.596419
1820.28, 0.596636
1820.92, 0.596767
1821.56, 0.596680
1822.2, 0.596854
1822.84, 0.596854
1823.48, 0.596984
1824.12, 0.596854
1824.76, 0.596854
1825.41, 0.597028
1826.05, 0.597288
1826.69, 0.597419
1827.34, 0.597462
1827.98, 0.597419
1828.63, 0.597419
1829.27, 0.597462
1829.92, 0.597636
1830.56, 0.597854
1831.21, 0.598028
1831.86, 0.597941
1832.5, 0.597984
1833.15, 0.598028
1833.8, 0.597810
1834.45, 0.597854
1835.1, 0.598028
1835.75, 0.598115
1836.4, 0.598376
1837.05, 0.598376
1837.7, 0.598419
1838.35, 0.598332
1839.01, 0.598463
1839.66, 0.598767
1840.31, 0.598810
1840.96, 0.598637
1841.62, 0.598810
1842.27, 0.598941
1842.93, 0.598854
1843.58, 0.598767
1844.24, 0.598854
1844.9, 0.598854
1845.55, 0.598898
1846.21, 0.598898
1846.87, 0.599289
1847.53, 0.599724
1848.18, 0.599680
1848.84, 0.599506
1849.5, 0.599419
1850.16, 0.599419
1850.82, 0.599463
1851.48, 0.599506
1852.14, 0.599593
1852.81, 0.599680
1853.47, 0.599941
1854.13, 0.600115
1854.8, 0.599854
1855.46, 0.599724
1856.12, 0.599854
1856.79, 0.600202
1857.45, 0.600246
1858.12, 0.600159
1858.79, 0.599898
1859.45, 0.600115
1860.12, 0.600376
1860.79, 0.600246
1861.46, 0.600115
1862.12, 0.600115
1862.79, 0.600115
1863.46, 0.600028
1864.13, 0.599985
1864.8, 0.600159
1865.48, 0.600072
1866.15, 0.600028
1866.82, 0.600115
1867.49, 0.600246
1868.16, 0.600332
1868.84, 0.600159
1869.51, 0.600072
1870.19, 0.600246
1870.86, 0.600550
1871.54, 0.600463
1872.21, 0.600115
1872.89, 0.600376
1873.56, 0.600376
1874.24, 0.600246
1874.92, 0.600115
1875.6, 0.599898
1876.28, 0.599854
1876.96, 0.600159
1877.64, 0.600115
1878.32, 0.599811
1879.0, 0.599941
1879.68, 0.599941
1880.36, 0.599811
1881.04, 0.599811
1881.73, 0.599724
1882.41, 0.599767
1883.09, 0.599724
1883.78, 0.599680
1884.46, 0.599593
1885.15, 0.599593
1885.83, 0.599680
1886.52, 0.599680
1887.21, 0.599506
1887.89, 0.599376
1888.58, 0.599332
1889.27, 0.599463
1889.96, 0.599593
1890.65, 0.599550
1891.34, 0.599463
1892.03, 0.599332
1892.72, 0.599202
1893.41, 0.599202
1894.1, 0.599245
1894.79, 0.599202
1895.49, 0.599115
1896.18, 0.598898
1896.87, 0.598854
1897.57, 0.598854
1898.26, 0.598898
1898.96, 0.598898
1899.65, 0.599245
1900.35, 0.599202
1901.05, 0.598984
1901.74, 0.598724
1902.44, 0.598767
1903.14, 0.598898
1903.84, 0.598854
1904.54, 0.598854
1905.24, 0.598941
1905.94, 0.598810
1906.64, 0.598898
1907.34, 0.598941
1908.04, 0.598898
1908.75, 0.598898
1909.45, 0.598941
1910.15, 0.599071
1910.86, 0.599115
1911.56, 0.599028
1912.27, 0.598898
1912.97, 0.599028
1913.68, 0.599158
1914.39, 0.599071
1915.09, 0.599115
1915.8, 0.599245
1916.51, 0.599332
1917.22, 0.599245
1917.93, 0.599115
1918.64, 0.599158
1919.35, 0.599376
1920.06, 0.599637
1920.77, 0.599680
1921.48, 0.599550
1922.19, 0.599419
1922.91, 0.599376
1923.62, 0.599376
1924.33, 0.599637
1925.05, 0.599637
1925.76, 0.599637
1926.48, 0.599550
1927.19, 0.599593
1927.91, 0.599724
1928.63, 0.600028
1929.35, 0.599854
1930.07, 0.599767
1930.78, 0.599854
1931.5, 0.600028
1932.22, 0.599898
1932.94, 0.599811
1933.66, 0.599724
1934.39, 0.599637
1935.11, 0.599898
1935.83, 0.600028
1936.55, 0.599941
1937.28, 0.599767
1938.0, 0.599767
1938.73, 0.599898
1939.45, 0.600202
1940.18, 0.600072
1940.9, 0.600072
1941.63, 0.599985
1942.36, 0.599811
1943.09, 0.599767
1943.81, 0.599854
1944.54, 0.599898
1945.27, 0.599941
1946.0, 0.599811
1946.73, 0.599811
1947.47, 0.599985
1948.2, 0.599941
1948.93, 0.599724
1949.66, 0.599680
1950.4, 0.599550
1951.13, 0.599593
1951.86, 0.599811
1952.6, 0.599898
1953.34, 0.599854
1954.07, 0.599854
1954.81, 0.599767
1955.55, 0.599724
1956.29, 0.599811
1957.02, 0.600072
1957.76, 0.599898
1958.5, 0.599811
1959.24, 0.599767
1959.98, 0.599854
1960.72, 0.599767
1961.47, 0.599811
1962.21, 0.599854
1962.95, 0.600028
1963.7, 0.599985
1964.44, 0.599985
1965.18, 0.599941
1965.93, 0.600028
1966.67, 0.599985
1967.42, 0.599941
1968.17, 0.599854
1968.92, 0.599854
1969.66, 0.599854
1970.41, 0.599898
1971.16, 0.600028
1971.91, 0.600072
1972.66, 0.599854
1973.41, 0.599724
1974.16, 0.599637
1974.92, 0.599593
1975.67, 0.599680
1976.42, 0.599593
1977.18, 0.599637
1977.93, 0.599593
1978.69, 0.599593
1979.44, 0.599593
1980.2, 0.599680
1980.95, 0.599680
1981.71, 0.599550
1982.47, 0.599463
1983.23, 0.599376
1983.99, 0.599463
1984.74, 0.599463
1985.51, 0.599419
1986.27, 0.599506
1987.03, 0.599506
1987.79, 0.599376
1988.55, 0.599506
1989.32, 0.599506
1990.08, 0.599419
1990.84, 0.599332
1991.61, 0.599289
1992.37, 0.599289
1993.14, 0.599332
1993.9, 0.599332
1994.67, 0.599419
1995.44, 0.599332
1996.21, 0.599245
1996.98, 0.599202
1997.75, 0.599289
1998.52, 0.599506
1999.29, 0.599506
2000.06, 0.599419
2000.83, 0.599463
2001.6, 0.599506
2002.38, 0.599289
2003.15, 0.599202
2003.93, 0.599158
2004.7, 0.599376
2005.48, 0.599376
2006.25, 0.599289
2007.03, 0.599376
2007.81, 0.599376
2008.58, 0.599289
2009.36, 0.599289
2010.14, 0.599376
2010.92, 0.599289
2011.7, 0.599463
2012.48, 0.599463
2013.26, 0.599289
2014.05, 0.599419
2014.83, 0.599724
2015.61, 0.599724
2016.4, 0.599637
2017.18, 0.599506
2017.97, 0.599593
2018.75, 0.599637
2019.54, 0.599550
2020.32, 0.599724
2021.11, 0.599811
2021.9, 0.599767
2022.69, 0.599985
2023.48, 0.600072
2024.27, 0.600159
2025.06, 0.600159
2025.85, 0.600072
2026.64, 0.600028
2027.44, 0.600028
2028.23, 0.600115
2029.02, 0.600289
2029.82, 0.600332
2030.61, 0.600332
2031.41, 0.600289
2032.2, 0.600332
2033.0, 0.600420
2033.8, 0.600550
2034.6, 0.600506
2035.4, 0.600593
2036.2, 0.600680
2037.0, 0.600724
2037.8, 0.600724
2038.6, 0.600767
2039.4, 0.600811
2040.2, 0.600941
2041.01, 0.600985
2041.81, 0.600854
2042.61, 0.600854
2043.42, 0.600767
2044.22, 0.600593
2045.03, 0.600593
2045.84, 0.600332
2046.65, 0.600246
2047.46, 0.600376
2048.26, 0.600289
2049.07, 0.599985
2049.88, 0.599767
2050.69, 0.599419
2051.51, 0.598984
2052.32, 0.598506
2053.13, 0.597984
2053.94, 0.597375
2054.76, 0.596984
2055.57, 0.596332
2056.39, 0.595680
2057.2, 0.595027
2058.02, 0.594505
2058.84, 0.593766
2059.66, 0.593027
2060.48, 0.592287
2061.29, 0.591592
2062.11, 0.590939
2062.94, 0.590461
2063.76, 0.589983
2064.58, 0.589591
2065.4, 0.589157
2066.22, 0.588765
2067.05, 0.588461
2067.87, 0.587939
2068.7, 0.587504
2069.52, 0.586765
2070.35, 0.585721
2071.18, 0.584721
2072.0, 0.583416
2072.83, 0.581807
2073.66, 0.580068
2074.49, 0.578024
2075.32, 0.575502
2076.15, 0.572632
2076.98, 0.569414
2077.82, 0.565978
2078.65, 0.561934
2079.48, 0.557411
2080.32, 0.552715
2081.15, 0.547714
2081.99, 0.542930
2082.83, 0.537919
2083.66, 0.533867
2084.5, 0.531035
2085.34, 0.529204
2086.18, 0.528507
2087.02, 0.528464
2087.86, 0.529422
2088.7, 0.531819
2089.54, 0.534913
2090.39, 0.539009
2091.23, 0.543453
2092.07, 0.548420
2092.92, 0.553344
2093.76, 0.558443
2094.61, 0.562887
2095.45, 0.567767
2096.3, 0.572386
2097.15, 0.576308
2098.0, 0.579097
2098.85, 0.581450
2099.7, 0.583236
2100.55, 0.584761
2101.4, 0.586330
2102.25, 0.587288
2103.1, 0.588465
2103.96, 0.589336
2104.81, 0.589685
2105.67, 0.589903
2106.52, 0.590121
2107.38, 0.590469
2108.24, 0.590731
2109.09, 0.590731
2109.95, 0.590644
2110.81, 0.590469
2111.67, 0.590382
2112.53, 0.590469
2113.39, 0.590469
2114.25, 0.590339
2115.12, 0.590034
2115.98, 0.589554
2116.84, 0.588726
2117.71, 0.588160
2118.58, 0.587986
2119.44, 0.587986
2120.31, 0.587245
2121.18, 0.586983
2122.04, 0.586678
2122.91, 0.585981
2123.78, 0.584805
2124.65, 0.584064
2125.52, 0.583323
2126.4, 0.581929
2127.27, 0.581537
2128.14, 0.581101
2129.02, 0.580186
2129.89, 0.579707
2130.77, 0.579358
2131.64, 0.578399
2132.52, 0.577136
2133.4, 0.576613
2134.27, 0.576046
2135.15, 0.575262
2136.03, 0.574521
2136.91, 0.573955
2137.79, 0.572822
2138.68, 0.572430
2139.56, 0.572125
2140.44, 0.571602
2141.33, 0.570905
2142.21, 0.570643
2143.1, 0.569815
2143.99, 0.568465
2144.87, 0.566373
2145.76, 0.564194
2146.65, 0.562016
2147.54, 0.559837
2148.43, 0.557440
2149.32, 0.554652
2150.21, 0.551514
2151.1, 0.548551
2151.99, 0.544847
2152.89, 0.540447
2153.78, 0.535653
2154.68, 0.530468
2155.57, 0.525370
2156.47, 0.520620
2157.37, 0.515958
2158.27, 0.510381
2159.16, 0.502929
2160.06, 0.492733
2160.96, 0.480271
2161.86, 0.466545
2162.77, 0.452950
2163.67, 0.441316
2164.57, 0.431773
2165.48, 0.425019
2166.38, 0.420488
2167.29, 0.417917
2168.2, 0.418658
2169.1, 0.423059
2170.01, 0.431338
2170.92, 0.442231
2171.83, 0.453952
2172.74, 0.465935
2173.65, 0.477352
2174.56, 0.488027
2175.47, 0.497265
2176.39, 0.505500
2177.3, 0.513823
2178.22, 0.521405
2179.13, 0.527984
2180.05, 0.534215
2180.96, 0.539662
2181.88, 0.544194
2182.8, 0.547985
2183.72, 0.551209
2184.64, 0.553998
2185.56, 0.556830
2186.48, 0.559358
2187.41, 0.560883
2188.33, 0.562277
2189.25, 0.564325
2190.18, 0.566068
2191.1, 0.566896
2192.03, 0.567637
2192.96, 0.568421
2193.89, 0.569249
2194.82, 0.569772
2195.74, 0.569859
2196.68, 0.569946
2197.61, 0.569859
2198.54, 0.569510
2199.47, 0.569423
2200.4, 0.569859
2201.34, 0.569946
2202.28, 0.570120
2203.21, 0.570556
2204.15, 0.570774
2205.08, 0.571123
2206.02, 0.571210
2206.96, 0.571645
2207.9, 0.571645
2208.84, 0.571123
2209.78, 0.570425
2210.73, 0.570120
2211.67, 0.569772
2212.61, 0.568944
2213.56, 0.568465
2214.5, 0.567724
2215.45, 0.567027
2216.4, 0.566504
2217.35, 0.565894
2218.3, 0.564848
2219.24, 0.564020
2220.2, 0.563933
2221.15, 0.563759
2222.1, 0.563889
2223.05, 0.564979
2224.0, 0.566199
2224.96, 0.567942
2225.91, 0.569597
2226.87, 0.570861
2227.83, 0.571515
2228.79, 0.571863
2229.74, 0.571950
2230.7, 0.572517
2231.66, 0.573214
2232.63, 0.573432
2233.59, 0.572865
2234.55, 0.572865
2235.51, 0.572778
2236.48, 0.572386
2237.44, 0.572212
2238.41, 0.571994
2239.38, 0.571863
2240.34, 0.571558
2241.31, 0.571384
2242.28, 0.570992
2243.25, 0.570687
2244.22, 0.570382
2245.19, 0.569902
2246.17, 0.569380
2247.14, 0.568857
2248.12, 0.568595
2249.09, 0.568290
2250.07, 0.567811
2251.04, 0.567332
2252.02, 0.566765
2253.0, 0.566373
2253.98, 0.565981
2254.96, 0.565545
2255.94, 0.564979
2256.92, 0.564064
2257.91, 0.563453
2258.89, 0.563236
2259.88, 0.562931
2260.86, 0.562408
2261.85, 0.561623
2262.83, 0.560883
2263.82, 0.560185
2264.81, 0.559140
2265.8, 0.558530
2266.79, 0.558268
2267.78, 0.557702
2268.78, 0.556787
2269.77, 0.556438
2270.76, 0.555784
2271.76, 0.555087
2272.75, 0.554477
2273.75, 0.553737
2274.75, 0.552778
2275.75, 0.551863
2276.75, 0.550861
2277.75, 0.549902
2278.75, 0.548856
2279.75, 0.547505
2280.75, 0.545806
2281.76, 0.544630
2282.76, 0.543453
2283.77, 0.541972
2284.77, 0.540795
2285.78, 0.539662
2286.79, 0.538529
2287.8, 0.537658
2288.81, 0.536830
2289.82, 0.536045
2290.83, 0.535261
2291.84, 0.535087
2292.86, 0.534695
2293.87, 0.534259
2294.89, 0.533780
2295.91, 0.532908
2296.92, 0.531862
2297.94, 0.531340
2298.96, 0.530642
2299.98, 0.529727
2301.0, 0.528420
2302.02, 0.527549
2303.04, 0.526503
2304.07, 0.525501
2305.09, 0.524586
2306.12, 0.523322
2307.15, 0.522146
2308.17, 0.520838
2309.2, 0.519400
2310.23, 0.518006
2311.26, 0.516219
2312.29, 0.514346
2313.32, 0.512341
2314.35, 0.509814
2315.39, 0.507505
2316.42, 0.505195
2317.46, 0.503365
2318.5, 0.502058
2319.53, 0.501230
2320.57, 0.501361
2321.61, 0.501753
2322.65, 0.502407
2323.69, 0.504062
2324.73, 0.506241
2325.78, 0.508725
2326.82, 0.511818
2327.86, 0.514738
2328.91, 0.517222
2329.96, 0.519531
2331.01, 0.521928
2332.05, 0.524063
2333.1, 0.525544
2334.15, 0.526808
2335.21, 0.527679
2336.26, 0.528551
2337.31, 0.528899
2338.36, 0.528812
2339.42, 0.527984
2340.48, 0.527549
2341.53, 0.526851
2342.59, 0.525239
2343.65, 0.523583
2344.71, 0.521753
2345.77, 0.520098
2346.83, 0.519139
2347.9, 0.518442
2348.96, 0.518660
2350.02, 0.519052
2351.09, 0.519662
2352.16, 0.520185
2353.23, 0.520446
2354.29, 0.520882
2355.36, 0.521230
2356.43, 0.521535
2357.51, 0.521623
2358.58, 0.521971
2359.65, 0.522320
2360.73, 0.522363
2361.8, 0.522668
2362.88, 0.523148
2363.96, 0.523583
2365.03, 0.523976
2366.11, 0.524673
2367.19, 0.525414
2368.27, 0.526154
2369.36, 0.527026
2370.44, 0.527723
2371.53, 0.528246
2372.61, 0.528420
2373.7, 0.528507
2374.78, 0.527984
2375.87, 0.526939
2376.96, 0.525719
2378.05, 0.523888
2379.14, 0.521405
2380.24, 0.519008
2381.33, 0.517091
2382.42, 0.515479
2383.52, 0.513692
2384.61, 0.511731
2385.71, 0.510250
2386.81, 0.509117
2387.91, 0.507505
2389.01, 0.506110
2390.11, 0.504977
2391.22, 0.504411
2392.32, 0.504193
2393.42, 0.504237
2394.53, 0.504585
2395.64, 0.505370
2396.74, 0.506197
2397.85, 0.506633
2398.96, 0.506415
2400.07, 0.506372
2401.18, 0.506502
2402.3, 0.506502
2403.41, 0.506067
2404.52, 0.505980
2405.64, 0.506023
2406.76, 0.506241
2407.88, 0.506328
2408.99, 0.506677
2410.11, 0.507025
2411.23, 0.507069
2412.36, 0.507418
2413.48, 0.507592
2414.6, 0.507418
2415.73, 0.507243
2416.85, 0.506982
2417.98, 0.506677
2419.11, 0.505980
2420.24, 0.504977
2421.37, 0.503714
2422.5, 0.502407
2423.64, 0.501012
2424.77, 0.499879
2425.9, 0.499400
2427.04, 0.499269
2428.18, 0.498616
2429.31, 0.498006
2430.45, 0.497962
2431.59, 0.498136
2432.73, 0.498136
2433.88, 0.498703
2435.02, 0.499226
2436.16, 0.499836
2437.31, 0.500751
2438.45, 0.501840
2439.6, 0.502755
2440.75, 0.503409
2441.9, 0.503670
2443.05, 0.503322
2444.2, 0.502842
2445.35, 0.502581
2446.51, 0.502407
2447.67, 0.502232
2448.82, 0.502319
2449.98, 0.502494
2451.14, 0.502537
2452.3, 0.502232
2453.46, 0.501317
2454.62, 0.499792
2455.78, 0.498528
2456.94, 0.498180
2458.11, 0.498398
2459.28, 0.498921
2460.44, 0.499531
2461.61, 0.500010
2462.78, 0.499618
2463.95, 0.498964
2465.12, 0.498136
2466.3, 0.497396
2467.47, 0.496742
2468.65, 0.496001
2469.82, 0.495435
2471.0, 0.495130
2472.18, 0.494999
2473.36, 0.494520
2474.54, 0.493779
2475.72, 0.492559
2476.9, 0.490685
2478.08, 0.488506
2479.27, 0.486023
2480.46, 0.483452
2481.64, 0.481230
2482.83, 0.479705
2484.02, 0.478833
2485.21, 0.478179
2486.4, 0.477569
2487.6, 0.476654
2488.79, 0.475609
2489.99, 0.474389
2491.18, 0.472994
2492.38, 0.471600
2493.58, 0.470510
2494.78, 0.470075
2495.98, 0.469900
2497.18, 0.469552
2498.39, 0.468550
2499.59, 0.467199
2500.8, 0.465587
2502.01, 0.464279
2503.21, 0.463190
2504.42, 0.461970
2505.63, 0.460968
2506.84, 0.459791
2508.06, 0.458746
2509.27, 0.458136
2510.49, 0.457874
2511.7, 0.457830
2512.92, 0.458397
2514.14, 0.459312
2515.36, 0.460227
2516.58, 0.461273
2517.8, 0.462188
2519.03, 0.463234
2520.25, 0.464541
2521.48, 0.465717
2522.7, 0.467199
2523.93, 0.468898
2525.16, 0.470118
2526.39, 0.471077
2527.62, 0.471992
2528.86, 0.472471
2530.09, 0.472907
2531.33, 0.473473
2532.56, 0.474127
2533.8, 0.474563
2535.04, 0.473953
2536.28, 0.473430
2537.52, 0.473081
2538.76, 0.472471
2540.01, 0.471861
2541.25, 0.470859
2542.5, 0.469552
2543.75, 0.467809
2544.99, 0.465020
2546.24, 0.461839
2547.49, 0.459094
2548.75, 0.457787
2550.0, 0.457438
2551.26, 0.458702
2552.51, 0.461273
2553.77, 0.464715
2555.03, 0.467155
2556.29, 0.468506
2557.55, 0.468680
2558.81, 0.468201
2560.08, 0.467852
2561.34, 0.468332
2562.61, 0.469073
2563.88, 0.469465
2565.14, 0.469857
2566.41, 0.469552
2567.68, 0.467852
2568.96, 0.465761
2570.23, 0.464672
2571.51, 0.464018
2572.78, 0.464236
2574.06, 0.467547
2575.34, 0.470293
2576.62, 0.472341
2577.9, 0.474127
2579.18, 0.474476
2580.47, 0.473299
2581.75, 0.471600
2583.04, 0.468157
2584.32, 0.465587
2585.61, 0.462319
2586.9, 0.458179
2588.2, 0.454824
2589.49, 0.452340
2590.78, 0.449900
2592.08, 0.446022
2593.37, 0.439835
2594.67, 0.434431
2595.97, 0.431904
2597.27, 0.428985
2598.57, 0.426762
2599.88, 0.426239
2601.18, 0.426893
2602.49, 0.427721
2603.79, 0.426849
2605.1, 0.425281
2606.41, 0.424540
2607.72, 0.423625
2609.03, 0.423451
2610.35, 0.425106
2611.66, 0.428070
2612.98, 0.432383
2614.3, 0.437351
2615.62, 0.440837
2616.94, 0.445194
2618.26, 0.449421
2619.58, 0.451687
2620.91, 0.455434
2622.23, 0.458266
2623.56, 0.459791
2624.89, 0.460358
2626.22, 0.460706
2627.55, 0.462231
2628.88, 0.461970
2630.21, 0.461926
2631.55, 0.463582
2632.89, 0.463669
2634.22, 0.464149
2635.56, 0.464715
2636.9, 0.464672
2638.25, 0.464410
2639.59, 0.464018
2640.93, 0.463800
2642.28, 0.463800
2643.63, 0.463887
2644.98, 0.463669
2646.33, 0.464236
2647.68, 0.464889
2649.03, 0.464715
2650.39, 0.463974
2651.74, 0.462580
2653.1, 0.461709
2654.46, 0.460183
2655.82, 0.458702
2657.18, 0.457177
2658.54, 0.454693
2659.9, 0.452689
2661.27, 0.450815
2662.64, 0.448201
2664.01, 0.444279
2665.38, 0.440793
2666.74, 0.438266
2668.12, 0.435695
2669.49, 0.430597
2670.87, 0.428244
2672.24, 0.426414
2673.62, 0.422971
2675.0, 0.418788
2676.38, 0.414736
2677.76, 0.411206
2679.15, 0.407503
2680.54, 0.404148
2681.92, 0.399398
2683.31, 0.394125
2684.7, 0.388156
2686.09, 0.381751
2687.48, 0.374692
2688.88, 0.366848
2690.27, 0.357698
2691.67, 0.347196
2693.07, 0.335170
2694.47, 0.323405
2695.87, 0.312076
2697.27, 0.300572
2698.67, 0.288633
2700.08, 0.274995
2701.49, 0.259657
2702.9, 0.243752
2704.31, 0.226628
2705.72, 0.208414
2707.13, 0.188849
2708.54, 0.167367
2709.96, 0.144622
2711.38, 0.121266
2712.8, 0.0987820
2714.22, 0.0779100
2715.64, 0.0614830
2717.06, 0.0533340
2718.49, 0.0529860
2719.91, 0.0534220
2721.34, 0.0518530
2722.77, 0.0522890
2724.2, 0.0577350
2725.63, 0.0673650
2727.07, 0.0803940
2728.5, 0.0961240
2729.94, 0.111985
2731.38, 0.125667
2732.82, 0.137824
2734.26, 0.150504
2735.7, 0.162923
2737.15, 0.170679
2738.59, 0.174078
2740.04, 0.172727
2741.49, 0.165493
2742.94, 0.157171
2744.39, 0.160177
2745.84, 0.174862
2747.3, 0.190113
2748.76, 0.199786
2750.21, 0.204971
2751.67, 0.209503
2753.14, 0.215429
2754.6, 0.223447
2756.06, 0.234819
2757.53, 0.245713
2759.0, 0.255909
2760.46, 0.265844
2761.94, 0.276738
2763.41, 0.288720
2764.88, 0.298742
2766.36, 0.306150
2767.83, 0.313470
2769.31, 0.320399
2770.79, 0.326717
2772.27, 0.333035
2773.76, 0.338743
2775.24, 0.342403
2776.73, 0.343144
2778.22, 0.342360
2779.71, 0.343013
2781.2, 0.345279
2782.69, 0.347371
2784.18, 0.349288
2785.68, 0.351118
2787.18, 0.353253
2788.68, 0.357218
2790.18, 0.360399
2791.68, 0.362404
2793.19, 0.364103
2794.69, 0.365803
2796.2, 0.367371
2797.71, 0.368591
2799.22, 0.368896
2800.73, 0.368417
2802.24, 0.367589
2803.76, 0.367589
2805.28, 0.367807
2806.8, 0.368025
2808.32, 0.368025
2809.84, 0.368548
2811.36, 0.369986
2812.89, 0.371903
2814.42, 0.372949
2815.94, 0.374082
2817.48, 0.375607
2819.01, 0.376957
2820.54, 0.377829
2822.08, 0.378657
2823.61, 0.378918
2825.15, 0.379093
2826.69, 0.379223
2828.23, 0.379267
2829.78, 0.379049
2831.32, 0.378352
2832.87, 0.377175
2834.42, 0.375999
2835.97, 0.374604
2837.52, 0.373384
2839.08, 0.372077
2840.63, 0.370596
2842.19, 0.368983
2843.75, 0.367328
2845.31, 0.365890
2846.87, 0.364844
2848.44, 0.364234
2850.0, 0.363972
2851.57, 0.363624
2853.14, 0.362883
2854.71, 0.361794
2856.28, 0.360661
2857.86, 0.359702
2859.43, 0.359484
2861.01, 0.359528
2862.59, 0.359354
2864.17, 0.358482
2865.76, 0.357306
2867.34, 0.355955
2868.93, 0.355040
2870.52, 0.354560
2872.11, 0.355083
2873.7, 0.356521
2875.29, 0.358482
2876.89, 0.360966
2878.49, 0.363755
2880.08, 0.365977
2881.69, 0.367458
2883.29, 0.368068
2884.89, 0.367633
2886.5, 0.366456
2888.11, 0.365105
2889.72, 0.364452
2891.33, 0.364670
2892.94, 0.365672
2894.56, 0.366935
2896.17, 0.367807
2897.79, 0.368461
2899.42, 0.369463
2901.04, 0.370116
2902.66, 0.369986
2904.29, 0.370247
2905.92, 0.370857
2907.55, 0.371641
2909.18, 0.372208
2910.81, 0.372426
2912.45, 0.371903
2914.08, 0.370770
2915.72, 0.369201
2917.36, 0.367371
2919.01, 0.365890
2920.65, 0.365105
2922.3, 0.365062
2923.94, 0.366064
2925.59, 0.367720
2927.25, 0.369550
2928.9, 0.371293
2930.56, 0.372818
2932.21, 0.374038
2933.87, 0.374779
2935.53, 0.375389
2937.2, 0.375694
2938.86, 0.376130
2940.53, 0.376435
2942.2, 0.376609
2943.87, 0.376478
2945.54, 0.376260
2947.22, 0.375824
2948.89, 0.375127
2950.57, 0.374256
2952.25, 0.373384
2953.93, 0.372295
2955.62, 0.371336
2957.3, 0.370334
2958.99, 0.369288
2960.68, 0.368461
2962.37, 0.367720
2964.07, 0.366935
2965.76, 0.366238
2967.46, 0.365541
2969.16, 0.364713
2970.86, 0.363624
2972.56, 0.362709
2974.27, 0.362404
2975.98, 0.362447
2977.69, 0.362883
2979.4, 0.363537
2981.11, 0.364408
2982.83, 0.365280
2984.54, 0.366151
2986.26, 0.366805
2987.98, 0.367458
2989.71, 0.368112
2991.43, 0.368853
2993.16, 0.369637
2994.89, 0.370247
2996.62, 0.370857
2998.35, 0.371380
3000.09, 0.371685
3001.83, 0.371946
3003.57, 0.371990
3005.31, 0.372295
3007.05, 0.372731
3008.79, 0.373297
3010.54, 0.374256
3012.29, 0.375171
3014.04, 0.376260
3015.8, 0.377524
3017.55, 0.378700
3019.31, 0.379790
3021.07, 0.380705
3022.83, 0.381533
3024.59, 0.381925
3026.36, 0.382143
3028.13, 0.382361
3029.9, 0.382709
3031.67, 0.382927
3033.44, 0.383276
3035.22, 0.383798
3037.0, 0.384452
3038.78, 0.384975
3040.56, 0.385367
3042.34, 0.385672
3044.13, 0.385934
3045.92, 0.386064
3047.71, 0.386457
3049.5, 0.386674
3051.3, 0.386805
3053.09, 0.386849
3054.89, 0.387154
3056.69, 0.387328
3058.5, 0.387241
3060.3, 0.387110
3062.11, 0.387197
3063.92, 0.387284
3065.73, 0.387589
3067.55, 0.387938
3069.36, 0.388243
3071.18, 0.388853
3073.0, 0.389332
3074.82, 0.389725
3076.65, 0.390160
3078.48, 0.390683
3080.31, 0.391293
3082.14, 0.391903
3083.97, 0.392426
3085.8, 0.392949
3087.64, 0.393428
3089.48, 0.393864
3091.33, 0.394213
3093.17, 0.394518
3095.02, 0.394910
3096.87, 0.395215
3098.72, 0.395651
3100.57, 0.395956
3102.43, 0.396261
3104.28, 0.396696
3106.14, 0.397089
3108.01, 0.397611
3109.87, 0.398265
3111.74, 0.399006
3113.61, 0.399616
3115.48, 0.400052
3117.35, 0.400574
3119.23, 0.401097
3121.1, 0.401533
3122.98, 0.402012
3124.87, 0.402405
3126.75, 0.402666
3128.64, 0.403102
3130.53, 0.403450
3132.42, 0.403755
3134.31, 0.404017
3136.21, 0.404235
3138.11, 0.404583
3140.01, 0.404888
3141.91, 0.405106
3143.82, 0.405280
3145.73, 0.405542
3147.64, 0.405760
3149.55, 0.405847
3151.46, 0.405934
3153.38, 0.405934
3155.3, 0.405978
3157.22, 0.406108
3159.14, 0.406239
3161.07, 0.406457
3163.0, 0.406631
3164.93, 0.406805
3166.86, 0.407067
3168.8, 0.407416
3170.74, 0.407808
3172.68, 0.408287
3174.62, 0.408679
3176.56, 0.409028
3178.51, 0.409420
3180.46, 0.409856
3182.42, 0.410335
3184.37, 0.410945
3186.33, 0.411555
3188.29, 0.411947
3190.25, 0.412209
3192.21, 0.412514
3194.18, 0.412993
3196.15, 0.413429
3198.12, 0.413647
3200.09, 0.413952
3202.07, 0.414257
3204.05, 0.414692
3206.03, 0.415128
3208.02, 0.415477
3210.0, 0.415782
3211.99, 0.416174
3213.98, 0.416392
3215.98, 0.416740
3217.97, 0.417132
3219.97, 0.417394
3221.97, 0.417786
3223.98, 0.418135
3225.98, 0.418353
3227.99, 0.418614
3230.0, 0.418919
3232.02, 0.419180
3234.03, 0.419529
3236.05, 0.419878
3238.07, 0.420096
3240.1, 0.420357
3242.12, 0.420793
3244.15, 0.421185
3246.18, 0.421708
3248.22, 0.422231
3250.25, 0.422841
3252.29, 0.423320
3254.33, 0.423799
3256.38, 0.424235
3258.43, 0.424714
3260.47, 0.425150
3262.53, 0.425542
3264.58, 0.425891
3266.64, 0.426370
3268.7, 0.426762
3270.76, 0.427155
3272.82, 0.427503
3274.89, 0.427808
3276.96, 0.428113
3279.04, 0.428462
3281.11, 0.428592
3283.19, 0.428767
3285.27, 0.429072
3287.35, 0.429507
3289.44, 0.430030
3291.53, 0.430423
3293.62, 0.430728
3295.71, 0.431163
3297.81, 0.431643
3299.91, 0.432078
3302.01, 0.432470
3304.11, 0.433037
3306.22, 0.433603
3308.33, 0.434126
3310.44, 0.434475
3312.56, 0.434780
3314.68, 0.435172
3316.8, 0.435390
3318.92, 0.435695
3321.05, 0.436044
3323.18, 0.436174
3325.31, 0.436392
3327.44, 0.436479
3329.58, 0.436610
3331.72, 0.436871
3333.86, 0.436959
3336.01, 0.437133
3338.16, 0.437220
3340.31, 0.437351
3342.46, 0.437438
3344.61, 0.437481
3346.77, 0.437699
3348.94, 0.437961
3351.1, 0.438309
3353.27, 0.438614
3355.44, 0.438614
3357.61, 0.438571
3359.79, 0.438484
3361.97, 0.438266
3364.15, 0.437830
3366.33, 0.437394
3368.52, 0.436871
3370.71, 0.436261
3372.9, 0.435782
3375.1, 0.435608
3377.3, 0.435608
3379.5, 0.435651
3381.71, 0.436087
3383.91, 0.436741
3386.12, 0.437394
3388.34, 0.437830
3390.55, 0.438135
3392.77, 0.438484
3394.99, 0.438484
3397.22, 0.438004
3399.45, 0.437307
3401.68, 0.436479
3403.91, 0.435346
3406.15, 0.434213
3408.39, 0.433168
3410.63, 0.432078
3412.87, 0.431250
3415.12, 0.430684
3417.37, 0.430553
3419.63, 0.430902
3421.88, 0.431860
3424.14, 0.433298
3426.41, 0.435346
3428.67, 0.437830
3430.94, 0.440357
3433.21, 0.442623
3435.49, 0.444279
3437.77, 0.445891
3440.05, 0.447111
3442.33, 0.448114
3444.62, 0.449203
3446.91, 0.450292
3449.2, 0.451251
3451.5, 0.452122
3453.8, 0.452950
3456.1, 0.453778
3458.41, 0.454650
3460.72, 0.455303
3463.03, 0.455826
3465.34, 0.456218
3467.66, 0.456480
3469.98, 0.456654
3472.31, 0.456654
3474.63, 0.456610
3476.96, 0.456698
3479.3, 0.456741
3481.64, 0.456872
3483.97, 0.457046
3486.32, 0.457090
3488.66, 0.456959
3491.01, 0.456654
3493.36, 0.456131
3495.72, 0.455347
3498.08, 0.454519
3500.44, 0.453865
3502.81, 0.453691
3505.18, 0.454388
3507.55, 0.456088
3509.92, 0.458397
3512.3, 0.460793
3514.68, 0.462711
3517.06, 0.464323
3519.45, 0.465630
3521.84, 0.466807
3524.24, 0.467896
3526.64, 0.468680
3529.04, 0.469290
3531.44, 0.469857
3533.85, 0.470467
3536.26, 0.470990
3538.67, 0.471382
3541.09, 0.471905
3543.51, 0.472297
3545.93, 0.472602
3548.36, 0.472951
3550.79, 0.473343
3553.22, 0.473648
3555.66, 0.473909
3558.1, 0.474258
3560.54, 0.474563
3562.99, 0.474737
3565.44, 0.474911
3567.9, 0.475216
3570.35, 0.475521
3572.81, 0.475739
3575.28, 0.476001
3577.75, 0.476219
3580.22, 0.476393
3582.69, 0.476611
3585.17, 0.476872
3587.65, 0.477090
3590.14, 0.477439
3592.62, 0.477874
3595.11, 0.478179
3597.61, 0.478484
3600.11, 0.478833
3602.61, 0.479138
3605.11, 0.479443
3607.62, 0.479705
3610.14, 0.479966
3612.65, 0.480053
3615.17, 0.480184
3617.69, 0.480315
3620.22, 0.480358
3622.75, 0.480358
3625.28, 0.480315
3627.82, 0.480184
3630.36, 0.479922
3632.9, 0.479617
3635.45, 0.479356
3638.0, 0.479051
3640.56, 0.478528
3643.12, 0.478005
3645.68, 0.477177
3648.24, 0.476219
3650.81, 0.475173
3653.39, 0.474040
3655.96, 0.472994
3658.54, 0.472123
3661.13, 0.471426
3663.71, 0.470772
3666.3, 0.469988
3668.9, 0.468898
3671.5, 0.467809
3674.1, 0.467286
3676.7, 0.467635
3679.31, 0.468768
3681.93, 0.470205
3684.54, 0.470598
3687.17, 0.468593
3689.79, 0.467112
3692.42, 0.470728
3695.05, 0.476088
3697.69, 0.479400
3700.32, 0.481317
3702.97, 0.482537
3705.61, 0.483496
3708.27, 0.484411
3710.92, 0.485064
3713.58, 0.485543
3716.24, 0.485892
3718.91, 0.486241
3721.58, 0.486589
3724.25, 0.486981
3726.93, 0.487417
3729.61, 0.487896
3732.29, 0.488201
3734.98, 0.488506
3737.67, 0.488724
3740.37, 0.489029
3743.07, 0.489378
3745.78, 0.489552
3748.49, 0.489727
3751.2, 0.489944
3753.91, 0.490162
3756.63, 0.490337
3759.36, 0.490467
3762.09, 0.490685
3764.82, 0.490859
3767.55, 0.490990
3770.29, 0.491034
3773.04, 0.491077
3775.78, 0.491208
3778.54, 0.491339
3781.29, 0.491469
3784.05, 0.491600
3786.82, 0.491687
3789.59, 0.491775
3792.36, 0.491862
3795.13, 0.492080
3797.92, 0.492254
3800.7, 0.492341
3803.49, 0.492385
3806.28, 0.492515
3809.08, 0.492690
3811.88, 0.492907
3814.68, 0.492907
3817.49, 0.492951
3820.31, 0.493169
3823.12, 0.493343
3825.94, 0.493474
3828.77, 0.493605
3831.6, 0.493735
3834.43, 0.493866
3837.27, 0.493910
3840.11, 0.493953
3842.96, 0.494084
3845.81, 0.494302
3848.67, 0.494345
3851.53, 0.494302
3854.39, 0.494345
3857.26, 0.494258
3860.13, 0.494302
3863.01, 0.494433
3865.89, 0.494476
3868.77, 0.494476
3871.66, 0.494520
3874.55, 0.494563
3877.45, 0.494607
3880.35, 0.494563
3883.26, 0.494607
3886.17, 0.494650
3889.09, 0.494650
3892.01, 0.494694
3894.93, 0.494738
3897.86, 0.494607
3900.79, 0.494650
3903.73, 0.494738
3906.67, 0.494738
3909.62, 0.494694
3912.57, 0.494563
3915.52, 0.494520
3918.48, 0.494607
3921.45, 0.494650
3924.42, 0.494607
3927.39, 0.494520
3930.37, 0.494476
3933.35, 0.494520
3936.34, 0.494433
3939.33, 0.494345
3942.32, 0.494302
3945.32, 0.494476
3948.33, 0.494476
3951.34, 0.494389
3954.35, 0.494389
3957.37, 0.494433
3960.39, 0.494345
3963.42, 0.494345
3966.45, 0.494302
3969.49, 0.494302
3972.53, 0.494215
3975.58, 0.494171
3978.63, 0.494215
3981.68, 0.494128
3984.75, 0.494128
3987.81, 0.494171
3990.88, 0.494171
3993.95, 0.494128
3997.03, 0.494128
4000.12, 0.494084
4003.21, 0.494040
4006.3, 0.493823
4009.4, 0.493735
4012.5, 0.493735
4015.61, 0.493561
4018.72, 0.493343
4021.84, 0.493212
4024.96, 0.493169
4028.09, 0.493038
4031.22, 0.492951
4034.36, 0.492864
4037.5, 0.492777
4040.65, 0.492690
4043.8, 0.492733
4046.96, 0.492602
4050.12, 0.492559
4053.29, 0.492515
4056.46, 0.492472
4059.64, 0.492385
4062.82, 0.492385
4066.0, 0.492254
4069.19, 0.492167
4072.39, 0.492210
4075.59, 0.492167
4078.8, 0.492123
4082.01, 0.492036
4085.23, 0.491905
4088.45, 0.491731
4091.68, 0.491513
4094.91, 0.491339
4098.15, 0.491252
4101.39, 0.491208
4104.63, 0.491077
4107.89, 0.490947
4111.14, 0.490772
4114.41, 0.490685
4117.67, 0.490511
4120.95, 0.490337
4124.23, 0.490249
4127.51, 0.490075
4130.8, 0.489857
4134.09, 0.489814
4137.39, 0.489639
4140.7, 0.489422
4144.01, 0.489247
4147.32, 0.489117
4150.64, 0.488942
4153.97, 0.488724
4157.3, 0.488506
4160.64, 0.488376
4163.98, 0.488201
4167.33, 0.488071
4170.68, 0.487809
4174.04, 0.487679
4177.4, 0.487461
4180.77, 0.487286
4184.14, 0.487069
4187.52, 0.486938
4190.91, 0.486589
4194.3, 0.486284
4197.69, 0.485718
4201.1, 0.484890
4204.5, 0.483844
4207.92, 0.482537
4211.34, 0.481055
4214.76, 0.479443
4218.19, 0.477787
4221.62, 0.476175
4225.06, 0.474737
4228.51, 0.473561
4231.96, 0.472471
4235.42, 0.471643
4238.88, 0.471208
4242.35, 0.471121
4245.83, 0.471382
4249.31, 0.472079
4252.79, 0.473081
4256.28, 0.472951
4259.78, 0.470423
4263.29, 0.467025
4266.79, 0.464323
4270.31, 0.462362
4273.83, 0.460750
4277.35, 0.459181
4280.89, 0.457569
4284.42, 0.456131
4287.97, 0.454737
4291.52, 0.453473
4295.07, 0.452253
4298.63, 0.451164
4302.2, 0.450205
4305.78, 0.449508
4309.35, 0.448985
4312.94, 0.448854
4316.53, 0.448941
4320.13, 0.449334
4323.73, 0.449856
4327.34, 0.450728
4330.96, 0.451861
4334.58, 0.453212
4338.21, 0.454606
4341.84, 0.455957
4345.48, 0.457438
4349.12, 0.459007
4352.77, 0.460358
4356.43, 0.461796
4360.1, 0.463234
4363.76, 0.464584
4367.44, 0.465848
4371.12, 0.467025
4374.81, 0.467940
4378.51, 0.468724
4382.21, 0.469290
4385.92, 0.469770
4389.63, 0.470031
4393.35, 0.470336
4397.08, 0.470598
4400.81, 0.470946
4404.55, 0.471164
4408.29, 0.471382
4412.04, 0.471556
4415.8, 0.471556
4419.57, 0.471469
4423.34, 0.471338
4427.12, 0.471033
4430.9, 0.470641
4434.69, 0.469944
4438.49, 0.469160
4442.29, 0.468245
4446.1, 0.467199
4449.92, 0.465935
4453.74, 0.464541
4457.57, 0.463059
4461.41, 0.461621
4465.25, 0.460401
4469.1, 0.459312
4472.95, 0.458528
4476.82, 0.458048
4480.69, 0.457613
4484.56, 0.457177
4488.44, 0.456654
4492.33, 0.456000
4496.23, 0.455216
4500.13, 0.454345
4504.04, 0.453604
4507.96, 0.452950
4511.88, 0.452297
4515.81, 0.451687
4519.75, 0.451164
4523.69, 0.450859
4527.65, 0.450510
4531.6, 0.450074
4535.57, 0.449726
4539.54, 0.449377
4543.52, 0.448985
4547.5, 0.448506
4551.5, 0.448026
4555.5, 0.447416
4559.5, 0.446806
4563.52, 0.446109
4567.54, 0.445499
4571.56, 0.445151
4575.6, 0.445151
4579.64, 0.445456
4583.69, 0.445935
4587.75, 0.446588
4591.81, 0.447155
4595.88, 0.447373
4599.96, 0.447242
4604.04, 0.447155
4608.14, 0.446850
4612.24, 0.446240
4616.34, 0.445586
4620.46, 0.444889
4624.58, 0.444192
4628.71, 0.443538
4632.84, 0.442754
4636.99, 0.441970
4641.14, 0.441098
4645.3, 0.440227
4649.47, 0.439268
4653.64, 0.438266
4657.82, 0.437046
4662.01, 0.435739
4666.21, 0.434475
4670.41, 0.433211
4674.62, 0.431904
4678.84, 0.430858
4683.07, 0.429856
4687.3, 0.428941
4691.54, 0.428200
4695.79, 0.427372
4700.05, 0.426457
4704.31, 0.425499
4708.59, 0.424540
4712.87, 0.423669
4717.15, 0.422841
4721.45, 0.422187
4725.76, 0.421621
4730.07, 0.421011
4734.39, 0.420444
4738.72, 0.419878
4743.05, 0.419224
4747.39, 0.418527
4751.75, 0.417612
4756.1, 0.416435
4760.47, 0.415172
4764.85, 0.413821
4769.23, 0.412383
4773.62, 0.411076
4778.02, 0.410030
4782.43, 0.409551
4786.85, 0.409376
4791.27, 0.409158
4795.7, 0.408810
4800.14, 0.408243
4804.59, 0.407416
4809.05, 0.406588
4813.51, 0.405760
4817.99, 0.405063
4822.47, 0.404453
4826.96, 0.403886
4831.46, 0.403320
4835.96, 0.402666
4840.48, 0.401751
4845.0, 0.400662
4849.54, 0.399224
4854.08, 0.397437
4858.63, 0.395215
4863.18, 0.392600
4867.75, 0.389681
4872.33, 0.386587
4876.91, 0.383319
4881.5, 0.379877
4886.1, 0.376478
4890.71, 0.372905
4895.33, 0.369245
4899.96, 0.365672
4904.59, 0.362055
4909.24, 0.358569
4913.89, 0.355083
4918.55, 0.351641
4923.22, 0.348242
4927.9, 0.344626
4932.59, 0.340878
4937.29, 0.337131
4942.0, 0.333122
4946.71, 0.328765
4951.44, 0.324015
4956.17, 0.318786
4960.91, 0.313209
4965.67, 0.307370
4970.43, 0.301575
4975.2, 0.296171
4979.98, 0.291422
4984.76, 0.287326
4989.56, 0.283796
4994.37, 0.280921
4999.18, 0.278568
5004.01, 0.276694
5008.84, 0.275169
5013.69, 0.273731
5018.54, 0.272511
5023.4, 0.271291
5028.28, 0.269591
5033.16, 0.267543
5038.05, 0.265452
5042.95, 0.263622
5047.86, 0.262576
5052.78, 0.262140
5057.71, 0.262140
5062.65, 0.262358
5067.6, 0.262620
5072.56, 0.262837
5077.53, 0.263186
5082.5, 0.263404
5087.49, 0.263491
5092.49, 0.263665
5097.5, 0.263883
5102.51, 0.264145
5107.54, 0.264450
5112.58, 0.264973
5117.62, 0.265496
5122.68, 0.266193
5127.75, 0.266846
5132.82, 0.267282
5137.91, 0.267195
5143.01, 0.266323
5148.12, 0.264711
5153.23, 0.262358
5158.36, 0.259264
5163.5, 0.255691
5168.65, 0.252162
5173.81, 0.248894
5178.98, 0.246062
5184.15, 0.243578
5189.34, 0.241356
5194.54, 0.239177
5199.75, 0.236911
5204.98, 0.234732
5210.21, 0.232423
5215.45, 0.230026
5220.7, 0.227761
5225.96, 0.225190
5231.23, 0.222357
5236.52, 0.219133
5241.81, 0.215429
5247.12, 0.211028
5252.44, 0.205974
5257.76, 0.200265
5263.1, 0.194034
5268.45, 0.187542
5273.81, 0.181267
5279.18, 0.175298
5284.56, 0.170112
5289.95, 0.165886
5295.36, 0.163010
5300.77, 0.161398
5306.2, 0.160962
5311.63, 0.161485
5317.08, 0.162792
5322.54, 0.164666
5328.01, 0.167019
5333.49, 0.169851
5338.98, 0.173119
5344.49, 0.176561
5350.0, 0.180439
5355.53, 0.185102
5361.07, 0.189895
5366.62, 0.194470
5372.18, 0.198871
5377.75, 0.202923
5383.34, 0.206671
5388.93, 0.209939
5394.54, 0.212728
5400.16, 0.214906
5405.79, 0.216649
5411.44, 0.218044
5417.09, 0.219002
5422.76, 0.219917
5428.43, 0.221007
5434.12, 0.221660
5439.83, 0.222096
5445.54, 0.222488
5451.26, 0.222924
5457.0, 0.223055
5462.75, 0.223142
5468.52, 0.223708
5474.29, 0.224362
5480.08, 0.225059
5485.88, 0.225974
5491.69, 0.226671
5497.51, 0.227194
5503.35, 0.227412
5509.2, 0.227499
5515.06, 0.227281
5520.93, 0.226758
5526.82, 0.226235
5532.71, 0.225843
5538.63, 0.225320
5544.55, 0.224754
5550.49, 0.224231
5556.44, 0.224013
5562.4, 0.224013
5568.37, 0.223970
5574.36, 0.223534
5580.36, 0.223665
5586.37, 0.224362
5592.4, 0.224841
5598.44, 0.225059
5604.49, 0.225364
5610.56, 0.225582
5616.63, 0.225756
5622.73, 0.225887
5628.83, 0.225800
5634.95, 0.225233
5641.08, 0.224623
5647.23, 0.224667
5653.39, 0.224580
5659.56, 0.224405
5665.74, 0.224100
5671.94, 0.223316
5678.15, 0.222750
5684.38, 0.222227
5690.62, 0.221312
5696.87, 0.220484
5703.14, 0.219394
5709.42, 0.218174
5715.72, 0.217477
5722.03, 0.216954
5728.35, 0.216736
5734.69, 0.216475
5741.03, 0.216170
5747.4, 0.215865
5753.78, 0.216126
5760.17, 0.215516
5766.58, 0.215386
5773.0, 0.216649
5779.44, 0.217651
5785.88, 0.218654
5792.35, 0.220092
5798.83, 0.221965
5805.32, 0.224667
5811.83, 0.227281
5818.35, 0.229896
5824.89, 0.233687
5831.45, 0.237870
5838.01, 0.241573
5844.59, 0.244449
5851.19, 0.246584
5857.8, 0.248022
5864.43, 0.249068
5871.07, 0.249722
5877.73, 0.248894
5884.4, 0.249504
5891.09, 0.250070
5897.79, 0.250288
5904.5, 0.251552
5911.23, 0.252162
5917.98, 0.252641
5924.75, 0.253164
5931.53, 0.252990
5938.32, 0.253905
5945.13, 0.256345
5951.96, 0.258088
5958.8, 0.259264
5965.65, 0.259787
5972.53, 0.261095
5979.42, 0.262227
5986.32, 0.262532
5993.24, 0.263273
6000.18, 0.264145
6007.13, 0.263753
6014.1, 0.263055
6021.08, 0.262707
6028.09, 0.261792
6035.1, 0.259918
6042.14, 0.256476
6049.19, 0.252990
6056.25, 0.252031
6063.34, 0.249983
6070.44, 0.247020
6077.55, 0.245669
6084.69, 0.245277
6091.84, 0.244624
6099.0, 0.243926
6106.19, 0.242489
6113.39, 0.241225
6120.61, 0.241356
6127.84, 0.241225
6135.09, 0.240441
6142.36, 0.239743
6149.65, 0.239395
6156.95, 0.238959
6164.27, 0.239177
6171.61, 0.239482
6178.97, 0.238828
6186.34, 0.238741
6193.73, 0.239743
6201.14, 0.240266
6208.57, 0.240441
6216.01, 0.240658
6223.47, 0.240876
6230.95, 0.240833
6238.45, 0.240484
6245.97, 0.240136
6253.5, 0.239743
6261.06, 0.239220
6268.63, 0.238567
6276.21, 0.238000
6283.82, 0.237129
6291.45, 0.236040
6299.1, 0.234863
6306.76, 0.233469
6314.44, 0.231856
6322.14, 0.230244
6329.86, 0.228501
6337.6, 0.226279
6345.35, 0.224536
6353.13, 0.224100
6360.92, 0.223142
6368.74, 0.221878
6376.57, 0.221617
6384.43, 0.221704
6392.3, 0.221529
6400.19, 0.220876
6408.1, 0.218915
6416.03, 0.218087
6423.98, 0.218784
6431.95, 0.218610
6439.94, 0.218000
6447.95, 0.216998
6455.98, 0.215734
6464.03, 0.214383
6472.1, 0.212815
6480.19, 0.211333
6488.31, 0.209808
6496.44, 0.209590
6504.59, 0.210157
6512.76, 0.209721
6520.95, 0.208675
6529.16, 0.208283
6537.4, 0.207629
6545.65, 0.206671
6553.92, 0.205756
6562.22, 0.204884
6570.54, 0.203708
6578.88, 0.203403
6587.23, 0.203011
6595.61, 0.202706
6604.02, 0.202357
6612.44, 0.201616
6620.89, 0.200745
6629.35, 0.199307
6637.84, 0.198217
6646.35, 0.198610
6654.88, 0.198392
6663.44, 0.197085
6672.01, 0.195254
6680.61, 0.193555
6689.23, 0.192248
6697.88, 0.190636
6706.54, 0.188457
6715.23, 0.186670
6723.94, 0.185102
6732.67, 0.183490
6741.42, 0.181485
6750.2, 0.179350
6759.0, 0.177128
6767.82, 0.174731
6776.67, 0.172117
6785.54, 0.169415
6794.44, 0.167106
6803.35, 0.165581
6812.29, 0.163925
6821.26, 0.162182
6830.24, 0.160831
6839.25, 0.159916
6848.29, 0.158522
6857.35, 0.156692
6866.43, 0.155646
6875.54, 0.155341
6884.67, 0.154339
6893.82, 0.153206
6903.0, 0.151942
6912.2, 0.150940
6921.43, 0.149938
6930.69, 0.148892
6939.96, 0.147672
6949.27, 0.146452
6958.59, 0.145188
6967.95, 0.144665
6977.33, 0.144099
6986.73, 0.143314
6996.16, 0.142399
7005.61, 0.141397
7015.09, 0.140090
7024.6, 0.138783
7034.13, 0.137127
7043.69, 0.134992
7053.27, 0.133075
7062.88, 0.131288
7072.52, 0.129066
7082.18, 0.126974
7091.87, 0.125057
7101.58, 0.123358
7111.32, 0.121615
7121.09, 0.120090
7130.88, 0.118521
7140.71, 0.116778
7150.56, 0.114991
7160.43, 0.113248
7170.33, 0.111593
7180.27, 0.110373
7190.23, 0.108978
7200.21, 0.107366
7210.23, 0.105536
7220.27, 0.103749
7230.34, 0.101614
7240.44, 0.0995660
7250.56, 0.0974310
7260.72, 0.0952960
7270.9, 0.0930300
7281.12, 0.0912000
7291.36, 0.0895880
7301.63, 0.0881930
7311.93, 0.0868860
7322.25, 0.0855790
7332.61, 0.0839230
7343.0, 0.0821370
7353.41, 0.0802190
7363.86, 0.0781280
7374.33, 0.0759490
7384.83, 0.0740320
7395.37, 0.0721150
7405.93, 0.0701540
7416.53, 0.0681060
7427.15, 0.0662320
7437.81, 0.0644020
7448.5, 0.0626160
7459.22, 0.0607860
7469.96, 0.0591300
7480.74, 0.0573000
7491.55, 0.0554260
7502.39, 0.0533780
7513.27, 0.0512860
7524.17, 0.0493260
7535.11, 0.0476260
7546.08, 0.0461450
7557.08, 0.0447940
7568.11, 0.0434430
7579.17, 0.0422230
7590.27, 0.0410470
7601.4, 0.0400440
7612.56, 0.0389550
7623.76, 0.0381710
7634.98, 0.0374300
7646.24, 0.0368630
7657.54, 0.0363410
7668.87, 0.0360790
7680.23, 0.0357740
7691.62, 0.0355560
7703.05, 0.0352080
7714.51, 0.0351210
7726.01, 0.0351640
7737.54, 0.0354260
7749.11, 0.0356430
7760.71, 0.0359480
7772.35, 0.0363840
7784.02, 0.0370380
7795.72, 0.0377790
7807.46, 0.0385630
7819.23, 0.0393910
7831.04, 0.0403930
7842.89, 0.0414390
7854.77, 0.0427900
7866.69, 0.0442270
7878.65, 0.0458830
7890.64, 0.0477130
7902.67, 0.0497180
7914.74, 0.0518090
7926.84, 0.0542490
7938.98, 0.0568640
7951.16, 0.0596530
7963.37, 0.0624410
7975.62, 0.0655790
7987.91, 0.0687600
8000.24, 0.0719840
8012.6, 0.0752960
8025.01, 0.0784330
8037.45, 0.0816570
8049.93, 0.0850130
8062.45, 0.0884550
8075.01, 0.0921590
8087.61, 0.0958190
8100.24, 0.0995660
8112.91, 0.103488
8125.63, 0.107453
8138.39, 0.111331
8151.18, 0.115253
8164.02, 0.119218
8176.9, 0.123358
8189.81, 0.127541
8202.77, 0.131680
8215.77, 0.135645
8228.82, 0.139567
8241.9, 0.143532
8255.02, 0.147759
8268.19, 0.151942
8281.39, 0.155951
8294.65, 0.159785
8307.94, 0.163489
8321.28, 0.166888
8334.66, 0.169982
8348.08, 0.172945
8361.54, 0.175951
8375.05, 0.178784
8388.6, 0.181398
8402.2, 0.183664
8415.84, 0.185668
8429.52, 0.187411
8443.25, 0.188718
8457.02, 0.189503
8470.84, 0.189677
8484.7, 0.189416
8498.61, 0.188936
8512.57, 0.188501
8526.57, 0.188283
8540.62, 0.188544
8554.71, 0.189154
8568.85, 0.190069
8583.04, 0.191071
8597.27, 0.192161
8611.55, 0.193294
8625.88, 0.194296
8640.26, 0.195298
8654.68, 0.196126
8669.16, 0.196780
8683.68, 0.197433
8698.25, 0.198087
8712.87, 0.198740
8727.53, 0.199045
8742.25, 0.199089
8757.02, 0.198828
8771.83, 0.197956
8786.7, 0.196169
8801.62, 0.193511
8816.59, 0.189982
8831.61, 0.185363
8846.68, 0.179916
8861.8, 0.173773
8876.97, 0.166539
8892.2, 0.156648
8907.48, 0.142704
8922.81, 0.125406
8938.2, 0.110024
8953.63, 0.102616
8969.13, 0.102181
8984.67, 0.104708
9000.27, 0.111723
9015.92, 0.126974
9031.63, 0.147498
9047.39, 0.165363
9063.21, 0.177215
9079.08, 0.183795
9095.01, 0.186888
9111.0, 0.187542
9127.04, 0.186758
9143.13, 0.184927
9159.28, 0.182487
9175.49, 0.179437
9191.76, 0.175995
9208.09, 0.172030
9224.47, 0.167803
9240.92, 0.163446
9257.42, 0.158783
9273.98, 0.153772
9290.6, 0.148543
9307.28, 0.143184
9324.02, 0.137824
9340.82, 0.132552
9357.68, 0.127410
9374.6, 0.122486
9391.58, 0.118826
9408.62, 0.116124
9425.73, 0.113031
9442.9, 0.108847
9460.13, 0.104011
9477.42, 0.0990000
9494.78, 0.0944250
9512.2, 0.0899360
9529.69, 0.0858400
9547.24, 0.0820500
9564.86, 0.0785640
9582.54, 0.0753830
9600.28, 0.0729430
9618.1, 0.0712870
9635.97, 0.0702850
9653.92, 0.0695000
9671.93, 0.0689770
9690.01, 0.0686290
9708.16, 0.0685420
9726.37, 0.0688470
9744.65, 0.0695870
9763.0, 0.0701970
9781.43, 0.0706770
9799.92, 0.0710250
9818.48, 0.0715480
9837.1, 0.0717660
9855.8, 0.0721580
9874.58, 0.0727680
9893.42, 0.0735530
9912.34, 0.0742060
9931.33, 0.0748160
9950.39, 0.0751210
9969.52, 0.0754700
9988.74, 0.0756880
10008.0, 0.0759060
10027.4, 0.0759930
10046.8, 0.0760800
10066.3, 0.0759060
10085.9, 0.0756880
10105.6, 0.0752520
10125.3, 0.0746420
10145.1, 0.0738140
10165.0, 0.0727680
10185.0, 0.0714180
10205.0, 0.0698920
10225.2, 0.0679750
10245.4, 0.0661450
10265.7, 0.0640540
10286.0, 0.0619620
10306.5, 0.0599580
10327.0, 0.0589550
10347.6, 0.0591730
10368.3, 0.0615260
10389.1, 0.0650990
10409.9, 0.0691080
10430.9, 0.0726810
10451.9, 0.0747730
10473.0, 0.0750340
10494.2, 0.0733350
10515.5, 0.0703720
10536.9, 0.0677140
10558.4, 0.0663190
10579.9, 0.0662760
10601.5, 0.0673220
10623.3, 0.0694570
10645.1, 0.0717660
10667.0, 0.0741630
10689.0, 0.0766030
10711.1, 0.0789120
10733.2, 0.0813960
10755.5, 0.0838360
10777.9, 0.0859710
10800.3, 0.0882370
10822.9, 0.0902410
10845.5, 0.0921150
10868.2, 0.0939020
10891.1, 0.0956450
10914.0, 0.0971260
10937.0, 0.0985200
10960.2, 0.0994790
10983.4, 0.100046
11006.7, 0.100089
11030.1, 0.100002
11053.6, 0.100786
11077.3, 0.102704
11101.0, 0.104752
11124.8, 0.106451
11148.7, 0.107584
11172.7, 0.108542
11196.9, 0.109153
11221.1, 0.109196
11245.4, 0.109022
11269.9, 0.108499
11294.4, 0.107845
11319.1, 0.107366
11343.9, 0.106712
11368.8, 0.105884
11393.7, 0.104664
11418.8, 0.102921
11444.0, 0.100656
11469.4, 0.0980850
11494.8, 0.0946860
11520.3, 0.0908510
11546.0, 0.0865380
11571.8, 0.0815270
11597.7, 0.0757750
11623.7, 0.0699360
11649.8, 0.0641410
11676.0, 0.0595650
11702.4, 0.0572120
11728.9, 0.0579970
11755.5, 0.0614390
11782.2, 0.0653170
11809.0, 0.0669290
11836.0, 0.0651430
11863.0, 0.0599580
11890.3, 0.0528120
11917.6, 0.0470600
11945.0, 0.0457960
11972.6, 0.0488030
12000.4, 0.0546420
12028.2, 0.0621800
12056.2, 0.0699800
12084.3, 0.0762980
12112.5, 0.0804810
12140.9, 0.0817880
12169.4, 0.0799140
12198.0, 0.0748600
12226.8, 0.0677140
12255.7, 0.0614830
12284.7, 0.0595650
12313.9, 0.0632260
12343.2, 0.0710690
12372.7, 0.0802190
12402.3, 0.0889780
12432.0, 0.0962980
12461.9, 0.102355
12491.9, 0.107148
12522.1, 0.110721
12552.4, 0.113553
12582.9, 0.115601
12613.5, 0.116865
12644.3, 0.117911
12675.2, 0.118216
12706.3, 0.118042
12737.5, 0.117432
12768.9, 0.116386
12800.4, 0.114774
12832.1, 0.112900
12863.9, 0.110765
12895.9, 0.108194
12928.1, 0.105841
12960.4, 0.103749
12992.9, 0.101701
13025.5, 0.0999580
13058.3, 0.0981280
13091.3, 0.0964290
13124.4, 0.0949040
13157.8, 0.0936840
13191.2, 0.0922890
13224.9, 0.0904590
13258.7, 0.0883240
13292.7, 0.0859710
13326.9, 0.0834880
13361.2, 0.0808300
13395.7, 0.0775180
13430.4, 0.0744240
13465.3, 0.0712430
13500.4, 0.0681500
13535.7, 0.0659270
13571.1, 0.0651860
13606.7, 0.0657970
13642.5, 0.0670170
13678.5, 0.0685420
13714.7, 0.0695870
13751.1, 0.0698490
13787.6, 0.0695000
13824.4, 0.0682800
13861.4, 0.0667990
13898.5, 0.0652740
13935.9, 0.0637920
13973.5, 0.0616570
14011.2, 0.0592170
14049.2, 0.0565590
14087.4, 0.0540320
14125.8, 0.0518960
14164.3, 0.0499790
14203.2, 0.0478010
14242.2, 0.0461880
14281.4, 0.0445760
14320.9, 0.0428770
14360.5, 0.0414820
14400.4, 0.0403930
14440.5, 0.0389550
14480.9, 0.0375610
14521.4, 0.0359920
14562.2, 0.0346850
14603.3, 0.0332030
14644.5, 0.0318520
14686.0, 0.0307200
14727.7, 0.0299350
14769.7, 0.0292820
14811.9, 0.0286720
14854.3, 0.0284970
14897.0, 0.0284100
14939.9, 0.0281920
14983.1, 0.0280180
15026.5, 0.0284540
15070.2, 0.0288890
15114.2, 0.0291940
15158.3, 0.0303270
15202.8, 0.0312420
15247.5, 0.0322010
15292.5, 0.0330290
15337.7, 0.0344670
15383.2, 0.0362530
15429.0, 0.0378220
15475.1, 0.0392600
15521.4, 0.0410030
15568.0, 0.0432690
15614.9, 0.0458830
15662.1, 0.0480180
15709.6, 0.0500660
15757.3, 0.0524190
15805.4, 0.0548590
15853.7, 0.0567770
15902.3, 0.0576920
15951.2, 0.0577350
16000.5, 0.0583450
16050.0, 0.0606550
16099.8, 0.0653170
16150.0, 0.0709820
16200.5, 0.0763410
16251.3, 0.0813520
16302.4, 0.0861460
16353.8, 0.0899360
16405.5, 0.0933350
16457.6, 0.0964290
16510.0, 0.0991740
16562.8, 0.100961
16615.9, 0.102660
16669.3, 0.103531
16723.1, 0.103619
16777.2, 0.103531
16831.7, 0.103052
16886.5, 0.101135
16941.7, 0.0982590
16997.2, 0.0950780
17053.1, 0.0910690
17109.4, 0.0866250
17166.1, 0.0823550
17223.1, 0.0800020
17280.5, 0.0806550
17338.3, 0.0842280
17396.5, 0.0902850
17455.1, 0.0971700
17514.0, 0.104185
17573.4, 0.110460
17633.2, 0.115645
17693.4, 0.119349
17754.0, 0.123009
17815.0, 0.126277
17876.4, 0.128412
17938.3, 0.129327
18000.5, 0.129109
18063.3, 0.128543
18126.4, 0.127759
18190.0, 0.126190
18254.1, 0.123968
18318.6, 0.120917
18383.5, 0.117649
18449.0, 0.113379
18514.9, 0.109414
18581.2, 0.105536
18648.0, 0.101919
18715.4, 0.100046
18783.2, 0.0998280
18851.5, 0.0993920
18920.3, 0.0983900
18989.6, 0.0981280
19059.4, 0.0978230
19129.7, 0.0952090
19200.6, 0.0915050
19272.0, 0.0866250
19343.9, 0.0809600
19416.3, 0.0744680
19489.3, 0.0673220
19562.8, 0.0609160
19637.0, 0.0560800
19711.6, 0.0539440
19786.8, 0.0588680
19862.6, 0.0709820
19939.0, 0.0836620
20016.0, 0.0924200
20093.6, 0.0970830
20171.8, 0.0990870
20250.6, 0.100002
20330.0, 0.100176
20410.0, 0.0997840
20490.7, 0.0993050
20572.0, 0.0987820
20654.0, 0.0977360
20736.6, 0.0955570
20819.9, 0.0920720
20903.8, 0.0899360
20988.5, 0.0887600
21073.8, 0.0890210
21159.8, 0.0884980
21246.5, 0.0875830
21334.0, 0.0865380
21422.1, 0.0862330
21511.0, 0.0861890
21600.7, 0.0866250
21691.0, 0.0869730
21782.1, 0.0862760
21874.0, 0.0840540
21966.7, 0.0835750
22060.2, 0.0842720
22154.5, 0.0852740
22249.6, 0.0863200
22345.5, 0.0865380
22442.2, 0.0856230
22539.8, 0.0860150
22638.2, 0.0869730
22737.5, 0.0875400
22837.7, 0.0880630
22938.7, 0.0888470
23040.7, 0.0867120
23143.5, 0.0847510
23247.3, 0.0831820
23352.1, 0.0807420
23457.7, 0.0743370
23564.4, 0.0661450
23672.0, 0.0637920
23780.5, 0.0697320
23890.1, 0.0768170
24000.7, 0.0845470
24112.3, 0.0962230
24225.0, 0.108221
24338.7, 0.116112
24453.5, 0.122473
24569.4, 0.124406
24686.4, 0.124244
24804.5, 0.126419
24923.8, 0.123842
25044.2, 0.120863
25165.8, 0.122554
25288.6, 0.123037
25412.5, 0.125211
25537.7, 0.131089
25664.1, 0.138014
25791.8, 0.143892
25920.8, 0.150655
26051.1, 0.158386
26182.6, 0.164183
26315.5, 0.170625
26449.8, 0.176744
26585.4, 0.179160
26722.5, 0.179563
26860.9, 0.184072
27000.8, 0.186246
27142.1, 0.181495
27285.0, 0.170303
27429.4, 0.146790
27575.3, 0.110314
27722.7, 0.0821320
27871.8, 0.0868830
28022.4, 0.115065
28174.7, 0.146871
28328.7, 0.168370
28484.4, 0.178355
28641.7, 0.180207
28800.9, 0.176905
28961.8, 0.166921
29124.5, 0.154843
29289.0, 0.137208
29455.4, 0.115629
29623.8, 0.0953370
29794.0, 0.0814070
29966.3, 0.0828560
30140.5, 0.0976720
30316.7, 0.114179
30495.1, 0.126258
30675.5, 0.136806
30858.1, 0.146710
31042.8, 0.158386
31229.8, 0.168451
31419.1, 0.176905
31610.7, 0.184877
31804.6, 0.192849
32000.9, 0.205168
32199.7, 0.216844
32400.9, 0.227956
32604.8, 0.236813
32811.1, 0.242128
33020.1, 0.247281
33231.8, 0.256702
33446.2, 0.260728
33663.4, 0.261936
33883.4, 0.259601
34106.3, 0.253159
34332.1, 0.249616
34561.0, 0.254045
34792.9, 0.262741
35028.0, 0.269827
35266.3, 0.271357
35507.8, 0.273129
35752.7, 0.273209
36001.0, 0.269827
36252.8, 0.265479
36508.1, 0.259118
36767.0, 0.256139
37029.7, 0.254448
37296.1, 0.250260
37566.3, 0.240839
37840.5, 0.232546
38118.8, 0.220226
38401.2, 0.201706
38687.8, 0.178355
38978.6, 0.150494
39273.9, 0.131975
39573.7, 0.152185
39878.1, 0.212496
40187.3, 0.286253
40501.2, 0.353086
40820.0, 0.399628
41144.0, 0.429098
41473.2, 0.445686
41807.6, 0.452691
42147.5, 0.460582
42493.0, 0.467588
42844.2, 0.471533
43201.2, 0.474110
43564.3, 0.472499
43933.5, 0.464045
44309.0, 0.465172
44691.0, 0.463642
45079.6, 0.455912
45475.0, 0.444559
45877.5, 0.424670
46287.1, 0.391656
46704.2, 0.354858
47128.7, 0.328608
47561.1, 0.302277
48001.5, 0.253320
48450.1, 0.191158
48907.2, 0.150736
49373.0, 0.150575
49847.7, 0.180851
50331.5, 0.215556
50825.0, 0.241484
51328.2, 0.255414
51841.5, 0.268297
52365.1, 0.269827
52899.4, 0.248650
53444.8, 0.224655
54001.5, 0.229325
54570.1, 0.268217
55150.6, 0.301472
55743.6, 0.311215
56349.5, 0.311779
56968.7, 0.310893
57601.7, 0.291407
58248.9, 0.260245
58910.9, 0.233754
59588.1, 0.204283
60281.0, 0.167645
60990.2, 0.141798
61716.3, 0.146629
62459.8, 0.163136
63221.6, 0.185441
64002.1, 0.210885
64802.1, 0.275464
65622.1, 0.294547
66463.4, 0.259359
67326.6, 0.273290
68212.4, 0.284563
69121.9, 0.286978
70056.0, 0.288750
71015.7, 0.287944
72002.0, 0.280536
73016.3, 0.283113
74059.4, 0.284079
75132.7, 0.278201
76237.6, 0.269344
77375.5, 0.264271
78547.9, 0.257668
79756.3, 0.262500
81002.5, 0.253481
82288.5, 0.244463
83615.7, 0.243255
84986.5, 0.240195
86402.9, 0.234317
87867.4, 0.233109
89382.4, 0.219662
90950.5, 0.205491
92574.6, 0.196714
94257.2, 0.194540
96002.7, 0.194459
97814.1, 0.207262
99695.1, 0.193976
101650.0, 0.183750
103683.0, 0.168209
105799.0, 0.154279
108003.0, 0.148884
110301.0, 0.150253
112699.0, 0.135115
115204.0, 0.125372
117822.0, 0.119655
120562.0, 0.121587
123433.0, 0.116998
126443.0, 0.124325
129604.0, 0.117239
132926.0, 0.116031
136424.0, 0.118769
140111.0, 0.180529
144003.0, 0.120057
148118.0, 0.0368790
152474.0, 0.0464610
157095.0, 0.0776230
162004.0, 0.0938880
167231.0, 0.105886
172805.0, 0.0793940
178764.0, 0.0558010
185148.0, 0.0405020
207366.0, 0.269827
216006.0, 0.326353
