Database of Origin, USGS Spectral Database
Sample Description, See USGS database for additional info
Date Added,2017-07-03 06:06:53.261906

Data ID,USGS_oli31          
Sample ID, olivine_ki3377.17090
Mineral Name, olivine
Material Class,Nesosilicate

Wavelength
1280.99, 0.164326
1281.3, 0.164302
1281.62, 0.164367
1281.94, 0.164428
1282.25, 0.164329
1282.57, 0.164412
1282.89, 0.164490
1283.21, 0.164541
1283.52, 0.164562
1283.84, 0.164567
1284.16, 0.164606
1284.48, 0.164572
1284.8, 0.164430
1285.11, 0.164512
1285.43, 0.164688
1285.75, 0.164719
1286.07, 0.164694
1286.39, 0.164592
1286.71, 0.164477
1287.03, 0.164629
1287.35, 0.164759
1287.67, 0.164787
1287.99, 0.164777
1288.31, 0.164694
1288.63, 0.164717
1288.95, 0.164845
1289.27, 0.164886
1289.59, 0.164893
1289.91, 0.164919
1290.23, 0.164880
1290.55, 0.164845
1290.88, 0.164953
1291.2, 0.165039
1291.52, 0.164931
1291.84, 0.164741
1292.16, 0.164809
1292.48, 0.165062
1292.81, 0.165157
1293.13, 0.165114
1293.45, 0.164985
1293.77, 0.165030
1294.1, 0.165218
1294.42, 0.165217
1294.74, 0.165168
1295.07, 0.165276
1295.39, 0.165364
1295.71, 0.165353
1296.04, 0.165300
1296.36, 0.165305
1296.69, 0.165296
1297.01, 0.164915
1297.34, 0.164767
1297.66, 0.165073
1297.98, 0.165121
1298.31, 0.165356
1298.64, 0.165571
1298.96, 0.165610
1299.29, 0.165664
1299.61, 0.165716
1299.94, 0.165767
1300.26, 0.165763
1300.59, 0.165697
1300.92, 0.165721
1301.24, 0.165800
1301.57, 0.165752
1301.9, 0.165766
1302.22, 0.165805
1302.55, 0.165627
1302.88, 0.165568
1303.21, 0.165875
1303.53, 0.165940
1303.86, 0.165956
1304.19, 0.166073
1304.52, 0.166084
1304.85, 0.166058
1305.17, 0.166160
1305.5, 0.166255
1305.83, 0.166303
1306.16, 0.166312
1306.49, 0.166272
1306.82, 0.166301
1307.15, 0.166405
1307.48, 0.166467
1307.81, 0.166432
1308.14, 0.166294
1308.47, 0.166278
1308.8, 0.166455
1309.13, 0.166623
1309.46, 0.166676
1309.79, 0.166584
1310.12, 0.166383
1310.45, 0.166569
1310.79, 0.166849
1311.12, 0.166856
1311.45, 0.166906
1311.78, 0.166970
1312.11, 0.167001
1312.44, 0.167045
1312.78, 0.167051
1313.11, 0.166906
1313.44, 0.166895
1313.77, 0.167128
1314.11, 0.167257
1314.44, 0.167286
1314.77, 0.167232
1315.11, 0.167028
1315.44, 0.167048
1315.78, 0.167339
1316.11, 0.167471
1316.44, 0.167489
1316.78, 0.167454
1317.11, 0.167499
1317.45, 0.167657
1317.78, 0.167758
1318.12, 0.167761
1318.45, 0.167765
1318.79, 0.167819
1319.12, 0.167865
1319.46, 0.167894
1319.8, 0.167947
1320.13, 0.168008
1320.47, 0.168058
1320.8, 0.168109
1321.14, 0.168179
1321.48, 0.168226
1321.81, 0.168242
1322.15, 0.168258
1322.49, 0.168327
1322.83, 0.168335
1323.16, 0.168408
1323.5, 0.168520
1323.84, 0.168595
1324.18, 0.168669
1324.52, 0.168685
1324.85, 0.168697
1325.19, 0.168742
1325.53, 0.168769
1325.87, 0.168758
1326.21, 0.168707
1326.55, 0.168810
1326.89, 0.168957
1327.23, 0.169030
1327.57, 0.169038
1327.91, 0.169079
1328.25, 0.169194
1328.59, 0.169258
1328.93, 0.169274
1329.27, 0.169289
1329.61, 0.169300
1329.95, 0.169370
1330.29, 0.169499
1330.64, 0.169559
1330.98, 0.169580
1331.32, 0.169643
1331.66, 0.169701
1332.0, 0.169660
1332.34, 0.169509
1332.69, 0.169595
1333.03, 0.169797
1333.37, 0.169692
1333.72, 0.169793
1334.06, 0.170052
1334.4, 0.170125
1334.75, 0.170061
1335.09, 0.169802
1335.43, 0.169894
1335.78, 0.170284
1336.12, 0.170420
1336.47, 0.170465
1336.81, 0.170533
1337.16, 0.170579
1337.5, 0.170590
1337.85, 0.170579
1338.19, 0.170616
1338.54, 0.170710
1338.88, 0.170834
1339.23, 0.170942
1339.58, 0.170904
1339.92, 0.171005
1340.27, 0.171161
1340.61, 0.171241
1340.96, 0.171286
1341.31, 0.171291
1341.66, 0.171332
1342.0, 0.171456
1342.35, 0.171559
1342.7, 0.171600
1343.05, 0.171615
1343.39, 0.171666
1343.74, 0.171747
1344.09, 0.171780
1344.44, 0.171815
1344.79, 0.171903
1345.14, 0.171960
1345.48, 0.171987
1345.83, 0.172010
1346.18, 0.172053
1346.53, 0.172021
1346.88, 0.171992
1347.23, 0.172128
1347.58, 0.172177
1347.93, 0.172170
1348.28, 0.172283
1348.64, 0.172345
1348.99, 0.172371
1349.34, 0.172453
1349.69, 0.172518
1350.04, 0.172517
1350.39, 0.172490
1350.74, 0.172533
1351.1, 0.172663
1351.45, 0.172712
1351.8, 0.172702
1352.15, 0.172748
1352.51, 0.172812
1352.86, 0.172841
1353.21, 0.172886
1353.56, 0.172961
1353.92, 0.173025
1354.27, 0.173039
1354.63, 0.173062
1354.98, 0.173104
1355.33, 0.173047
1355.69, 0.173056
1356.04, 0.173269
1356.4, 0.173367
1356.75, 0.173396
1357.11, 0.173451
1357.46, 0.173550
1357.82, 0.173638
1358.18, 0.173692
1358.53, 0.173735
1358.89, 0.173800
1359.24, 0.173837
1359.6, 0.173872
1359.96, 0.173897
1360.31, 0.173947
1360.67, 0.174077
1361.03, 0.174244
1361.39, 0.174334
1361.74, 0.174303
1362.1, 0.174302
1362.46, 0.174441
1362.82, 0.174596
1363.18, 0.174692
1363.53, 0.174763
1363.89, 0.174813
1364.25, 0.174859
1364.61, 0.174946
1364.97, 0.175089
1365.33, 0.175217
1365.69, 0.175329
1366.05, 0.175429
1366.41, 0.175515
1366.77, 0.175613
1367.13, 0.175701
1367.49, 0.175777
1367.85, 0.175894
1368.21, 0.175980
1368.57, 0.176057
1368.93, 0.176205
1369.3, 0.176272
1369.66, 0.176306
1370.02, 0.176378
1370.38, 0.176498
1370.74, 0.176584
1371.11, 0.176714
1371.47, 0.176920
1371.83, 0.177052
1372.19, 0.177153
1372.56, 0.177274
1372.92, 0.177415
1373.29, 0.177546
1373.65, 0.177651
1374.01, 0.177755
1374.38, 0.177883
1374.74, 0.178016
1375.11, 0.178123
1375.47, 0.178246
1375.84, 0.178405
1376.2, 0.178563
1376.57, 0.178678
1376.93, 0.178756
1377.3, 0.178858
1377.67, 0.178999
1378.03, 0.179145
1378.4, 0.179294
1378.76, 0.179470
1379.13, 0.179615
1379.5, 0.179736
1379.87, 0.179897
1380.23, 0.180044
1380.6, 0.180165
1380.97, 0.180354
1381.34, 0.180536
1381.7, 0.180675
1382.07, 0.180791
1382.44, 0.180900
1382.81, 0.181059
1383.18, 0.181287
1383.55, 0.181462
1383.92, 0.181581
1384.29, 0.181734
1384.66, 0.181908
1385.03, 0.182064
1385.4, 0.182257
1385.77, 0.182466
1386.14, 0.182641
1386.51, 0.182792
1386.88, 0.182975
1387.25, 0.183150
1387.62, 0.183292
1387.99, 0.183435
1388.36, 0.183628
1388.74, 0.183827
1389.11, 0.183998
1389.48, 0.184156
1389.85, 0.184349
1390.23, 0.184557
1390.6, 0.184727
1390.97, 0.184909
1391.35, 0.185118
1391.72, 0.185273
1392.09, 0.185395
1392.47, 0.185551
1392.84, 0.185755
1393.21, 0.185937
1393.59, 0.186128
1393.96, 0.186327
1394.34, 0.186497
1394.71, 0.186675
1395.09, 0.186889
1395.46, 0.187084
1395.84, 0.187277
1396.22, 0.187471
1396.59, 0.187645
1396.97, 0.187857
1397.35, 0.188105
1397.72, 0.188324
1398.1, 0.188523
1398.48, 0.188726
1398.85, 0.188929
1399.23, 0.189118
1399.61, 0.189308
1399.99, 0.189506
1400.37, 0.189693
1400.74, 0.189886
1401.12, 0.190102
1401.5, 0.190333
1401.88, 0.190570
1402.26, 0.190804
1402.64, 0.191011
1403.02, 0.191203
1403.4, 0.191395
1403.78, 0.191596
1404.16, 0.191814
1404.54, 0.192024
1404.92, 0.192239
1405.3, 0.192496
1405.68, 0.192758
1406.06, 0.192996
1406.44, 0.193185
1406.83, 0.193354
1407.21, 0.193562
1407.59, 0.193816
1407.97, 0.194074
1408.35, 0.194296
1408.74, 0.194505
1409.12, 0.194742
1409.5, 0.194983
1409.89, 0.195227
1410.27, 0.195485
1410.65, 0.195716
1411.04, 0.195931
1411.42, 0.196176
1411.81, 0.196423
1412.19, 0.196620
1412.58, 0.196832
1412.96, 0.197097
1413.35, 0.197352
1413.73, 0.197586
1414.12, 0.197837
1414.5, 0.198079
1414.89, 0.198338
1415.28, 0.198629
1415.66, 0.198887
1416.05, 0.199127
1416.44, 0.199406
1416.82, 0.199673
1417.21, 0.199919
1417.6, 0.200158
1417.98, 0.200414
1418.37, 0.200671
1418.76, 0.200908
1419.15, 0.201166
1419.54, 0.201455
1419.93, 0.201721
1420.32, 0.201985
1420.71, 0.202250
1421.09, 0.202491
1421.48, 0.202766
1421.88, 0.203045
1422.27, 0.203305
1422.66, 0.203560
1423.05, 0.203814
1423.44, 0.204076
1423.83, 0.204373
1424.22, 0.204644
1424.61, 0.204902
1425.0, 0.205186
1425.39, 0.205482
1425.78, 0.205759
1426.18, 0.206007
1426.57, 0.206275
1426.96, 0.206567
1427.36, 0.206846
1427.75, 0.207111
1428.14, 0.207393
1428.54, 0.207658
1428.93, 0.207937
1429.32, 0.208229
1429.72, 0.208517
1430.11, 0.208787
1430.51, 0.209066
1430.9, 0.209361
1431.3, 0.209672
1431.69, 0.209950
1432.09, 0.210233
1432.48, 0.210509
1432.88, 0.210769
1433.28, 0.211064
1433.67, 0.211381
1434.07, 0.211692
1434.46, 0.211985
1434.86, 0.212265
1435.26, 0.212561
1435.66, 0.212875
1436.05, 0.213191
1436.45, 0.213483
1436.85, 0.213780
1437.25, 0.214079
1437.65, 0.214380
1438.05, 0.214681
1438.44, 0.214977
1438.84, 0.215280
1439.24, 0.215567
1439.64, 0.215883
1440.04, 0.216224
1440.44, 0.216541
1440.84, 0.216833
1441.24, 0.217115
1441.65, 0.217420
1442.05, 0.217749
1442.45, 0.218042
1442.85, 0.218355
1443.25, 0.218726
1443.65, 0.219061
1444.05, 0.219357
1444.46, 0.219673
1444.86, 0.219989
1445.26, 0.220291
1445.67, 0.220597
1446.07, 0.220910
1446.47, 0.221233
1446.88, 0.221576
1447.28, 0.221920
1447.68, 0.222238
1448.09, 0.222536
1448.49, 0.222847
1448.9, 0.223201
1449.3, 0.223554
1449.71, 0.223866
1450.11, 0.224170
1450.52, 0.224502
1450.93, 0.224830
1451.33, 0.225163
1451.74, 0.225519
1452.14, 0.225852
1452.55, 0.226187
1452.96, 0.226521
1453.36, 0.226856
1453.77, 0.227201
1454.18, 0.227548
1454.59, 0.227887
1455.0, 0.228210
1455.41, 0.228551
1455.81, 0.228923
1456.22, 0.229285
1456.63, 0.229623
1457.04, 0.229960
1457.45, 0.230301
1457.86, 0.230644
1458.27, 0.230994
1458.68, 0.231314
1459.09, 0.231654
1459.5, 0.232035
1459.91, 0.232401
1460.32, 0.232739
1460.74, 0.233058
1461.15, 0.233400
1461.56, 0.233787
1461.97, 0.234177
1462.39, 0.234550
1462.8, 0.234904
1463.21, 0.235237
1463.62, 0.235616
1464.04, 0.235999
1464.45, 0.236350
1464.86, 0.236715
1465.28, 0.237072
1465.69, 0.237426
1466.11, 0.237796
1466.52, 0.238186
1466.94, 0.238573
1467.35, 0.238947
1467.77, 0.239310
1468.18, 0.239660
1468.6, 0.240029
1469.02, 0.240406
1469.43, 0.240792
1469.85, 0.241184
1470.27, 0.241560
1470.68, 0.241940
1471.1, 0.242327
1471.52, 0.242720
1471.94, 0.243098
1472.35, 0.243460
1472.77, 0.243843
1473.19, 0.244228
1473.61, 0.244601
1474.03, 0.244984
1474.45, 0.245384
1474.87, 0.245765
1475.29, 0.246144
1475.71, 0.246532
1476.13, 0.246928
1476.55, 0.247355
1476.97, 0.247757
1477.39, 0.248121
1477.81, 0.248501
1478.23, 0.248914
1478.65, 0.249322
1479.07, 0.249713
1479.5, 0.250119
1479.92, 0.250519
1480.34, 0.250929
1480.76, 0.251347
1481.19, 0.251762
1481.61, 0.252169
1482.03, 0.252573
1482.46, 0.252966
1482.88, 0.253385
1483.31, 0.253810
1483.73, 0.254214
1484.16, 0.254604
1484.58, 0.255003
1485.01, 0.255432
1485.43, 0.255843
1485.86, 0.256243
1486.28, 0.256667
1486.71, 0.257070
1487.14, 0.257474
1487.56, 0.257912
1487.99, 0.258335
1488.42, 0.258750
1488.84, 0.259178
1489.27, 0.259609
1489.7, 0.260047
1490.13, 0.260481
1490.56, 0.260904
1490.98, 0.261330
1491.41, 0.261747
1491.84, 0.262153
1492.27, 0.262583
1492.7, 0.263035
1493.13, 0.263481
1493.56, 0.263911
1493.99, 0.264330
1494.42, 0.264765
1494.85, 0.265225
1495.29, 0.265678
1495.72, 0.266127
1496.15, 0.266570
1496.58, 0.266996
1497.01, 0.267420
1497.44, 0.267879
1497.88, 0.268355
1498.31, 0.268826
1498.74, 0.269276
1499.18, 0.269721
1499.61, 0.270162
1500.04, 0.270616
1500.48, 0.271094
1500.91, 0.271555
1501.35, 0.271995
1501.78, 0.272429
1502.22, 0.272877
1502.65, 0.273334
1503.09, 0.273786
1503.53, 0.274249
1503.96, 0.274702
1504.4, 0.275177
1504.83, 0.275657
1505.27, 0.276100
1505.71, 0.276551
1506.15, 0.277035
1506.58, 0.277510
1507.02, 0.277973
1507.46, 0.278455
1507.9, 0.278937
1508.34, 0.279427
1508.78, 0.279916
1509.21, 0.280385
1509.66, 0.280853
1510.09, 0.281315
1510.53, 0.281790
1510.97, 0.282288
1511.42, 0.282781
1511.86, 0.283265
1512.3, 0.283751
1512.74, 0.284249
1513.18, 0.284735
1513.62, 0.285176
1514.06, 0.285645
1514.51, 0.286159
1514.95, 0.286660
1515.39, 0.287136
1515.83, 0.287632
1516.28, 0.288149
1516.72, 0.288670
1517.16, 0.289178
1517.61, 0.289661
1518.05, 0.290132
1518.5, 0.290628
1518.94, 0.291139
1519.39, 0.291643
1519.83, 0.292125
1520.28, 0.292620
1520.73, 0.293149
1521.17, 0.293680
1521.62, 0.294182
1522.07, 0.294688
1522.51, 0.295207
1522.96, 0.295719
1523.41, 0.296237
1523.85, 0.296758
1524.3, 0.297264
1524.75, 0.297791
1525.2, 0.298336
1525.65, 0.298853
1526.1, 0.299357
1526.55, 0.299877
1527.0, 0.300403
1527.45, 0.300934
1527.9, 0.301463
1528.35, 0.301995
1528.8, 0.302534
1529.25, 0.303063
1529.7, 0.303582
1530.15, 0.304124
1530.6, 0.304668
1531.05, 0.305213
1531.51, 0.305747
1531.96, 0.306257
1532.41, 0.306785
1532.87, 0.307355
1533.32, 0.307925
1533.77, 0.308453
1534.23, 0.308971
1534.68, 0.309517
1535.14, 0.310079
1535.59, 0.310639
1536.05, 0.311180
1536.5, 0.311729
1536.96, 0.312292
1537.41, 0.312848
1537.87, 0.313398
1538.32, 0.313930
1538.78, 0.314464
1539.24, 0.315023
1539.7, 0.315595
1540.15, 0.316141
1540.61, 0.316685
1541.07, 0.317256
1541.53, 0.317834
1541.98, 0.318384
1542.44, 0.318935
1542.9, 0.319494
1543.36, 0.320065
1543.82, 0.320654
1544.28, 0.321216
1544.74, 0.321784
1545.2, 0.322375
1545.66, 0.322959
1546.12, 0.323536
1546.59, 0.324118
1547.05, 0.324706
1547.51, 0.325271
1547.97, 0.325826
1548.43, 0.326409
1548.9, 0.326998
1549.36, 0.327586
1549.82, 0.328167
1550.29, 0.328751
1550.75, 0.329343
1551.21, 0.329925
1551.68, 0.330509
1552.14, 0.331105
1552.61, 0.331685
1553.07, 0.332268
1553.54, 0.332873
1554.0, 0.333464
1554.47, 0.334064
1554.93, 0.334681
1555.4, 0.335281
1555.87, 0.335885
1556.34, 0.336485
1556.8, 0.337066
1557.27, 0.337660
1557.74, 0.338274
1558.21, 0.338889
1558.68, 0.339494
1559.14, 0.340085
1559.61, 0.340703
1560.08, 0.341319
1560.55, 0.341912
1561.02, 0.342534
1561.49, 0.343170
1561.96, 0.343794
1562.43, 0.344434
1562.9, 0.345062
1563.38, 0.345654
1563.85, 0.346240
1564.32, 0.346847
1564.79, 0.347471
1565.26, 0.348090
1565.74, 0.348711
1566.21, 0.349336
1566.68, 0.349967
1567.16, 0.350602
1567.63, 0.351216
1568.1, 0.351851
1568.58, 0.352501
1569.05, 0.353143
1569.53, 0.353780
1570.0, 0.354425
1570.48, 0.355051
1570.96, 0.355665
1571.43, 0.356299
1571.91, 0.356948
1572.39, 0.357595
1572.86, 0.358229
1573.34, 0.358854
1573.82, 0.359499
1574.3, 0.360154
1574.77, 0.360805
1575.25, 0.361430
1575.73, 0.362053
1576.21, 0.362690
1576.69, 0.363337
1577.17, 0.363995
1577.65, 0.364632
1578.13, 0.365273
1578.61, 0.365942
1579.09, 0.366606
1579.57, 0.367254
1580.05, 0.367910
1580.54, 0.368581
1581.02, 0.369247
1581.5, 0.369904
1581.98, 0.370567
1582.47, 0.371217
1582.95, 0.371879
1583.43, 0.372571
1583.92, 0.373233
1584.4, 0.373894
1584.88, 0.374577
1585.37, 0.375249
1585.85, 0.375912
1586.34, 0.376566
1586.82, 0.377230
1587.31, 0.377914
1587.8, 0.378602
1588.28, 0.379275
1588.77, 0.379922
1589.26, 0.380601
1589.74, 0.381296
1590.23, 0.381972
1590.72, 0.382644
1591.21, 0.383320
1591.7, 0.384001
1592.19, 0.384677
1592.67, 0.385340
1593.16, 0.386010
1593.65, 0.386695
1594.14, 0.387361
1594.63, 0.388029
1595.12, 0.388720
1595.61, 0.389415
1596.11, 0.390114
1596.6, 0.390795
1597.09, 0.391473
1597.58, 0.392179
1598.08, 0.392885
1598.57, 0.393578
1599.06, 0.394272
1599.55, 0.394955
1600.05, 0.395642
1600.54, 0.396346
1601.04, 0.397053
1601.53, 0.397753
1602.03, 0.398462
1602.52, 0.399173
1603.02, 0.399865
1603.51, 0.400557
1604.01, 0.401266
1604.5, 0.401968
1605.0, 0.402652
1605.5, 0.403332
1606.0, 0.404019
1606.49, 0.404718
1606.99, 0.405416
1607.49, 0.406140
1607.99, 0.406891
1608.49, 0.407594
1608.99, 0.408280
1609.49, 0.408985
1609.99, 0.409698
1610.49, 0.410424
1610.99, 0.411133
1611.49, 0.411833
1611.99, 0.412545
1612.49, 0.413261
1612.99, 0.413973
1613.49, 0.414691
1614.0, 0.415416
1614.5, 0.416141
1615.0, 0.416852
1615.51, 0.417556
1616.01, 0.418265
1616.51, 0.418962
1617.02, 0.419676
1617.52, 0.420428
1618.03, 0.421166
1618.53, 0.421882
1619.04, 0.422579
1619.54, 0.423279
1620.05, 0.424006
1620.55, 0.424736
1621.06, 0.425459
1621.57, 0.426184
1622.08, 0.426910
1622.58, 0.427634
1623.09, 0.428366
1623.6, 0.429075
1624.11, 0.429794
1624.62, 0.430542
1625.13, 0.431267
1625.64, 0.431978
1626.15, 0.432714
1626.66, 0.433449
1627.17, 0.434178
1627.68, 0.434920
1628.19, 0.435660
1628.7, 0.436383
1629.21, 0.437110
1629.72, 0.437843
1630.24, 0.438570
1630.75, 0.439299
1631.26, 0.440035
1631.78, 0.440763
1632.29, 0.441487
1632.8, 0.442214
1633.32, 0.442949
1633.83, 0.443674
1634.35, 0.444412
1634.86, 0.445139
1635.38, 0.445837
1635.9, 0.446575
1636.41, 0.447342
1636.93, 0.448076
1637.45, 0.448835
1637.96, 0.449594
1638.48, 0.450316
1639.0, 0.451022
1639.52, 0.451775
1640.04, 0.452529
1640.56, 0.453251
1641.08, 0.453988
1641.59, 0.454734
1642.11, 0.455473
1642.63, 0.456203
1643.16, 0.456931
1643.68, 0.457678
1644.2, 0.458433
1644.72, 0.459180
1645.24, 0.459917
1645.76, 0.460643
1646.29, 0.461358
1646.81, 0.462073
1647.33, 0.462803
1647.86, 0.463533
1648.38, 0.464282
1648.9, 0.465048
1649.43, 0.465805
1649.95, 0.466533
1650.48, 0.467256
1651.0, 0.467997
1651.53, 0.468725
1652.06, 0.469456
1652.58, 0.470214
1653.11, 0.470951
1653.64, 0.471685
1654.17, 0.472411
1654.69, 0.473127
1655.22, 0.473874
1655.75, 0.474627
1656.28, 0.475359
1656.81, 0.476086
1657.34, 0.476817
1657.87, 0.477551
1658.4, 0.478292
1658.93, 0.479025
1659.46, 0.479724
1659.99, 0.480432
1660.52, 0.481188
1661.05, 0.481943
1661.59, 0.482672
1662.12, 0.483406
1662.65, 0.484162
1663.19, 0.484897
1663.72, 0.485614
1664.26, 0.486341
1664.79, 0.487078
1665.32, 0.487807
1665.86, 0.488545
1666.39, 0.489288
1666.93, 0.490010
1667.47, 0.490725
1668.0, 0.491470
1668.54, 0.492208
1669.08, 0.492923
1669.61, 0.493638
1670.15, 0.494373
1670.69, 0.495124
1671.23, 0.495866
1671.77, 0.496588
1672.31, 0.497311
1672.85, 0.498034
1673.39, 0.498740
1673.93, 0.499449
1674.47, 0.500180
1675.01, 0.500918
1675.55, 0.501641
1676.09, 0.502349
1676.64, 0.503059
1677.18, 0.503798
1677.72, 0.504538
1678.26, 0.505275
1678.81, 0.506017
1679.35, 0.506737
1679.89, 0.507444
1680.44, 0.508160
1680.98, 0.508888
1681.53, 0.509618
1682.07, 0.510346
1682.62, 0.511076
1683.17, 0.511793
1683.71, 0.512512
1684.26, 0.513237
1684.81, 0.513974
1685.36, 0.514703
1685.9, 0.515425
1686.45, 0.516152
1687.0, 0.516884
1687.55, 0.517612
1688.1, 0.518312
1688.65, 0.519005
1689.2, 0.519711
1689.75, 0.520433
1690.3, 0.521146
1690.85, 0.521849
1691.41, 0.522537
1691.96, 0.523230
1692.51, 0.523942
1693.06, 0.524685
1693.61, 0.525417
1694.17, 0.526130
1694.72, 0.526841
1695.28, 0.527511
1695.83, 0.528178
1696.39, 0.528884
1696.94, 0.529615
1697.5, 0.530350
1698.05, 0.531052
1698.61, 0.531728
1699.17, 0.532416
1699.72, 0.533126
1700.28, 0.533823
1700.84, 0.534533
1701.4, 0.535262
1701.95, 0.535973
1702.51, 0.536675
1703.07, 0.537375
1703.63, 0.538063
1704.19, 0.538759
1704.75, 0.539444
1705.31, 0.540117
1705.88, 0.540819
1706.44, 0.541536
1707.0, 0.542248
1707.56, 0.542936
1708.12, 0.543625
1708.69, 0.544341
1709.25, 0.545046
1709.81, 0.545724
1710.38, 0.546386
1710.94, 0.547047
1711.51, 0.547710
1712.07, 0.548401
1712.64, 0.549106
1713.2, 0.549791
1713.77, 0.550469
1714.34, 0.551133
1714.9, 0.551805
1715.47, 0.552489
1716.04, 0.553144
1716.61, 0.553787
1717.18, 0.554464
1717.74, 0.555130
1718.31, 0.555763
1718.88, 0.556413
1719.45, 0.557065
1720.02, 0.557711
1720.59, 0.558370
1721.17, 0.559038
1721.74, 0.559702
1722.31, 0.560376
1722.88, 0.561041
1723.45, 0.561691
1724.03, 0.562330
1724.6, 0.562991
1725.18, 0.563661
1725.75, 0.564301
1726.33, 0.564922
1726.9, 0.565567
1727.48, 0.566231
1728.05, 0.566861
1728.63, 0.567487
1729.2, 0.568119
1729.78, 0.568733
1730.36, 0.569366
1730.94, 0.570012
1731.51, 0.570651
1732.09, 0.571308
1732.67, 0.571983
1733.25, 0.572669
1733.83, 0.573345
1734.41, 0.574020
1734.99, 0.574715
1735.57, 0.575400
1736.15, 0.576077
1736.73, 0.576713
1737.32, 0.577337
1737.9, 0.578028
1738.48, 0.578728
1739.07, 0.579374
1739.65, 0.580011
1740.23, 0.580659
1740.82, 0.581319
1741.4, 0.581975
1741.99, 0.582621
1742.57, 0.583252
1743.16, 0.583888
1743.74, 0.584548
1744.33, 0.585198
1744.92, 0.585825
1745.51, 0.586420
1746.09, 0.587013
1746.68, 0.587631
1747.27, 0.588289
1747.86, 0.588950
1748.45, 0.589575
1749.04, 0.590194
1749.63, 0.590804
1750.22, 0.591415
1750.81, 0.592051
1751.4, 0.592667
1751.99, 0.593247
1752.59, 0.593829
1753.18, 0.594458
1753.77, 0.595096
1754.37, 0.595665
1754.96, 0.596230
1755.56, 0.596835
1756.15, 0.597441
1756.74, 0.598020
1757.34, 0.598587
1757.94, 0.599159
1758.53, 0.599730
1759.13, 0.600321
1759.73, 0.600935
1760.32, 0.601536
1760.92, 0.602108
1761.52, 0.602673
1762.12, 0.603256
1762.72, 0.603848
1763.32, 0.604434
1763.92, 0.604993
1764.52, 0.605561
1765.12, 0.606161
1765.72, 0.606765
1766.32, 0.607343
1766.92, 0.607919
1767.53, 0.608517
1768.13, 0.609109
1768.73, 0.609682
1769.34, 0.610268
1769.94, 0.610860
1770.55, 0.611438
1771.15, 0.612030
1771.76, 0.612620
1772.36, 0.613192
1772.97, 0.613758
1773.57, 0.614303
1774.18, 0.614847
1774.79, 0.615393
1775.4, 0.615940
1776.0, 0.616497
1776.61, 0.617051
1777.22, 0.617597
1777.83, 0.618160
1778.44, 0.618735
1779.05, 0.619294
1779.66, 0.619828
1780.27, 0.620361
1780.88, 0.620906
1781.5, 0.621447
1782.11, 0.622003
1782.72, 0.622553
1783.33, 0.623066
1783.95, 0.623596
1784.56, 0.624144
1785.18, 0.624688
1785.79, 0.625232
1786.41, 0.625767
1787.02, 0.626298
1787.64, 0.626806
1788.26, 0.627309
1788.87, 0.627809
1789.49, 0.628317
1790.11, 0.628856
1790.73, 0.629367
1791.35, 0.629855
1791.96, 0.630373
1792.58, 0.630900
1793.21, 0.631389
1793.83, 0.631879
1794.45, 0.632379
1795.07, 0.632886
1795.69, 0.633389
1796.31, 0.633895
1796.93, 0.634407
1797.56, 0.634939
1798.18, 0.635477
1798.8, 0.635993
1799.43, 0.636470
1800.05, 0.636933
1800.68, 0.637415
1801.3, 0.637930
1801.93, 0.638422
1802.56, 0.638884
1803.18, 0.639370
1803.81, 0.639853
1804.44, 0.640326
1805.07, 0.640818
1805.7, 0.641283
1806.33, 0.641734
1806.95, 0.642211
1807.58, 0.642696
1808.22, 0.643192
1808.85, 0.643681
1809.48, 0.644142
1810.11, 0.644555
1810.74, 0.644959
1811.38, 0.645449
1812.01, 0.645955
1812.64, 0.646399
1813.28, 0.646848
1813.91, 0.647331
1814.55, 0.647786
1815.18, 0.648188
1815.82, 0.648614
1816.45, 0.649107
1817.09, 0.649594
1817.73, 0.650057
1818.36, 0.650493
1819.0, 0.650962
1819.64, 0.651374
1820.28, 0.651690
1820.92, 0.652113
1821.56, 0.652582
1822.2, 0.653005
1822.84, 0.653480
1823.48, 0.653981
1824.12, 0.654436
1824.76, 0.654850
1825.41, 0.655231
1826.05, 0.655471
1826.69, 0.655910
1827.34, 0.656524
1827.98, 0.656930
1828.63, 0.657285
1829.27, 0.657733
1829.92, 0.658168
1830.56, 0.658536
1831.21, 0.658935
1831.86, 0.659432
1832.5, 0.659874
1833.15, 0.660291
1833.8, 0.660724
1834.45, 0.661022
1835.1, 0.661325
1835.75, 0.661682
1836.4, 0.662029
1837.05, 0.662440
1837.7, 0.662790
1838.35, 0.663313
1839.01, 0.663823
1839.66, 0.664041
1840.31, 0.664450
1840.96, 0.664917
1841.62, 0.665090
1842.27, 0.665445
1842.93, 0.666083
1843.58, 0.666571
1844.24, 0.666937
1844.9, 0.667300
1845.55, 0.667696
1846.21, 0.667947
1846.87, 0.668043
1847.53, 0.668410
1848.18, 0.668927
1848.84, 0.669429
1849.5, 0.669953
1850.16, 0.670313
1850.82, 0.670680
1851.48, 0.671088
1852.14, 0.671431
1852.81, 0.671686
1853.47, 0.671902
1854.13, 0.672231
1854.8, 0.672795
1855.46, 0.673251
1856.12, 0.673470
1856.79, 0.673713
1857.45, 0.674197
1858.12, 0.674642
1858.79, 0.674895
1859.45, 0.675001
1860.12, 0.675288
1860.79, 0.675814
1861.46, 0.676263
1862.12, 0.676625
1862.79, 0.676928
1863.46, 0.677209
1864.13, 0.677517
1864.8, 0.677906
1865.48, 0.678302
1866.15, 0.678656
1866.82, 0.678898
1867.49, 0.678977
1868.16, 0.679249
1868.84, 0.679757
1869.51, 0.680114
1870.19, 0.680295
1870.86, 0.680389
1871.54, 0.680833
1872.21, 0.681307
1872.89, 0.681378
1873.56, 0.681714
1874.24, 0.682275
1874.92, 0.682582
1875.6, 0.682850
1876.28, 0.683147
1876.96, 0.683339
1877.64, 0.683727
1878.32, 0.684144
1879.0, 0.684392
1879.68, 0.684640
1880.36, 0.684897
1881.04, 0.685155
1881.73, 0.685428
1882.41, 0.685693
1883.09, 0.685893
1883.78, 0.686026
1884.46, 0.686299
1885.15, 0.686693
1885.83, 0.686952
1886.52, 0.687166
1887.21, 0.687415
1887.89, 0.687687
1888.58, 0.687930
1889.27, 0.688097
1889.96, 0.688172
1890.65, 0.688435
1891.34, 0.688775
1892.03, 0.688946
1892.72, 0.689146
1893.41, 0.689335
1894.1, 0.689503
1894.79, 0.689744
1895.49, 0.689948
1896.18, 0.690111
1896.87, 0.690247
1897.57, 0.690366
1898.26, 0.690535
1898.96, 0.690622
1899.65, 0.690651
1900.35, 0.690913
1901.05, 0.691235
1901.74, 0.691459
1902.44, 0.691493
1903.14, 0.691560
1903.84, 0.691869
1904.54, 0.692001
1905.24, 0.691966
1905.94, 0.692123
1906.64, 0.692325
1907.34, 0.692567
1908.04, 0.692855
1908.75, 0.693017
1909.45, 0.693178
1910.15, 0.693325
1910.86, 0.693439
1911.56, 0.693585
1912.27, 0.693795
1912.97, 0.693875
1913.68, 0.693926
1914.39, 0.694236
1915.09, 0.694525
1915.8, 0.694657
1916.51, 0.694841
1917.22, 0.695111
1917.93, 0.695351
1918.64, 0.695526
1919.35, 0.695616
1920.06, 0.695626
1920.77, 0.695772
1921.48, 0.696173
1922.19, 0.696524
1922.91, 0.696702
1923.62, 0.696846
1924.33, 0.697054
1925.05, 0.697320
1925.76, 0.697517
1926.48, 0.697653
1927.19, 0.697798
1927.91, 0.697980
1928.63, 0.698168
1929.35, 0.698418
1930.07, 0.698648
1930.78, 0.698848
1931.5, 0.699045
1932.22, 0.699257
1932.94, 0.699468
1933.66, 0.699654
1934.39, 0.699868
1935.11, 0.700088
1935.83, 0.700250
1936.55, 0.700407
1937.28, 0.700643
1938.0, 0.700894
1938.73, 0.701078
1939.45, 0.701253
1940.18, 0.701457
1940.9, 0.701630
1941.63, 0.701817
1942.36, 0.702043
1943.09, 0.702228
1943.81, 0.702377
1944.54, 0.702533
1945.27, 0.702721
1946.0, 0.702922
1946.73, 0.703092
1947.47, 0.703248
1948.2, 0.703405
1948.93, 0.703569
1949.66, 0.703724
1950.4, 0.703893
1951.13, 0.704100
1951.86, 0.704268
1952.6, 0.704399
1953.34, 0.704543
1954.07, 0.704706
1954.81, 0.704861
1955.55, 0.705033
1956.29, 0.705221
1957.02, 0.705386
1957.76, 0.705515
1958.5, 0.705650
1959.24, 0.705799
1959.98, 0.705965
1960.72, 0.706166
1961.47, 0.706364
1962.21, 0.706523
1962.95, 0.706675
1963.7, 0.706832
1964.44, 0.706962
1965.18, 0.707080
1965.93, 0.707234
1966.67, 0.707404
1967.42, 0.707544
1968.17, 0.707668
1968.92, 0.707825
1969.66, 0.707989
1970.41, 0.708135
1971.16, 0.708281
1971.91, 0.708413
1972.66, 0.708536
1973.41, 0.708656
1974.16, 0.708794
1974.92, 0.708960
1975.67, 0.709103
1976.42, 0.709265
1977.18, 0.709429
1977.93, 0.709545
1978.69, 0.709677
1979.44, 0.709833
1980.2, 0.709984
1980.95, 0.710131
1981.71, 0.710285
1982.47, 0.710420
1983.23, 0.710528
1983.99, 0.710651
1984.74, 0.710782
1985.51, 0.710912
1986.27, 0.711060
1987.03, 0.711220
1987.79, 0.711377
1988.55, 0.711522
1989.32, 0.711636
1990.08, 0.711759
1990.84, 0.711918
1991.61, 0.712075
1992.37, 0.712192
1993.14, 0.712306
1993.9, 0.712423
1994.67, 0.712522
1995.44, 0.712647
1996.21, 0.712806
1996.98, 0.712954
1997.75, 0.713082
1998.52, 0.713191
1999.29, 0.713300
2000.06, 0.713436
2000.83, 0.713546
2001.6, 0.713631
2002.38, 0.713728
2003.15, 0.713840
2003.93, 0.713970
2004.7, 0.714115
2005.48, 0.714271
2006.25, 0.714426
2007.03, 0.714533
2007.81, 0.714617
2008.58, 0.714739
2009.36, 0.714862
2010.14, 0.714961
2010.92, 0.715074
2011.7, 0.715166
2012.48, 0.715225
2013.26, 0.715299
2014.05, 0.715410
2014.83, 0.715532
2015.61, 0.715648
2016.4, 0.715766
2017.18, 0.715865
2017.97, 0.715948
2018.75, 0.716042
2019.54, 0.716147
2020.32, 0.716246
2021.11, 0.716349
2021.9, 0.716462
2022.69, 0.716573
2023.48, 0.716644
2024.27, 0.716696
2025.06, 0.716767
2025.85, 0.716854
2026.64, 0.716967
2027.44, 0.717101
2028.23, 0.717209
2029.02, 0.717302
2029.82, 0.717388
2030.61, 0.717475
2031.41, 0.717554
2032.2, 0.717617
2033.0, 0.717693
2033.8, 0.717793
2034.6, 0.717897
2035.4, 0.717973
2036.2, 0.718015
2037.0, 0.718066
2037.8, 0.718142
2038.6, 0.718237
2039.4, 0.718331
2040.2, 0.718390
2041.01, 0.718450
2041.81, 0.718530
2042.61, 0.718591
2043.42, 0.718637
2044.22, 0.718694
2045.03, 0.718736
2045.84, 0.718773
2046.65, 0.718854
2047.46, 0.718943
2048.26, 0.719005
2049.07, 0.719055
2049.88, 0.719116
2050.69, 0.719193
2051.51, 0.719278
2052.32, 0.719371
2053.13, 0.719462
2053.94, 0.719544
2054.76, 0.719617
2055.57, 0.719673
2056.39, 0.719726
2057.2, 0.719785
2058.02, 0.719843
2058.84, 0.719905
2059.66, 0.719956
2060.48, 0.720005
2061.29, 0.720082
2062.11, 0.720159
2062.94, 0.720205
2063.76, 0.720252
2064.58, 0.720326
2065.4, 0.720416
2066.22, 0.720499
2067.05, 0.720574
2067.87, 0.720662
2068.7, 0.720746
2069.52, 0.720842
2070.35, 0.720958
2071.18, 0.721023
2072.0, 0.721056
2072.83, 0.721125
2073.66, 0.721218
2074.49, 0.721302
2075.32, 0.721360
2076.15, 0.721409
2076.98, 0.721458
2077.82, 0.721511
2078.65, 0.721584
2079.48, 0.721646
2080.32, 0.721711
2081.15, 0.721788
2081.99, 0.721844
2082.83, 0.721891
2083.66, 0.721936
2084.5, 0.721994
2085.34, 0.722052
2086.18, 0.722096
2087.02, 0.722143
2087.86, 0.722179
2088.7, 0.722229
2089.54, 0.722281
2090.39, 0.722307
2091.23, 0.722343
2092.07, 0.722403
2092.92, 0.722466
2093.76, 0.722519
2094.61, 0.722551
2095.45, 0.722577
2096.3, 0.722613
2097.15, 0.722655
2098.0, 0.722722
2098.85, 0.722774
2099.7, 0.722803
2100.55, 0.722839
2101.4, 0.722880
2102.25, 0.722925
2103.1, 0.722976
2103.96, 0.723025
2104.81, 0.723055
2105.67, 0.723098
2106.52, 0.723164
2107.38, 0.723218
2108.24, 0.723265
2109.09, 0.723310
2109.95, 0.723358
2110.81, 0.723406
2111.67, 0.723458
2112.53, 0.723489
2113.39, 0.723503
2114.25, 0.723548
2115.12, 0.723595
2115.98, 0.723635
2116.84, 0.723693
2117.71, 0.723737
2118.58, 0.723770
2119.44, 0.723814
2120.31, 0.723844
2121.18, 0.723848
2122.04, 0.723874
2122.91, 0.723895
2123.78, 0.723903
2124.65, 0.723925
2125.52, 0.723947
2126.4, 0.723995
2127.27, 0.724043
2128.14, 0.724046
2129.02, 0.724033
2129.89, 0.724063
2130.77, 0.724133
2131.64, 0.724189
2132.52, 0.724207
2133.4, 0.724215
2134.27, 0.724223
2135.15, 0.724212
2136.03, 0.724200
2136.91, 0.724202
2137.79, 0.724195
2138.68, 0.724170
2139.56, 0.724168
2140.44, 0.724169
2141.33, 0.724165
2142.21, 0.724182
2143.1, 0.724205
2143.99, 0.724218
2144.87, 0.724237
2145.76, 0.724287
2146.65, 0.724355
2147.54, 0.724408
2148.43, 0.724458
2149.32, 0.724516
2150.21, 0.724554
2151.1, 0.724580
2151.99, 0.724612
2152.89, 0.724642
2153.78, 0.724648
2154.68, 0.724630
2155.57, 0.724632
2156.47, 0.724664
2157.37, 0.724697
2158.27, 0.724692
2159.16, 0.724672
2160.06, 0.724663
2160.96, 0.724643
2161.86, 0.724652
2162.77, 0.724691
2163.67, 0.724708
2164.57, 0.724729
2165.48, 0.724748
2166.38, 0.724752
2167.29, 0.724760
2168.2, 0.724765
2169.1, 0.724754
2170.01, 0.724758
2170.92, 0.724787
2171.83, 0.724798
2172.74, 0.724806
2173.65, 0.724850
2174.56, 0.724906
2175.47, 0.724934
2176.39, 0.724932
2177.3, 0.724974
2178.22, 0.725050
2179.13, 0.725096
2180.05, 0.725111
2180.96, 0.725103
2181.88, 0.725118
2182.8, 0.725148
2183.72, 0.725161
2184.64, 0.725161
2185.56, 0.725149
2186.48, 0.725132
2187.41, 0.725120
2188.33, 0.725136
2189.25, 0.725194
2190.18, 0.725253
2191.1, 0.725277
2192.03, 0.725289
2192.96, 0.725314
2193.89, 0.725363
2194.82, 0.725420
2195.74, 0.725449
2196.68, 0.725449
2197.61, 0.725447
2198.54, 0.725458
2199.47, 0.725490
2200.4, 0.725527
2201.34, 0.725530
2202.28, 0.725489
2203.21, 0.725426
2204.15, 0.725412
2205.08, 0.725434
2206.02, 0.725454
2206.96, 0.725469
2207.9, 0.725464
2208.84, 0.725422
2209.78, 0.725395
2210.73, 0.725413
2211.67, 0.725407
2212.61, 0.725403
2213.56, 0.725446
2214.5, 0.725472
2215.45, 0.725463
2216.4, 0.725453
2217.35, 0.725447
2218.3, 0.725447
2219.24, 0.725421
2220.2, 0.725359
2221.15, 0.725330
2222.1, 0.725336
2223.05, 0.725327
2224.0, 0.725334
2224.96, 0.725370
2225.91, 0.725360
2226.87, 0.725302
2227.83, 0.725267
2228.79, 0.725248
2229.74, 0.725221
2230.7, 0.725198
2231.66, 0.725187
2232.63, 0.725142
2233.59, 0.725079
2234.55, 0.725026
2235.51, 0.724969
2236.48, 0.724890
2237.44, 0.724790
2238.41, 0.724719
2239.38, 0.724640
2240.34, 0.724529
2241.31, 0.724449
2242.28, 0.724391
2243.25, 0.724311
2244.22, 0.724212
2245.19, 0.724092
2246.17, 0.723933
2247.14, 0.723755
2248.12, 0.723590
2249.09, 0.723453
2250.07, 0.723340
2251.04, 0.723209
2252.02, 0.723052
2253.0, 0.722903
2253.98, 0.722761
2254.96, 0.722637
2255.94, 0.722539
2256.92, 0.722430
2257.91, 0.722313
2258.89, 0.722187
2259.88, 0.722034
2260.86, 0.721888
2261.85, 0.721752
2262.83, 0.721584
2263.82, 0.721428
2264.81, 0.721298
2265.8, 0.721144
2266.79, 0.720979
2267.78, 0.720838
2268.78, 0.720683
2269.77, 0.720476
2270.76, 0.720288
2271.76, 0.720156
2272.75, 0.720038
2273.75, 0.719896
2274.75, 0.719752
2275.75, 0.719642
2276.75, 0.719516
2277.75, 0.719348
2278.75, 0.719181
2279.75, 0.719035
2280.75, 0.718887
2281.76, 0.718736
2282.76, 0.718576
2283.77, 0.718437
2284.77, 0.718341
2285.78, 0.718244
2286.79, 0.718121
2287.8, 0.717983
2288.81, 0.717848
2289.82, 0.717728
2290.83, 0.717641
2291.84, 0.717537
2292.86, 0.717406
2293.87, 0.717287
2294.89, 0.717159
2295.91, 0.717009
2296.92, 0.716863
2297.94, 0.716708
2298.96, 0.716541
2299.98, 0.716375
2301.0, 0.716205
2302.02, 0.716045
2303.04, 0.715880
2304.07, 0.715701
2305.09, 0.715534
2306.12, 0.715374
2307.15, 0.715208
2308.17, 0.715012
2309.2, 0.714791
2310.23, 0.714530
2311.26, 0.714217
2312.29, 0.713971
2313.32, 0.713962
2314.35, 0.714302
2315.39, 0.714904
2316.42, 0.715538
2317.46, 0.716080
2318.5, 0.716494
2319.53, 0.716777
2320.57, 0.716975
2321.61, 0.717116
2322.65, 0.717204
2323.69, 0.717273
2324.73, 0.717309
2325.78, 0.717286
2326.82, 0.717271
2327.86, 0.717281
2328.91, 0.717255
2329.96, 0.717195
2331.01, 0.717146
2332.05, 0.717110
2333.1, 0.717063
2334.15, 0.716984
2335.21, 0.716897
2336.26, 0.716834
2337.31, 0.716762
2338.36, 0.716663
2339.42, 0.716560
2340.48, 0.716449
2341.53, 0.716309
2342.59, 0.716150
2343.65, 0.715963
2344.71, 0.715773
2345.77, 0.715590
2346.83, 0.715360
2347.9, 0.715100
2348.96, 0.714856
2350.02, 0.714642
2351.09, 0.714532
2352.16, 0.714586
2353.23, 0.714830
2354.29, 0.715197
2355.36, 0.715541
2356.43, 0.715800
2357.51, 0.715982
2358.58, 0.716108
2359.65, 0.716207
2360.73, 0.716256
2361.8, 0.716255
2362.88, 0.716247
2363.96, 0.716235
2365.03, 0.716226
2366.11, 0.716207
2367.19, 0.716182
2368.27, 0.716148
2369.36, 0.716112
2370.44, 0.716103
2371.53, 0.716102
2372.61, 0.716104
2373.7, 0.716120
2374.78, 0.716102
2375.87, 0.716048
2376.96, 0.716001
2378.05, 0.715966
2379.14, 0.715907
2380.24, 0.715812
2381.33, 0.715733
2382.42, 0.715662
2383.52, 0.715582
2384.61, 0.715513
2385.71, 0.715466
2386.81, 0.715427
2387.91, 0.715387
2389.01, 0.715353
2390.11, 0.715318
2391.22, 0.715267
2392.32, 0.715220
2393.42, 0.715194
2394.53, 0.715152
2395.64, 0.715089
2396.74, 0.715010
2397.85, 0.714930
2398.96, 0.714891
2400.07, 0.714868
2401.18, 0.714811
2402.3, 0.714770
2403.41, 0.714739
2404.52, 0.714672
2405.64, 0.714623
2406.76, 0.714602
2407.88, 0.714577
2408.99, 0.714545
2410.11, 0.714527
2411.23, 0.714531
2412.36, 0.714513
2413.48, 0.714470
2414.6, 0.714446
2415.73, 0.714422
2416.85, 0.714383
2417.98, 0.714313
2419.11, 0.714235
2420.24, 0.714178
2421.37, 0.714140
2422.5, 0.714107
2423.64, 0.714061
2424.77, 0.713990
2425.9, 0.713920
2427.04, 0.713856
2428.18, 0.713792
2429.31, 0.713728
2430.45, 0.713664
2431.59, 0.713588
2432.73, 0.713470
2433.88, 0.713344
2435.02, 0.713237
2436.16, 0.713146
2437.31, 0.713023
2438.45, 0.712889
2439.6, 0.712806
2440.75, 0.712711
2441.9, 0.712603
2443.05, 0.712518
2444.2, 0.712429
2445.35, 0.712321
2446.51, 0.712226
2447.67, 0.712156
2448.82, 0.712061
2449.98, 0.711934
2451.14, 0.711789
2452.3, 0.711640
2453.46, 0.711528
2454.62, 0.711418
2455.78, 0.711264
2456.94, 0.711094
2458.11, 0.710908
2459.28, 0.710720
2460.44, 0.710560
2461.61, 0.710422
2462.78, 0.710289
2463.95, 0.710140
2465.12, 0.709986
2466.3, 0.709871
2467.47, 0.709765
2468.65, 0.709629
2469.82, 0.709517
2471.0, 0.709408
2472.18, 0.709260
2473.36, 0.709141
2474.54, 0.709041
2475.72, 0.708924
2476.9, 0.708810
2478.08, 0.708703
2479.27, 0.708621
2480.46, 0.708560
2481.64, 0.708507
2482.83, 0.708439
2484.02, 0.708370
2485.21, 0.708362
2486.4, 0.708365
2487.6, 0.708335
2488.79, 0.708331
2489.99, 0.708320
2491.18, 0.708255
2492.38, 0.708203
2493.58, 0.708157
2494.78, 0.708057
2495.98, 0.707971
2497.18, 0.707888
2498.39, 0.707770
2499.59, 0.707653
2500.8, 0.707555
2502.01, 0.707471
2503.21, 0.707434
2504.42, 0.707397
2505.63, 0.707299
2506.84, 0.707221
2508.06, 0.707160
2509.27, 0.707069
2510.49, 0.706973
2511.7, 0.706885
2512.92, 0.706811
2514.14, 0.706719
2515.36, 0.706610
2516.58, 0.706569
2517.8, 0.706565
2519.03, 0.706519
2520.25, 0.706483
2521.48, 0.706469
2522.7, 0.706377
2523.93, 0.706275
2525.16, 0.706263
2526.39, 0.706226
2527.62, 0.706138
2528.86, 0.706064
2530.09, 0.705951
2531.33, 0.705743
2532.56, 0.705588
2533.8, 0.705637
2535.04, 0.705548
2536.28, 0.705343
2537.52, 0.705428
2538.76, 0.705493
2540.01, 0.705427
2541.25, 0.705232
2542.5, 0.704853
2543.75, 0.704741
2544.99, 0.704907
2546.24, 0.704873
2547.49, 0.704608
2548.75, 0.704573
2550.0, 0.704543
2551.26, 0.704222
2552.51, 0.703943
2553.77, 0.704141
2555.03, 0.704489
2556.29, 0.704520
2557.55, 0.704452
2558.81, 0.704257
2560.08, 0.703452
2561.34, 0.702515
2562.61, 0.702352
2563.88, 0.702518
2565.14, 0.703027
2566.41, 0.703768
2567.68, 0.703741
2568.96, 0.702803
2570.23, 0.702587
2571.51, 0.703113
2572.78, 0.702205
2574.06, 0.701910
2575.34, 0.702664
2576.62, 0.702354
2577.9, 0.702474
2579.18, 0.702895
2580.47, 0.702388
2581.75, 0.702108
2583.04, 0.701134
2584.32, 0.700580
2585.61, 0.701533
2586.9, 0.701403
2588.2, 0.701247
2589.49, 0.701740
2590.78, 0.702024
2592.08, 0.701822
2593.37, 0.699046
2594.67, 0.695657
2595.97, 0.697068
2597.27, 0.700455
2598.57, 0.701628
2599.88, 0.701413
2601.18, 0.700747
2602.49, 0.700358
2603.79, 0.699546
2605.1, 0.697881
2606.41, 0.697987
2607.72, 0.699307
2609.03, 0.699485
2610.35, 0.699555
2611.66, 0.699819
2612.98, 0.699602
2614.3, 0.699513
2615.62, 0.698380
2616.94, 0.697097
2618.26, 0.697843
2619.58, 0.697128
2620.91, 0.696541
2622.23, 0.698317
2623.56, 0.699105
2624.89, 0.698359
2626.22, 0.696773
2627.55, 0.696883
2628.88, 0.696966
2630.21, 0.695135
2631.55, 0.695666
2632.89, 0.696904
2634.22, 0.696762
2635.56, 0.696989
2636.9, 0.697060
2638.25, 0.696801
2639.59, 0.696565
2640.93, 0.696217
2642.28, 0.695876
2643.63, 0.695684
2644.98, 0.695110
2646.33, 0.694757
2647.68, 0.694963
2649.03, 0.694919
2650.39, 0.694461
2651.74, 0.693513
2653.1, 0.693067
2654.46, 0.693095
2655.82, 0.692864
2657.18, 0.692916
2658.54, 0.692384
2659.9, 0.691585
2661.27, 0.691453
2662.64, 0.691268
2664.01, 0.689304
2665.38, 0.686887
2666.74, 0.686440
2668.12, 0.687596
2669.49, 0.685885
2670.87, 0.684218
2672.24, 0.686578
2673.62, 0.687587
2675.0, 0.685978
2676.38, 0.684305
2677.76, 0.683816
2679.15, 0.683564
2680.54, 0.683895
2681.92, 0.683854
2683.31, 0.682658
2684.7, 0.681747
2686.09, 0.680913
2687.48, 0.680068
2688.88, 0.679240
2690.27, 0.678298
2691.67, 0.676777
2693.07, 0.674091
2694.47, 0.672044
2695.87, 0.671279
2697.27, 0.670331
2698.67, 0.668524
2700.08, 0.665774
2701.49, 0.662926
2702.9, 0.660688
2704.31, 0.658248
2705.72, 0.655464
2707.13, 0.652411
2708.54, 0.648710
2709.96, 0.644060
2711.38, 0.640071
2712.8, 0.637603
2714.22, 0.633643
2715.64, 0.627585
2717.06, 0.620922
2718.49, 0.614261
2719.91, 0.607474
2721.34, 0.602848
2722.77, 0.598401
2724.2, 0.590864
2725.63, 0.582457
2727.07, 0.572542
2728.5, 0.562630
2729.94, 0.556323
2731.38, 0.552010
2732.82, 0.546630
2734.26, 0.539374
2735.7, 0.532182
2737.15, 0.525321
2738.59, 0.516039
2740.04, 0.503788
2741.49, 0.493914
2742.94, 0.490071
2744.39, 0.487950
2745.84, 0.484156
2747.3, 0.479368
2748.76, 0.474479
2750.21, 0.469647
2751.67, 0.464985
2753.14, 0.460506
2754.6, 0.455128
2756.06, 0.449447
2757.53, 0.445242
2759.0, 0.443245
2760.46, 0.442068
2761.94, 0.439830
2763.41, 0.437462
2764.88, 0.435751
2766.36, 0.433765
2767.83, 0.431597
2769.31, 0.429639
2770.79, 0.427777
2772.27, 0.426377
2773.76, 0.425165
2775.24, 0.423742
2776.73, 0.422275
2778.22, 0.420971
2779.71, 0.419748
2781.2, 0.418503
2782.69, 0.417431
2784.18, 0.416478
2785.68, 0.415213
2787.18, 0.413974
2788.68, 0.413352
2790.18, 0.412961
2791.68, 0.412367
2793.19, 0.411777
2794.69, 0.411333
2796.2, 0.410977
2797.71, 0.410681
2799.22, 0.410414
2800.73, 0.410063
2802.24, 0.409574
2803.76, 0.409481
2805.28, 0.409914
2806.8, 0.410339
2808.32, 0.410667
2809.84, 0.411066
2811.36, 0.411549
2812.89, 0.412051
2814.42, 0.412619
2815.94, 0.413386
2817.48, 0.414169
2819.01, 0.414822
2820.54, 0.415585
2822.08, 0.416488
2823.61, 0.417327
2825.15, 0.418052
2826.69, 0.418761
2828.23, 0.419559
2829.78, 0.420420
2831.32, 0.421207
2832.87, 0.421885
2834.42, 0.422567
2835.97, 0.423336
2837.52, 0.424078
2839.08, 0.424772
2840.63, 0.425436
2842.19, 0.426000
2843.75, 0.426497
2845.31, 0.426957
2846.87, 0.427346
2848.44, 0.427641
2850.0, 0.427949
2851.57, 0.428272
2853.14, 0.428462
2854.71, 0.428609
2856.28, 0.428849
2857.86, 0.429098
2859.43, 0.429270
2861.01, 0.429427
2862.59, 0.429627
2864.17, 0.429794
2865.76, 0.429899
2867.34, 0.430004
2868.93, 0.430124
2870.52, 0.430234
2872.11, 0.430349
2873.7, 0.430515
2875.29, 0.430660
2876.89, 0.430727
2878.49, 0.430827
2880.08, 0.430965
2881.69, 0.431097
2883.29, 0.431199
2884.89, 0.431293
2886.5, 0.431416
2888.11, 0.431529
2889.72, 0.431635
2891.33, 0.431726
2892.94, 0.431783
2894.56, 0.431855
2896.17, 0.431942
2897.79, 0.431994
2899.42, 0.431978
2901.04, 0.431952
2902.66, 0.431962
2904.29, 0.431937
2905.92, 0.431909
2907.55, 0.431903
2909.18, 0.431865
2910.81, 0.431809
2912.45, 0.431763
2914.08, 0.431699
2915.72, 0.431606
2917.36, 0.431518
2919.01, 0.431417
2920.65, 0.431269
2922.3, 0.431124
2923.94, 0.431017
2925.59, 0.430927
2927.25, 0.430815
2928.9, 0.430685
2930.56, 0.430589
2932.21, 0.430531
2933.87, 0.430503
2935.53, 0.430454
2937.2, 0.430382
2938.86, 0.430368
2940.53, 0.430381
2942.2, 0.430355
2943.87, 0.430308
2945.54, 0.430281
2947.22, 0.430257
2948.89, 0.430264
2950.57, 0.430299
2952.25, 0.430326
2953.93, 0.430335
2955.62, 0.430355
2957.3, 0.430421
2958.99, 0.430531
2960.68, 0.430615
2962.37, 0.430657
2964.07, 0.430697
2965.76, 0.430732
2967.46, 0.430782
2969.16, 0.430847
2970.86, 0.430931
2972.56, 0.431038
2974.27, 0.431168
2975.98, 0.431310
2977.69, 0.431449
2979.4, 0.431602
2981.11, 0.431803
2982.83, 0.432007
2984.54, 0.432168
2986.26, 0.432321
2987.98, 0.432503
2989.71, 0.432718
2991.43, 0.432916
2993.16, 0.433131
2994.89, 0.433372
2996.62, 0.433593
2998.35, 0.433807
3000.09, 0.434055
3001.83, 0.434333
3003.57, 0.434572
3005.31, 0.434780
3007.05, 0.435000
3008.79, 0.435200
3010.54, 0.435371
3012.29, 0.435577
3014.04, 0.435804
3015.8, 0.436030
3017.55, 0.436236
3019.31, 0.436456
3021.07, 0.436699
3022.83, 0.436930
3024.59, 0.437141
3026.36, 0.437337
3028.13, 0.437530
3029.9, 0.437699
3031.67, 0.437873
3033.44, 0.438057
3035.22, 0.438221
3037.0, 0.438349
3038.78, 0.438483
3040.56, 0.438624
3042.34, 0.438745
3044.13, 0.438857
3045.92, 0.438980
3047.71, 0.439106
3049.5, 0.439240
3051.3, 0.439381
3053.09, 0.439519
3054.89, 0.439670
3056.69, 0.439801
3058.5, 0.439917
3060.3, 0.440051
3062.11, 0.440152
3063.92, 0.440232
3065.73, 0.440344
3067.55, 0.440459
3069.36, 0.440559
3071.18, 0.440664
3073.0, 0.440803
3074.82, 0.440943
3076.65, 0.441035
3078.48, 0.441144
3080.31, 0.441272
3082.14, 0.441407
3083.97, 0.441565
3085.8, 0.441717
3087.64, 0.441857
3089.48, 0.441968
3091.33, 0.442046
3093.17, 0.442121
3095.02, 0.442192
3096.87, 0.442268
3098.72, 0.442384
3100.57, 0.442512
3102.43, 0.442619
3104.28, 0.442758
3106.14, 0.442941
3108.01, 0.443121
3109.87, 0.443269
3111.74, 0.443419
3113.61, 0.443568
3115.48, 0.443696
3117.35, 0.443849
3119.23, 0.444042
3121.1, 0.444219
3122.98, 0.444360
3124.87, 0.444542
3126.75, 0.444752
3128.64, 0.444967
3130.53, 0.445195
3132.42, 0.445434
3134.31, 0.445670
3136.21, 0.445889
3138.11, 0.446088
3140.01, 0.446312
3141.91, 0.446559
3143.82, 0.446782
3145.73, 0.447008
3147.64, 0.447242
3149.55, 0.447482
3151.46, 0.447711
3153.38, 0.447928
3155.3, 0.448154
3157.22, 0.448356
3159.14, 0.448533
3161.07, 0.448711
3163.0, 0.448891
3164.93, 0.449073
3166.86, 0.449282
3168.8, 0.449504
3170.74, 0.449722
3172.68, 0.449930
3174.62, 0.450114
3176.56, 0.450296
3178.51, 0.450469
3180.46, 0.450623
3182.42, 0.450822
3184.37, 0.451043
3186.33, 0.451223
3188.29, 0.451385
3190.25, 0.451550
3192.21, 0.451696
3194.18, 0.451859
3196.15, 0.452056
3198.12, 0.452231
3200.09, 0.452387
3202.07, 0.452549
3204.05, 0.452704
3206.03, 0.452840
3208.02, 0.452950
3210.0, 0.453028
3211.99, 0.453068
3213.98, 0.453091
3215.98, 0.453070
3217.97, 0.452994
3219.97, 0.452947
3221.97, 0.452971
3223.98, 0.453087
3225.98, 0.453291
3227.99, 0.453461
3230.0, 0.453539
3232.02, 0.453570
3234.03, 0.453524
3236.05, 0.453359
3238.07, 0.453053
3240.1, 0.452640
3242.12, 0.452275
3244.15, 0.452121
3246.18, 0.452245
3248.22, 0.452564
3250.25, 0.452879
3252.29, 0.453057
3254.33, 0.453065
3256.38, 0.452974
3258.43, 0.452796
3260.47, 0.452464
3262.53, 0.452131
3264.58, 0.451915
3266.64, 0.451762
3268.7, 0.451758
3270.76, 0.451941
3272.82, 0.452258
3274.89, 0.452575
3276.96, 0.452797
3279.04, 0.452951
3281.11, 0.453074
3283.19, 0.453127
3285.27, 0.453096
3287.35, 0.452992
3289.44, 0.452837
3291.53, 0.452594
3293.62, 0.452255
3295.71, 0.451840
3297.81, 0.451342
3299.91, 0.450760
3302.01, 0.450223
3304.11, 0.449897
3306.22, 0.449887
3308.33, 0.450176
3310.44, 0.450641
3312.56, 0.451112
3314.68, 0.451446
3316.8, 0.451582
3318.92, 0.451602
3321.05, 0.451515
3323.18, 0.451325
3325.31, 0.451044
3327.44, 0.450703
3329.58, 0.450338
3331.72, 0.449997
3333.86, 0.449710
3336.01, 0.449483
3338.16, 0.449257
3340.31, 0.448950
3342.46, 0.448544
3344.61, 0.448059
3346.77, 0.447470
3348.94, 0.446818
3351.1, 0.446095
3353.27, 0.445296
3355.44, 0.444409
3357.61, 0.443426
3359.79, 0.442310
3361.97, 0.441021
3364.15, 0.439471
3366.33, 0.437608
3368.52, 0.435543
3370.71, 0.433583
3372.9, 0.431898
3375.1, 0.430483
3377.3, 0.429319
3379.5, 0.428537
3381.71, 0.428241
3383.91, 0.428284
3386.12, 0.428392
3388.34, 0.428361
3390.55, 0.427996
3392.77, 0.427147
3394.99, 0.425763
3397.22, 0.423878
3399.45, 0.421593
3401.68, 0.418999
3403.91, 0.416141
3406.15, 0.413075
3408.39, 0.409889
3410.63, 0.406704
3412.87, 0.403578
3415.12, 0.400626
3417.37, 0.398021
3419.63, 0.396042
3421.88, 0.394963
3424.14, 0.394946
3426.41, 0.396038
3428.67, 0.398328
3430.94, 0.401791
3433.21, 0.405881
3435.49, 0.409587
3437.77, 0.412338
3440.05, 0.414277
3442.33, 0.415705
3444.62, 0.416802
3446.91, 0.417712
3449.2, 0.418499
3451.5, 0.419200
3453.8, 0.419814
3456.1, 0.420376
3458.41, 0.420883
3460.72, 0.421311
3463.03, 0.421640
3465.34, 0.421851
3467.66, 0.421849
3469.98, 0.421620
3472.31, 0.421236
3474.63, 0.420791
3476.96, 0.420278
3479.3, 0.419687
3481.64, 0.419094
3483.97, 0.418512
3486.32, 0.417774
3488.66, 0.416728
3491.01, 0.415273
3493.36, 0.413370
3495.72, 0.411007
3498.08, 0.408243
3500.44, 0.405233
3502.81, 0.402343
3505.18, 0.400096
3507.55, 0.399250
3509.92, 0.400675
3512.3, 0.404313
3514.68, 0.408654
3517.06, 0.412361
3519.45, 0.415126
3521.84, 0.417092
3524.24, 0.418453
3526.64, 0.419382
3529.04, 0.419959
3531.44, 0.420290
3533.85, 0.420442
3536.26, 0.420459
3538.67, 0.420388
3541.09, 0.420258
3543.51, 0.420085
3545.93, 0.419887
3548.36, 0.419626
3550.79, 0.419312
3553.22, 0.418948
3555.66, 0.418587
3558.1, 0.418221
3560.54, 0.417842
3562.99, 0.417459
3565.44, 0.417080
3567.9, 0.416667
3570.35, 0.416240
3572.81, 0.415797
3575.28, 0.415353
3577.75, 0.414892
3580.22, 0.414407
3582.69, 0.413924
3585.17, 0.413437
3587.65, 0.412930
3590.14, 0.412416
3592.62, 0.411887
3595.11, 0.411370
3597.61, 0.410838
3600.11, 0.410287
3602.61, 0.409737
3605.11, 0.409199
3607.62, 0.408651
3610.14, 0.408087
3612.65, 0.407515
3615.17, 0.406938
3617.69, 0.406333
3620.22, 0.405721
3622.75, 0.405088
3625.28, 0.404450
3627.82, 0.403825
3630.36, 0.403206
3632.9, 0.402568
3635.45, 0.401939
3638.0, 0.401282
3640.56, 0.400633
3643.12, 0.399982
3645.68, 0.399311
3648.24, 0.398639
3650.81, 0.397980
3653.39, 0.397324
3655.96, 0.396677
3658.54, 0.396007
3661.13, 0.395354
3663.71, 0.394734
3666.3, 0.394109
3668.9, 0.393462
3671.5, 0.392833
3674.1, 0.392184
3676.7, 0.391531
3679.31, 0.390877
3681.93, 0.390209
3684.54, 0.389523
3687.17, 0.388839
3689.79, 0.388151
3692.42, 0.387478
3695.05, 0.386818
3697.69, 0.386172
3700.32, 0.385504
3702.97, 0.384812
3705.61, 0.384125
3708.27, 0.383461
3710.92, 0.382777
3713.58, 0.382074
3716.24, 0.381364
3718.91, 0.380663
3721.58, 0.379951
3724.25, 0.379238
3726.93, 0.378532
3729.61, 0.377827
3732.29, 0.377107
3734.98, 0.376409
3737.67, 0.375734
3740.37, 0.375045
3743.07, 0.374304
3745.78, 0.373565
3748.49, 0.372840
3751.2, 0.372107
3753.91, 0.371363
3756.63, 0.370632
3759.36, 0.369879
3762.09, 0.369124
3764.82, 0.368384
3767.55, 0.367657
3770.29, 0.366904
3773.04, 0.366135
3775.78, 0.365357
3778.54, 0.364599
3781.29, 0.363839
3784.05, 0.363072
3786.82, 0.362287
3789.59, 0.361499
3792.36, 0.360707
3795.13, 0.359931
3797.92, 0.359171
3800.7, 0.358415
3803.49, 0.357645
3806.28, 0.356901
3809.08, 0.356151
3811.88, 0.355387
3814.68, 0.354615
3817.49, 0.353863
3820.31, 0.353121
3823.12, 0.352385
3825.94, 0.351623
3828.77, 0.350863
3831.6, 0.350100
3834.43, 0.349337
3837.27, 0.348578
3840.11, 0.347826
3842.96, 0.347063
3845.81, 0.346305
3848.67, 0.345558
3851.53, 0.344815
3854.39, 0.344065
3857.26, 0.343337
3860.13, 0.342629
3863.01, 0.341929
3865.89, 0.341209
3868.77, 0.340469
3871.66, 0.339717
3874.55, 0.338973
3877.45, 0.338237
3880.35, 0.337511
3883.26, 0.336762
3886.17, 0.336005
3889.09, 0.335257
3892.01, 0.334525
3894.93, 0.333781
3897.86, 0.333040
3900.79, 0.332281
3903.73, 0.331524
3906.67, 0.330781
3909.62, 0.330042
3912.57, 0.329286
3915.52, 0.328532
3918.48, 0.327776
3921.45, 0.327030
3924.42, 0.326279
3927.39, 0.325529
3930.37, 0.324764
3933.35, 0.324003
3936.34, 0.323246
3939.33, 0.322477
3942.32, 0.321685
3945.32, 0.320894
3948.33, 0.320096
3951.34, 0.319303
3954.35, 0.318501
3957.37, 0.317677
3960.39, 0.316861
3963.42, 0.316063
3966.45, 0.315259
3969.49, 0.314461
3972.53, 0.313646
3975.58, 0.312839
3978.63, 0.312047
3981.68, 0.311265
3984.75, 0.310478
3987.81, 0.309706
3990.88, 0.308927
3993.95, 0.308162
3997.03, 0.307430
4000.12, 0.306708
4003.21, 0.305962
4006.3, 0.305240
4009.4, 0.304539
4012.5, 0.303816
4015.61, 0.303069
4018.72, 0.302310
4021.84, 0.301550
4024.96, 0.300791
4028.09, 0.300019
4031.22, 0.299246
4034.36, 0.298463
4037.5, 0.297691
4040.65, 0.296926
4043.8, 0.296171
4046.96, 0.295417
4050.12, 0.294646
4053.29, 0.293868
4056.46, 0.293112
4059.64, 0.292350
4062.82, 0.291598
4066.0, 0.290836
4069.19, 0.290065
4072.39, 0.289306
4075.59, 0.288587
4078.8, 0.287871
4082.01, 0.287153
4085.23, 0.286447
4088.45, 0.285757
4091.68, 0.285062
4094.91, 0.284370
4098.15, 0.283675
4101.39, 0.282975
4104.63, 0.282249
4107.89, 0.281550
4111.14, 0.280872
4114.41, 0.280166
4117.67, 0.279442
4120.95, 0.278722
4124.23, 0.277994
4127.51, 0.277276
4130.8, 0.276555
4134.09, 0.275841
4137.39, 0.275119
4140.7, 0.274406
4144.01, 0.273694
4147.32, 0.272978
4150.64, 0.272252
4153.97, 0.271535
4157.3, 0.270795
4160.64, 0.270062
4163.98, 0.269326
4167.33, 0.268595
4170.68, 0.267854
4174.04, 0.267102
4177.4, 0.266353
4180.77, 0.265619
4184.14, 0.264892
4187.52, 0.264175
4190.91, 0.263445
4194.3, 0.262725
4197.69, 0.262021
4201.1, 0.261327
4204.5, 0.260655
4207.92, 0.260016
4211.34, 0.259398
4214.76, 0.258808
4218.19, 0.258229
4221.62, 0.257661
4225.06, 0.257066
4228.51, 0.256434
4231.96, 0.255769
4235.42, 0.255073
4238.88, 0.254307
4242.35, 0.253478
4245.83, 0.252594
4249.31, 0.251686
4252.79, 0.250756
4256.28, 0.249910
4259.78, 0.249223
4263.29, 0.248633
4266.79, 0.248051
4270.31, 0.247444
4273.83, 0.246813
4277.35, 0.246168
4280.89, 0.245482
4284.42, 0.244787
4287.97, 0.244087
4291.52, 0.243382
4295.07, 0.242652
4298.63, 0.241927
4302.2, 0.241211
4305.78, 0.240480
4309.35, 0.239740
4312.94, 0.239036
4316.53, 0.238335
4320.13, 0.237629
4323.73, 0.236931
4327.34, 0.236243
4330.96, 0.235548
4334.58, 0.234857
4338.21, 0.234156
4341.84, 0.233470
4345.48, 0.232803
4349.12, 0.232145
4352.77, 0.231476
4356.43, 0.230815
4360.1, 0.230160
4363.76, 0.229515
4367.44, 0.228878
4371.12, 0.228238
4374.81, 0.227580
4378.51, 0.226926
4382.21, 0.226282
4385.92, 0.225637
4389.63, 0.224986
4393.35, 0.224349
4397.08, 0.223708
4400.81, 0.223063
4404.55, 0.222425
4408.29, 0.221797
4412.04, 0.221161
4415.8, 0.220545
4419.57, 0.219928
4423.34, 0.219309
4427.12, 0.218687
4430.9, 0.218066
4434.69, 0.217433
4438.49, 0.216809
4442.29, 0.216188
4446.1, 0.215570
4449.92, 0.214938
4453.74, 0.214318
4457.57, 0.213720
4461.41, 0.213132
4465.25, 0.212529
4469.1, 0.211934
4472.95, 0.211341
4476.82, 0.210752
4480.69, 0.210165
4484.56, 0.209582
4488.44, 0.209009
4492.33, 0.208443
4496.23, 0.207851
4500.13, 0.207263
4504.04, 0.206681
4507.96, 0.206098
4511.88, 0.205513
4515.81, 0.204935
4519.75, 0.204364
4523.69, 0.203791
4527.65, 0.203214
4531.6, 0.202651
4535.57, 0.202090
4539.54, 0.201530
4543.52, 0.200982
4547.5, 0.200448
4551.5, 0.199912
4555.5, 0.199386
4559.5, 0.198854
4563.52, 0.198309
4567.54, 0.197742
4571.56, 0.197189
4575.6, 0.196637
4579.64, 0.196088
4583.69, 0.195553
4587.75, 0.195025
4591.81, 0.194490
4595.88, 0.193951
4599.96, 0.193406
4604.04, 0.192885
4608.14, 0.192353
4612.24, 0.191802
4616.34, 0.191266
4620.46, 0.190752
4624.58, 0.190220
4628.71, 0.189679
4632.84, 0.189145
4636.99, 0.188619
4641.14, 0.188091
4645.3, 0.187580
4649.47, 0.187069
4653.64, 0.186554
4657.82, 0.186028
4662.01, 0.185518
4666.21, 0.185023
4670.41, 0.184530
4674.62, 0.184034
4678.84, 0.183547
4683.07, 0.183063
4687.3, 0.182596
4691.54, 0.182124
4695.79, 0.181641
4700.05, 0.181142
4704.31, 0.180653
4708.59, 0.180162
4712.87, 0.179681
4717.15, 0.179196
4721.45, 0.178715
4725.76, 0.178244
4730.07, 0.177786
4734.39, 0.177322
4738.72, 0.176857
4743.05, 0.176391
4747.39, 0.175939
4751.75, 0.175494
4756.1, 0.175035
4760.47, 0.174580
4764.85, 0.174145
4769.23, 0.173707
4773.62, 0.173267
4778.02, 0.172810
4782.43, 0.172369
4786.85, 0.171937
4791.27, 0.171501
4795.7, 0.171058
4800.14, 0.170634
4804.59, 0.170215
4809.05, 0.169791
4813.51, 0.169357
4817.99, 0.168928
4822.47, 0.168502
4826.96, 0.168088
4831.46, 0.167664
4835.96, 0.167233
4840.48, 0.166808
4845.0, 0.166402
4849.54, 0.165984
4854.08, 0.165565
4858.63, 0.165153
4863.18, 0.164750
4867.75, 0.164326
4872.33, 0.163904
4876.91, 0.163489
4881.5, 0.163081
4886.1, 0.162658
4890.71, 0.162239
4895.33, 0.161808
4899.96, 0.161379
4904.59, 0.160953
4909.24, 0.160528
4913.89, 0.160100
4918.55, 0.159679
4923.22, 0.159243
4927.9, 0.158799
4932.59, 0.158373
4937.29, 0.157946
4942.0, 0.157494
4946.71, 0.157043
4951.44, 0.156576
4956.17, 0.156108
4960.91, 0.155644
4965.67, 0.155174
4970.43, 0.154696
4975.2, 0.154222
4979.98, 0.153747
4984.76, 0.153267
4989.56, 0.152760
4994.37, 0.152231
4999.18, 0.151706
5004.01, 0.151176
5008.84, 0.150608
5013.69, 0.150022
5018.54, 0.149425
5023.4, 0.148840
5028.28, 0.148247
5033.16, 0.147649
5038.05, 0.147019
5042.95, 0.146351
5047.86, 0.145667
5052.78, 0.144969
5057.71, 0.144257
5062.65, 0.143522
5067.6, 0.142768
5072.56, 0.142035
5077.53, 0.141306
5082.5, 0.140578
5087.49, 0.139850
5092.49, 0.139123
5097.5, 0.138415
5102.51, 0.137717
5107.54, 0.137028
5112.58, 0.136400
5117.62, 0.135788
5122.68, 0.135178
5127.75, 0.134591
5132.82, 0.134048
5137.91, 0.133538
5143.01, 0.133041
5148.12, 0.132582
5153.23, 0.132183
5158.36, 0.131808
5163.5, 0.131463
5168.65, 0.131141
5173.81, 0.130833
5178.98, 0.130542
5184.15, 0.130274
5189.34, 0.130014
5194.54, 0.129753
5199.75, 0.129475
5204.98, 0.129207
5210.21, 0.128944
5215.45, 0.128658
5220.7, 0.128369
5225.96, 0.128060
5231.23, 0.127719
5236.52, 0.127374
5241.81, 0.127033
5247.12, 0.126694
5252.44, 0.126332
5257.76, 0.125956
5263.1, 0.125585
5268.45, 0.125189
5273.81, 0.124775
5279.18, 0.124357
5284.56, 0.123906
5289.95, 0.123403
5295.36, 0.122893
5300.77, 0.122376
5306.2, 0.121817
5311.63, 0.121247
5317.08, 0.120656
5322.54, 0.120057
5328.01, 0.119461
5333.49, 0.118881
5338.98, 0.118307
5344.49, 0.117717
5350.0, 0.117136
5355.53, 0.116633
5361.07, 0.116191
5366.62, 0.115770
5372.18, 0.115366
5377.75, 0.114985
5383.34, 0.114647
5388.93, 0.114333
5394.54, 0.114018
5400.16, 0.113711
5405.79, 0.113423
5411.44, 0.113138
5417.09, 0.112804
5422.76, 0.112447
5428.43, 0.112135
5434.12, 0.111819
5439.83, 0.111468
5445.54, 0.111096
5451.26, 0.110696
5457.0, 0.110269
5462.75, 0.109809
5468.52, 0.109335
5474.29, 0.108828
5480.08, 0.108265
5485.88, 0.107704
5491.69, 0.107118
5497.51, 0.106509
5503.35, 0.105897
5509.2, 0.105301
5515.06, 0.104735
5520.93, 0.104212
5526.82, 0.103737
5532.71, 0.103289
5538.63, 0.102860
5544.55, 0.102450
5550.49, 0.102057
5556.44, 0.101705
5562.4, 0.101378
5568.37, 0.101072
5574.36, 0.100768
5580.36, 0.100490
5586.37, 0.100271
5592.4, 0.100047
5598.44, 0.0997670
5604.49, 0.0994700
5610.56, 0.0991770
5616.63, 0.0988520
5622.73, 0.0984900
5628.83, 0.0980990
5634.95, 0.0976550
5641.08, 0.0971270
5647.23, 0.0965870
5653.39, 0.0959990
5659.56, 0.0953250
5665.74, 0.0945940
5671.94, 0.0937890
5678.15, 0.0930000
5684.38, 0.0923010
5690.62, 0.0916620
5696.87, 0.0911320
5703.14, 0.0907260
5709.42, 0.0904390
5715.72, 0.0903850
5722.03, 0.0904850
5728.35, 0.0907410
5734.69, 0.0911750
5741.03, 0.0917730
5747.4, 0.0925230
5753.78, 0.0934660
5760.17, 0.0944760
5766.58, 0.0955610
5773.0, 0.0968290
5779.44, 0.0981240
5785.88, 0.0993380
5792.35, 0.100494
5798.83, 0.101577
5805.32, 0.102582
5811.83, 0.103466
5818.35, 0.104171
5824.89, 0.104799
5831.45, 0.105415
5838.01, 0.105886
5844.59, 0.106167
5851.19, 0.106284
5857.8, 0.106269
5864.43, 0.106172
5871.07, 0.106041
5877.73, 0.105713
5884.4, 0.105400
5891.09, 0.105156
5897.79, 0.104842
5904.5, 0.104635
5911.23, 0.104415
5917.98, 0.104138
5924.75, 0.103890
5931.53, 0.103618
5938.32, 0.103413
5945.13, 0.103420
5951.96, 0.103430
5958.8, 0.103417
5965.65, 0.103399
5972.53, 0.103451
5979.42, 0.103539
5986.32, 0.103560
5993.24, 0.103569
6000.18, 0.103549
6007.13, 0.103364
6014.1, 0.103021
6021.08, 0.102606
6028.09, 0.102077
6035.1, 0.101432
6042.14, 0.100670
6049.19, 0.0998970
6056.25, 0.0994950
6063.34, 0.0992950
6070.44, 0.0991970
6077.55, 0.0994780
6084.69, 0.100202
6091.84, 0.101246
6099.0, 0.102598
6106.19, 0.104187
6113.39, 0.105944
6120.61, 0.107916
6127.84, 0.109881
6135.09, 0.111739
6142.36, 0.113513
6149.65, 0.115189
6156.95, 0.116719
6164.27, 0.118164
6171.61, 0.119514
6178.97, 0.120670
6186.34, 0.121718
6193.73, 0.122801
6201.14, 0.123745
6208.57, 0.124551
6216.01, 0.125268
6223.47, 0.125909
6230.95, 0.126448
6238.45, 0.126957
6245.97, 0.127456
6253.5, 0.127999
6261.06, 0.128565
6268.63, 0.129077
6276.21, 0.129529
6283.82, 0.129988
6291.45, 0.130418
6299.1, 0.130823
6306.76, 0.131188
6314.44, 0.131540
6322.14, 0.131897
6329.86, 0.132274
6337.6, 0.132568
6345.35, 0.132906
6353.13, 0.133431
6360.92, 0.133912
6368.74, 0.134280
6376.57, 0.134710
6384.43, 0.135133
6392.3, 0.135485
6400.19, 0.135770
6408.1, 0.135899
6416.03, 0.136102
6423.98, 0.136518
6431.95, 0.136847
6439.94, 0.137111
6447.95, 0.137329
6455.98, 0.137506
6464.03, 0.137653
6472.1, 0.137748
6480.19, 0.137805
6488.31, 0.137832
6496.44, 0.137982
6504.59, 0.138374
6512.76, 0.138715
6520.95, 0.138954
6529.16, 0.139208
6537.4, 0.139424
6545.65, 0.139571
6553.92, 0.139687
6562.22, 0.139792
6570.54, 0.139821
6578.88, 0.139941
6587.23, 0.140087
6595.61, 0.140173
6604.02, 0.140276
6612.44, 0.140325
6620.89, 0.140366
6629.35, 0.140301
6637.84, 0.140208
6646.35, 0.140308
6654.88, 0.140413
6663.44, 0.140334
6672.01, 0.140153
6680.61, 0.139886
6689.23, 0.139664
6697.88, 0.139610
6706.54, 0.139754
6715.23, 0.140049
6723.94, 0.140349
6732.67, 0.140593
6741.42, 0.140830
6750.2, 0.141038
6759.0, 0.141242
6767.82, 0.141389
6776.67, 0.141380
6785.54, 0.141210
6794.44, 0.141249
6803.35, 0.141485
6812.29, 0.141647
6821.26, 0.141762
6830.24, 0.141931
6839.25, 0.142182
6848.29, 0.142362
6857.35, 0.142245
6866.43, 0.142034
6875.54, 0.141947
6884.67, 0.141877
6893.82, 0.141868
6903.0, 0.141822
6912.2, 0.141700
6921.43, 0.141558
6930.69, 0.141375
6939.96, 0.141143
6949.27, 0.140847
6958.59, 0.140496
6967.95, 0.140224
6977.33, 0.139989
6986.73, 0.139724
6996.16, 0.139486
7005.61, 0.139293
7015.09, 0.139118
7024.6, 0.138981
7034.13, 0.138859
7043.69, 0.138712
7053.27, 0.138660
7062.88, 0.138648
7072.52, 0.138591
7082.18, 0.138509
7091.87, 0.138405
7101.58, 0.138258
7111.32, 0.138067
7121.09, 0.137869
7130.88, 0.137681
7140.71, 0.137449
7150.56, 0.137189
7160.43, 0.136943
7170.33, 0.136686
7180.27, 0.136484
7190.23, 0.136327
7200.21, 0.136181
7210.23, 0.136097
7220.27, 0.136098
7230.34, 0.136094
7240.44, 0.136087
7250.56, 0.136113
7260.72, 0.136182
7270.9, 0.136257
7281.12, 0.136300
7291.36, 0.136315
7301.63, 0.136302
7311.93, 0.136288
7322.25, 0.136239
7332.61, 0.136116
7343.0, 0.135932
7353.41, 0.135713
7363.86, 0.135466
7374.33, 0.135164
7384.83, 0.134842
7395.37, 0.134542
7405.93, 0.134241
7416.53, 0.133942
7427.15, 0.133656
7437.81, 0.133382
7448.5, 0.133093
7459.22, 0.132773
7469.96, 0.132433
7480.74, 0.132067
7491.55, 0.131649
7502.39, 0.131180
7513.27, 0.130656
7524.17, 0.130086
7535.11, 0.129476
7546.08, 0.128829
7557.08, 0.128152
7568.11, 0.127419
7579.17, 0.126652
7590.27, 0.125868
7601.4, 0.125071
7612.56, 0.124270
7623.76, 0.123471
7634.98, 0.122662
7646.24, 0.121870
7657.54, 0.121073
7668.87, 0.120283
7680.23, 0.119528
7691.62, 0.118814
7703.05, 0.118142
7714.51, 0.117537
7726.01, 0.116992
7737.54, 0.116509
7749.11, 0.116093
7760.71, 0.115757
7772.35, 0.115536
7784.02, 0.115471
7795.72, 0.115523
7807.46, 0.115629
7819.23, 0.115835
7831.04, 0.116167
7842.89, 0.116562
7854.77, 0.116980
7866.69, 0.117440
7878.65, 0.117908
7890.64, 0.118355
7902.67, 0.118770
7914.74, 0.119133
7926.84, 0.119511
7938.98, 0.119911
7951.16, 0.120311
7963.37, 0.120693
7975.62, 0.121045
7987.91, 0.121367
8000.24, 0.121681
8012.6, 0.121972
8025.01, 0.122274
8037.45, 0.122566
8049.93, 0.122848
8062.45, 0.123119
8075.01, 0.123352
8087.61, 0.123550
8100.24, 0.123710
8112.91, 0.123820
8125.63, 0.123838
8138.39, 0.123730
8151.18, 0.123513
8164.02, 0.123170
8176.9, 0.122691
8189.81, 0.122077
8202.77, 0.121344
8215.77, 0.120490
8228.82, 0.119536
8241.9, 0.118470
8255.02, 0.117304
8268.19, 0.116077
8281.39, 0.114762
8294.65, 0.113357
8307.94, 0.111931
8321.28, 0.110494
8334.66, 0.109041
8348.08, 0.107570
8361.54, 0.106109
8375.05, 0.104649
8388.6, 0.103183
8402.2, 0.101734
8415.84, 0.100320
8429.52, 0.0989420
8443.25, 0.0975930
8457.02, 0.0962470
8470.84, 0.0948960
8484.7, 0.0935580
8498.61, 0.0922310
8512.57, 0.0908780
8526.57, 0.0895180
8540.62, 0.0881200
8554.71, 0.0867270
8568.85, 0.0853360
8583.04, 0.0839460
8597.27, 0.0825510
8611.55, 0.0812350
8625.88, 0.0799790
8640.26, 0.0787460
8654.68, 0.0775370
8669.16, 0.0763500
8683.68, 0.0751660
8698.25, 0.0739710
8712.87, 0.0727760
8727.53, 0.0716020
8742.25, 0.0704390
8757.02, 0.0692850
8771.83, 0.0681120
8786.7, 0.0669590
8801.62, 0.0658060
8816.59, 0.0646710
8831.61, 0.0635360
8846.68, 0.0624020
8861.8, 0.0612760
8876.97, 0.0601530
8892.2, 0.0590240
8907.48, 0.0578800
8922.81, 0.0566960
8938.2, 0.0555050
8953.63, 0.0542520
8969.13, 0.0529870
8984.67, 0.0517260
9000.27, 0.0504750
9015.92, 0.0492530
9031.63, 0.0480760
9047.39, 0.0468970
9063.21, 0.0457290
9079.08, 0.0445460
9095.01, 0.0433900
9111.0, 0.0422960
9127.04, 0.0413030
9143.13, 0.0403660
9159.28, 0.0394220
9175.49, 0.0384420
9191.76, 0.0374420
9208.09, 0.0364020
9224.47, 0.0354180
9240.92, 0.0344670
9257.42, 0.0335390
9273.98, 0.0326470
9290.6, 0.0318170
9307.28, 0.0310780
9324.02, 0.0304280
9340.82, 0.0298330
9357.68, 0.0292970
9374.6, 0.0288830
9391.58, 0.0287240
9408.62, 0.0287610
9425.73, 0.0290910
9442.9, 0.0298190
9460.13, 0.0308910
9477.42, 0.0322940
9494.78, 0.0341880
9512.2, 0.0366070
9529.69, 0.0395510
9547.24, 0.0430630
9564.86, 0.0472340
9582.54, 0.0520950
9600.28, 0.0577280
9618.1, 0.0641160
9635.97, 0.0713080
9653.92, 0.0792770
9671.93, 0.0877810
9690.01, 0.0964120
9708.16, 0.104559
9726.37, 0.111617
9744.65, 0.117329
9763.0, 0.121704
9781.43, 0.124889
9799.92, 0.127103
9818.48, 0.128555
9837.1, 0.129391
9855.8, 0.129694
9874.58, 0.129604
9893.42, 0.129232
9912.34, 0.128618
9931.33, 0.127802
9950.39, 0.126863
9969.52, 0.125816
9988.74, 0.124640
10008.0, 0.123374
10027.4, 0.122050
10046.8, 0.120695
10066.3, 0.119357
10085.9, 0.118099
10105.6, 0.116997
10125.3, 0.116103
10145.1, 0.115484
10165.0, 0.115223
10185.0, 0.115360
10205.0, 0.115979
10225.2, 0.117103
10245.4, 0.118794
10265.7, 0.121125
10286.0, 0.124164
10306.5, 0.128137
10327.0, 0.133426
10347.6, 0.140663
10368.3, 0.150507
10389.1, 0.163002
10409.9, 0.176909
10430.9, 0.189883
10451.9, 0.199888
10473.0, 0.206152
10494.2, 0.208505
10515.5, 0.206928
10536.9, 0.201299
10558.4, 0.191962
10579.9, 0.180620
10601.5, 0.169663
10623.3, 0.160311
10645.1, 0.152253
10667.0, 0.144634
10689.0, 0.136944
10711.1, 0.130329
10733.2, 0.129946
10755.5, 0.140845
10777.9, 0.158980
10800.3, 0.177483
10822.9, 0.195291
10845.5, 0.213367
10868.2, 0.230534
10891.1, 0.244421
10914.0, 0.254053
10937.0, 0.259956
10960.2, 0.263139
10983.4, 0.264469
11006.7, 0.264616
11030.1, 0.263915
11053.6, 0.262608
11077.3, 0.260733
11101.0, 0.258441
11124.8, 0.255788
11148.7, 0.252904
11172.7, 0.249894
11196.9, 0.246791
11221.1, 0.243568
11245.4, 0.240342
11269.9, 0.237117
11294.4, 0.233913
11319.1, 0.230644
11343.9, 0.227309
11368.8, 0.223805
11393.7, 0.219970
11418.8, 0.215681
11444.0, 0.210912
11469.4, 0.205581
11494.8, 0.199641
11520.3, 0.193090
11546.0, 0.185917
11571.8, 0.178059
11597.7, 0.169501
11623.7, 0.160200
11649.8, 0.150473
11676.0, 0.140984
11702.4, 0.132237
11728.9, 0.124380
11755.5, 0.117348
11782.2, 0.110927
11809.0, 0.104863
11836.0, 0.0989910
11863.0, 0.0931580
11890.3, 0.0872090
11917.6, 0.0814120
11945.0, 0.0773110
11972.6, 0.0785080
12000.4, 0.0871000
12028.2, 0.0978780
12056.2, 0.103407
12084.3, 0.102625
12112.5, 0.0988160
12140.9, 0.0946140
12169.4, 0.0909230
12198.0, 0.0878540
12226.8, 0.0853370
12255.7, 0.0832410
12284.7, 0.0814200
12313.9, 0.0798670
12343.2, 0.0785130
12372.7, 0.0773340
12402.3, 0.0763100
12432.0, 0.0753560
12461.9, 0.0745230
12491.9, 0.0738230
12522.1, 0.0732870
12552.4, 0.0728970
12582.9, 0.0725700
12613.5, 0.0723120
12644.3, 0.0720750
12675.2, 0.0718370
12706.3, 0.0717000
12737.5, 0.0716520
12768.9, 0.0715970
12800.4, 0.0715750
12832.1, 0.0716710
12863.9, 0.0717990
12895.9, 0.0719310
12928.1, 0.0720520
12960.4, 0.0721230
12992.9, 0.0722420
13025.5, 0.0723670
13058.3, 0.0724720
13091.3, 0.0726020
13124.4, 0.0727470
13157.8, 0.0729150
13191.2, 0.0730360
13224.9, 0.0731430
13258.7, 0.0732170
13292.7, 0.0732800
13326.9, 0.0734370
13361.2, 0.0736060
13395.7, 0.0737370
13430.4, 0.0739140
13465.3, 0.0740790
13500.4, 0.0742720
13535.7, 0.0744770
13571.1, 0.0746560
13606.7, 0.0748330
13642.5, 0.0749720
13678.5, 0.0750190
13714.7, 0.0750420
13751.1, 0.0749690
13787.6, 0.0749330
13824.4, 0.0748890
13861.4, 0.0747780
13898.5, 0.0746910
13935.9, 0.0746990
13973.5, 0.0747410
14011.2, 0.0746100
14049.2, 0.0743860
14087.4, 0.0740230
14125.8, 0.0734280
14164.3, 0.0727530
14203.2, 0.0719270
14242.2, 0.0710350
14281.4, 0.0700880
14320.9, 0.0691730
14360.5, 0.0683930
14400.4, 0.0676240
14440.5, 0.0668890
14480.9, 0.0661830
14521.4, 0.0654640
14562.2, 0.0647820
14603.3, 0.0640950
14644.5, 0.0633540
14686.0, 0.0624830
14727.7, 0.0615470
14769.7, 0.0606800
14811.9, 0.0598700
14854.3, 0.0589790
14897.0, 0.0580770
14939.9, 0.0572670
14983.1, 0.0563780
15026.5, 0.0554890
15070.2, 0.0544190
15114.2, 0.0533040
15158.3, 0.0519900
15202.8, 0.0507130
15247.5, 0.0496440
15292.5, 0.0483620
15337.7, 0.0470530
15383.2, 0.0458650
15429.0, 0.0447200
15475.1, 0.0433370
15521.4, 0.0419970
15568.0, 0.0407540
15614.9, 0.0395370
15662.1, 0.0384770
15709.6, 0.0374720
15757.3, 0.0362480
15805.4, 0.0351370
15853.7, 0.0345090
15902.3, 0.0344150
15951.2, 0.0345950
16000.5, 0.0348320
16050.0, 0.0355980
16099.8, 0.0366980
16150.0, 0.0380190
16200.5, 0.0402140
16251.3, 0.0433760
16302.4, 0.0479900
16353.8, 0.0538540
16405.5, 0.0595080
16457.6, 0.0655140
16510.0, 0.0713170
16562.8, 0.0761800
16615.9, 0.0803080
16669.3, 0.0831620
16723.1, 0.0854940
16777.2, 0.0871850
16831.7, 0.0878710
16886.5, 0.0880390
16941.7, 0.0879120
16997.2, 0.0872820
17053.1, 0.0860960
17109.4, 0.0848080
17166.1, 0.0831170
17223.1, 0.0814050
17280.5, 0.0798300
17338.3, 0.0781960
17396.5, 0.0763970
17455.1, 0.0746420
17514.0, 0.0728780
17573.4, 0.0707830
17633.2, 0.0683480
17693.4, 0.0657000
17754.0, 0.0627740
17815.0, 0.0600450
17876.4, 0.0575950
17938.3, 0.0551270
18000.5, 0.0529300
18063.3, 0.0517630
18126.4, 0.0514660
18190.0, 0.0522620
18254.1, 0.0543200
18318.6, 0.0576030
18383.5, 0.0621080
18449.0, 0.0677880
18514.9, 0.0749800
18581.2, 0.0831370
18648.0, 0.0917980
18715.4, 0.100741
18783.2, 0.109219
18851.5, 0.117058
18920.3, 0.124323
18989.6, 0.130341
19059.4, 0.135012
19129.7, 0.138612
19200.6, 0.141257
19272.0, 0.143147
19343.9, 0.144348
19416.3, 0.144838
19489.3, 0.144432
19562.8, 0.143130
19637.0, 0.141480
19711.6, 0.139300
19786.8, 0.137044
19862.6, 0.134574
19939.0, 0.131991
20016.0, 0.129172
20093.6, 0.125941
20171.8, 0.122598
20250.6, 0.119522
20330.0, 0.116791
20410.0, 0.114276
20490.7, 0.112296
20572.0, 0.111262
20654.0, 0.111258
20736.6, 0.111760
20819.9, 0.112210
20903.8, 0.112193
20988.5, 0.111261
21073.8, 0.109190
21159.8, 0.106064
21246.5, 0.101879
21334.0, 0.0970950
21422.1, 0.0917910
21511.0, 0.0863100
21600.7, 0.0813030
21691.0, 0.0767550
21782.1, 0.0727610
21874.0, 0.0694700
21966.7, 0.0666930
22060.2, 0.0641160
22154.5, 0.0620370
22249.6, 0.0601810
22345.5, 0.0579500
22442.2, 0.0555890
22539.8, 0.0532520
22638.2, 0.0510370
22737.5, 0.0489870
22837.7, 0.0471080
22938.7, 0.0454170
23040.7, 0.0440250
23143.5, 0.0430300
23247.3, 0.0421800
23352.1, 0.0413170
23457.7, 0.0407430
23564.4, 0.0403550
23672.0, 0.0401320
23780.5, 0.0398270
23890.1, 0.0397080
24000.7, 0.0397980
24112.3, 0.0399340
24225.0, 0.0401390
24338.7, 0.0401000
24453.5, 0.0398340
24569.4, 0.0396610
24686.4, 0.0388170
24804.5, 0.0376340
24923.8, 0.0366450
25044.2, 0.0361350
25165.8, 0.0366890
25288.6, 0.0388390
25412.5, 0.0434660
25537.7, 0.0509530
25664.1, 0.0607210
25791.8, 0.0718160
25920.8, 0.0830880
26051.1, 0.0936260
26182.6, 0.102389
26315.5, 0.109338
26449.8, 0.113158
26585.4, 0.115514
26722.5, 0.116227
26860.9, 0.115899
27000.8, 0.114158
27142.1, 0.111403
27285.0, 0.107766
27429.4, 0.103752
27575.3, 0.100014
27722.7, 0.0968160
27871.8, 0.0947770
28022.4, 0.0943790
28174.7, 0.0955500
28328.7, 0.0985080
28484.4, 0.102622
28641.7, 0.108128
28800.9, 0.114468
28961.8, 0.120917
29124.5, 0.127021
29289.0, 0.132777
29455.4, 0.137930
29623.8, 0.142193
29794.0, 0.145403
29966.3, 0.148325
30140.5, 0.150894
30316.7, 0.152175
30495.1, 0.152408
30675.5, 0.153414
30858.1, 0.154181
31042.8, 0.155260
31229.8, 0.155846
31419.1, 0.154955
31610.7, 0.153094
31804.6, 0.151232
32000.9, 0.149491
32199.7, 0.147892
32400.9, 0.146375
32604.8, 0.144928
32811.1, 0.142544
33020.1, 0.139433
33231.8, 0.139090
33446.2, 0.138848
33663.4, 0.137361
33883.4, 0.135489
34106.3, 0.133739
34332.1, 0.131401
34561.0, 0.128924
34792.9, 0.127225
35028.0, 0.125267
35266.3, 0.122031
35507.8, 0.119029
35752.7, 0.116492
36001.0, 0.114454
36252.8, 0.114213
36508.1, 0.112897
36767.0, 0.110976
37029.7, 0.108938
37296.1, 0.106896
37566.3, 0.104904
37840.5, 0.103751
38118.8, 0.102890
38401.2, 0.102498
38687.8, 0.102460
38978.6, 0.101962
39273.9, 0.100003
39573.7, 0.0994790
39878.1, 0.0994350
40187.3, 0.0972620
40501.2, 0.0952990
40820.0, 0.0944140
41144.0, 0.0936810
41473.2, 0.0924170
41807.6, 0.0911960
42147.5, 0.0897510
42493.0, 0.0876600
42844.2, 0.0855770
43201.2, 0.0839790
43564.3, 0.0822390
43933.5, 0.0797640
44309.0, 0.0786130
44691.0, 0.0778360
45079.6, 0.0771140
45475.0, 0.0769000
45877.5, 0.0765930
46287.1, 0.0758960
46704.2, 0.0745870
47128.7, 0.0735760
47561.1, 0.0753420
48001.5, 0.0773250
48450.1, 0.0760370
48907.2, 0.0749200
49373.0, 0.0736030
49847.7, 0.0747960
50331.5, 0.0747750
50825.0, 0.0736310
51328.2, 0.0723900
51841.5, 0.0724680
52365.1, 0.0737510
52899.4, 0.0751880
53444.8, 0.0769500
54001.5, 0.0806300
54570.1, 0.0827680
55150.6, 0.0833440
55743.6, 0.0835760
56349.5, 0.0832620
56968.7, 0.0832830
57601.7, 0.0842090
58248.9, 0.0836170
58910.9, 0.0842320
59588.1, 0.0865100
60281.0, 0.0888390
60990.2, 0.0917540
61716.3, 0.0933440
62459.8, 0.0939090
63221.6, 0.0946950
64002.1, 0.0972850
64802.1, 0.0999710
65622.1, 0.100620
66463.4, 0.102131
67326.6, 0.107460
68212.4, 0.115228
69121.9, 0.118203
70056.0, 0.120322
71015.7, 0.121937
72002.0, 0.124384
73016.3, 0.128263
74059.4, 0.132430
75132.7, 0.134150
76237.6, 0.137435
77375.5, 0.141631
78547.9, 0.141759
79756.3, 0.145445
81002.5, 0.148223
82288.5, 0.146329
83615.7, 0.144340
84986.5, 0.143822
86402.9, 0.144505
87867.4, 0.142705
89382.4, 0.138003
90950.5, 0.137854
92574.6, 0.148285
94257.2, 0.154458
96002.7, 0.155279
97814.1, 0.154538
99695.1, 0.155012
101650.0, 0.159288
103683.0, 0.168789
105799.0, 0.173014
108003.0, 0.166110
110301.0, 0.160392
112699.0, 0.155452
115204.0, 0.150310
117822.0, 0.154814
120562.0, 0.164295
123433.0, 0.161788
126443.0, 0.156247
129604.0, 0.161113
132926.0, 0.159539
136424.0, 0.156060
140111.0, 0.145617
144003.0, 0.131240
148118.0, 0.128187
152474.0, 0.162340
157095.0, 0.162711
162004.0, 0.162711
167231.0, 0.162711
172805.0, 0.162711
178764.0, 0.162711
185148.0, 0.162711
192005.0, 0.162711
199390.0, 0.162711
207366.0, 0.162711
216006.0, 0.162711
