Database of Origin, USGS Spectral Database
Sample Description, See USGS database for additional info
Date Added,2016-08-10 05:18:46.550699

Data ID,USGS_oli12          
Sample ID, olivine_gds71.16534
Mineral Name, olivine
Material Class,Nesosilicate

Wavelength
1409.5, 0.437190
1409.89, 0.437391
1410.27, 0.437859
1410.65, 0.437792
1411.04, 0.438394
1411.42, 0.438929
1411.81, 0.439264
1412.19, 0.439063
1412.58, 0.439397
1412.96, 0.440200
1413.35, 0.440267
1413.73, 0.440534
1414.12, 0.440401
1414.5, 0.440534
1414.89, 0.440534
1415.28, 0.440401
1415.66, 0.440735
1416.05, 0.441069
1416.44, 0.441136
1416.82, 0.441337
1417.21, 0.441671
1417.6, 0.441805
1417.98, 0.442139
1418.37, 0.442407
1418.76, 0.442608
1419.15, 0.442674
1419.54, 0.442541
1419.93, 0.443009
1420.32, 0.443678
1420.71, 0.443811
1421.09, 0.444079
1421.48, 0.444279
1421.88, 0.444614
1422.27, 0.444881
1422.66, 0.444681
1423.05, 0.444547
1423.44, 0.444948
1423.83, 0.445483
1424.22, 0.445885
1424.61, 0.445818
1425.0, 0.445751
1425.39, 0.446353
1425.78, 0.446353
1426.18, 0.446487
1426.57, 0.447155
1426.96, 0.447490
1427.36, 0.447757
1427.75, 0.447891
1428.14, 0.448092
1428.54, 0.448426
1428.93, 0.448827
1429.32, 0.449229
1429.72, 0.449229
1430.11, 0.449229
1430.51, 0.449296
1430.9, 0.449296
1431.3, 0.449563
1431.69, 0.449897
1432.09, 0.450299
1432.48, 0.450299
1432.88, 0.450232
1433.28, 0.450633
1433.67, 0.451168
1434.07, 0.451436
1434.46, 0.451503
1434.86, 0.451904
1435.26, 0.452171
1435.66, 0.452171
1436.05, 0.452572
1436.45, 0.452974
1436.85, 0.453308
1437.25, 0.453576
1437.65, 0.454111
1438.05, 0.454111
1438.44, 0.454245
1438.84, 0.454445
1439.24, 0.454579
1439.64, 0.454846
1440.04, 0.455181
1440.44, 0.455917
1440.84, 0.456050
1441.24, 0.456184
1441.65, 0.456251
1442.05, 0.456452
1442.45, 0.456853
1442.85, 0.457120
1443.25, 0.457923
1443.65, 0.458257
1444.05, 0.457990
1444.46, 0.457990
1444.86, 0.458592
1445.26, 0.459127
1445.67, 0.459260
1446.07, 0.459060
1446.47, 0.459194
1446.88, 0.459461
1447.28, 0.459862
1447.68, 0.460665
1448.09, 0.461267
1448.49, 0.461267
1448.9, 0.460999
1449.3, 0.461200
1449.71, 0.461401
1450.11, 0.461735
1450.52, 0.462003
1450.93, 0.461936
1451.33, 0.462404
1451.74, 0.462872
1452.14, 0.463340
1452.55, 0.463608
1452.96, 0.463808
1453.36, 0.464076
1453.77, 0.465012
1454.18, 0.465280
1454.59, 0.465480
1455.0, 0.465681
1455.41, 0.465948
1455.81, 0.466015
1456.22, 0.465948
1456.63, 0.466216
1457.04, 0.466617
1457.45, 0.467019
1457.86, 0.467085
1458.27, 0.467420
1458.68, 0.467687
1459.09, 0.467955
1459.5, 0.468022
1459.91, 0.468022
1460.32, 0.468490
1460.74, 0.469292
1461.15, 0.469426
1461.56, 0.469493
1461.97, 0.469961
1462.39, 0.470630
1462.8, 0.470964
1463.21, 0.471031
1463.62, 0.471031
1464.04, 0.471232
1464.45, 0.471767
1464.86, 0.471700
1465.28, 0.471633
1465.69, 0.472101
1466.11, 0.472436
1466.52, 0.472837
1466.94, 0.473038
1467.35, 0.473506
1467.77, 0.474041
1468.18, 0.474175
1468.6, 0.474442
1469.02, 0.475044
1469.43, 0.475378
1469.85, 0.475445
1470.27, 0.475579
1470.68, 0.476114
1471.1, 0.476515
1471.52, 0.476582
1471.94, 0.476783
1472.35, 0.476850
1472.77, 0.477050
1473.19, 0.477452
1473.61, 0.477719
1474.03, 0.477920
1474.45, 0.478120
1474.87, 0.478589
1475.29, 0.479191
1475.71, 0.479525
1476.13, 0.479659
1476.55, 0.479391
1476.97, 0.479792
1477.39, 0.480528
1477.81, 0.480996
1478.23, 0.481063
1478.65, 0.481398
1479.07, 0.481598
1479.5, 0.481799
1479.92, 0.481933
1480.34, 0.482802
1480.76, 0.483605
1481.19, 0.483605
1481.61, 0.483872
1482.03, 0.483805
1482.46, 0.484206
1482.88, 0.484942
1483.31, 0.485277
1483.73, 0.485477
1484.16, 0.485945
1484.58, 0.486347
1485.01, 0.486413
1485.43, 0.486480
1485.86, 0.486882
1486.28, 0.487550
1486.71, 0.487617
1487.14, 0.487617
1487.56, 0.487885
1487.99, 0.488353
1488.42, 0.489089
1488.84, 0.489490
1489.27, 0.489824
1489.7, 0.490493
1490.13, 0.491095
1490.56, 0.490761
1490.98, 0.490560
1491.41, 0.490761
1491.84, 0.491363
1492.27, 0.491831
1492.7, 0.492299
1493.13, 0.492633
1493.56, 0.492901
1493.99, 0.492968
1494.42, 0.493369
1494.85, 0.493570
1495.29, 0.493703
1495.72, 0.494372
1496.15, 0.494907
1496.58, 0.495041
1497.01, 0.495375
1497.44, 0.495777
1497.88, 0.495777
1498.31, 0.496512
1498.74, 0.496980
1499.18, 0.496914
1499.61, 0.497114
1500.04, 0.497449
1500.48, 0.497783
1500.91, 0.498184
1501.35, 0.498719
1501.78, 0.499254
1502.22, 0.499254
1502.65, 0.499455
1503.09, 0.499723
1503.53, 0.499990
1503.96, 0.500592
1504.4, 0.501060
1504.83, 0.501328
1505.27, 0.501595
1505.71, 0.502331
1506.15, 0.502598
1506.58, 0.502531
1507.02, 0.502598
1507.46, 0.503334
1507.9, 0.503936
1508.34, 0.504404
1508.78, 0.504605
1509.21, 0.504739
1509.66, 0.505140
1510.09, 0.505340
1510.53, 0.505474
1510.97, 0.505875
1511.42, 0.506210
1511.86, 0.506477
1512.3, 0.506745
1512.74, 0.507146
1513.18, 0.507481
1513.62, 0.508082
1514.06, 0.508417
1514.51, 0.508551
1514.95, 0.508684
1515.39, 0.508885
1515.83, 0.509086
1516.28, 0.509554
1516.72, 0.510156
1517.16, 0.510490
1517.61, 0.510758
1518.05, 0.511360
1518.5, 0.511761
1518.94, 0.511627
1519.39, 0.511493
1519.83, 0.511961
1520.28, 0.512697
1520.73, 0.513165
1521.17, 0.513366
1521.62, 0.513633
1522.07, 0.513834
1522.51, 0.514035
1522.96, 0.514436
1523.41, 0.514570
1523.85, 0.515038
1524.3, 0.515372
1524.75, 0.515573
1525.2, 0.515840
1525.65, 0.516041
1526.1, 0.516242
1526.55, 0.516643
1527.0, 0.516977
1527.45, 0.516977
1527.9, 0.517178
1528.35, 0.517245
1528.8, 0.517847
1529.25, 0.518582
1529.7, 0.518783
1530.15, 0.519051
1530.6, 0.519452
1531.05, 0.519853
1531.51, 0.520054
1531.96, 0.520388
1532.41, 0.520790
1532.87, 0.520923
1533.32, 0.520856
1533.77, 0.520723
1534.23, 0.521258
1534.68, 0.521726
1535.14, 0.522595
1535.59, 0.523197
1536.05, 0.523465
1536.5, 0.523532
1536.96, 0.523398
1537.41, 0.523732
1537.87, 0.524267
1538.32, 0.524200
1538.78, 0.524535
1539.24, 0.525003
1539.7, 0.525538
1540.15, 0.525739
1540.61, 0.525739
1541.07, 0.526140
1541.53, 0.526474
1541.98, 0.526942
1542.44, 0.527076
1542.9, 0.527678
1543.36, 0.528079
1543.82, 0.528347
1544.28, 0.528547
1544.74, 0.528614
1545.2, 0.528882
1545.66, 0.529350
1546.12, 0.529618
1546.59, 0.530019
1547.05, 0.530420
1547.51, 0.530353
1547.97, 0.530621
1548.43, 0.531022
1548.9, 0.531223
1549.36, 0.531290
1549.82, 0.531691
1550.29, 0.532025
1550.75, 0.532694
1551.21, 0.533028
1551.68, 0.533162
1552.14, 0.533430
1552.61, 0.533630
1553.07, 0.534032
1553.54, 0.534500
1554.0, 0.535102
1554.47, 0.535035
1554.93, 0.535035
1555.4, 0.535570
1555.87, 0.535971
1556.34, 0.536372
1556.8, 0.536640
1557.27, 0.536840
1557.74, 0.537242
1558.21, 0.537509
1558.68, 0.537911
1559.14, 0.538245
1559.61, 0.538245
1560.08, 0.538579
1560.55, 0.539248
1561.02, 0.539382
1561.49, 0.539516
1561.96, 0.539783
1562.43, 0.540051
1562.9, 0.540385
1563.38, 0.540786
1563.85, 0.541188
1564.32, 0.541188
1564.79, 0.541388
1565.26, 0.541856
1565.74, 0.542057
1566.21, 0.542525
1566.68, 0.542793
1567.16, 0.542793
1567.63, 0.543261
1568.1, 0.543796
1568.58, 0.544130
1569.05, 0.544398
1569.53, 0.544532
1570.0, 0.544532
1570.48, 0.544799
1570.96, 0.544933
1571.43, 0.545200
1571.91, 0.545468
1572.39, 0.545735
1572.86, 0.546271
1573.34, 0.546672
1573.82, 0.546939
1574.3, 0.547207
1574.77, 0.547408
1575.25, 0.547474
1575.73, 0.547809
1576.21, 0.548009
1576.69, 0.548076
1577.17, 0.548611
1577.65, 0.549013
1578.13, 0.549079
1578.61, 0.549013
1579.09, 0.549280
1579.57, 0.549614
1580.05, 0.549949
1580.54, 0.550216
1581.02, 0.550484
1581.5, 0.550818
1581.98, 0.551220
1582.47, 0.551487
1582.95, 0.551888
1583.43, 0.551888
1583.92, 0.552022
1584.4, 0.552290
1584.88, 0.552490
1585.37, 0.552691
1585.85, 0.552691
1586.34, 0.552958
1586.82, 0.553159
1587.31, 0.553761
1587.8, 0.554162
1588.28, 0.554162
1588.77, 0.554095
1589.26, 0.554497
1589.74, 0.554697
1590.23, 0.555032
1590.72, 0.555366
1591.21, 0.555232
1591.7, 0.555366
1592.19, 0.555901
1592.67, 0.556436
1593.16, 0.556570
1593.65, 0.556637
1594.14, 0.556637
1594.63, 0.556971
1595.12, 0.557239
1595.61, 0.557439
1596.11, 0.557573
1596.6, 0.557707
1597.09, 0.558041
1597.58, 0.558443
1598.08, 0.558710
1598.57, 0.558978
1599.06, 0.559045
1599.55, 0.558911
1600.05, 0.559312
1600.54, 0.559847
1601.04, 0.560115
1601.53, 0.560115
1602.03, 0.560315
1602.52, 0.560583
1603.02, 0.560783
1603.51, 0.561051
1604.01, 0.561385
1604.5, 0.561519
1605.0, 0.561653
1605.5, 0.561987
1606.0, 0.561987
1606.49, 0.562054
1606.99, 0.562522
1607.49, 0.562923
1607.99, 0.563191
1608.49, 0.563392
1608.99, 0.563793
1609.49, 0.563860
1609.99, 0.563927
1610.49, 0.564060
1610.99, 0.564328
1611.49, 0.564729
1611.99, 0.564863
1612.49, 0.564930
1612.99, 0.565465
1613.49, 0.565799
1614.0, 0.565866
1614.5, 0.565799
1615.0, 0.566067
1615.51, 0.566468
1616.01, 0.566669
1616.51, 0.566669
1617.02, 0.566669
1617.52, 0.567070
1618.03, 0.567471
1618.53, 0.567739
1619.04, 0.568006
1619.54, 0.568140
1620.05, 0.568341
1620.55, 0.568541
1621.06, 0.568742
1621.57, 0.569143
1622.08, 0.569210
1622.58, 0.569143
1623.09, 0.569344
1623.6, 0.569745
1624.11, 0.570147
1624.62, 0.570347
1625.13, 0.570681
1625.64, 0.571083
1626.15, 0.571350
1626.66, 0.571216
1627.17, 0.571283
1627.68, 0.571685
1628.19, 0.571885
1628.7, 0.572153
1629.21, 0.572287
1629.72, 0.572287
1630.24, 0.572353
1630.75, 0.572822
1631.26, 0.572888
1631.78, 0.573223
1632.29, 0.573691
1632.8, 0.573825
1633.32, 0.573758
1633.83, 0.573959
1634.35, 0.574092
1634.86, 0.574025
1635.38, 0.574159
1635.9, 0.574494
1636.41, 0.574895
1636.93, 0.575430
1637.45, 0.575631
1637.96, 0.575497
1638.48, 0.575430
1639.0, 0.575697
1639.52, 0.576166
1640.04, 0.576299
1640.56, 0.576366
1641.08, 0.576567
1641.59, 0.576634
1642.11, 0.576701
1642.63, 0.576768
1643.16, 0.577102
1643.68, 0.577570
1644.2, 0.577704
1644.72, 0.577771
1645.24, 0.577904
1645.76, 0.577971
1646.29, 0.578306
1646.81, 0.578239
1647.33, 0.578373
1647.86, 0.578707
1648.38, 0.578908
1648.9, 0.579041
1649.43, 0.579175
1649.95, 0.579309
1650.48, 0.579510
1651.0, 0.579643
1651.53, 0.579710
1652.06, 0.579978
1652.58, 0.580111
1653.11, 0.580178
1653.64, 0.580312
1654.17, 0.580446
1654.69, 0.580178
1655.22, 0.580379
1655.75, 0.580580
1656.28, 0.580580
1656.81, 0.580847
1657.34, 0.581182
1657.87, 0.581583
1658.4, 0.581516
1658.93, 0.581382
1659.46, 0.581382
1659.99, 0.581650
1660.52, 0.582185
1661.05, 0.582252
1661.59, 0.582385
1662.12, 0.582586
1662.65, 0.582452
1663.19, 0.582586
1663.72, 0.582987
1664.26, 0.582987
1664.79, 0.582987
1665.32, 0.583255
1665.86, 0.583389
1666.39, 0.583121
1666.93, 0.583188
1667.47, 0.583723
1668.0, 0.584124
1668.54, 0.584191
1669.08, 0.584258
1669.61, 0.584392
1670.15, 0.584726
1670.69, 0.584994
1671.23, 0.584927
1671.77, 0.584860
1672.31, 0.584927
1672.85, 0.585261
1673.39, 0.585529
1673.93, 0.585462
1674.47, 0.585462
1675.01, 0.585529
1675.55, 0.585662
1676.09, 0.585930
1676.64, 0.585997
1677.18, 0.585930
1677.72, 0.586064
1678.26, 0.586197
1678.81, 0.586131
1679.35, 0.586264
1679.89, 0.586799
1680.44, 0.586933
1680.98, 0.586799
1681.53, 0.587134
1682.07, 0.587268
1682.62, 0.587468
1683.17, 0.587869
1683.71, 0.588003
1684.26, 0.588070
1684.81, 0.587936
1685.36, 0.587936
1685.9, 0.588204
1686.45, 0.588538
1687.0, 0.588806
1687.55, 0.588739
1688.1, 0.588940
1688.65, 0.588940
1689.2, 0.589006
1689.75, 0.589207
1690.3, 0.589475
1690.85, 0.589809
1691.41, 0.590210
1691.96, 0.590143
1692.51, 0.590143
1693.06, 0.590277
1693.61, 0.590411
1694.17, 0.590545
1694.72, 0.590545
1695.28, 0.590745
1695.83, 0.590879
1696.39, 0.590678
1696.94, 0.590879
1697.5, 0.591080
1698.05, 0.591147
1698.61, 0.591147
1699.17, 0.591280
1699.72, 0.591615
1700.28, 0.591949
1700.84, 0.591815
1701.4, 0.592083
1701.95, 0.592350
1702.51, 0.592417
1703.07, 0.592350
1703.63, 0.592350
1704.19, 0.592484
1704.75, 0.592818
1705.31, 0.592952
1705.88, 0.593086
1706.44, 0.593019
1707.0, 0.592952
1707.56, 0.593153
1708.12, 0.593153
1708.69, 0.593354
1709.25, 0.593554
1709.81, 0.593621
1710.38, 0.593554
1710.94, 0.593755
1711.51, 0.593822
1712.07, 0.594089
1712.64, 0.594424
1713.2, 0.594223
1713.77, 0.594223
1714.34, 0.594491
1714.9, 0.594691
1715.47, 0.594892
1716.04, 0.595026
1716.61, 0.595026
1717.18, 0.594892
1717.74, 0.594959
1718.31, 0.595226
1718.88, 0.595494
1719.45, 0.595494
1720.02, 0.595494
1720.59, 0.595627
1721.17, 0.595828
1721.74, 0.595828
1722.31, 0.595828
1722.88, 0.595627
1723.45, 0.595627
1724.03, 0.596029
1724.6, 0.596162
1725.18, 0.596296
1725.75, 0.596296
1726.33, 0.596229
1726.9, 0.596162
1727.48, 0.596229
1728.05, 0.596430
1728.63, 0.596296
1729.2, 0.596363
1729.78, 0.596564
1730.36, 0.596764
1730.94, 0.596698
1731.51, 0.596698
1732.09, 0.596831
1732.67, 0.596898
1733.25, 0.596965
1733.83, 0.596898
1734.41, 0.596898
1734.99, 0.596898
1735.57, 0.597099
1736.15, 0.597500
1736.73, 0.597567
1737.32, 0.597500
1737.9, 0.597366
1738.48, 0.597433
1739.07, 0.597634
1739.65, 0.597768
1740.23, 0.597968
1740.82, 0.598169
1741.4, 0.598236
1741.99, 0.598370
1742.57, 0.598570
1743.16, 0.598905
1743.74, 0.598771
1744.33, 0.598503
1744.92, 0.598503
1745.51, 0.598236
1746.09, 0.598236
1746.68, 0.598637
1747.27, 0.598704
1747.86, 0.598771
1748.45, 0.598905
1749.04, 0.598771
1749.63, 0.598637
1750.22, 0.598838
1750.81, 0.599038
1751.4, 0.599239
1751.99, 0.599373
1752.59, 0.599506
1753.18, 0.599573
1753.77, 0.599774
1754.37, 0.599707
1754.96, 0.599841
1755.56, 0.599841
1756.15, 0.599841
1756.74, 0.600108
1757.34, 0.600242
1757.94, 0.600376
1758.53, 0.600175
1759.13, 0.600242
1759.73, 0.600376
1760.32, 0.600443
1760.92, 0.600643
1761.52, 0.600710
1762.12, 0.600777
1762.72, 0.600777
1763.32, 0.600777
1763.92, 0.600844
1764.52, 0.600978
1765.12, 0.601245
1765.72, 0.601379
1766.32, 0.601513
1766.92, 0.601714
1767.53, 0.601513
1768.13, 0.601446
1768.73, 0.601513
1769.34, 0.601647
1769.94, 0.601914
1770.55, 0.602115
1771.15, 0.602115
1771.76, 0.602182
1772.36, 0.602182
1772.97, 0.601914
1773.57, 0.601914
1774.18, 0.602315
1774.79, 0.602650
1775.4, 0.602717
1776.0, 0.602583
1776.61, 0.602784
1777.22, 0.602850
1777.83, 0.603051
1778.44, 0.603051
1779.05, 0.602917
1779.66, 0.603051
1780.27, 0.602917
1780.88, 0.603051
1781.5, 0.603252
1782.11, 0.603319
1782.72, 0.603118
1783.33, 0.603319
1783.95, 0.603452
1784.56, 0.603385
1785.18, 0.603319
1785.79, 0.603586
1786.41, 0.603787
1787.02, 0.603787
1787.64, 0.603987
1788.26, 0.603787
1788.87, 0.603586
1789.49, 0.603854
1790.11, 0.604255
1790.73, 0.604121
1791.35, 0.603921
1791.96, 0.603987
1792.58, 0.604121
1793.21, 0.604322
1793.83, 0.604522
1794.45, 0.604522
1795.07, 0.604322
1795.69, 0.604255
1796.31, 0.604522
1796.93, 0.604589
1797.56, 0.604456
1798.18, 0.604656
1798.8, 0.604790
1799.43, 0.604790
1800.05, 0.604723
1800.68, 0.604656
1801.3, 0.604723
1801.93, 0.604790
1802.56, 0.604857
1803.18, 0.604857
1803.81, 0.604924
1804.44, 0.605057
1805.07, 0.604991
1805.7, 0.604991
1806.33, 0.604790
1806.95, 0.604924
1807.58, 0.605124
1808.22, 0.605057
1808.85, 0.604924
1809.48, 0.604991
1810.11, 0.605124
1810.74, 0.605124
1811.38, 0.604790
1812.01, 0.604924
1812.64, 0.605124
1813.28, 0.605191
1813.91, 0.605459
1814.55, 0.605459
1815.18, 0.605526
1815.82, 0.605392
1816.45, 0.605459
1817.09, 0.605659
1817.73, 0.605459
1818.36, 0.605593
1819.0, 0.605593
1819.64, 0.605392
1820.28, 0.605392
1820.92, 0.605459
1821.56, 0.605392
1822.2, 0.605392
1822.84, 0.605659
1823.48, 0.605793
1824.12, 0.605994
1824.76, 0.606061
1825.41, 0.605659
1826.05, 0.605593
1826.69, 0.605927
1827.34, 0.605994
1827.98, 0.605793
1828.63, 0.605994
1829.27, 0.606061
1829.92, 0.606061
1830.56, 0.606061
1831.21, 0.606194
1831.86, 0.606261
1832.5, 0.606328
1833.15, 0.606462
1833.8, 0.606529
1834.45, 0.606462
1835.1, 0.606328
1835.75, 0.606261
1836.4, 0.606328
1837.05, 0.606462
1837.7, 0.606328
1838.35, 0.606596
1839.01, 0.606462
1839.66, 0.606395
1840.31, 0.606730
1840.96, 0.606730
1841.62, 0.606462
1842.27, 0.606730
1842.93, 0.606930
1843.58, 0.606796
1844.24, 0.606730
1844.9, 0.607064
1845.55, 0.607198
1846.21, 0.606462
1846.87, 0.606261
1847.53, 0.606663
1848.18, 0.606930
1848.84, 0.607198
1849.5, 0.607398
1850.16, 0.607465
1850.82, 0.607465
1851.48, 0.607599
1852.14, 0.607532
1852.81, 0.607398
1853.47, 0.607331
1854.13, 0.607599
1854.8, 0.607733
1855.46, 0.607599
1856.12, 0.607398
1856.79, 0.607800
1857.45, 0.608134
1858.12, 0.607933
1858.79, 0.607866
1859.45, 0.607866
1860.12, 0.608134
1860.79, 0.608134
1861.46, 0.608268
1862.12, 0.608335
1862.79, 0.608335
1863.46, 0.607933
1864.13, 0.607866
1864.8, 0.608201
1865.48, 0.608401
1866.15, 0.608535
1866.82, 0.608401
1867.49, 0.608000
1868.16, 0.608335
1868.84, 0.608535
1869.51, 0.608335
1870.19, 0.608201
1870.86, 0.608268
1871.54, 0.608535
1872.21, 0.608468
1872.89, 0.608067
1873.56, 0.608067
1874.24, 0.608335
1874.92, 0.608401
1875.6, 0.608535
1876.28, 0.608401
1876.96, 0.608335
1877.64, 0.608870
1878.32, 0.608936
1879.0, 0.608736
1879.68, 0.608669
1880.36, 0.608803
1881.04, 0.608936
1881.73, 0.608870
1882.41, 0.608803
1883.09, 0.608669
1883.78, 0.608803
1884.46, 0.609271
1885.15, 0.609271
1885.83, 0.609003
1886.52, 0.608669
1887.21, 0.608736
1887.89, 0.608736
1888.58, 0.608736
1889.27, 0.608335
1889.96, 0.608000
1890.65, 0.608268
1891.34, 0.608268
1892.03, 0.608268
1892.72, 0.608468
1893.41, 0.608401
1894.1, 0.608335
1894.79, 0.608335
1895.49, 0.608468
1896.18, 0.608468
1896.87, 0.608468
1897.57, 0.608669
1898.26, 0.608401
1898.96, 0.607733
1899.65, 0.607599
1900.35, 0.608067
1901.05, 0.608268
1901.74, 0.608201
1902.44, 0.607800
1903.14, 0.608067
1903.84, 0.608268
1904.54, 0.607866
1905.24, 0.607465
1905.94, 0.607666
1906.64, 0.607733
1907.34, 0.607733
1908.04, 0.607800
1908.75, 0.607800
1909.45, 0.607733
1910.15, 0.607666
1910.86, 0.607465
1911.56, 0.607331
1912.27, 0.607331
1912.97, 0.607264
1913.68, 0.607331
1914.39, 0.607599
1915.09, 0.607733
1915.8, 0.607666
1916.51, 0.607465
1917.22, 0.607465
1917.93, 0.607599
1918.64, 0.607532
1919.35, 0.607198
1920.06, 0.607064
1920.77, 0.607331
1921.48, 0.607733
1922.19, 0.607733
1922.91, 0.607599
1923.62, 0.607532
1924.33, 0.607599
1925.05, 0.607800
1925.76, 0.607800
1926.48, 0.607599
1927.19, 0.607599
1927.91, 0.607666
1928.63, 0.607866
1929.35, 0.608067
1930.07, 0.608000
1930.78, 0.608067
1931.5, 0.607933
1932.22, 0.608000
1932.94, 0.608134
1933.66, 0.608201
1934.39, 0.608201
1935.11, 0.608134
1935.83, 0.607933
1936.55, 0.608000
1937.28, 0.608134
1938.0, 0.608067
1938.73, 0.608067
1939.45, 0.608201
1940.18, 0.608401
1940.9, 0.608602
1941.63, 0.608602
1942.36, 0.608535
1943.09, 0.608468
1943.81, 0.608736
1944.54, 0.608870
1945.27, 0.608669
1946.0, 0.608602
1946.73, 0.608669
1947.47, 0.608870
1948.2, 0.609137
1948.93, 0.608936
1949.66, 0.608736
1950.4, 0.608736
1951.13, 0.608803
1951.86, 0.609003
1952.6, 0.609137
1953.34, 0.609070
1954.07, 0.609070
1954.81, 0.609070
1955.55, 0.609070
1956.29, 0.609137
1957.02, 0.609204
1957.76, 0.609204
1958.5, 0.609003
1959.24, 0.608936
1959.98, 0.609070
1960.72, 0.609003
1961.47, 0.609137
1962.21, 0.609405
1962.95, 0.609405
1963.7, 0.609338
1964.44, 0.609605
1965.18, 0.609471
1965.93, 0.609204
1966.67, 0.609338
1967.42, 0.609471
1968.17, 0.609137
1968.92, 0.609003
1969.66, 0.609137
1970.41, 0.609204
1971.16, 0.609405
1971.91, 0.609338
1972.66, 0.609137
1973.41, 0.609204
1974.16, 0.609338
1974.92, 0.609338
1975.67, 0.609271
1976.42, 0.609471
1977.18, 0.609471
1977.93, 0.609271
1978.69, 0.609271
1979.44, 0.609471
1980.2, 0.609471
1980.95, 0.609538
1981.71, 0.609605
1982.47, 0.609672
1983.23, 0.609471
1983.99, 0.609070
1984.74, 0.609137
1985.51, 0.609605
1986.27, 0.609672
1987.03, 0.609471
1987.79, 0.609338
1988.55, 0.609204
1989.32, 0.609271
1990.08, 0.609271
1990.84, 0.609338
1991.61, 0.609338
1992.37, 0.609405
1993.14, 0.609471
1993.9, 0.609338
1994.67, 0.609204
1995.44, 0.609338
1996.21, 0.609471
1996.98, 0.609538
1997.75, 0.609538
1998.52, 0.609405
1999.29, 0.609405
2000.06, 0.609405
2000.83, 0.609605
2001.6, 0.609538
2002.38, 0.609672
2003.15, 0.609873
2003.93, 0.609873
2004.7, 0.609739
2005.48, 0.609940
2006.25, 0.609940
2007.03, 0.609605
2007.81, 0.609538
2008.58, 0.609739
2009.36, 0.609873
2010.14, 0.609739
2010.92, 0.609672
2011.7, 0.609739
2012.48, 0.609739
2013.26, 0.609672
2014.05, 0.609739
2014.83, 0.610007
2015.61, 0.609873
2016.4, 0.609739
2017.18, 0.609940
2017.97, 0.610007
2018.75, 0.609940
2019.54, 0.610073
2020.32, 0.610140
2021.11, 0.610073
2021.9, 0.609940
2022.69, 0.609940
2023.48, 0.610073
2024.27, 0.610274
2025.06, 0.610274
2025.85, 0.610207
2026.64, 0.609940
2027.44, 0.610140
2028.23, 0.610274
2029.02, 0.610542
2029.82, 0.610742
2030.61, 0.610742
2031.41, 0.610475
2032.2, 0.610475
2033.0, 0.610675
2033.8, 0.610542
2034.6, 0.610542
2035.4, 0.610742
2036.2, 0.610876
2037.0, 0.610742
2037.8, 0.610608
2038.6, 0.610675
2039.4, 0.610742
2040.2, 0.611010
2041.01, 0.611277
2041.81, 0.611077
2042.61, 0.610943
2043.42, 0.611210
2044.22, 0.611277
2045.03, 0.611277
2045.84, 0.611077
2046.65, 0.611010
2047.46, 0.611411
2048.26, 0.611612
2049.07, 0.611478
2049.88, 0.611612
2050.69, 0.611545
2051.51, 0.611545
2052.32, 0.611612
2053.13, 0.611678
2053.94, 0.611545
2054.76, 0.611612
2055.57, 0.611612
2056.39, 0.611612
2057.2, 0.611478
2058.02, 0.611612
2058.84, 0.611879
2059.66, 0.611946
2060.48, 0.611745
2061.29, 0.611812
2062.11, 0.612013
2062.94, 0.612080
2063.76, 0.612147
2064.58, 0.611879
2065.4, 0.611745
2066.22, 0.611812
2067.05, 0.611946
2067.87, 0.612013
2068.7, 0.611879
2069.52, 0.611812
2070.35, 0.611879
2071.18, 0.612013
2072.0, 0.612013
2072.83, 0.611812
2073.66, 0.611945
2074.49, 0.612609
2075.32, 0.612742
2076.15, 0.612343
2076.98, 0.612343
2077.82, 0.612343
2078.65, 0.612144
2079.48, 0.611347
2080.32, 0.611215
2081.15, 0.611879
2081.99, 0.612675
2082.83, 0.612277
2083.66, 0.611480
2084.5, 0.611414
2085.34, 0.611945
2086.18, 0.611945
2087.02, 0.611679
2087.86, 0.612410
2088.7, 0.612742
2089.54, 0.612675
2090.39, 0.612211
2091.23, 0.612144
2092.07, 0.612011
2092.92, 0.611746
2093.76, 0.611480
2094.61, 0.611613
2095.45, 0.612011
2096.3, 0.612343
2097.15, 0.612675
2098.0, 0.612609
2098.85, 0.612078
2099.7, 0.612078
2100.55, 0.611613
2101.4, 0.611414
2102.25, 0.610949
2103.1, 0.611547
2103.96, 0.612277
2104.81, 0.612211
2105.67, 0.612211
2106.52, 0.612078
2107.38, 0.611812
2108.24, 0.611945
2109.09, 0.612078
2109.95, 0.611879
2110.81, 0.611281
2111.67, 0.611015
2112.53, 0.610883
2113.39, 0.610750
2114.25, 0.610551
2115.12, 0.610152
2115.98, 0.610086
2116.84, 0.610484
2117.71, 0.610816
2118.58, 0.610949
2119.44, 0.610617
2120.31, 0.610684
2121.18, 0.610949
2122.04, 0.610750
2122.91, 0.610551
2123.78, 0.610285
2124.65, 0.610418
2125.52, 0.610152
2126.4, 0.609953
2127.27, 0.609887
2128.14, 0.609887
2129.02, 0.610020
2129.89, 0.609820
2130.77, 0.610020
2131.64, 0.610484
2132.52, 0.610883
2133.4, 0.610617
2134.27, 0.610352
2135.15, 0.610152
2136.03, 0.609820
2136.91, 0.610086
2137.79, 0.609820
2138.68, 0.609887
2139.56, 0.609688
2140.44, 0.609887
2141.33, 0.609754
2142.21, 0.609754
2143.1, 0.609953
2143.99, 0.610020
2144.87, 0.610086
2145.76, 0.610418
2146.65, 0.610219
2147.54, 0.609289
2148.43, 0.609820
2149.32, 0.609887
2150.21, 0.609289
2151.1, 0.609555
2151.99, 0.610020
2152.89, 0.610219
2153.78, 0.609555
2154.68, 0.609356
2155.57, 0.610152
2156.47, 0.610352
2157.37, 0.610152
2158.27, 0.610152
2159.16, 0.610152
2160.06, 0.610020
2160.96, 0.609953
2161.86, 0.610020
2162.77, 0.609953
2163.67, 0.610551
2164.57, 0.610418
2165.48, 0.610285
2166.38, 0.610484
2167.29, 0.610551
2168.2, 0.609953
2169.1, 0.609621
2170.01, 0.610020
2170.92, 0.610086
2171.83, 0.609555
2172.74, 0.609621
2173.65, 0.610152
2174.56, 0.610352
2175.47, 0.610152
2176.39, 0.610219
2177.3, 0.610219
2178.22, 0.610418
2179.13, 0.610086
2180.05, 0.610285
2180.96, 0.610418
2181.88, 0.610352
2182.8, 0.610883
2183.72, 0.611015
2184.64, 0.610617
2185.56, 0.611082
2186.48, 0.611148
2187.41, 0.610750
2188.33, 0.610750
2189.25, 0.610551
2190.18, 0.610684
2191.1, 0.610816
2192.03, 0.610750
2192.96, 0.610750
2193.89, 0.611015
2194.82, 0.610883
2195.74, 0.610816
2196.68, 0.610883
2197.61, 0.611015
2198.54, 0.611347
2199.47, 0.610684
2200.4, 0.610551
2201.34, 0.610816
2202.28, 0.610750
2203.21, 0.610816
2204.15, 0.610750
2205.08, 0.610551
2206.02, 0.610883
2206.96, 0.610883
2207.9, 0.610949
2208.84, 0.610949
2209.78, 0.610750
2210.73, 0.610418
2211.67, 0.610418
2212.61, 0.610285
2213.56, 0.610551
2214.5, 0.610219
2215.45, 0.609887
2216.4, 0.609953
2217.35, 0.610551
2218.3, 0.611015
2219.24, 0.610617
2220.2, 0.609754
2221.15, 0.609754
2222.1, 0.610020
2223.05, 0.610020
2224.0, 0.609953
2224.96, 0.609820
2225.91, 0.609820
2226.87, 0.609621
2227.83, 0.609688
2228.79, 0.609223
2229.74, 0.608891
2230.7, 0.609090
2231.66, 0.609289
2232.63, 0.609422
2233.59, 0.609289
2234.55, 0.609156
2235.51, 0.608692
2236.48, 0.608493
2237.44, 0.608360
2238.41, 0.608227
2239.38, 0.608094
2240.34, 0.608094
2241.31, 0.607762
2242.28, 0.607762
2243.25, 0.607364
2244.22, 0.607430
2245.19, 0.607297
2246.17, 0.607297
2247.14, 0.607297
2248.12, 0.607231
2249.09, 0.607165
2250.07, 0.606700
2251.04, 0.606235
2252.02, 0.606501
2253.0, 0.606899
2253.98, 0.606634
2254.96, 0.606102
2255.94, 0.605571
2256.92, 0.605638
2257.91, 0.605638
2258.89, 0.605306
2259.88, 0.605438
2260.86, 0.605306
2261.85, 0.604841
2262.83, 0.604907
2263.82, 0.604974
2264.81, 0.604708
2265.8, 0.604775
2266.79, 0.604841
2267.78, 0.604642
2268.78, 0.603978
2269.77, 0.603646
2270.76, 0.603779
2271.76, 0.604177
2272.75, 0.604111
2273.75, 0.603911
2274.75, 0.603779
2275.75, 0.603513
2276.75, 0.603314
2277.75, 0.603181
2278.75, 0.603115
2279.75, 0.602916
2280.75, 0.603248
2281.76, 0.603447
2282.76, 0.602982
2283.77, 0.602916
2284.77, 0.603048
2285.78, 0.602517
2286.79, 0.602451
2287.8, 0.602517
2288.81, 0.602318
2289.82, 0.602318
2290.83, 0.602119
2291.84, 0.602252
2292.86, 0.602584
2293.87, 0.602716
2294.89, 0.602318
2295.91, 0.602052
2296.92, 0.601588
2297.94, 0.601455
2298.96, 0.601389
2299.98, 0.601588
2301.0, 0.601720
2302.02, 0.601256
2303.04, 0.601123
2304.07, 0.600990
2305.09, 0.600525
2306.12, 0.600459
2307.15, 0.600061
2308.17, 0.599928
2309.2, 0.599198
2310.23, 0.598866
2311.26, 0.598733
2312.29, 0.599198
2313.32, 0.599330
2314.35, 0.599198
2315.39, 0.598534
2316.42, 0.598467
2317.46, 0.598202
2318.5, 0.597604
2319.53, 0.597139
2320.57, 0.596741
2321.61, 0.596807
2322.65, 0.596940
2323.69, 0.596608
2324.73, 0.596741
2325.78, 0.597139
2326.82, 0.597670
2327.86, 0.597604
2328.91, 0.597538
2329.96, 0.597604
2331.01, 0.598135
2332.05, 0.598666
2333.1, 0.598534
2334.15, 0.598268
2335.21, 0.598202
2336.26, 0.598069
2337.31, 0.598268
2338.36, 0.598401
2339.42, 0.598799
2340.48, 0.599065
2341.53, 0.599596
2342.59, 0.599994
2343.65, 0.600525
2344.71, 0.601057
2345.77, 0.601521
2346.83, 0.601654
2347.9, 0.601986
2348.96, 0.602517
2350.02, 0.602517
2351.09, 0.602849
2352.16, 0.603380
2353.23, 0.603579
2354.29, 0.603712
2355.36, 0.603712
2356.43, 0.603779
2357.51, 0.603646
2358.58, 0.603579
2359.65, 0.603513
2360.73, 0.603712
2361.8, 0.603579
2362.88, 0.603447
2363.96, 0.603513
2365.03, 0.603579
2366.11, 0.603779
2367.19, 0.603646
2368.27, 0.603447
2369.36, 0.603447
2370.44, 0.602783
2371.53, 0.602650
2372.61, 0.602584
2373.7, 0.602716
2374.78, 0.602716
2375.87, 0.602517
2376.96, 0.602252
2378.05, 0.602052
2379.14, 0.601654
2380.24, 0.601588
2381.33, 0.601720
2382.42, 0.601654
2383.52, 0.601123
2384.61, 0.601123
2385.71, 0.600990
2386.81, 0.600924
2387.91, 0.601189
2389.01, 0.601455
2390.11, 0.601322
2391.22, 0.601322
2392.32, 0.601123
2393.42, 0.601256
2394.53, 0.601256
2395.64, 0.601189
2396.74, 0.601189
2397.85, 0.600857
2398.96, 0.600459
2400.07, 0.600658
2401.18, 0.600791
2402.3, 0.600592
2403.41, 0.600061
2404.52, 0.600127
2405.64, 0.600525
2406.76, 0.600592
2407.88, 0.600393
2408.99, 0.600326
2410.11, 0.599928
2411.23, 0.599928
2412.36, 0.600193
2413.48, 0.600459
2414.6, 0.600326
2415.73, 0.600127
2416.85, 0.599994
2417.98, 0.599861
2419.11, 0.599530
2420.24, 0.599264
2421.37, 0.599131
2422.5, 0.599065
2423.64, 0.599198
2424.77, 0.599264
2425.9, 0.599264
2427.04, 0.599596
2428.18, 0.599397
2429.31, 0.599397
2430.45, 0.598866
2431.59, 0.598600
2432.73, 0.598534
2433.88, 0.598334
2435.02, 0.598401
2436.16, 0.598666
2437.31, 0.598866
2438.45, 0.599065
2439.6, 0.599198
2440.75, 0.598932
2441.9, 0.598666
2443.05, 0.598666
2444.2, 0.598401
2445.35, 0.598534
2446.51, 0.598600
2447.67, 0.598401
2448.82, 0.598401
2449.98, 0.598534
2451.14, 0.598733
2452.3, 0.598866
2453.46, 0.598998
2454.62, 0.599131
2455.78, 0.599065
2456.94, 0.598932
2458.11, 0.598932
2459.28, 0.599198
2460.44, 0.599596
2461.61, 0.599928
2462.78, 0.599463
2463.95, 0.599397
2465.12, 0.599397
2466.3, 0.599530
2467.47, 0.599530
2468.65, 0.599729
2469.82, 0.599463
2471.0, 0.599397
2472.18, 0.599330
2473.36, 0.598866
2474.54, 0.598799
2475.72, 0.598866
2476.9, 0.598534
2478.08, 0.598401
2479.27, 0.598401
2480.46, 0.598534
2481.64, 0.598467
2482.83, 0.598334
2484.02, 0.598135
2485.21, 0.598135
2486.4, 0.597870
2487.6, 0.597538
2488.79, 0.597670
2489.99, 0.597870
2491.18, 0.597604
2492.38, 0.597604
2493.58, 0.597073
2494.78, 0.596807
2495.98, 0.596940
2497.18, 0.596874
2498.39, 0.596874
2499.59, 0.596807
2500.8, 0.596675
2502.01, 0.596608
2503.21, 0.596343
2504.42, 0.596276
2505.63, 0.596077
2506.84, 0.595812
2508.06, 0.595480
2509.27, 0.595612
2510.49, 0.595480
2511.7, 0.595812
2512.92, 0.595679
2514.14, 0.595148
2515.36, 0.595413
2516.58, 0.595480
2517.8, 0.595612
2519.03, 0.596011
2520.25, 0.595944
2521.48, 0.595878
2522.7, 0.595878
2523.93, 0.595944
2525.16, 0.596276
2526.39, 0.596343
2527.62, 0.596409
2528.86, 0.596608
2530.09, 0.596343
2531.33, 0.595878
2532.56, 0.595878
2533.8, 0.596608
2535.04, 0.596143
2536.28, 0.596077
2537.52, 0.596741
2538.76, 0.597139
2540.01, 0.596874
2541.25, 0.596011
2542.5, 0.594882
2543.75, 0.595413
2544.99, 0.596011
2546.24, 0.595878
2547.49, 0.594948
2548.75, 0.595081
2550.0, 0.595148
2551.26, 0.594882
2552.51, 0.594417
2553.77, 0.595480
2555.03, 0.596077
2556.29, 0.596077
2557.55, 0.595878
2558.81, 0.594948
2560.08, 0.592757
2561.34, 0.591363
2562.61, 0.591629
2563.88, 0.592359
2565.14, 0.594218
2566.41, 0.595413
2567.68, 0.594616
2568.96, 0.592890
2570.23, 0.593687
2571.51, 0.594816
2572.78, 0.592359
2574.06, 0.593156
2575.34, 0.593886
2576.62, 0.592957
2577.9, 0.594749
2579.18, 0.595546
2580.47, 0.593621
2581.75, 0.593222
2583.04, 0.590832
2584.32, 0.591562
2585.61, 0.593952
2586.9, 0.592824
2588.2, 0.593355
2589.49, 0.594749
2590.78, 0.595745
2592.08, 0.593886
2593.37, 0.587446
2594.67, 0.583595
2595.97, 0.590367
2597.27, 0.595347
2598.57, 0.596542
2599.88, 0.595546
2601.18, 0.594284
2602.49, 0.593554
2603.79, 0.591761
2605.1, 0.590434
2606.41, 0.592425
2607.72, 0.593820
2609.03, 0.594218
2610.35, 0.595413
2611.66, 0.595679
2612.98, 0.595081
2614.3, 0.595280
2615.62, 0.591761
2616.94, 0.590367
2618.26, 0.593421
2619.58, 0.591695
2620.91, 0.593023
2622.23, 0.596807
2623.56, 0.597139
2624.89, 0.595081
2626.22, 0.591961
2627.55, 0.593952
2628.88, 0.592824
2630.21, 0.589903
2631.55, 0.593554
2632.89, 0.594550
2634.22, 0.594616
2635.56, 0.596276
2636.9, 0.596675
2638.25, 0.596475
2639.59, 0.595812
2640.93, 0.595081
2642.28, 0.594816
2643.63, 0.594882
2644.98, 0.593289
2646.33, 0.593156
2647.68, 0.594284
2649.03, 0.594152
2650.39, 0.592824
2651.74, 0.590434
2653.1, 0.590434
2654.46, 0.590566
2655.82, 0.590102
2657.18, 0.591098
2658.54, 0.589172
2659.9, 0.588176
2661.27, 0.588176
2662.64, 0.587247
2664.01, 0.582201
2665.38, 0.578483
2666.74, 0.578881
2668.12, 0.580674
2669.49, 0.575097
2670.87, 0.574566
2672.24, 0.579147
2673.62, 0.576757
2675.0, 0.571047
2676.38, 0.565138
2677.76, 0.562150
2679.15, 0.558034
2680.54, 0.554980
2681.92, 0.548805
2683.31, 0.540705
2684.7, 0.532937
2686.09, 0.524572
2687.48, 0.516804
2688.88, 0.508571
2690.27, 0.498944
2691.67, 0.487325
2693.07, 0.472387
2694.47, 0.458245
2695.87, 0.443307
2697.27, 0.423787
2698.67, 0.398624
2700.08, 0.373461
2701.49, 0.354539
2702.9, 0.341924
2704.31, 0.330438
2705.72, 0.320347
2707.13, 0.311649
2708.54, 0.304279
2709.96, 0.298503
2711.38, 0.296843
2712.8, 0.297507
2714.22, 0.297773
2715.64, 0.299566
2717.06, 0.302686
2718.49, 0.306404
2719.91, 0.309525
2721.34, 0.317160
2722.77, 0.322803
2724.2, 0.326123
2725.63, 0.331766
2727.07, 0.336679
2728.5, 0.339933
2729.94, 0.341991
2731.38, 0.343451
2732.82, 0.343783
2734.26, 0.343252
2735.7, 0.344447
2737.15, 0.344182
2738.59, 0.341725
2740.04, 0.341592
2741.49, 0.344381
2742.94, 0.347767
2744.39, 0.350223
2745.84, 0.352746
2747.3, 0.355469
2748.76, 0.358655
2750.21, 0.361577
2751.67, 0.363768
2753.14, 0.365427
2754.6, 0.365096
2756.06, 0.368482
2757.53, 0.372797
2759.0, 0.374324
2760.46, 0.374656
2761.94, 0.373859
2763.41, 0.374656
2764.88, 0.375652
2766.36, 0.374391
2767.83, 0.373859
2769.31, 0.374789
2770.79, 0.375785
2772.27, 0.377710
2773.76, 0.378839
2775.24, 0.378773
2776.73, 0.378573
2778.22, 0.378706
2779.71, 0.378773
2781.2, 0.378972
2782.69, 0.379768
2784.18, 0.380100
2785.68, 0.379038
2787.18, 0.378905
2788.68, 0.380167
2790.18, 0.380764
2791.68, 0.380300
2793.19, 0.379569
2794.69, 0.379304
2796.2, 0.378905
2797.71, 0.378042
2799.22, 0.377445
2800.73, 0.376913
2802.24, 0.376515
2803.76, 0.377378
2805.28, 0.379104
2806.8, 0.380034
2808.32, 0.380565
2809.84, 0.381362
2811.36, 0.382159
2812.89, 0.382690
2814.42, 0.383022
2815.94, 0.383686
2817.48, 0.383752
2819.01, 0.383752
2820.54, 0.384416
2822.08, 0.385080
2823.61, 0.385611
2825.15, 0.386209
2826.69, 0.386740
2828.23, 0.387005
2829.78, 0.387005
2831.32, 0.386806
2832.87, 0.386873
2834.42, 0.387005
2835.97, 0.387470
2837.52, 0.387802
2839.08, 0.388200
2840.63, 0.388731
2842.19, 0.389395
2843.75, 0.390059
2845.31, 0.390391
2846.87, 0.390790
2848.44, 0.391321
2850.0, 0.391586
2851.57, 0.391852
2853.14, 0.391985
2854.71, 0.392317
2856.28, 0.392981
2857.86, 0.393246
2859.43, 0.393246
2861.01, 0.393379
2862.59, 0.393844
2864.17, 0.394109
2865.76, 0.393977
2867.34, 0.394242
2868.93, 0.394574
2870.52, 0.394574
2872.11, 0.394640
2873.7, 0.394840
2875.29, 0.395172
2876.89, 0.395636
2878.49, 0.395968
2880.08, 0.396035
2881.69, 0.395902
2883.29, 0.396168
2884.89, 0.396632
2886.5, 0.396699
2888.11, 0.396964
2889.72, 0.397429
2891.33, 0.397894
2892.94, 0.397894
2894.56, 0.397894
2896.17, 0.398226
2897.79, 0.398558
2899.42, 0.398624
2901.04, 0.398823
2902.66, 0.399155
2904.29, 0.399421
2905.92, 0.399686
2907.55, 0.399886
2909.18, 0.399819
2910.81, 0.400151
2912.45, 0.400682
2914.08, 0.400948
2915.72, 0.401147
2917.36, 0.401545
2919.01, 0.401877
2920.65, 0.402010
2922.3, 0.402342
2923.94, 0.402608
2925.59, 0.402940
2927.25, 0.403338
2928.9, 0.403736
2930.56, 0.404135
2932.21, 0.404533
2933.87, 0.404998
2935.53, 0.405263
2937.2, 0.405330
2938.86, 0.405595
2940.53, 0.406193
2942.2, 0.406658
2943.87, 0.406990
2945.54, 0.407388
2947.22, 0.407587
2948.89, 0.407985
2950.57, 0.408583
2952.25, 0.409181
2953.93, 0.409446
2955.62, 0.409844
2957.3, 0.410508
2958.99, 0.411040
2960.68, 0.411172
2962.37, 0.411703
2964.07, 0.412235
2965.76, 0.412633
2967.46, 0.412965
2969.16, 0.413430
2970.86, 0.413828
2972.56, 0.414359
2974.27, 0.415023
2975.98, 0.415621
2977.69, 0.416019
2979.4, 0.416417
2981.11, 0.416882
2982.83, 0.417413
2984.54, 0.417878
2986.26, 0.418343
2987.98, 0.418808
2989.71, 0.419339
2991.43, 0.419936
2993.16, 0.420335
2994.89, 0.420799
2996.62, 0.421264
2998.35, 0.421862
3000.09, 0.422393
3001.83, 0.422658
3003.57, 0.422858
3005.31, 0.423322
3007.05, 0.423787
3008.79, 0.424318
3010.54, 0.424717
3012.29, 0.425181
3014.04, 0.425779
3015.8, 0.426310
3017.55, 0.426642
3019.31, 0.426974
3021.07, 0.427505
3022.83, 0.427970
3024.59, 0.428368
3026.36, 0.428966
3028.13, 0.429430
3029.9, 0.429829
3031.67, 0.430028
3033.44, 0.430493
3035.22, 0.431090
3037.0, 0.431356
3038.78, 0.431621
3040.56, 0.432086
3042.34, 0.432485
3044.13, 0.432949
3045.92, 0.433414
3047.71, 0.433879
3049.5, 0.433945
3051.3, 0.434144
3053.09, 0.434742
3054.89, 0.435273
3056.69, 0.435605
3058.5, 0.435738
3060.3, 0.436136
3062.11, 0.436734
3063.92, 0.436999
3065.73, 0.437132
3067.55, 0.437530
3069.36, 0.437929
3071.18, 0.438194
3073.0, 0.438460
3074.82, 0.438725
3076.65, 0.439257
3078.48, 0.439389
3080.31, 0.439522
3082.14, 0.439987
3083.97, 0.440319
3085.8, 0.440584
3087.64, 0.440916
3089.48, 0.441448
3091.33, 0.441647
3093.17, 0.441912
3095.02, 0.442244
3096.87, 0.442377
3098.72, 0.442709
3100.57, 0.443107
3102.43, 0.443307
3104.28, 0.443373
3106.14, 0.443705
3108.01, 0.444236
3109.87, 0.444502
3111.74, 0.444900
3113.61, 0.445166
3115.48, 0.445298
3117.35, 0.445431
3119.23, 0.445962
3121.1, 0.446361
3122.98, 0.446693
3124.87, 0.447025
3126.75, 0.447224
3128.64, 0.447489
3130.53, 0.447954
3132.42, 0.448153
3134.31, 0.448552
3136.21, 0.449016
3138.11, 0.449348
3140.01, 0.449548
3141.91, 0.449879
3143.82, 0.450344
3145.73, 0.450676
3147.64, 0.451141
3149.55, 0.451340
3151.46, 0.451606
3153.38, 0.452070
3155.3, 0.452402
3157.22, 0.452801
3159.14, 0.453266
3161.07, 0.453531
3163.0, 0.453863
3164.93, 0.454062
3166.86, 0.454328
3168.8, 0.454793
3170.74, 0.455125
3172.68, 0.455457
3174.62, 0.455788
3176.56, 0.455921
3178.51, 0.456187
3180.46, 0.456386
3182.42, 0.456784
3184.37, 0.457116
3186.33, 0.457382
3188.29, 0.457581
3190.25, 0.457847
3192.21, 0.458311
3194.18, 0.458577
3196.15, 0.458776
3198.12, 0.459241
3200.09, 0.459573
3202.07, 0.459639
3204.05, 0.459706
3206.03, 0.460038
3208.02, 0.460237
3210.0, 0.460502
3211.99, 0.460834
3213.98, 0.460901
3215.98, 0.461100
3217.97, 0.461366
3219.97, 0.461697
3221.97, 0.461897
3223.98, 0.462029
3225.98, 0.462162
3227.99, 0.462295
3230.0, 0.462361
3232.02, 0.462428
3234.03, 0.462627
3236.05, 0.463025
3238.07, 0.463424
3240.1, 0.463756
3242.12, 0.463888
3244.15, 0.463955
3246.18, 0.463822
3248.22, 0.464088
3250.25, 0.464486
3252.29, 0.464818
3254.33, 0.465150
3256.38, 0.465349
3258.43, 0.465415
3260.47, 0.465482
3262.53, 0.465747
3264.58, 0.466146
3266.64, 0.466478
3268.7, 0.466611
3270.76, 0.466478
3272.82, 0.466677
3274.89, 0.467075
3276.96, 0.467407
3279.04, 0.467540
3281.11, 0.467673
3283.19, 0.468005
3285.27, 0.468270
3287.35, 0.468403
3289.44, 0.468470
3291.53, 0.468802
3293.62, 0.469001
3295.71, 0.468868
3297.81, 0.469001
3299.91, 0.469266
3302.01, 0.469266
3304.11, 0.469200
3306.22, 0.469266
3308.33, 0.469333
3310.44, 0.469200
3312.56, 0.468934
3314.68, 0.468868
3316.8, 0.468934
3318.92, 0.469001
3321.05, 0.469001
3323.18, 0.469266
3325.31, 0.469465
3327.44, 0.469665
3329.58, 0.469930
3331.72, 0.470129
3333.86, 0.470196
3336.01, 0.470329
3338.16, 0.470461
3340.31, 0.470395
3342.46, 0.470262
3344.61, 0.470129
3346.77, 0.470129
3348.94, 0.470196
3351.1, 0.470196
3353.27, 0.469930
3355.44, 0.469864
3357.61, 0.469930
3359.79, 0.469864
3361.97, 0.469864
3364.15, 0.469598
3366.33, 0.469399
3368.52, 0.469333
3370.71, 0.469200
3372.9, 0.469067
3375.1, 0.469001
3377.3, 0.469200
3379.5, 0.469532
3381.71, 0.469864
3383.91, 0.470129
3386.12, 0.470395
3388.34, 0.470727
3390.55, 0.470992
3392.77, 0.470926
3394.99, 0.470860
3397.22, 0.470860
3399.45, 0.470727
3401.68, 0.470528
3403.91, 0.470196
3406.15, 0.469864
3408.39, 0.469665
3410.63, 0.469465
3412.87, 0.469266
3415.12, 0.469465
3417.37, 0.469797
3419.63, 0.470129
3421.88, 0.470727
3424.14, 0.471457
3426.41, 0.472320
3428.67, 0.473051
3430.94, 0.473582
3433.21, 0.474246
3435.49, 0.474843
3437.77, 0.475242
3440.05, 0.475706
3442.33, 0.476171
3444.62, 0.476437
3446.91, 0.476702
3449.2, 0.477167
3451.5, 0.477499
3453.8, 0.477632
3456.1, 0.477632
3458.41, 0.478030
3460.72, 0.478495
3463.03, 0.478694
3465.34, 0.478694
3467.66, 0.478694
3469.98, 0.478628
3472.31, 0.478694
3474.63, 0.478694
3476.96, 0.478827
3479.3, 0.478960
3481.64, 0.479092
3483.97, 0.479026
3486.32, 0.478960
3488.66, 0.479026
3491.01, 0.479159
3493.36, 0.479159
3495.72, 0.478893
3498.08, 0.478960
3500.44, 0.478960
3502.81, 0.479092
3505.18, 0.479292
3507.55, 0.479823
3509.92, 0.480221
3512.3, 0.480752
3514.68, 0.481483
3517.06, 0.481881
3519.45, 0.482080
3521.84, 0.482478
3524.24, 0.483010
3526.64, 0.483408
3529.04, 0.483607
3531.44, 0.483873
3533.85, 0.484138
3536.26, 0.484271
3538.67, 0.484537
3541.09, 0.484669
3543.51, 0.484802
3545.93, 0.484935
3548.36, 0.485001
3550.79, 0.485134
3553.22, 0.485267
3555.66, 0.485466
3558.1, 0.485798
3560.54, 0.485931
3562.99, 0.485865
3565.44, 0.485865
3567.9, 0.486064
3570.35, 0.486263
3572.81, 0.486263
3575.28, 0.486197
3577.75, 0.486263
3580.22, 0.486528
3582.69, 0.486528
3585.17, 0.486462
3587.65, 0.486462
3590.14, 0.486595
3592.62, 0.486661
3595.11, 0.486595
3597.61, 0.486528
3600.11, 0.486528
3602.61, 0.486528
3605.11, 0.486595
3607.62, 0.486661
3610.14, 0.486728
3612.65, 0.486661
3615.17, 0.486396
3617.69, 0.486329
3620.22, 0.486462
3622.75, 0.486528
3625.28, 0.486528
3627.82, 0.486528
3630.36, 0.486329
3632.9, 0.486263
3635.45, 0.486263
3638.0, 0.486396
3640.56, 0.486329
3643.12, 0.486263
3645.68, 0.486329
3648.24, 0.486263
3650.81, 0.486130
3653.39, 0.485931
3655.96, 0.485798
3658.54, 0.485798
3661.13, 0.485798
3663.71, 0.485732
3666.3, 0.485599
3668.9, 0.485533
3671.5, 0.485466
3674.1, 0.485333
3676.7, 0.485267
3679.31, 0.485201
3681.93, 0.484869
3684.54, 0.484669
3687.17, 0.484736
3689.79, 0.484537
3692.42, 0.484205
3695.05, 0.484138
3697.69, 0.484205
3700.32, 0.484006
3702.97, 0.483607
3705.61, 0.483275
3708.27, 0.483209
3710.92, 0.482943
3713.58, 0.482744
3716.24, 0.482611
3718.91, 0.482611
3721.58, 0.482478
3724.25, 0.482346
3726.93, 0.482213
3729.61, 0.482014
3732.29, 0.481881
3734.98, 0.481748
3737.67, 0.481416
3740.37, 0.481283
3743.07, 0.481217
3745.78, 0.481018
3748.49, 0.480752
3751.2, 0.480686
3753.91, 0.480487
3756.63, 0.480221
3759.36, 0.480088
3762.09, 0.479823
3764.82, 0.479491
3767.55, 0.479358
3770.29, 0.479292
3773.04, 0.479092
3775.78, 0.478827
3778.54, 0.478694
3781.29, 0.478362
3784.05, 0.477964
3786.82, 0.477698
3789.59, 0.477433
3792.36, 0.477167
3795.13, 0.476968
3797.92, 0.476702
3800.7, 0.476370
3803.49, 0.476105
3806.28, 0.475906
3809.08, 0.475640
3811.88, 0.475441
3814.68, 0.475175
3817.49, 0.474910
3820.31, 0.474644
3823.12, 0.474379
3825.94, 0.474246
3828.77, 0.474113
3831.6, 0.473914
3834.43, 0.473847
3837.27, 0.473715
3840.11, 0.473715
3842.96, 0.473648
3845.81, 0.473515
3848.67, 0.473449
3851.53, 0.473383
3854.39, 0.473183
3857.26, 0.473250
3860.13, 0.473250
3863.01, 0.473183
3865.89, 0.473183
3868.77, 0.473183
3871.66, 0.473117
3874.55, 0.473051
3877.45, 0.473051
3880.35, 0.473051
3883.26, 0.473117
3886.17, 0.472984
3889.09, 0.472918
3892.01, 0.472918
3894.93, 0.472785
3897.86, 0.472719
3900.79, 0.472652
3903.73, 0.472453
3906.67, 0.472254
3909.62, 0.472254
3912.57, 0.472254
3915.52, 0.472188
3918.48, 0.471988
3921.45, 0.471856
3924.42, 0.471656
3927.39, 0.471524
3930.37, 0.471258
3933.35, 0.471059
3936.34, 0.470926
3939.33, 0.470727
3942.32, 0.470395
3945.32, 0.470063
3948.33, 0.469797
3951.34, 0.469399
3954.35, 0.468934
3957.37, 0.468470
3960.39, 0.468005
3963.42, 0.467474
3966.45, 0.466943
3969.49, 0.466345
3972.53, 0.465814
3975.58, 0.465349
3978.63, 0.464752
3981.68, 0.464220
3984.75, 0.463556
3987.81, 0.462826
3990.88, 0.462162
3993.95, 0.461565
3997.03, 0.460967
4000.12, 0.460502
4003.21, 0.459905
4006.3, 0.459507
4009.4, 0.459175
4012.5, 0.458975
4015.61, 0.458776
4018.72, 0.458710
4021.84, 0.458776
4024.96, 0.459108
4028.09, 0.459307
4031.22, 0.459772
4034.36, 0.460170
4037.5, 0.460436
4040.65, 0.460702
4043.8, 0.460834
4046.96, 0.461100
4050.12, 0.461233
4053.29, 0.461166
4056.46, 0.461366
4059.64, 0.461432
4062.82, 0.461299
4066.0, 0.461166
4069.19, 0.461034
4072.39, 0.460901
4075.59, 0.460834
4078.8, 0.460702
4082.01, 0.460303
4085.23, 0.459971
4088.45, 0.459706
4091.68, 0.459507
4094.91, 0.459108
4098.15, 0.458710
4101.39, 0.458378
4104.63, 0.457979
4107.89, 0.457648
4111.14, 0.457316
4114.41, 0.457116
4117.67, 0.456718
4120.95, 0.456320
4124.23, 0.455988
4127.51, 0.455523
4130.8, 0.455058
4134.09, 0.454660
4137.39, 0.454394
4140.7, 0.453996
4144.01, 0.453465
4147.32, 0.453066
4150.64, 0.452801
4153.97, 0.452402
4157.3, 0.451938
4160.64, 0.451473
4163.98, 0.451008
4167.33, 0.450743
4170.68, 0.450411
4174.04, 0.449946
4177.4, 0.449415
4180.77, 0.449016
4184.14, 0.448618
4187.52, 0.448153
4190.91, 0.447689
4194.3, 0.447224
4197.69, 0.446294
4201.1, 0.445099
4204.5, 0.443904
4207.92, 0.442377
4211.34, 0.440518
4214.76, 0.438858
4218.19, 0.437198
4221.62, 0.435605
4225.06, 0.434211
4228.51, 0.433148
4231.96, 0.432485
4235.42, 0.431953
4238.88, 0.431754
4242.35, 0.432020
4245.83, 0.432551
4249.31, 0.433746
4252.79, 0.435207
4256.28, 0.435937
4259.78, 0.434410
4263.29, 0.432153
4266.79, 0.430758
4270.31, 0.429895
4273.83, 0.429298
4277.35, 0.428767
4280.89, 0.428368
4284.42, 0.428103
4287.97, 0.427771
4291.52, 0.427505
4295.07, 0.427505
4298.63, 0.427505
4302.2, 0.427239
4305.78, 0.427173
4309.35, 0.427239
4312.94, 0.427372
4316.53, 0.427306
4320.13, 0.427173
4323.73, 0.427040
4327.34, 0.427040
4330.96, 0.426841
4334.58, 0.426576
4338.21, 0.426310
4341.84, 0.425978
4345.48, 0.425314
4349.12, 0.424650
4352.77, 0.424318
4356.43, 0.423920
4360.1, 0.423389
4363.76, 0.422990
4367.44, 0.422526
4371.12, 0.421994
4374.81, 0.421463
4378.51, 0.420932
4382.21, 0.420401
4385.92, 0.419870
4389.63, 0.419272
4393.35, 0.418608
4397.08, 0.418011
4400.81, 0.417546
4404.55, 0.416949
4408.29, 0.416484
4412.04, 0.416019
4415.8, 0.415488
4419.57, 0.414957
4423.34, 0.414558
4427.12, 0.413894
4430.9, 0.413231
4434.69, 0.412766
4438.49, 0.412235
4442.29, 0.411703
4446.1, 0.411106
4449.92, 0.410442
4453.74, 0.409911
4457.57, 0.409446
4461.41, 0.408915
4465.25, 0.408317
4469.1, 0.407853
4472.95, 0.407255
4476.82, 0.406591
4480.69, 0.405927
4484.56, 0.405263
4488.44, 0.404732
4492.33, 0.404201
4496.23, 0.403537
4500.13, 0.402940
4504.04, 0.402276
4507.96, 0.401545
4511.88, 0.400815
4515.81, 0.400217
4519.75, 0.399554
4523.69, 0.398956
4527.65, 0.398358
4531.6, 0.397628
4535.57, 0.396898
4539.54, 0.396101
4543.52, 0.395304
4547.5, 0.394640
4551.5, 0.393910
4555.5, 0.393246
4559.5, 0.392582
4563.52, 0.391918
4567.54, 0.391122
4571.56, 0.390391
4575.6, 0.389727
4579.64, 0.389063
4583.69, 0.388333
4587.75, 0.387669
4591.81, 0.387072
4595.88, 0.386474
4599.96, 0.385677
4604.04, 0.385080
4608.14, 0.384416
4612.24, 0.383752
4616.34, 0.383088
4620.46, 0.382557
4624.58, 0.382026
4628.71, 0.381428
4632.84, 0.380897
4636.99, 0.380300
4641.14, 0.379768
4645.3, 0.379237
4649.47, 0.378640
4653.64, 0.378109
4657.82, 0.377511
4662.01, 0.376913
4666.21, 0.376250
4670.41, 0.375652
4674.62, 0.375055
4678.84, 0.374457
4683.07, 0.373926
4687.3, 0.373262
4691.54, 0.372664
4695.79, 0.372067
4700.05, 0.371336
4704.31, 0.370540
4708.59, 0.369876
4712.87, 0.369146
4717.15, 0.368415
4721.45, 0.367618
4725.76, 0.366822
4730.07, 0.366025
4734.39, 0.365162
4738.72, 0.364299
4743.05, 0.363436
4747.39, 0.362506
4751.75, 0.361577
4756.1, 0.360714
4760.47, 0.359585
4764.85, 0.358523
4769.23, 0.357328
4773.62, 0.356132
4778.02, 0.354937
4782.43, 0.353610
4786.85, 0.352215
4791.27, 0.350821
4795.7, 0.349228
4800.14, 0.347568
4804.59, 0.345974
4809.05, 0.344248
4813.51, 0.342389
4817.99, 0.340464
4822.47, 0.338074
4826.96, 0.335551
4831.46, 0.332762
4835.96, 0.329575
4840.48, 0.325857
4845.0, 0.321741
4849.54, 0.316894
4854.08, 0.311317
4858.63, 0.305010
4863.18, 0.297839
4867.75, 0.290071
4872.33, 0.281706
4876.91, 0.273141
4881.5, 0.264576
4886.1, 0.256277
4890.71, 0.248576
4895.33, 0.241538
4899.96, 0.235164
4904.59, 0.229454
4909.24, 0.224077
4913.89, 0.219031
4918.55, 0.214184
4923.22, 0.209537
4927.9, 0.205287
4932.59, 0.201636
4937.29, 0.199046
4942.0, 0.197918
4946.71, 0.198051
4951.44, 0.199046
4956.17, 0.200773
4960.91, 0.202964
4965.67, 0.205155
4970.43, 0.207346
4975.2, 0.209669
4979.98, 0.211860
4984.76, 0.213786
4989.56, 0.215645
4994.37, 0.217305
4999.18, 0.218699
5004.01, 0.220159
5008.84, 0.221487
5013.69, 0.222483
5018.54, 0.223346
5023.4, 0.224409
5028.28, 0.225139
5033.16, 0.225537
5038.05, 0.225803
5042.95, 0.225869
5047.86, 0.225803
5052.78, 0.225604
5057.71, 0.225139
5062.65, 0.224608
5067.6, 0.223811
5072.56, 0.222815
5077.53, 0.221554
5082.5, 0.220027
5087.49, 0.218699
5092.49, 0.217238
5097.5, 0.215512
5102.51, 0.213653
5107.54, 0.211927
5112.58, 0.210068
5117.62, 0.208142
5122.68, 0.206217
5127.75, 0.204292
5132.82, 0.201968
5137.91, 0.199578
5143.01, 0.196922
5148.12, 0.194532
5153.23, 0.192407
5158.36, 0.190150
5163.5, 0.187892
5168.65, 0.185502
5173.81, 0.182979
5178.98, 0.180390
5184.15, 0.177801
5189.34, 0.175012
5194.54, 0.172157
5199.75, 0.169634
5204.98, 0.167643
5210.21, 0.165983
5215.45, 0.164987
5220.7, 0.164721
5225.96, 0.164655
5231.23, 0.164854
5236.52, 0.165252
5241.81, 0.165717
5247.12, 0.166115
5252.44, 0.166580
5257.76, 0.166912
5263.1, 0.167311
5268.45, 0.167510
5273.81, 0.167443
5279.18, 0.167443
5284.56, 0.167178
5289.95, 0.166580
5295.36, 0.166115
5300.77, 0.165784
5306.2, 0.165186
5311.63, 0.164588
5317.08, 0.164124
5322.54, 0.163526
5328.01, 0.162729
5333.49, 0.161534
5338.98, 0.159941
5344.49, 0.157484
5350.0, 0.154895
5355.53, 0.152970
5361.07, 0.151111
5366.62, 0.149119
5372.18, 0.147193
5377.75, 0.145401
5383.34, 0.143675
5388.93, 0.141816
5394.54, 0.139558
5400.16, 0.137234
5405.79, 0.134911
5411.44, 0.132521
5417.09, 0.129931
5422.76, 0.127807
5428.43, 0.126944
5434.12, 0.125815
5439.83, 0.124686
5445.54, 0.123956
5451.26, 0.123624
5457.0, 0.123358
5462.75, 0.123226
5468.52, 0.123690
5474.29, 0.124221
5480.08, 0.124620
5485.88, 0.125284
5491.69, 0.125616
5497.51, 0.125881
5503.35, 0.125881
5509.2, 0.125815
5515.06, 0.125417
5520.93, 0.124819
5526.82, 0.124155
5532.71, 0.123358
5538.63, 0.122097
5544.55, 0.120105
5550.49, 0.117383
5556.44, 0.114395
5562.4, 0.110611
5568.37, 0.106096
5574.36, 0.100917
5580.36, 0.0958050
5586.37, 0.0914230
5592.4, 0.0875060
5598.44, 0.0841200
5604.49, 0.0819290
5610.56, 0.0806010
5616.63, 0.0802030
5622.73, 0.0804020
5628.83, 0.0810000
5634.95, 0.0817300
5641.08, 0.0829250
5647.23, 0.0851160
5653.39, 0.0875720
5659.56, 0.0904940
5665.74, 0.0938130
5671.94, 0.0968010
5678.15, 0.100386
5684.38, 0.104038
5690.62, 0.107358
5696.87, 0.110943
5703.14, 0.113997
5709.42, 0.116719
5715.72, 0.120304
5722.03, 0.123757
5728.35, 0.126877
5734.69, 0.129400
5741.03, 0.131525
5747.4, 0.132985
5753.78, 0.134380
5760.17, 0.133716
5766.58, 0.132786
5773.0, 0.133384
5779.44, 0.133052
5785.88, 0.132321
5792.35, 0.131325
5798.83, 0.130130
5805.32, 0.129135
5811.83, 0.127807
5818.35, 0.126014
5824.89, 0.125350
5831.45, 0.125483
5838.01, 0.125151
5844.59, 0.124487
5851.19, 0.123358
5857.8, 0.122296
5864.43, 0.121632
5871.07, 0.121167
5877.73, 0.119441
5884.4, 0.119906
5891.09, 0.120503
5897.79, 0.120968
5904.5, 0.122362
5911.23, 0.122628
5917.98, 0.122230
5924.75, 0.121367
5931.53, 0.119109
5938.32, 0.117516
5945.13, 0.117449
5951.96, 0.116387
5958.8, 0.114727
5965.65, 0.112603
5972.53, 0.111408
5979.42, 0.110611
5986.32, 0.109416
5993.24, 0.109947
6000.18, 0.111740
6007.13, 0.113864
6014.1, 0.117317
6021.08, 0.123226
6028.09, 0.130330
6035.1, 0.138031
6042.14, 0.144139
6049.19, 0.152837
6056.25, 0.165120
6063.34, 0.173419
6070.44, 0.179859
6077.55, 0.187826
6084.69, 0.195129
6091.84, 0.200573
6099.0, 0.204491
6106.19, 0.206482
6113.39, 0.208673
6120.61, 0.213321
6127.84, 0.216375
6135.09, 0.217769
6142.36, 0.218832
6149.65, 0.219761
6156.95, 0.219695
6164.27, 0.220558
6171.61, 0.221288
6178.97, 0.220027
6186.34, 0.219097
6193.73, 0.220159
6201.14, 0.220027
6208.57, 0.219097
6216.01, 0.217968
6223.47, 0.217105
6230.95, 0.215910
6238.45, 0.214782
6245.97, 0.213587
6253.5, 0.212657
6261.06, 0.211728
6268.63, 0.211196
6276.21, 0.211196
6283.82, 0.211595
6291.45, 0.212192
6299.1, 0.213188
6306.76, 0.214250
6314.44, 0.215446
6322.14, 0.216375
6329.86, 0.217039
6337.6, 0.215910
6345.35, 0.215711
6353.13, 0.217504
6360.92, 0.217305
6368.74, 0.215910
6376.57, 0.216375
6384.43, 0.216840
6392.3, 0.217039
6400.19, 0.216574
6408.1, 0.213587
6416.03, 0.213387
6423.98, 0.216973
6431.95, 0.218566
6439.94, 0.219960
6447.95, 0.220558
6455.98, 0.221023
6464.03, 0.221155
6472.1, 0.220359
6480.19, 0.219230
6488.31, 0.217637
6496.44, 0.218433
6504.59, 0.221355
6512.76, 0.221620
6520.95, 0.221288
6529.16, 0.222815
6537.4, 0.223346
6545.65, 0.223147
6553.92, 0.223280
6562.22, 0.223413
6570.54, 0.222682
6578.88, 0.224077
6587.23, 0.224807
6595.61, 0.225139
6604.02, 0.225537
6612.44, 0.224741
6620.89, 0.223413
6629.35, 0.220359
6637.84, 0.218168
6646.35, 0.219496
6654.88, 0.219496
6663.44, 0.217371
6672.01, 0.214516
6680.61, 0.212059
6689.23, 0.210931
6697.88, 0.209072
6706.54, 0.205686
6715.23, 0.202897
6723.94, 0.200706
6732.67, 0.198515
6741.42, 0.195727
6750.2, 0.192739
6759.0, 0.190017
6767.82, 0.187029
6776.67, 0.184241
6785.54, 0.181784
6794.44, 0.181054
6803.35, 0.181651
6812.29, 0.181320
6821.26, 0.180456
6830.24, 0.180788
6839.25, 0.181585
6848.29, 0.180788
6857.35, 0.178797
6866.43, 0.178664
6875.54, 0.179859
6884.67, 0.179129
6893.82, 0.177469
6903.0, 0.175211
6912.2, 0.173485
6921.43, 0.171560
6930.69, 0.169170
6939.96, 0.166514
6949.27, 0.163460
6958.59, 0.160007
6967.95, 0.158082
6977.33, 0.155758
6986.73, 0.152571
6996.16, 0.149517
7005.61, 0.146795
7015.09, 0.143807
7024.6, 0.141152
7034.13, 0.138894
7043.69, 0.136903
7053.27, 0.136571
7062.88, 0.136903
7072.52, 0.136836
7082.18, 0.136703
7091.87, 0.136703
7101.58, 0.136438
7111.32, 0.135575
7121.09, 0.134778
7130.88, 0.133716
7140.71, 0.132056
7150.56, 0.130396
7160.43, 0.128869
7170.33, 0.127276
7180.27, 0.126412
7190.23, 0.125284
7200.21, 0.124089
7210.23, 0.123425
7220.27, 0.123292
7230.34, 0.123159
7240.44, 0.123093
7250.56, 0.122827
7260.72, 0.122495
7270.9, 0.121699
7281.12, 0.120902
7291.36, 0.119906
7301.63, 0.118512
7311.93, 0.116719
7322.25, 0.114860
7332.61, 0.112669
7343.0, 0.110810
7353.41, 0.109217
7363.86, 0.107623
7374.33, 0.106163
7384.83, 0.104702
7395.37, 0.103241
7405.93, 0.101781
7416.53, 0.100320
7427.15, 0.0989920
7437.81, 0.0975310
7448.5, 0.0960040
7459.22, 0.0945440
7469.96, 0.0933490
7480.74, 0.0922200
7491.55, 0.0913570
7502.39, 0.0904940
7513.27, 0.0895640
7524.17, 0.0885680
7535.11, 0.0877720
7546.08, 0.0873070
7557.08, 0.0871080
7568.11, 0.0871080
7579.17, 0.0872410
7590.27, 0.0875720
7601.4, 0.0880370
7612.56, 0.0885020
7623.76, 0.0889670
7634.98, 0.0892320
7646.24, 0.0895640
7657.54, 0.0896310
7668.87, 0.0897630
7680.23, 0.0896970
7691.62, 0.0895640
7703.05, 0.0892320
7714.51, 0.0887680
7726.01, 0.0881700
7737.54, 0.0874400
7749.11, 0.0866430
7760.71, 0.0859790
7772.35, 0.0852490
7784.02, 0.0847840
7795.72, 0.0843860
7807.46, 0.0841860
7819.23, 0.0841200
7831.04, 0.0841200
7842.89, 0.0839870
7854.77, 0.0839870
7866.69, 0.0838540
7878.65, 0.0835890
7890.64, 0.0831240
7902.67, 0.0825270
7914.74, 0.0819950
7926.84, 0.0814640
7938.98, 0.0807340
7951.16, 0.0798040
7963.37, 0.0788090
7975.62, 0.0777460
7987.91, 0.0764850
8000.24, 0.0752230
8012.6, 0.0738290
8025.01, 0.0723020
8037.45, 0.0707750
8049.93, 0.0693140
8062.45, 0.0679200
8075.01, 0.0666590
8087.61, 0.0653310
8100.24, 0.0639370
8112.91, 0.0622100
8125.63, 0.0603510
8138.39, 0.0584920
8151.18, 0.0567660
8164.02, 0.0550400
8176.9, 0.0536460
8189.81, 0.0523840
8202.77, 0.0511230
8215.77, 0.0501270
8228.82, 0.0493960
8241.9, 0.0486660
8255.02, 0.0481350
8268.19, 0.0477370
8281.39, 0.0472050
8294.65, 0.0463420
8307.94, 0.0457450
8321.28, 0.0448820
8334.66, 0.0438190
8348.08, 0.0427570
8361.54, 0.0418280
8375.05, 0.0406330
8388.6, 0.0395700
8402.2, 0.0383750
8415.84, 0.0374460
8429.52, 0.0365160
8443.25, 0.0357860
8457.02, 0.0350560
8470.84, 0.0343250
8484.7, 0.0335950
8498.61, 0.0330640
8512.57, 0.0323330
8526.57, 0.0318020
8540.62, 0.0310060
8554.71, 0.0301420
8568.85, 0.0292130
8583.04, 0.0284830
8597.27, 0.0276860
8611.55, 0.0268230
8625.88, 0.0260920
8640.26, 0.0254290
8654.68, 0.0244990
8669.16, 0.0235030
8683.68, 0.0227730
8698.25, 0.0221090
8712.87, 0.0213790
8727.53, 0.0207810
8742.25, 0.0201830
8757.02, 0.0195860
8771.83, 0.0190550
8786.7, 0.0185240
8801.62, 0.0177930
8816.59, 0.0174610
8831.61, 0.0172620
8846.68, 0.0169300
8861.8, 0.0163990
8876.97, 0.0162000
8892.2, 0.0163990
8907.48, 0.0167970
8922.81, 0.0169970
8938.2, 0.0172620
8953.63, 0.0179260
8969.13, 0.0188560
8984.67, 0.0199840
9000.27, 0.0213120
9015.92, 0.0230380
9031.63, 0.0250300
9047.39, 0.0274200
9063.21, 0.0302750
9079.08, 0.0333290
9095.01, 0.0370470
9111.0, 0.0412960
9127.04, 0.0461430
9143.13, 0.0517870
9159.28, 0.0580940
9175.49, 0.0650650
9191.76, 0.0729000
9208.09, 0.0814640
9224.47, 0.0909590
9240.92, 0.101249
9257.42, 0.111872
9273.98, 0.123226
9290.6, 0.134911
9307.28, 0.146530
9324.02, 0.156820
9340.82, 0.164655
9357.68, 0.170365
9374.6, 0.173950
9391.58, 0.175942
9408.62, 0.177402
9425.73, 0.178597
9442.9, 0.179328
9460.13, 0.179925
9477.42, 0.180656
9494.78, 0.181054
9512.2, 0.181187
9529.69, 0.181054
9547.24, 0.180788
9564.86, 0.180390
9582.54, 0.179792
9600.28, 0.178996
9618.1, 0.178133
9635.97, 0.177402
9653.92, 0.176473
9671.93, 0.175610
9690.01, 0.175012
9708.16, 0.174415
9726.37, 0.173751
9744.65, 0.173087
9763.0, 0.172489
9781.43, 0.172224
9799.92, 0.171958
9818.48, 0.171825
9837.1, 0.172024
9855.8, 0.172290
9874.58, 0.172356
9893.42, 0.172556
9912.34, 0.172954
9931.33, 0.173618
9950.39, 0.174149
9969.52, 0.174547
9988.74, 0.175145
10008.0, 0.176274
10027.4, 0.178000
10046.8, 0.180656
10066.3, 0.185170
10085.9, 0.193868
10105.6, 0.206615
10125.3, 0.219695
10145.1, 0.228060
10165.0, 0.228259
10185.0, 0.221421
10205.0, 0.210997
10225.2, 0.200972
10245.4, 0.192938
10265.7, 0.186697
10286.0, 0.181917
10306.5, 0.179261
10327.0, 0.179195
10347.6, 0.181585
10368.3, 0.185635
10389.1, 0.191278
10409.9, 0.203893
10430.9, 0.230915
10451.9, 0.264045
10473.0, 0.289142
10494.2, 0.303217
10515.5, 0.309856
10536.9, 0.312379
10558.4, 0.312911
10579.9, 0.312512
10601.5, 0.311716
10623.3, 0.310255
10645.1, 0.308462
10667.0, 0.306338
10689.0, 0.304213
10711.1, 0.302022
10733.2, 0.299499
10755.5, 0.296777
10777.9, 0.294121
10800.3, 0.291200
10822.9, 0.288279
10845.5, 0.284893
10868.2, 0.281573
10891.1, 0.278453
10914.0, 0.275465
10937.0, 0.272544
10960.2, 0.269755
10983.4, 0.266900
11006.7, 0.264311
11030.1, 0.261721
11053.6, 0.258800
11077.3, 0.256277
11101.0, 0.253688
11124.8, 0.251099
11148.7, 0.248642
11172.7, 0.245854
11196.9, 0.243065
11221.1, 0.240210
11245.4, 0.237090
11269.9, 0.233173
11294.4, 0.228724
11319.1, 0.223877
11343.9, 0.218168
11368.8, 0.211528
11393.7, 0.204159
11418.8, 0.194864
11444.0, 0.182979
11469.4, 0.168904
11494.8, 0.153966
11520.3, 0.139625
11546.0, 0.127342
11571.8, 0.117449
11597.7, 0.109150
11623.7, 0.102312
11649.8, 0.0965360
11676.0, 0.0915560
11702.4, 0.0869750
11728.9, 0.0824600
11755.5, 0.0783440
11782.2, 0.0748910
11809.0, 0.0724350
11836.0, 0.0727670
11863.0, 0.0756220
11890.3, 0.0790740
11917.6, 0.0810660
11945.0, 0.0810000
11972.6, 0.0789410
12000.4, 0.0765510
12028.2, 0.0742270
12056.2, 0.0715720
12084.3, 0.0692480
12112.5, 0.0672560
12140.9, 0.0653970
12169.4, 0.0640690
12198.0, 0.0628740
12226.8, 0.0615460
12255.7, 0.0600860
12284.7, 0.0590230
12313.9, 0.0579610
12343.2, 0.0569650
12372.7, 0.0563010
12402.3, 0.0555710
12432.0, 0.0547080
12461.9, 0.0543760
12491.9, 0.0539110
12522.1, 0.0531140
12552.4, 0.0524510
12582.9, 0.0519860
12613.5, 0.0513880
12644.3, 0.0507910
12675.2, 0.0505250
12706.3, 0.0503920
12737.5, 0.0502600
12768.9, 0.0501930
12800.4, 0.0497950
12832.1, 0.0491310
12863.9, 0.0486660
12895.9, 0.0483340
12928.1, 0.0476700
12960.4, 0.0470730
12992.9, 0.0464090
13025.5, 0.0458780
13058.3, 0.0456120
13091.3, 0.0451470
13124.4, 0.0444170
13157.8, 0.0436870
13191.2, 0.0430890
13224.9, 0.0426240
13258.7, 0.0419600
13292.7, 0.0412960
13326.9, 0.0406990
13361.2, 0.0405000
13395.7, 0.0399690
13430.4, 0.0397690
13465.3, 0.0393710
13500.4, 0.0389060
13535.7, 0.0384420
13571.1, 0.0376450
13606.7, 0.0368480
13642.5, 0.0359850
13678.5, 0.0351880
13714.7, 0.0344580
13751.1, 0.0335950
13787.6, 0.0329970
13824.4, 0.0322010
13861.4, 0.0313380
13898.5, 0.0305410
13935.9, 0.0298770
13973.5, 0.0294790
14011.2, 0.0289470
14049.2, 0.0282830
14087.4, 0.0277520
14125.8, 0.0268890
14164.3, 0.0261590
14203.2, 0.0256280
14242.2, 0.0246320
14281.4, 0.0237690
14320.9, 0.0231710
14360.5, 0.0222420
14400.4, 0.0217770
14440.5, 0.0215110
14480.9, 0.0207810
14521.4, 0.0202500
14562.2, 0.0200510
14603.3, 0.0195200
14644.5, 0.0186560
14686.0, 0.0181250
14727.7, 0.0180590
14769.7, 0.0178600
14811.9, 0.0175940
14854.3, 0.0173290
14897.0, 0.0170630
14939.9, 0.0168640
14983.1, 0.0169300
15026.5, 0.0171290
15070.2, 0.0172620
15114.2, 0.0182580
15158.3, 0.0201170
15202.8, 0.0217770
15247.5, 0.0239680
15292.5, 0.0272210
15337.7, 0.0314040
15383.2, 0.0361840
15429.0, 0.0418940
15475.1, 0.0486000
15521.4, 0.0553050
15568.0, 0.0616130
15614.9, 0.0674550
15662.1, 0.0722360
15709.6, 0.0766840
15757.3, 0.0802690
15805.4, 0.0833230
15853.7, 0.0854480
15902.3, 0.0865770
15951.2, 0.0868420
16000.5, 0.0869090
16050.0, 0.0867760
16099.8, 0.0856470
16150.0, 0.0839870
16200.5, 0.0819290
16251.3, 0.0788090
16302.4, 0.0758210
16353.8, 0.0734970
16405.5, 0.0705090
16457.6, 0.0666590
16510.0, 0.0630730
16562.8, 0.0604840
16615.9, 0.0574960
16669.3, 0.0529150
16723.1, 0.0490640
16777.2, 0.0454790
16831.7, 0.0421600
16886.5, 0.0395040
16941.7, 0.0377780
16997.2, 0.0371800
17053.1, 0.0377110
17109.4, 0.0391060
17166.1, 0.0414960
17223.1, 0.0448150
17280.5, 0.0503920
17338.3, 0.0569650
17396.5, 0.0644680
17455.1, 0.0727670
17514.0, 0.0811990
17573.4, 0.0893650
17633.2, 0.0981290
17693.4, 0.105963
17754.0, 0.113267
17815.0, 0.120105
17876.4, 0.125417
17938.3, 0.130529
18000.5, 0.136504
18063.3, 0.142944
18126.4, 0.150314
18190.0, 0.157883
18254.1, 0.163061
18318.6, 0.165319
18383.5, 0.165717
18449.0, 0.167311
18514.9, 0.171626
18581.2, 0.178863
18648.0, 0.191278
18715.4, 0.207014
18783.2, 0.221886
18851.5, 0.233704
18920.3, 0.240808
18989.6, 0.240940
19059.4, 0.236957
19129.7, 0.231513
19200.6, 0.223678
19272.0, 0.214848
19343.9, 0.206084
19416.3, 0.199644
19489.3, 0.194001
19562.8, 0.187693
19637.0, 0.184506
19711.6, 0.184905
19786.8, 0.183842
19862.6, 0.178398
19939.0, 0.168970
20016.0, 0.154829
20093.6, 0.138629
20171.8, 0.121831
20250.6, 0.106494
20330.0, 0.0936140
20410.0, 0.0822610
20490.7, 0.0724350
20572.0, 0.0662600
20654.0, 0.0624090
20736.6, 0.0632060
20819.9, 0.0675880
20903.8, 0.0745590
20988.5, 0.0830580
21073.8, 0.0901620
21159.8, 0.0954730
21246.5, 0.0993900
21334.0, 0.0971990
21422.1, 0.0925520
21511.0, 0.0881700
21600.7, 0.0848500
21691.0, 0.0839870
21782.1, 0.0889670
21874.0, 0.0994570
21966.7, 0.109881
22060.2, 0.122562
22154.5, 0.141284
22249.6, 0.162397
22345.5, 0.180656
22442.2, 0.194996
22539.8, 0.202964
22638.2, 0.203428
22737.5, 0.204424
22837.7, 0.214250
22938.7, 0.228127
23040.7, 0.244459
23143.5, 0.265240
23247.3, 0.287748
23352.1, 0.304943
23457.7, 0.319085
23564.4, 0.329774
23672.0, 0.337210
23780.5, 0.341858
23890.1, 0.344381
24000.7, 0.346572
24112.3, 0.340132
24225.0, 0.321807
24338.7, 0.297375
24453.5, 0.271415
24569.4, 0.251099
24686.4, 0.238683
24804.5, 0.226334
24923.8, 0.220823
