Database of Origin, USGS Spectral Database
Sample Description, See USGS database for additional info
Date Added,2016-08-10 05:39:27.016825

Data ID,USGS_spe06          
Sample ID, spessartine_ws480.20861
Mineral Name, spessartine
Material Class,Nesosilicate

Wavelength
1602.52, 0.320368
1603.02, 0.320368
1603.51, 0.320265
1604.01, 0.321553
1604.5, 0.321862
1605.0, 0.322171
1605.5, 0.322068
1606.0, 0.322789
1606.49, 0.322532
1606.99, 0.323047
1607.49, 0.323253
1607.99, 0.323871
1608.49, 0.324128
1608.99, 0.324747
1609.49, 0.324798
1609.99, 0.325519
1610.49, 0.325519
1610.99, 0.325725
1611.49, 0.325983
1611.99, 0.326858
1612.49, 0.326961
1612.99, 0.327476
1613.49, 0.327322
1614.0, 0.327579
1614.5, 0.327682
1615.0, 0.328300
1615.51, 0.328506
1616.01, 0.328970
1616.51, 0.329331
1617.02, 0.330000
1617.52, 0.329640
1618.03, 0.329949
1618.53, 0.330155
1619.04, 0.330979
1619.54, 0.330876
1620.05, 0.331391
1620.55, 0.331751
1621.06, 0.332163
1621.57, 0.332163
1622.08, 0.332781
1622.58, 0.332730
1623.09, 0.333297
1623.6, 0.333245
1624.11, 0.333709
1624.62, 0.333657
1625.13, 0.334430
1625.64, 0.334739
1626.15, 0.335048
1626.66, 0.334842
1627.17, 0.335511
1627.68, 0.335357
1628.19, 0.335511
1628.7, 0.335666
1629.21, 0.336181
1629.72, 0.336387
1630.24, 0.337159
1630.75, 0.337159
1631.26, 0.337366
1631.78, 0.337469
1632.29, 0.337829
1632.8, 0.337829
1633.32, 0.338190
1633.83, 0.338293
1634.35, 0.338911
1634.86, 0.338859
1635.38, 0.339529
1635.9, 0.339735
1636.41, 0.339786
1636.93, 0.339735
1637.45, 0.340353
1637.96, 0.340662
1638.48, 0.341074
1639.0, 0.341125
1639.52, 0.341228
1640.04, 0.341022
1640.56, 0.341538
1641.08, 0.341744
1641.59, 0.342156
1642.11, 0.342104
1642.63, 0.342774
1643.16, 0.342722
1643.68, 0.342980
1644.2, 0.343031
1644.72, 0.343495
1645.24, 0.343186
1645.76, 0.343495
1646.29, 0.343546
1646.81, 0.344216
1647.33, 0.344113
1647.86, 0.344267
1648.38, 0.344370
1648.9, 0.345194
1649.43, 0.345607
1649.95, 0.345607
1650.48, 0.345504
1651.0, 0.346276
1651.53, 0.346431
1652.06, 0.346534
1652.58, 0.346534
1653.11, 0.346791
1653.64, 0.346997
1654.17, 0.347358
1654.69, 0.346997
1655.22, 0.347667
1655.75, 0.347821
1656.28, 0.347976
1656.81, 0.348079
1657.34, 0.348697
1657.87, 0.348491
1658.4, 0.348645
1658.93, 0.348697
1659.46, 0.348954
1659.99, 0.348954
1660.52, 0.349109
1661.05, 0.349212
1661.59, 0.350036
1662.12, 0.350191
1662.65, 0.350448
1663.19, 0.350242
1663.72, 0.350654
1664.26, 0.350654
1664.79, 0.350809
1665.32, 0.350860
1665.86, 0.351221
1666.39, 0.351530
1666.93, 0.352096
1667.47, 0.351684
1668.0, 0.351890
1668.54, 0.352199
1669.08, 0.352920
1669.61, 0.352560
1670.15, 0.352972
1670.69, 0.353332
1671.23, 0.353384
1671.77, 0.352869
1672.31, 0.353178
1672.85, 0.353384
1673.39, 0.353899
1673.93, 0.353744
1674.47, 0.354105
1675.01, 0.354260
1675.55, 0.354569
1676.09, 0.354723
1676.64, 0.355238
1677.18, 0.355238
1677.72, 0.355290
1678.26, 0.355187
1678.81, 0.355702
1679.35, 0.355753
1679.89, 0.356268
1680.44, 0.356371
1680.98, 0.356423
1681.53, 0.355908
1682.07, 0.355908
1682.62, 0.356062
1683.17, 0.356526
1683.71, 0.356320
1684.26, 0.356732
1684.81, 0.356886
1685.36, 0.357092
1685.9, 0.357144
1686.45, 0.357556
1687.0, 0.357813
1687.55, 0.358174
1688.1, 0.358071
1688.65, 0.358174
1689.2, 0.357968
1689.75, 0.358329
1690.3, 0.358380
1690.85, 0.359153
1691.41, 0.359256
1691.96, 0.359410
1692.51, 0.359204
1693.06, 0.359822
1693.61, 0.359925
1694.17, 0.359771
1694.72, 0.359616
1695.28, 0.360183
1695.83, 0.360286
1696.39, 0.360595
1696.94, 0.360543
1697.5, 0.360955
1698.05, 0.360698
1698.61, 0.361007
1699.17, 0.361419
1699.72, 0.361573
1700.28, 0.361367
1700.84, 0.361522
1701.4, 0.361522
1701.95, 0.361986
1702.51, 0.361934
1703.07, 0.362243
1703.63, 0.362243
1704.19, 0.362552
1704.75, 0.362707
1705.31, 0.363119
1705.88, 0.363016
1706.44, 0.362861
1707.0, 0.362758
1707.56, 0.363170
1708.12, 0.363325
1708.69, 0.363994
1709.25, 0.364097
1709.81, 0.364355
1710.38, 0.364097
1710.94, 0.364355
1711.51, 0.364355
1712.07, 0.364664
1712.64, 0.364612
1713.2, 0.364612
1713.77, 0.364561
1714.34, 0.365127
1714.9, 0.365436
1715.47, 0.365951
1716.04, 0.365591
1716.61, 0.365694
1717.18, 0.365900
1717.74, 0.366363
1718.31, 0.366106
1718.88, 0.366260
1719.45, 0.366209
1720.02, 0.366827
1720.59, 0.367085
1721.17, 0.367239
1721.74, 0.367085
1722.31, 0.367548
1722.88, 0.367497
1723.45, 0.367703
1724.03, 0.367806
1724.6, 0.368321
1725.18, 0.368218
1725.75, 0.368527
1726.33, 0.368372
1726.9, 0.368630
1727.48, 0.368836
1728.05, 0.369248
1728.63, 0.369093
1729.2, 0.369351
1729.78, 0.369402
1730.36, 0.369917
1730.94, 0.369917
1731.51, 0.370072
1732.09, 0.370123
1732.67, 0.370639
1733.25, 0.370535
1733.83, 0.370587
1734.41, 0.370433
1734.99, 0.370742
1735.57, 0.370999
1736.15, 0.371463
1736.73, 0.371411
1737.32, 0.371617
1737.9, 0.371772
1738.48, 0.372132
1739.07, 0.372081
1739.65, 0.372235
1740.23, 0.372390
1740.82, 0.372853
1741.4, 0.372596
1741.99, 0.372647
1742.57, 0.372956
1743.16, 0.373626
1743.74, 0.373626
1744.33, 0.373729
1744.92, 0.373523
1745.51, 0.373883
1746.09, 0.373986
1746.68, 0.374192
1747.27, 0.374089
1747.86, 0.374347
1748.45, 0.374605
1749.04, 0.375017
1749.63, 0.375017
1750.22, 0.375429
1750.81, 0.375532
1751.4, 0.375738
1751.99, 0.375738
1752.59, 0.376098
1753.18, 0.376253
1753.77, 0.376613
1754.37, 0.376716
1754.96, 0.377077
1755.56, 0.376974
1756.15, 0.377025
1756.74, 0.377180
1757.34, 0.377592
1757.94, 0.377489
1758.53, 0.377746
1759.13, 0.377849
1759.73, 0.378107
1760.32, 0.378004
1760.92, 0.378261
1761.52, 0.378467
1762.12, 0.378828
1762.72, 0.378725
1763.32, 0.379086
1763.92, 0.379034
1764.52, 0.379446
1765.12, 0.379652
1765.72, 0.379910
1766.32, 0.379755
1766.92, 0.380013
1767.53, 0.380116
1768.13, 0.380528
1768.73, 0.380270
1769.34, 0.380167
1769.94, 0.380116
1770.55, 0.380373
1771.15, 0.380785
1771.76, 0.381197
1772.36, 0.380991
1772.97, 0.381558
1773.57, 0.381764
1774.18, 0.382124
1774.79, 0.381867
1775.4, 0.382124
1776.0, 0.382176
1776.61, 0.382382
1777.22, 0.382485
1777.83, 0.382948
1778.44, 0.382948
1779.05, 0.383206
1779.66, 0.383309
1780.27, 0.383515
1780.88, 0.383206
1781.5, 0.383618
1782.11, 0.383927
1782.72, 0.384082
1783.33, 0.383979
1783.95, 0.384494
1784.56, 0.384648
1785.18, 0.384957
1785.79, 0.384906
1786.41, 0.385266
1787.02, 0.385266
1787.64, 0.385730
1788.26, 0.385987
1788.87, 0.386399
1789.49, 0.386193
1790.11, 0.386399
1790.73, 0.386399
1791.35, 0.386451
1791.96, 0.386605
1792.58, 0.387069
1793.21, 0.387172
1793.83, 0.387378
1794.45, 0.387430
1795.07, 0.387842
1795.69, 0.387945
1796.31, 0.388099
1796.93, 0.388099
1797.56, 0.388511
1798.18, 0.388511
1798.8, 0.389026
1799.43, 0.389078
1800.05, 0.389078
1800.68, 0.389078
1801.3, 0.389747
1801.93, 0.389850
1802.56, 0.389953
1803.18, 0.389953
1803.81, 0.390314
1804.44, 0.390417
1805.07, 0.390674
1805.7, 0.390674
1806.33, 0.391241
1806.95, 0.391396
1807.58, 0.391756
1808.22, 0.391705
1808.85, 0.392065
1809.48, 0.392014
1810.11, 0.392271
1810.74, 0.392374
1811.38, 0.392889
1812.01, 0.392889
1812.64, 0.393250
1813.28, 0.393353
1813.91, 0.393559
1814.55, 0.393456
1815.18, 0.393662
1815.82, 0.393610
1816.45, 0.393919
1817.09, 0.394177
1817.73, 0.394692
1818.36, 0.394898
1819.0, 0.395155
1819.64, 0.395155
1820.28, 0.395825
1820.92, 0.395877
1821.56, 0.396134
1822.2, 0.396186
1822.84, 0.396083
1823.48, 0.395877
1824.12, 0.396134
1824.76, 0.396237
1825.41, 0.396701
1826.05, 0.397679
1826.69, 0.398091
1827.34, 0.397370
1827.98, 0.397679
1828.63, 0.397834
1829.27, 0.398349
1829.92, 0.398503
1830.56, 0.398555
1831.21, 0.398606
1831.86, 0.398864
1832.5, 0.398915
1833.15, 0.399018
1833.8, 0.398812
1834.45, 0.399482
1835.1, 0.400049
1835.75, 0.400512
1836.4, 0.400718
1837.05, 0.400873
1837.7, 0.401130
1838.35, 0.401079
1839.01, 0.400821
1839.66, 0.401748
1840.31, 0.401594
1840.96, 0.401388
1841.62, 0.402212
1842.27, 0.402830
1842.93, 0.402057
1843.58, 0.401800
1844.24, 0.401748
1844.9, 0.402212
1845.55, 0.402469
1846.21, 0.402933
1846.87, 0.403602
1847.53, 0.403963
1848.18, 0.403602
1848.84, 0.403602
1849.5, 0.403396
1850.16, 0.403602
1850.82, 0.403499
1851.48, 0.403499
1852.14, 0.403602
1852.81, 0.404221
1853.47, 0.404736
1854.13, 0.405354
1854.8, 0.404890
1855.46, 0.404684
1856.12, 0.405045
1856.79, 0.405869
1857.45, 0.405457
1858.12, 0.405302
1858.79, 0.405457
1859.45, 0.406487
1860.12, 0.406590
1860.79, 0.406384
1861.46, 0.406178
1862.12, 0.406487
1862.79, 0.406435
1863.46, 0.406693
1864.13, 0.407002
1864.8, 0.407311
1865.48, 0.406950
1866.15, 0.407208
1866.82, 0.407362
1867.49, 0.408393
1868.16, 0.408753
1868.84, 0.408393
1869.51, 0.408238
1870.19, 0.408856
1870.86, 0.409732
1871.54, 0.409629
1872.21, 0.409114
1872.89, 0.410144
1873.56, 0.410350
1874.24, 0.409989
1874.92, 0.409783
1875.6, 0.409938
1876.28, 0.409938
1876.96, 0.410710
1877.64, 0.410401
1878.32, 0.410247
1879.0, 0.410144
1879.68, 0.410607
1880.36, 0.410916
1881.04, 0.411380
1881.73, 0.411122
1882.41, 0.411225
1883.09, 0.411277
1883.78, 0.411895
1884.46, 0.412101
1885.15, 0.412049
1885.83, 0.411895
1886.52, 0.412307
1887.21, 0.412513
1887.89, 0.412668
1888.58, 0.412565
1889.27, 0.413028
1889.96, 0.413749
1890.65, 0.414213
1891.34, 0.413595
1892.03, 0.413749
1892.72, 0.413749
1893.41, 0.414058
1894.1, 0.414213
1894.79, 0.414316
1895.49, 0.414264
1896.18, 0.414573
1896.87, 0.414676
1897.57, 0.415294
1898.26, 0.415397
1898.96, 0.415861
1899.65, 0.416531
1900.35, 0.416737
1901.05, 0.416118
1901.74, 0.415964
1902.44, 0.416479
1903.14, 0.417097
1903.84, 0.416788
1904.54, 0.417149
1905.24, 0.417561
1905.94, 0.417870
1906.64, 0.417921
1907.34, 0.417870
1908.04, 0.417303
1908.75, 0.417561
1909.45, 0.417561
1910.15, 0.418076
1910.86, 0.418179
1911.56, 0.418488
1912.27, 0.418282
1912.97, 0.418900
1913.68, 0.419415
1914.39, 0.419312
1915.09, 0.418951
1915.8, 0.419312
1916.51, 0.419415
1917.22, 0.419312
1917.93, 0.419260
1918.64, 0.419621
1919.35, 0.420136
1920.06, 0.420909
1920.77, 0.420909
1921.48, 0.420651
1922.19, 0.420290
1922.91, 0.420600
1923.62, 0.420857
1924.33, 0.421166
1925.05, 0.420806
1925.76, 0.420960
1926.48, 0.421115
1927.19, 0.421630
1927.91, 0.421681
1928.63, 0.421939
1929.35, 0.421733
1930.07, 0.421939
1930.78, 0.422042
1931.5, 0.422299
1932.22, 0.422042
1932.94, 0.422299
1933.66, 0.422402
1934.39, 0.422660
1935.11, 0.422505
1935.83, 0.422763
1936.55, 0.422866
1937.28, 0.423072
1938.0, 0.422969
1938.73, 0.423381
1939.45, 0.423587
1940.18, 0.423741
1940.9, 0.423535
1941.63, 0.423793
1942.36, 0.423793
1943.09, 0.423741
1943.81, 0.423741
1944.54, 0.424153
1945.27, 0.424205
1946.0, 0.424256
1946.73, 0.424153
1947.47, 0.424565
1948.2, 0.424668
1948.93, 0.424823
1949.66, 0.424617
1950.4, 0.424772
1951.13, 0.424823
1951.86, 0.425081
1952.6, 0.424926
1953.34, 0.425029
1954.07, 0.425081
1954.81, 0.425287
1955.55, 0.425081
1956.29, 0.425287
1957.02, 0.425184
1957.76, 0.425544
1958.5, 0.425699
1959.24, 0.425905
1959.98, 0.426008
1960.72, 0.426368
1961.47, 0.426471
1962.21, 0.426729
1962.95, 0.426420
1963.7, 0.426317
1964.44, 0.426265
1965.18, 0.426523
1965.93, 0.426523
1966.67, 0.426986
1967.42, 0.427089
1968.17, 0.427089
1968.92, 0.426935
1969.66, 0.427192
1970.41, 0.427244
1971.16, 0.427398
1971.91, 0.427450
1972.66, 0.427656
1973.41, 0.427656
1974.16, 0.427862
1974.92, 0.427553
1975.67, 0.427810
1976.42, 0.428016
1977.18, 0.428325
1977.93, 0.428119
1978.69, 0.428428
1979.44, 0.428531
1980.2, 0.428686
1980.95, 0.428634
1981.71, 0.428789
1982.47, 0.428686
1983.23, 0.428995
1983.99, 0.428789
1984.74, 0.428944
1985.51, 0.429098
1986.27, 0.429253
1987.03, 0.429098
1987.79, 0.429201
1988.55, 0.429407
1989.32, 0.429819
1990.08, 0.429871
1990.84, 0.430128
1991.61, 0.429974
1992.37, 0.430077
1993.14, 0.430283
1993.9, 0.430489
1994.67, 0.430386
1995.44, 0.430592
1996.21, 0.430489
1996.98, 0.430643
1997.75, 0.430746
1998.52, 0.431055
1999.29, 0.431107
2000.06, 0.431313
2000.83, 0.431210
2001.6, 0.431313
2002.38, 0.431158
2003.15, 0.431364
2003.93, 0.431416
2004.7, 0.431776
2005.48, 0.431725
2006.25, 0.431828
2007.03, 0.431622
2007.81, 0.431828
2008.58, 0.432034
2009.36, 0.432549
2010.14, 0.432394
2010.92, 0.432291
2011.7, 0.432240
2012.48, 0.432394
2013.26, 0.432188
2014.05, 0.432240
2014.83, 0.432240
2015.61, 0.432394
2016.4, 0.432240
2017.18, 0.432497
2017.97, 0.432549
2018.75, 0.432549
2019.54, 0.432446
2020.32, 0.432652
2021.11, 0.432652
2021.9, 0.432652
2022.69, 0.432446
2023.48, 0.432652
2024.27, 0.432600
2025.06, 0.432703
2025.85, 0.432703
2026.64, 0.432858
2027.44, 0.432755
2028.23, 0.432910
2029.02, 0.432755
2029.82, 0.432858
2030.61, 0.432806
2031.41, 0.433012
2032.2, 0.432858
2033.0, 0.432961
2033.8, 0.432755
2034.6, 0.432858
2035.4, 0.432910
2036.2, 0.433064
2037.0, 0.432806
2037.8, 0.432961
2038.6, 0.432806
2039.4, 0.432858
2040.2, 0.432858
2041.01, 0.432961
2041.81, 0.432755
2042.61, 0.432910
2043.42, 0.432858
2044.22, 0.432806
2045.03, 0.432652
2045.84, 0.432961
2046.65, 0.432600
2047.46, 0.432600
2048.26, 0.432446
2049.07, 0.432652
2049.88, 0.432703
2050.69, 0.432703
2051.51, 0.432497
2052.32, 0.432652
2053.13, 0.432549
2053.94, 0.432600
2054.76, 0.432446
2055.57, 0.432446
2056.39, 0.432394
2057.2, 0.432497
2058.02, 0.432291
2058.84, 0.432446
2059.66, 0.432240
2060.48, 0.432240
2061.29, 0.432085
2062.11, 0.432188
2062.94, 0.432034
2063.76, 0.432137
2064.58, 0.432085
2065.4, 0.432291
2066.22, 0.432188
2067.05, 0.432188
2067.87, 0.432085
2068.7, 0.432085
2069.52, 0.431879
2070.35, 0.431982
2071.18, 0.431828
2072.0, 0.432188
2072.83, 0.432188
2073.66, 0.432137
2074.49, 0.431931
2075.32, 0.431931
2076.15, 0.431776
2076.98, 0.431828
2077.82, 0.431725
2078.65, 0.431931
2079.48, 0.431931
2080.32, 0.431931
2081.15, 0.431776
2081.99, 0.431931
2082.83, 0.431879
2083.66, 0.431879
2084.5, 0.431622
2085.34, 0.431828
2086.18, 0.431725
2087.02, 0.431828
2087.86, 0.431776
2088.7, 0.431931
2089.54, 0.431828
2090.39, 0.431879
2091.23, 0.431570
2092.07, 0.431725
2092.92, 0.431725
2093.76, 0.431931
2094.61, 0.431931
2095.45, 0.431982
2096.3, 0.431776
2097.15, 0.431828
2098.0, 0.431828
2098.85, 0.432137
2099.7, 0.431828
2100.55, 0.431828
2101.4, 0.431673
2102.25, 0.431776
2103.1, 0.431725
2103.96, 0.431725
2104.81, 0.431519
2105.67, 0.431622
2106.52, 0.431570
2107.38, 0.431673
2108.24, 0.431725
2109.09, 0.431879
2109.95, 0.431776
2110.81, 0.431879
2111.67, 0.431519
2112.53, 0.431570
2113.39, 0.431519
2114.25, 0.431673
2115.12, 0.431467
2115.98, 0.431364
2116.84, 0.431210
2117.71, 0.431313
2118.58, 0.431210
2119.44, 0.431261
2120.31, 0.431261
2121.18, 0.431364
2122.04, 0.431313
2122.91, 0.431416
2123.78, 0.431055
2124.65, 0.431055
2125.52, 0.430901
2126.4, 0.431004
2127.27, 0.430901
2128.14, 0.431004
2129.02, 0.430901
2129.89, 0.430798
2130.77, 0.430489
2131.64, 0.430540
2132.52, 0.430437
2133.4, 0.430489
2134.27, 0.430231
2135.15, 0.430386
2136.03, 0.430231
2136.91, 0.430077
2137.79, 0.429819
2138.68, 0.429768
2139.56, 0.429613
2140.44, 0.429613
2141.33, 0.429459
2142.21, 0.429510
2143.1, 0.429253
2143.99, 0.429201
2144.87, 0.428995
2145.76, 0.429201
2146.65, 0.428841
2147.54, 0.428892
2148.43, 0.428634
2149.32, 0.428634
2150.21, 0.428531
2151.1, 0.428531
2151.99, 0.428222
2152.89, 0.428325
2153.78, 0.428068
2154.68, 0.428068
2155.57, 0.428016
2156.47, 0.428119
2157.37, 0.427759
2158.27, 0.427707
2159.16, 0.427501
2160.06, 0.427450
2160.96, 0.427244
2161.86, 0.427347
2162.77, 0.427038
2163.67, 0.427089
2164.57, 0.426883
2165.48, 0.426832
2166.38, 0.426523
2167.29, 0.426471
2168.2, 0.426162
2169.1, 0.426214
2170.01, 0.426111
2170.92, 0.426214
2171.83, 0.426059
2172.74, 0.425956
2173.65, 0.425699
2174.56, 0.425699
2175.47, 0.425493
2176.39, 0.425544
2177.3, 0.425287
2178.22, 0.425235
2179.13, 0.425081
2180.05, 0.425081
2180.96, 0.424823
2181.88, 0.424823
2182.8, 0.424514
2183.72, 0.424514
2184.64, 0.424359
2185.56, 0.424462
2186.48, 0.424359
2187.41, 0.424308
2188.33, 0.424153
2189.25, 0.424308
2190.18, 0.424050
2191.1, 0.423999
2192.03, 0.423844
2192.96, 0.423844
2193.89, 0.423741
2194.82, 0.423793
2195.74, 0.423535
2196.68, 0.423535
2197.61, 0.423278
2198.54, 0.423278
2199.47, 0.423123
2200.4, 0.423278
2201.34, 0.423072
2202.28, 0.423020
2203.21, 0.422763
2204.15, 0.422866
2205.08, 0.422866
2206.02, 0.423072
2206.96, 0.422763
2207.9, 0.422711
2208.84, 0.422608
2209.78, 0.422557
2210.73, 0.422351
2211.67, 0.422660
2212.61, 0.422557
2213.56, 0.422351
2214.5, 0.422093
2215.45, 0.422248
2216.4, 0.422299
2217.35, 0.422505
2218.3, 0.422299
2219.24, 0.422248
2220.2, 0.422093
2221.15, 0.422093
2222.1, 0.421939
2223.05, 0.422042
2224.0, 0.421887
2224.96, 0.421990
2225.91, 0.421887
2226.87, 0.421836
2227.83, 0.421784
2228.79, 0.421939
2229.74, 0.422085
2230.7, 0.421792
2231.66, 0.421597
2232.63, 0.422036
2233.59, 0.421987
2234.55, 0.421939
2235.51, 0.421646
2236.48, 0.421255
2237.44, 0.421499
2238.41, 0.421695
2239.38, 0.421548
2240.34, 0.421158
2241.31, 0.421158
2242.28, 0.421255
2243.25, 0.421060
2244.22, 0.420865
2245.19, 0.420963
2246.17, 0.420914
2247.14, 0.420963
2248.12, 0.420963
2249.09, 0.421011
2250.07, 0.420865
2251.04, 0.420963
2252.02, 0.420670
2253.0, 0.420426
2253.98, 0.420035
2254.96, 0.420084
2255.94, 0.420035
2256.92, 0.419938
2257.91, 0.419742
2258.89, 0.419450
2259.88, 0.419840
2260.86, 0.420182
2261.85, 0.420084
2262.83, 0.420035
2263.82, 0.419694
2264.81, 0.419645
2265.8, 0.419742
2266.79, 0.419596
2267.78, 0.419645
2268.78, 0.419596
2269.77, 0.419157
2270.76, 0.418864
2271.76, 0.419010
2272.75, 0.419010
2273.75, 0.418766
2274.75, 0.418620
2275.75, 0.418766
2276.75, 0.418864
2277.75, 0.418864
2278.75, 0.418815
2279.75, 0.418815
2280.75, 0.418473
2281.76, 0.418181
2282.76, 0.418278
2283.77, 0.418229
2284.77, 0.418083
2285.78, 0.418083
2286.79, 0.418083
2287.8, 0.418132
2288.81, 0.417937
2289.82, 0.417888
2290.83, 0.417644
2291.84, 0.417546
2292.86, 0.417595
2293.87, 0.417448
2294.89, 0.417156
2295.91, 0.417107
2296.92, 0.417400
2297.94, 0.417253
2298.96, 0.417058
2299.98, 0.417009
2301.0, 0.416619
2302.02, 0.416570
2303.04, 0.416814
2304.07, 0.416716
2305.09, 0.416375
2306.12, 0.416326
2307.15, 0.416228
2308.17, 0.416082
2309.2, 0.415838
2310.23, 0.415935
2311.26, 0.415838
2312.29, 0.415740
2313.32, 0.415447
2314.35, 0.415350
2315.39, 0.415545
2316.42, 0.415545
2317.46, 0.415203
2318.5, 0.415399
2319.53, 0.415399
2320.57, 0.415154
2321.61, 0.415154
2322.65, 0.415350
2323.69, 0.415203
2324.73, 0.415399
2325.78, 0.415496
2326.82, 0.415399
2327.86, 0.415252
2328.91, 0.415057
2329.96, 0.415594
2331.01, 0.415594
2332.05, 0.415399
2333.1, 0.415350
2334.15, 0.415154
2335.21, 0.415106
2336.26, 0.415399
2337.31, 0.415252
2338.36, 0.415057
2339.42, 0.415154
2340.48, 0.415154
2341.53, 0.415252
2342.59, 0.415057
2343.65, 0.415106
2344.71, 0.415154
2345.77, 0.415154
2346.83, 0.415057
2347.9, 0.415154
2348.96, 0.415350
2350.02, 0.415447
2351.09, 0.415350
2352.16, 0.415106
2353.23, 0.414910
2354.29, 0.414959
2355.36, 0.415154
2356.43, 0.415399
2357.51, 0.415399
2358.58, 0.415106
2359.65, 0.415008
2360.73, 0.415106
2361.8, 0.415301
2362.88, 0.415496
2363.96, 0.415496
2365.03, 0.415594
2366.11, 0.415545
2367.19, 0.415496
2368.27, 0.415447
2369.36, 0.415496
2370.44, 0.415399
2371.53, 0.415350
2372.61, 0.415350
2373.7, 0.415399
2374.78, 0.415545
2375.87, 0.415594
2376.96, 0.415496
2378.05, 0.415691
2379.14, 0.415887
2380.24, 0.415887
2381.33, 0.415643
2382.42, 0.415740
2383.52, 0.415838
2384.61, 0.415643
2385.71, 0.415691
2386.81, 0.415740
2387.91, 0.415691
2389.01, 0.415740
2390.11, 0.415691
2391.22, 0.415887
2392.32, 0.416082
2393.42, 0.416326
2394.53, 0.416326
2395.64, 0.416570
2396.74, 0.416472
2397.85, 0.416423
2398.96, 0.416375
2400.07, 0.416375
2401.18, 0.416375
2402.3, 0.416472
2403.41, 0.416521
2404.52, 0.416521
2405.64, 0.416326
2406.76, 0.416423
2407.88, 0.416472
2408.99, 0.416326
2410.11, 0.416521
2411.23, 0.416570
2412.36, 0.416423
2413.48, 0.416570
2414.6, 0.416814
2415.73, 0.416814
2416.85, 0.416814
2417.98, 0.416716
2419.11, 0.416814
2420.24, 0.416960
2421.37, 0.416863
2422.5, 0.416716
2423.64, 0.416570
2424.77, 0.416716
2425.9, 0.416619
2427.04, 0.416619
2428.18, 0.416619
2429.31, 0.416912
2430.45, 0.417009
2431.59, 0.416960
2432.73, 0.416912
2433.88, 0.416912
2435.02, 0.416863
2436.16, 0.416765
2437.31, 0.416570
2438.45, 0.416716
2439.6, 0.416912
2440.75, 0.416863
2441.9, 0.416912
2443.05, 0.417107
2444.2, 0.417107
2445.35, 0.417058
2446.51, 0.416863
2447.67, 0.416765
2448.82, 0.416814
2449.98, 0.417009
2451.14, 0.417253
2452.3, 0.417204
2453.46, 0.417253
2454.62, 0.417351
2455.78, 0.417253
2456.94, 0.417400
2458.11, 0.417400
2459.28, 0.417400
2460.44, 0.417351
2461.61, 0.417595
2462.78, 0.417741
2463.95, 0.417741
2465.12, 0.417839
2466.3, 0.418132
2467.47, 0.418132
2468.65, 0.418181
2469.82, 0.418229
2471.0, 0.418522
2472.18, 0.418571
2473.36, 0.418571
2474.54, 0.418766
2475.72, 0.418961
2476.9, 0.419157
2478.08, 0.419108
2479.27, 0.419205
2480.46, 0.419254
2481.64, 0.419498
2482.83, 0.419694
2484.02, 0.419694
2485.21, 0.419840
2486.4, 0.419986
2487.6, 0.420230
2488.79, 0.420523
2489.99, 0.420670
2491.18, 0.420572
2492.38, 0.420621
2493.58, 0.420670
2494.78, 0.421060
2495.98, 0.421207
2497.18, 0.421255
2498.39, 0.421255
2499.59, 0.421499
2500.8, 0.421597
2502.01, 0.421743
2503.21, 0.421890
2504.42, 0.422232
2505.63, 0.422329
2506.84, 0.422524
2508.06, 0.422622
2509.27, 0.422671
2510.49, 0.422768
2511.7, 0.423110
2512.92, 0.423354
2514.14, 0.423501
2515.36, 0.423891
2516.58, 0.424233
2517.8, 0.424379
2519.03, 0.424574
2520.25, 0.424818
2521.48, 0.424916
2522.7, 0.425209
2523.93, 0.425550
2525.16, 0.425599
2526.39, 0.425697
2527.62, 0.425990
2528.86, 0.426283
2530.09, 0.426966
2531.33, 0.427698
2532.56, 0.427942
2533.8, 0.427503
2535.04, 0.428235
2536.28, 0.429016
2537.52, 0.428088
2538.76, 0.427796
2540.01, 0.428137
2541.25, 0.429113
2542.5, 0.430578
2543.75, 0.430480
2544.99, 0.429699
2546.24, 0.429894
2547.49, 0.431114
2548.75, 0.430822
2550.0, 0.431261
2551.26, 0.432676
2552.51, 0.433360
2553.77, 0.432139
2555.03, 0.430626
2556.29, 0.430724
2557.55, 0.430968
2558.81, 0.432530
2560.08, 0.436874
2561.34, 0.440632
2562.61, 0.440729
2563.88, 0.439997
2565.14, 0.436386
2566.41, 0.433213
2567.68, 0.434482
2568.96, 0.438484
2570.23, 0.437996
2571.51, 0.435800
2572.78, 0.440827
2574.06, 0.440339
2575.34, 0.438143
2576.62, 0.440241
2577.9, 0.437703
2579.18, 0.436093
2580.47, 0.439509
2581.75, 0.440534
2583.04, 0.445122
2584.32, 0.445757
2585.61, 0.441169
2586.9, 0.443414
2588.2, 0.442731
2589.49, 0.440388
2590.78, 0.438289
2592.08, 0.440241
2593.37, 0.453371
2594.67, 0.466549
2595.97, 0.454884
2597.27, 0.442340
2598.57, 0.438191
2599.88, 0.439412
2601.18, 0.442243
2602.49, 0.444195
2603.79, 0.448002
2605.1, 0.453517
2606.41, 0.450589
2607.72, 0.446098
2609.03, 0.445171
2610.35, 0.443560
2611.66, 0.441998
2612.98, 0.443072
2614.3, 0.443072
2615.62, 0.449564
2616.94, 0.454005
2618.26, 0.448783
2619.58, 0.452297
2620.91, 0.451906
2622.23, 0.443609
2623.56, 0.441901
2624.89, 0.445073
2626.22, 0.452053
2627.55, 0.449222
2628.88, 0.450589
2630.21, 0.457958
2631.55, 0.452150
2632.89, 0.448343
2634.22, 0.448441
2635.56, 0.445269
2636.9, 0.444683
2638.25, 0.444683
2639.59, 0.445366
2640.93, 0.446440
2642.28, 0.447318
2643.63, 0.447221
2644.98, 0.450198
2646.33, 0.450149
2647.68, 0.447953
2649.03, 0.447221
2650.39, 0.448831
2651.74, 0.453029
2653.1, 0.453566
2654.46, 0.452297
2655.82, 0.452443
2657.18, 0.450247
2658.54, 0.453468
2659.9, 0.455616
2661.27, 0.454786
2662.64, 0.454493
2664.01, 0.463376
2665.38, 0.472259
2666.74, 0.472064
2668.12, 0.464743
2669.49, 0.472601
2670.87, 0.474016
2672.24, 0.459667
2673.62, 0.456885
2675.0, 0.461863
2676.38, 0.467525
2677.76, 0.466353
2679.15, 0.464499
2680.54, 0.457714
2681.92, 0.455518
2683.31, 0.457080
2684.7, 0.456299
2686.09, 0.455469
2687.48, 0.453419
2688.88, 0.451321
2690.27, 0.449759
2691.67, 0.451418
2693.07, 0.458398
2694.47, 0.459667
2695.87, 0.454688
2697.27, 0.450100
2698.67, 0.449124
2700.08, 0.452053
2701.49, 0.453517
2702.9, 0.451174
2704.31, 0.450686
2705.72, 0.451125
2707.13, 0.453078
2708.54, 0.458593
2709.96, 0.464987
2711.38, 0.463718
2712.8, 0.454396
2714.22, 0.451418
2715.64, 0.451223
2717.06, 0.452931
2718.49, 0.456641
2719.91, 0.466695
2721.34, 0.462742
2722.77, 0.457373
2724.2, 0.461473
2725.63, 0.455909
2727.07, 0.448441
2728.5, 0.446049
2729.94, 0.445708
2731.38, 0.445366
2732.82, 0.446733
2734.26, 0.451174
2735.7, 0.449417
2737.15, 0.447758
2738.59, 0.455567
2740.04, 0.459764
2741.49, 0.454005
2742.94, 0.445610
2744.39, 0.441706
2745.84, 0.440876
2747.3, 0.440241
2748.76, 0.439705
2750.21, 0.439607
2751.67, 0.439900
2753.14, 0.441315
2754.6, 0.449612
2756.06, 0.448343
2757.53, 0.438436
2759.0, 0.434531
2760.46, 0.435165
2761.94, 0.439119
2763.41, 0.438972
2764.88, 0.435458
2766.36, 0.435165
2767.83, 0.435458
2769.31, 0.435117
2770.79, 0.435458
2772.27, 0.431847
2773.76, 0.428381
2775.24, 0.427454
2776.73, 0.427454
2778.22, 0.426380
2779.71, 0.425111
2781.2, 0.423940
2782.69, 0.420670
2784.18, 0.416814
2785.68, 0.416033
2787.18, 0.414227
2788.68, 0.407882
2790.18, 0.402562
2791.68, 0.400805
2793.19, 0.400756
2794.69, 0.400659
2796.2, 0.399341
2797.71, 0.396120
2799.22, 0.392069
2800.73, 0.389921
2802.24, 0.391093
2803.76, 0.391190
2805.28, 0.390458
2806.8, 0.391727
2808.32, 0.394607
2809.84, 0.398316
2811.36, 0.403050
2812.89, 0.408810
2814.42, 0.414227
2815.94, 0.417058
2817.48, 0.418815
2819.01, 0.421011
2820.54, 0.421646
2822.08, 0.421011
2823.61, 0.420426
2825.15, 0.420719
2826.69, 0.421109
2828.23, 0.421158
2829.78, 0.421011
2831.32, 0.421402
2832.87, 0.422134
2834.42, 0.422476
2835.97, 0.422378
2837.52, 0.422378
2839.08, 0.422036
2840.63, 0.421597
2842.19, 0.421597
2843.75, 0.421646
2845.31, 0.421792
2846.87, 0.422036
2848.44, 0.422378
2850.0, 0.422280
2851.57, 0.422036
2853.14, 0.422622
2854.71, 0.422768
2856.28, 0.422036
2857.86, 0.421743
2859.43, 0.421987
2861.01, 0.421890
2862.59, 0.421646
2864.17, 0.421499
2865.76, 0.421743
2867.34, 0.421890
2868.93, 0.421841
2870.52, 0.422183
2872.11, 0.422378
2873.7, 0.422134
2875.29, 0.422134
2876.89, 0.422329
2878.49, 0.422329
2880.08, 0.422329
2881.69, 0.422329
2883.29, 0.422378
2884.89, 0.422476
2886.5, 0.422622
2888.11, 0.422720
2889.72, 0.422671
2891.33, 0.422817
2892.94, 0.423159
2894.56, 0.423208
2896.17, 0.423208
2897.79, 0.423208
2899.42, 0.423745
2901.04, 0.424135
2902.66, 0.424037
2904.29, 0.424281
2905.92, 0.424379
2907.55, 0.424233
2909.18, 0.424281
2910.81, 0.424379
2912.45, 0.424525
2914.08, 0.424770
2915.72, 0.424867
2917.36, 0.424867
2919.01, 0.425160
2920.65, 0.425453
2922.3, 0.425843
2923.94, 0.425990
2925.59, 0.425843
2927.25, 0.425892
2928.9, 0.426087
2930.56, 0.426136
2932.21, 0.426234
2933.87, 0.426331
2935.53, 0.426527
2937.2, 0.426722
2938.86, 0.426966
2940.53, 0.427259
2942.2, 0.427405
2943.87, 0.427600
2945.54, 0.427649
2947.22, 0.427893
2948.89, 0.427844
2950.57, 0.427796
2952.25, 0.428088
2953.93, 0.428479
2955.62, 0.428772
2957.3, 0.428869
2958.99, 0.429016
2960.68, 0.429113
2962.37, 0.429260
2964.07, 0.429357
2965.76, 0.429699
2967.46, 0.430090
2969.16, 0.430529
2970.86, 0.430773
2972.56, 0.430870
2974.27, 0.431017
2975.98, 0.431261
2977.69, 0.431456
2979.4, 0.431798
2981.11, 0.431895
2982.83, 0.432042
2984.54, 0.432237
2986.26, 0.432481
2987.98, 0.432774
2989.71, 0.433262
2991.43, 0.433506
2993.16, 0.433652
2994.89, 0.433848
2996.62, 0.434189
2998.35, 0.434482
3000.09, 0.434824
3001.83, 0.435019
3003.57, 0.435312
3005.31, 0.435605
3007.05, 0.435849
3008.79, 0.436142
3010.54, 0.436434
3012.29, 0.436727
3014.04, 0.437020
3015.8, 0.437264
3017.55, 0.437703
3019.31, 0.438094
3021.07, 0.438484
3022.83, 0.438728
3024.59, 0.438972
3026.36, 0.439216
3028.13, 0.439460
3029.9, 0.439802
3031.67, 0.440144
3033.44, 0.440485
3035.22, 0.440778
3037.0, 0.441120
3038.78, 0.441462
3040.56, 0.441803
3042.34, 0.442096
3044.13, 0.442487
3045.92, 0.442926
3047.71, 0.443267
3049.5, 0.443609
3051.3, 0.443853
3053.09, 0.444244
3054.89, 0.444634
3056.69, 0.444927
3058.5, 0.445220
3060.3, 0.445708
3062.11, 0.446196
3063.92, 0.446586
3065.73, 0.446928
3067.55, 0.447270
3069.36, 0.447562
3071.18, 0.448002
3073.0, 0.448441
3074.82, 0.448734
3076.65, 0.449027
3078.48, 0.449417
3080.31, 0.450052
3082.14, 0.450589
3083.97, 0.450930
3085.8, 0.451125
3087.64, 0.451467
3089.48, 0.451906
3091.33, 0.452346
3093.17, 0.452834
3095.02, 0.453273
3096.87, 0.453761
3098.72, 0.454200
3100.57, 0.454640
3102.43, 0.454932
3104.28, 0.455372
3106.14, 0.455957
3108.01, 0.456445
3109.87, 0.456933
3111.74, 0.457226
3113.61, 0.457568
3115.48, 0.458105
3117.35, 0.458495
3119.23, 0.459032
3121.1, 0.459471
3122.98, 0.459862
3124.87, 0.460106
3126.75, 0.460643
3128.64, 0.461131
3130.53, 0.461521
3132.42, 0.461863
3134.31, 0.462302
3136.21, 0.462742
3138.11, 0.463425
3140.01, 0.464011
3141.91, 0.464352
3143.82, 0.464743
3145.73, 0.465280
3147.64, 0.465719
3149.55, 0.466207
3151.46, 0.466695
3153.38, 0.467183
3155.3, 0.467476
3157.22, 0.467817
3159.14, 0.468306
3161.07, 0.468891
3163.0, 0.469379
3164.93, 0.469819
3166.86, 0.470307
3168.8, 0.470648
3170.74, 0.471039
3172.68, 0.471576
3174.62, 0.471966
3176.56, 0.472503
3178.51, 0.472893
3180.46, 0.473430
3182.42, 0.473821
3184.37, 0.474260
3186.33, 0.474699
3188.29, 0.475041
3190.25, 0.475480
3192.21, 0.475919
3194.18, 0.476261
3196.15, 0.476652
3198.12, 0.477042
3200.09, 0.477530
3202.07, 0.478018
3204.05, 0.478262
3206.03, 0.478555
3208.02, 0.479043
3210.0, 0.479385
3211.99, 0.479678
3213.98, 0.480068
3215.98, 0.480410
3217.97, 0.480751
3219.97, 0.481191
3221.97, 0.481484
3223.98, 0.482020
3225.98, 0.482264
3227.99, 0.482509
3230.0, 0.482850
3232.02, 0.483241
3234.03, 0.483533
3236.05, 0.483826
3238.07, 0.484119
3240.1, 0.484510
3242.12, 0.484851
3244.15, 0.485290
3246.18, 0.485730
3248.22, 0.485925
3250.25, 0.486071
3252.29, 0.486413
3254.33, 0.486852
3256.38, 0.487292
3258.43, 0.487633
3260.47, 0.488170
3262.53, 0.488512
3264.58, 0.488609
3266.64, 0.488756
3268.7, 0.489195
3270.76, 0.489488
3272.82, 0.489732
3274.89, 0.489976
3276.96, 0.490366
3279.04, 0.490855
3281.11, 0.491196
3283.19, 0.491343
3285.27, 0.491635
3287.35, 0.491879
3289.44, 0.492221
3291.53, 0.492612
3293.62, 0.493002
3295.71, 0.493197
3297.81, 0.493588
3299.91, 0.493832
3302.01, 0.493929
3304.11, 0.494222
3306.22, 0.494564
3308.33, 0.494808
3310.44, 0.495101
3312.56, 0.495345
3314.68, 0.495638
3316.8, 0.495735
3318.92, 0.496028
3321.05, 0.496321
3323.18, 0.496370
3325.31, 0.496370
3327.44, 0.496614
3329.58, 0.496760
3331.72, 0.497004
3333.86, 0.497199
3336.01, 0.497248
3338.16, 0.497395
3340.31, 0.497687
3342.46, 0.497687
3344.61, 0.497639
3346.77, 0.497541
3348.94, 0.497395
3351.1, 0.497151
3353.27, 0.496858
3355.44, 0.496565
3357.61, 0.496321
3359.79, 0.495979
3361.97, 0.495638
3364.15, 0.495052
3366.33, 0.494564
3368.52, 0.494076
3370.71, 0.493637
3372.9, 0.493148
3375.1, 0.492856
3377.3, 0.492758
3379.5, 0.492904
3381.71, 0.493051
3383.91, 0.493344
3386.12, 0.493539
3388.34, 0.493685
3390.55, 0.493490
3392.77, 0.493148
3394.99, 0.492612
3397.22, 0.491879
3399.45, 0.490952
3401.68, 0.490025
3403.91, 0.489000
3406.15, 0.488073
3408.39, 0.487145
3410.63, 0.486413
3412.87, 0.485779
3415.12, 0.485583
3417.37, 0.485876
3419.63, 0.486950
3421.88, 0.488414
3424.14, 0.490122
3426.41, 0.491928
3428.67, 0.493539
3430.94, 0.494759
3433.21, 0.495882
3435.49, 0.496858
3437.77, 0.497785
3440.05, 0.498566
3442.33, 0.499249
3444.62, 0.499884
3446.91, 0.500616
3449.2, 0.501202
3451.5, 0.501787
3453.8, 0.502178
3456.1, 0.502519
3458.41, 0.502861
3460.72, 0.503300
3463.03, 0.503496
3465.34, 0.503642
3467.66, 0.503593
3469.98, 0.503593
3472.31, 0.503447
3474.63, 0.503447
3476.96, 0.503349
3479.3, 0.503252
3481.64, 0.503203
3483.97, 0.503154
3486.32, 0.503056
3488.66, 0.502812
3491.01, 0.502275
3493.36, 0.501836
3495.72, 0.501250
3498.08, 0.500811
3500.44, 0.500665
3502.81, 0.501006
3505.18, 0.501885
3507.55, 0.503300
3509.92, 0.504716
3512.3, 0.506180
3514.68, 0.507449
3517.06, 0.508572
3519.45, 0.509450
3521.84, 0.510231
3524.24, 0.510914
3526.64, 0.511354
3529.04, 0.511744
3531.44, 0.512183
3533.85, 0.512525
3536.26, 0.512818
3538.67, 0.512964
3541.09, 0.513306
3543.51, 0.513501
3545.93, 0.513647
3548.36, 0.513696
3550.79, 0.513940
3553.22, 0.514184
3555.66, 0.514282
3558.1, 0.514331
3560.54, 0.514380
3562.99, 0.514477
3565.44, 0.514672
3567.9, 0.514721
3570.35, 0.514721
3572.81, 0.514672
3575.28, 0.514868
3577.75, 0.514965
3580.22, 0.515014
3582.69, 0.514917
3585.17, 0.514917
3587.65, 0.514965
3590.14, 0.515014
3592.62, 0.514965
3595.11, 0.514965
3597.61, 0.514965
3600.11, 0.514965
3602.61, 0.514965
3605.11, 0.515014
3607.62, 0.514819
3610.14, 0.514770
3612.65, 0.514770
3615.17, 0.514819
3617.69, 0.514672
3620.22, 0.514575
3622.75, 0.514526
3625.28, 0.514575
3627.82, 0.514526
3630.36, 0.514428
3632.9, 0.514331
3635.45, 0.514331
3638.0, 0.514233
3640.56, 0.514233
3643.12, 0.514184
3645.68, 0.514136
3648.24, 0.514087
3650.81, 0.514038
3653.39, 0.513843
3655.96, 0.513843
3658.54, 0.513892
3661.13, 0.513794
3663.71, 0.513647
3666.3, 0.513696
3668.9, 0.513647
3671.5, 0.513550
3674.1, 0.513501
3676.7, 0.513452
3679.31, 0.513306
3681.93, 0.513306
3684.54, 0.513159
3687.17, 0.513111
3689.79, 0.512964
3692.42, 0.512915
3695.05, 0.512769
3697.69, 0.512720
3700.32, 0.512574
3702.97, 0.512427
3705.61, 0.512232
3708.27, 0.512183
3710.92, 0.512086
3713.58, 0.511988
3716.24, 0.511842
3718.91, 0.511793
3721.58, 0.511646
3724.25, 0.511451
3726.93, 0.511256
3729.61, 0.511158
3732.29, 0.511012
3734.98, 0.510914
3737.67, 0.510768
3740.37, 0.510670
3743.07, 0.510524
3745.78, 0.510377
3748.49, 0.510231
3751.2, 0.510085
3753.91, 0.509889
3756.63, 0.509841
3759.36, 0.509743
3762.09, 0.509548
3764.82, 0.509352
3767.55, 0.509157
3770.29, 0.508913
3773.04, 0.508816
3775.78, 0.508718
3778.54, 0.508523
3781.29, 0.508376
3784.05, 0.508279
3786.82, 0.508035
3789.59, 0.507839
3792.36, 0.507644
3795.13, 0.507449
3797.92, 0.507205
3800.7, 0.507107
3803.49, 0.506912
3806.28, 0.506766
3809.08, 0.506473
3811.88, 0.506278
3814.68, 0.506180
3817.49, 0.505936
3820.31, 0.505692
3823.12, 0.505594
3825.94, 0.505399
3828.77, 0.505204
3831.6, 0.505009
3834.43, 0.504765
3837.27, 0.504618
3840.11, 0.504569
3842.96, 0.504423
3845.81, 0.504228
3848.67, 0.504081
3851.53, 0.503984
3854.39, 0.503886
3857.26, 0.503740
3860.13, 0.503691
3863.01, 0.503740
3865.89, 0.503593
3868.77, 0.503496
3871.66, 0.503447
3874.55, 0.503398
3877.45, 0.503300
3880.35, 0.503300
3883.26, 0.503349
3886.17, 0.503300
3889.09, 0.503154
3892.01, 0.503105
3894.93, 0.503105
3897.86, 0.503203
3900.79, 0.503056
3903.73, 0.503008
3906.67, 0.502861
3909.62, 0.502764
3912.57, 0.502715
3915.52, 0.502715
3918.48, 0.502519
3921.45, 0.502324
3924.42, 0.502275
3927.39, 0.502227
3930.37, 0.501934
3933.35, 0.501739
3936.34, 0.501397
3939.33, 0.501153
3942.32, 0.500909
3945.32, 0.500665
3948.33, 0.500274
3951.34, 0.500030
3954.35, 0.499640
3957.37, 0.499396
3960.39, 0.499103
3963.42, 0.498713
3966.45, 0.498420
3969.49, 0.498078
3972.53, 0.497785
3975.58, 0.497639
3978.63, 0.497395
3981.68, 0.497053
3984.75, 0.496663
3987.81, 0.496516
3990.88, 0.496321
3993.95, 0.496077
3997.03, 0.495930
4000.12, 0.495784
4003.21, 0.495491
4006.3, 0.495296
4009.4, 0.495101
4012.5, 0.494954
4015.61, 0.494661
4018.72, 0.494369
4021.84, 0.494125
4024.96, 0.493881
4028.09, 0.493539
4031.22, 0.493295
4034.36, 0.493051
4037.5, 0.492709
4040.65, 0.492270
4043.8, 0.491879
4046.96, 0.491489
4050.12, 0.491196
4053.29, 0.490855
4056.46, 0.490464
4059.64, 0.490025
4062.82, 0.489634
4066.0, 0.489146
4069.19, 0.488853
4072.39, 0.488414
4075.59, 0.488024
4078.8, 0.487584
4082.01, 0.487194
4085.23, 0.486657
4088.45, 0.486218
4091.68, 0.485779
4094.91, 0.485290
4098.15, 0.484802
4101.39, 0.484412
4104.63, 0.483875
4107.89, 0.483533
4111.14, 0.483045
4114.41, 0.482704
4117.67, 0.482216
4120.95, 0.481728
4124.23, 0.481240
4127.51, 0.480800
4130.8, 0.480361
4134.09, 0.479922
4137.39, 0.479385
4140.7, 0.478946
4144.01, 0.478555
4147.32, 0.478165
4150.64, 0.477725
4153.97, 0.477335
4157.3, 0.476798
4160.64, 0.476310
4163.98, 0.475871
4167.33, 0.475431
4170.68, 0.474943
4174.04, 0.474553
4177.4, 0.474065
4180.77, 0.473577
4184.14, 0.473089
4187.52, 0.472649
4190.91, 0.472210
4194.3, 0.471966
4197.69, 0.471917
4201.1, 0.472113
4204.5, 0.472503
4207.92, 0.473528
4211.34, 0.474943
4214.76, 0.476554
4218.19, 0.478213
4221.62, 0.479873
4225.06, 0.481191
4228.51, 0.482216
4231.96, 0.482509
4235.42, 0.482216
4238.88, 0.481142
4242.35, 0.479190
4245.83, 0.476554
4249.31, 0.473333
4252.79, 0.469770
4256.28, 0.467573
4259.78, 0.468257
4263.29, 0.470258
4266.79, 0.471722
4270.31, 0.472601
4273.83, 0.472747
4277.35, 0.472454
4280.89, 0.471869
4284.42, 0.471136
4287.97, 0.470111
4291.52, 0.468989
4295.07, 0.467769
4298.63, 0.466402
4302.2, 0.464987
4305.78, 0.463718
4309.35, 0.462400
4312.94, 0.461180
4316.53, 0.459911
4320.13, 0.458886
4323.73, 0.457861
4327.34, 0.456885
4330.96, 0.455957
4334.58, 0.455225
4338.21, 0.454542
4341.84, 0.453907
4345.48, 0.453273
4349.12, 0.452638
4352.77, 0.452053
4356.43, 0.451565
4360.1, 0.450930
4363.76, 0.450344
4367.44, 0.449564
4371.12, 0.448978
4374.81, 0.448441
4378.51, 0.447904
4382.21, 0.447221
4385.92, 0.446586
4389.63, 0.445952
4393.35, 0.445415
4397.08, 0.444780
4400.81, 0.444195
4404.55, 0.443560
4408.29, 0.442975
4412.04, 0.442340
4415.8, 0.441754
4419.57, 0.441169
4423.34, 0.440632
4427.12, 0.439900
4430.9, 0.439363
4434.69, 0.438826
4438.49, 0.438143
4442.29, 0.437459
4446.1, 0.436971
4449.92, 0.436386
4453.74, 0.435751
4457.57, 0.435068
4461.41, 0.434433
4465.25, 0.433945
4469.1, 0.433457
4472.95, 0.432969
4476.82, 0.432627
4480.69, 0.432188
4484.56, 0.431895
4488.44, 0.431554
4492.33, 0.431212
4496.23, 0.430773
4500.13, 0.430480
4504.04, 0.430187
4507.96, 0.430041
4511.88, 0.429797
4515.81, 0.429553
4519.75, 0.429309
4523.69, 0.429113
4527.65, 0.428820
4531.6, 0.428576
4535.57, 0.428235
4539.54, 0.427991
4543.52, 0.427552
4547.5, 0.427259
4551.5, 0.426966
4555.5, 0.426575
4559.5, 0.426087
4563.52, 0.425746
4567.54, 0.425306
4571.56, 0.424818
4575.6, 0.424330
4579.64, 0.423940
4583.69, 0.423403
4587.75, 0.422817
4591.81, 0.422232
4595.88, 0.421792
4599.96, 0.421207
4604.04, 0.420523
4608.14, 0.419938
4612.24, 0.419352
4616.34, 0.418717
4620.46, 0.418034
4624.58, 0.417351
4628.71, 0.416619
4632.84, 0.415935
4636.99, 0.415203
4641.14, 0.414471
4645.3, 0.413690
4649.47, 0.412909
4653.64, 0.412080
4657.82, 0.411201
4662.01, 0.410420
4666.21, 0.409590
4670.41, 0.408956
4674.62, 0.408321
4678.84, 0.407833
4683.07, 0.407248
4687.3, 0.406857
4691.54, 0.406564
4695.79, 0.406174
4700.05, 0.405832
4704.31, 0.405393
4708.59, 0.405149
4712.87, 0.404514
4717.15, 0.404124
4721.45, 0.403343
4725.76, 0.402953
4730.07, 0.402221
4734.39, 0.401781
4738.72, 0.401049
4743.05, 0.400512
4747.39, 0.399780
4751.75, 0.399097
4756.1, 0.398511
4760.47, 0.397633
4764.85, 0.397096
4769.23, 0.396120
4773.62, 0.395534
4778.02, 0.394558
4782.43, 0.394167
4786.85, 0.393240
4791.27, 0.392557
4795.7, 0.391581
4800.14, 0.390848
4804.59, 0.390068
4809.05, 0.389189
4813.51, 0.388408
4817.99, 0.387481
4822.47, 0.386651
4826.96, 0.385626
4831.46, 0.384699
4835.96, 0.383869
4840.48, 0.382991
4845.0, 0.381917
4849.54, 0.380697
4854.08, 0.379818
4858.63, 0.378744
4863.18, 0.377719
4867.75, 0.376548
4872.33, 0.375377
4876.91, 0.374205
4881.5, 0.373034
4886.1, 0.371667
4890.71, 0.370203
4895.33, 0.368641
4899.96, 0.366982
4904.59, 0.365078
4909.24, 0.363419
4913.89, 0.361662
4918.55, 0.360100
4923.22, 0.358587
4927.9, 0.357318
4932.59, 0.356049
4937.29, 0.354878
4942.0, 0.353755
4946.71, 0.352730
4951.44, 0.351461
4956.17, 0.350241
4960.91, 0.348435
4965.67, 0.346336
4970.43, 0.344189
4975.2, 0.342236
4979.98, 0.340284
4984.76, 0.338576
4989.56, 0.337063
4994.37, 0.335696
4999.18, 0.334378
5004.01, 0.333207
5008.84, 0.331987
5013.69, 0.331206
5018.54, 0.330767
5023.4, 0.329693
5028.28, 0.328473
5033.16, 0.327399
5038.05, 0.326325
5042.95, 0.325252
5047.86, 0.324031
5052.78, 0.322762
5057.71, 0.321347
5062.65, 0.319883
5067.6, 0.318321
5072.56, 0.316759
5077.53, 0.315295
5082.5, 0.314075
5087.49, 0.312122
5092.49, 0.310024
5097.5, 0.308071
5102.51, 0.305973
5107.54, 0.303386
5112.58, 0.300946
5117.62, 0.298359
5122.68, 0.295626
5127.75, 0.292941
5132.82, 0.290452
5137.91, 0.288060
5143.01, 0.286157
5148.12, 0.284107
5153.23, 0.281032
5158.36, 0.278299
5163.5, 0.276103
5168.65, 0.273955
5173.81, 0.271808
5178.98, 0.269709
5184.15, 0.267610
5189.34, 0.265658
5194.54, 0.264096
5199.75, 0.262583
5204.98, 0.260338
5210.21, 0.258922
5215.45, 0.256873
5220.7, 0.253407
5225.96, 0.250772
5231.23, 0.248429
5236.52, 0.246086
5241.81, 0.243158
5247.12, 0.240327
5252.44, 0.237691
5257.76, 0.235202
5263.1, 0.232762
5268.45, 0.230614
5273.81, 0.228711
5279.18, 0.226856
5284.56, 0.225099
5289.95, 0.224318
5295.36, 0.222756
5300.77, 0.221097
5306.2, 0.220121
5311.63, 0.219389
5317.08, 0.218852
5322.54, 0.218510
5328.01, 0.218266
5333.49, 0.218120
5338.98, 0.218217
5344.49, 0.219437
5350.0, 0.220902
5355.53, 0.220267
5361.07, 0.219437
5366.62, 0.219486
5372.18, 0.220023
5377.75, 0.220511
5383.34, 0.220755
5388.93, 0.220853
5394.54, 0.220902
5400.16, 0.220658
5405.79, 0.220316
5411.44, 0.219925
5417.09, 0.220804
5422.76, 0.220950
5428.43, 0.217192
5434.12, 0.214801
5439.83, 0.213776
5445.54, 0.212653
5451.26, 0.211384
5457.0, 0.210896
5462.75, 0.211287
5468.52, 0.209383
5474.29, 0.207431
5480.08, 0.206113
5485.88, 0.203185
5491.69, 0.200891
5497.51, 0.198841
5503.35, 0.196791
5509.2, 0.194448
5515.06, 0.192740
5520.93, 0.191227
5526.82, 0.189372
5532.71, 0.187566
5538.63, 0.186346
5544.55, 0.185712
5550.49, 0.185712
5556.44, 0.185126
5562.4, 0.184052
5568.37, 0.183613
5574.36, 0.185175
5580.36, 0.185614
5586.37, 0.183076
5592.4, 0.181612
5598.44, 0.181758
5604.49, 0.181612
5610.56, 0.181124
5616.63, 0.180928
5622.73, 0.179952
5628.83, 0.179708
5634.95, 0.181319
5641.08, 0.183759
5647.23, 0.181953
5653.39, 0.180538
5659.56, 0.179708
5665.74, 0.178976
5671.94, 0.180538
5678.15, 0.180928
5684.38, 0.180196
5690.62, 0.181124
5696.87, 0.180928
5703.14, 0.182149
5709.42, 0.185370
5715.72, 0.186004
5722.03, 0.186004
5728.35, 0.186541
5734.69, 0.188103
5741.03, 0.190299
5747.4, 0.192984
5753.78, 0.193228
5760.17, 0.197865
5766.58, 0.203770
5773.0, 0.201281
5779.44, 0.200403
5785.88, 0.201623
5792.35, 0.203477
5798.83, 0.206455
5805.32, 0.209139
5811.83, 0.213581
5818.35, 0.221878
5824.89, 0.225831
5831.45, 0.225197
5838.01, 0.225685
5844.59, 0.227588
5851.19, 0.231249
5857.8, 0.235934
5864.43, 0.239839
5871.07, 0.242523
5877.73, 0.253017
5884.4, 0.254676
5891.09, 0.252822
5897.79, 0.254774
5904.5, 0.249161
5911.23, 0.247990
5917.98, 0.249210
5924.75, 0.250576
5931.53, 0.257800
5938.32, 0.261363
5945.13, 0.253798
5951.96, 0.250820
5958.8, 0.251162
5965.65, 0.255604
5972.53, 0.255457
5979.42, 0.253993
5986.32, 0.257165
5993.24, 0.256482
6000.18, 0.252724
6007.13, 0.253603
6014.1, 0.255555
6021.08, 0.253407
6028.09, 0.252041
6035.1, 0.253358
6042.14, 0.263071
6049.19, 0.272003
6056.25, 0.260191
6063.34, 0.255116
6070.44, 0.259020
6077.55, 0.256580
6084.69, 0.250918
6091.84, 0.249161
6099.0, 0.249210
6106.19, 0.253017
6113.39, 0.256677
6120.61, 0.250088
6127.84, 0.244573
6135.09, 0.243939
6142.36, 0.243743
6149.65, 0.242377
6156.95, 0.242670
6164.27, 0.240229
6171.61, 0.236715
6178.97, 0.239302
6186.34, 0.240815
6193.73, 0.234714
6201.14, 0.231883
6208.57, 0.231639
6216.01, 0.231493
6223.47, 0.230907
6230.95, 0.230712
6238.45, 0.230712
6245.97, 0.230712
6253.5, 0.230761
6261.06, 0.231298
6268.63, 0.231834
6276.21, 0.232176
6283.82, 0.232323
6291.45, 0.232811
6299.1, 0.233055
6306.76, 0.233445
6314.44, 0.233640
6322.14, 0.234080
6329.86, 0.234568
6337.6, 0.239302
6345.35, 0.242230
6353.13, 0.236618
6360.92, 0.235544
6368.74, 0.238521
6376.57, 0.236666
6384.43, 0.234568
6392.3, 0.234128
6400.19, 0.235788
6408.1, 0.245745
6416.03, 0.248868
6423.98, 0.238765
6431.95, 0.234031
6439.94, 0.230517
6447.95, 0.228418
6455.98, 0.226954
6464.03, 0.226075
6472.1, 0.227686
6480.19, 0.229980
6488.31, 0.234372
6496.44, 0.232371
6504.59, 0.222415
6512.76, 0.219193
6520.95, 0.219730
6529.16, 0.215679
6537.4, 0.213727
6545.65, 0.214215
6553.92, 0.214654
6562.22, 0.215191
6570.54, 0.218071
6578.88, 0.215094
6587.23, 0.212067
6595.61, 0.210164
6604.02, 0.207187
6612.44, 0.206211
6620.89, 0.205918
6629.35, 0.210115
6637.84, 0.212312
6646.35, 0.203868
6654.88, 0.197377
6663.44, 0.196352
6672.01, 0.196644
6680.61, 0.196303
6689.23, 0.192398
6697.88, 0.189616
6706.54, 0.190544
6715.23, 0.189958
6723.94, 0.187664
6732.67, 0.185419
6741.42, 0.184150
6750.2, 0.183759
6759.0, 0.182930
6767.82, 0.183466
6776.67, 0.184345
6785.54, 0.186004
6794.44, 0.184443
6803.35, 0.179952
6812.29, 0.178635
6821.26, 0.180050
6830.24, 0.179708
6839.25, 0.177561
6848.29, 0.178830
6857.35, 0.183808
6866.43, 0.184296
6875.54, 0.178781
6884.67, 0.177073
6893.82, 0.177219
6903.0, 0.178293
6912.2, 0.178146
6921.43, 0.177707
6930.69, 0.177902
6939.96, 0.178244
6949.27, 0.180099
6958.59, 0.183466
6967.95, 0.181612
6977.33, 0.179757
6986.73, 0.180294
6996.16, 0.180489
7005.61, 0.179659
7015.09, 0.179611
7024.6, 0.179367
7034.13, 0.179708
7043.69, 0.181563
7053.27, 0.179171
7062.88, 0.175804
7072.52, 0.174242
7082.18, 0.173168
7091.87, 0.172094
7101.58, 0.171021
7111.32, 0.170435
7121.09, 0.169264
7130.88, 0.167555
7140.71, 0.167214
7150.56, 0.166530
7160.43, 0.165554
7170.33, 0.165066
7180.27, 0.162821
7190.23, 0.161210
7200.21, 0.161064
7210.23, 0.160478
7220.27, 0.158380
7230.34, 0.156964
7240.44, 0.155744
7250.56, 0.154719
7260.72, 0.153792
7270.9, 0.153499
7281.12, 0.152669
7291.36, 0.151449
7301.63, 0.150961
7311.93, 0.150668
7322.25, 0.150619
7332.61, 0.151400
7343.0, 0.151595
7353.41, 0.151156
7363.86, 0.151107
7374.33, 0.151351
7384.83, 0.151498
7395.37, 0.151644
7405.93, 0.151839
7416.53, 0.151839
7427.15, 0.151742
7437.81, 0.151791
7448.5, 0.152035
7459.22, 0.152571
7469.96, 0.152523
7480.74, 0.152035
7491.55, 0.151595
7502.39, 0.151302
7513.27, 0.151058
7524.17, 0.150814
7535.11, 0.150473
7546.08, 0.150131
7557.08, 0.149741
7568.11, 0.149448
7579.17, 0.149253
7590.27, 0.148960
7601.4, 0.148716
7612.56, 0.148667
7623.76, 0.148569
7634.98, 0.148520
7646.24, 0.148569
7657.54, 0.148667
7668.87, 0.148569
7680.23, 0.148374
7691.62, 0.148179
7703.05, 0.147788
7714.51, 0.147349
7726.01, 0.146910
7737.54, 0.146324
7749.11, 0.145592
7760.71, 0.144713
7772.35, 0.143737
7784.02, 0.142566
7795.72, 0.141248
7807.46, 0.139930
7819.23, 0.138613
7831.04, 0.137246
7842.89, 0.135831
7854.77, 0.134366
7866.69, 0.132853
7878.65, 0.131340
7890.64, 0.129730
7902.67, 0.128217
7914.74, 0.126752
7926.84, 0.125386
7938.98, 0.124068
7951.16, 0.122750
7963.37, 0.121286
7975.62, 0.119773
7987.91, 0.118114
8000.24, 0.116356
8012.6, 0.114697
8025.01, 0.113038
8037.45, 0.111476
8049.93, 0.110158
8062.45, 0.108987
8075.01, 0.108010
8087.61, 0.106985
8100.24, 0.105912
8112.91, 0.104789
8125.63, 0.103471
8138.39, 0.102007
8151.18, 0.100445
8164.02, 0.0984930
8176.9, 0.0963460
8189.81, 0.0939050
8202.77, 0.0914160
8215.77, 0.0888780
8228.82, 0.0862420
8241.9, 0.0837040
8255.02, 0.0813130
8268.19, 0.0789700
8281.39, 0.0768230
8294.65, 0.0749190
8307.94, 0.0731620
8321.28, 0.0715030
8334.66, 0.0699410
8348.08, 0.0685740
8361.54, 0.0672560
8375.05, 0.0658900
8388.6, 0.0647180
8402.2, 0.0635470
8415.84, 0.0624240
8429.52, 0.0614480
8443.25, 0.0603750
8457.02, 0.0592520
8470.84, 0.0581290
8484.7, 0.0569580
8498.61, 0.0557380
8512.57, 0.0545180
8526.57, 0.0532980
8540.62, 0.0519800
8554.71, 0.0505640
8568.85, 0.0489050
8583.04, 0.0468060
8597.27, 0.0444630
8611.55, 0.0422670
8625.88, 0.0408030
8640.26, 0.0408030
8654.68, 0.0416330
8669.16, 0.0425110
8683.68, 0.0429500
8698.25, 0.0430970
8712.87, 0.0429990
8727.53, 0.0428040
8742.25, 0.0426580
8757.02, 0.0424620
8771.83, 0.0422670
8786.7, 0.0420230
8801.62, 0.0417790
8816.59, 0.0416810
8831.61, 0.0416810
8846.68, 0.0415840
8861.8, 0.0415350
8876.97, 0.0414860
8892.2, 0.0413400
8907.48, 0.0412910
8922.81, 0.0411450
8938.2, 0.0410470
8953.63, 0.0410960
8969.13, 0.0410960
8984.67, 0.0411450
9000.27, 0.0411930
9015.92, 0.0413400
9031.63, 0.0414370
9047.39, 0.0415350
9063.21, 0.0416810
9079.08, 0.0418770
9095.01, 0.0421210
9111.0, 0.0425110
9127.04, 0.0427550
9143.13, 0.0429500
9159.28, 0.0433900
9175.49, 0.0437800
9191.76, 0.0443170
9208.09, 0.0449030
9224.47, 0.0454880
9240.92, 0.0459280
9257.42, 0.0462690
9273.98, 0.0467090
9290.6, 0.0470010
9307.28, 0.0473430
9324.02, 0.0474410
9340.82, 0.0471970
9357.68, 0.0469530
9374.6, 0.0466600
9391.58, 0.0467570
9408.62, 0.0472940
9425.73, 0.0487580
9442.9, 0.0511500
9460.13, 0.0545180
9477.42, 0.0587640
9494.78, 0.0637420
9512.2, 0.0694530
9529.69, 0.0759930
9547.24, 0.0830700
9564.86, 0.0905370
9582.54, 0.0984930
9600.28, 0.106595
9618.1, 0.115185
9635.97, 0.124117
9653.92, 0.133000
9671.93, 0.141931
9690.01, 0.150766
9708.16, 0.159209
9726.37, 0.166823
9744.65, 0.173217
9763.0, 0.178488
9781.43, 0.182344
9799.92, 0.184979
9818.48, 0.186639
9837.1, 0.187664
9855.8, 0.188347
9874.58, 0.188835
9893.42, 0.189226
9912.34, 0.189860
9931.33, 0.190739
9950.39, 0.191959
9969.52, 0.193570
9988.74, 0.195571
10008.0, 0.197523
10027.4, 0.199378
10046.8, 0.200988
10066.3, 0.202404
10085.9, 0.203477
10105.6, 0.204502
10125.3, 0.205137
10145.1, 0.205430
10165.0, 0.205283
10185.0, 0.204746
10205.0, 0.204014
10225.2, 0.203087
10245.4, 0.201818
10265.7, 0.200110
10286.0, 0.197962
10306.5, 0.195473
10327.0, 0.192642
10347.6, 0.189323
10368.3, 0.185077
10389.1, 0.179855
10409.9, 0.173656
10430.9, 0.166237
10451.9, 0.156769
10473.0, 0.144958
10494.2, 0.131243
10515.5, 0.116845
10536.9, 0.103130
10558.4, 0.0910260
10579.9, 0.0804340
10601.5, 0.0711610
10623.3, 0.0629610
10645.1, 0.0557380
10667.0, 0.0493930
10689.0, 0.0440730
10711.1, 0.0401200
10733.2, 0.0381670
10755.5, 0.0389480
10777.9, 0.0433900
10800.3, 0.0520290
10822.9, 0.0642300
10845.5, 0.0791650
10868.2, 0.0950280
10891.1, 0.110109
10914.0, 0.123336
10937.0, 0.134318
10960.2, 0.143249
10983.4, 0.150375
11006.7, 0.155793
11030.1, 0.159649
11053.6, 0.162431
11077.3, 0.164041
11101.0, 0.164627
11124.8, 0.163895
11148.7, 0.161454
11172.7, 0.157062
11196.9, 0.150766
11221.1, 0.142664
11245.4, 0.133878
11269.9, 0.126704
11294.4, 0.123287
11319.1, 0.124849
11343.9, 0.130901
11368.8, 0.139149
11393.7, 0.147300
11418.8, 0.153938
11444.0, 0.158526
11469.4, 0.160820
11494.8, 0.160966
11520.3, 0.158721
11546.0, 0.154377
11571.8, 0.148569
11597.7, 0.142322
11623.7, 0.136367
11649.8, 0.130901
11676.0, 0.126020
11702.4, 0.121921
11728.9, 0.118260
11755.5, 0.115039
11782.2, 0.112159
11809.0, 0.109816
11836.0, 0.107864
11863.0, 0.106058
11890.3, 0.104594
11917.6, 0.103325
11945.0, 0.102349
11972.6, 0.101275
12000.4, 0.100397
12028.2, 0.0997130
12056.2, 0.0990790
12084.3, 0.0985420
12112.5, 0.0980540
12140.9, 0.0976630
12169.4, 0.0970290
12198.0, 0.0961010
12226.8, 0.0954180
12255.7, 0.0949790
12284.7, 0.0942960
12313.9, 0.0938080
12343.2, 0.0938560
12372.7, 0.0941490
12402.3, 0.0942960
12432.0, 0.0942470
12461.9, 0.0940520
12491.9, 0.0936120
12522.1, 0.0933680
12552.4, 0.0931730
12582.9, 0.0931730
12613.5, 0.0929780
12644.3, 0.0928800
12675.2, 0.0929780
12706.3, 0.0927340
12737.5, 0.0920500
12768.9, 0.0912700
12800.4, 0.0906350
12832.1, 0.0901960
12863.9, 0.0898050
12895.9, 0.0894640
12928.1, 0.0891220
12960.4, 0.0882920
12992.9, 0.0870720
13025.5, 0.0855100
13058.3, 0.0837530
13091.3, 0.0819470
13124.4, 0.0804340
13157.8, 0.0795070
13191.2, 0.0794580
13224.9, 0.0801420
13258.7, 0.0812150
13292.7, 0.0822890
13326.9, 0.0831680
13361.2, 0.0837040
13395.7, 0.0840950
13430.4, 0.0842900
13465.3, 0.0843880
13500.4, 0.0845830
13535.7, 0.0848760
13571.1, 0.0848760
13606.7, 0.0848760
13642.5, 0.0845830
13678.5, 0.0840460
13714.7, 0.0831190
13751.1, 0.0819470
13787.6, 0.0804830
13824.4, 0.0789700
13861.4, 0.0776040
13898.5, 0.0761390
13935.9, 0.0754070
13973.5, 0.0753100
14011.2, 0.0753580
14049.2, 0.0752610
14087.4, 0.0749680
14125.8, 0.0743820
14164.3, 0.0734060
14203.2, 0.0721370
14242.2, 0.0705260
14281.4, 0.0688670
14320.9, 0.0672560
14360.5, 0.0659870
14400.4, 0.0653530
14440.5, 0.0650110
14480.9, 0.0645720
14521.4, 0.0641330
14562.2, 0.0636930
14603.3, 0.0634010
14644.5, 0.0627170
14686.0, 0.0613510
14727.7, 0.0597890
14769.7, 0.0586660
14811.9, 0.0572510
14854.3, 0.0557380
14897.0, 0.0541760
14939.9, 0.0528580
14983.1, 0.0511500
15026.5, 0.0487100
15070.2, 0.0467090
15114.2, 0.0448540
15158.3, 0.0426090
15202.8, 0.0405590
15247.5, 0.0384600
15292.5, 0.0362150
15337.7, 0.0342630
15383.2, 0.0320660
15429.0, 0.0296260
15475.1, 0.0275270
15521.4, 0.0255750
15568.0, 0.0238180
15614.9, 0.0230370
15662.1, 0.0233790
15709.6, 0.0247940
15757.3, 0.0266980
15805.4, 0.0282110
15853.7, 0.0284060
15902.3, 0.0275270
15951.2, 0.0265020
16000.5, 0.0254770
16050.0, 0.0246960
16099.8, 0.0240130
16150.0, 0.0233790
16200.5, 0.0231350
16251.3, 0.0226950
16302.4, 0.0225980
16353.8, 0.0232320
16405.5, 0.0244520
16457.6, 0.0270880
16510.0, 0.0313830
16562.8, 0.0372890
16615.9, 0.0453420
16669.3, 0.0556890
16723.1, 0.0684770
16777.2, 0.0822400
16831.7, 0.0955160
16886.5, 0.107913
16941.7, 0.118309
16997.2, 0.126313
17053.1, 0.132756
17109.4, 0.138076
17166.1, 0.142224
17223.1, 0.145641
17280.5, 0.147788
17338.3, 0.149155
17396.5, 0.149155
17455.1, 0.148325
17514.0, 0.146422
17573.4, 0.142908
17633.2, 0.137880
17693.4, 0.131487
17754.0, 0.122994
17815.0, 0.112696
17876.4, 0.101324
17938.3, 0.0895120
18000.5, 0.0775060
18063.3, 0.0672080
18126.4, 0.0585690
18190.0, 0.0510040
18254.1, 0.0444630
18318.6, 0.0382650
18383.5, 0.0329940
18449.0, 0.0300160
18514.9, 0.0296260
18581.2, 0.0336280
18648.0, 0.0429500
18715.4, 0.0564210
18783.2, 0.0717950
18851.5, 0.0853640
18920.3, 0.0949300
18989.6, 0.0996160
19059.4, 0.0994200
19129.7, 0.0971750
19200.6, 0.0980050
19272.0, 0.105375
19343.9, 0.120066
19416.3, 0.139833
19489.3, 0.159795
19562.8, 0.177024
19637.0, 0.191080
19711.6, 0.201916
19786.8, 0.209774
19862.6, 0.215191
19939.0, 0.218559
20016.0, 0.220706
20093.6, 0.222366
20171.8, 0.222366
20250.6, 0.222366
20330.0, 0.223586
20410.0, 0.223830
20490.7, 0.223781
20572.0, 0.223537
20654.0, 0.222854
20736.6, 0.221927
20819.9, 0.220902
20903.8, 0.219828
20988.5, 0.219584
21073.8, 0.219486
21159.8, 0.218754
21246.5, 0.215338
21334.0, 0.211091
21422.1, 0.204746
21511.0, 0.193960
21600.7, 0.178244
21691.0, 0.162138
21782.1, 0.153401
21874.0, 0.155890
21966.7, 0.167897
22060.2, 0.184491
22154.5, 0.198353
22249.6, 0.206211
22345.5, 0.209237
22442.2, 0.208895
22539.8, 0.204502
22638.2, 0.196449
22737.5, 0.186053
22837.7, 0.176097
22938.7, 0.165505
23040.7, 0.155598
23143.5, 0.148179
23247.3, 0.142273
23352.1, 0.136953
23457.7, 0.131291
23564.4, 0.126557
23672.0, 0.123775
23780.5, 0.122067
23890.1, 0.118504
24000.7, 0.113672
24112.3, 0.108889
24225.0, 0.104545
24338.7, 0.0999080
24453.5, 0.0941490
24569.4, 0.0883900
24686.4, 0.0859010
