Database of Origin, USGS Spectral Database
Sample Description, See USGS database for additional info
Date Added,2016-08-10 05:09:50.296506

Data ID,USGS_miz06          
Sample ID, mizzonite_hs351.14155
Mineral Name, mizzonite
Material Class,Tectosilicate

Wavelength
1602.52, 0.405810
1603.02, 0.406198
1603.51, 0.406974
1604.01, 0.407904
1604.5, 0.407594
1605.0, 0.408137
1605.5, 0.408602
1606.0, 0.409378
1606.49, 0.410696
1606.99, 0.411471
1607.49, 0.411239
1607.99, 0.411782
1608.49, 0.411626
1608.99, 0.412092
1609.49, 0.412480
1609.99, 0.413022
1610.49, 0.413643
1610.99, 0.414651
1611.49, 0.414496
1611.99, 0.414651
1612.49, 0.415271
1612.99, 0.415737
1613.49, 0.416202
1614.0, 0.416977
1614.5, 0.417443
1615.0, 0.418063
1615.51, 0.418838
1616.01, 0.419304
1616.51, 0.419459
1617.02, 0.420002
1617.52, 0.420002
1618.03, 0.421010
1618.53, 0.421242
1619.04, 0.421553
1619.54, 0.421863
1620.05, 0.422483
1620.55, 0.422949
1621.06, 0.423724
1621.57, 0.424189
1622.08, 0.424577
1622.58, 0.424655
1623.09, 0.425508
1623.6, 0.425663
1624.11, 0.425973
1624.62, 0.426438
1625.13, 0.427446
1625.64, 0.427446
1626.15, 0.427524
1626.66, 0.428687
1627.17, 0.430161
1627.68, 0.430238
1628.19, 0.429463
1628.7, 0.429463
1629.21, 0.430703
1629.72, 0.431014
1630.24, 0.431479
1630.75, 0.431479
1631.26, 0.431944
1631.78, 0.432254
1632.29, 0.432797
1632.8, 0.432875
1633.32, 0.433185
1633.83, 0.433340
1634.35, 0.433883
1634.86, 0.433728
1635.38, 0.434736
1635.9, 0.435666
1636.41, 0.435899
1636.93, 0.435977
1637.45, 0.436830
1637.96, 0.437140
1638.48, 0.437528
1639.0, 0.437760
1639.52, 0.438226
1640.04, 0.438226
1640.56, 0.438691
1641.08, 0.439001
1641.59, 0.440087
1642.11, 0.440552
1642.63, 0.440862
1643.16, 0.441250
1643.68, 0.441638
1644.2, 0.441715
1644.72, 0.442180
1645.24, 0.442180
1645.76, 0.442568
1646.29, 0.442723
1646.81, 0.443266
1647.33, 0.443576
1647.86, 0.443421
1648.38, 0.443189
1648.9, 0.443576
1649.43, 0.443809
1649.95, 0.444740
1650.48, 0.445282
1651.0, 0.445748
1651.53, 0.445825
1652.06, 0.446291
1652.58, 0.446601
1653.11, 0.447221
1653.64, 0.447919
1654.17, 0.448229
1654.69, 0.447609
1655.22, 0.447919
1655.75, 0.448074
1656.28, 0.448539
1656.81, 0.449005
1657.34, 0.449548
1657.87, 0.449237
1658.4, 0.449237
1658.93, 0.449703
1659.46, 0.450323
1659.99, 0.450168
1660.52, 0.450633
1661.05, 0.451021
1661.59, 0.451486
1662.12, 0.451564
1662.65, 0.451952
1663.19, 0.452107
1663.72, 0.452572
1664.26, 0.452494
1664.79, 0.452727
1665.32, 0.452727
1665.86, 0.452960
1666.39, 0.453580
1666.93, 0.454898
1667.47, 0.455054
1668.0, 0.454433
1668.54, 0.454588
1669.08, 0.454666
1669.61, 0.454743
1670.15, 0.455364
1670.69, 0.455907
1671.23, 0.456372
1671.77, 0.456139
1672.31, 0.456372
1672.85, 0.457070
1673.39, 0.457845
1673.93, 0.457535
1674.47, 0.457768
1675.01, 0.458000
1675.55, 0.458233
1676.09, 0.458155
1676.64, 0.458466
1677.18, 0.458543
1677.72, 0.458621
1678.26, 0.458776
1678.81, 0.459241
1679.35, 0.459319
1679.89, 0.460017
1680.44, 0.460404
1680.98, 0.461102
1681.53, 0.461257
1682.07, 0.461257
1682.62, 0.461102
1683.17, 0.461413
1683.71, 0.461878
1684.26, 0.462731
1684.81, 0.462731
1685.36, 0.462731
1685.9, 0.462421
1686.45, 0.462266
1687.0, 0.462653
1687.55, 0.462886
1688.1, 0.463196
1688.65, 0.464049
1689.2, 0.464204
1689.75, 0.464049
1690.3, 0.464049
1690.85, 0.464902
1691.41, 0.465057
1691.96, 0.465212
1692.51, 0.465600
1693.06, 0.466143
1693.61, 0.465988
1694.17, 0.466065
1694.72, 0.466220
1695.28, 0.466453
1695.83, 0.466686
1696.39, 0.466841
1696.94, 0.466996
1697.5, 0.467461
1698.05, 0.467694
1698.61, 0.467849
1699.17, 0.467694
1699.72, 0.468314
1700.28, 0.468702
1700.84, 0.469245
1701.4, 0.469012
1701.95, 0.469090
1702.51, 0.469090
1703.07, 0.469400
1703.63, 0.469710
1704.19, 0.470253
1704.75, 0.470331
1705.31, 0.470718
1705.88, 0.470718
1706.44, 0.471261
1707.0, 0.471416
1707.56, 0.471416
1708.12, 0.471184
1708.69, 0.471882
1709.25, 0.472037
1709.81, 0.472269
1710.38, 0.472347
1710.94, 0.473045
1711.51, 0.473200
1712.07, 0.472890
1712.64, 0.473200
1713.2, 0.473588
1713.77, 0.473665
1714.34, 0.473975
1714.9, 0.474208
1715.47, 0.474518
1716.04, 0.474363
1716.61, 0.474673
1717.18, 0.475061
1717.74, 0.475216
1718.31, 0.474828
1718.88, 0.475371
1719.45, 0.475604
1720.02, 0.475759
1720.59, 0.475992
1721.17, 0.476069
1721.74, 0.476147
1722.31, 0.476534
1722.88, 0.476457
1723.45, 0.476379
1724.03, 0.476457
1724.6, 0.476922
1725.18, 0.477387
1725.75, 0.477853
1726.33, 0.477620
1726.9, 0.477620
1727.48, 0.477853
1728.05, 0.478551
1728.63, 0.478628
1729.2, 0.478706
1729.78, 0.478861
1730.36, 0.479171
1730.94, 0.479171
1731.51, 0.479404
1732.09, 0.479326
1732.67, 0.479481
1733.25, 0.479559
1733.83, 0.479481
1734.41, 0.479869
1734.99, 0.480489
1735.57, 0.480334
1736.15, 0.480179
1736.73, 0.480489
1737.32, 0.480722
1737.9, 0.480412
1738.48, 0.480489
1739.07, 0.480567
1739.65, 0.481187
1740.23, 0.481420
1740.82, 0.481420
1741.4, 0.481653
1741.99, 0.481808
1742.57, 0.481885
1743.16, 0.482273
1743.74, 0.482195
1744.33, 0.482195
1744.92, 0.482351
1745.51, 0.482661
1746.09, 0.482506
1746.68, 0.483048
1747.27, 0.483048
1747.86, 0.483281
1748.45, 0.483436
1749.04, 0.483746
1749.63, 0.483746
1750.22, 0.483514
1750.81, 0.483436
1751.4, 0.484134
1751.99, 0.484212
1752.59, 0.484367
1753.18, 0.484444
1753.77, 0.484522
1754.37, 0.484367
1754.96, 0.484832
1755.56, 0.484755
1756.15, 0.485065
1756.74, 0.485142
1757.34, 0.485297
1757.94, 0.485297
1758.53, 0.485608
1759.13, 0.485840
1759.73, 0.486228
1760.32, 0.486073
1760.92, 0.485995
1761.52, 0.486073
1762.12, 0.486383
1762.72, 0.486461
1763.32, 0.486926
1763.92, 0.487003
1764.52, 0.486771
1765.12, 0.486926
1765.72, 0.487469
1766.32, 0.487391
1766.92, 0.487158
1767.53, 0.487546
1768.13, 0.488012
1768.73, 0.487934
1769.34, 0.487934
1769.94, 0.487857
1770.55, 0.488244
1771.15, 0.488322
1771.76, 0.488554
1772.36, 0.488477
1772.97, 0.488787
1773.57, 0.489175
1774.18, 0.489408
1774.79, 0.489330
1775.4, 0.489252
1776.0, 0.489330
1776.61, 0.489640
1777.22, 0.489485
1777.83, 0.489408
1778.44, 0.489563
1779.05, 0.490028
1779.66, 0.490028
1780.27, 0.490338
1780.88, 0.490416
1781.5, 0.490416
1782.11, 0.490261
1782.72, 0.490571
1783.33, 0.490881
1783.95, 0.491346
1784.56, 0.491579
1785.18, 0.491734
1785.79, 0.491501
1786.41, 0.491889
1787.02, 0.491811
1787.64, 0.491734
1788.26, 0.491889
1788.87, 0.492354
1789.49, 0.492509
1790.11, 0.492587
1790.73, 0.492432
1791.35, 0.492664
1791.96, 0.492820
1792.58, 0.493130
1793.21, 0.493207
1793.83, 0.493285
1794.45, 0.492820
1795.07, 0.493207
1795.69, 0.493673
1796.31, 0.493750
1796.93, 0.493595
1797.56, 0.493673
1798.18, 0.493905
1798.8, 0.494293
1799.43, 0.494215
1800.05, 0.494448
1800.68, 0.494448
1801.3, 0.494526
1801.93, 0.494681
1802.56, 0.495069
1803.18, 0.495069
1803.81, 0.494836
1804.44, 0.494448
1805.07, 0.494836
1805.7, 0.495069
1806.33, 0.495379
1806.95, 0.495456
1807.58, 0.495534
1808.22, 0.495766
1808.85, 0.495844
1809.48, 0.495766
1810.11, 0.495766
1810.74, 0.495766
1811.38, 0.496309
1812.01, 0.496464
1812.64, 0.496232
1813.28, 0.495921
1813.91, 0.496154
1814.55, 0.496077
1815.18, 0.496775
1815.82, 0.496930
1816.45, 0.497162
1817.09, 0.497395
1817.73, 0.497240
1818.36, 0.497007
1819.0, 0.497395
1819.64, 0.497085
1820.28, 0.497085
1820.92, 0.496775
1821.56, 0.496852
1822.2, 0.497240
1822.84, 0.497550
1823.48, 0.497395
1824.12, 0.497162
1824.76, 0.497628
1825.41, 0.498170
1826.05, 0.498093
1826.69, 0.497938
1827.34, 0.497783
1827.98, 0.498093
1828.63, 0.498170
1829.27, 0.498326
1829.92, 0.498248
1830.56, 0.498713
1831.21, 0.498481
1831.86, 0.498326
1832.5, 0.498868
1833.15, 0.499256
1833.8, 0.498946
1834.45, 0.499101
1835.1, 0.499101
1835.75, 0.499023
1836.4, 0.499256
1837.05, 0.499489
1837.7, 0.499256
1838.35, 0.499411
1839.01, 0.499334
1839.66, 0.499566
1840.31, 0.499799
1840.96, 0.499721
1841.62, 0.499644
1842.27, 0.500109
1842.93, 0.499954
1843.58, 0.499721
1844.24, 0.500032
1844.9, 0.500419
1845.55, 0.500342
1846.21, 0.500342
1846.87, 0.500419
1847.53, 0.500497
1848.18, 0.500419
1848.84, 0.500652
1849.5, 0.500730
1850.16, 0.500652
1850.82, 0.500497
1851.48, 0.500652
1852.14, 0.500652
1852.81, 0.500652
1853.47, 0.500962
1854.13, 0.501350
1854.8, 0.500807
1855.46, 0.500885
1856.12, 0.501040
1856.79, 0.501195
1857.45, 0.501272
1858.12, 0.501583
1858.79, 0.501195
1859.45, 0.501427
1860.12, 0.501427
1860.79, 0.501117
1861.46, 0.501195
1862.12, 0.501660
1862.79, 0.501117
1863.46, 0.501117
1864.13, 0.501427
1864.8, 0.501815
1865.48, 0.501893
1866.15, 0.501738
1866.82, 0.501272
1867.49, 0.501660
1868.16, 0.501970
1868.84, 0.501815
1869.51, 0.501660
1870.19, 0.501893
1870.86, 0.501970
1871.54, 0.501815
1872.21, 0.501505
1872.89, 0.501815
1873.56, 0.501660
1874.24, 0.501738
1874.92, 0.501738
1875.6, 0.501738
1876.28, 0.501350
1876.96, 0.501660
1877.64, 0.501660
1878.32, 0.501427
1879.0, 0.501505
1879.68, 0.501195
1880.36, 0.500885
1881.04, 0.501040
1881.73, 0.501195
1882.41, 0.501505
1883.09, 0.501272
1883.78, 0.501660
1884.46, 0.501660
1885.15, 0.501040
1885.83, 0.500497
1886.52, 0.500574
1887.21, 0.500652
1887.89, 0.500962
1888.58, 0.500652
1889.27, 0.500342
1889.96, 0.500187
1890.65, 0.500264
1891.34, 0.499954
1892.03, 0.499411
1892.72, 0.499179
1893.41, 0.499179
1894.1, 0.498946
1894.79, 0.498713
1895.49, 0.498015
1896.18, 0.497860
1896.87, 0.497860
1897.57, 0.497783
1898.26, 0.497162
1898.96, 0.496619
1899.65, 0.496154
1900.35, 0.495611
1901.05, 0.495456
1901.74, 0.495301
1902.44, 0.494526
1903.14, 0.493905
1903.84, 0.493207
1904.54, 0.492664
1905.24, 0.491734
1905.94, 0.490881
1906.64, 0.489795
1907.34, 0.489020
1908.04, 0.488322
1908.75, 0.487857
1909.45, 0.487236
1910.15, 0.486926
1910.86, 0.486926
1911.56, 0.487314
1912.27, 0.487314
1912.97, 0.487546
1913.68, 0.487624
1914.39, 0.488167
1915.09, 0.488632
1915.8, 0.489330
1916.51, 0.489640
1917.22, 0.490183
1917.93, 0.490958
1918.64, 0.491734
1919.35, 0.491966
1920.06, 0.492354
1920.77, 0.492820
1921.48, 0.493285
1922.19, 0.493518
1922.91, 0.493983
1923.62, 0.494293
1924.33, 0.494526
1925.05, 0.494526
1925.76, 0.495301
1926.48, 0.495611
1927.19, 0.495921
1927.91, 0.496464
1928.63, 0.497085
1929.35, 0.496852
1930.07, 0.496930
1930.78, 0.497085
1931.5, 0.497317
1932.22, 0.497395
1932.94, 0.497783
1933.66, 0.497860
1934.39, 0.498093
1935.11, 0.498403
1935.83, 0.498636
1936.55, 0.498481
1937.28, 0.499023
1938.0, 0.499256
1938.73, 0.499334
1939.45, 0.499411
1940.18, 0.499644
1940.9, 0.499721
1941.63, 0.499954
1942.36, 0.500032
1943.09, 0.500419
1943.81, 0.500574
1944.54, 0.500574
1945.27, 0.500652
1946.0, 0.500885
1946.73, 0.500885
1947.47, 0.501040
1948.2, 0.501272
1948.93, 0.501350
1949.66, 0.501195
1950.4, 0.501195
1951.13, 0.501195
1951.86, 0.501427
1952.6, 0.501583
1953.34, 0.501815
1954.07, 0.502048
1954.81, 0.502280
1955.55, 0.501815
1956.29, 0.502125
1957.02, 0.502358
1957.76, 0.502436
1958.5, 0.502513
1959.24, 0.502746
1959.98, 0.502746
1960.72, 0.502978
1961.47, 0.503056
1962.21, 0.502901
1962.95, 0.502978
1963.7, 0.503134
1964.44, 0.503211
1965.18, 0.503521
1965.93, 0.503599
1966.67, 0.503832
1967.42, 0.504064
1968.17, 0.503987
1968.92, 0.503521
1969.66, 0.503987
1970.41, 0.504297
1971.16, 0.504374
1971.91, 0.504219
1972.66, 0.504374
1973.41, 0.504452
1974.16, 0.504762
1974.92, 0.504840
1975.67, 0.505072
1976.42, 0.505227
1977.18, 0.505072
1977.93, 0.504995
1978.69, 0.505227
1979.44, 0.505072
1980.2, 0.504995
1980.95, 0.504995
1981.71, 0.505538
1982.47, 0.505538
1983.23, 0.505770
1983.99, 0.505848
1984.74, 0.505848
1985.51, 0.505693
1986.27, 0.505538
1987.03, 0.505382
1987.79, 0.505770
1988.55, 0.506235
1989.32, 0.506701
1990.08, 0.506391
1990.84, 0.506391
1991.61, 0.506623
1992.37, 0.506623
1993.14, 0.506468
1993.9, 0.506778
1994.67, 0.506933
1995.44, 0.507166
1996.21, 0.507011
1996.98, 0.506933
1997.75, 0.507166
1998.52, 0.507321
1999.29, 0.507554
2000.06, 0.507554
2000.83, 0.507244
2001.6, 0.507554
2002.38, 0.507786
2003.15, 0.508097
2003.93, 0.508019
2004.7, 0.508174
2005.48, 0.508484
2006.25, 0.508872
2007.03, 0.508872
2007.81, 0.508950
2008.58, 0.508795
2009.36, 0.508872
2010.14, 0.508950
2010.92, 0.509105
2011.7, 0.509105
2012.48, 0.509337
2013.26, 0.509260
2014.05, 0.509415
2014.83, 0.509493
2015.61, 0.509803
2016.4, 0.509725
2017.18, 0.509958
2017.97, 0.510035
2018.75, 0.510113
2019.54, 0.510035
2020.32, 0.510268
2021.11, 0.510345
2021.9, 0.510656
2022.69, 0.510656
2023.48, 0.510578
2024.27, 0.510733
2025.06, 0.510578
2025.85, 0.510423
2026.64, 0.510811
2027.44, 0.510966
2028.23, 0.510966
2029.02, 0.510888
2029.82, 0.510966
2030.61, 0.510888
2031.41, 0.511354
2032.2, 0.511431
2033.0, 0.511354
2033.8, 0.511276
2034.6, 0.511431
2035.4, 0.511354
2036.2, 0.511276
2037.0, 0.511276
2037.8, 0.511586
2038.6, 0.511664
2039.4, 0.511741
2040.2, 0.511586
2041.01, 0.511431
2041.81, 0.511664
2042.61, 0.511819
2043.42, 0.511664
2044.22, 0.511741
2045.03, 0.511586
2045.84, 0.511974
2046.65, 0.512207
2047.46, 0.511974
2048.26, 0.511819
2049.07, 0.511819
2049.88, 0.511586
2050.69, 0.511896
2051.51, 0.512284
2052.32, 0.512439
2053.13, 0.512052
2053.94, 0.512052
2054.76, 0.511819
2055.57, 0.511896
2056.39, 0.511974
2057.2, 0.512052
2058.02, 0.512129
2058.84, 0.512362
2059.66, 0.512362
2060.48, 0.512439
2061.29, 0.512439
2062.11, 0.512439
2062.94, 0.512207
2063.76, 0.512207
2064.58, 0.512129
2065.4, 0.512362
2066.22, 0.512284
2067.05, 0.512284
2067.87, 0.512284
2068.7, 0.512594
2069.52, 0.512517
2070.35, 0.512517
2071.18, 0.512362
2072.0, 0.512594
2072.83, 0.512594
2073.66, 0.512517
2074.49, 0.512517
2075.32, 0.512672
2076.15, 0.512594
2076.98, 0.512362
2077.82, 0.512207
2078.65, 0.512284
2079.48, 0.512362
2080.32, 0.512517
2081.15, 0.512672
2081.99, 0.512982
2082.83, 0.512594
2083.66, 0.512439
2084.5, 0.512439
2085.34, 0.512749
2086.18, 0.512672
2087.02, 0.512905
2087.86, 0.512827
2088.7, 0.512749
2089.54, 0.512517
2090.39, 0.512827
2091.23, 0.512905
2092.07, 0.512749
2092.92, 0.512749
2093.76, 0.512827
2094.61, 0.512827
2095.45, 0.512827
2096.3, 0.512827
2097.15, 0.512827
2098.0, 0.512827
2098.85, 0.512905
2099.7, 0.512982
2100.55, 0.513137
2101.4, 0.512982
2102.25, 0.512982
2103.1, 0.512905
2103.96, 0.513060
2104.81, 0.512905
2105.67, 0.512827
2106.52, 0.512749
2107.38, 0.513060
2108.24, 0.512827
2109.09, 0.512827
2109.95, 0.512982
2110.81, 0.512827
2111.67, 0.512594
2112.53, 0.512749
2113.39, 0.512827
2114.25, 0.513060
2115.12, 0.512982
2115.98, 0.512905
2116.84, 0.512594
2117.71, 0.512517
2118.58, 0.512439
2119.44, 0.512594
2120.31, 0.512362
2121.18, 0.512362
2122.04, 0.512517
2122.91, 0.512439
2123.78, 0.512517
2124.65, 0.512827
2125.52, 0.512905
2126.4, 0.512749
2127.27, 0.512517
2128.14, 0.512517
2129.02, 0.512594
2129.89, 0.512672
2130.77, 0.512362
2131.64, 0.512594
2132.52, 0.512672
2133.4, 0.512672
2134.27, 0.512517
2135.15, 0.512672
2136.03, 0.512594
2136.91, 0.512672
2137.79, 0.512672
2138.68, 0.512827
2139.56, 0.512749
2140.44, 0.512749
2141.33, 0.512517
2142.21, 0.512362
2143.1, 0.512207
2143.99, 0.512362
2144.87, 0.512362
2145.76, 0.512439
2146.65, 0.512362
2147.54, 0.512129
2148.43, 0.511896
2149.32, 0.511819
2150.21, 0.511741
2151.1, 0.511586
2151.99, 0.511586
2152.89, 0.511431
2153.78, 0.511199
2154.68, 0.511199
2155.57, 0.510966
2156.47, 0.511043
2157.37, 0.510966
2158.27, 0.510888
2159.16, 0.510811
2160.06, 0.510811
2160.96, 0.510578
2161.86, 0.510423
2162.77, 0.510268
2163.67, 0.510423
2164.57, 0.510501
2165.48, 0.510578
2166.38, 0.510190
2167.29, 0.510113
2168.2, 0.509803
2169.1, 0.509725
2170.01, 0.509570
2170.92, 0.509725
2171.83, 0.509648
2172.74, 0.509493
2173.65, 0.509337
2174.56, 0.509415
2175.47, 0.509260
2176.39, 0.509260
2177.3, 0.509027
2178.22, 0.509105
2179.13, 0.508872
2180.05, 0.508639
2180.96, 0.508639
2181.88, 0.508717
2182.8, 0.508717
2183.72, 0.508639
2184.64, 0.508407
2185.56, 0.508174
2186.48, 0.507864
2187.41, 0.507864
2188.33, 0.507709
2189.25, 0.507786
2190.18, 0.507476
2191.1, 0.507476
2192.03, 0.507244
2192.96, 0.507088
2193.89, 0.506701
2194.82, 0.506546
2195.74, 0.506235
2196.68, 0.506080
2197.61, 0.506003
2198.54, 0.506235
2199.47, 0.505770
2200.4, 0.505460
2201.34, 0.505227
2202.28, 0.505150
2203.21, 0.504840
2204.15, 0.504840
2205.08, 0.504840
2206.02, 0.504762
2206.96, 0.504529
2207.9, 0.504374
2208.84, 0.503754
2209.78, 0.503134
2210.73, 0.502823
2211.67, 0.502513
2212.61, 0.502125
2213.56, 0.501970
2214.5, 0.501815
2215.45, 0.501427
2216.4, 0.500807
2217.35, 0.500574
2218.3, 0.500187
2219.24, 0.499954
2220.2, 0.499566
2221.15, 0.499101
2222.1, 0.498572
2223.05, 0.498270
2224.0, 0.497817
2224.96, 0.497137
2225.91, 0.496834
2226.87, 0.496381
2227.83, 0.495777
2228.79, 0.495172
2229.74, 0.494190
2230.7, 0.493586
2231.66, 0.493435
2232.63, 0.493283
2233.59, 0.492981
2234.55, 0.492906
2235.51, 0.492906
2236.48, 0.493057
2237.44, 0.493208
2238.41, 0.493435
2239.38, 0.493510
2240.34, 0.493963
2241.31, 0.494266
2242.28, 0.494492
2243.25, 0.494568
2244.22, 0.494870
2245.19, 0.495172
2246.17, 0.495701
2247.14, 0.495777
2248.12, 0.496154
2249.09, 0.496683
2250.07, 0.496608
2251.04, 0.496608
2252.02, 0.496986
2253.0, 0.496608
2253.98, 0.496154
2254.96, 0.495852
2255.94, 0.496079
2256.92, 0.496154
2257.91, 0.495928
2258.89, 0.495777
2259.88, 0.496079
2260.86, 0.496079
2261.85, 0.496154
2262.83, 0.496457
2263.82, 0.496683
2264.81, 0.496230
2265.8, 0.495777
2266.79, 0.495626
2267.78, 0.495701
2268.78, 0.495701
2269.77, 0.495777
2270.76, 0.495172
2271.76, 0.494643
2272.75, 0.494114
2273.75, 0.493586
2274.75, 0.493208
2275.75, 0.493435
2276.75, 0.493283
2277.75, 0.492755
2278.75, 0.491924
2279.75, 0.491470
2280.75, 0.490866
2281.76, 0.490564
2282.76, 0.490261
2283.77, 0.490186
2284.77, 0.489884
2285.78, 0.489279
2286.79, 0.488675
2287.8, 0.488599
2288.81, 0.488373
2289.82, 0.487919
2290.83, 0.487693
2291.84, 0.487693
2292.86, 0.487239
2293.87, 0.487390
2294.89, 0.487617
2295.91, 0.487541
2296.92, 0.487088
2297.94, 0.487239
2298.96, 0.487617
2299.98, 0.488070
2301.0, 0.488675
2302.02, 0.489430
2303.04, 0.489657
2304.07, 0.489732
2305.09, 0.489959
2306.12, 0.490186
2307.15, 0.489581
2308.17, 0.489355
2309.2, 0.488977
2310.23, 0.488448
2311.26, 0.487995
2312.29, 0.487466
2313.32, 0.486786
2314.35, 0.485955
2315.39, 0.484821
2316.42, 0.483310
2317.46, 0.481497
2318.5, 0.479533
2319.53, 0.477191
2320.57, 0.475000
2321.61, 0.472733
2322.65, 0.469938
2323.69, 0.466689
2324.73, 0.463213
2325.78, 0.459814
2326.82, 0.457245
2327.86, 0.454978
2328.91, 0.453316
2329.96, 0.451805
2331.01, 0.450672
2332.05, 0.449614
2333.1, 0.448783
2334.15, 0.448254
2335.21, 0.448254
2336.26, 0.448707
2337.31, 0.449614
2338.36, 0.449916
2339.42, 0.450143
2340.48, 0.450445
2341.53, 0.450672
2342.59, 0.450596
2343.65, 0.450294
2344.71, 0.449841
2345.77, 0.449614
2346.83, 0.448707
2347.9, 0.447423
2348.96, 0.446290
2350.02, 0.444930
2351.09, 0.443268
2352.16, 0.442059
2353.23, 0.440699
2354.29, 0.439414
2355.36, 0.438206
2356.43, 0.437752
2357.51, 0.437526
2358.58, 0.437677
2359.65, 0.438054
2360.73, 0.438583
2361.8, 0.439112
2362.88, 0.440094
2363.96, 0.441757
2365.03, 0.443721
2366.11, 0.446063
2367.19, 0.448707
2368.27, 0.451427
2369.36, 0.454072
2370.44, 0.456036
2371.53, 0.458000
2372.61, 0.459360
2373.7, 0.459738
2374.78, 0.459814
2375.87, 0.460342
2376.96, 0.460871
2378.05, 0.461098
2379.14, 0.461174
2380.24, 0.461022
2381.33, 0.460871
2382.42, 0.461249
2383.52, 0.461400
2384.61, 0.461098
2385.71, 0.461174
2386.81, 0.461400
2387.91, 0.461778
2389.01, 0.462231
2390.11, 0.462534
2391.22, 0.462987
2392.32, 0.463818
2393.42, 0.465027
2394.53, 0.466009
2395.64, 0.466991
2396.74, 0.468729
2397.85, 0.470315
2398.96, 0.470920
2400.07, 0.471902
2401.18, 0.472960
2402.3, 0.473640
2403.41, 0.473640
2404.52, 0.474244
2405.64, 0.474773
2406.76, 0.475226
2407.88, 0.475453
2408.99, 0.475604
2410.11, 0.475755
2411.23, 0.476057
2412.36, 0.476511
2413.48, 0.476889
2414.6, 0.477342
2415.73, 0.477946
2416.85, 0.478324
2417.98, 0.478853
2419.11, 0.479080
2420.24, 0.479760
2421.37, 0.480288
2422.5, 0.480515
2423.64, 0.480666
2424.77, 0.481497
2425.9, 0.481724
2427.04, 0.481271
2428.18, 0.480893
2429.31, 0.480742
2430.45, 0.480817
2431.59, 0.480742
2432.73, 0.480666
2433.88, 0.480666
2435.02, 0.480364
2436.16, 0.480439
2437.31, 0.480439
2438.45, 0.480591
2439.6, 0.480666
2440.75, 0.480591
2441.9, 0.480439
2443.05, 0.480288
2444.2, 0.480062
2445.35, 0.479911
2446.51, 0.479457
2447.67, 0.479155
2448.82, 0.478475
2449.98, 0.477946
2451.14, 0.477568
2452.3, 0.476964
2453.46, 0.476284
2454.62, 0.475831
2455.78, 0.475604
2456.94, 0.475453
2458.11, 0.474773
2459.28, 0.473942
2460.44, 0.473111
2461.61, 0.472733
2462.78, 0.471978
2463.95, 0.471222
2465.12, 0.470240
2466.3, 0.469787
2467.47, 0.469031
2468.65, 0.468351
2469.82, 0.467520
2471.0, 0.467142
2472.18, 0.466764
2473.36, 0.465933
2474.54, 0.465405
2475.72, 0.465405
2476.9, 0.465178
2478.08, 0.465102
2479.27, 0.464573
2480.46, 0.464045
2481.64, 0.463969
2482.83, 0.464271
2484.02, 0.463818
2485.21, 0.463138
2486.4, 0.463213
2487.6, 0.463365
2488.79, 0.462685
2489.99, 0.462458
2491.18, 0.462382
2492.38, 0.462231
2493.58, 0.462307
2494.78, 0.462231
2495.98, 0.461778
2497.18, 0.461400
2498.39, 0.461325
2499.59, 0.461476
2500.8, 0.461551
2502.01, 0.461551
2503.21, 0.461627
2504.42, 0.461476
2505.63, 0.461551
2506.84, 0.461627
2508.06, 0.461098
2509.27, 0.460720
2510.49, 0.460720
2511.7, 0.460645
2512.92, 0.459814
2514.14, 0.459285
2515.36, 0.458680
2516.58, 0.458000
2517.8, 0.457245
2519.03, 0.456565
2520.25, 0.455432
2521.48, 0.454449
2522.7, 0.453543
2523.93, 0.453014
2525.16, 0.452258
2526.39, 0.451503
2527.62, 0.450823
2528.86, 0.450747
2530.09, 0.450747
2531.33, 0.451201
2532.56, 0.451201
2533.8, 0.450898
2535.04, 0.451352
2536.28, 0.451805
2537.52, 0.451503
2538.76, 0.451805
2540.01, 0.451956
2541.25, 0.452863
2542.5, 0.453996
2543.75, 0.454072
2544.99, 0.453769
2546.24, 0.454449
2547.49, 0.455356
2548.75, 0.455280
2550.0, 0.455280
2551.26, 0.456112
2552.51, 0.456716
2553.77, 0.455809
2555.03, 0.455507
2556.29, 0.455960
2557.55, 0.456112
2558.81, 0.457018
2560.08, 0.458529
2561.34, 0.459814
2562.61, 0.459889
2563.88, 0.459965
2565.14, 0.458529
2566.41, 0.456867
2567.68, 0.457018
2568.96, 0.458454
2570.23, 0.457320
2571.51, 0.456565
2572.78, 0.459058
2574.06, 0.458303
2575.34, 0.457547
2576.62, 0.458831
2577.9, 0.457623
2579.18, 0.457547
2580.47, 0.459360
2581.75, 0.459814
2583.04, 0.462458
2584.32, 0.462156
2585.61, 0.460116
2586.9, 0.461325
2588.2, 0.460720
2589.49, 0.460040
2590.78, 0.459285
2592.08, 0.460569
2593.37, 0.466689
2594.67, 0.471298
2595.97, 0.465027
2597.27, 0.459889
2598.57, 0.458303
2599.88, 0.458756
2601.18, 0.459436
2602.49, 0.459511
2603.79, 0.460645
2605.1, 0.462685
2606.41, 0.461022
2607.72, 0.459209
2609.03, 0.458756
2610.35, 0.458151
2611.66, 0.457849
2612.98, 0.458303
2614.3, 0.458227
2615.62, 0.461476
2616.94, 0.462760
2618.26, 0.461022
2619.58, 0.463667
2620.91, 0.463062
2622.23, 0.459965
2623.56, 0.460116
2624.89, 0.461551
2626.22, 0.463818
2627.55, 0.461854
2628.88, 0.463213
2630.21, 0.465707
2631.55, 0.462685
2632.89, 0.461627
2634.22, 0.461476
2635.56, 0.460267
2636.9, 0.460645
2638.25, 0.460418
2639.59, 0.460494
2640.93, 0.460645
2642.28, 0.460569
2643.63, 0.459889
2644.98, 0.460796
2646.33, 0.459814
2647.68, 0.458378
2649.03, 0.457471
2650.39, 0.457396
2651.74, 0.457774
2653.1, 0.456640
2654.46, 0.455129
2655.82, 0.454298
2657.18, 0.452636
2658.54, 0.453014
2659.9, 0.452258
2661.27, 0.451201
2662.64, 0.450143
2664.01, 0.453014
2665.38, 0.454903
2666.74, 0.452863
2668.12, 0.448481
2669.49, 0.451352
2670.87, 0.449236
2672.24, 0.442059
2673.62, 0.440019
2675.0, 0.440623
2676.38, 0.441228
2677.76, 0.439414
2679.15, 0.437148
2680.54, 0.432992
2681.92, 0.431028
2683.31, 0.429593
2684.7, 0.427250
2686.09, 0.425210
2687.48, 0.422264
2688.88, 0.419468
2690.27, 0.416371
2691.67, 0.414558
2693.07, 0.414029
2694.47, 0.410478
2695.87, 0.405189
2697.27, 0.400731
2698.67, 0.397180
2700.08, 0.394687
2701.49, 0.390758
2702.9, 0.384865
2704.31, 0.379123
2705.72, 0.372928
2707.13, 0.366582
2708.54, 0.360764
2709.96, 0.354720
2711.38, 0.346485
2712.8, 0.336814
2714.22, 0.330090
2715.64, 0.324348
2717.06, 0.318832
2718.49, 0.312637
2719.91, 0.307802
2721.34, 0.302513
2722.77, 0.300397
2724.2, 0.299793
2725.63, 0.295562
2727.07, 0.290047
2728.5, 0.285060
2729.94, 0.279620
2731.38, 0.274936
2732.82, 0.271763
2734.26, 0.269270
2735.7, 0.264510
2737.15, 0.259675
2738.59, 0.256350
2740.04, 0.252270
2741.49, 0.246151
2742.94, 0.240106
2744.39, 0.235724
2745.84, 0.232702
2747.3, 0.230209
2748.76, 0.228094
2750.21, 0.226280
2751.67, 0.224618
2753.14, 0.223485
2754.6, 0.224014
2756.06, 0.222427
2757.53, 0.219405
2759.0, 0.217743
2760.46, 0.217365
2761.94, 0.217667
2763.41, 0.217138
2764.88, 0.215854
2766.36, 0.215778
2767.83, 0.215703
2769.31, 0.215325
2770.79, 0.215023
2772.27, 0.214041
2773.76, 0.212983
2775.24, 0.212907
2776.73, 0.213436
2778.22, 0.213890
2779.71, 0.213965
2781.2, 0.214116
2782.69, 0.213663
2784.18, 0.212907
2785.68, 0.212907
2787.18, 0.213210
2788.68, 0.212605
2790.18, 0.211925
2791.68, 0.211396
2793.19, 0.210868
2794.69, 0.210565
2796.2, 0.210188
2797.71, 0.209961
2799.22, 0.209659
2800.73, 0.209130
2802.24, 0.209281
2803.76, 0.209054
2805.28, 0.207921
2806.8, 0.206939
2808.32, 0.206410
2809.84, 0.205881
2811.36, 0.205503
2812.89, 0.205352
2814.42, 0.205428
2815.94, 0.205201
2817.48, 0.205428
2819.01, 0.205805
2820.54, 0.205730
2822.08, 0.205352
2823.61, 0.205126
2825.15, 0.205201
2826.69, 0.205126
2828.23, 0.204672
2829.78, 0.204521
2831.32, 0.204294
2832.87, 0.203841
2834.42, 0.202859
2835.97, 0.201877
2837.52, 0.200743
2839.08, 0.199308
2840.63, 0.197570
2842.19, 0.195681
2843.75, 0.193944
2845.31, 0.192433
2846.87, 0.190922
2848.44, 0.189259
2850.0, 0.187371
2851.57, 0.185860
2853.14, 0.184500
2854.71, 0.182837
2856.28, 0.180798
2857.86, 0.178607
2859.43, 0.175811
2861.01, 0.172940
2862.59, 0.170296
2864.17, 0.168860
2865.76, 0.169389
2867.34, 0.170749
2868.93, 0.171656
2870.52, 0.171807
2872.11, 0.171882
2873.7, 0.172713
2875.29, 0.174451
2876.89, 0.176718
2878.49, 0.179135
2880.08, 0.181553
2881.69, 0.183442
2883.29, 0.184953
2884.89, 0.186388
2886.5, 0.188051
2888.11, 0.189486
2889.72, 0.191073
2891.33, 0.192810
2892.94, 0.194397
2894.56, 0.196286
2896.17, 0.198552
2897.79, 0.200517
2899.42, 0.202330
2901.04, 0.204219
2902.66, 0.205805
2904.29, 0.207165
2905.92, 0.208677
2907.55, 0.209961
2909.18, 0.210943
2910.81, 0.211623
2912.45, 0.212227
2914.08, 0.212681
2915.72, 0.213134
2917.36, 0.213512
2919.01, 0.214116
2920.65, 0.214419
2922.3, 0.214721
2923.94, 0.214947
2925.59, 0.215174
2927.25, 0.215401
2928.9, 0.215552
2930.56, 0.215627
2932.21, 0.215703
2933.87, 0.215854
2935.53, 0.216307
2937.2, 0.216610
2938.86, 0.216610
2940.53, 0.216685
2942.2, 0.217214
2943.87, 0.217592
2945.54, 0.218045
2947.22, 0.218498
2948.89, 0.218801
2950.57, 0.219254
2952.25, 0.219934
2953.93, 0.220614
2955.62, 0.221218
2957.3, 0.221747
2958.99, 0.222352
2960.68, 0.222880
2962.37, 0.223711
2964.07, 0.224543
2965.76, 0.225374
2967.46, 0.226054
2969.16, 0.226734
2970.86, 0.227111
2972.56, 0.227640
2974.27, 0.228245
2975.98, 0.228849
2977.69, 0.229453
2979.4, 0.229982
2981.11, 0.230738
2982.83, 0.231569
2984.54, 0.231947
2986.26, 0.232476
2987.98, 0.233080
2989.71, 0.233760
2991.43, 0.234289
2993.16, 0.234818
2994.89, 0.235347
2996.62, 0.236178
2998.35, 0.237009
3000.09, 0.237689
3001.83, 0.238369
3003.57, 0.239275
3005.31, 0.240106
3007.05, 0.240862
3008.79, 0.241466
3010.54, 0.242222
3012.29, 0.242826
3014.04, 0.243431
3015.8, 0.244262
3017.55, 0.245093
3019.31, 0.245622
3021.07, 0.246604
3022.83, 0.247057
3024.59, 0.247359
3026.36, 0.247813
3028.13, 0.248417
3029.9, 0.249022
3031.67, 0.249777
3033.44, 0.250306
3035.22, 0.250835
3037.0, 0.251364
3038.78, 0.251893
3040.56, 0.252270
3042.34, 0.252648
3044.13, 0.252950
3045.92, 0.253328
3047.71, 0.253933
3049.5, 0.254235
3051.3, 0.254461
3053.09, 0.254915
3054.89, 0.255368
3056.69, 0.255897
3058.5, 0.256275
3060.3, 0.256728
3062.11, 0.257030
3063.92, 0.257332
3065.73, 0.257635
3067.55, 0.258088
3069.36, 0.258541
3071.18, 0.258768
3073.0, 0.259070
3074.82, 0.259372
3076.65, 0.259675
3078.48, 0.260052
3080.31, 0.260430
3082.14, 0.260959
3083.97, 0.261261
3085.8, 0.261563
3087.64, 0.261866
3089.48, 0.262092
3091.33, 0.262243
3093.17, 0.262546
3095.02, 0.262999
3096.87, 0.263679
3098.72, 0.264057
3100.57, 0.264283
3102.43, 0.264737
3104.28, 0.265341
3106.14, 0.265719
3108.01, 0.266021
3109.87, 0.266550
3111.74, 0.267381
3113.61, 0.267985
3115.48, 0.268892
3117.35, 0.269648
3119.23, 0.270403
3121.1, 0.271159
3122.98, 0.272065
3124.87, 0.272670
3126.75, 0.273350
3128.64, 0.273954
3130.53, 0.274558
3132.42, 0.275314
3134.31, 0.275994
3136.21, 0.276372
3138.11, 0.276749
3140.01, 0.277278
3141.91, 0.277732
3143.82, 0.278185
3145.73, 0.278638
3147.64, 0.279016
3149.55, 0.279469
3151.46, 0.279923
3153.38, 0.280300
3155.3, 0.280829
3157.22, 0.281283
3159.14, 0.281736
3161.07, 0.282189
3163.0, 0.282340
3164.93, 0.282643
3166.86, 0.283096
3168.8, 0.283549
3170.74, 0.283927
3172.68, 0.284305
3174.62, 0.284380
3176.56, 0.284607
3178.51, 0.285060
3180.46, 0.285514
3182.42, 0.285665
3184.37, 0.286042
3186.33, 0.286420
3188.29, 0.286874
3190.25, 0.287251
3192.21, 0.287705
3194.18, 0.288007
3196.15, 0.288385
3198.12, 0.288913
3200.09, 0.289669
3202.07, 0.290198
3204.05, 0.290500
3206.03, 0.290878
3208.02, 0.291407
3210.0, 0.291936
3211.99, 0.292464
3213.98, 0.292842
3215.98, 0.293447
3217.97, 0.293975
3219.97, 0.294429
3221.97, 0.294882
3223.98, 0.295260
3225.98, 0.295638
3227.99, 0.295940
3230.0, 0.296242
3232.02, 0.296544
3234.03, 0.296771
3236.05, 0.297073
3238.07, 0.297375
3240.1, 0.297602
3242.12, 0.297753
3244.15, 0.297904
3246.18, 0.298055
3248.22, 0.298131
3250.25, 0.298055
3252.29, 0.297829
3254.33, 0.297678
3256.38, 0.297829
3258.43, 0.297753
3260.47, 0.297375
3262.53, 0.297073
3264.58, 0.296846
3266.64, 0.296544
3268.7, 0.296167
3270.76, 0.295713
3272.82, 0.295260
3274.89, 0.294807
3276.96, 0.294504
3279.04, 0.294127
3281.11, 0.293598
3283.19, 0.292993
3285.27, 0.292691
3287.35, 0.292464
3289.44, 0.292389
3291.53, 0.292464
3293.62, 0.292616
3295.71, 0.292767
3297.81, 0.293144
3299.91, 0.293447
3302.01, 0.293749
3304.11, 0.294127
3306.22, 0.294580
3308.33, 0.295184
3310.44, 0.295638
3312.56, 0.295789
3314.68, 0.296091
3316.8, 0.296318
3318.92, 0.296544
3321.05, 0.296695
3323.18, 0.296771
3325.31, 0.296620
3327.44, 0.296544
3329.58, 0.296167
3331.72, 0.295713
3333.86, 0.295184
3336.01, 0.294127
3338.16, 0.292691
3340.31, 0.291180
3342.46, 0.289367
3344.61, 0.287780
3346.77, 0.286420
3348.94, 0.285362
3351.1, 0.284683
3353.27, 0.284078
3355.44, 0.283549
3357.61, 0.283323
3359.79, 0.282718
3361.97, 0.282038
3364.15, 0.281358
3366.33, 0.280452
3368.52, 0.279167
3370.71, 0.278034
3372.9, 0.276674
3375.1, 0.275238
3377.3, 0.273652
3379.5, 0.272065
3381.71, 0.270479
3383.91, 0.269043
3386.12, 0.267834
3388.34, 0.266777
3390.55, 0.266021
3392.77, 0.265719
3394.99, 0.265794
3397.22, 0.266172
3399.45, 0.266928
3401.68, 0.268061
3403.91, 0.269421
3406.15, 0.271310
3408.39, 0.273501
3410.63, 0.276069
3412.87, 0.278638
3415.12, 0.281283
3417.37, 0.284456
3419.63, 0.287856
3421.88, 0.290802
3424.14, 0.293975
3426.41, 0.297073
3428.67, 0.299793
3430.94, 0.302286
3433.21, 0.304704
3435.49, 0.306819
3437.77, 0.308708
3440.05, 0.310219
3442.33, 0.311806
3444.62, 0.312939
3446.91, 0.314073
3449.2, 0.314904
3451.5, 0.315659
3453.8, 0.316264
3456.1, 0.316868
3458.41, 0.317170
3460.72, 0.317246
3463.03, 0.317019
3465.34, 0.316566
3467.66, 0.315584
3469.98, 0.314224
3472.31, 0.313090
3474.63, 0.312410
3476.96, 0.312259
3479.3, 0.312561
3481.64, 0.313241
3483.97, 0.314299
3486.32, 0.315281
3488.66, 0.316264
3491.01, 0.317246
3493.36, 0.318152
3495.72, 0.319059
3498.08, 0.319966
3500.44, 0.320872
3502.81, 0.321930
3505.18, 0.322837
3507.55, 0.323743
3509.92, 0.324574
3512.3, 0.325708
3514.68, 0.326916
3517.06, 0.328276
3519.45, 0.330014
3521.84, 0.331752
3524.24, 0.333565
3526.64, 0.335529
3529.04, 0.337418
3531.44, 0.339005
3533.85, 0.340591
3536.26, 0.342103
3538.67, 0.343538
3541.09, 0.344898
3543.51, 0.346107
3545.93, 0.347391
3548.36, 0.348676
3550.79, 0.349960
3553.22, 0.351093
3555.66, 0.352378
3558.1, 0.353587
3560.54, 0.354871
3562.99, 0.356004
3565.44, 0.357213
3567.9, 0.358271
3570.35, 0.359404
3572.81, 0.360688
3575.28, 0.362124
3577.75, 0.363559
3580.22, 0.365146
3582.69, 0.366657
3585.17, 0.368319
3587.65, 0.369755
3590.14, 0.370964
3592.62, 0.371946
3595.11, 0.372928
3597.61, 0.373835
3600.11, 0.374892
3602.61, 0.375723
3605.11, 0.376479
3607.62, 0.377083
3610.14, 0.377763
3612.65, 0.378519
3615.17, 0.379123
3617.69, 0.379652
3620.22, 0.380257
3622.75, 0.380710
3625.28, 0.381088
3627.82, 0.381692
3630.36, 0.382297
3632.9, 0.382825
3635.45, 0.383203
3638.0, 0.383581
3640.56, 0.384034
3643.12, 0.384639
3645.68, 0.385168
3648.24, 0.385545
3650.81, 0.386074
3653.39, 0.386376
3655.96, 0.386679
3658.54, 0.387207
3661.13, 0.387736
3663.71, 0.388190
3666.3, 0.388567
3668.9, 0.389021
3671.5, 0.389474
3674.1, 0.389852
3676.7, 0.390456
3679.31, 0.390985
3681.93, 0.391665
3684.54, 0.391967
3687.17, 0.392345
3689.79, 0.392723
3692.42, 0.393252
3695.05, 0.393554
3697.69, 0.393856
3700.32, 0.394158
3702.97, 0.394309
3705.61, 0.394461
3708.27, 0.394763
3710.92, 0.394763
3713.58, 0.394838
3716.24, 0.394687
3718.91, 0.394612
3721.58, 0.394385
3724.25, 0.394234
3726.93, 0.393856
3729.61, 0.393554
3732.29, 0.393101
3734.98, 0.392572
3737.67, 0.392043
3740.37, 0.391514
3743.07, 0.390910
3745.78, 0.390154
3748.49, 0.389323
3751.2, 0.388567
3753.91, 0.387434
3756.63, 0.386074
3759.36, 0.384639
3762.09, 0.382977
3764.82, 0.380785
3767.55, 0.378368
3770.29, 0.375497
3773.04, 0.372097
3775.78, 0.368168
3778.54, 0.363408
3781.29, 0.357893
3784.05, 0.352000
3786.82, 0.345276
3789.59, 0.338023
3792.36, 0.330241
3795.13, 0.322232
3797.92, 0.313997
3800.7, 0.305913
3803.49, 0.298358
3806.28, 0.291407
3809.08, 0.285060
3811.88, 0.279696
3814.68, 0.275238
3817.49, 0.271612
3820.31, 0.269119
3823.12, 0.267608
3825.94, 0.267154
3828.77, 0.267608
3831.6, 0.268892
3834.43, 0.271159
3837.27, 0.274256
3840.11, 0.278109
3842.96, 0.282491
3845.81, 0.287025
3848.67, 0.291633
3851.53, 0.296393
3854.39, 0.300549
3857.26, 0.304326
3860.13, 0.307650
3863.01, 0.310446
3865.89, 0.312561
3868.77, 0.314375
3871.66, 0.315810
3874.55, 0.317246
3877.45, 0.318077
3880.35, 0.318606
3883.26, 0.318757
3886.17, 0.318681
3889.09, 0.317548
3892.01, 0.315206
3894.93, 0.312108
3897.86, 0.309690
3900.79, 0.309010
3903.73, 0.309615
3906.67, 0.310522
3909.62, 0.311881
3912.57, 0.314073
3915.52, 0.316566
3918.48, 0.318303
3921.45, 0.319286
3924.42, 0.319512
3927.39, 0.319210
3930.37, 0.318681
3933.35, 0.318077
3936.34, 0.317019
3939.33, 0.315130
3942.32, 0.312259
3945.32, 0.309010
3948.33, 0.305686
3951.34, 0.302060
3954.35, 0.298358
3957.37, 0.294807
3960.39, 0.291558
3963.42, 0.288611
3966.45, 0.285891
3969.49, 0.283549
3972.53, 0.281434
3975.58, 0.279469
3978.63, 0.277581
3981.68, 0.276145
3984.75, 0.275012
3987.81, 0.274558
3990.88, 0.274634
3993.95, 0.275163
3997.03, 0.275918
4000.12, 0.276901
4003.21, 0.278185
4006.3, 0.279998
4009.4, 0.282038
4012.5, 0.284229
4015.61, 0.286420
4018.72, 0.288838
4021.84, 0.291407
4024.96, 0.294278
4028.09, 0.297678
4031.22, 0.301229
4034.36, 0.304931
4037.5, 0.309086
4040.65, 0.313317
4043.8, 0.317623
4046.96, 0.321703
4050.12, 0.325708
4053.29, 0.329334
4056.46, 0.332885
4059.64, 0.335983
4062.82, 0.338854
4066.0, 0.341271
4069.19, 0.343538
4072.39, 0.345578
4075.59, 0.347316
4078.8, 0.348751
4082.01, 0.350111
4085.23, 0.351244
4088.45, 0.352453
4091.68, 0.353511
4094.91, 0.354720
4098.15, 0.356080
4101.39, 0.357742
4104.63, 0.359329
4107.89, 0.361142
4111.14, 0.363182
4114.41, 0.365373
4117.67, 0.367488
4120.95, 0.369528
4124.23, 0.371493
4127.51, 0.373532
4130.8, 0.375346
4134.09, 0.376857
4137.39, 0.378141
4140.7, 0.379350
4144.01, 0.380181
4147.32, 0.380937
4150.64, 0.381465
4153.97, 0.381919
4157.3, 0.382297
4160.64, 0.382599
4163.98, 0.382674
4167.33, 0.382825
4170.68, 0.382750
4174.04, 0.382599
4177.4, 0.382372
4180.77, 0.382145
4184.14, 0.381692
4187.52, 0.381314
4190.91, 0.380861
4194.3, 0.380559
4197.69, 0.380257
4201.1, 0.379954
4204.5, 0.379728
4207.92, 0.379728
4211.34, 0.379652
4214.76, 0.379652
4218.19, 0.379803
4221.62, 0.379879
4225.06, 0.379577
4228.51, 0.379274
4231.96, 0.378746
4235.42, 0.377990
4238.88, 0.376932
4242.35, 0.375421
4245.83, 0.373684
4249.31, 0.372097
4252.79, 0.370208
4256.28, 0.368924
4259.78, 0.368773
4263.29, 0.368924
4266.79, 0.368848
4270.31, 0.368622
4273.83, 0.368168
4277.35, 0.367639
4280.89, 0.366959
4284.42, 0.366204
4287.97, 0.365146
4291.52, 0.364239
4295.07, 0.363182
4298.63, 0.361897
4302.2, 0.360688
4305.78, 0.359404
4309.35, 0.358044
4312.94, 0.356609
4316.53, 0.355173
4320.13, 0.353964
4323.73, 0.352604
4327.34, 0.351320
4330.96, 0.349884
4334.58, 0.348600
4338.21, 0.347240
4341.84, 0.346031
4345.48, 0.344898
4349.12, 0.343765
4352.77, 0.342480
4356.43, 0.341271
4360.1, 0.340063
4363.76, 0.339005
4367.44, 0.338023
4371.12, 0.337040
4374.81, 0.335907
4378.51, 0.334774
4382.21, 0.333641
4385.92, 0.332810
4389.63, 0.331827
4393.35, 0.330845
4397.08, 0.329787
4400.81, 0.328730
4404.55, 0.327748
4408.29, 0.326765
4412.04, 0.325481
4415.8, 0.324348
4419.57, 0.323063
4423.34, 0.321779
4427.12, 0.320343
4430.9, 0.318832
4434.69, 0.317170
4438.49, 0.315584
4442.29, 0.313770
4446.1, 0.311881
4449.92, 0.309842
4453.74, 0.307953
4457.57, 0.306064
4461.41, 0.304251
4465.25, 0.302588
4469.1, 0.301153
4472.95, 0.299642
4476.82, 0.298131
4480.69, 0.296544
4484.56, 0.295033
4488.44, 0.293598
4492.33, 0.292238
4496.23, 0.290576
4500.13, 0.288838
4504.04, 0.286874
4507.96, 0.284758
4511.88, 0.282114
4515.81, 0.279092
4519.75, 0.275616
4523.69, 0.271839
4527.65, 0.267759
4531.6, 0.263603
4535.57, 0.259750
4539.54, 0.256199
4543.52, 0.252724
4547.5, 0.249626
4551.5, 0.246831
4555.5, 0.244186
4559.5, 0.241617
4563.52, 0.239275
4567.54, 0.236858
4571.56, 0.234516
4575.6, 0.232022
4579.64, 0.229529
4583.69, 0.226885
4587.75, 0.224240
4591.81, 0.221520
4595.88, 0.219178
4599.96, 0.216912
4604.04, 0.214796
4608.14, 0.212530
4612.24, 0.210339
4616.34, 0.208299
4620.46, 0.206183
4624.58, 0.204068
4628.71, 0.202103
4632.84, 0.199912
4636.99, 0.197646
4641.14, 0.195228
4645.3, 0.193037
4649.47, 0.190922
4653.64, 0.189033
4657.82, 0.187295
4662.01, 0.185784
4666.21, 0.184349
4670.41, 0.182913
4674.62, 0.181251
4678.84, 0.179513
4683.07, 0.177398
4687.3, 0.175358
4691.54, 0.173167
4695.79, 0.170976
4700.05, 0.168709
4704.31, 0.166443
4708.59, 0.164100
4712.87, 0.161834
4717.15, 0.159794
4721.45, 0.157830
4725.76, 0.156092
4730.07, 0.154505
4734.39, 0.152919
4738.72, 0.151785
4743.05, 0.150879
4747.39, 0.150123
4751.75, 0.149519
4756.1, 0.148990
4760.47, 0.148461
4764.85, 0.148083
4769.23, 0.147630
4773.62, 0.146950
4778.02, 0.146270
4782.43, 0.145514
4786.85, 0.144532
4791.27, 0.143323
4795.7, 0.142039
4800.14, 0.140679
4804.59, 0.139168
4809.05, 0.137884
4813.51, 0.136524
4817.99, 0.135164
4822.47, 0.133879
4826.96, 0.132746
4831.46, 0.131311
4835.96, 0.130026
4840.48, 0.128742
4845.0, 0.127457
4849.54, 0.126097
4854.08, 0.124889
4858.63, 0.123755
4863.18, 0.122622
4867.75, 0.121338
4872.33, 0.120355
4876.91, 0.119675
4881.5, 0.119071
4886.1, 0.118542
4890.71, 0.118089
4895.33, 0.117787
4899.96, 0.117409
4904.59, 0.116880
4909.24, 0.116351
4913.89, 0.115747
4918.55, 0.114991
4923.22, 0.114160
4927.9, 0.113253
4932.59, 0.112498
4937.29, 0.111742
4942.0, 0.111062
4946.71, 0.110382
4951.44, 0.109929
4956.17, 0.109551
4960.91, 0.108871
4965.67, 0.108267
4970.43, 0.107587
4975.2, 0.106907
4979.98, 0.106152
4984.76, 0.105547
4989.56, 0.104792
4994.37, 0.103960
4999.18, 0.102903
5004.01, 0.101694
5008.84, 0.100258
5013.69, 0.0987470
5018.54, 0.0970100
5023.4, 0.0950450
5028.28, 0.0931560
5033.16, 0.0912680
5038.05, 0.0896050
5042.95, 0.0881700
5047.86, 0.0870370
5052.78, 0.0863570
5057.71, 0.0858280
5062.65, 0.0855260
5067.6, 0.0854500
5072.56, 0.0856770
5077.53, 0.0861300
5082.5, 0.0867340
5087.49, 0.0873390
5092.49, 0.0881700
5097.5, 0.0891520
5102.51, 0.0905120
5107.54, 0.0919480
5112.58, 0.0934590
5117.62, 0.0947430
5122.68, 0.0958760
5127.75, 0.0970100
5132.82, 0.0981430
5137.91, 0.0991250
5143.01, 0.100183
5148.12, 0.101014
5153.23, 0.101694
5158.36, 0.102449
5163.5, 0.103356
5168.65, 0.104112
5173.81, 0.104867
5178.98, 0.105472
5184.15, 0.106000
5189.34, 0.106529
5194.54, 0.107209
5199.75, 0.108040
5204.98, 0.108720
5210.21, 0.109400
5215.45, 0.109627
5220.7, 0.109325
5225.96, 0.109098
5231.23, 0.108720
5236.52, 0.108116
5241.81, 0.107360
5247.12, 0.106680
5252.44, 0.106076
5257.76, 0.105472
5263.1, 0.104640
5268.45, 0.103960
5273.81, 0.103356
5279.18, 0.102903
5284.56, 0.102525
5289.95, 0.102374
5295.36, 0.102072
5300.77, 0.101921
5306.2, 0.101845
5311.63, 0.101618
5317.08, 0.101392
5322.54, 0.101089
5328.01, 0.100636
5333.49, 0.100032
5338.98, 0.0993520
5344.49, 0.0988980
5350.0, 0.0984450
5355.53, 0.0980670
5361.07, 0.0979160
5366.62, 0.0980670
5372.18, 0.0982940
5377.75, 0.0985210
5383.34, 0.0985960
5388.93, 0.0988980
5394.54, 0.0992760
5400.16, 0.0997300
5405.79, 0.100258
5411.44, 0.101014
5417.09, 0.102147
5422.76, 0.103432
5428.43, 0.104036
5434.12, 0.104943
5439.83, 0.106000
5445.54, 0.106983
5451.26, 0.107889
5457.0, 0.109023
5462.75, 0.110231
5468.52, 0.110911
5474.29, 0.111440
5480.08, 0.112271
5485.88, 0.112573
5491.69, 0.112876
5497.51, 0.113102
5503.35, 0.113329
5509.2, 0.113253
5515.06, 0.113405
5520.93, 0.113329
5526.82, 0.113102
5532.71, 0.112725
5538.63, 0.112422
5544.55, 0.111818
5550.49, 0.111062
5556.44, 0.110005
5562.4, 0.109325
5568.37, 0.109023
5574.36, 0.109174
5580.36, 0.109325
5586.37, 0.109174
5592.4, 0.109249
5598.44, 0.109400
5604.49, 0.109174
5610.56, 0.108947
5616.63, 0.108569
5622.73, 0.108040
5628.83, 0.107587
5634.95, 0.107511
5641.08, 0.107436
5647.23, 0.106605
5653.39, 0.105849
5659.56, 0.105169
5665.74, 0.104263
5671.94, 0.104112
5678.15, 0.103809
5684.38, 0.103205
5690.62, 0.102827
5696.87, 0.102374
5703.14, 0.102072
5709.42, 0.102223
5715.72, 0.101543
5722.03, 0.100636
5728.35, 0.0997300
5734.69, 0.0992760
5741.03, 0.0988980
5747.4, 0.0983700
5753.78, 0.0972360
5760.17, 0.0970850
5766.58, 0.0970850
5773.0, 0.0952720
5779.44, 0.0936850
5785.88, 0.0927030
5792.35, 0.0915700
5798.83, 0.0908140
5805.32, 0.0899080
5811.83, 0.0893030
5818.35, 0.0890010
5824.89, 0.0883210
5831.45, 0.0868860
5838.01, 0.0856010
5844.59, 0.0846190
5851.19, 0.0841660
5857.8, 0.0840900
5864.43, 0.0840150
5871.07, 0.0838630
5877.73, 0.0846190
5884.4, 0.0843170
5891.09, 0.0832590
5897.79, 0.0821260
5904.5, 0.0798590
5911.23, 0.0778950
5917.98, 0.0760820
5924.75, 0.0740420
5931.53, 0.0728330
5938.32, 0.0710200
5945.13, 0.0680730
5951.96, 0.0656550
5958.8, 0.0637660
5965.65, 0.0621800
5972.53, 0.0606690
5979.42, 0.0590820
5986.32, 0.0580240
5993.24, 0.0567400
6000.18, 0.0553800
6007.13, 0.0544730
6014.1, 0.0537180
6021.08, 0.0525850
6028.09, 0.0516780
6035.1, 0.0509980
6042.14, 0.0510740
6049.19, 0.0510740
6056.25, 0.0495630
6063.34, 0.0482780
6070.44, 0.0479000
6077.55, 0.0468430
6084.69, 0.0459360
6091.84, 0.0454830
6099.0, 0.0451810
6106.19, 0.0452560
6113.39, 0.0458600
6120.61, 0.0457850
6127.84, 0.0457850
6135.09, 0.0462380
6142.36, 0.0467670
6149.65, 0.0472200
6156.95, 0.0477490
6164.27, 0.0479760
6171.61, 0.0478250
6178.97, 0.0479760
6186.34, 0.0482780
6193.73, 0.0477490
6201.14, 0.0472960
6208.57, 0.0470690
6216.01, 0.0467670
6223.47, 0.0463890
6230.95, 0.0460120
6238.45, 0.0455580
6245.97, 0.0452560
6253.5, 0.0448780
6261.06, 0.0444250
6268.63, 0.0439720
6276.21, 0.0436690
6283.82, 0.0432920
6291.45, 0.0429890
6299.1, 0.0426870
6306.76, 0.0424610
6314.44, 0.0422340
6322.14, 0.0419320
6329.86, 0.0415540
6337.6, 0.0413270
6345.35, 0.0411760
6353.13, 0.0404960
6360.92, 0.0399670
6368.74, 0.0396650
6376.57, 0.0389850
6384.43, 0.0384560
6392.3, 0.0379270
6400.19, 0.0374740
6408.1, 0.0376250
6416.03, 0.0376250
6423.98, 0.0367940
6431.95, 0.0363410
6439.94, 0.0361140
6447.95, 0.0361140
6455.98, 0.0361900
6464.03, 0.0362650
6472.1, 0.0364160
6480.19, 0.0366430
6488.31, 0.0371720
6496.44, 0.0373230
6504.59, 0.0370960
6512.76, 0.0375500
6520.95, 0.0383050
6529.16, 0.0387590
6537.4, 0.0392870
6545.65, 0.0400430
6553.92, 0.0408740
6562.22, 0.0415540
6570.54, 0.0423100
6578.88, 0.0426120
6587.23, 0.0427630
6595.61, 0.0428380
6604.02, 0.0427630
6612.44, 0.0426870
6620.89, 0.0426870
6629.35, 0.0430650
6637.84, 0.0432920
6646.35, 0.0426870
6654.88, 0.0420830
6663.44, 0.0419320
6672.01, 0.0420070
6680.61, 0.0421580
6689.23, 0.0419320
6697.88, 0.0418560
6706.54, 0.0421580
6715.23, 0.0423850
6723.94, 0.0423100
6732.67, 0.0423100
6741.42, 0.0423100
6750.2, 0.0424610
6759.0, 0.0423100
6767.82, 0.0422340
6776.67, 0.0422340
6785.54, 0.0425360
6794.44, 0.0424610
6803.35, 0.0421580
6812.29, 0.0420070
6821.26, 0.0422340
6830.24, 0.0425360
6839.25, 0.0425360
6848.29, 0.0426870
6857.35, 0.0432160
6866.43, 0.0432920
6875.54, 0.0427630
6884.67, 0.0423850
6893.82, 0.0421580
6903.0, 0.0418560
6912.2, 0.0415540
6921.43, 0.0413270
6930.69, 0.0410250
6939.96, 0.0405720
6949.27, 0.0404960
6958.59, 0.0404210
6967.95, 0.0399670
6977.33, 0.0393630
6986.73, 0.0389850
6996.16, 0.0386830
7005.61, 0.0383810
7015.09, 0.0382300
7024.6, 0.0382300
7034.13, 0.0382300
7043.69, 0.0382300
7053.27, 0.0378520
7062.88, 0.0373990
7072.52, 0.0370960
7082.18, 0.0367940
7091.87, 0.0363410
7101.58, 0.0357360
7111.32, 0.0352080
7121.09, 0.0346790
7130.88, 0.0340740
7140.71, 0.0336960
7150.56, 0.0333940
7160.43, 0.0331680
7170.33, 0.0327900
7180.27, 0.0322610
7190.23, 0.0318830
7200.21, 0.0315810
7210.23, 0.0312790
7220.27, 0.0310520
7230.34, 0.0308250
7240.44, 0.0304480
7250.56, 0.0302210
7260.72, 0.0301460
7270.9, 0.0300700
7281.12, 0.0296920
7291.36, 0.0292390
7301.63, 0.0291630
7311.93, 0.0291630
7322.25, 0.0290880
7332.61, 0.0290880
7343.0, 0.0291630
7353.41, 0.0290880
7363.86, 0.0289370
7374.33, 0.0287100
7384.83, 0.0285590
7395.37, 0.0284080
7405.93, 0.0283320
7416.53, 0.0281060
7427.15, 0.0278790
7437.81, 0.0275770
7448.5, 0.0272750
7459.22, 0.0268210
7469.96, 0.0262170
7480.74, 0.0256120
7491.55, 0.0250080
7502.39, 0.0243280
7513.27, 0.0236480
7524.17, 0.0231190
7535.11, 0.0225900
7546.08, 0.0219860
7557.08, 0.0215330
7568.11, 0.0211550
7579.17, 0.0208530
7590.27, 0.0207010
7601.4, 0.0207010
7612.56, 0.0207010
7623.76, 0.0207010
7634.98, 0.0207010
7646.24, 0.0207770
7657.54, 0.0206260
7668.87, 0.0206260
7680.23, 0.0204750
7691.62, 0.0202480
7703.05, 0.0199460
7714.51, 0.0198700
7726.01, 0.0197190
7737.54, 0.0194170
7749.11, 0.0189640
7760.71, 0.0185860
7772.35, 0.0182080
7784.02, 0.0178300
7795.72, 0.0173770
7807.46, 0.0169990
7819.23, 0.0167730
7831.04, 0.0163190
7842.89, 0.0158660
7854.77, 0.0157910
7866.69, 0.0154880
7878.65, 0.0153370
7890.64, 0.0151110
7902.67, 0.0147330
7914.74, 0.0142790
7926.84, 0.0139770
7938.98, 0.0138260
7951.16, 0.0135240
7963.37, 0.0132220
7975.62, 0.0130710
7987.91, 0.0128440
8000.24, 0.0126170
8012.6, 0.0123910
8025.01, 0.0121640
8037.45, 0.0121640
8049.93, 0.0121640
8062.45, 0.0123150
8075.01, 0.0125420
8087.61, 0.0126930
8100.24, 0.0130710
8112.91, 0.0135990
8125.63, 0.0143550
8138.39, 0.0154130
8151.18, 0.0165460
8164.02, 0.0177550
8176.9, 0.0190390
8189.81, 0.0203990
8202.77, 0.0216080
8215.77, 0.0224390
8228.82, 0.0233460
8241.9, 0.0239500
8255.02, 0.0244790
8268.19, 0.0249320
8281.39, 0.0253100
8294.65, 0.0258390
8307.94, 0.0262920
8321.28, 0.0268970
8334.66, 0.0273500
8348.08, 0.0276520
8361.54, 0.0280300
8375.05, 0.0282570
8388.6, 0.0284830
8402.2, 0.0285590
8415.84, 0.0285590
8429.52, 0.0285590
8443.25, 0.0287100
8457.02, 0.0292390
8470.84, 0.0298430
8484.7, 0.0305990
8498.61, 0.0318830
8512.57, 0.0335450
8526.57, 0.0354340
8540.62, 0.0376250
8554.71, 0.0401180
8568.85, 0.0426120
8583.04, 0.0455580
8597.27, 0.0491090
8611.55, 0.0531890
8625.88, 0.0577220
8640.26, 0.0629350
8654.68, 0.0687530
8669.16, 0.0750990
8683.68, 0.0822770
8698.25, 0.0905120
8712.87, 0.0998050
8727.53, 0.109929
8742.25, 0.120658
8757.02, 0.131613
8771.83, 0.142341
8786.7, 0.151861
8801.62, 0.159567
8816.59, 0.164780
8831.61, 0.168482
8846.68, 0.172185
8861.8, 0.176567
8876.97, 0.181402
8892.2, 0.186086
8907.48, 0.189939
8922.81, 0.192886
8938.2, 0.195001
8953.63, 0.196588
8969.13, 0.197344
8984.67, 0.198250
9000.27, 0.199157
9015.92, 0.200215
9031.63, 0.201499
9047.39, 0.202632
9063.21, 0.203237
9079.08, 0.203463
9095.01, 0.203388
9111.0, 0.203237
9127.04, 0.202859
9143.13, 0.202708
9159.28, 0.202481
9175.49, 0.202103
9191.76, 0.201575
9208.09, 0.201197
9224.47, 0.201046
9240.92, 0.200895
9257.42, 0.200668
9273.98, 0.200139
9290.6, 0.198779
9307.28, 0.196664
9324.02, 0.194095
9340.82, 0.190997
9357.68, 0.187295
9374.6, 0.182384
9391.58, 0.175887
9408.62, 0.167878
9425.73, 0.158585
9442.9, 0.148990
9460.13, 0.139924
9477.42, 0.132217
9494.78, 0.126022
9512.2, 0.121186
9529.69, 0.117862
9547.24, 0.115822
9564.86, 0.114689
9582.54, 0.114311
9600.28, 0.114311
9618.1, 0.114613
9635.97, 0.115293
9653.92, 0.116502
9671.93, 0.117862
9690.01, 0.119600
9708.16, 0.121715
9726.37, 0.124133
9744.65, 0.127155
9763.0, 0.130706
9781.43, 0.133879
9799.92, 0.136221
9818.48, 0.137959
9837.1, 0.139848
9855.8, 0.141510
9874.58, 0.142266
9893.42, 0.142417
9912.34, 0.141737
9931.33, 0.139772
9950.39, 0.136675
9969.52, 0.132671
9988.74, 0.127835
10008.0, 0.122320
10027.4, 0.117258
10046.8, 0.113858
10066.3, 0.114387
10085.9, 0.120431
10105.6, 0.131311
10125.3, 0.144230
10145.1, 0.156847
10165.0, 0.167954
10185.0, 0.177624
10205.0, 0.186388
10225.2, 0.195304
10245.4, 0.204370
10265.7, 0.213663
10286.0, 0.222729
10306.5, 0.230965
10327.0, 0.237764
10347.6, 0.242373
10368.3, 0.244186
10389.1, 0.242675
10409.9, 0.238746
10430.9, 0.233609
10451.9, 0.228018
10473.0, 0.223258
10494.2, 0.219858
10515.5, 0.217818
10536.9, 0.215703
10558.4, 0.213285
10579.9, 0.210716
10601.5, 0.207921
10623.3, 0.204446
10645.1, 0.200819
10667.0, 0.197117
10689.0, 0.194850
10711.1, 0.196664
10733.2, 0.204597
10755.5, 0.216610
10777.9, 0.226960
10800.3, 0.232702
10822.9, 0.234289
10845.5, 0.233231
10868.2, 0.231267
10891.1, 0.228849
10914.0, 0.226205
10937.0, 0.223787
10960.2, 0.221672
10983.4, 0.219405
11006.7, 0.217441
11030.1, 0.215627
11053.6, 0.213814
11077.3, 0.212454
11101.0, 0.211019
11124.8, 0.209508
11148.7, 0.208072
11172.7, 0.206712
11196.9, 0.205654
11221.1, 0.204672
11245.4, 0.203690
11269.9, 0.202255
11294.4, 0.200139
11319.1, 0.197721
11343.9, 0.195530
11368.8, 0.193642
11393.7, 0.191828
11418.8, 0.190166
11444.0, 0.188655
11469.4, 0.187446
11494.8, 0.186388
11520.3, 0.185029
11546.0, 0.183291
11571.8, 0.181100
11597.7, 0.178607
11623.7, 0.175358
11649.8, 0.171580
11676.0, 0.166745
11702.4, 0.160701
11728.9, 0.153674
11755.5, 0.146043
11782.2, 0.138035
11809.0, 0.130706
11836.0, 0.124435
11863.0, 0.118769
11890.3, 0.113858
11917.6, 0.109778
11945.0, 0.106076
11972.6, 0.102374
12000.4, 0.0990500
12028.2, 0.0961030
12056.2, 0.0935340
12084.3, 0.0911170
12112.5, 0.0890010
12140.9, 0.0871120
12169.4, 0.0851480
12198.0, 0.0831830
12226.8, 0.0817480
12255.7, 0.0802370
12284.7, 0.0784990
12313.9, 0.0770640
12343.2, 0.0756280
12372.7, 0.0738910
12402.3, 0.0727570
12432.0, 0.0716240
12461.9, 0.0701130
12491.9, 0.0686020
12522.1, 0.0673170
12552.4, 0.0658820
12582.9, 0.0645980
12613.5, 0.0636150
12644.3, 0.0625580
12675.2, 0.0614240
12706.3, 0.0603670
12737.5, 0.0593840
12768.9, 0.0587040
12800.4, 0.0580240
12832.1, 0.0572690
12863.9, 0.0566650
12895.9, 0.0562110
12928.1, 0.0556820
12960.4, 0.0553050
12992.9, 0.0550020
13025.5, 0.0546250
13058.3, 0.0539450
13091.3, 0.0534160
13124.4, 0.0530380
13157.8, 0.0522820
13191.2, 0.0515270
13224.9, 0.0509980
13258.7, 0.0505450
13292.7, 0.0498650
13326.9, 0.0491090
13361.2, 0.0488070
13395.7, 0.0486560
13430.4, 0.0485800
13465.3, 0.0480520
13500.4, 0.0474470
13535.7, 0.0469940
13571.1, 0.0464650
13606.7, 0.0457090
13642.5, 0.0452560
13678.5, 0.0448780
13714.7, 0.0438960
13751.1, 0.0427630
13787.6, 0.0420070
13824.4, 0.0412520
13861.4, 0.0404960
13898.5, 0.0394380
13935.9, 0.0384560
13973.5, 0.0380030
14011.2, 0.0377010
14049.2, 0.0370960
14087.4, 0.0367190
14125.8, 0.0364160
14164.3, 0.0358880
14203.2, 0.0355100
14242.2, 0.0351320
14281.4, 0.0346790
14320.9, 0.0343010
14360.5, 0.0337720
14400.4, 0.0330920
14440.5, 0.0322610
14480.9, 0.0316570
14521.4, 0.0311280
14562.2, 0.0303720
14603.3, 0.0295410
14644.5, 0.0290120
14686.0, 0.0293900
14727.7, 0.0309770
14769.7, 0.0337720
14811.9, 0.0359630
14854.3, 0.0361900
14897.0, 0.0349050
14939.9, 0.0324880
14983.1, 0.0305990
15026.5, 0.0291630
15070.2, 0.0273500
15114.2, 0.0256120
15158.3, 0.0239500
15202.8, 0.0224390
15247.5, 0.0213060
15292.5, 0.0207770
15337.7, 0.0208530
15383.2, 0.0222880
15429.0, 0.0254610
15475.1, 0.0302970
15521.4, 0.0361900
15568.0, 0.0419320
15614.9, 0.0458600
15662.1, 0.0472200
15709.6, 0.0466160
15757.3, 0.0448780
15805.4, 0.0426870
15853.7, 0.0407980
15902.3, 0.0398160
15951.2, 0.0401180
16000.5, 0.0411010
16050.0, 0.0432920
16099.8, 0.0463140
16150.0, 0.0485050
16200.5, 0.0494110
16251.3, 0.0488830
16302.4, 0.0479000
16353.8, 0.0465400
16405.5, 0.0448030
16457.6, 0.0436690
16510.0, 0.0426120
16562.8, 0.0425360
16615.9, 0.0436690
16669.3, 0.0464650
16723.1, 0.0503180
16777.2, 0.0546250
16831.7, 0.0609710
16886.5, 0.0691310
16941.7, 0.0784990
16997.2, 0.0890770
17053.1, 0.100712
17109.4, 0.113480
17166.1, 0.127382
17223.1, 0.142115
17280.5, 0.156545
17338.3, 0.170749
17396.5, 0.184349
17455.1, 0.196210
17514.0, 0.206108
17573.4, 0.214570
17633.2, 0.222503
17693.4, 0.228547
17754.0, 0.232778
17815.0, 0.237462
17876.4, 0.240560
17938.3, 0.240560
18000.5, 0.238973
18063.3, 0.236178
18126.4, 0.232929
18190.0, 0.228698
18254.1, 0.223863
18318.6, 0.219934
18383.5, 0.215703
18449.0, 0.211548
18514.9, 0.208072
18581.2, 0.204370
18648.0, 0.200743
18715.4, 0.197872
18783.2, 0.195984
18851.5, 0.195833
18920.3, 0.197797
18989.6, 0.199988
19059.4, 0.203388
19129.7, 0.210188
19200.6, 0.218196
19272.0, 0.225298
19343.9, 0.231191
19416.3, 0.235044
19489.3, 0.237084
19562.8, 0.236253
19637.0, 0.232476
19711.6, 0.227942
19786.8, 0.223258
19862.6, 0.218876
19939.0, 0.213663
20016.0, 0.209054
20093.6, 0.204899
20171.8, 0.201348
20250.6, 0.199686
20330.0, 0.200743
20410.0, 0.202481
20490.7, 0.204294
20572.0, 0.206183
20654.0, 0.208752
20736.6, 0.212303
20819.9, 0.215250
20903.8, 0.218423
20988.5, 0.223107
21073.8, 0.226885
21159.8, 0.229680
21246.5, 0.231040
21334.0, 0.229907
21422.1, 0.228849
21511.0, 0.229831
21600.7, 0.228849
21691.0, 0.227111
21782.1, 0.226356
21874.0, 0.224316
21966.7, 0.220538
22060.2, 0.215250
22154.5, 0.207845
22249.6, 0.200366
22345.5, 0.192886
22442.2, 0.185104
22539.8, 0.179966
22638.2, 0.180495
22737.5, 0.184651
22837.7, 0.188806
22938.7, 0.193264
23040.7, 0.197646
23143.5, 0.197797
23247.3, 0.192130
23352.1, 0.181100
23457.7, 0.174753
23564.4, 0.177247
23672.0, 0.183820
23780.5, 0.187068
23890.1, 0.190015
24000.7, 0.195908
24112.3, 0.203161
24225.0, 0.210087
24338.7, 0.212819
24453.5, 0.215774
24569.4, 0.215379
24686.4, 0.213695
24804.5, 0.212630
24923.8, 0.211582
25044.2, 0.212166
25165.8, 0.212595
25288.6, 0.211805
25412.5, 0.210173
25537.7, 0.207664
25664.1, 0.207114
25791.8, 0.207561
25920.8, 0.206134
26051.1, 0.204365
26182.6, 0.202543
26315.5, 0.202010
26449.8, 0.199519
26585.4, 0.193659
26722.5, 0.187387
26860.9, 0.184535
27000.8, 0.183211
27142.1, 0.184878
27285.0, 0.188023
27429.4, 0.191064
27575.3, 0.192370
27722.7, 0.190996
27871.8, 0.188848
28022.4, 0.188057
28174.7, 0.189552
28328.7, 0.195326
28484.4, 0.208953
28641.7, 0.227958
28800.9, 0.245743
28961.8, 0.257359
29124.5, 0.267531
29289.0, 0.272807
29455.4, 0.274731
29623.8, 0.276158
29794.0, 0.274285
29966.3, 0.273030
30140.5, 0.270573
30316.7, 0.263184
30495.1, 0.251224
30675.5, 0.241086
30858.1, 0.231858
31042.8, 0.224572
31229.8, 0.219881
31419.1, 0.218902
31610.7, 0.222785
31804.6, 0.226274
32000.9, 0.227854
32199.7, 0.224280
32400.9, 0.218558
32604.8, 0.211994
32811.1, 0.203402
33020.1, 0.191511
33231.8, 0.189982
33446.2, 0.199244
33663.4, 0.214159
33883.4, 0.226566
34106.3, 0.231137
34332.1, 0.228112
34561.0, 0.222184
34792.9, 0.217493
35028.0, 0.211032
35266.3, 0.204502
35507.8, 0.197646
35752.7, 0.193109
36001.0, 0.192027
36252.8, 0.192508
36508.1, 0.190893
36767.0, 0.185858
37029.7, 0.179929
37296.1, 0.174792
37566.3, 0.167214
37840.5, 0.161921
38118.8, 0.160014
38401.2, 0.163141
38687.8, 0.170118
38978.6, 0.180067
39273.9, 0.186562
39573.7, 0.196408
39878.1, 0.204811
40187.3, 0.205464
40501.2, 0.208385
40820.0, 0.212372
41144.0, 0.214709
41473.2, 0.209966
41807.6, 0.201495
42147.5, 0.195910
42493.0, 0.192851
42844.2, 0.188865
43201.2, 0.188796
43564.3, 0.186494
43933.5, 0.179809
44309.0, 0.183452
44691.0, 0.187971
45079.6, 0.186270
45475.0, 0.187473
45877.5, 0.186287
46287.1, 0.179002
46704.2, 0.171183
47128.7, 0.166028
47561.1, 0.159962
48001.5, 0.154910
48450.1, 0.153862
48907.2, 0.149325
49373.0, 0.147934
49847.7, 0.160168
50331.5, 0.164550
50825.0, 0.162832
51328.2, 0.158433
51841.5, 0.157797
52365.1, 0.156439
52899.4, 0.151559
53444.8, 0.144772
54001.5, 0.141369
54570.1, 0.139050
55150.6, 0.135957
55743.6, 0.132107
56349.5, 0.128654
56968.7, 0.128739
57601.7, 0.132503
58248.9, 0.131609
58910.9, 0.130905
59588.1, 0.127760
60281.0, 0.129358
60990.2, 0.144188
61716.3, 0.159928
62459.8, 0.167884
63221.6, 0.175582
64002.1, 0.185119
64802.1, 0.190841
65622.1, 0.179002
66463.4, 0.196323
67326.6, 0.206478
68212.4, 0.192594
69121.9, 0.191992
70056.0, 0.186150
71015.7, 0.177214
72002.0, 0.171389
73016.3, 0.170822
74059.4, 0.168880
75132.7, 0.165255
76237.6, 0.161251
77375.5, 0.159223
78547.9, 0.154412
79756.3, 0.156147
81002.5, 0.159859
82288.5, 0.157711
83615.7, 0.156886
84986.5, 0.158467
86402.9, 0.161595
87867.4, 0.169654
89382.4, 0.170822
90950.5, 0.169808
92574.6, 0.171922
94257.2, 0.171320
96002.7, 0.182524
97814.1, 0.185978
99695.1, 0.174448
101650.0, 0.179689
103683.0, 0.191735
105799.0, 0.192491
108003.0, 0.192577
110301.0, 0.196271
112699.0, 0.196013
115204.0, 0.190446
117822.0, 0.194089
120562.0, 0.180840
123433.0, 0.183899
126443.0, 0.193900
129604.0, 0.192130
132926.0, 0.173451
136424.0, 0.164739
140111.0, 0.164722
144003.0, 0.181098
148118.0, 0.212269
152474.0, 0.199673
157095.0, 0.196374
162004.0, 0.181167
167231.0, 0.183452
172805.0, 0.200000
178764.0, 0.209331
185148.0, 0.233061
192005.0, 0.332760
199390.0, 0.232391
207366.0, 0.262136
216006.0, 0.247341
