Database of Origin, USGS Spectral Database
Sample Description, See USGS database for additional info
Date Added,2016-08-10 05:34:54.758815

Data ID,USGS_san02          
Sample ID, sanidine_gds19.19876
Mineral Name, sanidine
Material Class,Tectosilicate

Wavelength
1503.53, 0.772231
1503.96, 0.772554
1504.4, 0.772500
1504.83, 0.772178
1505.27, 0.772231
1505.71, 0.772124
1506.15, 0.772339
1506.58, 0.772500
1507.02, 0.772714
1507.46, 0.772875
1507.9, 0.773036
1508.34, 0.772983
1508.78, 0.773036
1509.21, 0.773197
1509.66, 0.773305
1510.09, 0.772929
1510.53, 0.772983
1510.97, 0.773251
1511.42, 0.773573
1511.86, 0.773788
1512.3, 0.773627
1512.74, 0.773358
1513.18, 0.773519
1513.62, 0.773680
1514.06, 0.773734
1514.51, 0.773734
1514.95, 0.773734
1515.39, 0.773358
1515.83, 0.773573
1516.28, 0.773680
1516.72, 0.773895
1517.16, 0.773895
1517.61, 0.773841
1518.05, 0.773949
1518.5, 0.774163
1518.94, 0.774271
1519.39, 0.774324
1519.83, 0.774271
1520.28, 0.774324
1520.73, 0.774378
1521.17, 0.774217
1521.62, 0.774217
1522.07, 0.774378
1522.51, 0.774110
1522.96, 0.774002
1523.41, 0.774271
1523.85, 0.774700
1524.3, 0.774807
1524.75, 0.774754
1525.2, 0.774861
1525.65, 0.775290
1526.1, 0.775237
1526.55, 0.774968
1527.0, 0.775505
1527.45, 0.775773
1527.9, 0.775559
1528.35, 0.775398
1528.8, 0.775505
1529.25, 0.775773
1529.7, 0.775988
1530.15, 0.775773
1530.6, 0.775827
1531.05, 0.776203
1531.51, 0.776525
1531.96, 0.776686
1532.41, 0.776578
1532.87, 0.776578
1533.32, 0.776900
1533.77, 0.777061
1534.23, 0.777169
1534.68, 0.777383
1535.14, 0.777652
1535.59, 0.777598
1536.05, 0.777920
1536.5, 0.778296
1536.96, 0.778671
1537.41, 0.778725
1537.87, 0.778671
1538.32, 0.778832
1538.78, 0.779423
1539.24, 0.779369
1539.7, 0.779637
1540.15, 0.779798
1540.61, 0.779798
1541.07, 0.780227
1541.53, 0.780388
1541.98, 0.780603
1542.44, 0.780603
1542.9, 0.780818
1543.36, 0.781462
1543.82, 0.781569
1544.28, 0.781730
1544.74, 0.782159
1545.2, 0.781945
1545.66, 0.781945
1546.12, 0.782374
1546.59, 0.782481
1547.05, 0.782481
1547.51, 0.782803
1547.97, 0.783018
1548.43, 0.783179
1548.9, 0.783340
1549.36, 0.783662
1549.82, 0.783555
1550.29, 0.783984
1550.75, 0.784091
1551.21, 0.784574
1551.68, 0.784682
1552.14, 0.784789
1552.61, 0.785272
1553.07, 0.785326
1553.54, 0.784896
1554.0, 0.784896
1554.47, 0.785218
1554.93, 0.785862
1555.4, 0.786131
1555.87, 0.786238
1556.34, 0.786399
1556.8, 0.786721
1557.27, 0.786667
1557.74, 0.786721
1558.21, 0.786828
1558.68, 0.786882
1559.14, 0.787311
1559.61, 0.787687
1560.08, 0.787794
1560.55, 0.788009
1561.02, 0.788116
1561.49, 0.788170
1561.96, 0.788385
1562.43, 0.788331
1562.9, 0.788653
1563.38, 0.789243
1563.85, 0.789350
1564.32, 0.789350
1564.79, 0.789404
1565.26, 0.789887
1565.74, 0.789994
1566.21, 0.790209
1566.68, 0.790370
1567.16, 0.790370
1567.63, 0.790370
1568.1, 0.790477
1568.58, 0.790531
1569.05, 0.790907
1569.53, 0.790799
1570.0, 0.791282
1570.48, 0.791658
1570.96, 0.791765
1571.43, 0.791765
1571.91, 0.791551
1572.39, 0.791658
1572.86, 0.791980
1573.34, 0.792195
1573.82, 0.792356
1574.3, 0.792248
1574.77, 0.792463
1575.25, 0.792892
1575.73, 0.793053
1576.21, 0.793000
1576.69, 0.793000
1577.17, 0.793053
1577.65, 0.793429
1578.13, 0.793697
1578.61, 0.793697
1579.09, 0.793429
1579.57, 0.793536
1580.05, 0.794073
1580.54, 0.793966
1581.02, 0.794073
1581.5, 0.794288
1581.98, 0.794556
1582.47, 0.794824
1582.95, 0.794878
1583.43, 0.795039
1583.92, 0.795146
1584.4, 0.795361
1584.88, 0.795415
1585.37, 0.795200
1585.85, 0.795307
1586.34, 0.795522
1586.82, 0.795897
1587.31, 0.796380
1587.8, 0.796058
1588.28, 0.796112
1588.77, 0.796434
1589.26, 0.796595
1589.74, 0.796702
1590.23, 0.796863
1590.72, 0.797078
1591.21, 0.797454
1591.7, 0.797722
1592.19, 0.797722
1592.67, 0.797561
1593.16, 0.797668
1593.65, 0.797829
1594.14, 0.798098
1594.63, 0.798366
1595.12, 0.798849
1595.61, 0.798956
1596.11, 0.799117
1596.6, 0.799117
1597.09, 0.799547
1597.58, 0.799922
1598.08, 0.799869
1598.57, 0.799708
1599.06, 0.800137
1599.55, 0.800405
1600.05, 0.800727
1600.54, 0.800888
1601.04, 0.801371
1601.53, 0.801479
1602.03, 0.801801
1602.52, 0.802069
1603.02, 0.802176
1603.51, 0.802176
1604.01, 0.802498
1604.5, 0.802874
1605.0, 0.803142
1605.5, 0.803411
1606.0, 0.803733
1606.49, 0.804054
1606.99, 0.804376
1607.49, 0.804806
1607.99, 0.804859
1608.49, 0.804698
1608.99, 0.805074
1609.49, 0.805450
1609.99, 0.805557
1610.49, 0.805825
1610.99, 0.805718
1611.49, 0.805879
1611.99, 0.806255
1612.49, 0.806577
1612.99, 0.806899
1613.49, 0.807060
1614.0, 0.807060
1614.5, 0.807113
1615.0, 0.807435
1615.51, 0.807865
1616.01, 0.808509
1616.51, 0.808455
1617.02, 0.808455
1617.52, 0.808562
1618.03, 0.808777
1618.53, 0.808777
1619.04, 0.809153
1619.54, 0.809206
1620.05, 0.809689
1620.55, 0.809958
1621.06, 0.810280
1621.57, 0.810333
1622.08, 0.810655
1622.58, 0.810816
1623.09, 0.811031
1623.6, 0.811031
1624.11, 0.810923
1624.62, 0.810977
1625.13, 0.811567
1625.64, 0.811890
1626.15, 0.812104
1626.66, 0.812158
1627.17, 0.811997
1627.68, 0.811943
1628.19, 0.812158
1628.7, 0.812587
1629.21, 0.813177
1629.72, 0.813446
1630.24, 0.813392
1630.75, 0.813177
1631.26, 0.813392
1631.78, 0.813607
1632.29, 0.813714
1632.8, 0.813768
1633.32, 0.813768
1633.83, 0.813768
1634.35, 0.814304
1634.86, 0.814412
1635.38, 0.814465
1635.9, 0.814734
1636.41, 0.814948
1636.93, 0.814895
1637.45, 0.815270
1637.96, 0.815378
1638.48, 0.815378
1639.0, 0.815270
1639.52, 0.815485
1640.04, 0.815378
1640.56, 0.815539
1641.08, 0.815753
1641.59, 0.816183
1642.11, 0.816290
1642.63, 0.816719
1643.16, 0.816666
1643.68, 0.816666
1644.2, 0.816773
1644.72, 0.816827
1645.24, 0.817149
1645.76, 0.817363
1646.29, 0.817471
1646.81, 0.817471
1647.33, 0.817471
1647.86, 0.817739
1648.38, 0.817954
1648.9, 0.818168
1649.43, 0.818115
1649.95, 0.818061
1650.48, 0.818383
1651.0, 0.818383
1651.53, 0.818168
1652.06, 0.818598
1652.58, 0.818759
1653.11, 0.819081
1653.64, 0.819134
1654.17, 0.819242
1654.69, 0.819081
1655.22, 0.819027
1655.75, 0.819188
1656.28, 0.819402
1656.81, 0.819349
1657.34, 0.819295
1657.87, 0.819725
1658.4, 0.819886
1658.93, 0.819778
1659.46, 0.820476
1659.99, 0.820691
1660.52, 0.820583
1661.05, 0.820691
1661.59, 0.821066
1662.12, 0.821120
1662.65, 0.821066
1663.19, 0.821442
1663.72, 0.821817
1664.26, 0.821978
1664.79, 0.821978
1665.32, 0.822086
1665.86, 0.822569
1666.39, 0.822730
1666.93, 0.822944
1667.47, 0.823213
1668.0, 0.823266
1668.54, 0.823159
1669.08, 0.823588
1669.61, 0.824286
1670.15, 0.824447
1670.69, 0.824179
1671.23, 0.824179
1671.77, 0.824232
1672.31, 0.824501
1672.85, 0.824823
1673.39, 0.824930
1673.93, 0.825037
1674.47, 0.825359
1675.01, 0.825896
1675.55, 0.826057
1676.09, 0.826057
1676.64, 0.826379
1677.18, 0.826647
1677.72, 0.826647
1678.26, 0.826701
1678.81, 0.827023
1679.35, 0.827237
1679.89, 0.827506
1680.44, 0.827237
1680.98, 0.827398
1681.53, 0.827828
1682.07, 0.828150
1682.62, 0.828257
1683.17, 0.828364
1683.71, 0.828472
1684.26, 0.828686
1684.81, 0.828794
1685.36, 0.828686
1685.9, 0.828901
1686.45, 0.829491
1687.0, 0.829652
1687.55, 0.829652
1688.1, 0.829974
1688.65, 0.830135
1689.2, 0.830135
1689.75, 0.830243
1690.3, 0.830189
1690.85, 0.830404
1691.41, 0.830940
1691.96, 0.831209
1692.51, 0.831370
1693.06, 0.831531
1693.61, 0.831638
1694.17, 0.831638
1694.72, 0.831745
1695.28, 0.831745
1695.83, 0.831745
1696.39, 0.832228
1696.94, 0.832497
1697.5, 0.832443
1698.05, 0.832067
1698.61, 0.832443
1699.17, 0.832819
1699.72, 0.832819
1700.28, 0.832819
1700.84, 0.832872
1701.4, 0.832819
1701.95, 0.832711
1702.51, 0.832980
1703.07, 0.833194
1703.63, 0.833463
1704.19, 0.833624
1704.75, 0.833570
1705.31, 0.833463
1705.88, 0.833570
1706.44, 0.833677
1707.0, 0.833570
1707.56, 0.833677
1708.12, 0.833731
1708.69, 0.833785
1709.25, 0.833624
1709.81, 0.833731
1710.38, 0.834053
1710.94, 0.834214
1711.51, 0.834214
1712.07, 0.834268
1712.64, 0.834268
1713.2, 0.834321
1713.77, 0.834214
1714.34, 0.834536
1714.9, 0.834858
1715.47, 0.834965
1716.04, 0.834912
1716.61, 0.834858
1717.18, 0.834858
1717.74, 0.835073
1718.31, 0.835073
1718.88, 0.835180
1719.45, 0.835395
1720.02, 0.835287
1720.59, 0.835341
1721.17, 0.835502
1721.74, 0.835234
1722.31, 0.835663
1722.88, 0.835770
1723.45, 0.835502
1724.03, 0.835556
1724.6, 0.835609
1725.18, 0.835877
1725.75, 0.836039
1726.33, 0.836146
1726.9, 0.836146
1727.48, 0.835985
1728.05, 0.836092
1728.63, 0.836092
1729.2, 0.836360
1729.78, 0.836360
1730.36, 0.836360
1730.94, 0.836414
1731.51, 0.836521
1732.09, 0.836468
1732.67, 0.836682
1733.25, 0.836897
1733.83, 0.837273
1734.41, 0.837380
1734.99, 0.837112
1735.57, 0.837058
1736.15, 0.837487
1736.73, 0.837756
1737.32, 0.837970
1737.9, 0.838185
1738.48, 0.837970
1739.07, 0.838131
1739.65, 0.838400
1740.23, 0.838561
1740.82, 0.838722
1741.4, 0.838990
1741.99, 0.838936
1742.57, 0.838990
1743.16, 0.839258
1743.74, 0.839205
1744.33, 0.839634
1744.92, 0.840117
1745.51, 0.840278
1746.09, 0.840332
1746.68, 0.840439
1747.27, 0.840546
1747.86, 0.840600
1748.45, 0.840707
1749.04, 0.840761
1749.63, 0.840761
1750.22, 0.840707
1750.81, 0.841029
1751.4, 0.841405
1751.99, 0.841405
1752.59, 0.841781
1753.18, 0.841834
1753.77, 0.841727
1754.37, 0.841781
1754.96, 0.841888
1755.56, 0.842317
1756.15, 0.842639
1756.74, 0.842800
1757.34, 0.842854
1757.94, 0.842800
1758.53, 0.842854
1759.13, 0.843015
1759.73, 0.843122
1760.32, 0.843283
1760.92, 0.843552
1761.52, 0.843605
1762.12, 0.843552
1762.72, 0.843713
1763.32, 0.843981
1763.92, 0.843981
1764.52, 0.844357
1765.12, 0.844518
1765.72, 0.844518
1766.32, 0.844571
1766.92, 0.844839
1767.53, 0.844893
1768.13, 0.845000
1768.73, 0.845269
1769.34, 0.845322
1769.94, 0.845108
1770.55, 0.845161
1771.15, 0.845215
1771.76, 0.845430
1772.36, 0.845537
1772.97, 0.845537
1773.57, 0.845430
1774.18, 0.845430
1774.79, 0.845644
1775.4, 0.845859
1776.0, 0.845966
1776.61, 0.845966
1777.22, 0.845913
1777.83, 0.845859
1778.44, 0.845805
1779.05, 0.845859
1779.66, 0.845805
1780.27, 0.845913
1780.88, 0.846020
1781.5, 0.846020
1782.11, 0.846020
1782.72, 0.846020
1783.33, 0.846074
1783.95, 0.846020
1784.56, 0.846127
1785.18, 0.846342
1785.79, 0.846342
1786.41, 0.846181
1787.02, 0.845966
1787.64, 0.846020
1788.26, 0.846181
1788.87, 0.845859
1789.49, 0.845859
1790.11, 0.845913
1790.73, 0.846074
1791.35, 0.846074
1791.96, 0.846074
1792.58, 0.846181
1793.21, 0.846181
1793.83, 0.846127
1794.45, 0.846074
1795.07, 0.846235
1795.69, 0.845966
1796.31, 0.846127
1796.93, 0.845966
1797.56, 0.845913
1798.18, 0.846074
1798.8, 0.846235
1799.43, 0.846127
1800.05, 0.846020
1800.68, 0.846020
1801.3, 0.845859
1801.93, 0.845913
1802.56, 0.846020
1803.18, 0.846181
1803.81, 0.846181
1804.44, 0.846020
1805.07, 0.846020
1805.7, 0.845913
1806.33, 0.845966
1806.95, 0.845966
1807.58, 0.845966
1808.22, 0.846127
1808.85, 0.846342
1809.48, 0.846235
1810.11, 0.846181
1810.74, 0.846235
1811.38, 0.846127
1812.01, 0.846127
1812.64, 0.846503
1813.28, 0.846718
1813.91, 0.846396
1814.55, 0.846127
1815.18, 0.846181
1815.82, 0.846610
1816.45, 0.846718
1817.09, 0.847040
1817.73, 0.846879
1818.36, 0.847147
1819.0, 0.847469
1819.64, 0.847147
1820.28, 0.846825
1820.92, 0.847415
1821.56, 0.847469
1822.2, 0.847684
1822.84, 0.847952
1823.48, 0.848167
1824.12, 0.848381
1824.76, 0.848435
1825.41, 0.847952
1826.05, 0.847630
1826.69, 0.848274
1827.34, 0.848650
1827.98, 0.848542
1828.63, 0.848650
1829.27, 0.848864
1829.92, 0.849079
1830.56, 0.848811
1831.21, 0.848918
1831.86, 0.849294
1832.5, 0.849455
1833.15, 0.849723
1833.8, 0.849830
1834.45, 0.849669
1835.1, 0.849669
1835.75, 0.849347
1836.4, 0.849777
1837.05, 0.849991
1837.7, 0.849938
1838.35, 0.850635
1839.01, 0.850313
1839.66, 0.849669
1840.31, 0.850260
1840.96, 0.850206
1841.62, 0.849669
1842.27, 0.850689
1842.93, 0.851494
1843.58, 0.851709
1844.24, 0.851601
1844.9, 0.851601
1845.55, 0.851440
1846.21, 0.850689
1846.87, 0.850206
1847.53, 0.850743
1848.18, 0.851226
1848.84, 0.851977
1849.5, 0.852031
1850.16, 0.851977
1850.82, 0.851870
1851.48, 0.852299
1852.14, 0.852084
1852.81, 0.851655
1853.47, 0.851226
1854.13, 0.851762
1854.8, 0.852513
1855.46, 0.852567
1856.12, 0.851762
1856.79, 0.852084
1857.45, 0.852889
1858.12, 0.852728
1858.79, 0.851977
1859.45, 0.851172
1860.12, 0.851655
1860.79, 0.852406
1861.46, 0.852513
1862.12, 0.852406
1862.79, 0.852299
1863.46, 0.852245
1864.13, 0.852192
1864.8, 0.852353
1865.48, 0.852513
1866.15, 0.852460
1866.82, 0.851709
1867.49, 0.850796
1868.16, 0.851279
1868.84, 0.851548
1869.51, 0.851548
1870.19, 0.850689
1870.86, 0.850099
1871.54, 0.850850
1872.21, 0.850206
1872.89, 0.849562
1873.56, 0.850474
1874.24, 0.851279
1874.92, 0.850796
1875.6, 0.850689
1876.28, 0.850099
1876.96, 0.850045
1877.64, 0.850796
1878.32, 0.851065
1879.0, 0.851011
1879.68, 0.850957
1880.36, 0.850635
1881.04, 0.850474
1881.73, 0.850582
1882.41, 0.850528
1883.09, 0.850099
1883.78, 0.849777
1884.46, 0.850152
1885.15, 0.850421
1885.83, 0.850206
1886.52, 0.850099
1887.21, 0.850152
1887.89, 0.850260
1888.58, 0.850099
1889.27, 0.849508
1889.96, 0.849186
1890.65, 0.849669
1891.34, 0.849562
1892.03, 0.849401
1892.72, 0.849562
1893.41, 0.849455
1894.1, 0.849562
1894.79, 0.849669
1895.49, 0.849991
1896.18, 0.849777
1896.87, 0.849347
1897.57, 0.848972
1898.26, 0.848811
1898.96, 0.848435
1899.65, 0.848328
1900.35, 0.848918
1901.05, 0.849025
1901.74, 0.848757
1902.44, 0.848113
1903.14, 0.848489
1903.84, 0.848864
1904.54, 0.848113
1905.24, 0.847147
1905.94, 0.847308
1906.64, 0.847684
1907.34, 0.848596
1908.04, 0.849562
1908.75, 0.849401
1909.45, 0.849079
1910.15, 0.849025
1910.86, 0.849025
1911.56, 0.849079
1912.27, 0.849186
1912.97, 0.848596
1913.68, 0.848864
1914.39, 0.849562
1915.09, 0.849455
1915.8, 0.849240
1916.51, 0.849508
1917.22, 0.849830
1917.93, 0.849938
1918.64, 0.850152
1919.35, 0.849669
1920.06, 0.849025
1920.77, 0.849562
1921.48, 0.850474
1922.19, 0.850957
1922.91, 0.850904
1923.62, 0.850635
1924.33, 0.850796
1925.05, 0.851333
1925.76, 0.851440
1926.48, 0.851333
1927.19, 0.851172
1927.91, 0.851440
1928.63, 0.851548
1929.35, 0.851762
1930.07, 0.852031
1930.78, 0.852031
1931.5, 0.852084
1932.22, 0.852299
1932.94, 0.852353
1933.66, 0.852245
1934.39, 0.852245
1935.11, 0.852513
1935.83, 0.852674
1936.55, 0.852835
1937.28, 0.852943
1938.0, 0.852997
1938.73, 0.852997
1939.45, 0.852889
1940.18, 0.852997
1940.9, 0.852997
1941.63, 0.853104
1942.36, 0.853372
1943.09, 0.853533
1943.81, 0.853479
1944.54, 0.853319
1945.27, 0.853533
1946.0, 0.853587
1946.73, 0.853533
1947.47, 0.853319
1948.2, 0.853319
1948.93, 0.853372
1949.66, 0.853319
1950.4, 0.853372
1951.13, 0.853479
1951.86, 0.853265
1952.6, 0.853104
1953.34, 0.853265
1954.07, 0.853211
1954.81, 0.853265
1955.55, 0.853157
1956.29, 0.852943
1957.02, 0.852782
1957.76, 0.852889
1958.5, 0.852943
1959.24, 0.852835
1959.98, 0.852674
1960.72, 0.852782
1961.47, 0.852460
1962.21, 0.852138
1962.95, 0.852245
1963.7, 0.852192
1964.44, 0.852138
1965.18, 0.851977
1965.93, 0.851816
1966.67, 0.851762
1967.42, 0.851762
1968.17, 0.851494
1968.92, 0.851333
1969.66, 0.851172
1970.41, 0.851226
1971.16, 0.851279
1971.91, 0.851226
1972.66, 0.851118
1973.41, 0.851011
1974.16, 0.850796
1974.92, 0.850635
1975.67, 0.850850
1976.42, 0.850582
1977.18, 0.850474
1977.93, 0.850528
1978.69, 0.850635
1979.44, 0.850689
1980.2, 0.850528
1980.95, 0.850260
1981.71, 0.850045
1982.47, 0.849991
1983.23, 0.850099
1983.99, 0.850045
1984.74, 0.850045
1985.51, 0.849884
1986.27, 0.849884
1987.03, 0.849830
1987.79, 0.850099
1988.55, 0.850045
1989.32, 0.849777
1990.08, 0.849616
1990.84, 0.849669
1991.61, 0.849562
1992.37, 0.849508
1993.14, 0.849669
1993.9, 0.849884
1994.67, 0.849991
1995.44, 0.849723
1996.21, 0.849777
1996.98, 0.849777
1997.75, 0.849562
1998.52, 0.849723
1999.29, 0.849938
2000.06, 0.849830
2000.83, 0.849669
2001.6, 0.849777
2002.38, 0.849884
2003.15, 0.849830
2003.93, 0.850045
2004.7, 0.850206
2005.48, 0.850152
2006.25, 0.850528
2007.03, 0.850689
2007.81, 0.850582
2008.58, 0.850743
2009.36, 0.850850
2010.14, 0.850957
2010.92, 0.851226
2011.7, 0.851333
2012.48, 0.851333
2013.26, 0.851279
2014.05, 0.851333
2014.83, 0.851548
2015.61, 0.851655
2016.4, 0.851923
2017.18, 0.852138
2017.97, 0.851870
2018.75, 0.851655
2019.54, 0.851816
2020.32, 0.852084
2021.11, 0.852299
2021.9, 0.852353
2022.69, 0.852406
2023.48, 0.852353
2024.27, 0.852353
2025.06, 0.852621
2025.85, 0.852835
2026.64, 0.852889
2027.44, 0.852835
2028.23, 0.853104
2029.02, 0.853319
2029.82, 0.853157
2030.61, 0.853104
2031.41, 0.853265
2032.2, 0.853426
2033.0, 0.853640
2033.8, 0.853426
2034.6, 0.853157
2035.4, 0.853265
2036.2, 0.853372
2037.0, 0.853319
2037.8, 0.853587
2038.6, 0.853587
2039.4, 0.853533
2040.2, 0.853533
2041.01, 0.853533
2041.81, 0.853479
2042.61, 0.853533
2043.42, 0.853479
2044.22, 0.853372
2045.03, 0.853211
2045.84, 0.853265
2046.65, 0.853372
2047.46, 0.853426
2048.26, 0.853265
2049.07, 0.853157
2049.88, 0.852997
2050.69, 0.853104
2051.51, 0.852835
2052.32, 0.852835
2053.13, 0.852997
2053.94, 0.852782
2054.76, 0.852621
2055.57, 0.852567
2056.39, 0.852513
2057.2, 0.852353
2058.02, 0.852353
2058.84, 0.852353
2059.66, 0.852084
2060.48, 0.851923
2061.29, 0.851601
2062.11, 0.851333
2062.94, 0.851386
2063.76, 0.851440
2064.58, 0.851386
2065.4, 0.851333
2066.22, 0.851065
2067.05, 0.850796
2067.87, 0.850367
2068.7, 0.850152
2069.52, 0.849991
2070.35, 0.849830
2071.18, 0.849830
2072.0, 0.849723
2072.83, 0.849562
2073.66, 0.849401
2074.49, 0.849240
2075.32, 0.849294
2076.15, 0.848972
2076.98, 0.848650
2077.82, 0.848650
2078.65, 0.848489
2079.48, 0.848435
2080.32, 0.848381
2081.15, 0.847952
2081.99, 0.847791
2082.83, 0.847630
2083.66, 0.847523
2084.5, 0.847415
2085.34, 0.847362
2086.18, 0.847147
2087.02, 0.847040
2087.86, 0.846879
2088.7, 0.846718
2089.54, 0.846825
2090.39, 0.847040
2091.23, 0.846879
2092.07, 0.846825
2092.92, 0.846557
2093.76, 0.846396
2094.61, 0.846342
2095.45, 0.846127
2096.3, 0.846235
2097.15, 0.846235
2098.0, 0.846181
2098.85, 0.846449
2099.7, 0.846181
2100.55, 0.846020
2101.4, 0.846020
2102.25, 0.846288
2103.1, 0.846288
2103.96, 0.846181
2104.81, 0.846020
2105.67, 0.845805
2106.52, 0.845752
2107.38, 0.845752
2108.24, 0.845913
2109.09, 0.845966
2109.95, 0.845859
2110.81, 0.846020
2111.67, 0.846342
2112.53, 0.846557
2113.39, 0.846610
2114.25, 0.846610
2115.12, 0.846449
2115.98, 0.846503
2116.84, 0.846771
2117.71, 0.846825
2118.58, 0.846771
2119.44, 0.847201
2120.31, 0.847308
2121.18, 0.847201
2122.04, 0.847147
2122.91, 0.847362
2123.78, 0.847469
2124.65, 0.847630
2125.52, 0.847684
2126.4, 0.847469
2127.27, 0.847415
2128.14, 0.847737
2129.02, 0.847845
2129.89, 0.848113
2130.77, 0.848059
2131.64, 0.848006
2132.52, 0.847898
2133.4, 0.848059
2134.27, 0.848220
2135.15, 0.848328
2136.03, 0.848381
2136.91, 0.848489
2137.79, 0.848650
2138.68, 0.848596
2139.56, 0.848435
2140.44, 0.848596
2141.33, 0.848596
2142.21, 0.848757
2143.1, 0.848757
2143.99, 0.848972
2144.87, 0.848918
2145.76, 0.848757
2146.65, 0.848811
2147.54, 0.848864
2148.43, 0.848976
2149.32, 0.848641
2150.21, 0.848361
2151.1, 0.848808
2151.99, 0.848585
2152.89, 0.848249
2153.78, 0.848249
2154.68, 0.848473
2155.57, 0.848920
2156.47, 0.848585
2157.37, 0.848361
2158.27, 0.848361
2159.16, 0.848082
2160.06, 0.848529
2160.96, 0.848194
2161.86, 0.847746
2162.77, 0.847746
2163.67, 0.847523
2164.57, 0.847355
2165.48, 0.847187
2166.38, 0.847355
2167.29, 0.847299
2168.2, 0.847914
2169.1, 0.847746
2170.01, 0.848138
2170.92, 0.847467
2171.83, 0.847299
2172.74, 0.847690
2173.65, 0.847523
2174.56, 0.847355
2175.47, 0.846908
2176.39, 0.846405
2177.3, 0.846796
2178.22, 0.846684
2179.13, 0.846349
2180.05, 0.846013
2180.96, 0.846740
2181.88, 0.847076
2182.8, 0.847020
2183.72, 0.846293
2184.64, 0.846461
2185.56, 0.846069
2186.48, 0.846237
2187.41, 0.846740
2188.33, 0.846852
2189.25, 0.846237
2190.18, 0.845790
2191.1, 0.845343
2192.03, 0.845343
2192.96, 0.845343
2193.89, 0.845287
2194.82, 0.845398
2195.74, 0.845510
2196.68, 0.845510
2197.61, 0.845957
2198.54, 0.846181
2199.47, 0.846013
2200.4, 0.846013
2201.34, 0.845231
2202.28, 0.845007
2203.21, 0.845231
2204.15, 0.845398
2205.08, 0.845063
2206.02, 0.844560
2206.96, 0.845063
2207.9, 0.845007
2208.84, 0.844672
2209.78, 0.844113
2210.73, 0.844225
2211.67, 0.844895
2212.61, 0.845287
2213.56, 0.845231
2214.5, 0.844728
2215.45, 0.844783
2216.4, 0.844783
2217.35, 0.844672
2218.3, 0.844057
2219.24, 0.844225
2220.2, 0.844616
2221.15, 0.844616
2222.1, 0.844280
2223.05, 0.844336
2224.0, 0.844560
2224.96, 0.844560
2225.91, 0.844504
2226.87, 0.843945
2227.83, 0.844001
2228.79, 0.844280
2229.74, 0.844280
2230.7, 0.844616
2231.66, 0.844783
2232.63, 0.844448
2233.59, 0.844336
2234.55, 0.844392
2235.51, 0.844225
2236.48, 0.844113
2237.44, 0.844448
2238.41, 0.844504
2239.38, 0.844560
2240.34, 0.844616
2241.31, 0.844672
2242.28, 0.844504
2243.25, 0.844448
2244.22, 0.844336
2245.19, 0.844225
2246.17, 0.844113
2247.14, 0.844225
2248.12, 0.844560
2249.09, 0.844280
2250.07, 0.844113
2251.04, 0.843777
2252.02, 0.844057
2253.0, 0.844336
2253.98, 0.844225
2254.96, 0.843945
2255.94, 0.843777
2256.92, 0.843777
2257.91, 0.844225
2258.89, 0.844616
2259.88, 0.844280
2260.86, 0.843889
2261.85, 0.843665
2262.83, 0.843162
2263.82, 0.842939
2264.81, 0.843610
2265.8, 0.843833
2266.79, 0.843610
2267.78, 0.843665
2268.78, 0.843665
2269.77, 0.843554
2270.76, 0.843330
2271.76, 0.843554
2272.75, 0.843330
2273.75, 0.843442
2274.75, 0.843107
2275.75, 0.842827
2276.75, 0.842883
2277.75, 0.843107
2278.75, 0.843274
2279.75, 0.843274
2280.75, 0.843274
2281.76, 0.843386
2282.76, 0.843218
2283.77, 0.843051
2284.77, 0.842771
2285.78, 0.842715
2286.79, 0.843051
2287.8, 0.842715
2288.81, 0.842603
2289.82, 0.842156
2290.83, 0.841933
2291.84, 0.842100
2292.86, 0.842212
2293.87, 0.842268
2294.89, 0.842324
2295.91, 0.842044
2296.92, 0.842100
2297.94, 0.842436
2298.96, 0.842827
2299.98, 0.842268
2301.0, 0.841877
2302.02, 0.841597
2303.04, 0.841318
2304.07, 0.841318
2305.09, 0.841262
2306.12, 0.841541
2307.15, 0.841541
2308.17, 0.841429
2309.2, 0.841821
2310.23, 0.841318
2311.26, 0.840982
2312.29, 0.841150
2313.32, 0.841150
2314.35, 0.841485
2315.39, 0.841597
2316.42, 0.841038
2317.46, 0.840647
2318.5, 0.840591
2319.53, 0.840647
2320.57, 0.841150
2321.61, 0.841429
2322.65, 0.841374
2323.69, 0.841374
2324.73, 0.841206
2325.78, 0.841262
2326.82, 0.841262
2327.86, 0.841150
2328.91, 0.841094
2329.96, 0.841318
2331.01, 0.841206
2332.05, 0.841206
2333.1, 0.841429
2334.15, 0.841038
2335.21, 0.840703
2336.26, 0.840647
2337.31, 0.840759
2338.36, 0.840311
2339.42, 0.839920
2340.48, 0.839976
2341.53, 0.840088
2342.59, 0.839920
2343.65, 0.840088
2344.71, 0.840144
2345.77, 0.839920
2346.83, 0.839920
2347.9, 0.840255
2348.96, 0.840255
2350.02, 0.840144
2351.09, 0.840311
2352.16, 0.840255
2353.23, 0.840423
2354.29, 0.840423
2355.36, 0.840032
2356.43, 0.840088
2357.51, 0.839920
2358.58, 0.840088
2359.65, 0.840367
2360.73, 0.840200
2361.8, 0.840423
2362.88, 0.840423
2363.96, 0.840423
2365.03, 0.840982
2366.11, 0.840870
2367.19, 0.840479
2368.27, 0.840311
2369.36, 0.840200
2370.44, 0.840200
2371.53, 0.840423
2372.61, 0.840423
2373.7, 0.839920
2374.78, 0.839641
2375.87, 0.839641
2376.96, 0.839529
2378.05, 0.839808
2379.14, 0.840200
2380.24, 0.840311
2381.33, 0.840088
2382.42, 0.840255
2383.52, 0.840088
2384.61, 0.839752
2385.71, 0.840200
2386.81, 0.840479
2387.91, 0.840200
2389.01, 0.839752
2390.11, 0.840144
2391.22, 0.840423
2392.32, 0.840032
2393.42, 0.839808
2394.53, 0.839585
2395.64, 0.839641
2396.74, 0.839529
2397.85, 0.839249
2398.96, 0.839641
2400.07, 0.839808
2401.18, 0.839361
2402.3, 0.839249
2403.41, 0.839249
2404.52, 0.839137
2405.64, 0.839193
2406.76, 0.839193
2407.88, 0.839026
2408.99, 0.838690
2410.11, 0.838243
2411.23, 0.838411
2412.36, 0.838411
2413.48, 0.838355
2414.6, 0.838467
2415.73, 0.837964
2416.85, 0.837628
2417.98, 0.837908
2419.11, 0.838019
2420.24, 0.837740
2421.37, 0.837628
2422.5, 0.837572
2423.64, 0.837460
2424.77, 0.837069
2425.9, 0.836901
2427.04, 0.836622
2428.18, 0.836398
2429.31, 0.836286
2430.45, 0.836175
2431.59, 0.835895
2432.73, 0.835672
2433.88, 0.835783
2435.02, 0.835951
2436.16, 0.835951
2437.31, 0.835672
2438.45, 0.835168
2439.6, 0.834833
2440.75, 0.834889
2441.9, 0.834498
2443.05, 0.834442
2444.2, 0.834665
2445.35, 0.834889
2446.51, 0.834665
2447.67, 0.834609
2448.82, 0.834386
2449.98, 0.833827
2451.14, 0.833603
2452.3, 0.833659
2453.46, 0.833547
2454.62, 0.833324
2455.78, 0.833212
2456.94, 0.833268
2458.11, 0.833044
2459.28, 0.832597
2460.44, 0.832541
2461.61, 0.832765
2462.78, 0.832765
2463.95, 0.832597
2465.12, 0.832373
2466.3, 0.832597
2467.47, 0.832597
2468.65, 0.831982
2469.82, 0.831423
2471.0, 0.831535
2472.18, 0.831703
2473.36, 0.831367
2474.54, 0.830920
2475.72, 0.830976
2476.9, 0.830752
2478.08, 0.830920
2479.27, 0.831088
2480.46, 0.831032
2481.64, 0.830920
2482.83, 0.830529
2484.02, 0.830808
2485.21, 0.830529
2486.4, 0.830193
2487.6, 0.830081
2488.79, 0.830137
2489.99, 0.830137
2491.18, 0.830025
2492.38, 0.830025
2493.58, 0.830417
2494.78, 0.830305
2495.98, 0.830193
2497.18, 0.829858
2498.39, 0.829802
2499.59, 0.829914
2500.8, 0.829634
2502.01, 0.829858
2503.21, 0.829578
2504.42, 0.829411
2505.63, 0.829858
2506.84, 0.829970
2508.06, 0.830025
2509.27, 0.829914
2510.49, 0.829522
2511.7, 0.829634
2512.92, 0.829522
2514.14, 0.829690
2515.36, 0.829914
2516.58, 0.829578
2517.8, 0.829802
2519.03, 0.829746
2520.25, 0.829355
2521.48, 0.829522
2522.7, 0.829914
2523.93, 0.829970
2525.16, 0.829634
2526.39, 0.829467
2527.62, 0.829299
2528.86, 0.829355
2530.09, 0.829802
2531.33, 0.830808
2532.56, 0.831255
2533.8, 0.830249
2535.04, 0.830081
2536.28, 0.830640
2537.52, 0.829970
2538.76, 0.829467
2540.01, 0.829522
2541.25, 0.830473
2542.5, 0.831982
2543.75, 0.831591
2544.99, 0.830417
2546.24, 0.830305
2547.49, 0.831311
2548.75, 0.830976
2550.0, 0.830920
2551.26, 0.832206
2552.51, 0.832541
2553.77, 0.831088
2555.03, 0.829467
2556.29, 0.828907
2557.55, 0.828516
2558.81, 0.829467
2560.08, 0.833324
2561.34, 0.837293
2562.61, 0.837349
2563.88, 0.836231
2565.14, 0.832876
2566.41, 0.829467
2567.68, 0.829858
2568.96, 0.833659
2570.23, 0.833491
2571.51, 0.830529
2572.78, 0.834777
2574.06, 0.834386
2575.34, 0.831479
2576.62, 0.833547
2577.9, 0.831199
2579.18, 0.828852
2580.47, 0.831479
2581.75, 0.831647
2583.04, 0.835392
2584.32, 0.836622
2585.61, 0.831926
2586.9, 0.833435
2588.2, 0.832262
2589.49, 0.830137
2590.78, 0.827901
2592.08, 0.828460
2593.37, 0.839137
2594.67, 0.852274
2595.97, 0.842939
2597.27, 0.830640
2598.57, 0.826057
2599.88, 0.826168
2601.18, 0.828293
2602.49, 0.829802
2603.79, 0.832485
2605.1, 0.837293
2606.41, 0.835057
2607.72, 0.830640
2609.03, 0.829467
2610.35, 0.827566
2611.66, 0.825833
2612.98, 0.826448
2614.3, 0.825777
2615.62, 0.830696
2616.94, 0.835224
2618.26, 0.829802
2619.58, 0.831703
2620.91, 0.832262
2622.23, 0.824491
2623.56, 0.822423
2624.89, 0.824379
2626.22, 0.830361
2627.55, 0.827789
2628.88, 0.827845
2630.21, 0.834554
2631.55, 0.829690
2632.89, 0.825330
2634.22, 0.825162
2635.56, 0.822087
2636.9, 0.821249
2638.25, 0.820746
2639.59, 0.820858
2640.93, 0.821640
2642.28, 0.821920
2643.63, 0.821305
2644.98, 0.823317
2646.33, 0.822926
2647.68, 0.820522
2649.03, 0.819684
2650.39, 0.820299
2651.74, 0.823317
2653.1, 0.823541
2654.46, 0.821976
2655.82, 0.821976
2657.18, 0.819125
2658.54, 0.821137
2659.9, 0.822758
2661.27, 0.821584
2662.64, 0.820466
2664.01, 0.827007
2665.38, 0.834330
2666.74, 0.833659
2668.12, 0.826224
2669.49, 0.831647
2670.87, 0.833603
2672.24, 0.819181
2673.62, 0.814820
2675.0, 0.817895
2676.38, 0.822311
2677.76, 0.820355
2679.15, 0.818118
2680.54, 0.811410
2681.92, 0.808168
2683.31, 0.809174
2684.7, 0.807944
2686.09, 0.806826
2687.48, 0.805149
2688.88, 0.803305
2690.27, 0.801516
2691.67, 0.802019
2693.07, 0.807609
2694.47, 0.808727
2695.87, 0.803416
2697.27, 0.797882
2698.67, 0.794919
2700.08, 0.795199
2701.49, 0.794752
2702.9, 0.790839
2704.31, 0.787988
2705.72, 0.786758
2707.13, 0.786870
2708.54, 0.790056
2709.96, 0.794808
2711.38, 0.794304
2712.8, 0.785919
2714.22, 0.782230
2715.64, 0.781056
2717.06, 0.780776
2718.49, 0.782565
2719.91, 0.789553
2721.34, 0.785696
2722.77, 0.779099
2724.2, 0.781671
2725.63, 0.775857
2727.07, 0.767807
2728.5, 0.763950
2729.94, 0.761490
2731.38, 0.758863
2732.82, 0.757354
2734.26, 0.758528
2735.7, 0.754894
2737.15, 0.750086
2738.59, 0.753776
2740.04, 0.755341
2741.49, 0.748521
2742.94, 0.739409
2744.39, 0.734043
2745.84, 0.731192
2747.3, 0.728341
2748.76, 0.726161
2750.21, 0.724484
2751.67, 0.722918
2753.14, 0.721856
2754.6, 0.727055
2756.06, 0.725210
2757.53, 0.714365
2759.0, 0.707601
2760.46, 0.704303
2761.94, 0.704415
2763.41, 0.703185
2764.88, 0.699999
2766.36, 0.700446
2767.83, 0.701340
2769.31, 0.701005
2770.79, 0.701173
2772.27, 0.697595
2773.76, 0.693849
2775.24, 0.692228
2776.73, 0.691613
2778.22, 0.690495
2779.71, 0.689657
2781.2, 0.689489
2782.69, 0.687868
2784.18, 0.685967
2785.68, 0.687141
2787.18, 0.688427
2788.68, 0.685352
2790.18, 0.681775
2791.68, 0.680209
2793.19, 0.679147
2794.69, 0.677917
2796.2, 0.676911
2797.71, 0.675793
2799.22, 0.674508
2800.73, 0.674955
2802.24, 0.677023
2803.76, 0.676408
2805.28, 0.672886
2806.8, 0.670427
2808.32, 0.669197
2809.84, 0.667967
2811.36, 0.666849
2812.89, 0.666066
2814.42, 0.665731
2815.94, 0.664725
2817.48, 0.663942
2819.01, 0.664333
2820.54, 0.663607
2822.08, 0.661762
2823.61, 0.660029
2825.15, 0.659246
2826.69, 0.658743
2828.23, 0.657793
2829.78, 0.656731
2831.32, 0.656172
2832.87, 0.655836
2834.42, 0.655333
2835.97, 0.654662
2837.52, 0.653768
2839.08, 0.652482
2840.63, 0.651364
2842.19, 0.650358
2843.75, 0.649464
2845.31, 0.648457
2846.87, 0.647843
2848.44, 0.647507
2850.0, 0.646669
2851.57, 0.645662
2853.14, 0.645327
2854.71, 0.644544
2856.28, 0.643147
2857.86, 0.641973
2859.43, 0.641358
2861.01, 0.640408
2862.59, 0.639569
2864.17, 0.639010
2865.76, 0.638451
2867.34, 0.637892
2868.93, 0.637054
2870.52, 0.636439
2872.11, 0.635824
2873.7, 0.634985
2875.29, 0.634203
2876.89, 0.633867
2878.49, 0.633308
2880.08, 0.632637
2881.69, 0.632022
2883.29, 0.631575
2884.89, 0.631016
2886.5, 0.630345
2888.11, 0.630010
2889.72, 0.629507
2891.33, 0.629060
2892.94, 0.628724
2894.56, 0.628165
2896.17, 0.627662
2897.79, 0.627327
2899.42, 0.627103
2901.04, 0.627103
2902.66, 0.626768
2904.29, 0.626209
2905.92, 0.625538
2907.55, 0.625091
2909.18, 0.625035
2910.81, 0.624979
2912.45, 0.624532
2914.08, 0.624308
2915.72, 0.624029
2917.36, 0.623861
2919.01, 0.623581
2920.65, 0.623525
2922.3, 0.623693
2923.94, 0.623358
2925.59, 0.622855
2927.25, 0.622463
2928.9, 0.622240
2930.56, 0.622184
2932.21, 0.622128
2933.87, 0.621848
2935.53, 0.621681
2937.2, 0.621569
2938.86, 0.621513
2940.53, 0.621345
2942.2, 0.621513
2943.87, 0.621233
2945.54, 0.621010
2947.22, 0.620954
2948.89, 0.620842
2950.57, 0.620842
2952.25, 0.620898
2953.93, 0.620954
2955.62, 0.620786
2957.3, 0.620730
2958.99, 0.620618
2960.68, 0.620674
2962.37, 0.620618
2964.07, 0.620451
2965.76, 0.620283
2967.46, 0.620283
2969.16, 0.620507
2970.86, 0.620618
2972.56, 0.620563
2974.27, 0.620563
2975.98, 0.620563
2977.69, 0.620786
2979.4, 0.620954
2981.11, 0.620786
2982.83, 0.620954
2984.54, 0.621122
2986.26, 0.621233
2987.98, 0.621233
2989.71, 0.621233
2991.43, 0.621345
2993.16, 0.621457
2994.89, 0.621737
2996.62, 0.622128
2998.35, 0.621904
3000.09, 0.622016
3001.83, 0.622240
3003.57, 0.622407
3005.31, 0.622463
3007.05, 0.622519
3008.79, 0.622743
3010.54, 0.623022
3012.29, 0.623190
3014.04, 0.623302
3015.8, 0.623469
3017.55, 0.623693
3019.31, 0.623805
3021.07, 0.623917
3022.83, 0.624084
3024.59, 0.624252
3026.36, 0.624532
3028.13, 0.624811
3029.9, 0.624587
3031.67, 0.624643
3033.44, 0.624979
3035.22, 0.625202
3037.0, 0.625482
3038.78, 0.625761
3040.56, 0.625873
3042.34, 0.626153
3044.13, 0.626432
3045.92, 0.626544
3047.71, 0.626600
3049.5, 0.626768
3051.3, 0.626991
3053.09, 0.627327
3054.89, 0.627662
3056.69, 0.627774
3058.5, 0.628165
3060.3, 0.628668
3062.11, 0.628668
3063.92, 0.628780
3065.73, 0.628948
3067.55, 0.629060
3069.36, 0.629283
3071.18, 0.629730
3073.0, 0.630066
3074.82, 0.630345
3076.65, 0.630513
3078.48, 0.630737
3080.31, 0.631240
3082.14, 0.631687
3083.97, 0.631799
3085.8, 0.631855
3087.64, 0.632190
3089.48, 0.632749
3091.33, 0.633029
3093.17, 0.633476
3095.02, 0.633699
3096.87, 0.634147
3098.72, 0.634426
3100.57, 0.634706
3102.43, 0.634985
3104.28, 0.635376
3106.14, 0.635768
3108.01, 0.636215
3109.87, 0.636718
3111.74, 0.636998
3113.61, 0.637333
3115.48, 0.637613
3117.35, 0.637780
3119.23, 0.638283
3121.1, 0.638731
3122.98, 0.639234
3124.87, 0.639681
3126.75, 0.640072
3128.64, 0.640408
3130.53, 0.640687
3132.42, 0.641134
3134.31, 0.641470
3136.21, 0.641693
3138.11, 0.642141
3140.01, 0.642644
3141.91, 0.642923
3143.82, 0.643315
3145.73, 0.643874
3147.64, 0.644153
3149.55, 0.644488
3151.46, 0.645047
3153.38, 0.645383
3155.3, 0.645774
3157.22, 0.646277
3159.14, 0.646613
3161.07, 0.646836
3163.0, 0.647228
3164.93, 0.647731
3166.86, 0.648122
3168.8, 0.648178
3170.74, 0.648513
3172.68, 0.648961
3174.62, 0.649520
3176.56, 0.650023
3178.51, 0.650135
3180.46, 0.650526
3182.42, 0.650917
3184.37, 0.651197
3186.33, 0.651532
3188.29, 0.651979
3190.25, 0.652371
3192.21, 0.652650
3194.18, 0.652985
3196.15, 0.653265
3198.12, 0.653544
3200.09, 0.653824
3202.07, 0.654159
3204.05, 0.654383
3206.03, 0.654718
3208.02, 0.655054
3210.0, 0.655333
3211.99, 0.655669
3213.98, 0.655836
3215.98, 0.656116
3217.97, 0.656507
3219.97, 0.656843
3221.97, 0.657234
3223.98, 0.657402
3225.98, 0.657625
3227.99, 0.658017
3230.0, 0.658520
3232.02, 0.658632
3234.03, 0.658687
3236.05, 0.658911
3238.07, 0.659191
3240.1, 0.659358
3242.12, 0.659861
3244.15, 0.660197
3246.18, 0.660476
3248.22, 0.660700
3250.25, 0.660923
3252.29, 0.661315
3254.33, 0.661594
3256.38, 0.661930
3258.43, 0.662265
3260.47, 0.662601
3262.53, 0.662936
3264.58, 0.663048
3266.64, 0.663495
3268.7, 0.663830
3270.76, 0.664166
3272.82, 0.664445
3274.89, 0.664613
3276.96, 0.664892
3279.04, 0.665284
3281.11, 0.665563
3283.19, 0.665843
3285.27, 0.666178
3287.35, 0.666402
3289.44, 0.666737
3291.53, 0.667129
3293.62, 0.667408
3295.71, 0.667799
3297.81, 0.668191
3299.91, 0.668302
3302.01, 0.668470
3304.11, 0.668694
3306.22, 0.669085
3308.33, 0.669421
3310.44, 0.669588
3312.56, 0.669644
3314.68, 0.669868
3316.8, 0.670315
3318.92, 0.670650
3321.05, 0.670706
3323.18, 0.670930
3325.31, 0.671265
3327.44, 0.671545
3329.58, 0.671601
3331.72, 0.671712
3333.86, 0.671880
3336.01, 0.672216
3338.16, 0.672551
3340.31, 0.672551
3342.46, 0.672551
3344.61, 0.672719
3346.77, 0.672551
3348.94, 0.672495
3351.1, 0.672327
3353.27, 0.672104
3355.44, 0.671824
3357.61, 0.671489
3359.79, 0.671042
3361.97, 0.670594
3364.15, 0.670091
3366.33, 0.669421
3368.52, 0.668806
3370.71, 0.668414
3372.9, 0.668135
3375.1, 0.667911
3377.3, 0.667911
3379.5, 0.667967
3381.71, 0.668358
3383.91, 0.668694
3386.12, 0.668806
3388.34, 0.668973
3390.55, 0.668862
3392.77, 0.668582
3394.99, 0.668135
3397.22, 0.667408
3399.45, 0.666625
3401.68, 0.665843
3403.91, 0.665060
3406.15, 0.664166
3408.39, 0.663327
3410.63, 0.662656
3412.87, 0.662042
3415.12, 0.662042
3417.37, 0.662489
3419.63, 0.663495
3421.88, 0.664892
3424.14, 0.666234
3426.41, 0.667799
3428.67, 0.669476
3430.94, 0.670930
3433.21, 0.672216
3435.49, 0.673389
3437.77, 0.674508
3440.05, 0.675346
3442.33, 0.676073
3444.62, 0.676800
3446.91, 0.677526
3449.2, 0.678085
3451.5, 0.678644
3453.8, 0.679427
3456.1, 0.680154
3458.41, 0.680545
3460.72, 0.681048
3463.03, 0.681663
3465.34, 0.681775
3467.66, 0.681775
3469.98, 0.681998
3472.31, 0.682054
3474.63, 0.681998
3476.96, 0.682054
3479.3, 0.682222
3481.64, 0.682222
3483.97, 0.681998
3486.32, 0.681775
3488.66, 0.681495
3491.01, 0.681160
3493.36, 0.680657
3495.72, 0.680154
3498.08, 0.679818
3500.44, 0.679874
3502.81, 0.680545
3505.18, 0.681607
3507.55, 0.682893
3509.92, 0.684290
3512.3, 0.685911
3514.68, 0.687309
3517.06, 0.688651
3519.45, 0.689601
3521.84, 0.690384
3524.24, 0.691110
3526.64, 0.691725
3529.04, 0.692116
3531.44, 0.692452
3533.85, 0.692843
3536.26, 0.693179
3538.67, 0.693458
3541.09, 0.693794
3543.51, 0.694073
3545.93, 0.694297
3548.36, 0.694464
3550.79, 0.694688
3553.22, 0.695023
3555.66, 0.695191
3558.1, 0.695191
3560.54, 0.695471
3562.99, 0.695582
3565.44, 0.695750
3567.9, 0.695918
3570.35, 0.696030
3572.81, 0.696197
3575.28, 0.696365
3577.75, 0.696533
3580.22, 0.696700
3582.69, 0.696812
3585.17, 0.697036
3587.65, 0.697259
3590.14, 0.697427
3592.62, 0.697483
3595.11, 0.697595
3597.61, 0.697595
3600.11, 0.697651
3602.61, 0.697707
3605.11, 0.697819
3607.62, 0.697930
3610.14, 0.698098
3612.65, 0.698154
3615.17, 0.698322
3617.69, 0.698322
3620.22, 0.698377
3622.75, 0.698545
3625.28, 0.698657
3627.82, 0.698713
3630.36, 0.698881
3632.9, 0.698881
3635.45, 0.698825
3638.0, 0.698881
3640.56, 0.698881
3643.12, 0.698825
3645.68, 0.698825
3648.24, 0.698936
3650.81, 0.698992
3653.39, 0.698881
3655.96, 0.698936
3658.54, 0.699104
3661.13, 0.699104
3663.71, 0.699216
3666.3, 0.699216
3668.9, 0.699104
3671.5, 0.699104
3674.1, 0.699104
3676.7, 0.699160
3679.31, 0.699328
3681.93, 0.699495
3684.54, 0.699607
3687.17, 0.699663
3689.79, 0.699607
3692.42, 0.699663
3695.05, 0.699663
3697.69, 0.699663
3700.32, 0.699831
3702.97, 0.699999
3705.61, 0.699943
3708.27, 0.699999
3710.92, 0.700055
3713.58, 0.700110
3716.24, 0.700055
3718.91, 0.699999
3721.58, 0.699943
3724.25, 0.700110
3726.93, 0.700055
3729.61, 0.700110
3732.29, 0.700110
3734.98, 0.699999
3737.67, 0.699943
3740.37, 0.699999
3743.07, 0.699943
3745.78, 0.699943
3748.49, 0.699831
3751.2, 0.699775
3753.91, 0.699831
3756.63, 0.699775
3759.36, 0.699607
3762.09, 0.699495
3764.82, 0.699384
3767.55, 0.699328
3770.29, 0.699272
3773.04, 0.699104
3775.78, 0.698936
3778.54, 0.698881
3781.29, 0.698825
3784.05, 0.698713
3786.82, 0.698433
3789.59, 0.698322
3792.36, 0.698098
3795.13, 0.698042
3797.92, 0.697707
3800.7, 0.697539
3803.49, 0.697259
3806.28, 0.697036
3809.08, 0.696756
3811.88, 0.696533
3814.68, 0.696141
3817.49, 0.695918
3820.31, 0.695638
3823.12, 0.695303
3825.94, 0.695023
3828.77, 0.694744
3831.6, 0.694408
3834.43, 0.694129
3837.27, 0.693738
3840.11, 0.693458
3842.96, 0.693123
3845.81, 0.692675
3848.67, 0.692284
3851.53, 0.691781
3854.39, 0.691446
3857.26, 0.691222
3860.13, 0.690943
3863.01, 0.690551
3865.89, 0.690048
3868.77, 0.689713
3871.66, 0.689265
3874.55, 0.689042
3877.45, 0.688818
3880.35, 0.688483
3883.26, 0.688092
3886.17, 0.687868
3889.09, 0.687533
3892.01, 0.687197
3894.93, 0.687029
3897.86, 0.686694
3900.79, 0.686303
3903.73, 0.686079
3906.67, 0.685744
3909.62, 0.685352
3912.57, 0.684961
3915.52, 0.684793
3918.48, 0.684570
3921.45, 0.684346
3924.42, 0.684011
3927.39, 0.683731
3930.37, 0.683452
3933.35, 0.683172
3936.34, 0.682893
3939.33, 0.682725
3942.32, 0.682501
3945.32, 0.682278
3948.33, 0.681998
3951.34, 0.681942
3954.35, 0.681663
3957.37, 0.681272
3960.39, 0.681048
3963.42, 0.680992
3966.45, 0.680824
3969.49, 0.680489
3972.53, 0.680154
3975.58, 0.679986
3978.63, 0.679762
3981.68, 0.679650
3984.75, 0.679483
3987.81, 0.679427
3990.88, 0.679203
3993.95, 0.678980
3997.03, 0.678868
4000.12, 0.678700
4003.21, 0.678421
4006.3, 0.678253
4009.4, 0.677917
4012.5, 0.677582
4015.61, 0.677247
4018.72, 0.677135
4021.84, 0.676855
4024.96, 0.676632
4028.09, 0.676352
4031.22, 0.676017
4034.36, 0.675626
4037.5, 0.675402
4040.65, 0.675122
4043.8, 0.674843
4046.96, 0.674340
4050.12, 0.674116
4053.29, 0.673837
4056.46, 0.673501
4059.64, 0.673166
4062.82, 0.672886
4066.0, 0.672607
4069.19, 0.672327
4072.39, 0.671936
4075.59, 0.671657
4078.8, 0.671489
4082.01, 0.671209
4085.23, 0.670762
4088.45, 0.670427
4091.68, 0.670259
4094.91, 0.670091
4098.15, 0.669812
4101.39, 0.669421
4104.63, 0.669141
4107.89, 0.668973
4111.14, 0.668694
4114.41, 0.668526
4117.67, 0.668302
4120.95, 0.667967
4124.23, 0.667743
4127.51, 0.667464
4130.8, 0.667073
4134.09, 0.666849
4137.39, 0.666570
4140.7, 0.666122
4144.01, 0.665787
4147.32, 0.665619
4150.64, 0.665172
4153.97, 0.664837
4157.3, 0.664389
4160.64, 0.664054
4163.98, 0.663663
4167.33, 0.663160
4170.68, 0.662712
4174.04, 0.662265
4177.4, 0.661762
4180.77, 0.661315
4184.14, 0.660644
4187.52, 0.660085
4190.91, 0.659638
4194.3, 0.659135
4197.69, 0.658632
4201.1, 0.658408
4204.5, 0.658184
4207.92, 0.658017
4211.34, 0.657961
4214.76, 0.657793
4218.19, 0.657513
4221.62, 0.657122
4225.06, 0.656675
4228.51, 0.656172
4231.96, 0.655501
4235.42, 0.654607
4238.88, 0.653433
4242.35, 0.652147
4245.83, 0.650414
4249.31, 0.648569
4252.79, 0.646165
4256.28, 0.644041
4259.78, 0.643091
4263.29, 0.642756
4266.79, 0.641861
4270.31, 0.640743
4273.83, 0.639401
4277.35, 0.637892
4280.89, 0.636215
4284.42, 0.634594
4287.97, 0.632861
4291.52, 0.630960
4295.07, 0.628948
4298.63, 0.627047
4302.2, 0.625147
4305.78, 0.623190
4309.35, 0.621066
4312.94, 0.618886
4316.53, 0.616650
4320.13, 0.614581
4323.73, 0.612457
4327.34, 0.610277
4330.96, 0.608208
4334.58, 0.606308
4338.21, 0.604239
4341.84, 0.602115
4345.48, 0.599823
4349.12, 0.597755
4352.77, 0.595742
4356.43, 0.593674
4360.1, 0.591717
4363.76, 0.589593
4367.44, 0.587413
4371.12, 0.585289
4374.81, 0.583165
4378.51, 0.581152
4382.21, 0.579140
4385.92, 0.577071
4389.63, 0.575003
4393.35, 0.572990
4397.08, 0.570978
4400.81, 0.568965
4404.55, 0.566953
4408.29, 0.564996
4412.04, 0.562984
4415.8, 0.561027
4419.57, 0.558903
4423.34, 0.556891
4427.12, 0.554878
4430.9, 0.552922
4434.69, 0.550909
4438.49, 0.548897
4442.29, 0.546884
4446.1, 0.544760
4449.92, 0.542468
4453.74, 0.540400
4457.57, 0.538276
4461.41, 0.536207
4465.25, 0.534083
4469.1, 0.531959
4472.95, 0.529723
4476.82, 0.527598
4480.69, 0.525474
4484.56, 0.523406
4488.44, 0.521337
4492.33, 0.519101
4496.23, 0.516977
4500.13, 0.515021
4504.04, 0.512952
4507.96, 0.510828
4511.88, 0.508704
4515.81, 0.506579
4519.75, 0.504511
4523.69, 0.502443
4527.65, 0.500207
4531.6, 0.498026
4535.57, 0.495790
4539.54, 0.493554
4543.52, 0.491262
4547.5, 0.488970
4551.5, 0.486734
4555.5, 0.484498
4559.5, 0.482150
4563.52, 0.480026
4567.54, 0.477902
4571.56, 0.475778
4575.6, 0.473598
4579.64, 0.471362
4583.69, 0.469293
4587.75, 0.467448
4591.81, 0.465492
4595.88, 0.463535
4599.96, 0.461635
4604.04, 0.459790
4608.14, 0.458057
4612.24, 0.456436
4616.34, 0.454871
4620.46, 0.453361
4624.58, 0.451740
4628.71, 0.450287
4632.84, 0.448889
4636.99, 0.447603
4641.14, 0.446373
4645.3, 0.445088
4649.47, 0.443690
4653.64, 0.442572
4657.82, 0.441622
4662.01, 0.440616
4666.21, 0.439554
4670.41, 0.438659
4674.62, 0.437821
4678.84, 0.437094
4683.07, 0.436311
4687.3, 0.435696
4691.54, 0.435137
4695.79, 0.434634
4700.05, 0.434075
4704.31, 0.433740
4708.59, 0.433293
4712.87, 0.432734
4717.15, 0.432342
4721.45, 0.432063
4725.76, 0.431727
4730.07, 0.431448
4734.39, 0.431112
4738.72, 0.430833
4743.05, 0.430553
4747.39, 0.430386
4751.75, 0.430050
4756.1, 0.429827
4760.47, 0.429547
4764.85, 0.429379
4769.23, 0.429100
4773.62, 0.428876
4778.02, 0.428653
4782.43, 0.428373
4786.85, 0.427982
4791.27, 0.427591
4795.7, 0.427199
4800.14, 0.426864
4804.59, 0.426473
4809.05, 0.426081
4813.51, 0.425690
4817.99, 0.425410
4822.47, 0.424851
4826.96, 0.424404
4831.46, 0.424013
4835.96, 0.423622
4840.48, 0.423398
4845.0, 0.423063
4849.54, 0.422671
4854.08, 0.422504
4858.63, 0.422392
4863.18, 0.422448
4867.75, 0.422559
4872.33, 0.422839
4876.91, 0.423007
4881.5, 0.423398
4886.1, 0.423901
4890.71, 0.424572
4895.33, 0.425355
4899.96, 0.426081
4904.59, 0.426696
4909.24, 0.427591
4913.89, 0.428485
4918.55, 0.429547
4923.22, 0.430442
4927.9, 0.431448
4932.59, 0.432454
4937.29, 0.433460
4942.0, 0.434355
4946.71, 0.435361
4951.44, 0.436311
4956.17, 0.437429
4960.91, 0.437932
4965.67, 0.438380
4970.43, 0.438939
4975.2, 0.439386
4979.98, 0.439665
4984.76, 0.439833
4989.56, 0.439665
4994.37, 0.439442
4999.18, 0.439050
5004.01, 0.438380
5008.84, 0.437429
5013.69, 0.436647
5018.54, 0.435976
5023.4, 0.434243
5028.28, 0.432063
5033.16, 0.430106
5038.05, 0.427814
5042.95, 0.425466
5047.86, 0.422895
5052.78, 0.420268
5057.71, 0.417305
5062.65, 0.414286
5067.6, 0.410988
5072.56, 0.407801
5077.53, 0.404671
5082.5, 0.401652
5087.49, 0.397795
5092.49, 0.393938
5097.5, 0.390248
5102.51, 0.386503
5107.54, 0.382702
5112.58, 0.379068
5117.62, 0.375267
5122.68, 0.371466
5127.75, 0.367664
5132.82, 0.363919
5137.91, 0.360229
5143.01, 0.356931
5148.12, 0.353577
5153.23, 0.348993
5158.36, 0.344745
5163.5, 0.340943
5168.65, 0.337254
5173.81, 0.333564
5178.98, 0.329819
5184.15, 0.326241
5189.34, 0.322440
5194.54, 0.319030
5199.75, 0.315843
5204.98, 0.311986
5210.21, 0.309079
5215.45, 0.305781
5220.7, 0.301253
5225.96, 0.297620
5231.23, 0.294321
5236.52, 0.291191
5241.81, 0.287949
5247.12, 0.284762
5252.44, 0.281799
5257.76, 0.278893
5263.1, 0.276042
5268.45, 0.273582
5273.81, 0.271290
5279.18, 0.268942
5284.56, 0.266706
5289.95, 0.265309
5295.36, 0.263128
5300.77, 0.260613
5306.2, 0.258600
5311.63, 0.256756
5317.08, 0.255079
5322.54, 0.253402
5328.01, 0.251836
5333.49, 0.250327
5338.98, 0.248985
5344.49, 0.248538
5350.0, 0.248482
5355.53, 0.246358
5361.07, 0.243842
5366.62, 0.242165
5372.18, 0.240880
5377.75, 0.239426
5383.34, 0.237917
5388.93, 0.236352
5394.54, 0.234898
5400.16, 0.233445
5405.79, 0.231991
5411.44, 0.230705
5417.09, 0.230426
5422.76, 0.229755
5428.43, 0.225954
5434.12, 0.223047
5439.83, 0.221426
5445.54, 0.219581
5451.26, 0.217513
5457.0, 0.216059
5462.75, 0.215333
5468.52, 0.212761
5474.29, 0.210134
5480.08, 0.208121
5485.88, 0.204935
5491.69, 0.202308
5497.51, 0.200016
5503.35, 0.197780
5509.2, 0.195264
5515.06, 0.193196
5520.93, 0.191239
5526.82, 0.188891
5532.71, 0.186320
5538.63, 0.184028
5544.55, 0.182183
5550.49, 0.180730
5556.44, 0.178717
5562.4, 0.176425
5568.37, 0.174636
5574.36, 0.174301
5580.36, 0.173406
5586.37, 0.170388
5592.4, 0.168096
5598.44, 0.167090
5604.49, 0.166251
5610.56, 0.165245
5616.63, 0.164518
5622.73, 0.163400
5628.83, 0.162841
5634.95, 0.163400
5641.08, 0.164686
5647.23, 0.163344
5653.39, 0.162282
5659.56, 0.161611
5665.74, 0.160885
5671.94, 0.161779
5678.15, 0.162058
5684.38, 0.161611
5690.62, 0.162394
5696.87, 0.162394
5703.14, 0.163121
5709.42, 0.165245
5715.72, 0.165636
5722.03, 0.165301
5728.35, 0.165189
5734.69, 0.165972
5741.03, 0.166922
5747.4, 0.168152
5753.78, 0.167928
5760.17, 0.170220
5766.58, 0.173518
5773.0, 0.171618
5779.44, 0.170555
5785.88, 0.170555
5792.35, 0.170835
5798.83, 0.171729
5805.32, 0.172400
5811.83, 0.173910
5818.35, 0.177543
5824.89, 0.178773
5831.45, 0.177431
5838.01, 0.176481
5844.59, 0.176369
5851.19, 0.177208
5857.8, 0.178773
5864.43, 0.179891
5871.07, 0.180394
5877.73, 0.184810
5884.4, 0.185258
5891.09, 0.183748
5897.79, 0.184363
5904.5, 0.181344
5911.23, 0.180506
5917.98, 0.180897
5924.75, 0.181344
5931.53, 0.184475
5938.32, 0.186320
5945.13, 0.182295
5951.96, 0.180226
5958.8, 0.179612
5965.65, 0.181065
5972.53, 0.180282
5979.42, 0.178661
5986.32, 0.179444
5993.24, 0.178158
6000.18, 0.175195
6007.13, 0.174413
6014.1, 0.174301
6021.08, 0.172344
6028.09, 0.170779
6035.1, 0.170500
6042.14, 0.173630
6049.19, 0.176425
6056.25, 0.170444
6063.34, 0.167369
6070.44, 0.168208
6077.55, 0.166195
6084.69, 0.162897
6091.84, 0.161276
6099.0, 0.160493
6106.19, 0.161444
6113.39, 0.162506
6120.61, 0.159207
6127.84, 0.156189
6135.09, 0.155518
6142.36, 0.155127
6149.65, 0.154288
6156.95, 0.154120
6164.27, 0.152891
6171.61, 0.151046
6178.97, 0.151717
6186.34, 0.152332
6193.73, 0.149592
6201.14, 0.147915
6208.57, 0.147356
6216.01, 0.146909
6223.47, 0.146182
6230.95, 0.145512
6238.45, 0.145009
6245.97, 0.144561
6253.5, 0.144002
6261.06, 0.143723
6268.63, 0.143499
6276.21, 0.143331
6283.82, 0.142996
6291.45, 0.142884
6299.1, 0.142828
6306.76, 0.142940
6314.44, 0.143108
6322.14, 0.143331
6329.86, 0.143667
6337.6, 0.145791
6345.35, 0.147636
6353.13, 0.146127
6360.92, 0.146071
6368.74, 0.147971
6376.57, 0.147804
6384.43, 0.147580
6392.3, 0.148307
6400.19, 0.149704
6408.1, 0.154624
6416.03, 0.157251
6423.98, 0.154009
6431.95, 0.152779
6439.94, 0.152220
6447.95, 0.152220
6455.98, 0.152332
6464.03, 0.152779
6472.1, 0.154568
6480.19, 0.156189
6488.31, 0.158648
6496.44, 0.158593
6504.59, 0.155015
6512.76, 0.154065
6520.95, 0.155015
6529.16, 0.153561
6537.4, 0.153058
6545.65, 0.153729
6553.92, 0.154176
6562.22, 0.154400
6570.54, 0.155797
6578.88, 0.154400
6587.23, 0.153058
6595.61, 0.152332
6604.02, 0.150766
6612.44, 0.150207
6620.89, 0.150151
6629.35, 0.152220
6637.84, 0.153338
6646.35, 0.149369
6654.88, 0.146182
6663.44, 0.145735
6672.01, 0.145903
6680.61, 0.145679
6689.23, 0.143555
6697.88, 0.141766
6706.54, 0.141990
6715.23, 0.141431
6723.94, 0.139530
6732.67, 0.137462
6741.42, 0.136120
6750.2, 0.135226
6759.0, 0.133940
6767.82, 0.133493
6776.67, 0.133269
6785.54, 0.133381
6794.44, 0.131983
6803.35, 0.129077
6812.29, 0.127623
6821.26, 0.127400
6830.24, 0.126449
6839.25, 0.124772
6848.29, 0.124549
6857.35, 0.125946
6866.43, 0.125275
6875.54, 0.121753
6884.67, 0.119909
6893.82, 0.118902
6903.0, 0.118399
6912.2, 0.117393
6921.43, 0.116107
6930.69, 0.115101
6939.96, 0.114095
6949.27, 0.113760
6958.59, 0.113927
6967.95, 0.111971
6977.33, 0.109902
6986.73, 0.109008
6996.16, 0.107890
7005.61, 0.106269
7015.09, 0.105039
7024.6, 0.103809
7034.13, 0.102691
7043.69, 0.102412
7053.27, 0.100455
7062.88, 0.0979390
7072.52, 0.0959830
7082.18, 0.0943620
7091.87, 0.0926290
7101.58, 0.0910080
7111.32, 0.0894980
7121.09, 0.0877650
7130.88, 0.0857530
7140.71, 0.0842990
7150.56, 0.0826220
7160.43, 0.0807220
7170.33, 0.0788210
7180.27, 0.0765290
7190.23, 0.0745170
7200.21, 0.0728960
7210.23, 0.0709950
7220.27, 0.0688710
7230.34, 0.0669700
7240.44, 0.0651250
7250.56, 0.0632250
7260.72, 0.0614920
7270.9, 0.0598150
7281.12, 0.0580260
7291.36, 0.0560130
7301.63, 0.0543360
7311.93, 0.0526030
7322.25, 0.0509820
7332.61, 0.0495850
7343.0, 0.0480750
7353.41, 0.0463420
7363.86, 0.0447210
7374.33, 0.0430440
7384.83, 0.0415910
7395.37, 0.0400810
7405.93, 0.0387400
7416.53, 0.0373420
7427.15, 0.0358890
7437.81, 0.0344910
7448.5, 0.0331500
7459.22, 0.0319760
7469.96, 0.0305780
7480.74, 0.0290130
7491.55, 0.0276710
7502.39, 0.0263860
7513.27, 0.0251560
7524.17, 0.0239260
7535.11, 0.0228080
7546.08, 0.0215780
7557.08, 0.0203480
7568.11, 0.0191180
7579.17, 0.0180000
7590.27, 0.0169380
7601.4, 0.0158760
7612.56, 0.0147580
7623.76, 0.0137520
7634.98, 0.0127460
7646.24, 0.0119070
7657.54, 0.0111240
7668.87, 0.0103420
7680.23, 0.00950300
7691.62, 0.00883200
7703.05, 0.00805000
7714.51, 0.00743500
7726.01, 0.00676400
7737.54, 0.00626100
7749.11, 0.00581400
7760.71, 0.00553400
7772.35, 0.00514300
7784.02, 0.00475200
7795.72, 0.00436000
7807.46, 0.00419300
7819.23, 0.00396900
7831.04, 0.00391300
7842.89, 0.00391300
7854.77, 0.00402500
7866.69, 0.00413700
7878.65, 0.00436000
7890.64, 0.00469600
7902.67, 0.00508700
7914.74, 0.00559000
7926.84, 0.00620500
7938.98, 0.00698800
7951.16, 0.00793800
7963.37, 0.00888800
7975.62, 0.0101180
7987.91, 0.0115160
8000.24, 0.0130250
8012.6, 0.0146460
8025.01, 0.0165470
8037.45, 0.0188950
8049.93, 0.0215780
8062.45, 0.0243730
8075.01, 0.0273920
8087.61, 0.0306900
8100.24, 0.0343240
8112.91, 0.0383480
8125.63, 0.0428210
8138.39, 0.0476280
8151.18, 0.0527710
8164.02, 0.0581930
8176.9, 0.0639510
8189.81, 0.0701560
8202.77, 0.0768090
8215.77, 0.0838520
8228.82, 0.0913990
8241.9, 0.0992810
8255.02, 0.107275
8268.19, 0.115269
8281.39, 0.123095
8294.65, 0.130698
8307.94, 0.137741
8321.28, 0.144114
8334.66, 0.149592
8348.08, 0.154120
8361.54, 0.157530
8375.05, 0.160214
8388.6, 0.162170
8402.2, 0.163624
8415.84, 0.164518
8429.52, 0.165021
8443.25, 0.165357
8457.02, 0.165916
8470.84, 0.166363
8484.7, 0.166698
8498.61, 0.167257
8512.57, 0.168152
8526.57, 0.168878
8540.62, 0.169717
8554.71, 0.170611
8568.85, 0.171674
8583.04, 0.172512
8597.27, 0.173071
8611.55, 0.173686
8625.88, 0.174245
8640.26, 0.174580
8654.68, 0.174525
8669.16, 0.174021
8683.68, 0.173183
8698.25, 0.172065
8712.87, 0.170667
8727.53, 0.168711
8742.25, 0.166363
8757.02, 0.163791
8771.83, 0.160829
8786.7, 0.157530
8801.62, 0.154176
8816.59, 0.150878
8831.61, 0.147468
8846.68, 0.144114
8861.8, 0.141263
8876.97, 0.138580
8892.2, 0.136288
8907.48, 0.134331
8922.81, 0.132990
8938.2, 0.132039
8953.63, 0.131257
8969.13, 0.131033
8984.67, 0.131089
9000.27, 0.131089
9015.92, 0.131089
9031.63, 0.131257
9047.39, 0.131369
9063.21, 0.131592
9079.08, 0.131816
9095.01, 0.132095
9111.0, 0.132487
9127.04, 0.132990
9143.13, 0.133660
9159.28, 0.134219
9175.49, 0.135282
9191.76, 0.136511
9208.09, 0.137741
9224.47, 0.139251
9240.92, 0.141151
9257.42, 0.143443
9273.98, 0.145735
9290.6, 0.147915
9307.28, 0.150375
9324.02, 0.152667
9340.82, 0.155183
9357.68, 0.158257
9374.6, 0.161947
9391.58, 0.166475
9408.62, 0.171618
9425.73, 0.176593
9442.9, 0.180953
9460.13, 0.183972
9477.42, 0.185817
9494.78, 0.186320
9512.2, 0.186208
9529.69, 0.185649
9547.24, 0.184810
9564.86, 0.183581
9582.54, 0.182183
9600.28, 0.180841
9618.1, 0.179332
9635.97, 0.177487
9653.92, 0.175754
9671.93, 0.173965
9690.01, 0.172177
9708.16, 0.170332
9726.37, 0.168711
9744.65, 0.167369
9763.0, 0.166083
9781.43, 0.164909
9799.92, 0.163736
9818.48, 0.162282
9837.1, 0.160885
9855.8, 0.159766
9874.58, 0.158481
9893.42, 0.156804
9912.34, 0.155183
9931.33, 0.153561
9950.39, 0.151940
9969.52, 0.150207
9988.74, 0.148251
10008.0, 0.146350
10027.4, 0.144338
10046.8, 0.142549
10066.3, 0.140648
10085.9, 0.138803
10105.6, 0.137126
10125.3, 0.135114
10145.1, 0.132990
10165.0, 0.131089
10185.0, 0.129412
10205.0, 0.127903
10225.2, 0.126337
10245.4, 0.124884
10265.7, 0.123542
10286.0, 0.122201
10306.5, 0.120803
10327.0, 0.119629
10347.6, 0.118847
10368.3, 0.117840
10389.1, 0.116834
10409.9, 0.116443
10430.9, 0.116219
10451.9, 0.115996
10473.0, 0.115884
10494.2, 0.115940
10515.5, 0.115996
10536.9, 0.116275
10558.4, 0.116946
10579.9, 0.117952
10601.5, 0.118847
10623.3, 0.119629
10645.1, 0.120747
10667.0, 0.121977
10689.0, 0.123263
10711.1, 0.124549
10733.2, 0.125722
10755.5, 0.126896
10777.9, 0.128462
10800.3, 0.130083
10822.9, 0.131704
10845.5, 0.133325
10868.2, 0.134779
10891.1, 0.136232
10914.0, 0.137741
10937.0, 0.139027
10960.2, 0.140313
10983.4, 0.141487
11006.7, 0.142661
11030.1, 0.143890
11053.6, 0.145120
11077.3, 0.146238
11101.0, 0.147300
11124.8, 0.148530
11148.7, 0.149704
11172.7, 0.150599
11196.9, 0.151381
11221.1, 0.152164
11245.4, 0.152891
11269.9, 0.153617
11294.4, 0.154288
11319.1, 0.154735
11343.9, 0.155350
11368.8, 0.155742
11393.7, 0.155853
11418.8, 0.156301
11444.0, 0.156804
11469.4, 0.157139
11494.8, 0.157698
11520.3, 0.158145
11546.0, 0.158369
11571.8, 0.158648
11597.7, 0.159040
11623.7, 0.159543
11649.8, 0.159822
11676.0, 0.159878
11702.4, 0.159934
11728.9, 0.160046
11755.5, 0.160046
11782.2, 0.159431
11809.0, 0.158816
11836.0, 0.158369
11863.0, 0.157754
11890.3, 0.156971
11917.6, 0.156357
11945.0, 0.155071
11972.6, 0.153673
12000.4, 0.152108
12028.2, 0.149760
12056.2, 0.147245
12084.3, 0.144561
12112.5, 0.141095
12140.9, 0.136567
12169.4, 0.130921
12198.0, 0.124437
12226.8, 0.117058
12255.7, 0.108784
12284.7, 0.100231
12313.9, 0.0913990
12343.2, 0.0827340
12372.7, 0.0745730
12402.3, 0.0669700
12432.0, 0.0599820
12461.9, 0.0544480
12491.9, 0.0502000
12522.1, 0.0469010
12552.4, 0.0446090
12582.9, 0.0431000
12613.5, 0.0425970
12644.3, 0.0423730
12675.2, 0.0422620
12706.3, 0.0425410
12737.5, 0.0429880
12768.9, 0.0433800
12800.4, 0.0434910
12832.1, 0.0437710
12863.9, 0.0441060
12895.9, 0.0443860
12928.1, 0.0447210
12960.4, 0.0451680
12992.9, 0.0454480
13025.5, 0.0455600
13058.3, 0.0453920
13091.3, 0.0455040
13124.4, 0.0457830
13157.8, 0.0456160
13191.2, 0.0452800
13224.9, 0.0451130
13258.7, 0.0447770
13292.7, 0.0446650
13326.9, 0.0445530
13361.2, 0.0443300
13395.7, 0.0442180
13430.4, 0.0442740
13465.3, 0.0442740
13500.4, 0.0439940
13535.7, 0.0438830
13571.1, 0.0442180
13606.7, 0.0447210
13642.5, 0.0451130
13678.5, 0.0453360
13714.7, 0.0457270
13751.1, 0.0458390
13787.6, 0.0465100
13824.4, 0.0472370
13861.4, 0.0476280
13898.5, 0.0482990
13935.9, 0.0490820
13973.5, 0.0496960
14011.2, 0.0502550
14049.2, 0.0507030
14087.4, 0.0514850
14125.8, 0.0522680
14164.3, 0.0531060
14203.2, 0.0536650
14242.2, 0.0546720
14281.4, 0.0555100
14320.9, 0.0561810
14360.5, 0.0570750
14400.4, 0.0580260
14440.5, 0.0585850
14480.9, 0.0584170
14521.4, 0.0579700
14562.2, 0.0581380
14603.3, 0.0579700
14644.5, 0.0574670
14686.0, 0.0565720
14727.7, 0.0555660
14769.7, 0.0543360
14811.9, 0.0526590
14854.3, 0.0513180
14897.0, 0.0501440
14939.9, 0.0484670
14983.1, 0.0466220
15026.5, 0.0448890
15070.2, 0.0433240
15114.2, 0.0415350
15158.3, 0.0399700
15202.8, 0.0387400
15247.5, 0.0376780
15292.5, 0.0367830
15337.7, 0.0372300
15383.2, 0.0388520
15429.0, 0.0414230
15475.1, 0.0444420
15521.4, 0.0475160
15568.0, 0.0495850
15614.9, 0.0502550
15662.1, 0.0497520
15709.6, 0.0491930
15757.3, 0.0489700
15805.4, 0.0493050
15853.7, 0.0496960
15902.3, 0.0509820
15951.2, 0.0531060
16000.5, 0.0559570
16050.0, 0.0601500
16099.8, 0.0654610
16150.0, 0.0715540
16200.5, 0.0789890
16251.3, 0.0873740
16302.4, 0.0956470
16353.8, 0.103194
16405.5, 0.109791
16457.6, 0.115381
16510.0, 0.120244
16562.8, 0.123822
16615.9, 0.125834
16669.3, 0.127288
16723.1, 0.128014
16777.2, 0.127455
16831.7, 0.126226
16886.5, 0.124157
16941.7, 0.121698
16997.2, 0.118958
17053.1, 0.116331
17109.4, 0.113480
17166.1, 0.110909
17223.1, 0.108169
17280.5, 0.105039
17338.3, 0.102188
17396.5, 0.0985540
17455.1, 0.0945850
17514.0, 0.0913430
17573.4, 0.0883800
17633.2, 0.0862000
17693.4, 0.0835730
17754.0, 0.0810570
17815.0, 0.0783740
17876.4, 0.0761380
17938.3, 0.0745730
18000.5, 0.0739020
18063.3, 0.0755790
18126.4, 0.0789330
18190.0, 0.0828460
18254.1, 0.0858090
18318.6, 0.0876540
18383.5, 0.0887720
18449.0, 0.0878770
18514.9, 0.0866470
18581.2, 0.0853620
18648.0, 0.0845790
18715.4, 0.0841320
18783.2, 0.0838520
18851.5, 0.0838520
18920.3, 0.0843550
18989.6, 0.0848030
19059.4, 0.0846350
19129.7, 0.0834610
19200.6, 0.0825110
19272.0, 0.0801070
19343.9, 0.0773120
19416.3, 0.0754110
19489.3, 0.0727280
19562.8, 0.0700450
19637.0, 0.0690380
19711.6, 0.0683680
19786.8, 0.0683120
19862.6, 0.0680880
19939.0, 0.0666900
20016.0, 0.0645100
20093.6, 0.0612350
20171.8, 0.0573350
20250.6, 0.0537970
20330.0, 0.0496090
20410.0, 0.0475870
20490.7, 0.0459260
20572.0, 0.0423160
20654.0, 0.0407990
20736.6, 0.0402940
20819.9, 0.0389220
20903.8, 0.0369000
20988.5, 0.0360330
21073.8, 0.0357440
21159.8, 0.0353830
21246.5, 0.0340840
21334.0, 0.0322060
21422.1, 0.0313400
21511.0, 0.0327120
21600.7, 0.0333610
21691.0, 0.0324230
21782.1, 0.0323500
21874.0, 0.0343720
21966.7, 0.0370440
22060.2, 0.0399330
22154.5, 0.0432540
22249.6, 0.0455650
22345.5, 0.0493200
22442.2, 0.0527140
22539.8, 0.0555300
22638.2, 0.0578410
22737.5, 0.0594300
22837.7, 0.0618120
22938.7, 0.0636180
23040.7, 0.0651340
23143.5, 0.0660010
23247.3, 0.0653510
23352.1, 0.0640510
23457.7, 0.0629680
23564.4, 0.0619570
23672.0, 0.0613790
23780.5, 0.0611630
23890.1, 0.0599350
24000.7, 0.0587800
24112.3, 0.0576240
24225.0, 0.0574800
24338.7, 0.0571190
24453.5, 0.0554580
24569.4, 0.0566860
24686.4, 0.0582740
24804.5, 0.0575520
24923.8, 0.0574800
25044.2, 0.0579850
25165.8, 0.0573350
25288.6, 0.0566130
25412.5, 0.0563240
25537.7, 0.0565410
25664.1, 0.0557470
25791.8, 0.0560360
25920.8, 0.0575520
26051.1, 0.0588520
26182.6, 0.0605130
26315.5, 0.0621010
26449.8, 0.0642680
26585.4, 0.0647010
26722.5, 0.0647730
26860.9, 0.0655670
27000.8, 0.0661450
27142.1, 0.0662170
27285.0, 0.0663620
27429.4, 0.0675170
27575.3, 0.0673730
27722.7, 0.0669390
27871.8, 0.0676620
28022.4, 0.0668670
28174.7, 0.0661450
28328.7, 0.0667230
28484.4, 0.0669390
28641.7, 0.0666510
28800.9, 0.0666510
28961.8, 0.0657120
29124.5, 0.0642680
29289.0, 0.0641950
29455.4, 0.0651340
29623.8, 0.0664340
29794.0, 0.0676620
29966.3, 0.0696830
30140.5, 0.0714890
30316.7, 0.0727890
30495.1, 0.0746660
30675.5, 0.0772660
30858.1, 0.0784210
31042.8, 0.0809480
31229.8, 0.0844140
31419.1, 0.0875920
31610.7, 0.0902640
31804.6, 0.0940910
32000.9, 0.0984230
32199.7, 0.102323
32400.9, 0.106150
32604.8, 0.110555
32811.1, 0.113949
33020.1, 0.117631
33231.8, 0.121603
33446.2, 0.124997
33663.4, 0.129185
33883.4, 0.133951
34106.3, 0.138500
34332.1, 0.143122
34561.0, 0.148682
34792.9, 0.154387
35028.0, 0.162041
35266.3, 0.169334
35507.8, 0.177133
35752.7, 0.186521
36001.0, 0.195186
36252.8, 0.201468
36508.1, 0.207895
36767.0, 0.212517
37029.7, 0.213961
37296.1, 0.215983
37566.3, 0.218654
37840.5, 0.220243
38118.8, 0.221615
38401.2, 0.223926
38687.8, 0.226886
38978.6, 0.229053
39273.9, 0.229269
39573.7, 0.233097
39878.1, 0.236852
40187.3, 0.237574
40501.2, 0.238946
40820.0, 0.238079
41144.0, 0.235696
41473.2, 0.232736
41807.6, 0.227897
42147.5, 0.221615
42493.0, 0.213094
42844.2, 0.201902
43201.2, 0.190925
43564.3, 0.182621
43933.5, 0.176483
44309.0, 0.176411
44691.0, 0.180455
45079.6, 0.186304
45475.0, 0.194031
45877.5, 0.200457
46287.1, 0.204790
46704.2, 0.209845
47128.7, 0.216488
47561.1, 0.220460
48001.5, 0.220532
48450.1, 0.222626
48907.2, 0.220171
49373.0, 0.215694
49847.7, 0.213383
50331.5, 0.209123
50825.0, 0.202046
51328.2, 0.194175
51841.5, 0.186665
52365.1, 0.180310
52899.4, 0.172151
53444.8, 0.162763
54001.5, 0.154531
54570.1, 0.144566
55150.6, 0.134240
55743.6, 0.125358
56349.5, 0.117270
56968.7, 0.109977
57601.7, 0.100373
58248.9, 0.0906970
58910.9, 0.0819590
59588.1, 0.0739440
60281.0, 0.0666510
60990.2, 0.0595020
61716.3, 0.0527860
62459.8, 0.0501140
63221.6, 0.0512700
64002.1, 0.0520640
64802.1, 0.0501140
65622.1, 0.0473700
66463.4, 0.0467200
67326.6, 0.0478760
68212.4, 0.0470090
69121.9, 0.0472260
70056.0, 0.0493200
71015.7, 0.0503310
72002.0, 0.0503310
73016.3, 0.0521360
74059.4, 0.0535800
75132.7, 0.0553860
76237.6, 0.0588520
77375.5, 0.0608740
78547.9, 0.0623180
79756.3, 0.0624620
81002.5, 0.0621010
82288.5, 0.0613790
83615.7, 0.0609460
84986.5, 0.0635460
86402.9, 0.0652060
87867.4, 0.0663620
89382.4, 0.0643400
90950.5, 0.0638340
92574.6, 0.0639790
94257.2, 0.0645560
96002.7, 0.0692500
97814.1, 0.0725000
99695.1, 0.0767600
101650.0, 0.0805870
103683.0, 0.0845590
105799.0, 0.0867970
108003.0, 0.0838370
110301.0, 0.0904080
112699.0, 0.0990730
115204.0, 0.103045
117822.0, 0.103478
120562.0, 0.116548
123433.0, 0.121531
126443.0, 0.116404
129604.0, 0.127452
132926.0, 0.141822
136424.0, 0.153881
140111.0, 0.154820
144003.0, 0.164568
148118.0, 0.178072
152474.0, 0.184932
157095.0, 0.180166
162004.0, 0.179733
167231.0, 0.219015
172805.0, 0.221976
178764.0, 0.235480
185148.0, 0.250716
192005.0, 0.247467
199390.0, 0.299242
207366.0, 0.506270
216006.0, 0.758214
