Database of Origin, USGS Spectral Database
Sample Description, See USGS database for additional info
Date Added,2016-08-03 21:02:34.071238

Data ID,USGS_ant07          
Sample ID, antigorite_nmnh96917.2876
Mineral Name, antigorite
Material Class,Phyllosilicate

Wavelength
248.1, 0.0942690
253.6, 0.106766
258.6, 0.0970220
263.6, 0.108702
268.6, 0.0987100
273.1, 0.109424
277.1, 0.111310
281.1, 0.115057
285.1, 0.113519
289.1, 0.126135
293.1, 0.141820
297.1, 0.145202
301.1, 0.159151
305.1, 0.156954
309.1, 0.176201
313.1, 0.190788
317.1, 0.200117
321.1, 0.191639
325.1, 0.208657
329.1, 0.201212
333.1, 0.204680
337.1, 0.212726
341.1, 0.217198
345.1, 0.202361
349.1, 0.208254
353.1, 0.215457
357.1, 0.220366
360.6, 0.226088
363.6, 0.229095
366.6, 0.233202
369.6, 0.232590
372.6, 0.231992
375.6, 0.230872
378.6, 0.228079
381.1, 0.229276
383.1, 0.225131
385.1, 0.233140
387.1, 0.228166
389.1, 0.231575
391.1, 0.234488
393.1, 0.233974
395.1, 0.234972
397.1, 0.236299
399.1, 0.237108
401.1, 0.240636
403.1, 0.238280
405.1, 0.240500
407.1, 0.241960
409.1, 0.238824
411.1, 0.243127
412.8, 0.248499
415.8, 0.249150
418.8, 0.252467
421.8, 0.255678
424.8, 0.254132
427.8, 0.261733
430.8, 0.266265
433.8, 0.266450
436.8, 0.268788
439.8, 0.273910
442.8, 0.275741
445.8, 0.270552
448.8, 0.268666
451.3, 0.274470
453.3, 0.274350
455.3, 0.276678
457.3, 0.277863
459.3, 0.279509
461.3, 0.282698
463.3, 0.287435
465.3, 0.282889
467.3, 0.284572
469.3, 0.287827
471.3, 0.291741
473.3, 0.297150
475.3, 0.293924
477.3, 0.300477
479.3, 0.303658
481.3, 0.305298
483.3, 0.304309
485.3, 0.307338
487.3, 0.314844
489.3, 0.313059
491.3, 0.313001
493.3, 0.309900
495.3, 0.313407
497.3, 0.309901
499.3, 0.317708
501.3, 0.320822
503.3, 0.318656
505.3, 0.319395
507.3, 0.324778
509.3, 0.320094
511.3, 0.323148
513.3, 0.325054
515.3, 0.325271
517.3, 0.326432
519.3, 0.325845
521.3, 0.327517
523.3, 0.324365
525.3, 0.323238
527.3, 0.323269
529.3, 0.318833
531.3, 0.317716
533.3, 0.321025
535.3, 0.318092
537.3, 0.314145
539.3, 0.316246
541.3, 0.315804
543.3, 0.324421
545.3, 0.319440
547.3, 0.319787
549.3, 0.316573
551.3, 0.320750
553.3, 0.321321
555.3, 0.317398
557.3, 0.314224
559.3, 0.316392
561.3, 0.315715
563.3, 0.315236
565.3, 0.310385
567.3, 0.310536
569.3, 0.313396
571.3, 0.310931
573.3, 0.314019
575.3, 0.311349
577.3, 0.311165
579.3, 0.309263
581.3, 0.305145
583.3, 0.303159
585.3, 0.307048
587.3, 0.304533
589.3, 0.302928
591.3, 0.300959
593.3, 0.301253
595.3, 0.299144
597.3, 0.292195
599.3, 0.296784
601.1, 0.297900
602.7, 0.297515
604.3, 0.296365
605.9, 0.293505
607.5, 0.293412
609.1, 0.295851
610.7, 0.295204
612.3, 0.294354
613.9, 0.290195
615.5, 0.291873
617.1, 0.290839
618.7, 0.287462
620.3, 0.287567
621.9, 0.285175
623.5, 0.286323
625.1, 0.278494
626.7, 0.279480
628.3, 0.284429
629.9, 0.278357
631.7, 0.280988
633.7, 0.281267
635.7, 0.280319
637.7, 0.278560
639.7, 0.277282
641.7, 0.276381
643.7, 0.274870
645.7, 0.272204
647.7, 0.272679
649.7, 0.275333
651.7, 0.271957
653.7, 0.270340
655.7, 0.272871
657.7, 0.271795
659.7, 0.266003
661.7, 0.268899
663.7, 0.270773
665.7, 0.263872
667.7, 0.264584
670.2, 0.267817
673.2, 0.266398
676.2, 0.265378
679.2, 0.260426
682.2, 0.262824
685.2, 0.261834
688.2, 0.263222
691.2, 0.256111
694.2, 0.257130
697.2, 0.253329
700.2, 0.263817
702.0, 0.261439
704.0, 0.257745
706.0, 0.263380
708.0, 0.257907
710.0, 0.257669
712.0, 0.257720
714.0, 0.256716
716.0, 0.262485
718.0, 0.261103
720.0, 0.261756
722.0, 0.265297
724.0, 0.264576
726.0, 0.262264
728.0, 0.263681
730.0, 0.260377
732.0, 0.262059
734.0, 0.264488
736.0, 0.267268
738.0, 0.260050
740.0, 0.266609
742.0, 0.262629
744.0, 0.270392
746.0, 0.263554
748.0, 0.267921
750.5, 0.268568
753.5, 0.268314
756.5, 0.263043
759.5, 0.271362
762.5, 0.271917
765.5, 0.267233
768.5, 0.277596
771.5, 0.274929
774.5, 0.276979
777.5, 0.282744
781.0, 0.285358
785.0, 0.292739
789.0, 0.290801
793.0, 0.287532
797.0, 0.287086
851.0, 0.298840
859.0, 0.286852
871.0, 0.273088
883.0, 0.274975
894.0, 0.276010
904.0, 0.273361
914.0, 0.276666
924.0, 0.274520
933.0, 0.268837
941.0, 0.273566
949.0, 0.273928
957.0, 0.271823
964.0, 0.275819
970.0, 0.278410
976.0, 0.281096
982.0, 0.279712
988.0, 0.283948
994.0, 0.276418
1000.0, 0.277071
1006.0, 0.276816
1012.0, 0.274483
1018.0, 0.274768
1023.5, 0.273884
1028.5, 0.276003
1033.5, 0.279698
1038.5, 0.275646
1043.5, 0.274020
1048.5, 0.275060
1053.5, 0.278989
1058.5, 0.274376
1063.5, 0.276413
1068.5, 0.275687
1073.5, 0.279018
1078.5, 0.278529
1083.5, 0.279687
1088.5, 0.285039
1093.5, 0.288359
1098.5, 0.290817
1103.5, 0.292048
1108.5, 0.293508
1113.5, 0.295140
1118.5, 0.296821
1123.5, 0.293660
1128.5, 0.300592
1133.5, 0.302847
1138.5, 0.298818
1143.5, 0.301216
1148.5, 0.304869
1153.5, 0.305475
1158.5, 0.307571
1163.5, 0.312801
1168.5, 0.307239
1173.5, 0.315449
1178.5, 0.316257
1183.5, 0.318898
1188.5, 0.317744
1193.5, 0.313973
1198.5, 0.325333
1203.5, 0.324141
1208.5, 0.332221
1213.5, 0.331524
1218.5, 0.334759
1223.5, 0.339502
1228.5, 0.336382
1233.5, 0.345493
1238.5, 0.337283
1243.5, 0.343669
1248.5, 0.346578
1253.5, 0.345181
1258.5, 0.344718
1263.5, 0.353616
1268.5, 0.357337
1273.5, 0.357464
1278.5, 0.356480
1283.5, 0.355874
1288.5, 0.362482
1293.5, 0.361406
1298.5, 0.367811
1303.5, 0.362417
1308.5, 0.370141
1313.5, 0.371232
1318.5, 0.377697
1323.5, 0.375050
1328.5, 0.380493
1333.5, 0.377862
1338.5, 0.378907
1343.5, 0.384658
1348.5, 0.391783
1353.5, 0.388507
1358.5, 0.382862
1363.5, 0.386009
1368.5, 0.390546
1373.5, 0.387468
1378.5, 0.384382
1383.5, 0.351225
1388.5, 0.350414
1393.5, 0.330517
1398.5, 0.340437
1403.5, 0.354416
1408.5, 0.372202
1413.5, 0.381991
1418.5, 0.400363
1423.5, 0.402048
1428.5, 0.405088
1433.5, 0.408121
1438.5, 0.413059
1443.5, 0.410406
1448.5, 0.412319
1453.5, 0.419970
1458.5, 0.424981
1463.5, 0.421108
1468.5, 0.425696
1473.5, 0.427347
1478.5, 0.424001
1483.5, 0.430898
1488.5, 0.436412
1493.5, 0.429469
1498.5, 0.435898
1503.5, 0.436675
1508.5, 0.437306
1513.5, 0.430761
1518.5, 0.444218
1523.5, 0.444392
1528.5, 0.441386
1534.0, 0.441146
1540.0, 0.444108
1546.0, 0.444775
1552.0, 0.446723
1558.0, 0.446779
1564.0, 0.450925
1570.5, 0.454224
1577.5, 0.451787
1584.5, 0.452386
1591.5, 0.453540
1598.5, 0.455256
1605.5, 0.455387
1612.5, 0.460115
1619.5, 0.462186
1626.5, 0.461205
1633.5, 0.460247
1640.5, 0.457942
1647.5, 0.467463
1654.5, 0.466420
1661.5, 0.466234
1668.5, 0.460799
1676.0, 0.470067
1684.0, 0.468335
1692.0, 0.468978
1700.0, 0.466323
1708.0, 0.465927
1716.0, 0.468179
1724.0, 0.473797
1732.0, 0.469587
1740.0, 0.474666
1748.0, 0.472076
1756.0, 0.467233
1764.0, 0.466642
1772.0, 0.473122
1780.0, 0.464637
1788.0, 0.473577
1796.0, 0.471374
1805.0, 0.475320
1815.0, 0.470912
1825.0, 0.478711
1835.0, 0.469442
1845.0, 0.472268
1855.0, 0.474067
1865.0, 0.480242
1875.0, 0.473234
1885.0, 0.474709
1895.0, 0.471895
1905.0, 0.467561
1915.0, 0.458732
1925.0, 0.469783
1935.0, 0.457952
1945.0, 0.452869
1955.0, 0.449864
1965.0, 0.448756
1975.0, 0.442768
1985.0, 0.444124
1995.0, 0.450290
2005.0, 0.447671
2015.0, 0.450585
2025.0, 0.463787
2035.0, 0.461631
2045.0, 0.467061
2055.0, 0.469603
2065.0, 0.465935
2075.0, 0.466416
2085.0, 0.461339
2095.0, 0.463003
2105.0, 0.463045
2115.0, 0.455330
2125.0, 0.459000
2135.0, 0.461648
2145.0, 0.461742
2155.0, 0.461535
2165.0, 0.467049
2175.0, 0.463669
2185.0, 0.469926
2195.0, 0.469508
2205.0, 0.464235
2215.0, 0.449561
2225.0, 0.450824
2235.0, 0.429179
2245.0, 0.409076
2255.0, 0.404779
2265.0, 0.393140
2275.0, 0.363663
2285.0, 0.334581
2295.0, 0.342997
2305.0, 0.325560
2315.0, 0.271605
2325.0, 0.281323
2335.0, 0.313373
2345.0, 0.336994
2355.0, 0.359978
2365.0, 0.369909
2375.0, 0.357642
2386.0, 0.340987
2400.0, 0.352509
2418.0, 0.345414
2440.0, 0.337941
2466.0, 0.324335
2496.0, 0.320410
2528.0, 0.318352
2560.0, 0.330717
2592.0, 0.328683
2624.0, 0.358492
2656.0, 0.353586
2688.0, 0.182953
