Database of Origin, USGS Spectral Database
Sample Description, See USGS database for additional info
Date Added,2016-08-10 04:57:47.693551

Data ID,USGS_jar12          
Sample ID, jarosite_gds99.11520
Mineral Name, jarosite
Material Class,Sulfate

Wavelength
1424.22, 0.762082
1424.61, 0.761455
1425.0, 0.760725
1425.39, 0.760203
1425.78, 0.759994
1426.18, 0.760098
1426.57, 0.759054
1426.96, 0.758219
1427.36, 0.758115
1427.75, 0.757906
1428.14, 0.758324
1428.54, 0.758115
1428.93, 0.757176
1429.32, 0.756341
1429.72, 0.756027
1430.11, 0.756027
1430.51, 0.755610
1430.9, 0.754984
1431.3, 0.754670
1431.69, 0.754253
1432.09, 0.754566
1432.48, 0.754044
1432.88, 0.753418
1433.28, 0.753209
1433.67, 0.752478
1434.07, 0.751852
1434.46, 0.751435
1434.86, 0.751748
1435.26, 0.751330
1435.66, 0.750913
1436.05, 0.750495
1436.45, 0.750078
1436.85, 0.749243
1437.25, 0.748930
1437.65, 0.747781
1438.05, 0.747468
1438.44, 0.747886
1438.84, 0.747781
1439.24, 0.748408
1439.64, 0.747781
1440.04, 0.746633
1440.44, 0.746320
1440.84, 0.745589
1441.24, 0.744963
1441.65, 0.744232
1442.05, 0.743502
1442.45, 0.743293
1442.85, 0.742980
1443.25, 0.741936
1443.65, 0.741414
1444.05, 0.740684
1444.46, 0.739744
1444.86, 0.739118
1445.26, 0.739013
1445.67, 0.738700
1446.07, 0.737865
1446.47, 0.737239
1446.88, 0.736300
1447.28, 0.734212
1447.68, 0.732437
1448.09, 0.731707
1448.49, 0.730454
1448.9, 0.728680
1449.3, 0.727531
1449.71, 0.725966
1450.11, 0.724609
1450.52, 0.723148
1450.93, 0.721686
1451.33, 0.720642
1451.74, 0.719181
1452.14, 0.718346
1452.55, 0.717094
1452.96, 0.715841
1453.36, 0.714797
1453.77, 0.713545
1454.18, 0.712710
1454.59, 0.711457
1455.0, 0.710413
1455.41, 0.709474
1455.81, 0.708221
1456.22, 0.706760
1456.63, 0.705925
1457.04, 0.704881
1457.45, 0.703733
1457.86, 0.702272
1458.27, 0.700393
1458.68, 0.699244
1459.09, 0.697888
1459.5, 0.695487
1459.91, 0.692773
1460.32, 0.690268
1460.74, 0.687136
1461.15, 0.684318
1461.56, 0.680873
1461.97, 0.675655
1462.39, 0.671688
1462.8, 0.667930
1463.21, 0.662711
1463.62, 0.657910
1464.04, 0.654361
1464.45, 0.649977
1464.86, 0.645280
1465.28, 0.641313
1465.69, 0.638077
1466.11, 0.635781
1466.52, 0.635886
1466.94, 0.636303
1467.35, 0.637556
1467.77, 0.639330
1468.18, 0.640583
1468.6, 0.641313
1469.02, 0.641731
1469.43, 0.642044
1469.85, 0.642879
1470.27, 0.644653
1470.68, 0.646846
1471.1, 0.648933
1471.52, 0.652169
1471.94, 0.656762
1472.35, 0.662398
1472.77, 0.668243
1473.19, 0.673776
1473.61, 0.678890
1474.03, 0.683796
1474.45, 0.687971
1474.87, 0.691833
1475.29, 0.694756
1475.71, 0.698201
1476.13, 0.701123
1476.55, 0.703211
1476.97, 0.705612
1477.39, 0.707282
1477.81, 0.708221
1478.23, 0.708952
1478.65, 0.709369
1479.07, 0.710726
1479.5, 0.711457
1479.92, 0.711770
1480.34, 0.712918
1480.76, 0.713440
1481.19, 0.713023
1481.61, 0.712918
1482.03, 0.712814
1482.46, 0.712605
1482.88, 0.713231
1483.31, 0.713023
1483.73, 0.712918
1484.16, 0.713023
1484.58, 0.713023
1485.01, 0.712292
1485.43, 0.712501
1485.86, 0.713127
1486.28, 0.712501
1486.71, 0.712710
1487.14, 0.712501
1487.56, 0.711979
1487.99, 0.712396
1488.42, 0.713336
1488.84, 0.713336
1489.27, 0.712918
1489.7, 0.712501
1490.13, 0.713440
1490.56, 0.713753
1490.98, 0.713231
1491.41, 0.713440
1491.84, 0.714797
1492.27, 0.714902
1492.7, 0.715110
1493.13, 0.715528
1493.56, 0.715110
1493.99, 0.715215
1494.42, 0.715945
1494.85, 0.717094
1495.29, 0.717094
1495.72, 0.716467
1496.15, 0.716258
1496.58, 0.715945
1497.01, 0.716050
1497.44, 0.716676
1497.88, 0.716676
1498.31, 0.716154
1498.74, 0.715841
1499.18, 0.716363
1499.61, 0.716676
1500.04, 0.716050
1500.48, 0.715423
1500.91, 0.715319
1501.35, 0.715215
1501.78, 0.715006
1502.22, 0.715215
1502.65, 0.715319
1503.09, 0.714588
1503.53, 0.714902
1503.96, 0.715737
1504.4, 0.715737
1504.83, 0.715110
1505.27, 0.714693
1505.71, 0.714380
1506.15, 0.714588
1506.58, 0.715319
1507.02, 0.715110
1507.46, 0.714693
1507.9, 0.714797
1508.34, 0.715006
1508.78, 0.715110
1509.21, 0.715528
1509.66, 0.715632
1510.09, 0.716258
1510.53, 0.716154
1510.97, 0.715632
1511.42, 0.715841
1511.86, 0.716050
1512.3, 0.715632
1512.74, 0.715319
1513.18, 0.715632
1513.62, 0.715632
1514.06, 0.715632
1514.51, 0.716154
1514.95, 0.715632
1515.39, 0.715215
1515.83, 0.715423
1516.28, 0.715841
1516.72, 0.715841
1517.16, 0.715632
1517.61, 0.716050
1518.05, 0.716467
1518.5, 0.716572
1518.94, 0.717302
1519.39, 0.717929
1519.83, 0.717615
1520.28, 0.717929
1520.73, 0.718242
1521.17, 0.718659
1521.62, 0.719285
1522.07, 0.720121
1522.51, 0.720851
1522.96, 0.720747
1523.41, 0.721164
1523.85, 0.722104
1524.3, 0.722626
1524.75, 0.722939
1525.2, 0.723043
1525.65, 0.722834
1526.1, 0.723148
1526.55, 0.723670
1527.0, 0.724400
1527.45, 0.724922
1527.9, 0.725235
1528.35, 0.725861
1528.8, 0.726801
1529.25, 0.727010
1529.7, 0.727114
1530.15, 0.727427
1530.6, 0.727531
1531.05, 0.727427
1531.51, 0.727636
1531.96, 0.727949
1532.41, 0.728680
1532.87, 0.729097
1533.32, 0.729724
1533.77, 0.730037
1534.23, 0.730767
1534.68, 0.732229
1535.14, 0.732959
1535.59, 0.733168
1536.05, 0.734421
1536.5, 0.735151
1536.96, 0.736300
1537.41, 0.738074
1537.87, 0.738596
1538.32, 0.739222
1538.78, 0.740475
1539.24, 0.741205
1539.7, 0.742354
1540.15, 0.743502
1540.61, 0.744546
1541.07, 0.745276
1541.53, 0.746216
1541.98, 0.747364
1542.44, 0.747886
1542.9, 0.748721
1543.36, 0.749973
1543.82, 0.750913
1544.28, 0.751643
1544.74, 0.752583
1545.2, 0.752792
1545.66, 0.753105
1546.12, 0.753835
1546.59, 0.754253
1547.05, 0.754566
1547.51, 0.755401
1547.97, 0.756132
1548.43, 0.756341
1548.9, 0.756341
1549.36, 0.756654
1549.82, 0.757489
1550.29, 0.758950
1550.75, 0.758950
1551.21, 0.759263
1551.68, 0.760933
1552.14, 0.761351
1552.61, 0.761664
1553.07, 0.762082
1553.54, 0.763021
1554.0, 0.763647
1554.47, 0.763334
1554.93, 0.764065
1555.4, 0.764691
1555.87, 0.765317
1556.34, 0.766257
1556.8, 0.767301
1557.27, 0.768240
1557.74, 0.768971
1558.21, 0.769284
1558.68, 0.769910
1559.14, 0.770641
1559.61, 0.771163
1560.08, 0.771789
1560.55, 0.772311
1561.02, 0.772520
1561.49, 0.773041
1561.96, 0.774190
1562.43, 0.775547
1562.9, 0.776382
1563.38, 0.776277
1563.85, 0.776486
1564.32, 0.776904
1564.79, 0.777217
1565.26, 0.777843
1565.74, 0.778260
1566.21, 0.778574
1566.68, 0.779409
1567.16, 0.779931
1567.63, 0.780870
1568.1, 0.781809
1568.58, 0.782018
1569.05, 0.781914
1569.53, 0.782331
1570.0, 0.782749
1570.48, 0.783062
1570.96, 0.782853
1571.43, 0.782853
1571.91, 0.783897
1572.39, 0.785045
1572.86, 0.784941
1573.34, 0.784836
1573.82, 0.785567
1574.3, 0.785880
1574.77, 0.785567
1575.25, 0.786298
1575.73, 0.787133
1576.21, 0.787655
1576.69, 0.788281
1577.17, 0.788907
1577.65, 0.789220
1578.13, 0.790055
1578.61, 0.790682
1579.09, 0.790890
1579.57, 0.791099
1580.05, 0.792247
1580.54, 0.792769
1581.02, 0.792561
1581.5, 0.792978
1581.98, 0.793918
1582.47, 0.794544
1582.95, 0.794753
1583.43, 0.795066
1583.92, 0.795692
1584.4, 0.796005
1584.88, 0.796527
1585.37, 0.796944
1585.85, 0.797362
1586.34, 0.797884
1586.82, 0.798406
1587.31, 0.799032
1587.8, 0.799032
1588.28, 0.798615
1588.77, 0.799241
1589.26, 0.799763
1589.74, 0.799972
1590.23, 0.800807
1590.72, 0.801120
1591.21, 0.802059
1591.7, 0.802268
1592.19, 0.802164
1592.67, 0.802164
1593.16, 0.802581
1593.65, 0.802999
1594.14, 0.803834
1594.63, 0.804460
1595.12, 0.804877
1595.61, 0.805086
1596.11, 0.805086
1596.6, 0.805295
1597.09, 0.805295
1597.58, 0.806026
1598.08, 0.806548
1598.57, 0.806339
1599.06, 0.806339
1599.55, 0.807487
1600.05, 0.808844
1600.54, 0.809366
1601.04, 0.809575
1601.53, 0.809157
1602.03, 0.809261
1602.52, 0.809575
1603.02, 0.809888
1603.51, 0.810305
1604.01, 0.811036
1604.5, 0.811662
1605.0, 0.812080
1605.5, 0.812602
1606.0, 0.812602
1606.49, 0.812706
1606.99, 0.812915
1607.49, 0.813332
1607.99, 0.814063
1608.49, 0.814585
1608.99, 0.814167
1609.49, 0.813959
1609.99, 0.814794
1610.49, 0.815942
1610.99, 0.815837
1611.49, 0.815211
1611.99, 0.815524
1612.49, 0.816464
1612.99, 0.816777
1613.49, 0.817403
1614.0, 0.817821
1614.5, 0.817612
1615.0, 0.817925
1615.51, 0.818343
1616.01, 0.818447
1616.51, 0.819073
1617.02, 0.819491
1617.52, 0.820117
1618.03, 0.820221
1618.53, 0.820117
1619.04, 0.820221
1619.54, 0.820952
1620.05, 0.821578
1620.55, 0.821891
1621.06, 0.822309
1621.57, 0.823248
1622.08, 0.823561
1622.58, 0.823666
1623.09, 0.823875
1623.6, 0.824083
1624.11, 0.824397
1624.62, 0.824919
1625.13, 0.825127
1625.64, 0.825127
1626.15, 0.825232
1626.66, 0.825754
1627.17, 0.825754
1627.68, 0.826275
1628.19, 0.827110
1628.7, 0.827215
1629.21, 0.827528
1629.72, 0.828467
1630.24, 0.828259
1630.75, 0.828259
1631.26, 0.828572
1631.78, 0.829407
1632.29, 0.829511
1632.8, 0.829616
1633.32, 0.829824
1633.83, 0.830138
1634.35, 0.829616
1634.86, 0.829616
1635.38, 0.830346
1635.9, 0.831286
1636.41, 0.832225
1636.93, 0.832538
1637.45, 0.831808
1637.96, 0.832225
1638.48, 0.832643
1639.0, 0.832643
1639.52, 0.832747
1640.04, 0.833478
1640.56, 0.833478
1641.08, 0.833269
1641.59, 0.833582
1642.11, 0.833791
1642.63, 0.833687
1643.16, 0.834208
1643.68, 0.834939
1644.2, 0.835043
1644.72, 0.835252
1645.24, 0.835148
1645.76, 0.834939
1646.29, 0.835043
1646.81, 0.835148
1647.33, 0.834626
1647.86, 0.834835
1648.38, 0.835148
1648.9, 0.835565
1649.43, 0.835774
1649.95, 0.836087
1650.48, 0.835983
1651.0, 0.836296
1651.53, 0.836609
1652.06, 0.836400
1652.58, 0.836296
1653.11, 0.836192
1653.64, 0.836609
1654.17, 0.836922
1654.69, 0.837131
1655.22, 0.836818
1655.75, 0.836505
1656.28, 0.836609
1656.81, 0.836609
1657.34, 0.836818
1657.87, 0.836505
1658.4, 0.836505
1658.93, 0.837131
1659.46, 0.837757
1659.99, 0.837966
1660.52, 0.837444
1661.05, 0.837340
1661.59, 0.837444
1662.12, 0.837966
1662.65, 0.838592
1663.19, 0.838488
1663.72, 0.838488
1664.26, 0.838697
1664.79, 0.838697
1665.32, 0.839010
1665.86, 0.839219
1666.39, 0.838801
1666.93, 0.838592
1667.47, 0.838801
1668.0, 0.838906
1668.54, 0.839114
1669.08, 0.839323
1669.61, 0.839532
1670.15, 0.839219
1670.69, 0.839010
1671.23, 0.839323
1671.77, 0.839532
1672.31, 0.839741
1672.85, 0.839532
1673.39, 0.839427
1673.93, 0.839427
1674.47, 0.839741
1675.01, 0.839845
1675.55, 0.840054
1676.09, 0.839949
1676.64, 0.840680
1677.18, 0.840680
1677.72, 0.840576
1678.26, 0.840471
1678.81, 0.840054
1679.35, 0.840784
1679.89, 0.841202
1680.44, 0.841306
1680.98, 0.841306
1681.53, 0.841724
1682.07, 0.842141
1682.62, 0.841828
1683.17, 0.841515
1683.71, 0.841828
1684.26, 0.842141
1684.81, 0.842246
1685.36, 0.842141
1685.9, 0.842559
1686.45, 0.842768
1687.0, 0.842454
1687.55, 0.842454
1688.1, 0.842976
1688.65, 0.842976
1689.2, 0.842872
1689.75, 0.843289
1690.3, 0.843394
1690.85, 0.843289
1691.41, 0.843498
1691.96, 0.843603
1692.51, 0.843603
1693.06, 0.844020
1693.61, 0.844751
1694.17, 0.844960
1694.72, 0.844333
1695.28, 0.844646
1695.83, 0.845273
1696.39, 0.845273
1696.94, 0.844960
1697.5, 0.844960
1698.05, 0.846003
1698.61, 0.846317
1699.17, 0.846108
1699.72, 0.846003
1700.28, 0.846108
1700.84, 0.846317
1701.4, 0.846108
1701.95, 0.846212
1702.51, 0.846108
1703.07, 0.845899
1703.63, 0.845899
1704.19, 0.846003
1704.75, 0.846212
1705.31, 0.846212
1705.88, 0.846525
1706.44, 0.846630
1707.0, 0.846630
1707.56, 0.846943
1708.12, 0.847152
1708.69, 0.846943
1709.25, 0.846317
1709.81, 0.846003
1710.38, 0.846108
1710.94, 0.846212
1711.51, 0.846421
1712.07, 0.846838
1712.64, 0.846734
1713.2, 0.846630
1713.77, 0.846525
1714.34, 0.846317
1714.9, 0.846525
1715.47, 0.846421
1716.04, 0.846421
1716.61, 0.846108
1717.18, 0.846003
1717.74, 0.846317
1718.31, 0.846525
1718.88, 0.846212
1719.45, 0.846212
1720.02, 0.845899
1720.59, 0.845273
1721.17, 0.844438
1721.74, 0.844438
1722.31, 0.844751
1722.88, 0.845064
1723.45, 0.845482
1724.03, 0.845690
1724.6, 0.845377
1725.18, 0.845586
1725.75, 0.845168
1726.33, 0.844646
1726.9, 0.844542
1727.48, 0.844124
1728.05, 0.843916
1728.63, 0.843811
1729.2, 0.843185
1729.78, 0.842872
1730.36, 0.843394
1730.94, 0.843707
1731.51, 0.843185
1732.09, 0.843081
1732.67, 0.842663
1733.25, 0.842663
1733.83, 0.842976
1734.41, 0.842976
1734.99, 0.842768
1735.57, 0.842246
1736.15, 0.841933
1736.73, 0.842037
1737.32, 0.842141
1737.9, 0.841828
1738.48, 0.841411
1739.07, 0.840889
1739.65, 0.840784
1740.23, 0.841097
1740.82, 0.840784
1741.4, 0.840367
1741.99, 0.840367
1742.57, 0.840367
1743.16, 0.840262
1743.74, 0.840262
1744.33, 0.839636
1744.92, 0.839427
1745.51, 0.839114
1746.09, 0.839219
1746.68, 0.839323
1747.27, 0.839323
1747.86, 0.838697
1748.45, 0.837862
1749.04, 0.837862
1749.63, 0.838175
1750.22, 0.838070
1750.81, 0.837653
1751.4, 0.837444
1751.99, 0.837340
1752.59, 0.836818
1753.18, 0.836505
1753.77, 0.836400
1754.37, 0.836609
1754.96, 0.836713
1755.56, 0.836296
1756.15, 0.835774
1756.74, 0.835670
1757.34, 0.834939
1757.94, 0.834522
1758.53, 0.834835
1759.13, 0.835252
1759.73, 0.834835
1760.32, 0.834522
1760.92, 0.834730
1761.52, 0.834417
1762.12, 0.833895
1762.72, 0.834208
1763.32, 0.834208
1763.92, 0.834313
1764.52, 0.834208
1765.12, 0.833791
1765.72, 0.833478
1766.32, 0.833478
1766.92, 0.833478
1767.53, 0.833269
1768.13, 0.833373
1768.73, 0.833582
1769.34, 0.833269
1769.94, 0.833373
1770.55, 0.833269
1771.15, 0.832643
1771.76, 0.832643
1772.36, 0.832747
1772.97, 0.832538
1773.57, 0.832225
1774.18, 0.831912
1774.79, 0.832330
1775.4, 0.832747
1776.0, 0.832538
1776.61, 0.832016
1777.22, 0.831912
1777.83, 0.831703
1778.44, 0.831286
1779.05, 0.830868
1779.66, 0.830659
1780.27, 0.830555
1780.88, 0.830659
1781.5, 0.830451
1782.11, 0.830346
1782.72, 0.830346
1783.33, 0.830033
1783.95, 0.829720
1784.56, 0.829407
1785.18, 0.829302
1785.79, 0.829302
1786.41, 0.829094
1787.02, 0.828781
1787.64, 0.828885
1788.26, 0.828259
1788.87, 0.827841
1789.49, 0.827528
1790.11, 0.827110
1790.73, 0.827006
1791.35, 0.827319
1791.96, 0.827110
1792.58, 0.826797
1793.21, 0.826589
1793.83, 0.825962
1794.45, 0.825649
1795.07, 0.825545
1795.69, 0.825127
1796.31, 0.824814
1796.93, 0.824501
1797.56, 0.824188
1798.18, 0.823666
1798.8, 0.823353
1799.43, 0.823353
1800.05, 0.822935
1800.68, 0.822726
1801.3, 0.822413
1801.93, 0.822205
1802.56, 0.821683
1803.18, 0.820743
1803.81, 0.819804
1804.44, 0.819073
1805.07, 0.818864
1805.7, 0.818134
1806.33, 0.817299
1806.95, 0.817090
1807.58, 0.816046
1808.22, 0.814480
1808.85, 0.813854
1809.48, 0.813959
1810.11, 0.813541
1810.74, 0.812393
1811.38, 0.811036
1812.01, 0.810097
1812.64, 0.809679
1813.28, 0.809366
1813.91, 0.808635
1814.55, 0.807800
1815.18, 0.807069
1815.82, 0.806548
1816.45, 0.805921
1817.09, 0.805399
1817.73, 0.804773
1818.36, 0.804460
1819.0, 0.804147
1819.64, 0.803312
1820.28, 0.802268
1820.92, 0.802164
1821.56, 0.801746
1822.2, 0.801537
1822.84, 0.801537
1823.48, 0.801746
1824.12, 0.801329
1824.76, 0.800180
1825.41, 0.799137
1826.05, 0.798823
1826.69, 0.798510
1827.34, 0.797571
1827.98, 0.796527
1828.63, 0.795588
1829.27, 0.794335
1829.92, 0.792456
1830.56, 0.790577
1831.21, 0.788803
1831.86, 0.786611
1832.5, 0.783897
1833.15, 0.781392
1833.8, 0.778574
1834.45, 0.775233
1835.1, 0.771684
1835.75, 0.768136
1836.4, 0.765422
1837.05, 0.762186
1837.7, 0.758428
1838.35, 0.755192
1839.01, 0.751330
1839.66, 0.747051
1840.31, 0.743815
1840.96, 0.740162
1841.62, 0.735778
1842.27, 0.732333
1842.93, 0.728784
1843.58, 0.724609
1844.24, 0.720956
1844.9, 0.716989
1845.55, 0.713231
1846.21, 0.709474
1846.87, 0.706238
1847.53, 0.704046
1848.18, 0.702793
1848.84, 0.701854
1849.5, 0.701019
1850.16, 0.701228
1850.82, 0.702272
1851.48, 0.703942
1852.14, 0.705925
1852.81, 0.708326
1853.47, 0.710831
1854.13, 0.713545
1854.8, 0.716780
1855.46, 0.719181
1856.12, 0.720121
1856.79, 0.720434
1857.45, 0.720642
1858.12, 0.720329
1858.79, 0.719285
1859.45, 0.717198
1860.12, 0.715528
1860.79, 0.715006
1861.46, 0.714797
1862.12, 0.714275
1862.79, 0.713858
1863.46, 0.713962
1864.13, 0.714797
1864.8, 0.716363
1865.48, 0.718346
1866.15, 0.720121
1866.82, 0.722313
1867.49, 0.725026
1868.16, 0.728575
1868.84, 0.732333
1869.51, 0.735882
1870.19, 0.739744
1870.86, 0.744441
1871.54, 0.749347
1872.21, 0.753209
1872.89, 0.757071
1873.56, 0.761560
1874.24, 0.765526
1874.92, 0.768553
1875.6, 0.771058
1876.28, 0.772937
1876.96, 0.774503
1877.64, 0.776173
1878.32, 0.776904
1879.0, 0.777112
1879.68, 0.777739
1880.36, 0.777843
1881.04, 0.777425
1881.73, 0.777425
1882.41, 0.777112
1883.09, 0.776695
1883.78, 0.775755
1884.46, 0.775442
1885.15, 0.774607
1885.83, 0.773459
1886.52, 0.772311
1887.21, 0.771476
1887.89, 0.770014
1888.58, 0.768449
1889.27, 0.766883
1889.96, 0.764900
1890.65, 0.762917
1891.34, 0.760933
1892.03, 0.759054
1892.72, 0.756654
1893.41, 0.754149
1894.1, 0.751852
1894.79, 0.749452
1895.49, 0.747364
1896.18, 0.744859
1896.87, 0.742354
1897.57, 0.739848
1898.26, 0.737552
1898.96, 0.734838
1899.65, 0.732542
1900.35, 0.730663
1901.05, 0.728471
1901.74, 0.726175
1902.44, 0.723774
1903.14, 0.721999
1903.84, 0.720225
1904.54, 0.718242
1905.24, 0.716572
1905.94, 0.714797
1906.64, 0.712605
1907.34, 0.711248
1908.04, 0.710309
1908.75, 0.708743
1909.45, 0.706969
1910.15, 0.704985
1910.86, 0.703942
1911.56, 0.703524
1912.27, 0.703002
1912.97, 0.701541
1913.68, 0.700288
1914.39, 0.699975
1915.09, 0.699558
1915.8, 0.698827
1916.51, 0.698514
1917.22, 0.698201
1917.93, 0.697470
1918.64, 0.696531
1919.35, 0.695696
1920.06, 0.695487
1920.77, 0.695487
1921.48, 0.695487
1922.19, 0.695174
1922.91, 0.695069
1923.62, 0.695174
1924.33, 0.695591
1925.05, 0.695487
1925.76, 0.695487
1926.48, 0.695278
1927.19, 0.695382
1927.91, 0.695591
1928.63, 0.695696
1929.35, 0.695904
1930.07, 0.696009
1930.78, 0.695904
1931.5, 0.695904
1932.22, 0.696113
1932.94, 0.696426
1933.66, 0.696844
1934.39, 0.697261
1935.11, 0.697992
1935.83, 0.698514
1936.55, 0.698827
1937.28, 0.698931
1938.0, 0.699140
1938.73, 0.699349
1939.45, 0.699975
1940.18, 0.700706
1940.9, 0.700706
1941.63, 0.700915
1942.36, 0.701123
1943.09, 0.701645
1943.81, 0.702689
1944.54, 0.703002
1945.27, 0.702898
1946.0, 0.703628
1946.73, 0.704463
1947.47, 0.704881
1948.2, 0.704881
1948.93, 0.704985
1949.66, 0.705820
1950.4, 0.706551
1951.13, 0.706655
1951.86, 0.706864
1952.6, 0.707177
1953.34, 0.707282
1954.07, 0.707699
1954.81, 0.708012
1955.55, 0.708117
1956.29, 0.708326
1957.02, 0.708639
1957.76, 0.708848
1958.5, 0.708848
1959.24, 0.708743
1959.98, 0.709056
1960.72, 0.709578
1961.47, 0.710100
1962.21, 0.710622
1962.95, 0.711144
1963.7, 0.711144
1964.44, 0.710935
1965.18, 0.711144
1965.93, 0.711248
1966.67, 0.711561
1967.42, 0.711874
1968.17, 0.712396
1968.92, 0.712814
1969.66, 0.712710
1970.41, 0.712605
1971.16, 0.713127
1971.91, 0.713545
1972.66, 0.713649
1973.41, 0.714171
1974.16, 0.714693
1974.92, 0.715319
1975.67, 0.715737
1976.42, 0.715945
1977.18, 0.716258
1977.93, 0.716885
1978.69, 0.717615
1979.44, 0.718137
1980.2, 0.718450
1980.95, 0.718450
1981.71, 0.718764
1982.47, 0.719181
1983.23, 0.719181
1983.99, 0.719077
1984.74, 0.719181
1985.51, 0.719599
1986.27, 0.719703
1987.03, 0.720016
1987.79, 0.720225
1988.55, 0.720538
1989.32, 0.720538
1990.08, 0.720329
1990.84, 0.720329
1991.61, 0.720434
1992.37, 0.720434
1993.14, 0.720642
1993.9, 0.720642
1994.67, 0.720747
1995.44, 0.720851
1996.21, 0.720851
1996.98, 0.720747
1997.75, 0.720851
1998.52, 0.721164
1999.29, 0.721478
2000.06, 0.721373
2000.83, 0.721269
2001.6, 0.721269
2002.38, 0.721478
2003.15, 0.721791
2003.93, 0.721791
2004.7, 0.721582
2005.48, 0.721791
2006.25, 0.722104
2007.03, 0.721999
2007.81, 0.721895
2008.58, 0.721999
2009.36, 0.722417
2010.14, 0.722939
2010.92, 0.723043
2011.7, 0.722834
2012.48, 0.723252
2013.26, 0.723356
2014.05, 0.723356
2014.83, 0.723774
2015.61, 0.724400
2016.4, 0.724505
2017.18, 0.723878
2017.97, 0.723670
2018.75, 0.723670
2019.54, 0.723878
2020.32, 0.724191
2021.11, 0.723878
2021.9, 0.723565
2022.69, 0.723356
2023.48, 0.722939
2024.27, 0.723148
2025.06, 0.722939
2025.85, 0.722521
2026.64, 0.721999
2027.44, 0.721582
2028.23, 0.721582
2029.02, 0.721269
2029.82, 0.720747
2030.61, 0.720434
2031.41, 0.720225
2032.2, 0.719912
2033.0, 0.719599
2033.8, 0.719077
2034.6, 0.718450
2035.4, 0.718137
2036.2, 0.717615
2037.0, 0.717302
2037.8, 0.717198
2038.6, 0.716885
2039.4, 0.716258
2040.2, 0.715632
2041.01, 0.715528
2041.81, 0.715423
2042.61, 0.715110
2043.42, 0.715110
2044.22, 0.715215
2045.03, 0.714693
2045.84, 0.713962
2046.65, 0.713649
2047.46, 0.713649
2048.26, 0.713545
2049.07, 0.713023
2049.88, 0.712501
2050.69, 0.712292
2051.51, 0.712396
2052.32, 0.711979
2053.13, 0.711144
2053.94, 0.710935
2054.76, 0.710518
2055.57, 0.710100
2056.39, 0.709683
2057.2, 0.709474
2058.02, 0.709265
2058.84, 0.709056
2059.66, 0.708117
2060.48, 0.707386
2061.29, 0.706760
2062.11, 0.706238
2062.94, 0.705716
2063.76, 0.705403
2064.58, 0.704777
2065.4, 0.704568
2066.22, 0.703942
2067.05, 0.703315
2067.87, 0.702480
2068.7, 0.701750
2069.52, 0.701228
2070.35, 0.700915
2071.18, 0.700184
2072.0, 0.699453
2072.83, 0.699140
2073.66, 0.698409
2074.49, 0.697574
2075.32, 0.697157
2076.15, 0.696844
2076.98, 0.696948
2077.82, 0.696739
2078.65, 0.696113
2079.48, 0.695800
2080.32, 0.695174
2081.15, 0.694547
2081.99, 0.694234
2082.83, 0.694339
2083.66, 0.694234
2084.5, 0.694025
2085.34, 0.694025
2086.18, 0.693921
2087.02, 0.693921
2087.86, 0.693608
2088.7, 0.693086
2089.54, 0.692773
2090.39, 0.692564
2091.23, 0.692355
2092.07, 0.691625
2092.92, 0.691207
2093.76, 0.690581
2094.61, 0.689850
2095.45, 0.689224
2096.3, 0.688911
2097.15, 0.688389
2098.0, 0.687658
2098.85, 0.686928
2099.7, 0.686510
2100.55, 0.685884
2101.4, 0.685153
2102.25, 0.684527
2103.1, 0.683901
2103.96, 0.683170
2104.81, 0.682752
2105.67, 0.682022
2106.52, 0.681187
2107.38, 0.680247
2108.24, 0.679725
2109.09, 0.679203
2109.95, 0.678681
2110.81, 0.678264
2111.67, 0.677533
2112.53, 0.677220
2113.39, 0.676907
2114.25, 0.676385
2115.12, 0.675655
2115.98, 0.675237
2116.84, 0.674611
2117.71, 0.674089
2118.58, 0.673671
2119.44, 0.673045
2120.31, 0.672627
2121.18, 0.672314
2122.04, 0.671688
2122.91, 0.670749
2123.78, 0.669809
2124.65, 0.669287
2125.52, 0.668661
2126.4, 0.667930
2127.27, 0.667095
2128.14, 0.666469
2129.02, 0.665947
2129.89, 0.665008
2130.77, 0.663859
2131.64, 0.663233
2132.52, 0.662920
2133.4, 0.661876
2134.27, 0.660832
2135.15, 0.660102
2136.03, 0.659580
2136.91, 0.659371
2137.79, 0.658536
2138.68, 0.657597
2139.56, 0.656970
2140.44, 0.656031
2141.33, 0.655405
2142.21, 0.654883
2143.1, 0.654048
2143.99, 0.653213
2144.87, 0.652795
2145.76, 0.652065
2146.65, 0.651021
2147.54, 0.650186
2148.43, 0.649455
2149.32, 0.648724
2150.21, 0.647889
2151.1, 0.646950
2151.99, 0.646115
2152.89, 0.644967
2153.78, 0.643923
2154.68, 0.643088
2155.57, 0.642044
2156.47, 0.641313
2157.37, 0.640583
2158.27, 0.639435
2159.16, 0.638286
2160.06, 0.637138
2160.96, 0.635990
2161.86, 0.635155
2162.77, 0.634633
2163.67, 0.633380
2164.57, 0.631919
2165.48, 0.630980
2166.38, 0.629831
2167.29, 0.628683
2168.2, 0.627848
2169.1, 0.626596
2170.01, 0.625343
2170.92, 0.623986
2171.83, 0.622838
2172.74, 0.621690
2173.65, 0.620855
2174.56, 0.619915
2175.47, 0.618454
2176.39, 0.617410
2177.3, 0.616262
2178.22, 0.614905
2179.13, 0.613548
2180.05, 0.612087
2180.96, 0.610312
2181.88, 0.608538
2182.8, 0.607077
2183.72, 0.605511
2184.64, 0.603736
2185.56, 0.601544
2186.48, 0.599457
2187.41, 0.597891
2188.33, 0.596221
2189.25, 0.594655
2190.18, 0.592568
2191.1, 0.590167
2192.03, 0.588288
2192.96, 0.586096
2193.89, 0.584322
2194.82, 0.582547
2195.74, 0.580773
2196.68, 0.578685
2197.61, 0.576702
2198.54, 0.575241
2199.47, 0.573884
2200.4, 0.572213
2201.34, 0.570439
2202.28, 0.568456
2203.21, 0.566577
2204.15, 0.564698
2205.08, 0.562715
2206.02, 0.560418
2206.96, 0.558853
2207.9, 0.558122
2208.84, 0.557287
2209.78, 0.556139
2210.73, 0.555930
2211.67, 0.556139
2212.61, 0.556348
2213.56, 0.556348
2214.5, 0.556452
2215.45, 0.557078
2216.4, 0.557809
2217.35, 0.558122
2218.3, 0.558227
2219.24, 0.558331
2220.2, 0.557913
2221.15, 0.558122
2222.1, 0.558018
2223.05, 0.557600
2224.0, 0.557809
2224.96, 0.557705
2225.91, 0.557600
2226.87, 0.557809
2227.83, 0.558540
2228.79, 0.559688
2229.74, 0.560732
2230.7, 0.561984
2231.66, 0.563863
2232.63, 0.565324
2233.59, 0.566473
2234.55, 0.566786
2235.51, 0.566681
2236.48, 0.566368
2237.44, 0.565742
2238.41, 0.565257
2239.38, 0.563221
2240.34, 0.562058
2241.31, 0.562737
2242.28, 0.562543
2243.25, 0.561961
2244.22, 0.560701
2245.19, 0.558956
2246.17, 0.555757
2247.14, 0.550619
2248.12, 0.545191
2249.09, 0.538211
2250.07, 0.529777
2251.04, 0.520471
2252.02, 0.509614
2253.0, 0.500113
2253.98, 0.491001
2254.96, 0.480532
2255.94, 0.472195
2256.92, 0.465506
2257.91, 0.458914
2258.89, 0.452904
2259.88, 0.448348
2260.86, 0.444082
2261.85, 0.441077
2262.83, 0.438944
2263.82, 0.438072
2264.81, 0.438847
2265.8, 0.440398
2266.79, 0.442725
2267.78, 0.446312
2268.78, 0.449608
2269.77, 0.452419
2270.76, 0.454842
2271.76, 0.457945
2272.75, 0.459980
2273.75, 0.461047
2274.75, 0.462695
2275.75, 0.465215
2276.75, 0.469480
2277.75, 0.476460
2278.75, 0.485863
2279.75, 0.497593
2280.75, 0.511262
2281.76, 0.526093
2282.76, 0.539471
2283.77, 0.550425
2284.77, 0.558665
2285.78, 0.565257
2286.79, 0.571267
2287.8, 0.575533
2288.81, 0.577665
2289.82, 0.577956
2290.83, 0.576502
2291.84, 0.573303
2292.86, 0.568553
2293.87, 0.562931
2294.89, 0.557017
2295.91, 0.550619
2296.92, 0.545481
2297.94, 0.542961
2298.96, 0.543446
2299.98, 0.547129
2301.0, 0.552267
2302.02, 0.560216
2303.04, 0.570492
2304.07, 0.580671
2305.09, 0.590365
2306.12, 0.599477
2307.15, 0.606844
2308.17, 0.613630
2309.2, 0.619253
2310.23, 0.623809
2311.26, 0.627396
2312.29, 0.630498
2313.32, 0.632630
2314.35, 0.634181
2315.39, 0.635732
2316.42, 0.637187
2317.46, 0.639028
2318.5, 0.641161
2319.53, 0.642518
2320.57, 0.643488
2321.61, 0.643875
2322.65, 0.644942
2323.69, 0.645911
2324.73, 0.646590
2325.78, 0.647171
2326.82, 0.647268
2327.86, 0.647850
2328.91, 0.648432
2329.96, 0.648044
2331.01, 0.648529
2332.05, 0.648722
2333.1, 0.648335
2334.15, 0.648916
2335.21, 0.648432
2336.26, 0.648044
2337.31, 0.647753
2338.36, 0.646881
2339.42, 0.647171
2340.48, 0.646978
2341.53, 0.645911
2342.59, 0.645039
2343.65, 0.644554
2344.71, 0.643779
2345.77, 0.642615
2346.83, 0.642034
2347.9, 0.641549
2348.96, 0.640095
2350.02, 0.638835
2351.09, 0.637865
2352.16, 0.636508
2353.23, 0.635248
2354.29, 0.634666
2355.36, 0.633697
2356.43, 0.633212
2357.51, 0.632340
2358.58, 0.631467
2359.65, 0.629431
2360.73, 0.627687
2361.8, 0.626329
2362.88, 0.624488
2363.96, 0.623033
2365.03, 0.621482
2366.11, 0.619350
2367.19, 0.617217
2368.27, 0.615084
2369.36, 0.613339
2370.44, 0.611788
2371.53, 0.609753
2372.61, 0.607329
2373.7, 0.604033
2374.78, 0.601416
2375.87, 0.598992
2376.96, 0.595890
2378.05, 0.592982
2379.14, 0.589395
2380.24, 0.585808
2381.33, 0.582125
2382.42, 0.578150
2383.52, 0.574660
2384.61, 0.571558
2385.71, 0.567293
2386.81, 0.563609
2387.91, 0.559635
2389.01, 0.556048
2390.11, 0.552655
2391.22, 0.549456
2392.32, 0.546548
2393.42, 0.543349
2394.53, 0.539859
2395.64, 0.536854
2396.74, 0.534721
2397.85, 0.532782
2398.96, 0.530650
2400.07, 0.528323
2401.18, 0.526675
2402.3, 0.525124
2403.41, 0.523573
2404.52, 0.522119
2405.64, 0.520956
2406.76, 0.520568
2407.88, 0.520471
2408.99, 0.520665
2410.11, 0.521537
2411.23, 0.523379
2412.36, 0.524639
2413.48, 0.525899
2414.6, 0.527547
2415.73, 0.529971
2416.85, 0.531716
2417.98, 0.533655
2419.11, 0.535400
2420.24, 0.537338
2421.37, 0.539083
2422.5, 0.540537
2423.64, 0.542088
2424.77, 0.542573
2425.9, 0.542282
2427.04, 0.542670
2428.18, 0.542767
2429.31, 0.542864
2430.45, 0.542379
2431.59, 0.541410
2432.73, 0.539568
2433.88, 0.537048
2435.02, 0.534818
2436.16, 0.533267
2437.31, 0.530747
2438.45, 0.528129
2439.6, 0.525124
2440.75, 0.521537
2441.9, 0.517563
2443.05, 0.513200
2444.2, 0.507869
2445.35, 0.502537
2446.51, 0.497205
2447.67, 0.491971
2448.82, 0.487027
2449.98, 0.481404
2451.14, 0.474909
2452.3, 0.469771
2453.46, 0.465603
2454.62, 0.461919
2455.78, 0.458429
2456.94, 0.455715
2458.11, 0.454067
2459.28, 0.453679
2460.44, 0.454164
2461.61, 0.455230
2462.78, 0.456200
2463.95, 0.456587
2465.12, 0.456297
2466.3, 0.457557
2467.47, 0.459399
2468.65, 0.460174
2469.82, 0.461725
2471.0, 0.462404
2472.18, 0.462113
2473.36, 0.462210
2474.54, 0.462695
2475.72, 0.463179
2476.9, 0.463276
2478.08, 0.462985
2479.27, 0.462501
2480.46, 0.461725
2481.64, 0.460659
2482.83, 0.459108
2484.02, 0.456684
2485.21, 0.453873
2486.4, 0.450189
2487.6, 0.445536
2488.79, 0.440495
2489.99, 0.435648
2491.18, 0.430123
2492.38, 0.423725
2493.58, 0.416357
2494.78, 0.408214
2495.98, 0.400071
2497.18, 0.392607
2498.39, 0.387081
2499.59, 0.384270
2500.8, 0.384076
2502.01, 0.386112
2503.21, 0.390668
2504.42, 0.396679
2505.63, 0.403270
2506.84, 0.410056
2508.06, 0.415679
2509.27, 0.419362
2510.49, 0.422465
2511.7, 0.424791
2512.92, 0.426245
2514.14, 0.427699
2515.36, 0.428378
2516.58, 0.427893
2517.8, 0.426439
2519.03, 0.425664
2520.25, 0.425276
2521.48, 0.424016
2522.7, 0.422755
2523.93, 0.421980
2525.16, 0.420720
2526.39, 0.419944
2527.62, 0.419556
2528.86, 0.419556
2530.09, 0.419362
2531.33, 0.418975
2532.56, 0.419265
2533.8, 0.420235
2535.04, 0.419459
2536.28, 0.419169
2537.52, 0.419750
2538.76, 0.420138
2540.01, 0.419459
2541.25, 0.419362
2542.5, 0.419362
2543.75, 0.418878
2544.99, 0.418490
2546.24, 0.418005
2547.49, 0.417133
2548.75, 0.416745
2550.0, 0.415679
2551.26, 0.413740
2552.51, 0.411607
2553.77, 0.410541
2555.03, 0.409087
2556.29, 0.407536
2557.55, 0.405403
2558.81, 0.402592
2560.08, 0.399587
2561.34, 0.396679
2562.61, 0.394352
2563.88, 0.392122
2565.14, 0.390668
2566.41, 0.389602
2567.68, 0.387857
2568.96, 0.385433
2570.23, 0.383495
2571.51, 0.381750
2572.78, 0.378938
2574.06, 0.376709
2575.34, 0.373801
2576.62, 0.370795
2577.9, 0.368663
2579.18, 0.365367
2580.47, 0.360617
2581.75, 0.356255
2583.04, 0.351407
2584.32, 0.347045
2585.61, 0.342392
2586.9, 0.336576
2588.2, 0.331438
2589.49, 0.327172
2590.78, 0.323101
2592.08, 0.318739
2593.37, 0.313601
2594.67, 0.309723
2595.97, 0.309433
2597.27, 0.308754
2598.57, 0.307688
2599.88, 0.306040
2601.18, 0.304004
2602.49, 0.302647
2603.79, 0.301483
2605.1, 0.300902
2606.41, 0.301580
2607.72, 0.302841
2609.03, 0.304489
2610.35, 0.306524
2611.66, 0.308366
2612.98, 0.309336
2614.3, 0.309529
2615.62, 0.307881
2616.94, 0.306136
2618.26, 0.304779
2619.58, 0.302550
2620.91, 0.301677
2622.23, 0.301580
2623.56, 0.300999
2624.89, 0.301774
2626.22, 0.303228
2627.55, 0.306718
2628.88, 0.309336
2630.21, 0.312825
2631.55, 0.318254
2632.89, 0.322713
2634.22, 0.326882
2635.56, 0.330565
2636.9, 0.334249
2638.25, 0.337836
2639.59, 0.340162
2640.93, 0.341520
2642.28, 0.342295
2643.63, 0.342586
2644.98, 0.342004
2646.33, 0.341907
2647.68, 0.341810
2649.03, 0.341035
2650.39, 0.339678
2651.74, 0.338418
2653.1, 0.338127
2654.46, 0.338030
2655.82, 0.338902
2657.18, 0.340647
2658.54, 0.341132
2659.9, 0.341810
2661.27, 0.342974
2662.64, 0.343555
2664.01, 0.342198
2665.38, 0.341229
2666.74, 0.341326
2668.12, 0.342295
2669.49, 0.341423
2670.87, 0.342586
2672.24, 0.344816
2673.62, 0.345397
2675.0, 0.346173
2676.38, 0.347530
2677.76, 0.350050
2679.15, 0.352668
2680.54, 0.355576
2681.92, 0.356933
2683.31, 0.357321
2684.7, 0.357902
2686.09, 0.357709
2687.48, 0.356545
2688.88, 0.354994
2690.27, 0.352765
2691.67, 0.349469
2693.07, 0.345106
2694.47, 0.341907
2695.87, 0.339484
2697.27, 0.336770
2698.67, 0.332698
2700.08, 0.328336
2701.49, 0.323973
2702.9, 0.320193
2704.31, 0.316509
2705.72, 0.312535
2707.13, 0.307785
2708.54, 0.302744
2709.96, 0.297897
2711.38, 0.293728
2712.8, 0.289366
2714.22, 0.284034
2715.64, 0.278412
2717.06, 0.272208
2718.49, 0.266003
2719.91, 0.259993
2721.34, 0.255146
2722.77, 0.249911
2724.2, 0.243804
2725.63, 0.239248
2727.07, 0.235079
2728.5, 0.230523
2729.94, 0.224998
2731.38, 0.219472
2732.82, 0.214237
2734.26, 0.209100
2735.7, 0.203962
2737.15, 0.198145
2738.59, 0.192329
2740.04, 0.187676
2741.49, 0.183217
2742.94, 0.178854
2744.39, 0.174686
2745.84, 0.170711
2747.3, 0.166349
2748.76, 0.162181
2750.21, 0.158109
2751.67, 0.154232
2753.14, 0.150257
2754.6, 0.145798
2756.06, 0.142017
2757.53, 0.139206
2759.0, 0.135910
2760.46, 0.131935
2761.94, 0.128446
2763.41, 0.126216
2764.88, 0.124083
2766.36, 0.121660
2767.83, 0.119818
2769.31, 0.117879
2770.79, 0.115746
2772.27, 0.114001
2773.76, 0.112063
2775.24, 0.109833
2776.73, 0.107797
2778.22, 0.106246
2779.71, 0.105374
2781.2, 0.104501
2782.69, 0.103338
2784.18, 0.102659
2785.68, 0.102272
2787.18, 0.101690
2788.68, 0.100818
2790.18, 0.100236
2791.68, 0.0994600
2793.19, 0.0984910
2794.69, 0.0972310
2796.2, 0.0963580
2797.71, 0.0951950
2799.22, 0.0936440
2800.73, 0.0917050
2802.24, 0.0899600
2803.76, 0.0883120
2805.28, 0.0867610
2806.8, 0.0847260
2808.32, 0.0824960
2809.84, 0.0800720
2811.36, 0.0778430
2812.89, 0.0752250
2814.42, 0.0725110
2815.94, 0.0703780
2817.48, 0.0680520
2819.01, 0.0654350
2820.54, 0.0635930
2822.08, 0.0621390
2823.61, 0.0605870
2825.15, 0.0592300
2826.69, 0.0577760
2828.23, 0.0566130
2829.78, 0.0561280
2831.32, 0.0555470
2832.87, 0.0544800
2834.42, 0.0536080
2835.97, 0.0528320
2837.52, 0.0519600
2839.08, 0.0509900
2840.63, 0.0497300
2842.19, 0.0483730
2843.75, 0.0474040
2845.31, 0.0465310
2846.87, 0.0450770
2848.44, 0.0433320
2850.0, 0.0418780
2851.57, 0.0406180
2853.14, 0.0392610
2854.71, 0.0378070
2856.28, 0.0366430
2857.86, 0.0351890
2859.43, 0.0334440
2861.01, 0.0316990
2862.59, 0.0299540
2864.17, 0.0281130
2865.76, 0.0261740
2867.34, 0.0244290
2868.93, 0.0226840
2870.52, 0.0211330
2872.11, 0.0201640
2873.7, 0.0193880
2875.29, 0.0190000
2876.89, 0.0186120
2878.49, 0.0183220
2880.08, 0.0182250
2881.69, 0.0179340
2883.29, 0.0176430
2884.89, 0.0168680
2886.5, 0.0161890
2888.11, 0.0158980
2889.72, 0.0157040
2891.33, 0.0154130
2892.94, 0.0152200
2894.56, 0.0149290
2896.17, 0.0148320
2897.79, 0.0148320
2899.42, 0.0146380
2901.04, 0.0143470
2902.66, 0.0135720
2904.29, 0.0134750
2905.92, 0.0134750
2907.55, 0.0128930
2909.18, 0.0121180
2910.81, 0.0113420
2912.45, 0.0108570
2914.08, 0.0101790
2915.72, 0.00940300
2917.36, 0.00901500
2919.01, 0.00853100
2920.65, 0.00833700
2922.3, 0.00814300
2923.94, 0.00785200
2925.59, 0.00814300
2927.25, 0.00833700
2928.9, 0.00853100
2930.56, 0.00882200
2932.21, 0.00872500
2933.87, 0.00862800
2935.53, 0.00862800
2937.2, 0.00843400
2938.86, 0.00891800
2940.53, 0.00959700
2942.2, 0.00988800
2943.87, 0.0101790
2945.54, 0.0109540
2947.22, 0.0120210
2948.89, 0.0130870
2950.57, 0.0139590
2952.25, 0.0142500
2953.93, 0.0144440
2955.62, 0.0147350
2957.3, 0.0152200
2958.99, 0.0161890
2960.68, 0.0175460
2962.37, 0.0188060
2964.07, 0.0200670
2965.76, 0.0215210
2967.46, 0.0228780
2969.16, 0.0241380
2970.86, 0.0253010
2972.56, 0.0265620
2974.27, 0.0275310
2975.98, 0.0281130
2977.69, 0.0285970
2979.4, 0.0288880
2981.11, 0.0294700
2982.83, 0.0301480
2984.54, 0.0301480
2986.26, 0.0301480
2987.98, 0.0301480
2989.71, 0.0302450
2991.43, 0.0301480
2993.16, 0.0298580
2994.89, 0.0294700
2996.62, 0.0292760
2998.35, 0.0292760
3000.09, 0.0291790
3001.83, 0.0297610
3003.57, 0.0299540
3005.31, 0.0296640
3007.05, 0.0295670
3008.79, 0.0295670
3010.54, 0.0291790
3012.29, 0.0289850
3014.04, 0.0288880
3015.8, 0.0289850
3017.55, 0.0291790
3019.31, 0.0295670
3021.07, 0.0303420
3022.83, 0.0311180
3024.59, 0.0322810
3026.36, 0.0334440
3028.13, 0.0338320
3029.9, 0.0342200
3031.67, 0.0350920
3033.44, 0.0360620
3035.22, 0.0370310
3037.0, 0.0380000
3038.78, 0.0389700
3040.56, 0.0400360
3042.34, 0.0411990
3044.13, 0.0423630
3045.92, 0.0436230
3047.71, 0.0448830
3049.5, 0.0458530
3051.3, 0.0466280
3053.09, 0.0474040
3054.89, 0.0480820
3056.69, 0.0487610
3058.5, 0.0495360
3060.3, 0.0499240
3062.11, 0.0499240
3063.92, 0.0498270
3065.73, 0.0500210
3067.55, 0.0503120
3069.36, 0.0504090
3071.18, 0.0504090
3073.0, 0.0503120
3074.82, 0.0501180
3076.65, 0.0506030
3078.48, 0.0512810
3080.31, 0.0517660
3082.14, 0.0516690
3083.97, 0.0515720
3085.8, 0.0515720
3087.64, 0.0517660
3089.48, 0.0522510
3091.33, 0.0523480
3093.17, 0.0521540
3095.02, 0.0521540
3096.87, 0.0523480
3098.72, 0.0525410
3100.57, 0.0532200
3102.43, 0.0538990
3104.28, 0.0547710
3106.14, 0.0562250
3108.01, 0.0579700
3109.87, 0.0597150
3111.74, 0.0609750
3113.61, 0.0620420
3115.48, 0.0630110
3117.35, 0.0634960
3119.23, 0.0640770
3121.1, 0.0648530
3122.98, 0.0650470
3124.87, 0.0650470
3126.75, 0.0650470
3128.64, 0.0651440
3130.53, 0.0652410
3132.42, 0.0652410
3134.31, 0.0651440
3136.21, 0.0647560
3138.11, 0.0642710
3140.01, 0.0637870
3141.91, 0.0634960
3143.82, 0.0630110
3145.73, 0.0628170
3147.64, 0.0630110
3149.55, 0.0628170
3151.46, 0.0625260
3153.38, 0.0624290
3155.3, 0.0629140
3157.22, 0.0638830
3159.14, 0.0645620
3161.07, 0.0653380
3163.0, 0.0664040
3164.93, 0.0671790
3166.86, 0.0677610
3168.8, 0.0682460
3170.74, 0.0690210
3172.68, 0.0697000
3174.62, 0.0706690
3176.56, 0.0720260
3178.51, 0.0730930
3180.46, 0.0739650
3182.42, 0.0749350
3184.37, 0.0760980
3186.33, 0.0768730
3188.29, 0.0777460
3190.25, 0.0788120
3192.21, 0.0796850
3194.18, 0.0804600
3196.15, 0.0813330
3198.12, 0.0821080
3200.09, 0.0827870
3202.07, 0.0834650
3204.05, 0.0838530
3206.03, 0.0845320
3208.02, 0.0855010
3210.0, 0.0860830
3211.99, 0.0866640
3213.98, 0.0871490
3215.98, 0.0874400
3217.97, 0.0875370
3219.97, 0.0875370
3221.97, 0.0876340
3223.98, 0.0878280
3225.98, 0.0882150
3227.99, 0.0883120
3230.0, 0.0883120
3232.02, 0.0887970
3234.03, 0.0892820
3236.05, 0.0896700
3238.07, 0.0901540
3240.1, 0.0906390
3242.12, 0.0910270
3244.15, 0.0915110
3246.18, 0.0916080
3248.22, 0.0921900
3250.25, 0.0930620
3252.29, 0.0935470
3254.33, 0.0941290
3256.38, 0.0948070
3258.43, 0.0955830
3260.47, 0.0964550
3262.53, 0.0973280
3264.58, 0.0982000
3266.64, 0.0989760
3268.7, 0.0999450
3270.76, 0.100818
3272.82, 0.101399
3274.89, 0.102078
3276.96, 0.102563
3279.04, 0.102950
3281.11, 0.103435
3283.19, 0.104114
3285.27, 0.104598
3287.35, 0.104986
3289.44, 0.105374
3291.53, 0.105568
3293.62, 0.105858
3295.71, 0.106246
3297.81, 0.106537
3299.91, 0.106731
3302.01, 0.107216
3304.11, 0.107603
3306.22, 0.107991
3308.33, 0.108573
3310.44, 0.108961
3312.56, 0.109154
3314.68, 0.109348
3316.8, 0.109736
3318.92, 0.110221
3321.05, 0.110609
3323.18, 0.111093
3325.31, 0.111578
3327.44, 0.111966
3329.58, 0.112257
3331.72, 0.112450
3333.86, 0.112741
3336.01, 0.113323
3338.16, 0.113711
3340.31, 0.114195
3342.46, 0.114389
3344.61, 0.114583
3346.77, 0.114680
3348.94, 0.114583
3351.1, 0.114874
3353.27, 0.115456
3355.44, 0.115843
3357.61, 0.115940
3359.79, 0.116134
3361.97, 0.116231
3364.15, 0.116231
3366.33, 0.116522
3368.52, 0.116619
3370.71, 0.116910
3372.9, 0.117200
3375.1, 0.117394
3377.3, 0.117491
3379.5, 0.118073
3381.71, 0.118752
3383.91, 0.118848
3386.12, 0.119139
3388.34, 0.119721
3390.55, 0.119915
3392.77, 0.120109
3394.99, 0.120496
3397.22, 0.120787
3399.45, 0.121272
3401.68, 0.121660
3403.91, 0.121854
3406.15, 0.122047
3408.39, 0.122241
3410.63, 0.122629
3412.87, 0.122920
3415.12, 0.123502
3417.37, 0.124083
3419.63, 0.124471
3421.88, 0.124568
3424.14, 0.124956
3426.41, 0.125440
3428.67, 0.125828
3430.94, 0.125828
3433.21, 0.126216
3435.49, 0.127088
3437.77, 0.127476
3440.05, 0.127767
3442.33, 0.128252
3444.62, 0.128639
3446.91, 0.129124
3449.2, 0.129415
3451.5, 0.129512
3453.8, 0.129803
3456.1, 0.130093
3458.41, 0.130384
3460.72, 0.130772
3463.03, 0.131451
3465.34, 0.132129
3467.66, 0.132323
3469.98, 0.132323
3472.31, 0.132420
3474.63, 0.132905
3476.96, 0.133389
3479.3, 0.133777
3481.64, 0.133874
3483.97, 0.134359
3486.32, 0.134650
3488.66, 0.134940
3491.01, 0.135231
3493.36, 0.135425
3495.72, 0.135716
3498.08, 0.136298
3500.44, 0.136492
3502.81, 0.136685
3505.18, 0.137073
3507.55, 0.137558
3509.92, 0.137752
3512.3, 0.137849
3514.68, 0.138043
3517.06, 0.138527
3519.45, 0.138915
3521.84, 0.139109
3524.24, 0.139400
3526.64, 0.139884
3529.04, 0.140466
3531.44, 0.141145
3533.85, 0.141629
3536.26, 0.142114
3538.67, 0.142502
3541.09, 0.142696
3543.51, 0.142987
3545.93, 0.143568
3548.36, 0.144053
3550.79, 0.144538
3553.22, 0.145119
3555.66, 0.145701
3558.1, 0.146089
3560.54, 0.146282
3562.99, 0.146670
3565.44, 0.147446
3567.9, 0.147640
3570.35, 0.148027
3572.81, 0.148512
3575.28, 0.148803
3577.75, 0.148997
3580.22, 0.149481
3582.69, 0.149966
3585.17, 0.150257
3587.65, 0.150257
3590.14, 0.150257
3592.62, 0.150742
3595.11, 0.151129
3597.61, 0.151323
3600.11, 0.151711
3602.61, 0.152099
3605.11, 0.152293
3607.62, 0.152777
3610.14, 0.153165
3612.65, 0.153553
3615.17, 0.154135
3617.69, 0.154813
3620.22, 0.155395
3622.75, 0.155783
3625.28, 0.156170
3627.82, 0.156461
3630.36, 0.156946
3632.9, 0.157431
3635.45, 0.157915
3638.0, 0.158109
3640.56, 0.158303
3643.12, 0.158691
3645.68, 0.159079
3648.24, 0.159563
3650.81, 0.159951
3653.39, 0.160339
3655.96, 0.160823
3658.54, 0.161017
3661.13, 0.161211
3663.71, 0.161502
3666.3, 0.161793
3668.9, 0.162278
3671.5, 0.162568
3674.1, 0.162762
3676.7, 0.163053
3679.31, 0.163247
3681.93, 0.163441
3684.54, 0.164119
3687.17, 0.164604
3689.79, 0.164701
3692.42, 0.164992
3695.05, 0.165186
3697.69, 0.165283
3700.32, 0.165670
3702.97, 0.166155
3705.61, 0.166543
3708.27, 0.166931
3710.92, 0.167125
3713.58, 0.167222
3716.24, 0.167512
3718.91, 0.167997
3721.58, 0.168288
3724.25, 0.168579
3726.93, 0.168579
3729.61, 0.168579
3732.29, 0.168869
3734.98, 0.169160
3737.67, 0.169451
3740.37, 0.169839
3743.07, 0.170033
3745.78, 0.170227
3748.49, 0.170227
3751.2, 0.170324
3753.91, 0.170227
3756.63, 0.170227
3759.36, 0.170517
3762.09, 0.170808
3764.82, 0.171196
3767.55, 0.171196
3770.29, 0.171099
3773.04, 0.171002
3775.78, 0.171002
3778.54, 0.171293
3781.29, 0.171584
3784.05, 0.171681
3786.82, 0.171584
3789.59, 0.171681
3792.36, 0.171972
3795.13, 0.171972
3797.92, 0.171972
3800.7, 0.172165
3803.49, 0.172165
3806.28, 0.172262
3809.08, 0.172456
3811.88, 0.172650
3814.68, 0.172844
3817.49, 0.172844
3820.31, 0.172941
3823.12, 0.173038
3825.94, 0.173038
3828.77, 0.173038
3831.6, 0.172941
3834.43, 0.173135
3837.27, 0.173232
3840.11, 0.173135
3842.96, 0.172941
3845.81, 0.172941
3848.67, 0.173038
3851.53, 0.173038
3854.39, 0.173038
3857.26, 0.173232
3860.13, 0.173426
3863.01, 0.173329
3865.89, 0.173038
3868.77, 0.173135
3871.66, 0.173135
3874.55, 0.173135
3877.45, 0.173232
3880.35, 0.173135
3883.26, 0.173329
3886.17, 0.173232
3889.09, 0.172941
3892.01, 0.172941
3894.93, 0.172941
3897.86, 0.172747
3900.79, 0.172553
3903.73, 0.172456
3906.67, 0.172359
3909.62, 0.172262
3912.57, 0.172068
3915.52, 0.172068
3918.48, 0.171972
3921.45, 0.171875
3924.42, 0.171778
3927.39, 0.171584
3930.37, 0.171487
3933.35, 0.171487
3936.34, 0.171293
3939.33, 0.170808
3942.32, 0.170421
3945.32, 0.170421
3948.33, 0.170324
3951.34, 0.169742
3954.35, 0.169257
3957.37, 0.168966
3960.39, 0.168482
3963.42, 0.167803
3966.45, 0.166640
3969.49, 0.165283
3972.53, 0.163926
3975.58, 0.163829
3978.63, 0.164992
3981.68, 0.166446
3984.75, 0.167512
3987.81, 0.167803
3990.88, 0.167900
3993.95, 0.167997
3997.03, 0.168094
4000.12, 0.168094
4003.21, 0.167997
4006.3, 0.168094
4009.4, 0.167900
4012.5, 0.167609
4015.61, 0.167318
4018.72, 0.167222
4021.84, 0.167415
4024.96, 0.167512
4028.09, 0.167222
4031.22, 0.167125
4034.36, 0.167028
4037.5, 0.167028
4040.65, 0.166931
4043.8, 0.166737
4046.96, 0.166640
4050.12, 0.166543
4053.29, 0.166252
4056.46, 0.166252
4059.64, 0.166155
4062.82, 0.165961
4066.0, 0.166155
4069.19, 0.165961
4072.39, 0.165670
4075.59, 0.165477
4078.8, 0.165283
4082.01, 0.165186
4085.23, 0.164992
4088.45, 0.164992
4091.68, 0.164895
4094.91, 0.164604
4098.15, 0.164410
4101.39, 0.164604
4104.63, 0.164313
4107.89, 0.163829
4111.14, 0.163635
4114.41, 0.163538
4117.67, 0.163538
4120.95, 0.163344
4124.23, 0.163150
4127.51, 0.163150
4130.8, 0.163247
4134.09, 0.163053
4137.39, 0.162859
4140.7, 0.162956
4144.01, 0.162762
4147.32, 0.162471
4150.64, 0.162471
4153.97, 0.162471
4157.3, 0.162084
4160.64, 0.161890
4163.98, 0.161696
4167.33, 0.161405
4170.68, 0.161114
4174.04, 0.161017
4177.4, 0.160727
4180.77, 0.160436
4184.14, 0.160145
4187.52, 0.159757
4190.91, 0.159563
4194.3, 0.159272
4197.69, 0.158594
4201.1, 0.158012
4204.5, 0.157818
4207.92, 0.157624
4211.34, 0.157431
4214.76, 0.157237
4218.19, 0.156849
4221.62, 0.156461
4225.06, 0.155976
4228.51, 0.155492
4231.96, 0.155201
4235.42, 0.155104
4238.88, 0.154716
4242.35, 0.154232
4245.83, 0.153844
4249.31, 0.153553
4252.79, 0.153068
4256.28, 0.152390
4259.78, 0.151614
4263.29, 0.151129
4266.79, 0.150839
4270.31, 0.150451
4273.83, 0.149966
4277.35, 0.149675
4280.89, 0.149191
4284.42, 0.148706
4287.97, 0.148609
4291.52, 0.148803
4295.07, 0.148609
4298.63, 0.148512
4302.2, 0.148512
4305.78, 0.148512
4309.35, 0.148803
4312.94, 0.149094
4316.53, 0.149385
4320.13, 0.149578
4323.73, 0.149772
4327.34, 0.149966
4330.96, 0.150257
4334.58, 0.150451
4338.21, 0.150742
4341.84, 0.150839
4345.48, 0.151129
4349.12, 0.151517
4352.77, 0.151614
4356.43, 0.151614
4360.1, 0.151614
4363.76, 0.151711
4367.44, 0.151517
4371.12, 0.151323
4374.81, 0.151323
4378.51, 0.151226
4382.21, 0.150742
4385.92, 0.150257
4389.63, 0.149869
4393.35, 0.149481
4397.08, 0.149191
4400.81, 0.148900
4404.55, 0.148512
4408.29, 0.147930
4412.04, 0.147640
4415.8, 0.147252
4419.57, 0.146767
4423.34, 0.146379
4427.12, 0.145992
4430.9, 0.145507
4434.69, 0.145022
4438.49, 0.144344
4442.29, 0.143762
4446.1, 0.143374
4449.92, 0.142987
4453.74, 0.142502
4457.57, 0.141629
4461.41, 0.140854
4465.25, 0.140078
4469.1, 0.139012
4472.95, 0.138043
4476.82, 0.137267
4480.69, 0.136201
4484.56, 0.134844
4488.44, 0.133292
4492.33, 0.131838
4496.23, 0.130384
4500.13, 0.129027
4504.04, 0.127573
4507.96, 0.126313
4511.88, 0.125537
4515.81, 0.124859
4519.75, 0.124277
4523.69, 0.123792
4527.65, 0.123405
4531.6, 0.122726
4535.57, 0.121757
4539.54, 0.120787
4543.52, 0.119624
4547.5, 0.118267
4551.5, 0.116619
4555.5, 0.114680
4559.5, 0.112935
4563.52, 0.110802
4567.54, 0.108282
4571.56, 0.105858
4575.6, 0.103338
4579.64, 0.100818
4583.69, 0.0984910
4587.75, 0.0964550
4591.81, 0.0948070
4595.88, 0.0938380
4599.96, 0.0933530
4604.04, 0.0934500
4608.14, 0.0938380
4612.24, 0.0946130
4616.34, 0.0955830
4620.46, 0.0967460
4624.58, 0.0980060
4628.71, 0.0991700
4632.84, 0.100139
4636.99, 0.101399
4641.14, 0.102563
4645.3, 0.103726
4649.47, 0.104889
4653.64, 0.105858
4657.82, 0.106828
4662.01, 0.107700
4666.21, 0.108476
4670.41, 0.109058
4674.62, 0.109542
4678.84, 0.109736
4683.07, 0.109445
4687.3, 0.108379
4691.54, 0.106731
4695.79, 0.105180
4700.05, 0.103338
4704.31, 0.101593
4708.59, 0.0996540
4712.87, 0.0976190
4717.15, 0.0958740
4721.45, 0.0940320
4725.76, 0.0922870
4730.07, 0.0906390
4734.39, 0.0888940
4738.72, 0.0868580
4743.05, 0.0849190
4747.39, 0.0832710
4751.75, 0.0820110
4756.1, 0.0812360
4760.47, 0.0813330
4764.85, 0.0821080
4769.23, 0.0831750
4773.62, 0.0841440
4778.02, 0.0847260
4782.43, 0.0846290
4786.85, 0.0835620
4791.27, 0.0819140
4795.7, 0.0801690
4800.14, 0.0783280
4804.59, 0.0762920
4809.05, 0.0741590
4813.51, 0.0726080
4817.99, 0.0721230
4822.47, 0.0734810
4826.96, 0.0763890
4831.46, 0.0804600
4835.96, 0.0843380
4840.48, 0.0870520
4845.0, 0.0887000
4849.54, 0.0888940
4854.08, 0.0878280
4858.63, 0.0860830
4863.18, 0.0837560
4867.75, 0.0811390
4872.33, 0.0785210
4876.91, 0.0760980
4881.5, 0.0736740
4886.1, 0.0713480
4890.71, 0.0692150
4895.33, 0.0669860
4899.96, 0.0646590
4904.59, 0.0627200
4909.24, 0.0605870
4913.89, 0.0583580
4918.55, 0.0562250
4923.22, 0.0541890
4927.9, 0.0520570
4932.59, 0.0500210
4937.29, 0.0479850
4942.0, 0.0460460
4946.71, 0.0440110
4951.44, 0.0418780
4956.17, 0.0401330
4960.91, 0.0392610
4965.67, 0.0398420
4970.43, 0.0422660
4975.2, 0.0459500
4979.98, 0.0506030
4984.76, 0.0560310
4989.56, 0.0616540
4994.37, 0.0669860
4999.18, 0.0717360
5004.01, 0.0752250
5008.84, 0.0776490
5013.69, 0.0791030
5018.54, 0.0794910
5023.4, 0.0792000
5028.28, 0.0785210
5033.16, 0.0775520
5038.05, 0.0761950
5042.95, 0.0745470
5047.86, 0.0727050
5052.78, 0.0701850
5057.71, 0.0669860
5062.65, 0.0633020
5067.6, 0.0592300
5072.56, 0.0550620
5077.53, 0.0507970
5082.5, 0.0465310
5087.49, 0.0430410
5092.49, 0.0404240
5097.5, 0.0395520
5102.51, 0.0405210
5107.54, 0.0436230
5112.58, 0.0479850
5117.62, 0.0532200
5122.68, 0.0592300
5127.75, 0.0655310
5132.82, 0.0714450
5137.91, 0.0771640
5143.01, 0.0824960
5148.12, 0.0874400
5153.23, 0.0918990
5158.36, 0.0959710
5163.5, 0.0995570
5168.65, 0.102950
5173.81, 0.106246
5178.98, 0.109154
5184.15, 0.111869
5189.34, 0.114389
5194.54, 0.116813
5199.75, 0.119042
5204.98, 0.120981
5210.21, 0.122726
5215.45, 0.124277
5220.7, 0.125828
5225.96, 0.127282
5231.23, 0.128446
5236.52, 0.129609
5241.81, 0.130578
5247.12, 0.131451
5252.44, 0.132129
5257.76, 0.132614
5263.1, 0.133099
5268.45, 0.133583
5273.81, 0.134068
5279.18, 0.134553
5284.56, 0.134650
5289.95, 0.134844
5295.36, 0.135134
5300.77, 0.135328
5306.2, 0.135425
5311.63, 0.135328
5317.08, 0.135134
5322.54, 0.135231
5328.01, 0.135231
5333.49, 0.135231
5338.98, 0.135231
5344.49, 0.135231
5350.0, 0.135037
5355.53, 0.134844
5361.07, 0.134456
5366.62, 0.134165
5372.18, 0.133874
5377.75, 0.133680
5383.34, 0.133486
5388.93, 0.133196
5394.54, 0.132808
5400.16, 0.132517
5405.79, 0.132129
5411.44, 0.131935
5417.09, 0.131548
5422.76, 0.131160
5428.43, 0.130966
5434.12, 0.130481
5439.83, 0.130093
5445.54, 0.129803
5451.26, 0.129415
5457.0, 0.128930
5462.75, 0.128446
5468.52, 0.128058
5474.29, 0.127573
5480.08, 0.127088
5485.88, 0.126604
5491.69, 0.126119
5497.51, 0.125634
5503.35, 0.125150
5509.2, 0.124471
5515.06, 0.123889
5520.93, 0.123308
5526.82, 0.122726
5532.71, 0.122144
5538.63, 0.121563
5544.55, 0.120884
5550.49, 0.120303
5556.44, 0.119624
5562.4, 0.118752
5568.37, 0.118073
5574.36, 0.117394
5580.36, 0.116619
5586.37, 0.115843
5592.4, 0.115068
5598.44, 0.114292
5604.49, 0.113420
5610.56, 0.112644
5616.63, 0.111772
5622.73, 0.110899
5628.83, 0.110027
5634.95, 0.109445
5641.08, 0.108864
5647.23, 0.108185
5653.39, 0.107603
5659.56, 0.106925
5665.74, 0.106149
5671.94, 0.105374
5678.15, 0.104695
5684.38, 0.104114
5690.62, 0.103532
5696.87, 0.102950
5703.14, 0.102175
5709.42, 0.101399
5715.72, 0.100624
5722.03, 0.100139
5728.35, 0.0996540
5734.69, 0.0991700
5741.03, 0.0986850
5747.4, 0.0981030
5753.78, 0.0976190
5760.17, 0.0972310
5766.58, 0.0968430
5773.0, 0.0965520
5779.44, 0.0959710
5785.88, 0.0954860
5792.35, 0.0947100
5798.83, 0.0943230
5805.32, 0.0937410
5811.83, 0.0929650
5818.35, 0.0920930
5824.89, 0.0914140
5831.45, 0.0904450
5838.01, 0.0893790
5844.59, 0.0883120
5851.19, 0.0872460
5857.8, 0.0861800
5864.43, 0.0851130
5871.07, 0.0841440
5877.73, 0.0833680
5884.4, 0.0829810
5891.09, 0.0824960
5897.79, 0.0820110
5904.5, 0.0816230
5911.23, 0.0808480
5917.98, 0.0797820
5924.75, 0.0788120
5931.53, 0.0778430
5938.32, 0.0768730
5945.13, 0.0759040
5951.96, 0.0746440
5958.8, 0.0735770
5965.65, 0.0724140
5972.53, 0.0711540
5979.42, 0.0698940
5986.32, 0.0688270
5993.24, 0.0673730
6000.18, 0.0660160
6007.13, 0.0645620
6014.1, 0.0632050
6021.08, 0.0619450
6028.09, 0.0606840
6035.1, 0.0594240
6042.14, 0.0580670
6049.19, 0.0569040
6056.25, 0.0562250
6063.34, 0.0554500
6070.44, 0.0545770
6077.55, 0.0538020
6084.69, 0.0529290
6091.84, 0.0518630
6099.0, 0.0507970
6106.19, 0.0496330
6113.39, 0.0488580
6120.61, 0.0485670
6127.84, 0.0486640
6135.09, 0.0492460
6142.36, 0.0507000
6149.65, 0.0527350
6156.95, 0.0546740
6164.27, 0.0563220
6171.61, 0.0577760
6178.97, 0.0589400
6186.34, 0.0601030
6193.73, 0.0613630
6201.14, 0.0625260
6208.57, 0.0636900
6216.01, 0.0648530
6223.47, 0.0660160
6230.95, 0.0670820
6238.45, 0.0680520
6245.97, 0.0686340
6253.5, 0.0692150
6261.06, 0.0699910
6268.63, 0.0706690
6276.21, 0.0709600
6283.82, 0.0712510
6291.45, 0.0715420
6299.1, 0.0717360
6306.76, 0.0718330
6314.44, 0.0718330
6322.14, 0.0718330
6329.86, 0.0717360
6337.6, 0.0714450
6345.35, 0.0713480
6353.13, 0.0714450
6360.92, 0.0713480
6368.74, 0.0712510
6376.57, 0.0715420
6384.43, 0.0719290
6392.3, 0.0722200
6400.19, 0.0723170
6408.1, 0.0725110
6416.03, 0.0728990
6423.98, 0.0733840
6431.95, 0.0735770
6439.94, 0.0737710
6447.95, 0.0738680
6455.98, 0.0736740
6464.03, 0.0733840
6472.1, 0.0730930
6480.19, 0.0728990
6488.31, 0.0727050
6496.44, 0.0728020
6504.59, 0.0728990
6512.76, 0.0728020
6520.95, 0.0728020
6529.16, 0.0729960
6537.4, 0.0732870
6545.65, 0.0736740
6553.92, 0.0741590
6562.22, 0.0744500
6570.54, 0.0749350
6578.88, 0.0757100
6587.23, 0.0760980
6595.61, 0.0761950
6604.02, 0.0761950
6612.44, 0.0759040
6620.89, 0.0756130
6629.35, 0.0752250
6637.84, 0.0748380
6646.35, 0.0746440
6654.88, 0.0742560
6663.44, 0.0736740
6672.01, 0.0730930
6680.61, 0.0723170
6689.23, 0.0716390
6697.88, 0.0708630
6706.54, 0.0699910
6715.23, 0.0692150
6723.94, 0.0682460
6732.67, 0.0671790
6741.42, 0.0661130
6750.2, 0.0651440
6759.0, 0.0640770
6767.82, 0.0629140
6776.67, 0.0615570
6785.54, 0.0603940
6794.44, 0.0590360
6803.35, 0.0577760
6812.29, 0.0566130
6821.26, 0.0556440
6830.24, 0.0545770
6839.25, 0.0535110
6848.29, 0.0524450
6857.35, 0.0512810
6866.43, 0.0504090
6875.54, 0.0498270
6884.67, 0.0491490
6893.82, 0.0483730
6903.0, 0.0477910
6912.2, 0.0474040
6921.43, 0.0469190
6930.69, 0.0462400
6939.96, 0.0456590
6949.27, 0.0449800
6958.59, 0.0442050
6967.95, 0.0436230
6977.33, 0.0432350
6986.73, 0.0427510
6996.16, 0.0421690
7005.61, 0.0417810
7015.09, 0.0415870
7024.6, 0.0413930
7034.13, 0.0411030
7043.69, 0.0408120
7053.27, 0.0403270
7062.88, 0.0399390
7072.52, 0.0395520
7082.18, 0.0391640
7091.87, 0.0387760
7101.58, 0.0381940
7111.32, 0.0379040
7121.09, 0.0378070
7130.88, 0.0376130
7140.71, 0.0370310
7150.56, 0.0364490
7160.43, 0.0360620
7170.33, 0.0356740
7180.27, 0.0350920
7190.23, 0.0344140
7200.21, 0.0336380
7210.23, 0.0330570
7220.27, 0.0325720
7230.34, 0.0321840
7240.44, 0.0317960
7250.56, 0.0315050
7260.72, 0.0310210
7270.9, 0.0304390
7281.12, 0.0302450
7291.36, 0.0298580
7301.63, 0.0295670
7311.93, 0.0292760
7322.25, 0.0288880
7332.61, 0.0285000
7343.0, 0.0282100
7353.41, 0.0278220
7363.86, 0.0272400
7374.33, 0.0265620
7384.83, 0.0261740
7395.37, 0.0259800
7405.93, 0.0257860
7416.53, 0.0255920
7427.15, 0.0253010
7437.81, 0.0248170
7448.5, 0.0243320
7459.22, 0.0240410
7469.96, 0.0238470
7480.74, 0.0236530
7491.55, 0.0233630
7502.39, 0.0230720
7513.27, 0.0230720
7524.17, 0.0226840
7535.11, 0.0222960
7546.08, 0.0221020
7557.08, 0.0216180
7568.11, 0.0211330
7579.17, 0.0207450
7590.27, 0.0201640
7601.4, 0.0196790
7612.56, 0.0190000
7623.76, 0.0183220
7634.98, 0.0178370
7646.24, 0.0174490
7657.54, 0.0171580
7668.87, 0.0169640
7680.23, 0.0165770
7691.62, 0.0162860
7703.05, 0.0159950
7714.51, 0.0157040
7726.01, 0.0153170
7737.54, 0.0148320
7749.11, 0.0145410
7760.71, 0.0141530
7772.35, 0.0136690
7784.02, 0.0130870
7795.72, 0.0123110
7807.46, 0.0116330
7819.23, 0.0111480
7831.04, 0.0107600
7842.89, 0.00998500
7854.77, 0.00920900
7866.69, 0.00853100
7878.65, 0.00804600
7890.64, 0.00746400
7902.67, 0.00678600
7914.74, 0.00630100
7926.84, 0.00591300
7938.98, 0.00571900
7951.16, 0.00552600
7963.37, 0.00504100
7975.62, 0.00455600
7987.91, 0.00436200
8000.24, 0.00416800
8012.6, 0.00397500
8025.01, 0.00397500
8037.45, 0.00407100
8049.93, 0.00416800
8062.45, 0.00397500
8075.01, 0.00368400
8087.61, 0.00368400
8100.24, 0.00387800
8112.91, 0.00378100
8125.63, 0.00387800
8138.39, 0.00426500
8151.18, 0.00445900
8164.02, 0.00445900
8176.9, 0.00484700
8189.81, 0.00523500
8202.77, 0.00533200
8215.77, 0.00542900
8228.82, 0.00581600
8241.9, 0.00610700
8255.02, 0.00620400
8268.19, 0.00649500
8281.39, 0.00659200
8294.65, 0.00678600
8307.94, 0.00688300
8321.28, 0.00688300
8334.66, 0.00698000
8348.08, 0.00707700
8361.54, 0.00707700
8375.05, 0.00707700
8388.6, 0.00727100
8402.2, 0.00736700
8415.84, 0.00727100
8429.52, 0.00717400
8443.25, 0.00707700
8457.02, 0.00717400
8470.84, 0.00736700
8484.7, 0.00736700
8498.61, 0.00727100
8512.57, 0.00727100
8526.57, 0.00736700
8540.62, 0.00727100
8554.71, 0.00717400
8568.85, 0.00707700
8583.04, 0.00688300
8597.27, 0.00678600
8611.55, 0.00630100
8625.88, 0.00601000
8640.26, 0.00630100
8654.68, 0.00620400
8669.16, 0.00610700
8683.68, 0.00591300
8698.25, 0.00591300
8712.87, 0.00581600
8727.53, 0.00552600
8742.25, 0.00542900
8757.02, 0.00571900
8771.83, 0.00581600
8786.7, 0.00562300
8801.62, 0.00562300
8816.59, 0.00562300
8831.61, 0.00562300
8846.68, 0.00571900
8861.8, 0.00591300
8876.97, 0.00659200
8892.2, 0.00775500
8907.48, 0.00911200
8922.81, 0.0106630
8938.2, 0.0125050
8953.63, 0.0140560
8969.13, 0.0153170
8984.67, 0.0163830
9000.27, 0.0175460
9015.92, 0.0183220
9031.63, 0.0185160
9047.39, 0.0185160
9063.21, 0.0186120
9079.08, 0.0184190
9095.01, 0.0182250
9111.0, 0.0181280
9127.04, 0.0181280
9143.13, 0.0183220
9159.28, 0.0185160
9175.49, 0.0186120
9191.76, 0.0188060
9208.09, 0.0189030
9224.47, 0.0190000
9240.92, 0.0190970
9257.42, 0.0192910
9273.98, 0.0192910
9290.6, 0.0191940
9307.28, 0.0186120
9324.02, 0.0174490
9340.82, 0.0165770
9357.68, 0.0158980
9374.6, 0.0153170
9391.58, 0.0149290
9408.62, 0.0139590
9425.73, 0.0124080
9442.9, 0.0113420
9460.13, 0.0102760
9477.42, 0.00920900
9494.78, 0.00853100
9512.2, 0.00765800
9529.69, 0.00649500
9547.24, 0.00523500
9564.86, 0.00445900
9582.54, 0.00387800
9600.28, 0.00349000
9618.1, 0.00349000
9635.97, 0.00407100
9653.92, 0.00475000
9671.93, 0.00591300
9690.01, 0.00756100
9708.16, 0.00911200
9726.37, 0.0108570
9744.65, 0.0123110
9763.0, 0.0134750
9781.43, 0.0140560
9799.92, 0.0146380
9818.48, 0.0150260
9837.1, 0.0153170
9855.8, 0.0156070
9874.58, 0.0155100
9893.42, 0.0158980
9912.34, 0.0162860
9931.33, 0.0175460
9950.39, 0.0200670
9969.52, 0.0221990
9988.74, 0.0227810
10008.0, 0.0230720
10027.4, 0.0234590
10046.8, 0.0238470
10066.3, 0.0245260
10085.9, 0.0251070
10105.6, 0.0255920
10125.3, 0.0262710
10145.1, 0.0267550
10165.0, 0.0276280
10185.0, 0.0285970
10205.0, 0.0293730
10225.2, 0.0300510
10245.4, 0.0307300
10265.7, 0.0317960
10286.0, 0.0325720
10306.5, 0.0328630
10327.0, 0.0330570
10347.6, 0.0328630
10368.3, 0.0329600
10389.1, 0.0330570
10409.9, 0.0330570
10430.9, 0.0333470
10451.9, 0.0336380
10473.0, 0.0338320
10494.2, 0.0338320
10515.5, 0.0341230
10536.9, 0.0346080
10558.4, 0.0346080
10579.9, 0.0347050
10601.5, 0.0350920
10623.3, 0.0354800
10645.1, 0.0357710
10667.0, 0.0360620
10689.0, 0.0361590
10711.1, 0.0365460
10733.2, 0.0369340
10755.5, 0.0371280
10777.9, 0.0374190
10800.3, 0.0375160
10822.9, 0.0378070
10845.5, 0.0382910
10868.2, 0.0383880
10891.1, 0.0382910
10914.0, 0.0382910
10937.0, 0.0383880
10960.2, 0.0384850
10983.4, 0.0383880
11006.7, 0.0383880
11030.1, 0.0387760
11053.6, 0.0383880
11077.3, 0.0377100
11101.0, 0.0371280
11124.8, 0.0362560
11148.7, 0.0354800
11172.7, 0.0352860
11196.9, 0.0348010
11221.1, 0.0341230
11245.4, 0.0335410
11269.9, 0.0328630
11294.4, 0.0320870
11319.1, 0.0312150
11343.9, 0.0302450
11368.8, 0.0293730
11393.7, 0.0287910
11418.8, 0.0281130
11444.0, 0.0279190
11469.4, 0.0276280
11494.8, 0.0268520
11520.3, 0.0267550
11546.0, 0.0274340
11571.8, 0.0279190
11597.7, 0.0281130
11623.7, 0.0281130
11649.8, 0.0285000
11676.0, 0.0292760
11702.4, 0.0298580
11728.9, 0.0295670
11755.5, 0.0297610
11782.2, 0.0305360
11809.0, 0.0311180
11836.0, 0.0314090
11863.0, 0.0318930
11890.3, 0.0327660
11917.6, 0.0337350
11945.0, 0.0341230
11972.6, 0.0346080
12000.4, 0.0353830
12028.2, 0.0358680
12056.2, 0.0363530
12084.3, 0.0365460
12112.5, 0.0362560
12140.9, 0.0356740
12169.4, 0.0351890
12198.0, 0.0349950
12226.8, 0.0348010
12255.7, 0.0348980
12284.7, 0.0346080
12313.9, 0.0341230
12343.2, 0.0335410
12372.7, 0.0329600
12402.3, 0.0324750
12432.0, 0.0323780
12461.9, 0.0319900
12491.9, 0.0312150
12522.1, 0.0310210
12552.4, 0.0301480
12582.9, 0.0290820
12613.5, 0.0287910
12644.3, 0.0284030
12675.2, 0.0277250
12706.3, 0.0274340
12737.5, 0.0264650
12768.9, 0.0254950
12800.4, 0.0252040
12832.1, 0.0247200
12863.9, 0.0237500
12895.9, 0.0229750
12928.1, 0.0223930
12960.4, 0.0224900
12992.9, 0.0223930
13025.5, 0.0218120
13058.3, 0.0208420
13091.3, 0.0197760
13124.4, 0.0193880
13157.8, 0.0194850
13191.2, 0.0194850
13224.9, 0.0190970
13258.7, 0.0185160
13292.7, 0.0179340
13326.9, 0.0174490
13361.2, 0.0170610
13395.7, 0.0170610
13430.4, 0.0168680
13465.3, 0.0156070
13500.4, 0.0148320
13535.7, 0.0144440
13571.1, 0.0144440
13606.7, 0.0144440
13642.5, 0.0138620
13678.5, 0.0132810
13714.7, 0.0130870
13751.1, 0.0126020
13787.6, 0.0119240
13824.4, 0.0108570
13861.4, 0.0103730
13898.5, 0.00969400
13935.9, 0.00872500
13973.5, 0.00862800
14011.2, 0.00833700
14049.2, 0.00746400
14087.4, 0.00717400
14125.8, 0.00630100
14164.3, 0.00552600
14203.2, 0.00533200
14242.2, 0.00513800
14281.4, 0.00445900
14320.9, 0.00368400
14360.5, 0.00368400
14400.4, 0.00358700
14440.5, 0.00329600
14480.9, 0.00281100
14521.4, 0.00242300
14562.2, 0.00193900
14603.3, 0.00213300
14644.5, 0.00223000
14686.0, 0.00193900
14727.7, 0.00164800
14769.7, 0.00174500
14811.9, 0.00232700
14854.3, 0.00281100
14897.0, 0.00310200
14939.9, 0.00300500
14983.1, 0.00300500
15026.5, 0.00407100
15070.2, 0.00465300
15114.2, 0.00416800
15158.3, 0.00426500
15202.8, 0.00445900
15247.5, 0.00475000
15292.5, 0.00513800
15337.7, 0.00513800
15383.2, 0.00504100
15429.0, 0.00494400
15475.1, 0.00465300
15521.4, 0.00407100
15568.0, 0.00387800
15614.9, 0.00513800
15662.1, 0.00707700
15709.6, 0.00804600
15757.3, 0.00833700
15805.4, 0.00853100
15853.7, 0.00872500
15902.3, 0.00862800
15951.2, 0.00843400
16000.5, 0.00785200
16050.0, 0.00736700
16099.8, 0.00736700
16150.0, 0.00698000
16200.5, 0.00620400
16251.3, 0.00533200
16302.4, 0.00504100
16353.8, 0.00494400
16405.5, 0.00445900
16457.6, 0.00339300
16510.0, 0.00319900
16562.8, 0.00339300
16615.9, 0.00329600
16669.3, 0.00300500
16723.1, 0.00378100
16777.2, 0.00445900
16831.7, 0.00465300
16886.5, 0.00562300
16941.7, 0.00523500
16997.2, 0.00504100
17053.1, 0.00562300
17109.4, 0.00610700
17166.1, 0.00581600
17223.1, 0.00601000
17280.5, 0.00649500
17338.3, 0.00717400
17396.5, 0.00688300
17455.1, 0.00688300
17514.0, 0.00765800
17573.4, 0.00698000
17633.2, 0.00552600
17693.4, 0.00436200
17754.0, 0.00552600
17815.0, 0.00610700
17876.4, 0.00639800
17938.3, 0.00678600
18000.5, 0.00668900
18063.3, 0.00765800
18126.4, 0.0100820
18190.0, 0.0120210
18254.1, 0.0130870
18318.6, 0.0134750
18383.5, 0.0138620
18449.0, 0.0156070
18514.9, 0.0171580
18581.2, 0.0160920
18648.0, 0.0150260
18715.4, 0.0163830
18783.2, 0.0173520
18851.5, 0.0162860
18920.3, 0.0164800
18989.6, 0.0169640
19059.4, 0.0175460
19129.7, 0.0178370
19200.6, 0.0180310
19272.0, 0.0179340
19343.9, 0.0172550
19416.3, 0.0169640
19489.3, 0.0172550
19562.8, 0.0172550
19637.0, 0.0156070
19711.6, 0.0159950
19786.8, 0.0172550
19862.6, 0.0180310
19939.0, 0.0184190
20016.0, 0.0172550
20093.6, 0.0168680
20171.8, 0.0155100
20250.6, 0.0131840
20330.0, 0.0133780
20410.0, 0.0133780
20490.7, 0.0124080
20572.0, 0.0119240
20654.0, 0.0120210
20736.6, 0.0118270
20819.9, 0.0125050
20903.8, 0.0150260
20988.5, 0.0168680
21073.8, 0.0185160
21159.8, 0.0177400
21246.5, 0.0162860
21334.0, 0.0167710
21422.1, 0.0193880
21511.0, 0.0209390
21600.7, 0.0215210
21691.0, 0.0229750
21782.1, 0.0232660
21874.0, 0.0217150
21966.7, 0.0195820
22060.2, 0.0184190
22154.5, 0.0167710
22249.6, 0.0173520
22345.5, 0.0178370
22442.2, 0.0170610
22539.8, 0.0197760
22638.2, 0.0221020
22737.5, 0.0240410
22837.7, 0.0223930
22938.7, 0.0244290
23040.7, 0.0281130
23143.5, 0.0302450
23247.3, 0.0288880
23352.1, 0.0279190
23457.7, 0.0284030
23564.4, 0.0303420
23672.0, 0.0308270
23780.5, 0.0296640
23890.1, 0.0263680
24000.7, 0.0250110
24112.3, 0.0262710
24225.0, 0.0276280
24338.7, 0.0267550
24453.5, 0.0276280
24569.4, 0.0304390
24686.4, 0.0336380
24804.5, 0.0359650
