Database of Origin, USGS Spectral Database
Sample Description, See USGS database for additional info
Date Added,2016-08-10 05:34:44.597930

Data ID,USGS_sam02          
Sample ID, samarium_gds36.19819
Mineral Name, samarium
Material Class,Oxide

Wavelength
1367.13, 0.583998
1367.49, 0.582642
1367.85, 0.580973
1368.21, 0.580034
1368.57, 0.578886
1368.93, 0.577530
1369.3, 0.576748
1369.66, 0.576643
1370.02, 0.576017
1370.38, 0.575861
1370.74, 0.575496
1371.11, 0.573879
1371.47, 0.573201
1371.83, 0.572679
1372.19, 0.570853
1372.56, 0.568923
1372.92, 0.567515
1373.29, 0.565689
1373.65, 0.563551
1374.01, 0.561725
1374.38, 0.559326
1374.74, 0.556926
1375.11, 0.554266
1375.47, 0.551084
1375.84, 0.547485
1376.2, 0.544147
1376.57, 0.540861
1376.93, 0.537940
1377.3, 0.534914
1377.67, 0.532045
1378.03, 0.529124
1378.4, 0.526464
1378.76, 0.523804
1379.13, 0.520518
1379.5, 0.517127
1379.87, 0.514415
1380.23, 0.512537
1380.6, 0.510033
1380.97, 0.507686
1381.34, 0.506434
1381.7, 0.505182
1382.07, 0.505600
1382.44, 0.506799
1382.81, 0.506956
1383.18, 0.506643
1383.55, 0.506695
1383.92, 0.506434
1384.29, 0.505547
1384.66, 0.504452
1385.03, 0.503513
1385.4, 0.501583
1385.77, 0.499966
1386.14, 0.497671
1386.51, 0.495011
1386.88, 0.492977
1387.25, 0.490629
1387.62, 0.487865
1387.99, 0.484631
1388.36, 0.481032
1388.74, 0.477224
1389.11, 0.473207
1389.48, 0.469973
1389.85, 0.466479
1390.23, 0.462932
1390.6, 0.459385
1390.97, 0.456359
1391.35, 0.453334
1391.72, 0.451091
1392.09, 0.449213
1392.47, 0.446084
1392.84, 0.442328
1393.21, 0.439042
1393.59, 0.436173
1393.96, 0.433200
1394.34, 0.429757
1394.71, 0.425949
1395.09, 0.421672
1395.46, 0.417551
1395.84, 0.413587
1396.22, 0.409675
1396.59, 0.405346
1396.97, 0.401225
1397.35, 0.397730
1397.72, 0.394653
1398.1, 0.391940
1398.48, 0.389123
1398.85, 0.386724
1399.23, 0.384898
1399.61, 0.383229
1399.99, 0.381612
1400.37, 0.380152
1400.74, 0.379839
1401.12, 0.379734
1401.5, 0.379787
1401.88, 0.379891
1402.26, 0.380204
1402.64, 0.380725
1403.02, 0.381769
1403.4, 0.383177
1403.78, 0.384742
1404.16, 0.386046
1404.54, 0.387350
1404.92, 0.388810
1405.3, 0.389906
1405.68, 0.390845
1406.06, 0.392462
1406.44, 0.393766
1406.83, 0.395122
1407.21, 0.396478
1407.59, 0.397991
1407.97, 0.399556
1408.35, 0.401433
1408.74, 0.403468
1409.12, 0.405554
1409.5, 0.407328
1409.89, 0.409518
1410.27, 0.411605
1410.65, 0.414057
1411.04, 0.416143
1411.42, 0.418125
1411.81, 0.419951
1412.19, 0.421881
1412.58, 0.423863
1412.96, 0.425323
1413.35, 0.426419
1413.73, 0.427618
1414.12, 0.428557
1414.5, 0.429444
1414.89, 0.429757
1415.28, 0.429705
1415.66, 0.429601
1416.05, 0.429601
1416.44, 0.429601
1416.82, 0.429601
1417.21, 0.429027
1417.6, 0.428453
1417.98, 0.427879
1418.37, 0.427671
1418.76, 0.427410
1419.15, 0.427149
1419.54, 0.426836
1419.93, 0.426627
1420.32, 0.425949
1420.71, 0.425323
1421.09, 0.424280
1421.48, 0.423341
1421.88, 0.422872
1422.27, 0.422194
1422.66, 0.421203
1423.05, 0.420681
1423.44, 0.420159
1423.83, 0.420159
1424.22, 0.420107
1424.61, 0.419638
1425.0, 0.419481
1425.39, 0.419586
1425.78, 0.420212
1426.18, 0.421203
1426.57, 0.422141
1426.96, 0.423498
1427.36, 0.424384
1427.75, 0.425063
1428.14, 0.426627
1428.54, 0.428244
1428.93, 0.429444
1429.32, 0.430800
1429.72, 0.432104
1430.11, 0.433043
1430.51, 0.434399
1430.9, 0.435599
1431.3, 0.436382
1431.69, 0.437060
1432.09, 0.438103
1432.48, 0.439042
1432.88, 0.439876
1433.28, 0.441024
1433.67, 0.441911
1434.07, 0.442797
1434.46, 0.443736
1434.86, 0.444884
1435.26, 0.446397
1435.66, 0.447701
1436.05, 0.449161
1436.45, 0.450935
1436.85, 0.452239
1437.25, 0.453595
1437.65, 0.454690
1438.05, 0.456255
1438.44, 0.457559
1438.84, 0.459176
1439.24, 0.460324
1439.64, 0.461054
1440.04, 0.462149
1440.44, 0.463192
1440.84, 0.463766
1441.24, 0.464705
1441.65, 0.465644
1442.05, 0.466061
1442.45, 0.466322
1442.85, 0.466739
1443.25, 0.467418
1443.65, 0.468043
1444.05, 0.468513
1444.46, 0.469348
1444.86, 0.470182
1445.26, 0.471121
1445.67, 0.472373
1446.07, 0.473573
1446.47, 0.474877
1446.88, 0.476441
1447.28, 0.478111
1447.68, 0.479675
1448.09, 0.481032
1448.49, 0.482857
1448.9, 0.484944
1449.3, 0.487082
1449.71, 0.488595
1450.11, 0.490212
1450.52, 0.491829
1450.93, 0.493759
1451.33, 0.495637
1451.74, 0.497358
1452.14, 0.498610
1452.55, 0.499705
1452.96, 0.501062
1453.36, 0.502470
1453.77, 0.503983
1454.18, 0.505287
1454.59, 0.506851
1455.0, 0.508103
1455.41, 0.508625
1455.81, 0.509460
1456.22, 0.510399
1456.63, 0.511233
1457.04, 0.511859
1457.45, 0.512381
1457.86, 0.513476
1458.27, 0.514102
1458.68, 0.514415
1459.09, 0.514780
1459.5, 0.515302
1459.91, 0.516188
1460.32, 0.516919
1460.74, 0.517336
1461.15, 0.517858
1461.56, 0.518379
1461.97, 0.518588
1462.39, 0.518796
1462.8, 0.519057
1463.21, 0.519214
1463.62, 0.519318
1464.04, 0.519318
1464.45, 0.519266
1464.86, 0.519475
1465.28, 0.519579
1465.69, 0.519475
1466.11, 0.519318
1466.52, 0.519109
1466.94, 0.519422
1467.35, 0.519631
1467.77, 0.519422
1468.18, 0.519109
1468.6, 0.518640
1469.02, 0.518275
1469.43, 0.517805
1469.85, 0.517284
1470.27, 0.516762
1470.68, 0.516032
1471.1, 0.515249
1471.52, 0.514937
1471.94, 0.514571
1472.35, 0.514467
1472.77, 0.513998
1473.19, 0.513372
1473.61, 0.512902
1474.03, 0.512798
1474.45, 0.512694
1474.87, 0.512641
1475.29, 0.512694
1475.71, 0.513163
1476.13, 0.513215
1476.55, 0.513424
1476.97, 0.513528
1477.39, 0.513528
1477.81, 0.513893
1478.23, 0.514206
1478.65, 0.514154
1479.07, 0.514258
1479.5, 0.514102
1479.92, 0.514206
1480.34, 0.513893
1480.76, 0.513424
1481.19, 0.513111
1481.61, 0.512641
1482.03, 0.512381
1482.46, 0.512485
1482.88, 0.511963
1483.31, 0.511077
1483.73, 0.510451
1484.16, 0.509825
1484.58, 0.509512
1485.01, 0.509460
1485.43, 0.509199
1485.86, 0.509042
1486.28, 0.509094
1486.71, 0.509199
1487.14, 0.509668
1487.56, 0.510086
1487.99, 0.510138
1488.42, 0.510190
1488.84, 0.510190
1489.27, 0.509929
1489.7, 0.509773
1490.13, 0.509981
1490.56, 0.509773
1490.98, 0.509251
1491.41, 0.509147
1491.84, 0.508677
1492.27, 0.508260
1492.7, 0.508051
1493.13, 0.507530
1493.56, 0.506695
1493.99, 0.506069
1494.42, 0.505547
1494.85, 0.504504
1495.29, 0.503565
1495.72, 0.503044
1496.15, 0.502313
1496.58, 0.501375
1497.01, 0.500801
1497.44, 0.500123
1497.88, 0.499445
1498.31, 0.498819
1498.74, 0.498245
1499.18, 0.497515
1499.61, 0.496367
1500.04, 0.495220
1500.48, 0.494281
1500.91, 0.493707
1501.35, 0.493133
1501.78, 0.492194
1502.22, 0.490994
1502.65, 0.489743
1503.09, 0.488595
1503.53, 0.487239
1503.96, 0.485883
1504.4, 0.484422
1504.83, 0.482962
1505.27, 0.481397
1505.71, 0.479936
1506.15, 0.478215
1506.58, 0.476129
1507.02, 0.474094
1507.46, 0.472582
1507.9, 0.470652
1508.34, 0.468722
1508.78, 0.466948
1509.21, 0.465175
1509.66, 0.463349
1510.09, 0.461575
1510.53, 0.460167
1510.97, 0.458759
1511.42, 0.457246
1511.86, 0.456203
1512.3, 0.455212
1512.74, 0.454221
1513.18, 0.453438
1513.62, 0.452656
1514.06, 0.451978
1514.51, 0.451717
1514.95, 0.451456
1515.39, 0.451091
1515.83, 0.450882
1516.28, 0.450778
1516.72, 0.450622
1517.16, 0.450830
1517.61, 0.450778
1518.05, 0.450569
1518.5, 0.450622
1518.94, 0.450674
1519.39, 0.450882
1519.83, 0.451039
1520.28, 0.451143
1520.73, 0.451508
1521.17, 0.451248
1521.62, 0.451613
1522.07, 0.451613
1522.51, 0.451352
1522.96, 0.450830
1523.41, 0.451039
1523.85, 0.451039
1524.3, 0.450622
1524.75, 0.450204
1525.2, 0.449839
1525.65, 0.448952
1526.1, 0.448326
1526.55, 0.447440
1527.0, 0.446136
1527.45, 0.444988
1527.9, 0.443684
1528.35, 0.442537
1528.8, 0.441233
1529.25, 0.439459
1529.7, 0.437999
1530.15, 0.436277
1530.6, 0.434504
1531.05, 0.432887
1531.51, 0.431426
1531.96, 0.429861
1532.41, 0.428401
1532.87, 0.426784
1533.32, 0.425271
1533.77, 0.423915
1534.23, 0.422767
1534.68, 0.421985
1535.14, 0.421359
1535.59, 0.420994
1536.05, 0.420733
1536.5, 0.420420
1536.96, 0.420472
1537.41, 0.420733
1537.87, 0.421255
1538.32, 0.421776
1538.78, 0.422715
1539.24, 0.423446
1539.7, 0.424228
1540.15, 0.425115
1540.61, 0.426106
1541.07, 0.426836
1541.53, 0.427462
1541.98, 0.428401
1542.44, 0.429183
1542.9, 0.430122
1543.36, 0.430957
1543.82, 0.431374
1544.28, 0.432052
1544.74, 0.432887
1545.2, 0.433617
1545.66, 0.434086
1546.12, 0.434504
1546.59, 0.435130
1547.05, 0.435599
1547.51, 0.436121
1547.97, 0.436799
1548.43, 0.437373
1548.9, 0.438312
1549.36, 0.438938
1549.82, 0.439355
1550.29, 0.439824
1550.75, 0.440294
1551.21, 0.440920
1551.68, 0.441493
1552.14, 0.442119
1552.61, 0.442537
1553.07, 0.442745
1553.54, 0.443215
1554.0, 0.443736
1554.47, 0.444154
1554.93, 0.444832
1555.4, 0.445666
1555.87, 0.446292
1556.34, 0.446918
1556.8, 0.447701
1557.27, 0.448483
1557.74, 0.449787
1558.21, 0.451248
1558.68, 0.452447
1559.14, 0.453438
1559.61, 0.454742
1560.08, 0.456151
1560.55, 0.457455
1561.02, 0.458915
1561.49, 0.460480
1561.96, 0.462254
1562.43, 0.463923
1562.9, 0.465435
1563.38, 0.466792
1563.85, 0.468200
1564.32, 0.469452
1564.79, 0.471017
1565.26, 0.472269
1565.74, 0.472999
1566.21, 0.473781
1566.68, 0.474929
1567.16, 0.475868
1567.63, 0.477067
1568.1, 0.478006
1568.58, 0.478945
1569.05, 0.479884
1569.53, 0.480771
1570.0, 0.481710
1570.48, 0.482962
1570.96, 0.484005
1571.43, 0.485100
1571.91, 0.486300
1572.39, 0.487448
1572.86, 0.488856
1573.34, 0.490525
1573.82, 0.492038
1574.3, 0.493550
1574.77, 0.495167
1575.25, 0.497358
1575.73, 0.499601
1576.21, 0.501479
1576.69, 0.503513
1577.17, 0.505652
1577.65, 0.508051
1578.13, 0.510503
1578.61, 0.512433
1579.09, 0.514676
1579.57, 0.516866
1580.05, 0.518953
1580.54, 0.520726
1581.02, 0.522448
1581.5, 0.524117
1581.98, 0.525317
1582.47, 0.526412
1582.95, 0.527247
1583.43, 0.528133
1583.92, 0.528759
1584.4, 0.529020
1584.88, 0.528916
1585.37, 0.528864
1585.85, 0.528551
1586.34, 0.528081
1586.82, 0.527507
1587.31, 0.526568
1587.8, 0.525317
1588.28, 0.523387
1588.77, 0.521561
1589.26, 0.519579
1589.74, 0.517597
1590.23, 0.515249
1590.72, 0.512433
1591.21, 0.509616
1591.7, 0.507164
1592.19, 0.504869
1592.67, 0.502000
1593.16, 0.499445
1593.65, 0.497097
1594.14, 0.494594
1594.63, 0.492611
1595.12, 0.490577
1595.61, 0.488804
1596.11, 0.487343
1596.6, 0.486143
1597.09, 0.485152
1597.58, 0.484057
1598.08, 0.483014
1598.57, 0.482544
1599.06, 0.482231
1599.55, 0.481814
1600.05, 0.481710
1600.54, 0.481658
1601.04, 0.481553
1601.53, 0.481658
1602.03, 0.481814
1602.52, 0.482179
1603.02, 0.482649
1603.51, 0.483379
1604.01, 0.484057
1604.5, 0.484996
1605.0, 0.485883
1605.5, 0.486926
1606.0, 0.488230
1606.49, 0.490003
1606.99, 0.491829
1607.49, 0.493811
1607.99, 0.495950
1608.49, 0.498297
1608.99, 0.500957
1609.49, 0.503722
1609.99, 0.506486
1610.49, 0.509199
1610.99, 0.511494
1611.49, 0.513685
1611.99, 0.515823
1612.49, 0.517858
1612.99, 0.519475
1613.49, 0.520935
1614.0, 0.521926
1614.5, 0.522865
1615.0, 0.523595
1615.51, 0.523908
1616.01, 0.523647
1616.51, 0.523282
1617.02, 0.522813
1617.52, 0.522343
1618.03, 0.521613
1618.53, 0.520726
1619.04, 0.519735
1619.54, 0.519057
1620.05, 0.518536
1620.55, 0.518536
1621.06, 0.519005
1621.57, 0.519683
1622.08, 0.520518
1622.58, 0.521978
1623.09, 0.523960
1623.6, 0.526568
1624.11, 0.529333
1624.62, 0.532098
1625.13, 0.535123
1625.64, 0.538357
1626.15, 0.541539
1626.66, 0.545086
1627.17, 0.548737
1627.68, 0.552180
1628.19, 0.555518
1628.7, 0.558804
1629.21, 0.561777
1629.72, 0.565011
1630.24, 0.567880
1630.75, 0.571010
1631.26, 0.573931
1631.78, 0.576435
1632.29, 0.578991
1632.8, 0.581442
1633.32, 0.583685
1633.83, 0.586032
1634.35, 0.588327
1634.86, 0.590414
1635.38, 0.592500
1635.9, 0.594483
1636.41, 0.596100
1636.93, 0.597664
1637.45, 0.598812
1637.96, 0.599907
1638.48, 0.601316
1639.0, 0.602463
1639.52, 0.603194
1640.04, 0.604028
1640.56, 0.604758
1641.08, 0.605541
1641.59, 0.606584
1642.11, 0.607679
1642.63, 0.608514
1643.16, 0.609870
1643.68, 0.611122
1644.2, 0.612739
1644.72, 0.614878
1645.24, 0.616964
1645.76, 0.618998
1646.29, 0.621398
1646.81, 0.624267
1647.33, 0.626718
1647.86, 0.628857
1648.38, 0.631256
1648.9, 0.634073
1649.43, 0.636681
1649.95, 0.638924
1650.48, 0.641428
1651.0, 0.643566
1651.53, 0.645757
1652.06, 0.647948
1652.58, 0.650139
1653.11, 0.652173
1653.64, 0.653999
1654.17, 0.655772
1654.69, 0.657546
1655.22, 0.659267
1655.75, 0.660988
1656.28, 0.662188
1656.81, 0.663596
1657.34, 0.665057
1657.87, 0.666309
1658.4, 0.667352
1658.93, 0.668812
1659.46, 0.670012
1659.99, 0.671160
1660.52, 0.672255
1661.05, 0.673298
1661.59, 0.674707
1662.12, 0.676219
1662.65, 0.678097
1663.19, 0.680079
1663.72, 0.682166
1664.26, 0.684357
1664.79, 0.686599
1665.32, 0.688582
1665.86, 0.690720
1666.39, 0.692441
1666.93, 0.694163
1667.47, 0.695832
1668.0, 0.697501
1668.54, 0.699170
1669.08, 0.700370
1669.61, 0.701465
1670.15, 0.702143
1670.69, 0.702665
1671.23, 0.703187
1671.77, 0.703969
1672.31, 0.704439
1672.85, 0.704908
1673.39, 0.705795
1673.93, 0.706994
1674.47, 0.708455
1675.01, 0.710124
1675.55, 0.712367
1676.09, 0.714610
1676.64, 0.716592
1677.18, 0.718261
1677.72, 0.719774
1678.26, 0.721130
1678.81, 0.722591
1679.35, 0.724260
1679.89, 0.725877
1680.44, 0.727390
1680.98, 0.728589
1681.53, 0.729789
1682.07, 0.731041
1682.62, 0.732032
1683.17, 0.733180
1683.71, 0.734483
1684.26, 0.735788
1684.81, 0.736674
1685.36, 0.737509
1685.9, 0.738343
1686.45, 0.739282
1687.0, 0.740169
1687.55, 0.740847
1688.1, 0.741682
1688.65, 0.742464
1689.2, 0.743038
1689.75, 0.743664
1690.3, 0.744342
1690.85, 0.745229
1691.41, 0.745959
1691.96, 0.746585
1692.51, 0.747211
1693.06, 0.748045
1693.61, 0.748828
1694.17, 0.749349
1694.72, 0.749767
1695.28, 0.750236
1695.83, 0.750758
1696.39, 0.751384
1696.94, 0.751905
1697.5, 0.752270
1698.05, 0.752740
1698.61, 0.753366
1699.17, 0.754044
1699.72, 0.754461
1700.28, 0.755087
1700.84, 0.755713
1701.4, 0.756183
1701.95, 0.756600
1702.51, 0.757487
1703.07, 0.758008
1703.63, 0.758634
1704.19, 0.759260
1704.75, 0.760147
1705.31, 0.760773
1705.88, 0.761451
1706.44, 0.762129
1707.0, 0.762911
1707.56, 0.763798
1708.12, 0.764320
1708.69, 0.764633
1709.25, 0.765050
1709.81, 0.765572
1710.38, 0.766145
1710.94, 0.766667
1711.51, 0.767189
1712.07, 0.767658
1712.64, 0.768023
1713.2, 0.768388
1713.77, 0.768701
1714.34, 0.769275
1714.9, 0.769849
1715.47, 0.770318
1716.04, 0.770840
1716.61, 0.771362
1717.18, 0.771570
1717.74, 0.771727
1718.31, 0.772509
1718.88, 0.773135
1719.45, 0.773344
1720.02, 0.773709
1720.59, 0.774074
1721.17, 0.774335
1721.74, 0.774700
1722.31, 0.775117
1722.88, 0.775482
1723.45, 0.775900
1724.03, 0.776160
1724.6, 0.776473
1725.18, 0.776891
1725.75, 0.777308
1726.33, 0.777464
1726.9, 0.777725
1727.48, 0.777934
1728.05, 0.778090
1728.63, 0.778455
1729.2, 0.778664
1729.78, 0.778873
1730.36, 0.778977
1730.94, 0.779029
1731.51, 0.779238
1732.09, 0.779394
1732.67, 0.779655
1733.25, 0.779916
1733.83, 0.779916
1734.41, 0.780020
1734.99, 0.780072
1735.57, 0.780125
1736.15, 0.780229
1736.73, 0.780490
1737.32, 0.780959
1737.9, 0.781272
1738.48, 0.781272
1739.07, 0.781585
1739.65, 0.781689
1740.23, 0.781846
1740.82, 0.782002
1741.4, 0.782263
1741.99, 0.782263
1742.57, 0.782315
1743.16, 0.782576
1743.74, 0.782420
1744.33, 0.782576
1744.92, 0.782681
1745.51, 0.782733
1746.09, 0.782889
1746.68, 0.783150
1747.27, 0.783098
1747.86, 0.783202
1748.45, 0.783411
1749.04, 0.783463
1749.63, 0.783515
1750.22, 0.783463
1750.81, 0.783515
1751.4, 0.783515
1751.99, 0.783567
1752.59, 0.783672
1753.18, 0.783672
1753.77, 0.783724
1754.37, 0.783828
1754.96, 0.783724
1755.56, 0.783724
1756.15, 0.783672
1756.74, 0.783776
1757.34, 0.783567
1757.94, 0.783515
1758.53, 0.783672
1759.13, 0.783619
1759.73, 0.783619
1760.32, 0.783515
1760.92, 0.783411
1761.52, 0.783359
1762.12, 0.783411
1762.72, 0.783515
1763.32, 0.783254
1763.92, 0.783150
1764.52, 0.783306
1765.12, 0.783411
1765.72, 0.783463
1766.32, 0.783202
1766.92, 0.783202
1767.53, 0.783254
1768.13, 0.783202
1768.73, 0.783046
1769.34, 0.782941
1769.94, 0.783098
1770.55, 0.782941
1771.15, 0.782681
1771.76, 0.782576
1772.36, 0.782420
1772.97, 0.782524
1773.57, 0.782681
1774.18, 0.782420
1774.79, 0.782420
1775.4, 0.782472
1776.0, 0.782681
1776.61, 0.782576
1777.22, 0.782524
1777.83, 0.782159
1778.44, 0.782159
1779.05, 0.782159
1779.66, 0.781898
1780.27, 0.781742
1780.88, 0.781742
1781.5, 0.781585
1782.11, 0.781324
1782.72, 0.781011
1783.33, 0.780803
1783.95, 0.780803
1784.56, 0.780855
1785.18, 0.780542
1785.79, 0.780125
1786.41, 0.779812
1787.02, 0.779603
1787.64, 0.779342
1788.26, 0.779134
1788.87, 0.779081
1789.49, 0.778821
1790.11, 0.778455
1790.73, 0.778247
1791.35, 0.777882
1791.96, 0.777569
1792.58, 0.777360
1793.21, 0.777099
1793.83, 0.776630
1794.45, 0.775952
1795.07, 0.775743
1795.69, 0.775691
1796.31, 0.775482
1796.93, 0.775221
1797.56, 0.774856
1798.18, 0.774595
1798.8, 0.774543
1799.43, 0.774543
1800.05, 0.774178
1800.68, 0.773970
1801.3, 0.773865
1801.93, 0.773552
1802.56, 0.773239
1803.18, 0.773083
1803.81, 0.772822
1804.44, 0.772770
1805.07, 0.772770
1805.7, 0.772770
1806.33, 0.772353
1806.95, 0.771935
1807.58, 0.771622
1808.22, 0.771205
1808.85, 0.770840
1809.48, 0.770527
1810.11, 0.770318
1810.74, 0.770005
1811.38, 0.769536
1812.01, 0.769223
1812.64, 0.768806
1813.28, 0.768128
1813.91, 0.767710
1814.55, 0.767554
1815.18, 0.767554
1815.82, 0.767293
1816.45, 0.766406
1817.09, 0.765624
1817.73, 0.765415
1818.36, 0.765207
1819.0, 0.764476
1819.64, 0.764528
1820.28, 0.765102
1820.92, 0.764581
1821.56, 0.764163
1822.2, 0.763642
1822.84, 0.763068
1823.48, 0.762859
1824.12, 0.762755
1824.76, 0.762546
1825.41, 0.763068
1826.05, 0.764007
1826.69, 0.763329
1827.34, 0.762651
1827.98, 0.762755
1828.63, 0.762964
1829.27, 0.763381
1829.92, 0.763537
1830.56, 0.763850
1831.21, 0.763850
1831.86, 0.763537
1832.5, 0.763433
1833.15, 0.763120
1833.8, 0.763016
1834.45, 0.763590
1835.1, 0.764059
1835.75, 0.764633
1836.4, 0.764372
1837.05, 0.763850
1837.7, 0.763798
1838.35, 0.762807
1839.01, 0.762911
1839.66, 0.763537
1840.31, 0.762233
1840.96, 0.761973
1841.62, 0.762964
1842.27, 0.761816
1842.93, 0.760460
1843.58, 0.760043
1844.24, 0.759677
1844.9, 0.759364
1845.55, 0.759364
1846.21, 0.760043
1846.87, 0.761242
1847.53, 0.761190
1848.18, 0.760668
1848.84, 0.759521
1849.5, 0.758738
1850.16, 0.758791
1850.82, 0.758999
1851.48, 0.758895
1852.14, 0.759260
1852.81, 0.759782
1853.47, 0.760877
1854.13, 0.760721
1854.8, 0.759573
1855.46, 0.759417
1856.12, 0.760460
1856.79, 0.760773
1857.45, 0.759938
1858.12, 0.759364
1858.79, 0.760095
1859.45, 0.761347
1860.12, 0.761034
1860.79, 0.759938
1861.46, 0.759260
1862.12, 0.758947
1862.79, 0.758738
1863.46, 0.758738
1864.13, 0.758582
1864.8, 0.757800
1865.48, 0.757121
1866.15, 0.756809
1866.82, 0.757226
1867.49, 0.758217
1868.16, 0.757382
1868.84, 0.755922
1869.51, 0.755557
1870.19, 0.756026
1870.86, 0.756443
1871.54, 0.754409
1872.21, 0.753783
1872.89, 0.754670
1873.56, 0.753314
1874.24, 0.751436
1874.92, 0.750966
1875.6, 0.750393
1876.28, 0.750393
1876.96, 0.750445
1877.64, 0.749141
1878.32, 0.748463
1879.0, 0.748202
1879.68, 0.747837
1880.36, 0.747472
1881.04, 0.747106
1881.73, 0.746794
1882.41, 0.746428
1883.09, 0.746585
1883.78, 0.747054
1884.46, 0.746637
1885.15, 0.745855
1885.83, 0.745855
1886.52, 0.745907
1887.21, 0.745437
1887.89, 0.745124
1888.58, 0.744916
1889.27, 0.745229
1889.96, 0.745594
1890.65, 0.744811
1891.34, 0.744081
1892.03, 0.743664
1892.72, 0.743090
1893.41, 0.742725
1894.1, 0.742308
1894.79, 0.741369
1895.49, 0.740795
1896.18, 0.740430
1896.87, 0.740117
1897.57, 0.739856
1898.26, 0.739282
1898.96, 0.739282
1899.65, 0.739178
1900.35, 0.737613
1901.05, 0.736100
1901.74, 0.735370
1902.44, 0.735631
1903.14, 0.735057
1903.84, 0.733962
1904.54, 0.734223
1905.24, 0.734640
1905.94, 0.733753
1906.64, 0.733180
1907.34, 0.731980
1908.04, 0.731093
1908.75, 0.730467
1909.45, 0.729685
1910.15, 0.729111
1910.86, 0.728746
1911.56, 0.727963
1912.27, 0.727077
1912.97, 0.727024
1913.68, 0.726764
1914.39, 0.725616
1915.09, 0.725303
1915.8, 0.725512
1916.51, 0.725825
1917.22, 0.726086
1917.93, 0.726242
1918.64, 0.726659
1919.35, 0.727442
1920.06, 0.728328
1920.77, 0.728016
1921.48, 0.726555
1922.19, 0.725773
1922.91, 0.725407
1923.62, 0.725512
1924.33, 0.724886
1925.05, 0.723947
1925.76, 0.723269
1926.48, 0.722956
1927.19, 0.722278
1927.91, 0.721756
1928.63, 0.721078
1929.35, 0.719983
1930.07, 0.719096
1930.78, 0.718105
1931.5, 0.716905
1932.22, 0.715810
1932.94, 0.715184
1933.66, 0.714558
1934.39, 0.713462
1935.11, 0.712524
1935.83, 0.711845
1936.55, 0.711115
1937.28, 0.710281
1938.0, 0.709342
1938.73, 0.708507
1939.45, 0.707725
1940.18, 0.706994
1940.9, 0.706368
1941.63, 0.705847
1942.36, 0.705117
1943.09, 0.704439
1943.81, 0.704021
1944.54, 0.703708
1945.27, 0.703343
1946.0, 0.702769
1946.73, 0.702196
1947.47, 0.701830
1948.2, 0.701570
1948.93, 0.701257
1949.66, 0.700996
1950.4, 0.700892
1951.13, 0.700839
1951.86, 0.700631
1952.6, 0.700839
1953.34, 0.700944
1954.07, 0.700839
1954.81, 0.701048
1955.55, 0.701257
1956.29, 0.701257
1957.02, 0.701465
1957.76, 0.701778
1958.5, 0.702039
1959.24, 0.702196
1959.98, 0.702352
1960.72, 0.702561
1961.47, 0.702821
1962.21, 0.702978
1962.95, 0.703187
1963.7, 0.703343
1964.44, 0.703604
1965.18, 0.704073
1965.93, 0.704178
1966.67, 0.704126
1967.42, 0.704073
1968.17, 0.704334
1968.92, 0.704334
1969.66, 0.704699
1970.41, 0.704856
1971.16, 0.704856
1971.91, 0.705012
1972.66, 0.704908
1973.41, 0.705064
1974.16, 0.705117
1974.92, 0.705117
1975.67, 0.704960
1976.42, 0.705064
1977.18, 0.704960
1977.93, 0.704856
1978.69, 0.704804
1979.44, 0.704595
1980.2, 0.704543
1980.95, 0.704126
1981.71, 0.704073
1982.47, 0.704386
1983.23, 0.704230
1983.99, 0.703917
1984.74, 0.703708
1985.51, 0.703708
1986.27, 0.703708
1987.03, 0.703708
1987.79, 0.703708
1988.55, 0.703708
1989.32, 0.703656
1990.08, 0.703761
1990.84, 0.703761
1991.61, 0.704178
1992.37, 0.704543
1993.14, 0.704751
1993.9, 0.705064
1994.67, 0.705586
1995.44, 0.705951
1996.21, 0.706368
1996.98, 0.706786
1997.75, 0.707412
1998.52, 0.708038
1999.29, 0.708559
2000.06, 0.709029
2000.83, 0.709446
2001.6, 0.709968
2002.38, 0.710385
2003.15, 0.710959
2003.93, 0.711585
2004.7, 0.712054
2005.48, 0.712471
2006.25, 0.712889
2007.03, 0.713097
2007.81, 0.713462
2008.58, 0.713932
2009.36, 0.713984
2010.14, 0.714141
2010.92, 0.714401
2011.7, 0.714714
2012.48, 0.715132
2013.26, 0.715549
2014.05, 0.715862
2014.83, 0.716123
2015.61, 0.716436
2016.4, 0.716749
2017.18, 0.716905
2017.97, 0.717166
2018.75, 0.717427
2019.54, 0.717896
2020.32, 0.718313
2021.11, 0.718679
2021.9, 0.719200
2022.69, 0.719618
2023.48, 0.719670
2024.27, 0.720191
2025.06, 0.720504
2025.85, 0.720765
2026.64, 0.720974
2027.44, 0.721443
2028.23, 0.722069
2029.02, 0.722799
2029.82, 0.723425
2030.61, 0.723790
2031.41, 0.724155
2032.2, 0.724729
2033.0, 0.725147
2033.8, 0.725668
2034.6, 0.726242
2035.4, 0.726816
2036.2, 0.727390
2037.0, 0.727859
2037.8, 0.728641
2038.6, 0.729372
2039.4, 0.729737
2040.2, 0.730363
2041.01, 0.731354
2041.81, 0.732188
2042.61, 0.732762
2043.42, 0.733232
2044.22, 0.733910
2045.03, 0.734692
2045.84, 0.735109
2046.65, 0.735683
2047.46, 0.736257
2048.26, 0.736726
2049.07, 0.737039
2049.88, 0.737405
2050.69, 0.737822
2051.51, 0.738187
2052.32, 0.738500
2053.13, 0.738813
2053.94, 0.739126
2054.76, 0.739230
2055.57, 0.739439
2056.39, 0.739804
2057.2, 0.739856
2058.02, 0.740169
2058.84, 0.740430
2059.66, 0.740482
2060.48, 0.740638
2061.29, 0.740743
2062.11, 0.740795
2062.94, 0.740899
2063.76, 0.741004
2064.58, 0.741108
2065.4, 0.741264
2066.22, 0.741473
2067.05, 0.741473
2067.87, 0.741525
2068.7, 0.741682
2069.52, 0.741995
2070.35, 0.742151
2071.18, 0.742256
2072.0, 0.742256
2072.83, 0.742360
2073.66, 0.742464
2074.49, 0.742569
2075.32, 0.742777
2076.15, 0.742986
2076.98, 0.743247
2077.82, 0.743455
2078.65, 0.743664
2079.48, 0.743768
2080.32, 0.744133
2081.15, 0.744394
2081.99, 0.744603
2082.83, 0.745020
2083.66, 0.745281
2084.5, 0.745437
2085.34, 0.745646
2086.18, 0.745802
2087.02, 0.746220
2087.86, 0.746689
2088.7, 0.746898
2089.54, 0.747002
2090.39, 0.747211
2091.23, 0.747419
2092.07, 0.747524
2092.92, 0.747732
2093.76, 0.747837
2094.61, 0.747993
2095.45, 0.748045
2096.3, 0.748254
2097.15, 0.748306
2098.0, 0.748254
2098.85, 0.748202
2099.7, 0.748098
2100.55, 0.748150
2101.4, 0.748254
2102.25, 0.748306
2103.1, 0.748045
2103.96, 0.747941
2104.81, 0.748045
2105.67, 0.748098
2106.52, 0.748098
2107.38, 0.747993
2108.24, 0.748045
2109.09, 0.748254
2109.95, 0.748358
2110.81, 0.748463
2111.67, 0.748463
2112.53, 0.748567
2113.39, 0.748828
2114.25, 0.749141
2115.12, 0.749662
2115.98, 0.750132
2116.84, 0.750497
2117.71, 0.750862
2118.58, 0.751279
2119.44, 0.751853
2120.31, 0.752323
2121.18, 0.752636
2122.04, 0.753001
2122.91, 0.753522
2123.78, 0.753940
2124.65, 0.754253
2125.52, 0.754670
2126.4, 0.754983
2127.27, 0.755504
2128.14, 0.756078
2129.02, 0.756496
2129.89, 0.756756
2130.77, 0.757174
2131.64, 0.757539
2132.52, 0.757800
2133.4, 0.758060
2134.27, 0.758426
2135.15, 0.758843
2136.03, 0.759104
2136.91, 0.759312
2137.79, 0.759625
2138.68, 0.759886
2139.56, 0.759938
2140.44, 0.760147
2141.33, 0.760303
2142.21, 0.760251
2143.1, 0.760355
2143.99, 0.760668
2144.87, 0.760773
2145.76, 0.760981
2146.65, 0.761034
2147.54, 0.761086
2148.43, 0.761190
2149.32, 0.761347
2150.21, 0.761399
2151.1, 0.761660
2151.99, 0.761868
2152.89, 0.762025
2153.78, 0.762285
2154.68, 0.762390
2155.57, 0.762390
2156.47, 0.762390
2157.37, 0.762442
2158.27, 0.762390
2159.16, 0.762494
2160.06, 0.762546
2160.96, 0.762703
2161.86, 0.762859
2162.77, 0.762807
2163.67, 0.762964
2164.57, 0.763224
2165.48, 0.763170
2166.38, 0.763115
2167.29, 0.763552
2168.2, 0.763662
2169.1, 0.763060
2170.01, 0.763443
2170.92, 0.763716
2171.83, 0.763443
2172.74, 0.763334
2173.65, 0.763334
2174.56, 0.763060
2175.47, 0.763170
2176.39, 0.762897
2177.3, 0.763060
2178.22, 0.763443
2179.13, 0.763224
2180.05, 0.763006
2180.96, 0.762951
2181.88, 0.762787
2182.8, 0.762186
2183.72, 0.762241
2184.64, 0.762022
2185.56, 0.761749
2186.48, 0.761913
2187.41, 0.762077
2188.33, 0.762405
2189.25, 0.762678
2190.18, 0.762350
2191.1, 0.761913
2192.03, 0.761749
2192.96, 0.761967
2193.89, 0.761476
2194.82, 0.761257
2195.74, 0.761202
2196.68, 0.760984
2197.61, 0.761148
2198.54, 0.761421
2199.47, 0.761257
2200.4, 0.761421
2201.34, 0.760984
2202.28, 0.760383
2203.21, 0.760711
2204.15, 0.761038
2205.08, 0.760656
2206.02, 0.760273
2206.96, 0.760492
2207.9, 0.760601
2208.84, 0.760383
2209.78, 0.760437
2210.73, 0.760437
2211.67, 0.760383
2212.61, 0.760273
2213.56, 0.759836
2214.5, 0.759454
2215.45, 0.759399
2216.4, 0.759618
2217.35, 0.759727
2218.3, 0.759344
2219.24, 0.758907
2220.2, 0.758798
2221.15, 0.758470
2222.1, 0.758197
2223.05, 0.758033
2224.0, 0.757923
2224.96, 0.757923
2225.91, 0.757814
2226.87, 0.757158
2227.83, 0.756393
2228.79, 0.756393
2229.74, 0.756284
2230.7, 0.756120
2231.66, 0.755355
2232.63, 0.754918
2233.59, 0.754808
2234.55, 0.754754
2235.51, 0.754699
2236.48, 0.753989
2237.44, 0.753442
2238.41, 0.753388
2239.38, 0.752950
2240.34, 0.752076
2241.31, 0.751256
2242.28, 0.751256
2243.25, 0.750983
2244.22, 0.750382
2245.19, 0.749835
2246.17, 0.749453
2247.14, 0.748797
2248.12, 0.747759
2249.09, 0.747322
2250.07, 0.746830
2251.04, 0.745955
2252.02, 0.745901
2253.0, 0.745573
2253.98, 0.745081
2254.96, 0.744644
2255.94, 0.743387
2256.92, 0.742513
2257.91, 0.741911
2258.89, 0.740928
2259.88, 0.740217
2260.86, 0.739561
2261.85, 0.738742
2262.83, 0.737430
2263.82, 0.736392
2264.81, 0.735518
2265.8, 0.734425
2266.79, 0.733277
2267.78, 0.732457
2268.78, 0.731146
2269.77, 0.729670
2270.76, 0.728686
2271.76, 0.727648
2272.75, 0.726391
2273.75, 0.725244
2274.75, 0.723768
2275.75, 0.722620
2276.75, 0.720981
2277.75, 0.719451
2278.75, 0.717866
2279.75, 0.716554
2280.75, 0.715133
2281.76, 0.713549
2282.76, 0.711745
2283.77, 0.710488
2284.77, 0.709286
2285.78, 0.708084
2286.79, 0.706882
2287.8, 0.705843
2288.81, 0.704422
2289.82, 0.703439
2290.83, 0.702127
2291.84, 0.701253
2292.86, 0.700378
2293.87, 0.699340
2294.89, 0.697919
2295.91, 0.697209
2296.92, 0.696389
2297.94, 0.695351
2298.96, 0.694422
2299.98, 0.693383
2301.0, 0.692017
2302.02, 0.691033
2303.04, 0.690050
2304.07, 0.689339
2305.09, 0.688301
2306.12, 0.687153
2307.15, 0.685787
2308.17, 0.684913
2309.2, 0.683929
2310.23, 0.682945
2311.26, 0.681798
2312.29, 0.680650
2313.32, 0.679776
2314.35, 0.678737
2315.39, 0.677918
2316.42, 0.677098
2317.46, 0.676005
2318.5, 0.675295
2319.53, 0.674147
2320.57, 0.672890
2321.61, 0.671196
2322.65, 0.670103
2323.69, 0.669010
2324.73, 0.667808
2325.78, 0.666223
2326.82, 0.665075
2327.86, 0.664146
2328.91, 0.662999
2329.96, 0.661906
2331.01, 0.660375
2332.05, 0.659283
2333.1, 0.658736
2334.15, 0.657916
2335.21, 0.658080
2336.26, 0.658517
2337.31, 0.658681
2338.36, 0.659119
2339.42, 0.659556
2340.48, 0.659993
2341.53, 0.660867
2342.59, 0.661578
2343.65, 0.662179
2344.71, 0.662452
2345.77, 0.663217
2346.83, 0.663928
2347.9, 0.664638
2348.96, 0.665239
2350.02, 0.665458
2351.09, 0.665349
2352.16, 0.665185
2353.23, 0.665349
2354.29, 0.665458
2355.36, 0.665075
2356.43, 0.664802
2357.51, 0.664583
2358.58, 0.664365
2359.65, 0.663764
2360.73, 0.663108
2361.8, 0.662452
2362.88, 0.661523
2363.96, 0.660649
2365.03, 0.659720
2366.11, 0.658572
2367.19, 0.657698
2368.27, 0.656550
2369.36, 0.655293
2370.44, 0.653982
2371.53, 0.652451
2372.61, 0.651031
2373.7, 0.649828
2374.78, 0.648571
2375.87, 0.647424
2376.96, 0.646440
2378.05, 0.646003
2379.14, 0.645347
2380.24, 0.645074
2381.33, 0.645128
2382.42, 0.645183
2383.52, 0.644965
2384.61, 0.644527
2385.71, 0.644254
2386.81, 0.643926
2387.91, 0.643708
2389.01, 0.643926
2390.11, 0.643871
2391.22, 0.643762
2392.32, 0.643489
2393.42, 0.643434
2394.53, 0.643434
2395.64, 0.643270
2396.74, 0.642997
2397.85, 0.642888
2398.96, 0.642997
2400.07, 0.642615
2401.18, 0.642013
2402.3, 0.641686
2403.41, 0.641358
2404.52, 0.640921
2405.64, 0.640757
2406.76, 0.640866
2407.88, 0.640593
2408.99, 0.640155
2410.11, 0.639554
2411.23, 0.638571
2412.36, 0.638243
2413.48, 0.637806
2414.6, 0.637314
2415.73, 0.636658
2416.85, 0.636166
2417.98, 0.635565
2419.11, 0.635292
2420.24, 0.634636
2421.37, 0.633434
2422.5, 0.633106
2423.64, 0.632559
2424.77, 0.631903
2425.9, 0.631576
2427.04, 0.631138
2428.18, 0.630428
2429.31, 0.629390
2430.45, 0.628515
2431.59, 0.628351
2432.73, 0.627914
2433.88, 0.627368
2435.02, 0.626930
2436.16, 0.626493
2437.31, 0.625837
2438.45, 0.625346
2439.6, 0.625072
2440.75, 0.624690
2441.9, 0.624307
2443.05, 0.623815
2444.2, 0.623214
2445.35, 0.623105
2446.51, 0.623050
2447.67, 0.622613
2448.82, 0.621957
2449.98, 0.621520
2451.14, 0.621411
2452.3, 0.621192
2453.46, 0.620919
2454.62, 0.620427
2455.78, 0.620154
2456.94, 0.620154
2458.11, 0.619444
2459.28, 0.619061
2460.44, 0.619061
2461.61, 0.618733
2462.78, 0.618241
2463.95, 0.617640
2465.12, 0.616984
2466.3, 0.616438
2467.47, 0.616219
2468.65, 0.615509
2469.82, 0.614580
2471.0, 0.613815
2472.18, 0.613432
2473.36, 0.612776
2474.54, 0.612285
2475.72, 0.611847
2476.9, 0.611028
2478.08, 0.610372
2479.27, 0.609880
2480.46, 0.609279
2481.64, 0.608896
2482.83, 0.608295
2484.02, 0.607530
2485.21, 0.606929
2486.4, 0.606656
2487.6, 0.606492
2488.79, 0.605836
2489.99, 0.605399
2491.18, 0.604907
2492.38, 0.604415
2493.58, 0.603923
2494.78, 0.603377
2495.98, 0.602502
2497.18, 0.602065
2498.39, 0.601847
2499.59, 0.601300
2500.8, 0.600754
2502.01, 0.600371
2503.21, 0.599661
2504.42, 0.599005
2505.63, 0.598294
2506.84, 0.597529
2508.06, 0.596710
2509.27, 0.596218
2510.49, 0.595562
2511.7, 0.594578
2512.92, 0.593649
2514.14, 0.592939
2515.36, 0.592010
2516.58, 0.591026
2517.8, 0.589988
2519.03, 0.588950
2520.25, 0.587638
2521.48, 0.586326
2522.7, 0.585179
2523.93, 0.584359
2525.16, 0.583211
2526.39, 0.581736
2527.62, 0.580479
2528.86, 0.579167
2530.09, 0.577910
2531.33, 0.577036
2532.56, 0.575670
2533.8, 0.574030
2535.04, 0.573320
2536.28, 0.572555
2537.52, 0.570806
2538.76, 0.569713
2540.01, 0.569003
2541.25, 0.568511
2542.5, 0.568347
2543.75, 0.567964
2544.99, 0.566926
2546.24, 0.566325
2547.49, 0.566544
2548.75, 0.566216
2550.0, 0.565505
2551.26, 0.565724
2552.51, 0.565997
2553.77, 0.564576
2555.03, 0.562882
2556.29, 0.562062
2557.55, 0.561571
2558.81, 0.561680
2560.08, 0.562937
2561.34, 0.564030
2562.61, 0.563374
2563.88, 0.562062
2565.14, 0.559221
2566.41, 0.556488
2567.68, 0.555668
2568.96, 0.556270
2570.23, 0.555013
2571.51, 0.552663
2572.78, 0.553865
2574.06, 0.552991
2575.34, 0.550313
2576.62, 0.550368
2577.9, 0.548291
2579.18, 0.546050
2580.47, 0.545832
2581.75, 0.545231
2583.04, 0.546433
2584.32, 0.546433
2585.61, 0.543154
2586.9, 0.542771
2588.2, 0.541569
2589.49, 0.539820
2590.78, 0.537634
2592.08, 0.536979
2593.37, 0.540913
2594.67, 0.546487
2595.97, 0.541678
2597.27, 0.535284
2598.57, 0.532388
2599.88, 0.531732
2601.18, 0.532115
2602.49, 0.532497
2603.79, 0.533153
2605.1, 0.534847
2606.41, 0.533481
2607.72, 0.530585
2609.03, 0.529382
2610.35, 0.528126
2611.66, 0.526377
2612.98, 0.525994
2614.3, 0.524792
2615.62, 0.525885
2616.94, 0.526923
2618.26, 0.523480
2619.58, 0.522879
2620.91, 0.521404
2622.23, 0.516321
2623.56, 0.513753
2624.89, 0.513152
2626.22, 0.514463
2627.55, 0.512004
2628.88, 0.510419
2630.21, 0.511622
2631.55, 0.508233
2632.89, 0.505009
2634.22, 0.503206
2635.56, 0.500255
2636.9, 0.498342
2638.25, 0.496757
2639.59, 0.495227
2640.93, 0.493533
2642.28, 0.491784
2643.63, 0.489817
2644.98, 0.489161
2646.33, 0.487194
2647.68, 0.484461
2649.03, 0.482494
2650.39, 0.481182
2651.74, 0.480800
2653.1, 0.479543
2654.46, 0.477357
2655.82, 0.475717
2657.18, 0.473203
2658.54, 0.473094
2659.9, 0.472657
2661.27, 0.470908
2662.64, 0.469269
2664.01, 0.470908
2665.38, 0.473313
2666.74, 0.472111
2668.12, 0.468176
2669.49, 0.469214
2670.87, 0.469433
2672.24, 0.463203
2673.62, 0.460580
2675.0, 0.461071
2676.38, 0.462492
2677.76, 0.461071
2679.15, 0.459104
2680.54, 0.455825
2681.92, 0.453694
2683.31, 0.453257
2684.7, 0.451836
2686.09, 0.450251
2687.48, 0.448612
2688.88, 0.446535
2690.27, 0.444294
2691.67, 0.443201
2693.07, 0.443802
2694.47, 0.442218
2695.87, 0.437791
2697.27, 0.433747
2698.67, 0.430414
2700.08, 0.428173
2701.49, 0.426096
2702.9, 0.422653
2704.31, 0.419265
2705.72, 0.416587
2707.13, 0.414729
2708.54, 0.414128
2709.96, 0.413582
2711.38, 0.411560
2712.8, 0.406532
2714.22, 0.403089
2715.64, 0.400958
2717.06, 0.399428
2718.49, 0.398335
2719.91, 0.399264
2721.34, 0.396367
2722.77, 0.392433
2724.2, 0.391230
2725.63, 0.386749
2727.07, 0.381175
2728.5, 0.377076
2729.94, 0.373196
2731.38, 0.368988
2732.82, 0.364890
2734.26, 0.361392
2735.7, 0.355381
2737.15, 0.349042
2738.59, 0.344943
2740.04, 0.339478
2741.49, 0.330844
2742.94, 0.321061
2744.39, 0.311880
2745.84, 0.302973
2747.3, 0.293846
2748.76, 0.284447
2750.21, 0.274610
2751.67, 0.264445
2753.14, 0.254390
2754.6, 0.245482
2756.06, 0.233897
2757.53, 0.220398
2759.0, 0.207665
2760.46, 0.195205
2761.94, 0.182144
2763.41, 0.167225
2764.88, 0.150885
2766.36, 0.134272
2767.83, 0.116730
2769.31, 0.100171
2770.79, 0.0865090
2772.27, 0.0769450
2773.76, 0.0706610
2775.24, 0.0669450
2776.73, 0.0645400
2778.22, 0.0630100
2779.71, 0.0627370
2781.2, 0.0646490
2782.69, 0.0685840
2784.18, 0.0739940
2785.68, 0.0803880
2787.18, 0.0872190
2788.68, 0.0933950
2790.18, 0.0988050
2791.68, 0.103723
2793.19, 0.108041
2794.69, 0.111702
2796.2, 0.114708
2797.71, 0.116894
2799.22, 0.118861
2800.73, 0.120664
2802.24, 0.122359
2803.76, 0.123670
2805.28, 0.124326
2806.8, 0.124927
2808.32, 0.125474
2809.84, 0.125637
2811.36, 0.125747
2812.89, 0.125856
2814.42, 0.125801
2815.94, 0.125474
2817.48, 0.125310
2819.01, 0.125528
2820.54, 0.125146
2822.08, 0.124271
2823.61, 0.123397
2825.15, 0.122686
2826.69, 0.122085
2828.23, 0.121484
2829.78, 0.120883
2831.32, 0.120337
2832.87, 0.119626
2834.42, 0.118916
2835.97, 0.117987
2837.52, 0.117112
2839.08, 0.116347
2840.63, 0.115254
2842.19, 0.114271
2843.75, 0.113396
2845.31, 0.112249
2846.87, 0.111265
2848.44, 0.110227
2850.0, 0.109134
2851.57, 0.107986
2853.14, 0.106838
2854.71, 0.105636
2856.28, 0.104379
2857.86, 0.103068
2859.43, 0.101975
2861.01, 0.100718
2862.59, 0.0995150
2864.17, 0.0983680
2865.76, 0.0972750
2867.34, 0.0959090
2868.93, 0.0943780
2870.52, 0.0931210
2872.11, 0.0919740
2873.7, 0.0906620
2875.29, 0.0892960
2876.89, 0.0878210
2878.49, 0.0864540
2880.08, 0.0851430
2881.69, 0.0836670
2883.29, 0.0823010
2884.89, 0.0806070
2886.5, 0.0786940
2888.11, 0.0769450
2889.72, 0.0754150
2891.33, 0.0736670
2892.94, 0.0716990
2894.56, 0.0698410
2896.17, 0.0678740
2897.79, 0.0660700
2899.42, 0.0642670
2901.04, 0.0619720
2902.66, 0.0597310
2904.29, 0.0575450
2905.92, 0.0551410
2907.55, 0.0528450
2909.18, 0.0508230
2910.81, 0.0487470
2912.45, 0.0467250
2914.08, 0.0448120
2915.72, 0.0430630
2917.36, 0.0420250
2919.01, 0.0413690
2920.65, 0.0406590
2922.3, 0.0400030
2923.94, 0.0397840
2925.59, 0.0399480
2927.25, 0.0402760
2928.9, 0.0409870
2930.56, 0.0418060
2932.21, 0.0427900
2933.87, 0.0442110
2935.53, 0.0455770
2937.2, 0.0471620
2938.86, 0.0490200
2940.53, 0.0511510
2942.2, 0.0531730
2943.87, 0.0552500
2945.54, 0.0574900
2947.22, 0.0600590
2948.89, 0.0626270
2950.57, 0.0649230
2952.25, 0.0671630
2953.93, 0.0696770
2955.62, 0.0723550
2957.3, 0.0748690
2958.99, 0.0772730
2960.68, 0.0795140
2962.37, 0.0815360
2964.07, 0.0835580
2965.76, 0.0856350
2967.46, 0.0876570
2969.16, 0.0892410
2970.86, 0.0908810
2972.56, 0.0924660
2974.27, 0.0939410
2975.98, 0.0952530
2977.69, 0.0965100
2979.4, 0.0975480
2981.11, 0.0986960
2982.83, 0.0997340
2984.54, 0.100663
2986.26, 0.101537
2987.98, 0.102466
2989.71, 0.103341
2991.43, 0.104161
2993.16, 0.104926
2994.89, 0.105636
2996.62, 0.106346
2998.35, 0.107112
3000.09, 0.107822
3001.83, 0.108532
3003.57, 0.109297
3005.31, 0.110117
3007.05, 0.110828
3008.79, 0.111538
3010.54, 0.112467
3012.29, 0.113505
3014.04, 0.114434
3015.8, 0.115527
3017.55, 0.116730
3019.31, 0.117877
3021.07, 0.118861
3022.83, 0.120063
3024.59, 0.121266
3026.36, 0.122522
3028.13, 0.123779
3029.9, 0.125200
3031.67, 0.126621
3033.44, 0.127933
3035.22, 0.129463
3037.0, 0.130829
3038.78, 0.132086
3040.56, 0.133452
3042.34, 0.134818
3044.13, 0.136294
3045.92, 0.137496
3047.71, 0.138808
3049.5, 0.140119
3051.3, 0.141267
3053.09, 0.142360
3054.89, 0.143508
3056.69, 0.144601
3058.5, 0.145694
3060.3, 0.146568
3062.11, 0.147606
3063.92, 0.148645
3065.73, 0.149519
3067.55, 0.150339
3069.36, 0.151377
3071.18, 0.152306
3073.0, 0.153180
3074.82, 0.154055
3076.65, 0.155093
3078.48, 0.156022
3080.31, 0.156842
3082.14, 0.157771
3083.97, 0.158809
3085.8, 0.159738
3087.64, 0.160722
3089.48, 0.161651
3091.33, 0.162580
3093.17, 0.163618
3095.02, 0.164602
3096.87, 0.165640
3098.72, 0.166843
3100.57, 0.167881
3102.43, 0.168810
3104.28, 0.169903
3106.14, 0.170996
3108.01, 0.172034
3109.87, 0.173018
3111.74, 0.174056
3113.61, 0.175040
3115.48, 0.176078
3117.35, 0.177226
3119.23, 0.178210
3121.1, 0.179139
3122.98, 0.180013
3124.87, 0.180887
3126.75, 0.181762
3128.64, 0.182745
3130.53, 0.183674
3132.42, 0.184658
3134.31, 0.185587
3136.21, 0.186516
3138.11, 0.187445
3140.01, 0.188265
3141.91, 0.188975
3143.82, 0.189795
3145.73, 0.190560
3147.64, 0.191325
3149.55, 0.192090
3151.46, 0.192910
3153.38, 0.193566
3155.3, 0.194331
3157.22, 0.195041
3159.14, 0.195697
3161.07, 0.196353
3163.0, 0.197009
3164.93, 0.197883
3166.86, 0.198594
3168.8, 0.199249
3170.74, 0.199905
3172.68, 0.200561
3174.62, 0.201217
3176.56, 0.201818
3178.51, 0.202419
3180.46, 0.202911
3182.42, 0.203676
3184.37, 0.204386
3186.33, 0.205042
3188.29, 0.205698
3190.25, 0.206354
3192.21, 0.207009
3194.18, 0.207665
3196.15, 0.208321
3198.12, 0.208977
3200.09, 0.209851
3202.07, 0.210562
3204.05, 0.211217
3206.03, 0.211982
3208.02, 0.212638
3210.0, 0.213294
3211.99, 0.214168
3213.98, 0.214934
3215.98, 0.215644
3217.97, 0.216518
3219.97, 0.217338
3221.97, 0.218212
3223.98, 0.219087
3225.98, 0.219743
3227.99, 0.220508
3230.0, 0.221437
3232.02, 0.222475
3234.03, 0.223459
3236.05, 0.224224
3238.07, 0.225098
3240.1, 0.226027
3242.12, 0.226902
3244.15, 0.227885
3246.18, 0.228814
3248.22, 0.229579
3250.25, 0.230454
3252.29, 0.231328
3254.33, 0.232203
3256.38, 0.233132
3258.43, 0.233951
3260.47, 0.234880
3262.53, 0.235755
3264.58, 0.236520
3266.64, 0.237230
3268.7, 0.238159
3270.76, 0.239198
3272.82, 0.240072
3274.89, 0.240892
3276.96, 0.241711
3279.04, 0.242586
3281.11, 0.243460
3283.19, 0.244444
3285.27, 0.245318
3287.35, 0.246138
3289.44, 0.246958
3291.53, 0.247832
3293.62, 0.248706
3295.71, 0.249581
3297.81, 0.250346
3299.91, 0.251056
3302.01, 0.251876
3304.11, 0.252860
3306.22, 0.253789
3308.33, 0.254609
3310.44, 0.255374
3312.56, 0.256303
3314.68, 0.257232
3316.8, 0.258051
3318.92, 0.258762
3321.05, 0.259582
3323.18, 0.260401
3325.31, 0.261002
3327.44, 0.261822
3329.58, 0.262751
3331.72, 0.263571
3333.86, 0.264445
3336.01, 0.265265
3338.16, 0.266139
3340.31, 0.266795
3342.46, 0.267560
3344.61, 0.268271
3346.77, 0.269036
3348.94, 0.269855
3351.1, 0.270621
3353.27, 0.271276
3355.44, 0.272041
3357.61, 0.272752
3359.79, 0.273353
3361.97, 0.274009
3364.15, 0.274665
3366.33, 0.275211
3368.52, 0.275867
3370.71, 0.276632
3372.9, 0.277397
3375.1, 0.278053
3377.3, 0.278763
3379.5, 0.279583
3381.71, 0.280403
3383.91, 0.281168
3386.12, 0.281769
3388.34, 0.282425
3390.55, 0.283081
3392.77, 0.283900
3394.99, 0.284556
3397.22, 0.285157
3399.45, 0.285758
3401.68, 0.286359
3403.91, 0.287015
3406.15, 0.287562
3408.39, 0.288272
3410.63, 0.288983
3412.87, 0.289693
3415.12, 0.290403
3417.37, 0.291114
3419.63, 0.291934
3421.88, 0.292863
3424.14, 0.293846
3426.41, 0.294666
3428.67, 0.295486
3430.94, 0.296415
3433.21, 0.297289
3435.49, 0.298000
3437.77, 0.298765
3440.05, 0.299639
3442.33, 0.300513
3444.62, 0.301224
3446.91, 0.301989
3449.2, 0.303027
3451.5, 0.303956
3453.8, 0.304721
3456.1, 0.305541
3458.41, 0.306416
3460.72, 0.307345
3463.03, 0.308274
3465.34, 0.309148
3467.66, 0.309968
3469.98, 0.310787
3472.31, 0.311716
3474.63, 0.312536
3476.96, 0.313247
3479.3, 0.313957
3481.64, 0.314831
3483.97, 0.315651
3486.32, 0.316307
3488.66, 0.316963
3491.01, 0.317673
3493.36, 0.318329
3495.72, 0.318930
3498.08, 0.319641
3500.44, 0.320624
3502.81, 0.321663
3505.18, 0.322701
3507.55, 0.323630
3509.92, 0.324450
3512.3, 0.325379
3514.68, 0.326308
3517.06, 0.327127
3519.45, 0.328002
3521.84, 0.328931
3524.24, 0.329696
3526.64, 0.330570
3529.04, 0.331335
3531.44, 0.332100
3533.85, 0.332920
3536.26, 0.333795
3538.67, 0.334669
3541.09, 0.335543
3543.51, 0.336254
3545.93, 0.337019
3548.36, 0.337839
3550.79, 0.338658
3553.22, 0.339369
3555.66, 0.340188
3558.1, 0.341117
3560.54, 0.341664
3562.99, 0.342265
3565.44, 0.343085
3567.9, 0.343741
3570.35, 0.344451
3572.81, 0.345216
3575.28, 0.346036
3577.75, 0.346692
3580.22, 0.347511
3582.69, 0.348222
3585.17, 0.348823
3587.65, 0.349479
3590.14, 0.350135
3592.62, 0.350845
3595.11, 0.351665
3597.61, 0.352320
3600.11, 0.352976
3602.61, 0.353796
3605.11, 0.354561
3607.62, 0.355108
3610.14, 0.355763
3612.65, 0.356474
3615.17, 0.357130
3617.69, 0.357840
3620.22, 0.358496
3622.75, 0.359097
3625.28, 0.359753
3627.82, 0.360354
3630.36, 0.361064
3632.9, 0.361775
3635.45, 0.362540
3638.0, 0.363141
3640.56, 0.363742
3643.12, 0.364289
3645.68, 0.364890
3648.24, 0.365436
3650.81, 0.365983
3653.39, 0.366584
3655.96, 0.367185
3658.54, 0.367786
3661.13, 0.368387
3663.71, 0.368934
3666.3, 0.369535
3668.9, 0.370191
3671.5, 0.370846
3674.1, 0.371448
3676.7, 0.372049
3679.31, 0.372650
3681.93, 0.373306
3684.54, 0.373907
3687.17, 0.374508
3689.79, 0.375164
3692.42, 0.375765
3695.05, 0.376257
3697.69, 0.376803
3700.32, 0.377404
3702.97, 0.377951
3705.61, 0.378606
3708.27, 0.379317
3710.92, 0.379863
3713.58, 0.380301
3716.24, 0.380956
3718.91, 0.381558
3721.58, 0.382104
3724.25, 0.382596
3726.93, 0.383142
3729.61, 0.383798
3732.29, 0.384454
3734.98, 0.384836
3737.67, 0.385274
3740.37, 0.385765
3743.07, 0.386257
3745.78, 0.386804
3748.49, 0.387405
3751.2, 0.387951
3753.91, 0.388225
3756.63, 0.388607
3759.36, 0.388935
3762.09, 0.389427
3764.82, 0.389919
3767.55, 0.390247
3770.29, 0.390520
3773.04, 0.390848
3775.78, 0.391230
3778.54, 0.391613
3781.29, 0.391995
3784.05, 0.392433
3786.82, 0.392761
3789.59, 0.393034
3792.36, 0.393252
3795.13, 0.393580
3797.92, 0.393854
3800.7, 0.394127
3803.49, 0.394236
3806.28, 0.394400
3809.08, 0.394564
3811.88, 0.394564
3814.68, 0.394564
3817.49, 0.394728
3820.31, 0.394783
3823.12, 0.394728
3825.94, 0.394728
3828.77, 0.394673
3831.6, 0.394564
3834.43, 0.394455
3837.27, 0.394400
3840.11, 0.394509
3842.96, 0.394619
3845.81, 0.394783
3848.67, 0.394946
3851.53, 0.395056
3854.39, 0.395165
3857.26, 0.395220
3860.13, 0.395165
3863.01, 0.395220
3865.89, 0.395110
3868.77, 0.395165
3871.66, 0.395056
3874.55, 0.394946
3877.45, 0.394837
3880.35, 0.394673
3883.26, 0.394455
3886.17, 0.394236
3889.09, 0.394072
3892.01, 0.394017
3894.93, 0.394072
3897.86, 0.394400
3900.79, 0.394673
3903.73, 0.395001
3906.67, 0.395438
3909.62, 0.395876
3912.57, 0.396040
3915.52, 0.395985
3918.48, 0.395766
3921.45, 0.395493
3924.42, 0.395329
3927.39, 0.395657
3930.37, 0.396258
3933.35, 0.396805
3936.34, 0.397023
3939.33, 0.397078
3942.32, 0.396969
3945.32, 0.396422
3948.33, 0.395602
3951.34, 0.394564
3954.35, 0.393744
3957.37, 0.393635
3960.39, 0.394400
3963.42, 0.395712
3966.45, 0.397023
3969.49, 0.398225
3972.53, 0.399100
3975.58, 0.399865
3978.63, 0.400302
3981.68, 0.400630
3984.75, 0.400903
3987.81, 0.401122
3990.88, 0.401231
3993.95, 0.401122
3997.03, 0.401013
4000.12, 0.400849
4003.21, 0.400849
4006.3, 0.400794
4009.4, 0.400685
4012.5, 0.400466
4015.61, 0.400247
4018.72, 0.399974
4021.84, 0.399592
4024.96, 0.399209
4028.09, 0.398936
4031.22, 0.398553
4034.36, 0.398061
4037.5, 0.397515
4040.65, 0.397023
4043.8, 0.396531
4046.96, 0.395985
4050.12, 0.395384
4053.29, 0.394892
4056.46, 0.394509
4059.64, 0.394017
4062.82, 0.393580
4066.0, 0.393198
4069.19, 0.392870
4072.39, 0.392433
4075.59, 0.392105
4078.8, 0.391777
4082.01, 0.391504
4085.23, 0.391285
4088.45, 0.391230
4091.68, 0.391176
4094.91, 0.391066
4098.15, 0.391012
4101.39, 0.391066
4104.63, 0.391176
4107.89, 0.391230
4111.14, 0.391230
4114.41, 0.391340
4117.67, 0.391668
4120.95, 0.391941
4124.23, 0.391995
4127.51, 0.392105
4130.8, 0.392378
4134.09, 0.392706
4137.39, 0.392870
4140.7, 0.393088
4144.01, 0.393252
4147.32, 0.393416
4150.64, 0.393580
4153.97, 0.393744
4157.3, 0.393854
4160.64, 0.393963
4163.98, 0.393908
4167.33, 0.393854
4170.68, 0.393799
4174.04, 0.393580
4177.4, 0.393198
4180.77, 0.392706
4184.14, 0.392323
4187.52, 0.391941
4190.91, 0.391504
4194.3, 0.390957
4197.69, 0.390137
4201.1, 0.389427
4204.5, 0.388662
4207.92, 0.387897
4211.34, 0.387077
4214.76, 0.386148
4218.19, 0.385164
4221.62, 0.384235
4225.06, 0.383306
4228.51, 0.382159
4231.96, 0.380902
4235.42, 0.379754
4238.88, 0.378661
4242.35, 0.377568
4245.83, 0.376639
4249.31, 0.375710
4252.79, 0.374836
4256.28, 0.374125
4259.78, 0.373907
4263.29, 0.374016
4266.79, 0.374344
4270.31, 0.374781
4273.83, 0.375273
4277.35, 0.375874
4280.89, 0.376530
4284.42, 0.377240
4287.97, 0.378060
4291.52, 0.378934
4295.07, 0.379590
4298.63, 0.380246
4302.2, 0.380847
4305.78, 0.381394
4309.35, 0.381940
4312.94, 0.382541
4316.53, 0.383088
4320.13, 0.383525
4323.73, 0.383853
4327.34, 0.384071
4330.96, 0.384290
4334.58, 0.384673
4338.21, 0.385328
4341.84, 0.385929
4345.48, 0.386476
4349.12, 0.387077
4352.77, 0.387733
4356.43, 0.388334
4360.1, 0.388826
4363.76, 0.389318
4367.44, 0.389864
4371.12, 0.390411
4374.81, 0.390848
4378.51, 0.391230
4382.21, 0.391504
4385.92, 0.391886
4389.63, 0.392323
4393.35, 0.392597
4397.08, 0.392761
4400.81, 0.393143
4404.55, 0.393362
4408.29, 0.393526
4412.04, 0.393799
4415.8, 0.394017
4419.57, 0.394345
4423.34, 0.394673
4427.12, 0.394946
4430.9, 0.395220
4434.69, 0.395548
4438.49, 0.395766
4442.29, 0.395985
4446.1, 0.396149
4449.92, 0.396203
4453.74, 0.396258
4457.57, 0.396203
4461.41, 0.396203
4465.25, 0.396258
4469.1, 0.396313
4472.95, 0.396203
4476.82, 0.396094
4480.69, 0.396040
4484.56, 0.396040
4488.44, 0.395930
4492.33, 0.395821
4496.23, 0.395766
4500.13, 0.395821
4504.04, 0.395766
4507.96, 0.395821
4511.88, 0.395821
4515.81, 0.395821
4519.75, 0.395766
4523.69, 0.395821
4527.65, 0.395712
4531.6, 0.395602
4535.57, 0.395493
4539.54, 0.395329
4543.52, 0.395110
4547.5, 0.394946
4551.5, 0.394673
4555.5, 0.394564
4559.5, 0.394345
4563.52, 0.394072
4567.54, 0.393854
4571.56, 0.393690
4575.6, 0.393471
4579.64, 0.393362
4583.69, 0.393252
4587.75, 0.393143
4591.81, 0.392979
4595.88, 0.392924
4599.96, 0.392815
4604.04, 0.392651
4608.14, 0.392542
4612.24, 0.392323
4616.34, 0.392050
4620.46, 0.391722
4624.58, 0.391121
4628.71, 0.390465
4632.84, 0.389646
4636.99, 0.389099
4641.14, 0.389044
4645.3, 0.389372
4649.47, 0.389919
4653.64, 0.390793
4657.82, 0.391832
4662.01, 0.392924
4666.21, 0.393526
4670.41, 0.393963
4674.62, 0.394072
4678.84, 0.393908
4683.07, 0.393690
4687.3, 0.393416
4691.54, 0.393034
4695.79, 0.392761
4700.05, 0.392651
4704.31, 0.392815
4708.59, 0.393143
4712.87, 0.393635
4717.15, 0.394181
4721.45, 0.394673
4725.76, 0.395110
4730.07, 0.395438
4734.39, 0.395602
4738.72, 0.395602
4743.05, 0.395384
4747.39, 0.395165
4751.75, 0.394892
4756.1, 0.394673
4760.47, 0.394619
4764.85, 0.394837
4769.23, 0.395110
4773.62, 0.395384
4778.02, 0.395766
4782.43, 0.396203
4786.85, 0.396367
4791.27, 0.396477
4795.7, 0.396422
4800.14, 0.396477
4804.59, 0.396422
4809.05, 0.396367
4813.51, 0.396149
4817.99, 0.396094
4822.47, 0.395985
4826.96, 0.396094
4831.46, 0.396094
4835.96, 0.396149
4840.48, 0.396313
4845.0, 0.396422
4849.54, 0.396477
4854.08, 0.396695
4858.63, 0.396859
4863.18, 0.397078
4867.75, 0.397406
4872.33, 0.397898
4876.91, 0.398280
4881.5, 0.398499
4886.1, 0.398553
4890.71, 0.398499
4895.33, 0.398335
4899.96, 0.398280
4904.59, 0.398116
4909.24, 0.397952
4913.89, 0.397679
4918.55, 0.397570
4923.22, 0.397406
4927.9, 0.397187
4932.59, 0.396859
4937.29, 0.396586
4942.0, 0.396149
4946.71, 0.395930
4951.44, 0.395657
4956.17, 0.395438
4960.91, 0.394946
4965.67, 0.394509
4970.43, 0.394236
4975.2, 0.393854
4979.98, 0.393416
4984.76, 0.392924
4989.56, 0.392378
4994.37, 0.391832
4999.18, 0.391176
5004.01, 0.390575
5008.84, 0.390028
5013.69, 0.389864
5018.54, 0.389864
5023.4, 0.389536
5028.28, 0.388935
5033.16, 0.388443
5038.05, 0.387951
5042.95, 0.387624
5047.86, 0.387077
5052.78, 0.386640
5057.71, 0.386203
5062.65, 0.385765
5067.6, 0.385219
5072.56, 0.384836
5077.53, 0.384454
5082.5, 0.384181
5087.49, 0.383525
5092.49, 0.382978
5097.5, 0.382541
5102.51, 0.382104
5107.54, 0.381612
5112.58, 0.381284
5117.62, 0.380847
5122.68, 0.380355
5127.75, 0.379863
5132.82, 0.379536
5137.91, 0.379153
5143.01, 0.379044
5148.12, 0.378825
5153.23, 0.378005
5158.36, 0.377295
5163.5, 0.376912
5168.65, 0.376421
5173.81, 0.375983
5178.98, 0.375546
5184.15, 0.375218
5189.34, 0.374781
5194.54, 0.374563
5199.75, 0.374344
5204.98, 0.373743
5210.21, 0.373688
5215.45, 0.373415
5220.7, 0.372213
5225.96, 0.371611
5231.23, 0.371229
5236.52, 0.370901
5241.81, 0.370245
5247.12, 0.369699
5252.44, 0.369043
5257.76, 0.368606
5263.1, 0.368005
5268.45, 0.367567
5273.81, 0.367130
5279.18, 0.366584
5284.56, 0.365928
5289.95, 0.365873
5295.36, 0.365108
5300.77, 0.364125
5306.2, 0.363414
5311.63, 0.362704
5317.08, 0.361993
5322.54, 0.361338
5328.01, 0.360627
5333.49, 0.359971
5338.98, 0.359206
5344.49, 0.359097
5350.0, 0.359206
5355.53, 0.357731
5361.07, 0.356037
5366.62, 0.354725
5372.18, 0.353413
5377.75, 0.351883
5383.34, 0.349588
5388.93, 0.346801
5394.54, 0.344396
5400.16, 0.343303
5405.79, 0.343467
5411.44, 0.344342
5417.09, 0.345817
5422.76, 0.346801
5428.43, 0.344888
5434.12, 0.343413
5439.83, 0.342593
5445.54, 0.341719
5451.26, 0.340516
5457.0, 0.339861
5462.75, 0.339806
5468.52, 0.338604
5474.29, 0.337128
5480.08, 0.336144
5485.88, 0.334177
5491.69, 0.332866
5497.51, 0.331827
5503.35, 0.330789
5509.2, 0.329368
5515.06, 0.328439
5520.93, 0.327565
5526.82, 0.326308
5532.71, 0.324723
5538.63, 0.323521
5544.55, 0.322592
5550.49, 0.322045
5556.44, 0.320624
5562.4, 0.319039
5568.37, 0.317728
5574.36, 0.317619
5580.36, 0.316908
5586.37, 0.314340
5592.4, 0.312099
5598.44, 0.311061
5604.49, 0.309858
5610.56, 0.308438
5616.63, 0.307017
5622.73, 0.305104
5628.83, 0.303574
5634.95, 0.303410
5641.08, 0.303519
5647.23, 0.301279
5653.39, 0.298983
5659.56, 0.297016
5665.74, 0.295049
5671.94, 0.294775
5678.15, 0.294120
5684.38, 0.293136
5690.62, 0.293136
5696.87, 0.292262
5703.14, 0.291824
5709.42, 0.292535
5715.72, 0.291387
5722.03, 0.289693
5728.35, 0.288108
5734.69, 0.287070
5741.03, 0.286141
5747.4, 0.285540
5753.78, 0.283354
5760.17, 0.283408
5766.58, 0.284064
5773.0, 0.280457
5779.44, 0.277233
5785.88, 0.275102
5792.35, 0.273025
5798.83, 0.271495
5805.32, 0.269637
5811.83, 0.268435
5818.35, 0.268653
5824.89, 0.267123
5831.45, 0.263352
5838.01, 0.259964
5844.59, 0.257122
5851.19, 0.255155
5857.8, 0.253406
5864.43, 0.251494
5871.07, 0.248980
5877.73, 0.249362
5884.4, 0.246794
5891.09, 0.243078
5897.79, 0.240673
5904.5, 0.235919
5911.23, 0.232804
5917.98, 0.230727
5924.75, 0.228596
5931.53, 0.228377
5938.32, 0.227229
5945.13, 0.222694
5951.96, 0.219305
5958.8, 0.217174
5965.65, 0.216245
5972.53, 0.214114
5979.42, 0.211600
5986.32, 0.210726
5993.24, 0.208594
6000.18, 0.205643
6007.13, 0.204168
6014.1, 0.203348
6021.08, 0.201271
6028.09, 0.199413
6035.1, 0.198430
6042.14, 0.199632
6049.19, 0.200725
6056.25, 0.196626
6063.34, 0.194112
6070.44, 0.194222
6077.55, 0.192582
6084.69, 0.190232
6091.84, 0.188866
6099.0, 0.188101
6106.19, 0.188374
6113.39, 0.188866
6120.61, 0.186571
6127.84, 0.184440
6135.09, 0.183620
6142.36, 0.183128
6149.65, 0.182090
6156.95, 0.181488
6164.27, 0.179958
6171.61, 0.177936
6178.97, 0.177226
6186.34, 0.176242
6193.73, 0.173182
6201.14, 0.170668
6208.57, 0.168373
6216.01, 0.166023
6223.47, 0.163181
6230.95, 0.160175
6238.45, 0.156951
6245.97, 0.153618
6253.5, 0.150120
6261.06, 0.146623
6268.63, 0.142852
6276.21, 0.138917
6283.82, 0.134818
6291.45, 0.130884
6299.1, 0.126840
6306.76, 0.123014
6314.44, 0.119189
6322.14, 0.115527
6329.86, 0.111757
6337.6, 0.108860
6345.35, 0.105527
6353.13, 0.101264
6360.92, 0.0977670
6368.74, 0.0949800
6376.57, 0.0915370
6384.43, 0.0883670
6392.3, 0.0854160
6400.19, 0.0829020
6408.1, 0.0815360
6416.03, 0.0793500
6423.98, 0.0757980
6431.95, 0.0731750
6439.94, 0.0706060
6447.95, 0.0683110
6455.98, 0.0661250
6464.03, 0.0642670
6472.1, 0.0626820
6480.19, 0.0613710
6488.31, 0.0602230
6496.44, 0.0588570
6504.59, 0.0569990
6512.76, 0.0557960
6520.95, 0.0548670
6529.16, 0.0537200
6537.4, 0.0527360
6545.65, 0.0521900
6553.92, 0.0515340
6562.22, 0.0511510
6570.54, 0.0509870
6578.88, 0.0503860
6587.23, 0.0498400
6595.61, 0.0493480
6604.02, 0.0487470
6612.44, 0.0484190
6620.89, 0.0482550
6629.35, 0.0485280
6637.84, 0.0484730
6646.35, 0.0476540
6654.88, 0.0470530
6663.44, 0.0469430
6672.01, 0.0469430
6680.61, 0.0469980
6689.23, 0.0466150
6697.88, 0.0461780
6706.54, 0.0460140
6715.23, 0.0457960
6723.94, 0.0454680
6732.67, 0.0455770
6741.42, 0.0461240
6750.2, 0.0471070
6759.0, 0.0483640
6767.82, 0.0498400
6776.67, 0.0514790
6785.54, 0.0533920
6794.44, 0.0552500
6803.35, 0.0565610
6812.29, 0.0577640
6821.26, 0.0591300
6830.24, 0.0603320
6839.25, 0.0610970
6848.29, 0.0621900
6857.35, 0.0637200
6866.43, 0.0644860
6875.54, 0.0643220
6884.67, 0.0644310
6893.82, 0.0646490
6903.0, 0.0648680
6912.2, 0.0650320
6921.43, 0.0650320
6930.69, 0.0649770
6939.96, 0.0648130
6949.27, 0.0649230
6958.59, 0.0649770
6967.95, 0.0642670
6977.33, 0.0635560
6986.73, 0.0632830
6996.16, 0.0626820
7005.61, 0.0620260
7015.09, 0.0615340
7024.6, 0.0611520
7034.13, 0.0608240
7043.69, 0.0606600
7053.27, 0.0600590
7062.88, 0.0592390
7072.52, 0.0588020
7082.18, 0.0583650
7091.87, 0.0579820
7101.58, 0.0577090
7111.32, 0.0574360
7121.09, 0.0572170
7130.88, 0.0570530
7140.71, 0.0571080
7150.56, 0.0569440
7160.43, 0.0569990
7170.33, 0.0571080
7180.27, 0.0571630
7190.23, 0.0572720
7200.21, 0.0577090
7210.23, 0.0580920
7220.27, 0.0583650
7230.34, 0.0588020
7240.44, 0.0595670
7250.56, 0.0602230
7260.72, 0.0609880
7270.9, 0.0620260
7281.12, 0.0630100
7291.36, 0.0639390
7301.63, 0.0651960
7311.93, 0.0665080
7322.25, 0.0678740
7332.61, 0.0695680
7343.0, 0.0713710
7353.41, 0.0731750
7363.86, 0.0751420
7374.33, 0.0772190
7384.83, 0.0794590
7395.37, 0.0818090
7405.93, 0.0843230
7416.53, 0.0870550
7427.15, 0.0898970
7437.81, 0.0928480
7448.5, 0.0961270
7459.22, 0.0995700
7469.96, 0.103013
7480.74, 0.106510
7491.55, 0.110172
7502.39, 0.113997
7513.27, 0.117877
7524.17, 0.121921
7535.11, 0.125965
7546.08, 0.130119
7557.08, 0.134272
7568.11, 0.138535
7579.17, 0.142579
7590.27, 0.146513
7601.4, 0.150284
7612.56, 0.154109
7623.76, 0.157771
7634.98, 0.161323
7646.24, 0.164657
7657.54, 0.167772
7668.87, 0.170613
7680.23, 0.173564
7691.62, 0.176406
7703.05, 0.179084
7714.51, 0.181325
7726.01, 0.183401
7737.54, 0.185259
7749.11, 0.186899
7760.71, 0.188156
7772.35, 0.189358
7784.02, 0.190451
7795.72, 0.191380
7807.46, 0.191981
7819.23, 0.192364
7831.04, 0.192418
7842.89, 0.192036
7854.77, 0.191544
7866.69, 0.191271
7878.65, 0.191052
7890.64, 0.190724
7902.67, 0.190287
7914.74, 0.189740
7926.84, 0.189030
7938.98, 0.188046
7951.16, 0.187008
7963.37, 0.186024
7975.62, 0.184767
7987.91, 0.183510
8000.24, 0.182035
8012.6, 0.180450
8025.01, 0.178647
8037.45, 0.176843
8049.93, 0.174985
8062.45, 0.173291
8075.01, 0.171160
8087.61, 0.168701
8100.24, 0.166023
8112.91, 0.163126
8125.63, 0.159902
8138.39, 0.156186
8151.18, 0.152087
8164.02, 0.147497
8176.9, 0.142087
8189.81, 0.135747
8202.77, 0.128588
8215.77, 0.120446
8228.82, 0.111101
8241.9, 0.100772
8255.02, 0.0897880
8268.19, 0.0784210
8281.39, 0.0673820
8294.65, 0.0575450
8307.94, 0.0495120
8321.28, 0.0434460
8334.66, 0.0396750
8348.08, 0.0379260
8361.54, 0.0377080
8375.05, 0.0389100
8388.6, 0.0414240
8402.2, 0.0447030
8415.84, 0.0484190
8429.52, 0.0523530
8443.25, 0.0563980
8457.02, 0.0601140
8470.84, 0.0633380
8484.7, 0.0661800
8498.61, 0.0685300
8512.57, 0.0704970
8526.57, 0.0719720
8540.62, 0.0729560
8554.71, 0.0736670
8568.85, 0.0741040
8583.04, 0.0740490
8597.27, 0.0733930
8611.55, 0.0723000
8625.88, 0.0705520
8640.26, 0.0685300
8654.68, 0.0661250
8669.16, 0.0633930
8683.68, 0.0604420
8698.25, 0.0572170
8712.87, 0.0538290
8727.53, 0.0501130
8742.25, 0.0463420
8757.02, 0.0426260
8771.83, 0.0388010
8786.7, 0.0350300
8801.62, 0.0316960
8816.59, 0.0285810
8831.61, 0.0260670
8846.68, 0.0244830
8861.8, 0.0238270
8876.97, 0.0241550
8892.2, 0.0253020
8907.48, 0.0271060
8922.81, 0.0292370
8938.2, 0.0318060
8953.63, 0.0347570
8969.13, 0.0374340
8984.67, 0.0397300
9000.27, 0.0418610
9015.92, 0.0435550
9031.63, 0.0448120
9047.39, 0.0455770
9063.21, 0.0454680
9079.08, 0.0445390
9095.01, 0.0433360
9111.0, 0.0430090
9127.04, 0.0427350
9143.13, 0.0418610
9159.28, 0.0407680
9175.49, 0.0395110
9191.76, 0.0381450
9208.09, 0.0366690
9224.47, 0.0349210
9240.92, 0.0330620
9257.42, 0.0311500
9273.98, 0.0291820
9290.6, 0.0274340
9307.28, 0.0259580
9324.02, 0.0251380
9340.82, 0.0254120
9357.68, 0.0265050
9374.6, 0.0283630
9391.58, 0.0310950
9408.62, 0.0350300
9425.73, 0.0399480
9442.9, 0.0448670
9460.13, 0.0497300
9477.42, 0.0547580
9494.78, 0.0601680
9512.2, 0.0655240
9529.69, 0.0704970
9547.24, 0.0747050
9564.86, 0.0779840
9582.54, 0.0804980
9600.28, 0.0825740
9618.1, 0.0841040
9635.97, 0.0853070
9653.92, 0.0864540
9671.93, 0.0873830
9690.01, 0.0880390
9708.16, 0.0885310
9726.37, 0.0889140
9744.65, 0.0893510
9763.0, 0.0894600
9781.43, 0.0890770
9799.92, 0.0886400
9818.48, 0.0881480
9837.1, 0.0875470
9855.8, 0.0868370
9874.58, 0.0858530
9893.42, 0.0847060
9912.34, 0.0834490
9931.33, 0.0819730
9950.39, 0.0802240
9969.52, 0.0773830
9988.74, 0.0721360
10008.0, 0.0650320
10027.4, 0.0635020
10046.8, 0.0679280
10066.3, 0.0706060
10085.9, 0.0704420
10105.6, 0.0691850
10125.3, 0.0679830
10145.1, 0.0665620
10165.0, 0.0651960
10185.0, 0.0638840
10205.0, 0.0625730
10225.2, 0.0612610
10245.4, 0.0598950
10265.7, 0.0584740
10286.0, 0.0570530
10306.5, 0.0556320
10327.0, 0.0543760
10347.6, 0.0530640
10368.3, 0.0515880
10389.1, 0.0502770
10409.9, 0.0491290
10430.9, 0.0479820
10451.9, 0.0467790
10473.0, 0.0453040
10494.2, 0.0439920
10515.5, 0.0426810
10536.9, 0.0415880
10558.4, 0.0404400
10579.9, 0.0392380
10601.5, 0.0381990
10623.3, 0.0371610
10645.1, 0.0360140
10667.0, 0.0350300
10689.0, 0.0342100
10711.1, 0.0332260
10733.2, 0.0320240
10755.5, 0.0310950
10777.9, 0.0301660
10800.3, 0.0289640
10822.9, 0.0278710
10845.5, 0.0268870
10868.2, 0.0259580
10891.1, 0.0251380
10914.0, 0.0239910
10937.0, 0.0228430
10960.2, 0.0219690
10983.4, 0.0210400
11006.7, 0.0197280
11030.1, 0.0187450
11053.6, 0.0179250
11077.3, 0.0168860
11101.0, 0.0158480
11124.8, 0.0147550
11148.7, 0.0135530
11172.7, 0.0123510
11196.9, 0.0112580
11221.1, 0.0104930
11245.4, 0.00983700
11269.9, 0.00929000
11294.4, 0.00874400
11319.1, 0.00808800
11343.9, 0.00748700
11368.8, 0.00715900
11393.7, 0.00688600
11418.8, 0.00666700
11444.0, 0.00633900
11469.4, 0.00617500
11494.8, 0.00617500
11520.3, 0.00633900
11546.0, 0.00628500
11571.8, 0.00655800
11597.7, 0.00655800
11623.7, 0.00661200
11649.8, 0.00705000
11676.0, 0.00748700
11702.4, 0.00726800
11728.9, 0.00732300
11755.5, 0.00748700
11782.2, 0.00765100
11809.0, 0.00765100
11836.0, 0.00776000
11863.0, 0.00792400
11890.3, 0.00786900
11917.6, 0.00776000
11945.0, 0.00792400
11972.6, 0.00803300
12000.4, 0.00808800
12028.2, 0.00830700
12056.2, 0.00858000
12084.3, 0.00874400
12112.5, 0.00874400
12140.9, 0.00890800
12169.4, 0.00923600
12198.0, 0.00934500
12226.8, 0.00945400
12255.7, 0.00961800
12284.7, 0.00994600
12313.9, 0.0102190
12343.2, 0.0103830
12372.7, 0.0104930
12402.3, 0.0103830
12432.0, 0.0103830
12461.9, 0.0104380
12491.9, 0.0102740
12522.1, 0.0100550
12552.4, 0.00972700
12582.9, 0.00972700
12613.5, 0.00967300
12644.3, 0.00950900
12675.2, 0.00923600
12706.3, 0.00885300
12737.5, 0.00879800
12768.9, 0.00836100
12800.4, 0.00770500
12832.1, 0.00748700
12863.9, 0.00726800
12895.9, 0.00710400
12928.1, 0.00688600
12960.4, 0.00677600
12992.9, 0.00655800
13025.5, 0.00628500
13058.3, 0.00606600
13091.3, 0.00590200
13124.4, 0.00562900
13157.8, 0.00557400
13191.2, 0.00546500
13224.9, 0.00546500
13258.7, 0.00562900
13292.7, 0.00568300
13326.9, 0.00562900
13361.2, 0.00573800
13395.7, 0.00546500
13430.4, 0.00530100
13465.3, 0.00530100
13500.4, 0.00562900
13535.7, 0.00584700
13571.1, 0.00590200
13606.7, 0.00584700
13642.5, 0.00546500
13678.5, 0.00530100
13714.7, 0.00557400
13751.1, 0.00584700
13787.6, 0.00590200
13824.4, 0.00579300
13861.4, 0.00573800
13898.5, 0.00573800
13935.9, 0.00562900
13973.5, 0.00524600
14011.2, 0.00535600
14049.2, 0.00535600
14087.4, 0.00530100
14125.8, 0.00557400
14164.3, 0.00541000
14203.2, 0.00502800
14242.2, 0.00491800
14281.4, 0.00491800
14320.9, 0.00486400
14360.5, 0.00442700
14400.4, 0.00442700
14440.5, 0.00426300
14480.9, 0.00437200
14521.4, 0.00442700
14562.2, 0.00448100
14603.3, 0.00426300
14644.5, 0.00393500
14686.0, 0.00398900
14727.7, 0.00415300
14769.7, 0.00398900
14811.9, 0.00388000
14854.3, 0.00371600
14897.0, 0.00382500
14939.9, 0.00360700
14983.1, 0.00388000
15026.5, 0.00398900
15070.2, 0.00355200
15114.2, 0.00355200
15158.3, 0.00393500
15202.8, 0.00398900
15247.5, 0.00404400
15292.5, 0.00415300
15337.7, 0.00415300
15383.2, 0.00377100
15429.0, 0.00366100
15475.1, 0.00360700
15521.4, 0.00360700
15568.0, 0.00338800
15614.9, 0.00338800
15662.1, 0.00366100
15709.6, 0.00382500
15757.3, 0.00349800
15805.4, 0.00355200
15853.7, 0.00333400
15902.3, 0.00322400
15951.2, 0.00289600
16000.5, 0.00306000
16050.0, 0.00322400
16099.8, 0.00333400
16150.0, 0.00338800
16200.5, 0.00344300
16251.3, 0.00300600
16302.4, 0.00306000
16353.8, 0.00327900
16405.5, 0.00311500
16457.6, 0.00273200
16510.0, 0.00240500
16562.8, 0.00235000
16615.9, 0.00300600
16669.3, 0.00333400
16723.1, 0.00300600
16777.2, 0.00267800
16831.7, 0.00256800
16886.5, 0.00262300
16941.7, 0.00278700
16997.2, 0.00218600
17053.1, 0.00191300
17109.4, 0.00191300
17166.1, 0.00163900
17223.1, 0.00147600
17280.5, 0.00213100
17338.3, 0.00240500
17396.5, 0.00213100
17455.1, 0.00207700
17514.0, 0.00207700
17573.4, 0.00202200
17633.2, 0.00267800
17693.4, 0.00284200
17754.0, 0.00278700
17815.0, 0.00295100
17876.4, 0.00371600
17938.3, 0.00404400
18000.5, 0.00377100
18063.3, 0.00338800
18126.4, 0.00393500
18190.0, 0.00437200
18254.1, 0.00453600
18318.6, 0.00388000
18383.5, 0.00415300
18449.0, 0.00513700
18514.9, 0.00535600
18581.2, 0.00519200
18648.0, 0.00590200
18715.4, 0.00612100
18783.2, 0.00573800
18851.5, 0.00557400
18920.3, 0.00694000
18989.6, 0.00759600
19059.4, 0.00808800
19129.7, 0.00830700
19200.6, 0.00912600
19272.0, 0.00923600
19343.9, 0.00940000
19416.3, 0.0102740
19489.3, 0.0101100
19562.8, 0.00989100
19637.0, 0.0108200
19711.6, 0.0118040
19786.8, 0.0120230
19862.6, 0.0130060
19939.0, 0.0142090
20016.0, 0.0142090
20093.6, 0.0142630
20171.8, 0.0142090
20250.6, 0.0148100
20330.0, 0.0153560
20410.0, 0.0155200
20490.7, 0.0148640
20572.0, 0.0148100
20654.0, 0.0133890
20736.6, 0.0130060
20819.9, 0.0135530
20903.8, 0.0143180
20988.5, 0.0150830
21073.8, 0.0157390
21159.8, 0.0161760
21246.5, 0.0156840
21334.0, 0.0161210
21422.1, 0.0171050
21511.0, 0.0163950
21600.7, 0.0156300
21691.0, 0.0157390
21782.1, 0.0169960
21874.0, 0.0156300
21966.7, 0.0157390
22060.2, 0.0169960
22154.5, 0.0161760
22249.6, 0.0154660
22345.5, 0.0165590
22442.2, 0.0178150
22539.8, 0.0186350
22638.2, 0.0184710
22737.5, 0.0194550
22837.7, 0.0199470
22938.7, 0.0209850
23040.7, 0.0210940
23143.5, 0.0208760
23247.3, 0.0221870
23352.1, 0.0236630
23457.7, 0.0224060
23564.4, 0.0225150
23672.0, 0.0241550
23780.5, 0.0254660
23890.1, 0.0210400
24000.7, 0.0215860
24112.3, 0.0235540
24225.0, 0.0262310
24338.7, 0.0256300
24453.5, 0.0254660
