Database of Origin, USGS Spectral Database
Sample Description, See USGS database for additional info
Date Added,2016-08-03 21:04:09.277669

Data ID,USGS_aug05          
Sample ID, augite_ws592.3259
Mineral Name, augite
Material Class,Inosilicate

Wavelength
1483.73, 0.489986
1484.16, 0.490083
1484.58, 0.490567
1485.01, 0.490567
1485.43, 0.490615
1485.86, 0.490470
1486.28, 0.490277
1486.71, 0.490809
1487.14, 0.491099
1487.56, 0.491003
1487.99, 0.491099
1488.42, 0.491244
1488.84, 0.491390
1489.27, 0.491583
1489.7, 0.492019
1490.13, 0.492503
1490.56, 0.492551
1490.98, 0.492841
1491.41, 0.493035
1491.84, 0.492454
1492.27, 0.492212
1492.7, 0.492696
1493.13, 0.492841
1493.56, 0.493083
1493.99, 0.493277
1494.42, 0.493422
1494.85, 0.493567
1495.29, 0.493906
1495.72, 0.494196
1496.15, 0.494293
1496.58, 0.494003
1497.01, 0.494148
1497.44, 0.494728
1497.88, 0.494922
1498.31, 0.495116
1498.74, 0.495745
1499.18, 0.495696
1499.61, 0.495406
1500.04, 0.495212
1500.48, 0.495309
1500.91, 0.495745
1501.35, 0.496229
1501.78, 0.496277
1502.22, 0.496761
1502.65, 0.496858
1503.09, 0.496809
1503.53, 0.496567
1503.96, 0.496616
1504.4, 0.497051
1504.83, 0.497535
1505.27, 0.497535
1505.71, 0.497777
1506.15, 0.498116
1506.58, 0.498406
1507.02, 0.498309
1507.46, 0.498503
1507.9, 0.498600
1508.34, 0.498987
1508.78, 0.499083
1509.21, 0.499035
1509.66, 0.499083
1510.09, 0.499471
1510.53, 0.499858
1510.97, 0.499858
1511.42, 0.499761
1511.86, 0.500100
1512.3, 0.500342
1512.74, 0.500245
1513.18, 0.500051
1513.62, 0.500487
1514.06, 0.500825
1514.51, 0.501164
1514.95, 0.501358
1515.39, 0.501358
1515.83, 0.501406
1516.28, 0.501503
1516.72, 0.501455
1517.16, 0.501648
1517.61, 0.501696
1518.05, 0.501793
1518.5, 0.501793
1518.94, 0.502132
1519.39, 0.502326
1519.83, 0.502761
1520.28, 0.503003
1520.73, 0.503003
1521.17, 0.502955
1521.62, 0.503148
1522.07, 0.503293
1522.51, 0.503245
1522.96, 0.503100
1523.41, 0.503535
1523.85, 0.503535
1524.3, 0.503680
1524.75, 0.504213
1525.2, 0.504551
1525.65, 0.504551
1526.1, 0.504503
1526.55, 0.504164
1527.0, 0.504358
1527.45, 0.504745
1527.9, 0.504648
1528.35, 0.504939
1528.8, 0.505035
1529.25, 0.505229
1529.7, 0.505326
1530.15, 0.505471
1530.6, 0.505519
1531.05, 0.505568
1531.51, 0.505616
1531.96, 0.506051
1532.41, 0.506342
1532.87, 0.506342
1533.32, 0.506390
1533.77, 0.506535
1534.23, 0.506922
1534.68, 0.507261
1535.14, 0.507503
1535.59, 0.507406
1536.05, 0.507600
1536.5, 0.507551
1536.96, 0.507648
1537.41, 0.507939
1537.87, 0.508132
1538.32, 0.508084
1538.78, 0.508568
1539.24, 0.508616
1539.7, 0.509148
1540.15, 0.509487
1540.61, 0.509439
1541.07, 0.509439
1541.53, 0.509487
1541.98, 0.509584
1542.44, 0.509923
1542.9, 0.509874
1543.36, 0.510068
1543.82, 0.510116
1544.28, 0.510406
1544.74, 0.510503
1545.2, 0.510503
1545.66, 0.510552
1546.12, 0.510842
1546.59, 0.511181
1547.05, 0.511665
1547.51, 0.511810
1547.97, 0.512003
1548.43, 0.511955
1548.9, 0.512052
1549.36, 0.512197
1549.82, 0.512487
1550.29, 0.512536
1550.75, 0.512439
1551.21, 0.512826
1551.68, 0.513261
1552.14, 0.513407
1552.61, 0.513600
1553.07, 0.513842
1553.54, 0.513891
1554.0, 0.513842
1554.47, 0.514084
1554.93, 0.514423
1555.4, 0.514568
1555.87, 0.514713
1556.34, 0.514858
1556.8, 0.515197
1557.27, 0.515487
1557.74, 0.515536
1558.21, 0.515826
1558.68, 0.516020
1559.14, 0.516262
1559.61, 0.516262
1560.08, 0.516504
1560.55, 0.516649
1561.02, 0.516842
1561.49, 0.516939
1561.96, 0.516987
1562.43, 0.517133
1562.9, 0.517423
1563.38, 0.517568
1563.85, 0.517568
1564.32, 0.517955
1564.79, 0.518342
1565.26, 0.518246
1565.74, 0.518536
1566.21, 0.518729
1566.68, 0.518633
1567.16, 0.518584
1567.63, 0.519165
1568.1, 0.519213
1568.58, 0.519504
1569.05, 0.519504
1569.53, 0.519455
1570.0, 0.519697
1570.48, 0.519794
1570.96, 0.519939
1571.43, 0.520181
1571.91, 0.520326
1572.39, 0.520665
1572.86, 0.521004
1573.34, 0.521004
1573.82, 0.520955
1574.3, 0.521294
1574.77, 0.521439
1575.25, 0.521536
1575.73, 0.521875
1576.21, 0.521971
1576.69, 0.521923
1577.17, 0.522117
1577.65, 0.522359
1578.13, 0.522552
1578.61, 0.522600
1579.09, 0.522746
1579.57, 0.522794
1580.05, 0.522794
1580.54, 0.522842
1581.02, 0.523133
1581.5, 0.523181
1581.98, 0.523278
1582.47, 0.523181
1582.95, 0.523423
1583.43, 0.523713
1583.92, 0.523713
1584.4, 0.523859
1584.88, 0.524342
1585.37, 0.524488
1585.85, 0.524052
1586.34, 0.524197
1586.82, 0.524536
1587.31, 0.524584
1587.8, 0.524730
1588.28, 0.524778
1588.77, 0.524923
1589.26, 0.524875
1589.74, 0.525020
1590.23, 0.525262
1590.72, 0.525213
1591.21, 0.525068
1591.7, 0.525407
1592.19, 0.525794
1592.67, 0.525891
1593.16, 0.525552
1593.65, 0.525746
1594.14, 0.525988
1594.63, 0.526084
1595.12, 0.526230
1595.61, 0.526375
1596.11, 0.526375
1596.6, 0.526568
1597.09, 0.526810
1597.58, 0.526907
1598.08, 0.527101
1598.57, 0.527149
1599.06, 0.527391
1599.55, 0.527585
1600.05, 0.527391
1600.54, 0.527439
1601.04, 0.527536
1601.53, 0.527681
1602.03, 0.527972
1602.52, 0.528068
1603.02, 0.528214
1603.51, 0.528456
1604.01, 0.528794
1604.5, 0.528746
1605.0, 0.528552
1605.5, 0.528746
1606.0, 0.528891
1606.49, 0.528988
1606.99, 0.529036
1607.49, 0.529617
1607.99, 0.529859
1608.49, 0.529665
1608.99, 0.529278
1609.49, 0.529520
1609.99, 0.529762
1610.49, 0.530198
1610.99, 0.530536
1611.49, 0.530681
1611.99, 0.530730
1612.49, 0.530730
1612.99, 0.530633
1613.49, 0.530923
1614.0, 0.531262
1614.5, 0.531698
1615.0, 0.531649
1615.51, 0.531794
1616.01, 0.531940
1616.51, 0.531891
1617.02, 0.531698
1617.52, 0.531891
1618.03, 0.532085
1618.53, 0.532230
1619.04, 0.532327
1619.54, 0.532520
1620.05, 0.532569
1620.55, 0.532520
1621.06, 0.532569
1621.57, 0.533149
1622.08, 0.533198
1622.58, 0.533294
1623.09, 0.533488
1623.6, 0.533633
1624.11, 0.533924
1624.62, 0.534117
1625.13, 0.534165
1625.64, 0.534165
1626.15, 0.533972
1626.66, 0.534117
1627.17, 0.534117
1627.68, 0.534456
1628.19, 0.534649
1628.7, 0.534698
1629.21, 0.535182
1629.72, 0.535327
1630.24, 0.535182
1630.75, 0.535327
1631.26, 0.535472
1631.78, 0.535666
1632.29, 0.535811
1632.8, 0.535859
1633.32, 0.535762
1633.83, 0.535907
1634.35, 0.535956
1634.86, 0.535859
1635.38, 0.535859
1635.9, 0.536198
1636.41, 0.536295
1636.93, 0.536391
1637.45, 0.536343
1637.96, 0.536536
1638.48, 0.536585
1639.0, 0.537166
1639.52, 0.537069
1640.04, 0.537117
1640.56, 0.537166
1641.08, 0.537214
1641.59, 0.537407
1642.11, 0.537359
1642.63, 0.537262
1643.16, 0.537359
1643.68, 0.537504
1644.2, 0.537698
1644.72, 0.537795
1645.24, 0.538037
1645.76, 0.538085
1646.29, 0.538133
1646.81, 0.538230
1647.33, 0.538230
1647.86, 0.538085
1648.38, 0.538133
1648.9, 0.538230
1649.43, 0.538182
1649.95, 0.538472
1650.48, 0.538617
1651.0, 0.538327
1651.53, 0.538424
1652.06, 0.538569
1652.58, 0.538617
1653.11, 0.538520
1653.64, 0.538714
1654.17, 0.538762
1654.69, 0.538859
1655.22, 0.538811
1655.75, 0.538956
1656.28, 0.539053
1656.81, 0.539246
1657.34, 0.539004
1657.87, 0.538859
1658.4, 0.538956
1658.93, 0.538956
1659.46, 0.539053
1659.99, 0.539391
1660.52, 0.539295
1661.05, 0.539391
1661.59, 0.539295
1662.12, 0.539391
1662.65, 0.539488
1663.19, 0.539391
1663.72, 0.539488
1664.26, 0.539585
1664.79, 0.539585
1665.32, 0.539827
1665.86, 0.540021
1666.39, 0.539875
1666.93, 0.539585
1667.47, 0.539682
1668.0, 0.539924
1668.54, 0.540359
1669.08, 0.540262
1669.61, 0.539924
1670.15, 0.539875
1670.69, 0.540166
1671.23, 0.540359
1671.77, 0.540504
1672.31, 0.540262
1672.85, 0.540553
1673.39, 0.540553
1673.93, 0.540504
1674.47, 0.540504
1675.01, 0.540408
1675.55, 0.540553
1676.09, 0.540650
1676.64, 0.540795
1677.18, 0.540988
1677.72, 0.541085
1678.26, 0.541085
1678.81, 0.541230
1679.35, 0.541182
1679.89, 0.540988
1680.44, 0.541085
1680.98, 0.541327
1681.53, 0.541037
1682.07, 0.541230
1682.62, 0.541472
1683.17, 0.541085
1683.71, 0.541133
1684.26, 0.541375
1684.81, 0.541521
1685.36, 0.541666
1685.9, 0.541908
1686.45, 0.541859
1687.0, 0.541666
1687.55, 0.541617
1688.1, 0.541859
1688.65, 0.541908
1689.2, 0.541956
1689.75, 0.542004
1690.3, 0.541762
1690.85, 0.541859
1691.41, 0.542150
1691.96, 0.542150
1692.51, 0.542053
1693.06, 0.542101
1693.61, 0.542246
1694.17, 0.542343
1694.72, 0.542246
1695.28, 0.542440
1695.83, 0.542682
1696.39, 0.542537
1696.94, 0.542634
1697.5, 0.542634
1698.05, 0.542730
1698.61, 0.542827
1699.17, 0.542682
1699.72, 0.542634
1700.28, 0.542488
1700.84, 0.542440
1701.4, 0.542537
1701.95, 0.542343
1702.51, 0.542343
1703.07, 0.542392
1703.63, 0.542682
1704.19, 0.542779
1704.75, 0.542730
1705.31, 0.542634
1705.88, 0.542827
1706.44, 0.542585
1707.0, 0.542440
1707.56, 0.542488
1708.12, 0.542440
1708.69, 0.542585
1709.25, 0.542585
1709.81, 0.542488
1710.38, 0.542440
1710.94, 0.542634
1711.51, 0.542682
1712.07, 0.542537
1712.64, 0.542488
1713.2, 0.542440
1713.77, 0.542682
1714.34, 0.542827
1714.9, 0.542730
1715.47, 0.542585
1716.04, 0.542585
1716.61, 0.542537
1717.18, 0.542488
1717.74, 0.542488
1718.31, 0.542440
1718.88, 0.542440
1719.45, 0.542488
1720.02, 0.542343
1720.59, 0.542246
1721.17, 0.542488
1721.74, 0.542682
1722.31, 0.542634
1722.88, 0.542488
1723.45, 0.542537
1724.03, 0.542440
1724.6, 0.542246
1725.18, 0.542101
1725.75, 0.542198
1726.33, 0.542198
1726.9, 0.542004
1727.48, 0.542150
1728.05, 0.542101
1728.63, 0.541956
1729.2, 0.541859
1729.78, 0.541956
1730.36, 0.541859
1730.94, 0.541617
1731.51, 0.541714
1732.09, 0.541714
1732.67, 0.541472
1733.25, 0.541279
1733.83, 0.541375
1734.41, 0.541472
1734.99, 0.541424
1735.57, 0.541327
1736.15, 0.541230
1736.73, 0.541230
1737.32, 0.541085
1737.9, 0.541133
1738.48, 0.541133
1739.07, 0.541085
1739.65, 0.541037
1740.23, 0.541037
1740.82, 0.541133
1741.4, 0.541133
1741.99, 0.540891
1742.57, 0.541037
1743.16, 0.540891
1743.74, 0.541037
1744.33, 0.541037
1744.92, 0.540843
1745.51, 0.540650
1746.09, 0.540601
1746.68, 0.540698
1747.27, 0.540988
1747.86, 0.540988
1748.45, 0.540698
1749.04, 0.540408
1749.63, 0.540262
1750.22, 0.540408
1750.81, 0.540408
1751.4, 0.540456
1751.99, 0.540408
1752.59, 0.540456
1753.18, 0.540262
1753.77, 0.540166
1754.37, 0.540214
1754.96, 0.540166
1755.56, 0.539875
1756.15, 0.539779
1756.74, 0.540069
1757.34, 0.539972
1757.94, 0.539875
1758.53, 0.539875
1759.13, 0.539633
1759.73, 0.539537
1760.32, 0.539682
1760.92, 0.539633
1761.52, 0.539585
1762.12, 0.539295
1762.72, 0.539150
1763.32, 0.539246
1763.92, 0.539440
1764.52, 0.539295
1765.12, 0.539198
1765.72, 0.539246
1766.32, 0.539101
1766.92, 0.538859
1767.53, 0.538859
1768.13, 0.538956
1768.73, 0.539004
1769.34, 0.538714
1769.94, 0.538762
1770.55, 0.538617
1771.15, 0.538375
1771.76, 0.538472
1772.36, 0.538472
1772.97, 0.538327
1773.57, 0.538230
1774.18, 0.538182
1774.79, 0.538085
1775.4, 0.537988
1776.0, 0.537795
1776.61, 0.537601
1777.22, 0.537746
1777.83, 0.537504
1778.44, 0.537456
1779.05, 0.537504
1779.66, 0.537456
1780.27, 0.537407
1780.88, 0.537214
1781.5, 0.537069
1782.11, 0.537117
1782.72, 0.536924
1783.33, 0.536778
1783.95, 0.536633
1784.56, 0.536440
1785.18, 0.536343
1785.79, 0.536391
1786.41, 0.536149
1787.02, 0.536004
1787.64, 0.536053
1788.26, 0.535859
1788.87, 0.535907
1789.49, 0.535811
1790.11, 0.535617
1790.73, 0.535520
1791.35, 0.535327
1791.96, 0.535085
1792.58, 0.534940
1793.21, 0.534988
1793.83, 0.534988
1794.45, 0.534940
1795.07, 0.534649
1795.69, 0.534504
1796.31, 0.534456
1796.93, 0.534359
1797.56, 0.534020
1798.18, 0.534020
1798.8, 0.533827
1799.43, 0.533730
1800.05, 0.533536
1800.68, 0.533391
1801.3, 0.533149
1801.93, 0.533004
1802.56, 0.533053
1803.18, 0.533004
1803.81, 0.532859
1804.44, 0.532617
1805.07, 0.532714
1805.7, 0.532423
1806.33, 0.532182
1806.95, 0.532133
1807.58, 0.531940
1808.22, 0.531698
1808.85, 0.531456
1809.48, 0.531359
1810.11, 0.531117
1810.74, 0.530923
1811.38, 0.530972
1812.01, 0.530585
1812.64, 0.530343
1813.28, 0.530294
1813.91, 0.530246
1814.55, 0.530198
1815.18, 0.529810
1815.82, 0.529714
1816.45, 0.529762
1817.09, 0.529810
1817.73, 0.529520
1818.36, 0.529472
1819.0, 0.529375
1819.64, 0.528697
1820.28, 0.527778
1820.92, 0.527972
1821.56, 0.527923
1822.2, 0.528117
1822.84, 0.528456
1823.48, 0.528794
1824.12, 0.528649
1824.76, 0.528504
1825.41, 0.527439
1826.05, 0.526230
1826.69, 0.526955
1827.34, 0.527585
1827.98, 0.527101
1828.63, 0.526762
1829.27, 0.526665
1829.92, 0.526423
1830.56, 0.525504
1831.21, 0.525504
1831.86, 0.526230
1832.5, 0.526084
1833.15, 0.526181
1833.8, 0.525988
1834.45, 0.525213
1835.1, 0.524681
1835.75, 0.524004
1836.4, 0.523859
1837.05, 0.523810
1837.7, 0.523375
1838.35, 0.524391
1839.01, 0.524052
1839.66, 0.522939
1840.31, 0.523568
1840.96, 0.523278
1841.62, 0.521729
1842.27, 0.522504
1842.93, 0.523713
1843.58, 0.523762
1844.24, 0.523762
1844.9, 0.523713
1845.55, 0.523423
1846.21, 0.521778
1846.87, 0.520133
1847.53, 0.520423
1848.18, 0.520859
1848.84, 0.521778
1849.5, 0.522262
1850.16, 0.522165
1850.82, 0.521971
1851.48, 0.521875
1852.14, 0.521246
1852.81, 0.520278
1853.47, 0.519068
1854.13, 0.519455
1854.8, 0.520810
1855.46, 0.520955
1856.12, 0.519455
1856.79, 0.519068
1857.45, 0.519988
1858.12, 0.520278
1858.79, 0.519165
1859.45, 0.517181
1860.12, 0.517423
1860.79, 0.518487
1861.46, 0.519068
1862.12, 0.518923
1862.79, 0.518536
1863.46, 0.517907
1864.13, 0.517568
1864.8, 0.517665
1865.48, 0.517858
1866.15, 0.517568
1866.82, 0.516310
1867.49, 0.514520
1868.16, 0.514907
1868.84, 0.515584
1869.51, 0.515100
1870.19, 0.513552
1870.86, 0.512342
1871.54, 0.513939
1872.21, 0.513552
1872.89, 0.511616
1873.56, 0.512294
1874.24, 0.513310
1874.92, 0.512971
1875.6, 0.512923
1876.28, 0.512245
1876.96, 0.511471
1877.64, 0.512100
1878.32, 0.512390
1879.0, 0.512052
1879.68, 0.511616
1880.36, 0.511181
1881.04, 0.510890
1881.73, 0.510890
1882.41, 0.510503
1883.09, 0.509681
1883.78, 0.508519
1884.46, 0.508568
1885.15, 0.508616
1885.83, 0.508132
1886.52, 0.507648
1887.21, 0.507551
1887.89, 0.507164
1888.58, 0.506632
1889.27, 0.505616
1889.96, 0.504406
1890.65, 0.504503
1891.34, 0.504309
1892.03, 0.503777
1892.72, 0.503535
1893.41, 0.502858
1894.1, 0.502713
1894.79, 0.502519
1895.49, 0.501938
1896.18, 0.501164
1896.87, 0.500438
1897.57, 0.499616
1898.26, 0.498987
1898.96, 0.497487
1899.65, 0.496567
1900.35, 0.497003
1901.05, 0.497632
1901.74, 0.497390
1902.44, 0.495890
1903.14, 0.495696
1903.84, 0.496229
1904.54, 0.495067
1905.24, 0.493857
1905.94, 0.494051
1906.64, 0.494003
1907.34, 0.494583
1908.04, 0.494922
1908.75, 0.494874
1909.45, 0.494486
1910.15, 0.493954
1910.86, 0.493470
1911.56, 0.493277
1912.27, 0.493422
1912.97, 0.492406
1913.68, 0.491970
1914.39, 0.492793
1915.09, 0.493325
1915.8, 0.493083
1916.51, 0.492841
1917.22, 0.492986
1917.93, 0.493083
1918.64, 0.492793
1919.35, 0.491777
1920.06, 0.490664
1920.77, 0.490761
1921.48, 0.491922
1922.19, 0.492115
1922.91, 0.492067
1923.62, 0.491438
1924.33, 0.491535
1925.05, 0.491922
1925.76, 0.491874
1926.48, 0.491390
1927.19, 0.491244
1927.91, 0.490954
1928.63, 0.490567
1929.35, 0.490857
1930.07, 0.490809
1930.78, 0.490712
1931.5, 0.490470
1932.22, 0.490228
1932.94, 0.490083
1933.66, 0.489890
1934.39, 0.490035
1935.11, 0.489986
1935.83, 0.489357
1936.55, 0.489115
1937.28, 0.489164
1938.0, 0.488922
1938.73, 0.488535
1939.45, 0.488535
1940.18, 0.488728
1940.9, 0.488535
1941.63, 0.488293
1942.36, 0.488196
1943.09, 0.488002
1943.81, 0.487906
1944.54, 0.487857
1945.27, 0.487809
1946.0, 0.487760
1946.73, 0.487422
1947.47, 0.486889
1948.2, 0.486793
1948.93, 0.486889
1949.66, 0.486357
1950.4, 0.486067
1951.13, 0.486164
1951.86, 0.486018
1952.6, 0.485535
1953.34, 0.485293
1954.07, 0.485147
1954.81, 0.484857
1955.55, 0.484615
1956.29, 0.484325
1957.02, 0.484131
1957.76, 0.483889
1958.5, 0.483647
1959.24, 0.483599
1959.98, 0.483405
1960.72, 0.483164
1961.47, 0.482825
1962.21, 0.482389
1962.95, 0.482196
1963.7, 0.482099
1964.44, 0.481954
1965.18, 0.481615
1965.93, 0.481373
1966.67, 0.481083
1967.42, 0.480696
1968.17, 0.480309
1968.92, 0.480018
1969.66, 0.479825
1970.41, 0.479728
1971.16, 0.479438
1971.91, 0.479099
1972.66, 0.478954
1973.41, 0.478809
1974.16, 0.478518
1974.92, 0.478228
1975.67, 0.477938
1976.42, 0.477502
1977.18, 0.477163
1977.93, 0.476921
1978.69, 0.476728
1979.44, 0.476776
1980.2, 0.476825
1980.95, 0.476486
1981.71, 0.476196
1982.47, 0.476002
1983.23, 0.475518
1983.99, 0.475373
1984.74, 0.475179
1985.51, 0.474841
1986.27, 0.474260
1987.03, 0.474115
1987.79, 0.474018
1988.55, 0.473873
1989.32, 0.473679
1990.08, 0.473292
1990.84, 0.472953
1991.61, 0.472760
1992.37, 0.472421
1993.14, 0.472228
1993.9, 0.472179
1994.67, 0.471841
1995.44, 0.471550
1996.21, 0.471308
1996.98, 0.471018
1997.75, 0.470921
1998.52, 0.470873
1999.29, 0.470534
2000.06, 0.470098
2000.83, 0.469905
2001.6, 0.469615
2002.38, 0.469227
2003.15, 0.469082
2003.93, 0.468986
2004.7, 0.468647
2005.48, 0.468453
2006.25, 0.468260
2007.03, 0.467921
2007.81, 0.467776
2008.58, 0.467921
2009.36, 0.467727
2010.14, 0.467340
2010.92, 0.467050
2011.7, 0.466856
2012.48, 0.466663
2013.26, 0.466324
2014.05, 0.466082
2014.83, 0.465840
2015.61, 0.465889
2016.4, 0.465695
2017.18, 0.465405
2017.97, 0.465163
2018.75, 0.465066
2019.54, 0.464872
2020.32, 0.464582
2021.11, 0.464340
2021.9, 0.463905
2022.69, 0.463711
2023.48, 0.463566
2024.27, 0.463518
2025.06, 0.463227
2025.85, 0.462889
2026.64, 0.462695
2027.44, 0.462501
2028.23, 0.462211
2029.02, 0.462066
2029.82, 0.461776
2030.61, 0.461340
2031.41, 0.461001
2032.2, 0.461001
2033.0, 0.460808
2033.8, 0.460614
2034.6, 0.460421
2035.4, 0.460130
2036.2, 0.459840
2037.0, 0.459695
2037.8, 0.459405
2038.6, 0.459163
2039.4, 0.459114
2040.2, 0.458872
2041.01, 0.458388
2041.81, 0.458098
2042.61, 0.457904
2043.42, 0.457566
2044.22, 0.457469
2045.03, 0.457324
2045.84, 0.456888
2046.65, 0.456598
2047.46, 0.456453
2048.26, 0.456114
2049.07, 0.455872
2049.88, 0.455630
2050.69, 0.455437
2051.51, 0.455291
2052.32, 0.454856
2053.13, 0.454421
2053.94, 0.454275
2054.76, 0.454179
2055.57, 0.453791
2056.39, 0.453404
2057.2, 0.453211
2058.02, 0.453017
2058.84, 0.452775
2059.66, 0.452291
2060.48, 0.451904
2061.29, 0.451566
2062.11, 0.451324
2062.94, 0.451130
2063.76, 0.450743
2064.58, 0.450404
2065.4, 0.450162
2066.22, 0.449775
2067.05, 0.449582
2067.87, 0.449291
2068.7, 0.448952
2069.52, 0.448614
2070.35, 0.448275
2071.18, 0.448033
2072.0, 0.447791
2072.83, 0.447404
2073.66, 0.447065
2074.49, 0.446920
2075.32, 0.446485
2076.15, 0.446243
2076.98, 0.446001
2077.82, 0.445614
2078.65, 0.445275
2079.48, 0.444936
2080.32, 0.444598
2081.15, 0.444501
2081.99, 0.444210
2082.83, 0.443968
2083.66, 0.443630
2084.5, 0.443291
2085.34, 0.442904
2086.18, 0.442517
2087.02, 0.442130
2087.86, 0.441743
2088.7, 0.441452
2089.54, 0.441259
2090.39, 0.441017
2091.23, 0.440823
2092.07, 0.440678
2092.92, 0.440388
2093.76, 0.440001
2094.61, 0.439710
2095.45, 0.439323
2096.3, 0.439130
2097.15, 0.438742
2098.0, 0.438259
2098.85, 0.438017
2099.7, 0.438065
2100.55, 0.437726
2101.4, 0.437339
2102.25, 0.437049
2103.1, 0.436904
2103.96, 0.436710
2104.81, 0.436226
2105.67, 0.435839
2106.52, 0.435839
2107.38, 0.435646
2108.24, 0.435355
2109.09, 0.435065
2109.95, 0.434823
2110.81, 0.435588
2111.67, 0.435731
2112.53, 0.434823
2113.39, 0.433915
2114.25, 0.433485
2115.12, 0.432768
2115.98, 0.432242
2116.84, 0.432195
2117.71, 0.432147
2118.58, 0.431860
2119.44, 0.431526
2120.31, 0.431000
2121.18, 0.430379
2122.04, 0.430379
2122.91, 0.430426
2123.78, 0.429996
2124.65, 0.429423
2125.52, 0.428945
2126.4, 0.428802
2127.27, 0.428467
2128.14, 0.427942
2129.02, 0.427607
2129.89, 0.427559
2130.77, 0.427464
2131.64, 0.426842
2132.52, 0.425887
2133.4, 0.425648
2134.27, 0.425934
2135.15, 0.425457
2136.03, 0.424931
2136.91, 0.424166
2137.79, 0.423736
2138.68, 0.423927
2139.56, 0.424071
2140.44, 0.423736
2141.33, 0.423067
2142.21, 0.422207
2143.1, 0.421729
2143.99, 0.421777
2144.87, 0.421586
2145.76, 0.421538
2146.65, 0.421442
2147.54, 0.421012
2148.43, 0.421012
2149.32, 0.420964
2150.21, 0.420295
2151.1, 0.419674
2151.99, 0.419770
2152.89, 0.419579
2153.78, 0.418910
2154.68, 0.418575
2155.57, 0.418718
2156.47, 0.418241
2157.37, 0.417715
2158.27, 0.417428
2159.16, 0.417189
2160.06, 0.416902
2160.96, 0.416186
2161.86, 0.415708
2162.77, 0.416042
2163.67, 0.416233
2164.57, 0.416042
2165.48, 0.415517
2166.38, 0.415087
2167.29, 0.415230
2168.2, 0.414752
2169.1, 0.414035
2170.01, 0.413366
2170.92, 0.413414
2171.83, 0.413414
2172.74, 0.412602
2173.65, 0.412267
2174.56, 0.412315
2175.47, 0.412219
2176.39, 0.411741
2177.3, 0.411359
2178.22, 0.411263
2179.13, 0.411025
2180.05, 0.410881
2180.96, 0.410499
2181.88, 0.409734
2182.8, 0.409639
2183.72, 0.409495
2184.64, 0.409065
2185.56, 0.408779
2186.48, 0.408635
2187.41, 0.408492
2188.33, 0.408110
2189.25, 0.407871
2190.18, 0.407775
2191.1, 0.407488
2192.03, 0.407154
2192.96, 0.406771
2193.89, 0.406294
2194.82, 0.405672
2195.74, 0.405481
2196.68, 0.405481
2197.61, 0.405099
2198.54, 0.405386
2199.47, 0.405386
2200.4, 0.404908
2201.34, 0.404382
2202.28, 0.403952
2203.21, 0.403809
2204.15, 0.403761
2205.08, 0.403522
2206.02, 0.403235
2206.96, 0.403092
2207.9, 0.402805
2208.84, 0.402232
2209.78, 0.401993
2210.73, 0.401849
2211.67, 0.401563
2212.61, 0.401276
2213.56, 0.401180
2214.5, 0.400702
2215.45, 0.400416
2216.4, 0.400511
2217.35, 0.400272
2218.3, 0.399794
2219.24, 0.399508
2220.2, 0.399173
2221.15, 0.398647
2222.1, 0.398552
2223.05, 0.398456
2224.0, 0.397931
2224.96, 0.397453
2225.91, 0.396736
2226.87, 0.396832
2227.83, 0.396975
2228.79, 0.396879
2229.74, 0.396736
2230.7, 0.396545
2231.66, 0.395876
2232.63, 0.395398
2233.59, 0.394872
2234.55, 0.394347
2235.51, 0.393916
2236.48, 0.393678
2237.44, 0.393773
2238.41, 0.393534
2239.38, 0.393200
2240.34, 0.392817
2241.31, 0.392674
2242.28, 0.392722
2243.25, 0.392339
2244.22, 0.391670
2245.19, 0.391432
2246.17, 0.391288
2247.14, 0.390954
2248.12, 0.390858
2249.09, 0.390715
2250.07, 0.390380
2251.04, 0.390380
2252.02, 0.390046
2253.0, 0.389950
2253.98, 0.389854
2254.96, 0.389233
2255.94, 0.389042
2256.92, 0.388803
2257.91, 0.388469
2258.89, 0.388325
2259.88, 0.387991
2260.86, 0.387608
2261.85, 0.387465
2262.83, 0.387083
2263.82, 0.386987
2264.81, 0.387178
2265.8, 0.386748
2266.79, 0.386175
2267.78, 0.385745
2268.78, 0.385506
2269.77, 0.385267
2270.76, 0.385171
2271.76, 0.385123
2272.75, 0.384550
2273.75, 0.384072
2274.75, 0.383929
2275.75, 0.383547
2276.75, 0.383642
2277.75, 0.383738
2278.75, 0.383308
2279.75, 0.382973
2280.75, 0.382447
2281.76, 0.382113
2282.76, 0.381683
2283.77, 0.381444
2284.77, 0.381061
2285.78, 0.380966
2286.79, 0.380870
2287.8, 0.380679
2288.81, 0.380536
2289.82, 0.380392
2290.83, 0.380058
2291.84, 0.379867
2292.86, 0.379389
2293.87, 0.379007
2294.89, 0.379007
2295.91, 0.378672
2296.92, 0.378529
2297.94, 0.378720
2298.96, 0.378624
2299.98, 0.378672
2301.0, 0.378099
2302.02, 0.377812
2303.04, 0.377812
2304.07, 0.377621
2305.09, 0.377191
2306.12, 0.376761
2307.15, 0.376617
2308.17, 0.376808
2309.2, 0.376808
2310.23, 0.376856
2311.26, 0.376522
2312.29, 0.376139
2313.32, 0.375900
2314.35, 0.375853
2315.39, 0.375661
2316.42, 0.375853
2317.46, 0.375948
2318.5, 0.375853
2319.53, 0.375566
2320.57, 0.375231
2321.61, 0.375040
2322.65, 0.375279
2323.69, 0.375423
2324.73, 0.375423
2325.78, 0.375661
2326.82, 0.375853
2327.86, 0.375757
2328.91, 0.375566
2329.96, 0.375279
2331.01, 0.375279
2332.05, 0.375184
2333.1, 0.375327
2334.15, 0.375948
2335.21, 0.376044
2336.26, 0.375757
2337.31, 0.375709
2338.36, 0.375614
2339.42, 0.375470
2340.48, 0.375996
2341.53, 0.376187
2342.59, 0.375996
2343.65, 0.376330
2344.71, 0.376187
2345.77, 0.376235
2346.83, 0.376426
2347.9, 0.376474
2348.96, 0.376761
2350.02, 0.376713
2351.09, 0.376474
2352.16, 0.376235
2353.23, 0.376330
2354.29, 0.376904
2355.36, 0.376952
2356.43, 0.376713
2357.51, 0.376665
2358.58, 0.376856
2359.65, 0.377000
2360.73, 0.376665
2361.8, 0.377000
2362.88, 0.377095
2363.96, 0.377095
2365.03, 0.377000
2366.11, 0.376808
2367.19, 0.377143
2368.27, 0.377095
2369.36, 0.376761
2370.44, 0.376808
2371.53, 0.376856
2372.61, 0.376856
2373.7, 0.376713
2374.78, 0.376713
2375.87, 0.377047
2376.96, 0.377000
2378.05, 0.377334
2379.14, 0.377334
2380.24, 0.377047
2381.33, 0.377047
2382.42, 0.376904
2383.52, 0.376713
2384.61, 0.376904
2385.71, 0.376856
2386.81, 0.376522
2387.91, 0.376426
2389.01, 0.377000
2390.11, 0.377286
2391.22, 0.377286
2392.32, 0.377573
2393.42, 0.377430
2394.53, 0.377047
2395.64, 0.377191
2396.74, 0.377573
2397.85, 0.377669
2398.96, 0.377812
2400.07, 0.378290
2401.18, 0.378290
2402.3, 0.377908
2403.41, 0.378146
2404.52, 0.378768
2405.64, 0.378768
2406.76, 0.378815
2407.88, 0.378720
2408.99, 0.378624
2410.11, 0.378911
2411.23, 0.379198
2412.36, 0.379150
2413.48, 0.379246
2414.6, 0.379676
2415.73, 0.379962
2416.85, 0.379915
2417.98, 0.379819
2419.11, 0.379867
2420.24, 0.379819
2421.37, 0.379723
2422.5, 0.379962
2423.64, 0.380297
2424.77, 0.380727
2425.9, 0.380918
2427.04, 0.381014
2428.18, 0.380918
2429.31, 0.381061
2430.45, 0.381396
2431.59, 0.381396
2432.73, 0.381109
2433.88, 0.381300
2435.02, 0.381348
2436.16, 0.381587
2437.31, 0.381969
2438.45, 0.382352
2439.6, 0.382352
2440.75, 0.382591
2441.9, 0.382639
2443.05, 0.382782
2444.2, 0.383164
2445.35, 0.383403
2446.51, 0.383594
2447.67, 0.383547
2448.82, 0.383308
2449.98, 0.383642
2451.14, 0.384072
2452.3, 0.384598
2453.46, 0.384789
2454.62, 0.384932
2455.78, 0.384932
2456.94, 0.385267
2458.11, 0.385315
2459.28, 0.385410
2460.44, 0.385745
2461.61, 0.385793
2462.78, 0.385936
2463.95, 0.386175
2465.12, 0.386175
2466.3, 0.386605
2467.47, 0.386844
2468.65, 0.387035
2469.82, 0.387131
2471.0, 0.387370
2472.18, 0.387895
2473.36, 0.388182
2474.54, 0.388564
2475.72, 0.388994
2476.9, 0.389138
2478.08, 0.389185
2479.27, 0.389233
2480.46, 0.389424
2481.64, 0.389520
2482.83, 0.389807
2484.02, 0.389998
2485.21, 0.390141
2486.4, 0.390476
2487.6, 0.390954
2488.79, 0.391097
2489.99, 0.391384
2491.18, 0.391336
2492.38, 0.391336
2493.58, 0.391623
2494.78, 0.391909
2495.98, 0.392196
2497.18, 0.392770
2498.39, 0.392913
2499.59, 0.392961
2500.8, 0.393009
2502.01, 0.393200
2503.21, 0.393486
2504.42, 0.393630
2505.63, 0.393916
2506.84, 0.394155
2508.06, 0.394251
2509.27, 0.394538
2510.49, 0.394824
2511.7, 0.395016
2512.92, 0.395207
2514.14, 0.395493
2515.36, 0.395828
2516.58, 0.396115
2517.8, 0.396401
2519.03, 0.396497
2520.25, 0.396784
2521.48, 0.397214
2522.7, 0.397405
2523.93, 0.397644
2525.16, 0.398217
2526.39, 0.398409
2527.62, 0.398695
2528.86, 0.398886
2530.09, 0.398791
2531.33, 0.399030
2532.56, 0.399412
2533.8, 0.399938
2535.04, 0.399842
2536.28, 0.400129
2537.52, 0.400798
2538.76, 0.401037
2540.01, 0.401180
2541.25, 0.401563
2542.5, 0.401754
2543.75, 0.402136
2544.99, 0.402614
2546.24, 0.402614
2547.49, 0.402423
2548.75, 0.402805
2550.0, 0.402996
2551.26, 0.403187
2552.51, 0.403570
2553.77, 0.404573
2555.03, 0.405386
2556.29, 0.405768
2557.55, 0.406007
2558.81, 0.405768
2560.08, 0.404334
2561.34, 0.403474
2562.61, 0.404095
2563.88, 0.404908
2565.14, 0.406533
2566.41, 0.407918
2567.68, 0.407249
2568.96, 0.406294
2570.23, 0.407202
2571.51, 0.407823
2572.78, 0.406485
2574.06, 0.407488
2575.34, 0.408396
2576.62, 0.408253
2577.9, 0.409352
2579.18, 0.410021
2580.47, 0.409400
2581.75, 0.409448
2583.04, 0.408253
2584.32, 0.408826
2585.61, 0.410021
2586.9, 0.409687
2588.2, 0.410451
2589.49, 0.411502
2590.78, 0.412363
2592.08, 0.411407
2593.37, 0.407345
2594.67, 0.405051
2595.97, 0.409448
2597.27, 0.413318
2598.57, 0.414418
2599.88, 0.414083
2601.18, 0.413653
2602.49, 0.413223
2603.79, 0.412124
2605.1, 0.411263
2606.41, 0.412458
2607.72, 0.414035
2609.03, 0.414465
2610.35, 0.415469
2611.66, 0.416233
2612.98, 0.416138
2614.3, 0.416233
2615.62, 0.414322
2616.94, 0.413653
2618.26, 0.415230
2619.58, 0.414561
2620.91, 0.416042
2622.23, 0.418049
2623.56, 0.418432
2624.89, 0.417667
2626.22, 0.416186
2627.55, 0.417237
2628.88, 0.416377
2630.21, 0.415039
2631.55, 0.417380
2632.89, 0.418193
2634.22, 0.418480
2635.56, 0.419435
2636.9, 0.419770
2638.25, 0.419770
2639.59, 0.419579
2640.93, 0.419387
2642.28, 0.419149
2643.63, 0.419149
2644.98, 0.418671
2646.33, 0.418862
2647.68, 0.419387
2649.03, 0.419483
2650.39, 0.418766
2651.74, 0.417476
2653.1, 0.417428
2654.46, 0.417476
2655.82, 0.417428
2657.18, 0.417667
2658.54, 0.416329
2659.9, 0.415421
2661.27, 0.415421
2662.64, 0.415087
2664.01, 0.412172
2665.38, 0.409925
2666.74, 0.409639
2668.12, 0.409830
2669.49, 0.406341
2670.87, 0.405625
2672.24, 0.407440
2673.62, 0.406102
2675.0, 0.402662
2676.38, 0.398886
2677.76, 0.396210
2679.15, 0.393056
2680.54, 0.390141
2681.92, 0.385267
2683.31, 0.379007
2684.7, 0.372077
2686.09, 0.363953
2687.48, 0.355304
2688.88, 0.346367
2690.27, 0.336380
2691.67, 0.325293
2693.07, 0.312916
2694.47, 0.301399
2695.87, 0.289978
2697.27, 0.276979
2698.67, 0.263455
2700.08, 0.252655
2701.49, 0.244722
2702.9, 0.237220
2704.31, 0.228092
2705.72, 0.218535
2707.13, 0.209455
2708.54, 0.201856
2709.96, 0.197030
2711.38, 0.195740
2712.8, 0.195883
2714.22, 0.195787
2715.64, 0.195596
2717.06, 0.194736
2718.49, 0.193350
2719.91, 0.191678
2721.34, 0.191439
2722.77, 0.190817
2724.2, 0.189718
2725.63, 0.189623
2727.07, 0.189145
2728.5, 0.188046
2729.94, 0.186755
2731.38, 0.185179
2732.82, 0.183506
2734.26, 0.181690
2735.7, 0.180495
2737.15, 0.179109
2738.59, 0.176959
2740.04, 0.175334
2741.49, 0.174761
2742.94, 0.174235
2744.39, 0.173231
2745.84, 0.172324
2747.3, 0.171511
2748.76, 0.170794
2750.21, 0.170077
2751.67, 0.169695
2753.14, 0.168978
2754.6, 0.168070
2756.06, 0.168453
2757.53, 0.169074
2759.0, 0.169170
2760.46, 0.168883
2761.94, 0.168453
2763.41, 0.168835
2764.88, 0.169456
2766.36, 0.169600
2767.83, 0.169934
2769.31, 0.170125
2770.79, 0.170173
2772.27, 0.170747
2773.76, 0.171368
2775.24, 0.171846
2776.73, 0.172037
2778.22, 0.172132
2779.71, 0.172132
2781.2, 0.172419
2782.69, 0.172706
2784.18, 0.172754
2785.68, 0.172706
2787.18, 0.172897
2788.68, 0.173327
2790.18, 0.173709
2791.68, 0.174044
2793.19, 0.174331
2794.69, 0.174617
2796.2, 0.174856
2797.71, 0.174904
2799.22, 0.175047
2800.73, 0.175239
2802.24, 0.175143
2803.76, 0.175525
2805.28, 0.176051
2806.8, 0.176481
2808.32, 0.177007
2809.84, 0.177246
2811.36, 0.177580
2812.89, 0.177963
2814.42, 0.178297
2815.94, 0.178632
2817.48, 0.178918
2819.01, 0.179205
2820.54, 0.179635
2822.08, 0.179970
2823.61, 0.180400
2825.15, 0.180925
2826.69, 0.181355
2828.23, 0.181738
2829.78, 0.182311
2831.32, 0.182694
2832.87, 0.182980
2834.42, 0.183410
2835.97, 0.183697
2837.52, 0.183984
2839.08, 0.184366
2840.63, 0.184892
2842.19, 0.185370
2843.75, 0.185704
2845.31, 0.185800
2846.87, 0.185943
2848.44, 0.186278
2850.0, 0.186564
2851.57, 0.187090
2853.14, 0.187377
2854.71, 0.187616
2856.28, 0.187711
2857.86, 0.187998
2859.43, 0.188237
2861.01, 0.188094
2862.59, 0.188189
2864.17, 0.188428
2865.76, 0.188667
2867.34, 0.188906
2868.93, 0.189049
2870.52, 0.189097
2872.11, 0.189193
2873.7, 0.189288
2875.29, 0.189288
2876.89, 0.189193
2878.49, 0.189288
2880.08, 0.189623
2881.69, 0.189718
2883.29, 0.189575
2884.89, 0.189623
2886.5, 0.189766
2888.11, 0.189862
2889.72, 0.189862
2891.33, 0.189671
2892.94, 0.189718
2894.56, 0.189957
2896.17, 0.190292
2897.79, 0.190483
2899.42, 0.190626
2901.04, 0.190674
2902.66, 0.190817
2904.29, 0.190913
2905.92, 0.191104
2907.55, 0.191391
2909.18, 0.191678
2910.81, 0.191917
2912.45, 0.192060
2914.08, 0.192251
2915.72, 0.192394
2917.36, 0.192538
2919.01, 0.192825
2920.65, 0.193016
2922.3, 0.193159
2923.94, 0.193446
2925.59, 0.193876
2927.25, 0.194019
2928.9, 0.194210
2930.56, 0.194641
2932.21, 0.194927
2933.87, 0.195214
2935.53, 0.195310
2937.2, 0.195596
2938.86, 0.195835
2940.53, 0.196074
2942.2, 0.196456
2943.87, 0.196600
2945.54, 0.196839
2947.22, 0.197221
2948.89, 0.197556
2950.57, 0.197747
2952.25, 0.197986
2953.93, 0.198511
2955.62, 0.198989
2957.3, 0.199180
2958.99, 0.199372
2960.68, 0.199658
2962.37, 0.199802
2964.07, 0.200232
2965.76, 0.200566
2967.46, 0.200853
2969.16, 0.201140
2970.86, 0.201618
2972.56, 0.202000
2974.27, 0.202382
2975.98, 0.202812
2977.69, 0.203147
2979.4, 0.203434
2981.11, 0.203816
2982.83, 0.204198
2984.54, 0.204485
2986.26, 0.204772
2987.98, 0.205345
2989.71, 0.205966
2991.43, 0.206349
2993.16, 0.206540
2994.89, 0.206922
2996.62, 0.207400
2998.35, 0.207782
3000.09, 0.208356
3001.83, 0.209025
3003.57, 0.209455
3005.31, 0.209694
3007.05, 0.210028
3008.79, 0.210602
3010.54, 0.210984
3012.29, 0.211462
3014.04, 0.211844
3015.8, 0.212322
3017.55, 0.212896
3019.31, 0.213326
3021.07, 0.213756
3022.83, 0.214186
3024.59, 0.214616
3026.36, 0.215142
3028.13, 0.215524
3029.9, 0.215906
3031.67, 0.216288
3033.44, 0.216623
3035.22, 0.217005
3037.0, 0.217340
3038.78, 0.217674
3040.56, 0.218104
3042.34, 0.218535
3044.13, 0.218869
3045.92, 0.219204
3047.71, 0.219490
3049.5, 0.219873
3051.3, 0.220159
3053.09, 0.220446
3054.89, 0.220589
3056.69, 0.220733
3058.5, 0.220924
3060.3, 0.221211
3062.11, 0.221545
3063.92, 0.221784
3065.73, 0.222071
3067.55, 0.222405
3069.36, 0.222644
3071.18, 0.222788
3073.0, 0.223027
3074.82, 0.223409
3076.65, 0.223696
3078.48, 0.224030
3080.31, 0.224365
3082.14, 0.224604
3083.97, 0.224795
3085.8, 0.225177
3087.64, 0.225655
3089.48, 0.225846
3091.33, 0.226085
3093.17, 0.226467
3095.02, 0.226850
3096.87, 0.227232
3098.72, 0.227519
3100.57, 0.227901
3102.43, 0.228474
3104.28, 0.228809
3106.14, 0.229143
3108.01, 0.229717
3109.87, 0.230482
3111.74, 0.231007
3113.61, 0.231437
3115.48, 0.231963
3117.35, 0.232441
3119.23, 0.232919
3121.1, 0.233492
3122.98, 0.234066
3124.87, 0.234544
3126.75, 0.235117
3128.64, 0.235786
3130.53, 0.236455
3132.42, 0.237076
3134.31, 0.237650
3136.21, 0.238175
3138.11, 0.238797
3140.01, 0.239466
3141.91, 0.240182
3143.82, 0.240852
3145.73, 0.241425
3147.64, 0.241998
3149.55, 0.242572
3151.46, 0.243336
3153.38, 0.244101
3155.3, 0.244722
3157.22, 0.245344
3159.14, 0.246013
3161.07, 0.246634
3163.0, 0.247303
3164.93, 0.247924
3166.86, 0.248545
3168.8, 0.249310
3170.74, 0.250027
3172.68, 0.250839
3174.62, 0.251556
3176.56, 0.252082
3178.51, 0.252894
3180.46, 0.253611
3182.42, 0.254184
3184.37, 0.254710
3186.33, 0.255427
3188.29, 0.256191
3190.25, 0.256813
3192.21, 0.257530
3194.18, 0.258151
3196.15, 0.258724
3198.12, 0.259537
3200.09, 0.260158
3202.07, 0.260684
3204.05, 0.261353
3206.03, 0.262213
3208.02, 0.263025
3210.0, 0.263599
3211.99, 0.264124
3213.98, 0.264698
3215.98, 0.265510
3217.97, 0.266179
3219.97, 0.266753
3221.97, 0.267374
3223.98, 0.268043
3225.98, 0.268712
3227.99, 0.269381
3230.0, 0.269954
3232.02, 0.270528
3234.03, 0.271149
3236.05, 0.271914
3238.07, 0.272535
3240.1, 0.273013
3242.12, 0.273539
3244.15, 0.274303
3246.18, 0.274972
3248.22, 0.275450
3250.25, 0.276167
3252.29, 0.276836
3254.33, 0.277409
3256.38, 0.278031
3258.43, 0.278652
3260.47, 0.279273
3262.53, 0.279942
3264.58, 0.280516
3266.64, 0.281041
3268.7, 0.281615
3270.76, 0.282188
3272.82, 0.282857
3274.89, 0.283478
3276.96, 0.284100
3279.04, 0.284673
3281.11, 0.285247
3283.19, 0.285772
3285.27, 0.286489
3287.35, 0.287110
3289.44, 0.287588
3291.53, 0.288066
3293.62, 0.288640
3295.71, 0.289165
3297.81, 0.289643
3299.91, 0.290121
3302.01, 0.290694
3304.11, 0.291124
3306.22, 0.291650
3308.33, 0.292271
3310.44, 0.292749
3312.56, 0.293227
3314.68, 0.293848
3316.8, 0.294422
3318.92, 0.294900
3321.05, 0.295378
3323.18, 0.295951
3325.31, 0.296477
3327.44, 0.297002
3329.58, 0.297337
3331.72, 0.297671
3333.86, 0.298102
3336.01, 0.298579
3338.16, 0.298962
3340.31, 0.299392
3342.46, 0.299679
3344.61, 0.299822
3346.77, 0.300109
3348.94, 0.300539
3351.1, 0.300778
3353.27, 0.300969
3355.44, 0.301160
3357.61, 0.301399
3359.79, 0.301494
3361.97, 0.301447
3364.15, 0.301399
3366.33, 0.301399
3368.52, 0.301494
3370.71, 0.301590
3372.9, 0.301638
3375.1, 0.301877
3377.3, 0.301925
3379.5, 0.302068
3381.71, 0.302307
3383.91, 0.302594
3386.12, 0.302976
3388.34, 0.303406
3390.55, 0.303788
3392.77, 0.304362
3394.99, 0.304744
3397.22, 0.304744
3399.45, 0.304648
3401.68, 0.304505
3403.91, 0.304362
3406.15, 0.304218
3408.39, 0.303979
3410.63, 0.303932
3412.87, 0.303979
3415.12, 0.304362
3417.37, 0.304792
3419.63, 0.305413
3421.88, 0.306369
3424.14, 0.307564
3426.41, 0.308758
3428.67, 0.310001
3430.94, 0.311100
3433.21, 0.312008
3435.49, 0.312820
3437.77, 0.313489
3440.05, 0.314111
3442.33, 0.314827
3444.62, 0.315353
3446.91, 0.315926
3449.2, 0.316595
3451.5, 0.317121
3453.8, 0.317647
3456.1, 0.318316
3458.41, 0.318889
3460.72, 0.319272
3463.03, 0.319654
3465.34, 0.319893
3467.66, 0.320180
3469.98, 0.320275
3472.31, 0.320275
3474.63, 0.320419
3476.96, 0.320514
3479.3, 0.320610
3481.64, 0.320801
3483.97, 0.321040
3486.32, 0.321231
3488.66, 0.321470
3491.01, 0.321852
3493.36, 0.321996
3495.72, 0.321948
3498.08, 0.322139
3500.44, 0.322378
3502.81, 0.322760
3505.18, 0.323525
3507.55, 0.324385
3509.92, 0.325245
3512.3, 0.326201
3514.68, 0.327109
3517.06, 0.327921
3519.45, 0.328638
3521.84, 0.329498
3524.24, 0.330358
3526.64, 0.331266
3529.04, 0.331935
3531.44, 0.332557
3533.85, 0.333274
3536.26, 0.333799
3538.67, 0.334325
3541.09, 0.334898
3543.51, 0.335281
3545.93, 0.335615
3548.36, 0.336093
3550.79, 0.336571
3553.22, 0.336905
3555.66, 0.337288
3558.1, 0.337718
3560.54, 0.338148
3562.99, 0.338435
3565.44, 0.338626
3567.9, 0.338817
3570.35, 0.339295
3572.81, 0.339725
3575.28, 0.340155
3577.75, 0.340490
3580.22, 0.340776
3582.69, 0.341111
3585.17, 0.341397
3587.65, 0.341541
3590.14, 0.341828
3592.62, 0.342066
3595.11, 0.342353
3597.61, 0.342592
3600.11, 0.342879
3602.61, 0.343166
3605.11, 0.343405
3607.62, 0.343596
3610.14, 0.343882
3612.65, 0.344169
3615.17, 0.344360
3617.69, 0.344599
3620.22, 0.344838
3622.75, 0.345029
3625.28, 0.345316
3627.82, 0.345555
3630.36, 0.345698
3632.9, 0.345842
3635.45, 0.346033
3638.0, 0.346320
3640.56, 0.346511
3643.12, 0.346702
3645.68, 0.346941
3648.24, 0.347132
3650.81, 0.347275
3653.39, 0.347467
3655.96, 0.347753
3658.54, 0.347944
3661.13, 0.348183
3663.71, 0.348422
3666.3, 0.348709
3668.9, 0.348900
3671.5, 0.349044
3674.1, 0.349235
3676.7, 0.349378
3679.31, 0.349617
3681.93, 0.349904
3684.54, 0.350095
3687.17, 0.350334
3689.79, 0.350573
3692.42, 0.350668
3695.05, 0.350859
3697.69, 0.351098
3700.32, 0.351194
3702.97, 0.351385
3705.61, 0.351576
3708.27, 0.351767
3710.92, 0.352006
3713.58, 0.352245
3716.24, 0.352484
3718.91, 0.352771
3721.58, 0.353010
3724.25, 0.353201
3726.93, 0.353344
3729.61, 0.353488
3732.29, 0.353727
3734.98, 0.354014
3737.67, 0.354252
3740.37, 0.354444
3743.07, 0.354635
3745.78, 0.354778
3748.49, 0.355017
3751.2, 0.355256
3753.91, 0.355495
3756.63, 0.355686
3759.36, 0.355829
3762.09, 0.355973
3764.82, 0.356212
3767.55, 0.356594
3770.29, 0.356785
3773.04, 0.356976
3775.78, 0.357168
3778.54, 0.357406
3781.29, 0.357550
3784.05, 0.357693
3786.82, 0.357741
3789.59, 0.357884
3792.36, 0.358123
3795.13, 0.358314
3797.92, 0.358506
3800.7, 0.358601
3803.49, 0.358649
3806.28, 0.358745
3809.08, 0.358888
3811.88, 0.359031
3814.68, 0.359127
3817.49, 0.359318
3820.31, 0.359461
3823.12, 0.359557
3825.94, 0.359700
3828.77, 0.359891
3831.6, 0.359939
3834.43, 0.360035
3837.27, 0.360130
3840.11, 0.360178
3842.96, 0.360369
3845.81, 0.360608
3848.67, 0.360608
3851.53, 0.360656
3854.39, 0.360799
3857.26, 0.360895
3860.13, 0.361038
3863.01, 0.361229
3865.89, 0.361373
3868.77, 0.361421
3871.66, 0.361468
3874.55, 0.361612
3877.45, 0.361755
3880.35, 0.361899
3883.26, 0.361994
3886.17, 0.362090
3889.09, 0.362185
3892.01, 0.362329
3894.93, 0.362424
3897.86, 0.362472
3900.79, 0.362568
3903.73, 0.362711
3906.67, 0.362854
3909.62, 0.362950
3912.57, 0.362950
3915.52, 0.362950
3918.48, 0.362902
3921.45, 0.362998
3924.42, 0.362998
3927.39, 0.363093
3930.37, 0.363237
3933.35, 0.363189
3936.34, 0.363045
3939.33, 0.362950
3942.32, 0.362854
3945.32, 0.362663
3948.33, 0.362520
3951.34, 0.362424
3954.35, 0.362185
3957.37, 0.362090
3960.39, 0.362090
3963.42, 0.362090
3966.45, 0.362042
3969.49, 0.362090
3972.53, 0.361851
3975.58, 0.361851
3978.63, 0.361899
3981.68, 0.361851
3984.75, 0.362042
3987.81, 0.362137
3990.88, 0.362233
3993.95, 0.362376
3997.03, 0.362568
4000.12, 0.362759
4003.21, 0.362854
4006.3, 0.363045
4009.4, 0.363237
4012.5, 0.363284
4015.61, 0.363380
4018.72, 0.363428
4021.84, 0.363428
4024.96, 0.363523
4028.09, 0.363667
4031.22, 0.363714
4034.36, 0.363762
4037.5, 0.363667
4040.65, 0.363619
4043.8, 0.363667
4046.96, 0.363619
4050.12, 0.363523
4053.29, 0.363380
4056.46, 0.363332
4059.64, 0.363332
4062.82, 0.363284
4066.0, 0.363189
4069.19, 0.363093
4072.39, 0.362950
4075.59, 0.362854
4078.8, 0.362711
4082.01, 0.362520
4085.23, 0.362329
4088.45, 0.362281
4091.68, 0.362233
4094.91, 0.362042
4098.15, 0.361899
4101.39, 0.361803
4104.63, 0.361564
4107.89, 0.361373
4111.14, 0.361277
4114.41, 0.361229
4117.67, 0.361086
4120.95, 0.360991
4124.23, 0.360752
4127.51, 0.360656
4130.8, 0.360513
4134.09, 0.360274
4137.39, 0.360178
4140.7, 0.360083
4144.01, 0.359748
4147.32, 0.359509
4150.64, 0.359366
4153.97, 0.359318
4157.3, 0.359127
4160.64, 0.358936
4163.98, 0.358840
4167.33, 0.358745
4170.68, 0.358506
4174.04, 0.358171
4177.4, 0.358075
4180.77, 0.357884
4184.14, 0.357693
4187.52, 0.357598
4190.91, 0.357502
4194.3, 0.357359
4197.69, 0.357406
4201.1, 0.357645
4204.5, 0.358123
4207.92, 0.358649
4211.34, 0.359175
4214.76, 0.359844
4218.19, 0.360083
4221.62, 0.360178
4225.06, 0.360274
4228.51, 0.360369
4231.96, 0.360226
4235.42, 0.360035
4238.88, 0.359796
4242.35, 0.359461
4245.83, 0.358888
4249.31, 0.357980
4252.79, 0.356594
4256.28, 0.355543
4259.78, 0.355734
4263.29, 0.356498
4266.79, 0.356785
4270.31, 0.356737
4273.83, 0.356546
4277.35, 0.356307
4280.89, 0.356021
4284.42, 0.355734
4287.97, 0.355495
4291.52, 0.355208
4295.07, 0.354683
4298.63, 0.354300
4302.2, 0.354014
4305.78, 0.353583
4309.35, 0.353058
4312.94, 0.352532
4316.53, 0.352006
4320.13, 0.351481
4323.73, 0.350955
4327.34, 0.350525
4330.96, 0.350143
4334.58, 0.349760
4338.21, 0.349282
4341.84, 0.348948
4345.48, 0.348613
4349.12, 0.348375
4352.77, 0.348088
4356.43, 0.347801
4360.1, 0.347514
4363.76, 0.347228
4367.44, 0.346941
4371.12, 0.346750
4374.81, 0.346511
4378.51, 0.346224
4382.21, 0.345937
4385.92, 0.345746
4389.63, 0.345555
4393.35, 0.345268
4397.08, 0.344982
4400.81, 0.344743
4404.55, 0.344504
4408.29, 0.344313
4412.04, 0.343978
4415.8, 0.343691
4419.57, 0.343405
4423.34, 0.343070
4427.12, 0.342927
4430.9, 0.342783
4434.69, 0.342449
4438.49, 0.342066
4442.29, 0.341684
4446.1, 0.341350
4449.92, 0.341111
4453.74, 0.340872
4457.57, 0.340537
4461.41, 0.340107
4465.25, 0.339677
4469.1, 0.339343
4472.95, 0.338960
4476.82, 0.338626
4480.69, 0.338196
4484.56, 0.337718
4488.44, 0.337144
4492.33, 0.336619
4496.23, 0.336141
4500.13, 0.335520
4504.04, 0.334898
4507.96, 0.334229
4511.88, 0.333512
4515.81, 0.332796
4519.75, 0.331888
4523.69, 0.330932
4527.65, 0.329881
4531.6, 0.328734
4535.57, 0.327491
4539.54, 0.326249
4543.52, 0.324958
4547.5, 0.323668
4551.5, 0.322330
4555.5, 0.320992
4559.5, 0.319606
4563.52, 0.318172
4567.54, 0.316691
4571.56, 0.315210
4575.6, 0.313872
4579.64, 0.312438
4583.69, 0.310813
4587.75, 0.309284
4591.81, 0.307707
4595.88, 0.306178
4599.96, 0.304601
4604.04, 0.303024
4608.14, 0.301399
4612.24, 0.299870
4616.34, 0.298340
4620.46, 0.296811
4624.58, 0.295234
4628.71, 0.293705
4632.84, 0.292128
4636.99, 0.290455
4641.14, 0.288735
4645.3, 0.287158
4649.47, 0.285486
4653.64, 0.283813
4657.82, 0.282140
4662.01, 0.280563
4666.21, 0.279034
4670.41, 0.277457
4674.62, 0.275928
4678.84, 0.274446
4683.07, 0.272869
4687.3, 0.271388
4691.54, 0.269954
4695.79, 0.268473
4700.05, 0.266896
4704.31, 0.265319
4708.59, 0.263742
4712.87, 0.262213
4717.15, 0.260588
4721.45, 0.259107
4725.76, 0.257434
4730.07, 0.255905
4734.39, 0.254376
4738.72, 0.252894
4743.05, 0.251365
4747.39, 0.250075
4751.75, 0.248784
4756.1, 0.247494
4760.47, 0.246252
4764.85, 0.245009
4769.23, 0.243767
4773.62, 0.242667
4778.02, 0.241568
4782.43, 0.240469
4786.85, 0.239466
4791.27, 0.238462
4795.7, 0.237315
4800.14, 0.236168
4804.59, 0.234974
4809.05, 0.233827
4813.51, 0.232584
4817.99, 0.231342
4822.47, 0.230195
4826.96, 0.228952
4831.46, 0.227710
4835.96, 0.226467
4840.48, 0.225225
4845.0, 0.223982
4849.54, 0.222644
4854.08, 0.221402
4858.63, 0.220159
4863.18, 0.218965
4867.75, 0.217865
4872.33, 0.216814
4876.91, 0.215667
4881.5, 0.214616
4886.1, 0.213612
4890.71, 0.212657
4895.33, 0.211749
4899.96, 0.210888
4904.59, 0.210076
4909.24, 0.209216
4913.89, 0.208403
4918.55, 0.207639
4923.22, 0.206826
4927.9, 0.206014
4932.59, 0.205297
4937.29, 0.204580
4942.0, 0.203864
4946.71, 0.203147
4951.44, 0.202382
4956.17, 0.201665
4960.91, 0.200949
4965.67, 0.200184
4970.43, 0.199324
4975.2, 0.198416
4979.98, 0.197556
4984.76, 0.196600
4989.56, 0.195596
4994.37, 0.194497
4999.18, 0.193302
5004.01, 0.192203
5008.84, 0.191009
5013.69, 0.189718
5018.54, 0.188476
5023.4, 0.187233
5028.28, 0.185943
5033.16, 0.184701
5038.05, 0.183506
5042.95, 0.182455
5047.86, 0.181451
5052.78, 0.180639
5057.71, 0.179970
5062.65, 0.179492
5067.6, 0.179014
5072.56, 0.178679
5077.53, 0.178440
5082.5, 0.178440
5087.49, 0.178488
5092.49, 0.178632
5097.5, 0.178823
5102.51, 0.178966
5107.54, 0.179157
5112.58, 0.179492
5117.62, 0.179683
5122.68, 0.179874
5127.75, 0.180161
5132.82, 0.180447
5137.91, 0.180734
5143.01, 0.181021
5148.12, 0.181308
5153.23, 0.181594
5158.36, 0.181833
5163.5, 0.182216
5168.65, 0.182550
5173.81, 0.182741
5178.98, 0.182980
5184.15, 0.183267
5189.34, 0.183506
5194.54, 0.183793
5199.75, 0.184127
5204.98, 0.184318
5210.21, 0.184462
5215.45, 0.184653
5220.7, 0.184844
5225.96, 0.184987
5231.23, 0.185179
5236.52, 0.185370
5241.81, 0.185370
5247.12, 0.185609
5252.44, 0.185800
5257.76, 0.185943
5263.1, 0.186039
5268.45, 0.186325
5273.81, 0.186755
5279.18, 0.187186
5284.56, 0.187616
5289.95, 0.188237
5295.36, 0.188954
5300.77, 0.189623
5306.2, 0.190244
5311.63, 0.191009
5317.08, 0.191869
5322.54, 0.192777
5328.01, 0.193589
5333.49, 0.194497
5338.98, 0.195405
5344.49, 0.196265
5350.0, 0.197125
5355.53, 0.198129
5361.07, 0.199037
5366.62, 0.199945
5372.18, 0.200805
5377.75, 0.201713
5383.34, 0.202669
5388.93, 0.203529
5394.54, 0.204485
5400.16, 0.205488
5405.79, 0.206444
5411.44, 0.207495
5417.09, 0.208403
5422.76, 0.209455
5428.43, 0.210650
5434.12, 0.211701
5439.83, 0.212800
5445.54, 0.213803
5451.26, 0.214759
5457.0, 0.215763
5462.75, 0.216671
5468.52, 0.217627
5474.29, 0.218535
5480.08, 0.219490
5485.88, 0.220303
5491.69, 0.221067
5497.51, 0.221641
5503.35, 0.222214
5509.2, 0.222740
5515.06, 0.223170
5520.93, 0.223457
5526.82, 0.223696
5532.71, 0.223791
5538.63, 0.223743
5544.55, 0.223552
5550.49, 0.223361
5556.44, 0.223122
5562.4, 0.222979
5568.37, 0.222692
5574.36, 0.222310
5580.36, 0.222214
5586.37, 0.222358
5592.4, 0.222119
5598.44, 0.221927
5604.49, 0.221593
5610.56, 0.221306
5616.63, 0.220924
5622.73, 0.220446
5628.83, 0.219777
5634.95, 0.218917
5641.08, 0.218057
5647.23, 0.217627
5653.39, 0.216958
5659.56, 0.216241
5665.74, 0.215285
5671.94, 0.214234
5678.15, 0.213326
5684.38, 0.212418
5690.62, 0.211271
5696.87, 0.210124
5703.14, 0.208881
5709.42, 0.207543
5715.72, 0.206253
5722.03, 0.204867
5728.35, 0.203338
5734.69, 0.201665
5741.03, 0.199802
5747.4, 0.197890
5753.78, 0.195979
5760.17, 0.193733
5766.58, 0.191439
5773.0, 0.189671
5779.44, 0.187759
5785.88, 0.185704
5792.35, 0.183601
5798.83, 0.181594
5805.32, 0.179683
5811.83, 0.177867
5818.35, 0.175812
5824.89, 0.174283
5831.45, 0.173088
5838.01, 0.171893
5844.59, 0.170508
5851.19, 0.169122
5857.8, 0.167593
5864.43, 0.166111
5871.07, 0.164486
5877.73, 0.162336
5884.4, 0.160615
5891.09, 0.158895
5897.79, 0.156792
5904.5, 0.155024
5911.23, 0.152826
5917.98, 0.150484
5924.75, 0.147999
5931.53, 0.145323
5938.32, 0.142838
5945.13, 0.141022
5951.96, 0.138920
5958.8, 0.136674
5965.65, 0.134236
5972.53, 0.132134
5979.42, 0.130222
5986.32, 0.128359
5993.24, 0.126543
6000.18, 0.125109
6007.13, 0.123628
6014.1, 0.122242
6021.08, 0.121047
6028.09, 0.119948
6035.1, 0.118658
6042.14, 0.117081
6049.19, 0.115743
6056.25, 0.115456
6063.34, 0.114643
6070.44, 0.113640
6077.55, 0.112971
6084.69, 0.112589
6091.84, 0.112111
6099.0, 0.111681
6106.19, 0.111203
6113.39, 0.110964
6120.61, 0.111155
6127.84, 0.111442
6135.09, 0.111489
6142.36, 0.111728
6149.65, 0.111967
6156.95, 0.112397
6164.27, 0.112923
6171.61, 0.113496
6178.97, 0.113640
6186.34, 0.113974
6193.73, 0.114691
6201.14, 0.115217
6208.57, 0.115504
6216.01, 0.115743
6223.47, 0.116029
6230.95, 0.116268
6238.45, 0.116412
6245.97, 0.116459
6253.5, 0.116507
6261.06, 0.116555
6268.63, 0.116555
6276.21, 0.116507
6283.82, 0.116412
6291.45, 0.116268
6299.1, 0.116029
6306.76, 0.115743
6314.44, 0.115599
6322.14, 0.115265
6329.86, 0.114835
6337.6, 0.114213
6345.35, 0.113688
6353.13, 0.113592
6360.92, 0.113066
6368.74, 0.112350
6376.57, 0.111967
6384.43, 0.111489
6392.3, 0.111012
6400.19, 0.110295
6408.1, 0.109196
6416.03, 0.108765
6423.98, 0.109148
6431.95, 0.109148
6439.94, 0.109052
6447.95, 0.108957
6455.98, 0.108861
6464.03, 0.108765
6472.1, 0.108574
6480.19, 0.108431
6488.31, 0.108288
6496.44, 0.108670
6504.59, 0.109578
6512.76, 0.109960
6520.95, 0.110247
6529.16, 0.110964
6537.4, 0.111633
6545.65, 0.112158
6553.92, 0.112636
6562.22, 0.113019
6570.54, 0.113353
6578.88, 0.114118
6587.23, 0.114643
6595.61, 0.115026
6604.02, 0.115360
6612.44, 0.115695
6620.89, 0.116029
6629.35, 0.115934
6637.84, 0.116125
6646.35, 0.117224
6654.88, 0.118084
6663.44, 0.118466
6672.01, 0.119088
6680.61, 0.119900
6689.23, 0.120999
6697.88, 0.121907
6706.54, 0.122624
6715.23, 0.123532
6723.94, 0.124536
6732.67, 0.125444
6741.42, 0.126113
6750.2, 0.126782
6759.0, 0.127259
6767.82, 0.127451
6776.67, 0.127546
6785.54, 0.127355
6794.44, 0.127403
6803.35, 0.127690
6812.29, 0.127737
6821.26, 0.127451
6830.24, 0.127355
6839.25, 0.127355
6848.29, 0.126782
6857.35, 0.125730
6866.43, 0.125300
6875.54, 0.125444
6884.67, 0.124966
6893.82, 0.124344
6903.0, 0.123628
6912.2, 0.123054
6921.43, 0.122481
6930.69, 0.121859
6939.96, 0.121190
6949.27, 0.120330
6958.59, 0.119231
6967.95, 0.118658
6977.33, 0.118084
6986.73, 0.117367
6996.16, 0.116651
7005.61, 0.115981
7015.09, 0.115169
7024.6, 0.114357
7034.13, 0.113496
7043.69, 0.112589
7053.27, 0.112063
7062.88, 0.111585
7072.52, 0.110916
7082.18, 0.110247
7091.87, 0.109626
7101.58, 0.108957
7111.32, 0.108144
7121.09, 0.107475
7130.88, 0.106806
7140.71, 0.106042
7150.56, 0.105325
7160.43, 0.104560
7170.33, 0.103891
7180.27, 0.103365
7190.23, 0.102792
7200.21, 0.102075
7210.23, 0.101454
7220.27, 0.101024
7230.34, 0.100403
7240.44, 0.0998770
7250.56, 0.0994470
7260.72, 0.0988260
7270.9, 0.0982520
7281.12, 0.0978700
7291.36, 0.0975350
7301.63, 0.0970570
7311.93, 0.0965320
7322.25, 0.0960060
7332.61, 0.0952890
7343.0, 0.0946200
7353.41, 0.0939510
7363.86, 0.0931870
7374.33, 0.0924220
7384.83, 0.0916570
7395.37, 0.0907020
7405.93, 0.0897940
7416.53, 0.0888860
7427.15, 0.0881210
7437.81, 0.0872130
7448.5, 0.0863050
7459.22, 0.0853970
7469.96, 0.0844890
7480.74, 0.0835810
7491.55, 0.0826730
7502.39, 0.0817170
7513.27, 0.0808100
7524.17, 0.0798540
7535.11, 0.0788980
7546.08, 0.0778940
7557.08, 0.0769860
7568.11, 0.0759830
7579.17, 0.0749320
7590.27, 0.0738320
7601.4, 0.0728770
7612.56, 0.0718730
7623.76, 0.0708700
7634.98, 0.0698180
7646.24, 0.0687670
7657.54, 0.0676680
7668.87, 0.0666640
7680.23, 0.0656610
7691.62, 0.0646090
7703.05, 0.0635100
7714.51, 0.0624590
7726.01, 0.0614080
7737.54, 0.0603560
7749.11, 0.0591620
7760.71, 0.0579670
7772.35, 0.0568200
7784.02, 0.0558160
7795.72, 0.0546690
7807.46, 0.0535230
7819.23, 0.0523280
7831.04, 0.0512290
7842.89, 0.0500340
7854.77, 0.0489350
7866.69, 0.0478360
7878.65, 0.0466890
7890.64, 0.0454460
7902.67, 0.0442040
7914.74, 0.0428660
7926.84, 0.0415760
7938.98, 0.0403330
7951.16, 0.0390910
7963.37, 0.0378480
7975.62, 0.0367010
7987.91, 0.0354110
8000.24, 0.0342160
8012.6, 0.0330690
8025.01, 0.0319220
8037.45, 0.0307280
8049.93, 0.0296290
8062.45, 0.0285290
8075.01, 0.0275260
8087.61, 0.0265220
8100.24, 0.0256140
8112.91, 0.0245150
8125.63, 0.0234160
8138.39, 0.0223650
8151.18, 0.0214570
8164.02, 0.0205010
8176.9, 0.0195930
8189.81, 0.0186370
8202.77, 0.0177290
8215.77, 0.0168690
8228.82, 0.0161050
8241.9, 0.0153880
8255.02, 0.0146230
8268.19, 0.0138110
8281.39, 0.0131890
8294.65, 0.0125680
8307.94, 0.0118990
8321.28, 0.0112780
8334.66, 0.0108000
8348.08, 0.0103700
8361.54, 0.00998800
8375.05, 0.00951000
8388.6, 0.00917500
8402.2, 0.00879300
8415.84, 0.00855400
8429.52, 0.00841100
8443.25, 0.00817200
8457.02, 0.00793300
8470.84, 0.00783700
8484.7, 0.00778900
8498.61, 0.00798100
8512.57, 0.00817200
8526.57, 0.00831500
8540.62, 0.00874500
8554.71, 0.00936600
8568.85, 0.00998800
8583.04, 0.0108480
8597.27, 0.0119950
8611.55, 0.0134280
8625.88, 0.0150050
8640.26, 0.0170600
8654.68, 0.0193540
8669.16, 0.0219350
8683.68, 0.0248020
8698.25, 0.0278130
8712.87, 0.0307280
8727.53, 0.0341210
8742.25, 0.0378480
8757.02, 0.0417190
8771.83, 0.0455900
8786.7, 0.0495080
8801.62, 0.0532360
8816.59, 0.0566770
8831.61, 0.0596390
8846.68, 0.0621240
8861.8, 0.0642750
8876.97, 0.0660910
8892.2, 0.0675240
8907.48, 0.0686710
8922.81, 0.0696270
8938.2, 0.0702480
8953.63, 0.0705830
8969.13, 0.0706310
8984.67, 0.0703440
9000.27, 0.0698660
9015.92, 0.0690540
9031.63, 0.0682410
9047.39, 0.0675240
9063.21, 0.0667120
9079.08, 0.0657090
9095.01, 0.0648010
9111.0, 0.0639400
9127.04, 0.0631760
9143.13, 0.0625070
9159.28, 0.0620290
9175.49, 0.0614550
9191.76, 0.0608820
9208.09, 0.0603080
9224.47, 0.0597350
9240.92, 0.0590660
9257.42, 0.0585880
9273.98, 0.0578230
9290.6, 0.0570110
9307.28, 0.0560550
9324.02, 0.0550040
9340.82, 0.0538570
9357.68, 0.0524230
9374.6, 0.0506550
9391.58, 0.0487440
9408.62, 0.0469760
9425.73, 0.0453030
9442.9, 0.0435350
9460.13, 0.0419580
9477.42, 0.0403330
9494.78, 0.0390910
9512.2, 0.0381350
9529.69, 0.0372750
9547.24, 0.0364620
9564.86, 0.0358890
9582.54, 0.0353630
9600.28, 0.0350760
9618.1, 0.0346940
9635.97, 0.0345030
9653.92, 0.0344070
9671.93, 0.0343600
9690.01, 0.0342160
9708.16, 0.0340250
9726.37, 0.0338340
9744.65, 0.0335950
9763.0, 0.0334040
9781.43, 0.0332600
9799.92, 0.0328780
9818.48, 0.0325910
9837.1, 0.0323520
9855.8, 0.0320660
9874.58, 0.0317310
9893.42, 0.0317310
9912.34, 0.0316830
9931.33, 0.0315880
9950.39, 0.0314920
9969.52, 0.0318270
9988.74, 0.0317310
10008.0, 0.0316360
10027.4, 0.0314920
10046.8, 0.0313490
10066.3, 0.0311580
10085.9, 0.0309190
10105.6, 0.0308710
10125.3, 0.0313970
10145.1, 0.0320660
10165.0, 0.0329740
10185.0, 0.0342160
10205.0, 0.0354590
10225.2, 0.0367970
10245.4, 0.0385170
10265.7, 0.0400940
10286.0, 0.0416710
10306.5, 0.0428660
10327.0, 0.0441080
10347.6, 0.0453030
10368.3, 0.0459720
10389.1, 0.0464020
10409.9, 0.0468320
10430.9, 0.0471670
10451.9, 0.0474060
10473.0, 0.0476920
10494.2, 0.0481700
10515.5, 0.0486480
10536.9, 0.0494610
10558.4, 0.0502730
10579.9, 0.0507990
10601.5, 0.0511810
10623.3, 0.0515630
10645.1, 0.0518020
10667.0, 0.0520890
10689.0, 0.0522320
10711.1, 0.0526150
10733.2, 0.0532360
10755.5, 0.0539530
10777.9, 0.0549080
10800.3, 0.0556730
10822.9, 0.0560550
10845.5, 0.0564380
10868.2, 0.0566290
10891.1, 0.0566770
10914.0, 0.0569160
10937.0, 0.0572500
10960.2, 0.0572020
10983.4, 0.0570590
11006.7, 0.0571070
11030.1, 0.0573930
11053.6, 0.0576800
11077.3, 0.0578230
11101.0, 0.0579670
11124.8, 0.0581580
11148.7, 0.0581100
11172.7, 0.0583010
11196.9, 0.0583970
11221.1, 0.0585400
11245.4, 0.0586840
11269.9, 0.0587790
11294.4, 0.0589700
11319.1, 0.0592570
11343.9, 0.0591620
11368.8, 0.0589230
11393.7, 0.0587310
11418.8, 0.0586840
11444.0, 0.0584450
11469.4, 0.0580620
11494.8, 0.0574410
11520.3, 0.0568680
11546.0, 0.0562940
11571.8, 0.0557690
11597.7, 0.0552910
11623.7, 0.0548130
11649.8, 0.0541920
11676.0, 0.0535700
11702.4, 0.0529010
11728.9, 0.0519460
11755.5, 0.0510380
11782.2, 0.0505120
11809.0, 0.0500340
11836.0, 0.0494130
11863.0, 0.0489350
11890.3, 0.0486480
11917.6, 0.0484570
11945.0, 0.0483610
11972.6, 0.0479790
12000.4, 0.0476920
12028.2, 0.0477400
12056.2, 0.0479310
12084.3, 0.0478360
12112.5, 0.0476920
12140.9, 0.0474530
12169.4, 0.0474530
12198.0, 0.0475010
12226.8, 0.0475490
12255.7, 0.0474060
12284.7, 0.0475010
12313.9, 0.0475970
12343.2, 0.0475490
12372.7, 0.0475490
12402.3, 0.0474530
12432.0, 0.0473100
12461.9, 0.0473580
12491.9, 0.0470230
12522.1, 0.0467840
12552.4, 0.0466410
12582.9, 0.0464980
12613.5, 0.0463070
12644.3, 0.0461150
12675.2, 0.0456380
12706.3, 0.0453030
12737.5, 0.0452550
12768.9, 0.0455420
12800.4, 0.0454940
12832.1, 0.0453990
12863.9, 0.0452550
12895.9, 0.0450160
12928.1, 0.0445860
12960.4, 0.0444910
12992.9, 0.0443950
13025.5, 0.0442990
13058.3, 0.0441080
13091.3, 0.0438690
13124.4, 0.0433440
13157.8, 0.0428180
13191.2, 0.0427220
13224.9, 0.0428660
13258.7, 0.0425310
13292.7, 0.0421010
13326.9, 0.0420060
13361.2, 0.0418620
13395.7, 0.0414320
13430.4, 0.0413840
13465.3, 0.0411450
13500.4, 0.0405240
13535.7, 0.0398550
13571.1, 0.0394250
13606.7, 0.0388520
13642.5, 0.0380870
13678.5, 0.0368450
13714.7, 0.0355060
13751.1, 0.0344070
13787.6, 0.0335470
13824.4, 0.0326870
13861.4, 0.0315880
13898.5, 0.0306320
13935.9, 0.0298670
13973.5, 0.0291980
14011.2, 0.0285770
14049.2, 0.0278130
14087.4, 0.0270960
14125.8, 0.0261400
14164.3, 0.0255670
14203.2, 0.0250890
14242.2, 0.0245630
14281.4, 0.0239420
14320.9, 0.0233210
14360.5, 0.0224600
14400.4, 0.0219350
14440.5, 0.0212180
14480.9, 0.0203580
14521.4, 0.0194980
14562.2, 0.0186850
14603.3, 0.0180160
14644.5, 0.0172040
14686.0, 0.0164390
14727.7, 0.0162000
14769.7, 0.0158660
14811.9, 0.0156270
14854.3, 0.0153880
14897.0, 0.0150530
14939.9, 0.0147190
14983.1, 0.0143840
15026.5, 0.0137150
15070.2, 0.0134280
15114.2, 0.0131890
15158.3, 0.0128070
15202.8, 0.0120900
15247.5, 0.0118040
15292.5, 0.0116120
15337.7, 0.0114210
15383.2, 0.0115170
15429.0, 0.0120900
15475.1, 0.0129030
15521.4, 0.0137630
15568.0, 0.0145280
15614.9, 0.0151490
15662.1, 0.0156740
15709.6, 0.0162960
15757.3, 0.0166780
15805.4, 0.0167740
15853.7, 0.0164390
15902.3, 0.0158660
15951.2, 0.0154830
16000.5, 0.0155310
16050.0, 0.0149100
16099.8, 0.0145750
16150.0, 0.0146230
16200.5, 0.0145750
16251.3, 0.0148140
16302.4, 0.0149580
16353.8, 0.0152920
16405.5, 0.0162960
16457.6, 0.0172510
16510.0, 0.0185420
16562.8, 0.0200230
16615.9, 0.0218870
16669.3, 0.0240370
16723.1, 0.0264750
16777.2, 0.0293420
16831.7, 0.0321140
16886.5, 0.0347900
16941.7, 0.0379910
16997.2, 0.0410500
17053.1, 0.0437260
17109.4, 0.0462590
17166.1, 0.0490300
17223.1, 0.0520410
17280.5, 0.0552430
17338.3, 0.0587790
17396.5, 0.0619330
17455.1, 0.0643230
17514.0, 0.0669990
17573.4, 0.0698180
17633.2, 0.0718730
17693.4, 0.0733070
17754.0, 0.0746450
17815.0, 0.0756960
17876.4, 0.0760310
17938.3, 0.0759830
18000.5, 0.0767000
18063.3, 0.0769860
18126.4, 0.0760310
18190.0, 0.0760310
18254.1, 0.0760780
18318.6, 0.0750750
18383.5, 0.0745010
18449.0, 0.0739760
18514.9, 0.0739280
18581.2, 0.0740240
18648.0, 0.0737370
18715.4, 0.0743100
18783.2, 0.0752660
18851.5, 0.0751710
18920.3, 0.0757920
18989.6, 0.0770820
19059.4, 0.0779900
19129.7, 0.0784200
19200.6, 0.0790890
19272.0, 0.0793280
19343.9, 0.0801880
19416.3, 0.0810010
19489.3, 0.0814790
19562.8, 0.0810480
19637.0, 0.0810960
19711.6, 0.0802360
19786.8, 0.0786590
19862.6, 0.0778940
19939.0, 0.0773210
20016.0, 0.0760780
20093.6, 0.0745970
20171.8, 0.0732590
20250.6, 0.0718250
20330.0, 0.0719210
20410.0, 0.0732110
20490.7, 0.0733070
20572.0, 0.0736410
20654.0, 0.0736890
20736.6, 0.0731160
20819.9, 0.0723990
20903.8, 0.0734500
20988.5, 0.0740240
21073.8, 0.0728770
21159.8, 0.0715860
21246.5, 0.0712520
21334.0, 0.0706780
21422.1, 0.0692930
21511.0, 0.0673810
21600.7, 0.0660910
21691.0, 0.0656130
21782.1, 0.0642270
21874.0, 0.0619330
21966.7, 0.0606430
22060.2, 0.0598310
22154.5, 0.0589700
22249.6, 0.0558160
22345.5, 0.0529010
22442.2, 0.0514200
22539.8, 0.0519460
22638.2, 0.0520410
22737.5, 0.0528060
22837.7, 0.0536660
22938.7, 0.0522320
23040.7, 0.0528060
23143.5, 0.0540480
23247.3, 0.0546220
23352.1, 0.0545260
23457.7, 0.0536180
23564.4, 0.0534750
23672.0, 0.0553390
23780.5, 0.0575370
23890.1, 0.0588270
24000.7, 0.0603560
24112.3, 0.0601650
24225.0, 0.0589700
24338.7, 0.0609770
24453.5, 0.0646570
24569.4, 0.0639400
24686.4, 0.0644180
24804.5, 0.0633670
