Database of Origin, USGS Spectral Database
Sample Description, See USGS database for additional info
Date Added,2016-08-10 05:32:38.027521

Data ID,USGS_rho02          
Sample ID, rhodochrosite_hs338.19234
Mineral Name, rhodochrosite
Material Class,Carbonate

Wavelength
1592.67, 0.616941
1593.16, 0.616941
1593.65, 0.616086
1594.14, 0.616164
1594.63, 0.616397
1595.12, 0.616708
1595.61, 0.616319
1596.11, 0.616241
1596.6, 0.615154
1597.09, 0.614766
1597.58, 0.614766
1598.08, 0.614921
1598.57, 0.614066
1599.06, 0.614455
1599.55, 0.613911
1600.05, 0.613989
1600.54, 0.614066
1601.04, 0.614610
1601.53, 0.614144
1602.03, 0.614377
1602.52, 0.613756
1603.02, 0.613756
1603.51, 0.613445
1604.01, 0.613445
1604.5, 0.612824
1605.0, 0.612824
1605.5, 0.612746
1606.0, 0.612979
1606.49, 0.613367
1606.99, 0.613756
1607.49, 0.613057
1607.99, 0.612746
1608.49, 0.612513
1608.99, 0.612979
1609.49, 0.612513
1609.99, 0.612280
1610.49, 0.612047
1610.99, 0.612202
1611.49, 0.611736
1611.99, 0.611969
1612.49, 0.611969
1612.99, 0.612202
1613.49, 0.612124
1614.0, 0.612202
1614.5, 0.611581
1615.0, 0.611814
1615.51, 0.611115
1616.01, 0.611348
1616.51, 0.611736
1617.02, 0.612124
1617.52, 0.611814
1618.03, 0.611736
1618.53, 0.611037
1619.04, 0.610804
1619.54, 0.610804
1620.05, 0.611348
1620.55, 0.611348
1621.06, 0.611658
1621.57, 0.611192
1622.08, 0.611115
1622.58, 0.610416
1623.09, 0.610726
1623.6, 0.610959
1624.11, 0.611270
1624.62, 0.610649
1625.13, 0.610493
1625.64, 0.610416
1626.15, 0.610571
1626.66, 0.610571
1627.17, 0.610882
1627.68, 0.610260
1628.19, 0.610260
1628.7, 0.610027
1629.21, 0.609794
1629.72, 0.609095
1630.24, 0.609483
1630.75, 0.609716
1631.26, 0.609561
1631.78, 0.609173
1632.29, 0.609406
1632.8, 0.608784
1633.32, 0.608551
1633.83, 0.608396
1634.35, 0.609639
1634.86, 0.608706
1635.38, 0.608085
1635.9, 0.607774
1636.41, 0.608085
1636.93, 0.608163
1637.45, 0.607852
1637.96, 0.607386
1638.48, 0.608163
1639.0, 0.607774
1639.52, 0.607386
1640.04, 0.606687
1640.56, 0.606764
1641.08, 0.606842
1641.59, 0.607308
1642.11, 0.606764
1642.63, 0.606609
1643.16, 0.606454
1643.68, 0.606920
1644.2, 0.606920
1644.72, 0.606920
1645.24, 0.606531
1645.76, 0.606687
1646.29, 0.606221
1646.81, 0.606376
1647.33, 0.605988
1647.86, 0.606376
1648.38, 0.606376
1648.9, 0.606454
1649.43, 0.605988
1649.95, 0.605910
1650.48, 0.605599
1651.0, 0.605988
1651.53, 0.605677
1652.06, 0.605677
1652.58, 0.605522
1653.11, 0.605832
1653.64, 0.605677
1654.17, 0.605444
1654.69, 0.604667
1655.22, 0.604822
1655.75, 0.604822
1656.28, 0.605056
1656.81, 0.604978
1657.34, 0.605211
1657.87, 0.604667
1658.4, 0.604279
1658.93, 0.604356
1659.46, 0.605289
1659.99, 0.605522
1660.52, 0.605133
1661.05, 0.604512
1661.59, 0.604745
1662.12, 0.604667
1662.65, 0.604900
1663.19, 0.603968
1663.72, 0.603890
1664.26, 0.604434
1664.79, 0.604900
1665.32, 0.604279
1665.86, 0.604201
1666.39, 0.604123
1666.93, 0.604589
1667.47, 0.604512
1668.0, 0.604589
1668.54, 0.604434
1669.08, 0.604201
1669.61, 0.603657
1670.15, 0.603968
1670.69, 0.604512
1671.23, 0.605366
1671.77, 0.604667
1672.31, 0.604201
1672.85, 0.604434
1673.39, 0.604667
1673.93, 0.603968
1674.47, 0.604356
1675.01, 0.604434
1675.55, 0.604279
1676.09, 0.604356
1676.64, 0.604512
1677.18, 0.604123
1677.72, 0.604201
1678.26, 0.603968
1678.81, 0.604356
1679.35, 0.604589
1679.89, 0.604900
1680.44, 0.604279
1680.98, 0.603968
1681.53, 0.604356
1682.07, 0.605056
1682.62, 0.604900
1683.17, 0.605133
1683.71, 0.605133
1684.26, 0.605056
1684.81, 0.604279
1685.36, 0.604201
1685.9, 0.604123
1686.45, 0.604589
1687.0, 0.604822
1687.55, 0.605366
1688.1, 0.604978
1688.65, 0.604667
1689.2, 0.604356
1689.75, 0.604589
1690.3, 0.604434
1690.85, 0.604434
1691.41, 0.604512
1691.96, 0.604279
1692.51, 0.603968
1693.06, 0.604589
1693.61, 0.604279
1694.17, 0.604279
1694.72, 0.604201
1695.28, 0.604589
1695.83, 0.604123
1696.39, 0.603347
1696.94, 0.603269
1697.5, 0.603968
1698.05, 0.603657
1698.61, 0.603580
1699.17, 0.603502
1699.72, 0.604123
1700.28, 0.603813
1700.84, 0.603502
1701.4, 0.602958
1701.95, 0.603113
1702.51, 0.603036
1703.07, 0.603502
1703.63, 0.603036
1704.19, 0.603347
1704.75, 0.602880
1705.31, 0.603036
1705.88, 0.602647
1706.44, 0.602570
1707.0, 0.602337
1707.56, 0.602414
1708.12, 0.602181
1708.69, 0.602337
1709.25, 0.601871
1709.81, 0.601715
1710.38, 0.601482
1710.94, 0.601715
1711.51, 0.601638
1712.07, 0.601793
1712.64, 0.601404
1713.2, 0.601404
1713.77, 0.601327
1714.34, 0.601016
1714.9, 0.600628
1715.47, 0.601171
1716.04, 0.601016
1716.61, 0.600472
1717.18, 0.600317
1717.74, 0.601016
1718.31, 0.601016
1718.88, 0.601249
1719.45, 0.600938
1720.02, 0.600783
1720.59, 0.600317
1721.17, 0.600317
1721.74, 0.600006
1722.31, 0.600317
1722.88, 0.600239
1723.45, 0.600162
1724.03, 0.599696
1724.6, 0.600162
1725.18, 0.600006
1725.75, 0.599618
1726.33, 0.598841
1726.9, 0.599152
1727.48, 0.599463
1728.05, 0.599928
1728.63, 0.599229
1729.2, 0.598919
1729.78, 0.598996
1730.36, 0.598841
1730.94, 0.598375
1731.51, 0.599074
1732.09, 0.599385
1732.67, 0.599152
1733.25, 0.598297
1733.83, 0.598686
1734.41, 0.599152
1734.99, 0.599540
1735.57, 0.599307
1736.15, 0.599152
1736.73, 0.598919
1737.32, 0.599307
1737.9, 0.599385
1738.48, 0.599229
1739.07, 0.598530
1739.65, 0.598841
1740.23, 0.599152
1740.82, 0.599229
1741.4, 0.598919
1741.99, 0.598841
1742.57, 0.598453
1743.16, 0.598919
1743.74, 0.599229
1744.33, 0.599463
1744.92, 0.598919
1745.51, 0.598841
1746.09, 0.598608
1746.68, 0.598686
1747.27, 0.598608
1747.86, 0.599152
1748.45, 0.598919
1749.04, 0.598841
1749.63, 0.598686
1750.22, 0.599152
1750.81, 0.599074
1751.4, 0.599229
1751.99, 0.598996
1752.59, 0.599152
1753.18, 0.598763
1753.77, 0.598297
1754.37, 0.597909
1754.96, 0.598297
1755.56, 0.598220
1756.15, 0.598530
1756.74, 0.598686
1757.34, 0.598608
1757.94, 0.598763
1758.53, 0.598453
1759.13, 0.597831
1759.73, 0.598453
1760.32, 0.598297
1760.92, 0.598686
1761.52, 0.598919
1762.12, 0.599152
1762.72, 0.598453
1763.32, 0.598763
1763.92, 0.598530
1764.52, 0.598763
1765.12, 0.598763
1765.72, 0.598841
1766.32, 0.598996
1766.92, 0.598996
1767.53, 0.598375
1768.13, 0.598919
1768.73, 0.598841
1769.34, 0.599152
1769.94, 0.599152
1770.55, 0.598841
1771.15, 0.598375
1771.76, 0.598608
1772.36, 0.598453
1772.97, 0.598919
1773.57, 0.599229
1774.18, 0.598996
1774.79, 0.598763
1775.4, 0.598919
1776.0, 0.598375
1776.61, 0.598763
1777.22, 0.598763
1777.83, 0.598763
1778.44, 0.598919
1779.05, 0.599229
1779.66, 0.598608
1780.27, 0.598375
1780.88, 0.598608
1781.5, 0.599307
1782.11, 0.598996
1782.72, 0.598996
1783.33, 0.598841
1783.95, 0.598841
1784.56, 0.598686
1785.18, 0.598841
1785.79, 0.598686
1786.41, 0.598996
1787.02, 0.598763
1787.64, 0.598686
1788.26, 0.598530
1788.87, 0.599229
1789.49, 0.599385
1790.11, 0.599229
1790.73, 0.598996
1791.35, 0.598919
1791.96, 0.598608
1792.58, 0.598686
1793.21, 0.598686
1793.83, 0.598996
1794.45, 0.598686
1795.07, 0.598608
1795.69, 0.598608
1796.31, 0.598841
1796.93, 0.598064
1797.56, 0.597676
1798.18, 0.597831
1798.8, 0.598530
1799.43, 0.598297
1800.05, 0.598142
1800.68, 0.598297
1801.3, 0.598142
1801.93, 0.597676
1802.56, 0.597909
1803.18, 0.597598
1803.81, 0.597443
1804.44, 0.597054
1805.07, 0.597365
1805.7, 0.597676
1806.33, 0.597754
1806.95, 0.597210
1807.58, 0.597287
1808.22, 0.597210
1808.85, 0.597598
1809.48, 0.597443
1810.11, 0.597210
1810.74, 0.596977
1811.38, 0.597365
1812.01, 0.597132
1812.64, 0.596977
1813.28, 0.596433
1813.91, 0.596899
1814.55, 0.596977
1815.18, 0.596666
1815.82, 0.596045
1816.45, 0.596433
1817.09, 0.596511
1817.73, 0.596899
1818.36, 0.596511
1819.0, 0.596278
1819.64, 0.596200
1820.28, 0.596278
1820.92, 0.596200
1821.56, 0.596511
1822.2, 0.595889
1822.84, 0.595967
1823.48, 0.595967
1824.12, 0.595889
1824.76, 0.595889
1825.41, 0.596355
1826.05, 0.595734
1826.69, 0.595656
1827.34, 0.595501
1827.98, 0.595889
1828.63, 0.595889
1829.27, 0.595811
1829.92, 0.595734
1830.56, 0.596200
1831.21, 0.595501
1831.86, 0.594957
1832.5, 0.595112
1833.15, 0.595345
1833.8, 0.595345
1834.45, 0.595734
1835.1, 0.595656
1835.75, 0.595501
1836.4, 0.594724
1837.05, 0.595035
1837.7, 0.594879
1838.35, 0.594802
1839.01, 0.595423
1839.66, 0.595345
1840.31, 0.594413
1840.96, 0.594491
1841.62, 0.594413
1842.27, 0.593869
1842.93, 0.593636
1843.58, 0.594025
1844.24, 0.593869
1844.9, 0.594025
1845.55, 0.594258
1846.21, 0.594569
1846.87, 0.593559
1847.53, 0.593248
1848.18, 0.593170
1848.84, 0.592860
1849.5, 0.593015
1850.16, 0.593403
1850.82, 0.592937
1851.48, 0.592627
1852.14, 0.592782
1852.81, 0.593093
1853.47, 0.592627
1854.13, 0.591927
1854.8, 0.591539
1855.46, 0.592083
1856.12, 0.592238
1856.79, 0.592083
1857.45, 0.591694
1858.12, 0.591772
1858.79, 0.591617
1859.45, 0.591461
1860.12, 0.590918
1860.79, 0.590607
1861.46, 0.590451
1862.12, 0.590685
1862.79, 0.590685
1863.46, 0.590607
1864.13, 0.589985
1864.8, 0.589752
1865.48, 0.589752
1866.15, 0.589985
1866.82, 0.589752
1867.49, 0.589131
1868.16, 0.588276
1868.84, 0.588432
1869.51, 0.588432
1870.19, 0.588354
1870.86, 0.587655
1871.54, 0.586956
1872.21, 0.587034
1872.89, 0.586567
1873.56, 0.585558
1874.24, 0.585635
1874.92, 0.585325
1875.6, 0.584858
1876.28, 0.584470
1876.96, 0.584082
1877.64, 0.583305
1878.32, 0.583072
1879.0, 0.582684
1879.68, 0.582217
1880.36, 0.581596
1881.04, 0.581130
1881.73, 0.580508
1882.41, 0.580120
1883.09, 0.579110
1883.78, 0.578256
1884.46, 0.577246
1885.15, 0.576780
1885.83, 0.575925
1886.52, 0.575537
1887.21, 0.574760
1887.89, 0.574294
1888.58, 0.573439
1889.27, 0.572973
1889.96, 0.572196
1890.65, 0.571730
1891.34, 0.571420
1892.03, 0.570876
1892.72, 0.570177
1893.41, 0.569944
1894.1, 0.569555
1894.79, 0.569866
1895.49, 0.570177
1896.18, 0.570798
1896.87, 0.571031
1897.57, 0.571420
1898.26, 0.571808
1898.96, 0.572585
1899.65, 0.572352
1900.35, 0.572430
1901.05, 0.572818
1901.74, 0.573595
1902.44, 0.573750
1903.14, 0.573828
1903.84, 0.573828
1904.54, 0.574139
1905.24, 0.573983
1905.94, 0.573983
1906.64, 0.573750
1907.34, 0.573750
1908.04, 0.573595
1908.75, 0.573595
1909.45, 0.573672
1910.15, 0.574294
1910.86, 0.574216
1911.56, 0.574139
1912.27, 0.573750
1912.97, 0.573828
1913.68, 0.573362
1914.39, 0.573284
1915.09, 0.573284
1915.8, 0.573828
1916.51, 0.573828
1917.22, 0.573595
1917.93, 0.573284
1918.64, 0.573206
1919.35, 0.573284
1920.06, 0.573595
1920.77, 0.573051
1921.48, 0.573051
1922.19, 0.573284
1922.91, 0.573439
1923.62, 0.573362
1924.33, 0.573051
1925.05, 0.572896
1925.76, 0.573206
1926.48, 0.573362
1927.19, 0.573750
1927.91, 0.573439
1928.63, 0.573206
1929.35, 0.572973
1930.07, 0.573517
1930.78, 0.573517
1931.5, 0.573595
1932.22, 0.573672
1932.94, 0.573672
1933.66, 0.573284
1934.39, 0.573750
1935.11, 0.574216
1935.83, 0.574294
1936.55, 0.573983
1937.28, 0.574294
1938.0, 0.574139
1938.73, 0.574216
1939.45, 0.574294
1940.18, 0.574527
1940.9, 0.574372
1941.63, 0.574838
1942.36, 0.575071
1943.09, 0.575148
1943.81, 0.574993
1944.54, 0.575071
1945.27, 0.574682
1946.0, 0.575226
1946.73, 0.575381
1947.47, 0.575381
1948.2, 0.575381
1948.93, 0.575537
1949.66, 0.575459
1950.4, 0.575459
1951.13, 0.575614
1951.86, 0.575925
1952.6, 0.575848
1953.34, 0.575925
1954.07, 0.575692
1954.81, 0.575459
1955.55, 0.575537
1956.29, 0.576081
1957.02, 0.576081
1957.76, 0.575925
1958.5, 0.575692
1959.24, 0.575537
1959.98, 0.575459
1960.72, 0.575770
1961.47, 0.575614
1962.21, 0.575692
1962.95, 0.575614
1963.7, 0.575537
1964.44, 0.575537
1965.18, 0.575770
1965.93, 0.575537
1966.67, 0.575770
1967.42, 0.575537
1968.17, 0.575537
1968.92, 0.575692
1969.66, 0.575770
1970.41, 0.575226
1971.16, 0.575304
1971.91, 0.575304
1972.66, 0.575692
1973.41, 0.575381
1974.16, 0.574993
1974.92, 0.575071
1975.67, 0.575304
1976.42, 0.575226
1977.18, 0.575459
1977.93, 0.575148
1978.69, 0.575226
1979.44, 0.575071
1980.2, 0.575226
1980.95, 0.575071
1981.71, 0.575226
1982.47, 0.575304
1983.23, 0.575537
1983.99, 0.575304
1984.74, 0.575381
1985.51, 0.575381
1986.27, 0.575304
1987.03, 0.575304
1987.79, 0.575304
1988.55, 0.575226
1989.32, 0.575226
1990.08, 0.575226
1990.84, 0.575226
1991.61, 0.574838
1992.37, 0.574760
1993.14, 0.574760
1993.9, 0.575071
1994.67, 0.574838
1995.44, 0.574682
1996.21, 0.574372
1996.98, 0.574216
1997.75, 0.573983
1998.52, 0.573828
1999.29, 0.573439
2000.06, 0.573439
2000.83, 0.573206
2001.6, 0.573129
2002.38, 0.572740
2003.15, 0.572507
2003.93, 0.572430
2004.7, 0.572507
2005.48, 0.571886
2006.25, 0.571808
2007.03, 0.571653
2007.81, 0.571575
2008.58, 0.571497
2009.36, 0.571886
2010.14, 0.572041
2010.92, 0.572352
2011.7, 0.572507
2012.48, 0.572896
2013.26, 0.573362
2014.05, 0.574061
2014.83, 0.574449
2015.61, 0.574993
2016.4, 0.575614
2017.18, 0.576702
2017.97, 0.577556
2018.75, 0.578411
2019.54, 0.579110
2020.32, 0.580120
2021.11, 0.580897
2021.9, 0.581596
2022.69, 0.582140
2023.48, 0.582839
2024.27, 0.583227
2025.06, 0.583771
2025.85, 0.584004
2026.64, 0.584470
2027.44, 0.585014
2028.23, 0.585946
2029.02, 0.586179
2029.82, 0.586490
2030.61, 0.586567
2031.41, 0.587034
2032.2, 0.587189
2033.0, 0.587810
2033.8, 0.588121
2034.6, 0.588587
2035.4, 0.588898
2036.2, 0.589209
2037.0, 0.589286
2037.8, 0.589675
2038.6, 0.589908
2039.4, 0.590451
2040.2, 0.590685
2041.01, 0.590918
2041.81, 0.590918
2042.61, 0.591694
2043.42, 0.592160
2044.22, 0.592160
2045.03, 0.592083
2045.84, 0.592549
2046.65, 0.592394
2047.46, 0.592627
2048.26, 0.592937
2049.07, 0.593170
2049.88, 0.592937
2050.69, 0.593093
2051.51, 0.593093
2052.32, 0.593170
2053.13, 0.593248
2053.94, 0.593714
2054.76, 0.593714
2055.57, 0.593947
2056.39, 0.593947
2057.2, 0.594025
2058.02, 0.593947
2058.84, 0.594180
2059.66, 0.594103
2060.48, 0.594413
2061.29, 0.594413
2062.11, 0.594491
2062.94, 0.594491
2063.76, 0.594491
2064.58, 0.594569
2065.4, 0.594646
2066.22, 0.594724
2067.05, 0.594802
2067.87, 0.594724
2068.7, 0.594879
2069.52, 0.594413
2070.35, 0.594180
2071.18, 0.594336
2072.0, 0.594879
2072.83, 0.595190
2073.66, 0.594957
2074.49, 0.594802
2075.32, 0.594957
2076.15, 0.594569
2076.98, 0.594646
2077.82, 0.594724
2078.65, 0.595035
2079.48, 0.595035
2080.32, 0.595268
2081.15, 0.595035
2081.99, 0.594879
2082.83, 0.594724
2083.66, 0.594724
2084.5, 0.594724
2085.34, 0.594957
2086.18, 0.594879
2087.02, 0.594879
2087.86, 0.594646
2088.7, 0.594646
2089.54, 0.594491
2090.39, 0.594491
2091.23, 0.594413
2092.07, 0.594802
2092.92, 0.594646
2093.76, 0.594646
2094.61, 0.594646
2095.45, 0.594569
2096.3, 0.594413
2097.15, 0.594491
2098.0, 0.594569
2098.85, 0.594879
2099.7, 0.594569
2100.55, 0.594413
2101.4, 0.594258
2102.25, 0.594180
2103.1, 0.594025
2103.96, 0.594103
2104.81, 0.593869
2105.67, 0.593869
2106.52, 0.593559
2107.38, 0.593714
2108.24, 0.593636
2109.09, 0.593714
2109.95, 0.593481
2110.81, 0.593714
2111.67, 0.593636
2112.53, 0.593947
2113.39, 0.593714
2114.25, 0.593403
2115.12, 0.593248
2115.98, 0.593481
2116.84, 0.593248
2117.71, 0.593403
2118.58, 0.593248
2119.44, 0.593248
2120.31, 0.593093
2121.18, 0.593403
2122.04, 0.593248
2122.91, 0.593093
2123.78, 0.592860
2124.65, 0.593015
2125.52, 0.593170
2126.4, 0.593326
2127.27, 0.593170
2128.14, 0.593248
2129.02, 0.593015
2129.89, 0.592860
2130.77, 0.592704
2131.64, 0.592860
2132.52, 0.592937
2133.4, 0.593403
2134.27, 0.592937
2135.15, 0.592627
2136.03, 0.592471
2136.91, 0.592394
2137.79, 0.592238
2138.68, 0.592394
2139.56, 0.592083
2140.44, 0.592005
2141.33, 0.592005
2142.21, 0.592005
2143.1, 0.591539
2143.99, 0.591306
2144.87, 0.591151
2145.76, 0.591151
2146.65, 0.590840
2147.54, 0.590685
2148.43, 0.590141
2149.32, 0.589752
2150.21, 0.589364
2151.1, 0.589131
2151.99, 0.588509
2152.89, 0.588199
2153.78, 0.587733
2154.68, 0.587500
2155.57, 0.586956
2156.47, 0.586878
2157.37, 0.586490
2158.27, 0.586412
2159.16, 0.586334
2160.06, 0.586412
2160.96, 0.586257
2161.86, 0.586334
2162.77, 0.586412
2163.67, 0.586334
2164.57, 0.586024
2165.48, 0.586179
2166.38, 0.585868
2167.29, 0.585868
2168.2, 0.585713
2169.1, 0.585791
2170.01, 0.585402
2170.92, 0.585713
2171.83, 0.585635
2172.74, 0.585558
2173.65, 0.585558
2174.56, 0.585946
2175.47, 0.585791
2176.39, 0.586179
2177.3, 0.586257
2178.22, 0.586878
2179.13, 0.587577
2180.05, 0.588043
2180.96, 0.588043
2181.88, 0.588354
2182.8, 0.588742
2183.72, 0.589286
2184.64, 0.589675
2185.56, 0.590063
2186.48, 0.589752
2187.41, 0.589830
2188.33, 0.589908
2189.25, 0.589985
2190.18, 0.589985
2191.1, 0.590141
2192.03, 0.589830
2192.96, 0.589908
2193.89, 0.589752
2194.82, 0.589519
2195.74, 0.589053
2196.68, 0.588898
2197.61, 0.588665
2198.54, 0.588742
2199.47, 0.588820
2200.4, 0.588820
2201.34, 0.588509
2202.28, 0.588665
2203.21, 0.588509
2204.15, 0.588276
2205.08, 0.587810
2206.02, 0.587655
2206.96, 0.587577
2207.9, 0.587655
2208.84, 0.587577
2209.78, 0.587500
2210.73, 0.587189
2211.67, 0.587189
2212.61, 0.587034
2213.56, 0.586878
2214.5, 0.586490
2215.45, 0.586412
2216.4, 0.585946
2217.35, 0.585868
2218.3, 0.585713
2219.24, 0.585402
2220.2, 0.584858
2221.15, 0.584703
2222.1, 0.584237
2223.05, 0.583926
2224.0, 0.583616
2224.96, 0.583538
2225.91, 0.583305
2226.87, 0.583072
2227.83, 0.582839
2228.79, 0.582450
2229.74, 0.581751
2230.7, 0.581441
2231.66, 0.580897
2232.63, 0.580586
2233.59, 0.580120
2234.55, 0.579732
2235.51, 0.579032
2236.48, 0.578722
2237.44, 0.578178
2238.41, 0.577945
2239.38, 0.577323
2240.34, 0.576935
2241.31, 0.576547
2242.28, 0.576003
2243.25, 0.575148
2244.22, 0.574682
2245.19, 0.573905
2246.17, 0.573439
2247.14, 0.572740
2248.12, 0.572196
2249.09, 0.571497
2250.07, 0.571264
2251.04, 0.570721
2252.02, 0.570021
2253.0, 0.569245
2253.98, 0.568701
2254.96, 0.567769
2255.94, 0.567070
2256.92, 0.566370
2257.91, 0.565749
2258.89, 0.564894
2259.88, 0.564351
2260.86, 0.563419
2261.85, 0.562719
2262.83, 0.561787
2263.82, 0.560933
2264.81, 0.560078
2265.8, 0.559379
2266.79, 0.558292
2267.78, 0.557515
2268.78, 0.556583
2269.77, 0.555884
2270.76, 0.554874
2271.76, 0.554097
2272.75, 0.553165
2273.75, 0.552388
2274.75, 0.551378
2275.75, 0.550368
2276.75, 0.549048
2277.75, 0.548038
2278.75, 0.546873
2279.75, 0.546173
2280.75, 0.544931
2281.76, 0.543532
2282.76, 0.542134
2283.77, 0.541047
2284.77, 0.539571
2285.78, 0.538172
2286.79, 0.536774
2287.8, 0.535454
2288.81, 0.533667
2289.82, 0.532036
2290.83, 0.530249
2291.84, 0.528618
2292.86, 0.526676
2293.87, 0.524811
2294.89, 0.522947
2295.91, 0.521471
2296.92, 0.519451
2297.94, 0.517898
2298.96, 0.516189
2299.98, 0.514402
2301.0, 0.512460
2302.02, 0.511062
2303.04, 0.509508
2304.07, 0.508265
2305.09, 0.506712
2306.12, 0.505624
2307.15, 0.504148
2308.17, 0.502905
2309.2, 0.501740
2310.23, 0.500730
2311.26, 0.499254
2312.29, 0.498244
2313.32, 0.497079
2314.35, 0.495992
2315.39, 0.494826
2316.42, 0.494127
2317.46, 0.492884
2318.5, 0.491797
2319.53, 0.490632
2320.57, 0.489622
2321.61, 0.488923
2322.65, 0.488457
2323.69, 0.487602
2324.73, 0.486903
2325.78, 0.485815
2326.82, 0.485039
2327.86, 0.483951
2328.91, 0.483174
2329.96, 0.482320
2331.01, 0.481543
2332.05, 0.480611
2333.1, 0.480067
2334.15, 0.478980
2335.21, 0.478280
2336.26, 0.477581
2337.31, 0.477038
2338.36, 0.476183
2339.42, 0.475639
2340.48, 0.474863
2341.53, 0.474163
2342.59, 0.473154
2343.65, 0.472377
2344.71, 0.471289
2345.77, 0.470435
2346.83, 0.469036
2347.9, 0.467638
2348.96, 0.466085
2350.02, 0.464609
2351.09, 0.462977
2352.16, 0.461657
2353.23, 0.460259
2354.29, 0.458938
2355.36, 0.457307
2356.43, 0.456141
2357.51, 0.455209
2358.58, 0.454510
2359.65, 0.453811
2360.73, 0.453811
2361.8, 0.453733
2362.88, 0.454199
2363.96, 0.454743
2365.03, 0.455520
2366.11, 0.456374
2367.19, 0.457928
2368.27, 0.459559
2369.36, 0.461734
2370.44, 0.463987
2371.53, 0.466628
2372.61, 0.469503
2373.7, 0.473309
2374.78, 0.477426
2375.87, 0.481931
2376.96, 0.486825
2378.05, 0.492651
2379.14, 0.498400
2380.24, 0.504692
2381.33, 0.511217
2382.42, 0.518441
2383.52, 0.525588
2384.61, 0.532812
2385.71, 0.539415
2386.81, 0.545552
2387.91, 0.550679
2389.01, 0.555573
2390.11, 0.559457
2391.22, 0.563186
2392.32, 0.566293
2393.42, 0.568934
2394.53, 0.570643
2395.64, 0.572274
2396.74, 0.573672
2397.85, 0.574682
2398.96, 0.575304
2400.07, 0.576003
2401.18, 0.576314
2402.3, 0.576632
2403.41, 0.576824
2404.52, 0.576824
2405.64, 0.576696
2406.76, 0.576505
2407.88, 0.576377
2408.99, 0.576058
2410.11, 0.575166
2411.23, 0.574018
2412.36, 0.572934
2413.48, 0.572424
2414.6, 0.571723
2415.73, 0.570639
2416.85, 0.569491
2417.98, 0.568152
2419.11, 0.566877
2420.24, 0.565347
2421.37, 0.563626
2422.5, 0.562542
2423.64, 0.561522
2424.77, 0.560310
2425.9, 0.559673
2427.04, 0.559099
2428.18, 0.558461
2429.31, 0.558079
2430.45, 0.557122
2431.59, 0.556293
2432.73, 0.555401
2433.88, 0.554572
2435.02, 0.553169
2436.16, 0.551830
2437.31, 0.550555
2438.45, 0.549662
2439.6, 0.548196
2440.75, 0.546602
2441.9, 0.545199
2443.05, 0.543669
2444.2, 0.542139
2445.35, 0.540609
2446.51, 0.538823
2447.67, 0.537230
2448.82, 0.535636
2449.98, 0.533914
2451.14, 0.532320
2452.3, 0.530280
2453.46, 0.528367
2454.62, 0.526646
2455.78, 0.524924
2456.94, 0.522948
2458.11, 0.520652
2459.28, 0.518421
2460.44, 0.515998
2461.61, 0.513703
2462.78, 0.511535
2463.95, 0.509176
2465.12, 0.506498
2466.3, 0.504075
2467.47, 0.501397
2468.65, 0.498146
2469.82, 0.495149
2471.0, 0.492344
2472.18, 0.489092
2473.36, 0.485904
2474.54, 0.483035
2475.72, 0.479719
2476.9, 0.475958
2478.08, 0.472068
2479.27, 0.468434
2480.46, 0.465182
2481.64, 0.461548
2482.83, 0.457978
2484.02, 0.454598
2485.21, 0.451219
2486.4, 0.447968
2487.6, 0.444525
2488.79, 0.441209
2489.99, 0.438404
2491.18, 0.435598
2492.38, 0.432921
2493.58, 0.430306
2494.78, 0.428075
2495.98, 0.425716
2497.18, 0.423676
2498.39, 0.421635
2499.59, 0.419850
2500.8, 0.418065
2502.01, 0.416598
2503.21, 0.415068
2504.42, 0.413921
2505.63, 0.412518
2506.84, 0.411498
2508.06, 0.410605
2509.27, 0.409712
2510.49, 0.408629
2511.7, 0.407800
2512.92, 0.406971
2514.14, 0.406078
2515.36, 0.404994
2516.58, 0.403655
2517.8, 0.402189
2519.03, 0.400914
2520.25, 0.399830
2521.48, 0.398937
2522.7, 0.397790
2523.93, 0.396451
2525.16, 0.394984
2526.39, 0.393454
2527.62, 0.391988
2528.86, 0.390457
2530.09, 0.388290
2531.33, 0.386313
2532.56, 0.384273
2533.8, 0.381914
2535.04, 0.379555
2536.28, 0.377132
2537.52, 0.374582
2538.76, 0.371967
2540.01, 0.368843
2541.25, 0.365592
2542.5, 0.361894
2543.75, 0.358578
2544.99, 0.355326
2546.24, 0.351947
2547.49, 0.348313
2548.75, 0.345763
2550.0, 0.343404
2551.26, 0.341427
2552.51, 0.340024
2553.77, 0.339578
2555.03, 0.340088
2556.29, 0.341300
2557.55, 0.342702
2558.81, 0.344041
2560.08, 0.345316
2561.34, 0.347675
2562.61, 0.351947
2563.88, 0.356920
2565.14, 0.363169
2566.41, 0.370883
2567.68, 0.377451
2568.96, 0.383444
2570.23, 0.391605
2571.51, 0.401615
2572.78, 0.410031
2574.06, 0.421189
2575.34, 0.433494
2576.62, 0.444525
2577.9, 0.456511
2579.18, 0.467988
2580.47, 0.477233
2581.75, 0.485968
2583.04, 0.492025
2584.32, 0.498847
2585.61, 0.507263
2586.9, 0.512364
2588.2, 0.517656
2589.49, 0.523203
2590.78, 0.527666
2592.08, 0.530089
2593.37, 0.527283
2594.67, 0.522820
2595.97, 0.527857
2597.27, 0.535699
2598.57, 0.539589
2599.88, 0.540736
2601.18, 0.540928
2602.49, 0.541565
2603.79, 0.542203
2605.1, 0.542203
2606.41, 0.545263
2607.72, 0.549790
2609.03, 0.552532
2610.35, 0.554827
2611.66, 0.556803
2612.98, 0.557505
2614.3, 0.558397
2615.62, 0.556676
2616.94, 0.554508
2618.26, 0.557250
2619.58, 0.557059
2620.91, 0.557122
2622.23, 0.561075
2623.56, 0.562797
2624.89, 0.562095
2626.22, 0.559481
2627.55, 0.559991
2628.88, 0.560055
2630.21, 0.556485
2631.55, 0.558015
2632.89, 0.560374
2634.22, 0.560501
2635.56, 0.561713
2636.9, 0.562350
2638.25, 0.562159
2639.59, 0.561649
2640.93, 0.561075
2642.28, 0.560246
2643.63, 0.559928
2644.98, 0.558652
2646.33, 0.557824
2647.68, 0.558334
2649.03, 0.558206
2650.39, 0.557250
2651.74, 0.555082
2653.1, 0.553998
2654.46, 0.554126
2655.82, 0.553615
2657.18, 0.553934
2658.54, 0.552340
2659.9, 0.550555
2661.27, 0.550173
2662.64, 0.549535
2664.01, 0.545391
2665.38, 0.540099
2666.74, 0.538823
2668.12, 0.541055
2669.49, 0.537676
2670.87, 0.534424
2672.24, 0.539716
2673.62, 0.541246
2675.0, 0.537995
2676.38, 0.533914
2677.76, 0.533276
2679.15, 0.532639
2680.54, 0.533659
2681.92, 0.533276
2683.31, 0.530726
2684.7, 0.528431
2686.09, 0.526263
2687.48, 0.524032
2688.88, 0.522055
2690.27, 0.519568
2691.67, 0.515934
2693.07, 0.509686
2694.47, 0.505031
2695.87, 0.503438
2697.27, 0.501780
2698.67, 0.498528
2700.08, 0.493874
2701.49, 0.489092
2702.9, 0.485968
2704.31, 0.481823
2705.72, 0.477488
2707.13, 0.472451
2708.54, 0.465374
2709.96, 0.457340
2711.38, 0.451666
2712.8, 0.449498
2714.22, 0.445800
2715.64, 0.440317
2717.06, 0.433941
2718.49, 0.426927
2719.91, 0.417937
2721.34, 0.412964
2722.77, 0.409776
2724.2, 0.402890
2725.63, 0.399065
2727.07, 0.396642
2728.5, 0.392498
2729.94, 0.387397
2731.38, 0.382360
2732.82, 0.377068
2734.26, 0.371011
2735.7, 0.366357
2737.15, 0.362404
2738.59, 0.355326
2740.04, 0.349461
2741.49, 0.346719
2742.94, 0.345380
2744.39, 0.343340
2745.84, 0.340534
2747.3, 0.337283
2748.76, 0.334159
2750.21, 0.330779
2751.67, 0.327464
2753.14, 0.324276
2754.6, 0.319112
2756.06, 0.315987
2757.53, 0.316242
2759.0, 0.315159
2760.46, 0.312544
2761.94, 0.308910
2763.41, 0.306742
2764.88, 0.305467
2766.36, 0.303491
2767.83, 0.301323
2769.31, 0.299028
2770.79, 0.296095
2772.27, 0.294501
2773.76, 0.292843
2775.24, 0.290420
2776.73, 0.287487
2778.22, 0.284554
2779.71, 0.281685
2781.2, 0.278944
2782.69, 0.276457
2784.18, 0.274098
2785.68, 0.270591
2787.18, 0.267340
2788.68, 0.265491
2790.18, 0.263769
2791.68, 0.260709
2793.19, 0.257457
2794.69, 0.254205
2796.2, 0.250890
2797.71, 0.247128
2799.22, 0.243558
2800.73, 0.239732
2802.24, 0.236289
2803.76, 0.234950
2805.28, 0.236417
2806.8, 0.239286
2808.32, 0.243494
2809.84, 0.248085
2811.36, 0.252420
2812.89, 0.255608
2814.42, 0.258095
2815.94, 0.260390
2817.48, 0.262366
2819.01, 0.263259
2820.54, 0.264088
2822.08, 0.265044
2823.61, 0.265809
2825.15, 0.266128
2826.69, 0.266383
2828.23, 0.266447
2829.78, 0.266893
2831.32, 0.267467
2832.87, 0.267722
2834.42, 0.267913
2835.97, 0.268679
2837.52, 0.269189
2839.08, 0.269826
2840.63, 0.270400
2842.19, 0.270974
2843.75, 0.271484
2845.31, 0.271930
2846.87, 0.272185
2848.44, 0.272313
2850.0, 0.272185
2851.57, 0.272377
2853.14, 0.272249
2854.71, 0.271930
2856.28, 0.271930
2857.86, 0.271803
2859.43, 0.271229
2861.01, 0.270783
2862.59, 0.270336
2864.17, 0.270081
2865.76, 0.269316
2867.34, 0.268487
2868.93, 0.267913
2870.52, 0.267403
2872.11, 0.266766
2873.7, 0.266256
2875.29, 0.265618
2876.89, 0.264853
2878.49, 0.264152
2880.08, 0.263769
2881.69, 0.263450
2883.29, 0.263323
2884.89, 0.262813
2886.5, 0.262303
2888.11, 0.261856
2889.72, 0.261346
2891.33, 0.260772
2892.94, 0.260454
2894.56, 0.260071
2896.17, 0.259625
2897.79, 0.259115
2899.42, 0.258541
2901.04, 0.258031
2902.66, 0.257712
2904.29, 0.257202
2905.92, 0.256756
2907.55, 0.256182
2909.18, 0.255736
2910.81, 0.255289
2912.45, 0.255098
2914.08, 0.254588
2915.72, 0.254205
2917.36, 0.253823
2919.01, 0.253632
2920.65, 0.253249
2922.3, 0.253121
2923.94, 0.252675
2925.59, 0.252548
2927.25, 0.252356
2928.9, 0.252101
2930.56, 0.252038
2932.21, 0.251910
2933.87, 0.251655
2935.53, 0.251655
2937.2, 0.251400
2938.86, 0.251145
2940.53, 0.250890
2942.2, 0.250699
2943.87, 0.250699
2945.54, 0.250635
2947.22, 0.250316
2948.89, 0.250125
2950.57, 0.249997
2952.25, 0.249870
2953.93, 0.249934
2955.62, 0.249742
2957.3, 0.249742
2958.99, 0.249997
2960.68, 0.250125
2962.37, 0.250316
2964.07, 0.250444
2965.76, 0.250890
2967.46, 0.251272
2969.16, 0.251527
2970.86, 0.251846
2972.56, 0.252229
2974.27, 0.252739
2975.98, 0.253313
2977.69, 0.253759
2979.4, 0.254078
2981.11, 0.254460
2982.83, 0.254907
2984.54, 0.255098
2986.26, 0.255417
2987.98, 0.255736
2989.71, 0.256054
2991.43, 0.256309
2993.16, 0.256437
2994.89, 0.256564
2996.62, 0.256692
2998.35, 0.256819
3000.09, 0.257074
3001.83, 0.257138
3003.57, 0.257202
3005.31, 0.256947
3007.05, 0.257011
3008.79, 0.257074
3010.54, 0.257011
3012.29, 0.257011
3014.04, 0.256947
3015.8, 0.256883
3017.55, 0.257074
3019.31, 0.257074
3021.07, 0.257138
3022.83, 0.257138
3024.59, 0.257074
3026.36, 0.257011
3028.13, 0.257138
3029.9, 0.257266
3031.67, 0.257330
3033.44, 0.257266
3035.22, 0.257393
3037.0, 0.257330
3038.78, 0.257457
3040.56, 0.257393
3042.34, 0.257393
3044.13, 0.257202
3045.92, 0.256947
3047.71, 0.256692
3049.5, 0.256373
3051.3, 0.256054
3053.09, 0.255799
3054.89, 0.255480
3056.69, 0.255225
3058.5, 0.254715
3060.3, 0.254269
3062.11, 0.253759
3063.92, 0.253313
3065.73, 0.252803
3067.55, 0.252420
3069.36, 0.252038
3071.18, 0.251464
3073.0, 0.250699
3074.82, 0.250125
3076.65, 0.249487
3078.48, 0.248595
3080.31, 0.247574
3082.14, 0.246618
3083.97, 0.245534
3085.8, 0.244514
3087.64, 0.243494
3089.48, 0.242538
3091.33, 0.241454
3093.17, 0.240370
3095.02, 0.239222
3096.87, 0.238138
3098.72, 0.237182
3100.57, 0.236544
3102.43, 0.235460
3104.28, 0.234504
3106.14, 0.233611
3108.01, 0.232846
3109.87, 0.231954
3111.74, 0.231189
3113.61, 0.230551
3115.48, 0.230168
3117.35, 0.229977
3119.23, 0.230232
3121.1, 0.230933
3122.98, 0.232336
3124.87, 0.234185
3126.75, 0.236544
3128.64, 0.239158
3130.53, 0.242027
3132.42, 0.244833
3134.31, 0.247511
3136.21, 0.249997
3138.11, 0.252101
3140.01, 0.253759
3141.91, 0.255353
3143.82, 0.256373
3145.73, 0.257330
3147.64, 0.258031
3149.55, 0.258605
3151.46, 0.259242
3153.38, 0.259689
3155.3, 0.259689
3157.22, 0.259434
3159.14, 0.259115
3161.07, 0.258923
3163.0, 0.258605
3164.93, 0.258286
3166.86, 0.257903
3168.8, 0.257457
3170.74, 0.256883
3172.68, 0.256501
3174.62, 0.256118
3176.56, 0.255672
3178.51, 0.255225
3180.46, 0.254779
3182.42, 0.254588
3184.37, 0.254142
3186.33, 0.253823
3188.29, 0.253823
3190.25, 0.253950
3192.21, 0.254397
3194.18, 0.255672
3196.15, 0.257712
3198.12, 0.260326
3200.09, 0.263769
3202.07, 0.267340
3204.05, 0.270846
3206.03, 0.273715
3208.02, 0.275883
3210.0, 0.277158
3211.99, 0.277796
3213.98, 0.278115
3215.98, 0.278306
3217.97, 0.278115
3219.97, 0.278051
3221.97, 0.277987
3223.98, 0.277605
3225.98, 0.276903
3227.99, 0.276266
3230.0, 0.275628
3232.02, 0.275054
3234.03, 0.274417
3236.05, 0.273843
3238.07, 0.272950
3240.1, 0.271866
3242.12, 0.270719
3244.15, 0.269826
3246.18, 0.268806
3248.22, 0.267658
3250.25, 0.266447
3252.29, 0.265172
3254.33, 0.263769
3256.38, 0.262494
3258.43, 0.261219
3260.47, 0.259880
3262.53, 0.258413
3264.58, 0.256819
3266.64, 0.255162
3268.7, 0.253759
3270.76, 0.252038
3272.82, 0.250316
3274.89, 0.248658
3276.96, 0.247064
3279.04, 0.245534
3281.11, 0.243940
3283.19, 0.242282
3285.27, 0.240625
3287.35, 0.238648
3289.44, 0.236480
3291.53, 0.234185
3293.62, 0.231699
3295.71, 0.229021
3297.81, 0.226279
3299.91, 0.223346
3302.01, 0.220286
3304.11, 0.217034
3306.22, 0.213719
3308.33, 0.210021
3310.44, 0.206004
3312.56, 0.201541
3314.68, 0.196759
3316.8, 0.191531
3318.92, 0.186047
3321.05, 0.180054
3323.18, 0.173487
3325.31, 0.166219
3327.44, 0.158121
3329.58, 0.149450
3331.72, 0.140014
3333.86, 0.129749
3336.01, 0.118782
3338.16, 0.107242
3340.31, 0.0957020
3342.46, 0.0847350
3344.61, 0.0756180
3346.77, 0.0693690
3348.94, 0.0659900
3351.1, 0.0644600
3353.27, 0.0640140
3355.44, 0.0638860
3357.61, 0.0638860
3359.79, 0.0639500
3361.97, 0.0642050
3364.15, 0.0647790
3366.33, 0.0657350
3368.52, 0.0665000
3370.71, 0.0672020
3372.9, 0.0679030
3375.1, 0.0684770
3377.3, 0.0689870
3379.5, 0.0692420
3381.71, 0.0691780
3383.91, 0.0693060
3386.12, 0.0693060
3388.34, 0.0691140
3390.55, 0.0688590
3392.77, 0.0686040
3394.99, 0.0686040
3397.22, 0.0688590
3399.45, 0.0687950
3401.68, 0.0689230
3403.91, 0.0691140
3406.15, 0.0693690
3408.39, 0.0695610
3410.63, 0.0696880
3412.87, 0.0698790
3415.12, 0.0700070
3417.37, 0.0701980
3419.63, 0.0706440
3421.88, 0.0710270
3424.14, 0.0714100
3426.41, 0.0717920
3428.67, 0.0719830
3430.94, 0.0719830
3433.21, 0.0719830
3435.49, 0.0719200
3437.77, 0.0719200
3440.05, 0.0717920
3442.33, 0.0716650
3444.62, 0.0714100
3446.91, 0.0711550
3449.2, 0.0708360
3451.5, 0.0707080
3453.8, 0.0703890
3456.1, 0.0698160
3458.41, 0.0691780
3460.72, 0.0687950
3463.03, 0.0684770
3465.34, 0.0680940
3467.66, 0.0677120
3469.98, 0.0673930
3472.31, 0.0668830
3474.63, 0.0664360
3476.96, 0.0659260
3479.3, 0.0653530
3481.64, 0.0645870
3483.97, 0.0637590
3486.32, 0.0626110
3488.66, 0.0611440
3491.01, 0.0596780
3493.36, 0.0582750
3495.72, 0.0567450
3498.08, 0.0554700
3500.44, 0.0542590
3502.81, 0.0534300
3505.18, 0.0528560
3507.55, 0.0526010
3509.92, 0.0525370
3512.3, 0.0528560
3514.68, 0.0533660
3517.06, 0.0538760
3519.45, 0.0544500
3521.84, 0.0552150
3524.24, 0.0561080
3526.64, 0.0568730
3529.04, 0.0577010
3531.44, 0.0585940
3533.85, 0.0595500
3536.26, 0.0606340
3538.67, 0.0617180
3541.09, 0.0629930
3543.51, 0.0642050
3545.93, 0.0654160
3548.36, 0.0669460
3550.79, 0.0689230
3553.22, 0.0714730
3555.66, 0.0750440
3558.1, 0.0796340
3560.54, 0.0860100
3562.99, 0.0950000
3565.44, 0.106796
3567.9, 0.121205
3570.35, 0.137145
3572.81, 0.153594
3575.28, 0.169598
3577.75, 0.184645
3580.22, 0.198672
3582.69, 0.211168
3585.17, 0.221944
3587.65, 0.230678
3590.14, 0.237182
3592.62, 0.240944
3595.11, 0.241517
3597.61, 0.238457
3600.11, 0.232782
3602.61, 0.226789
3605.11, 0.224940
3607.62, 0.231316
3610.14, 0.244960
3612.65, 0.261283
3615.17, 0.276138
3617.69, 0.287997
3620.22, 0.297242
3622.75, 0.304383
3625.28, 0.310122
3627.82, 0.314967
3630.36, 0.318984
3632.9, 0.322172
3635.45, 0.324786
3638.0, 0.326890
3640.56, 0.328357
3643.12, 0.329249
3645.68, 0.329695
3648.24, 0.329759
3650.81, 0.329440
3653.39, 0.328994
3655.96, 0.328612
3658.54, 0.328101
3661.13, 0.327400
3663.71, 0.326380
3666.3, 0.325551
3668.9, 0.324531
3671.5, 0.323447
3674.1, 0.322427
3676.7, 0.321343
3679.31, 0.320132
3681.93, 0.318984
3684.54, 0.317900
3687.17, 0.316752
3689.79, 0.315605
3692.42, 0.314585
3695.05, 0.313628
3697.69, 0.312544
3700.32, 0.311269
3702.97, 0.310058
3705.61, 0.308846
3708.27, 0.307444
3710.92, 0.305786
3713.58, 0.304192
3716.24, 0.302343
3718.91, 0.300494
3721.58, 0.298581
3724.25, 0.296477
3726.93, 0.294054
3729.61, 0.291568
3732.29, 0.288890
3734.98, 0.286148
3737.67, 0.283088
3740.37, 0.279836
3743.07, 0.276712
3745.78, 0.273970
3748.49, 0.271484
3751.2, 0.269189
3753.91, 0.266766
3756.63, 0.264343
3759.36, 0.261856
3762.09, 0.259434
3764.82, 0.257011
3767.55, 0.254397
3770.29, 0.251017
3773.04, 0.246108
3775.78, 0.239286
3778.54, 0.230742
3781.29, 0.220158
3784.05, 0.207470
3786.82, 0.192806
3789.59, 0.177695
3792.36, 0.163031
3795.13, 0.149833
3797.92, 0.138484
3800.7, 0.128856
3803.49, 0.120249
3806.28, 0.112916
3809.08, 0.106668
3811.88, 0.101249
3814.68, 0.0963390
3817.49, 0.0920670
3820.31, 0.0881780
3823.12, 0.0845440
3825.94, 0.0811010
3828.77, 0.0780400
3831.6, 0.0749800
3834.43, 0.0722380
3837.27, 0.0696240
3840.11, 0.0673290
3842.96, 0.0654800
3845.81, 0.0642050
3848.67, 0.0632480
3851.53, 0.0626110
3854.39, 0.0620370
3857.26, 0.0614630
3860.13, 0.0611440
3863.01, 0.0608890
3865.89, 0.0606340
3868.77, 0.0603790
3871.66, 0.0601240
3874.55, 0.0599330
3877.45, 0.0598690
3880.35, 0.0599330
3883.26, 0.0598690
3886.17, 0.0598060
3889.09, 0.0594870
3892.01, 0.0591040
3894.93, 0.0588490
3897.86, 0.0586580
3900.79, 0.0584030
3903.73, 0.0582120
3906.67, 0.0579570
3909.62, 0.0576380
3912.57, 0.0572550
3915.52, 0.0570000
3918.48, 0.0567450
3921.45, 0.0562990
3924.42, 0.0558520
3927.39, 0.0554060
3930.37, 0.0548960
3933.35, 0.0544500
3936.34, 0.0540670
3939.33, 0.0538760
3942.32, 0.0538120
3945.32, 0.0535570
3948.33, 0.0529830
3951.34, 0.0520910
3954.35, 0.0508160
3957.37, 0.0493490
3960.39, 0.0476910
3963.42, 0.0462890
3966.45, 0.0450770
3969.49, 0.0439930
3972.53, 0.0431650
3975.58, 0.0423990
3978.63, 0.0416340
3981.68, 0.0411880
3984.75, 0.0409330
3987.81, 0.0406140
3990.88, 0.0402950
3993.95, 0.0400400
3997.03, 0.0398490
4000.12, 0.0397220
4003.21, 0.0394670
4006.3, 0.0392750
4009.4, 0.0392750
4012.5, 0.0394670
4015.61, 0.0399770
4018.72, 0.0406780
4021.84, 0.0417620
4024.96, 0.0434200
4028.09, 0.0456510
4031.22, 0.0486480
4034.36, 0.0521540
4037.5, 0.0558520
4040.65, 0.0594230
4043.8, 0.0628020
4046.96, 0.0663090
4050.12, 0.0698160
4053.29, 0.0734500
4056.46, 0.0773390
4059.64, 0.0821850
4062.82, 0.0884970
4066.0, 0.0958290
4069.19, 0.103544
4072.39, 0.111322
4075.59, 0.119165
4078.8, 0.126816
4082.01, 0.134339
4085.23, 0.141608
4088.45, 0.148876
4091.68, 0.155953
4094.91, 0.162903
4098.15, 0.169598
4101.39, 0.175974
4104.63, 0.182031
4107.89, 0.187896
4111.14, 0.193635
4114.41, 0.199245
4117.67, 0.204601
4120.95, 0.209829
4124.23, 0.215058
4127.51, 0.220286
4130.8, 0.225195
4134.09, 0.229786
4137.39, 0.234121
4140.7, 0.238202
4144.01, 0.242155
4147.32, 0.246108
4150.64, 0.249997
4153.97, 0.253759
4157.3, 0.257011
4160.64, 0.260007
4163.98, 0.262303
4167.33, 0.264343
4170.68, 0.266256
4174.04, 0.268296
4177.4, 0.270400
4180.77, 0.272632
4184.14, 0.274991
4187.52, 0.277413
4190.91, 0.279773
4194.3, 0.281940
4197.69, 0.284044
4201.1, 0.286212
4204.5, 0.288252
4207.92, 0.290293
4211.34, 0.292078
4214.76, 0.293544
4218.19, 0.294883
4221.62, 0.296158
4225.06, 0.297051
4228.51, 0.297944
4231.96, 0.298900
4235.42, 0.299984
4238.88, 0.301132
4242.35, 0.302598
4245.83, 0.304065
4249.31, 0.304957
4252.79, 0.304830
4256.28, 0.303618
4259.78, 0.301068
4263.29, 0.297752
4266.79, 0.296414
4270.31, 0.298900
4273.83, 0.303236
4277.35, 0.306997
4280.89, 0.309484
4284.42, 0.311397
4287.97, 0.312991
4291.52, 0.314393
4295.07, 0.315860
4298.63, 0.317518
4302.2, 0.319175
4305.78, 0.320706
4309.35, 0.321917
4312.94, 0.322810
4316.53, 0.323638
4320.13, 0.324531
4323.73, 0.325296
4327.34, 0.325679
4330.96, 0.325296
4334.58, 0.324340
4338.21, 0.322810
4341.84, 0.321088
4345.48, 0.319303
4349.12, 0.317581
4352.77, 0.315860
4356.43, 0.313883
4360.1, 0.311779
4363.76, 0.310058
4367.44, 0.308783
4371.12, 0.307826
4374.81, 0.306806
4378.51, 0.305914
4382.21, 0.305085
4385.92, 0.304383
4389.63, 0.304128
4393.35, 0.304447
4397.08, 0.305085
4400.81, 0.306360
4404.55, 0.308783
4408.29, 0.312544
4412.04, 0.316561
4415.8, 0.319430
4419.57, 0.320068
4423.34, 0.318729
4427.12, 0.315860
4430.9, 0.312226
4434.69, 0.308018
4438.49, 0.303682
4442.29, 0.299474
4446.1, 0.295330
4449.92, 0.291122
4453.74, 0.286977
4457.57, 0.282642
4461.41, 0.278242
4465.25, 0.273907
4469.1, 0.269954
4472.95, 0.266447
4476.82, 0.263705
4480.69, 0.261155
4484.56, 0.258987
4488.44, 0.257202
4492.33, 0.256054
4496.23, 0.255544
4500.13, 0.255544
4504.04, 0.255799
4507.96, 0.256246
4511.88, 0.256692
4515.81, 0.257266
4519.75, 0.257776
4523.69, 0.258095
4527.65, 0.258350
4531.6, 0.258796
4535.57, 0.259370
4539.54, 0.259944
4543.52, 0.260199
4547.5, 0.260262
4551.5, 0.260262
4555.5, 0.260135
4559.5, 0.259880
4563.52, 0.259497
4567.54, 0.258923
4571.56, 0.258222
4575.6, 0.257330
4579.64, 0.256182
4583.69, 0.254524
4587.75, 0.252611
4591.81, 0.250507
4595.88, 0.248021
4599.96, 0.244960
4604.04, 0.241262
4608.14, 0.237246
4612.24, 0.232910
4616.34, 0.228319
4620.46, 0.223601
4624.58, 0.218819
4628.71, 0.214165
4632.84, 0.208937
4636.99, 0.202433
4641.14, 0.194464
4645.3, 0.185856
4649.47, 0.177440
4653.64, 0.169853
4657.82, 0.163094
4662.01, 0.157229
4666.21, 0.151937
4670.41, 0.147601
4674.62, 0.144222
4678.84, 0.141799
4683.07, 0.140396
4687.3, 0.139822
4691.54, 0.139822
4695.79, 0.140588
4700.05, 0.142628
4704.31, 0.145752
4708.59, 0.150151
4712.87, 0.156145
4717.15, 0.164306
4721.45, 0.176547
4725.76, 0.194272
4730.07, 0.216907
4734.39, 0.240433
4738.72, 0.260581
4743.05, 0.275820
4747.39, 0.287296
4751.75, 0.296286
4756.1, 0.303746
4760.47, 0.309994
4764.85, 0.315286
4769.23, 0.319813
4773.62, 0.324212
4778.02, 0.328548
4782.43, 0.332628
4786.85, 0.336008
4791.27, 0.338494
4795.7, 0.340343
4800.14, 0.341810
4804.59, 0.342830
4809.05, 0.343595
4813.51, 0.343977
4817.99, 0.344296
4822.47, 0.344360
4826.96, 0.344232
4831.46, 0.343914
4835.96, 0.343595
4840.48, 0.343021
4845.0, 0.342320
4849.54, 0.341682
4854.08, 0.340981
4858.63, 0.340152
4863.18, 0.339259
4867.75, 0.338048
4872.33, 0.336773
4876.91, 0.335370
4881.5, 0.333776
4886.1, 0.332055
4890.71, 0.330078
4895.33, 0.327783
4899.96, 0.325296
4904.59, 0.322810
4909.24, 0.320514
4913.89, 0.318155
4918.55, 0.315987
4923.22, 0.314330
4927.9, 0.312991
4932.59, 0.311971
4937.29, 0.311397
4942.0, 0.310759
4946.71, 0.309930
4951.44, 0.308783
4956.17, 0.307380
4960.91, 0.305850
4965.67, 0.304256
4970.43, 0.302343
4975.2, 0.300494
4979.98, 0.298709
4984.76, 0.297115
4989.56, 0.295776
4994.37, 0.294883
4999.18, 0.294182
5004.01, 0.293736
5008.84, 0.293289
5013.69, 0.292843
5018.54, 0.292397
5023.4, 0.292460
5028.28, 0.292524
5033.16, 0.292652
5038.05, 0.292460
5042.95, 0.292333
5047.86, 0.292078
5052.78, 0.291632
5057.71, 0.291058
5062.65, 0.290356
5067.6, 0.289655
5072.56, 0.289081
5077.53, 0.288189
5082.5, 0.287296
5087.49, 0.286085
5092.49, 0.284108
5097.5, 0.280665
5102.51, 0.275246
5107.54, 0.266957
5112.58, 0.256054
5117.62, 0.242027
5122.68, 0.225642
5127.75, 0.210786
5132.82, 0.206769
5137.91, 0.221752
5143.01, 0.246299
5148.12, 0.265236
5153.23, 0.275309
5158.36, 0.279517
5163.5, 0.281494
5168.65, 0.282195
5173.81, 0.282259
5178.98, 0.281749
5184.15, 0.280920
5189.34, 0.279836
5194.54, 0.278561
5199.75, 0.277158
5204.98, 0.276138
5210.21, 0.274544
5215.45, 0.272504
5220.7, 0.270464
5225.96, 0.267786
5231.23, 0.264470
5236.52, 0.261028
5241.81, 0.257648
5247.12, 0.254397
5252.44, 0.251145
5257.76, 0.247893
5263.1, 0.244578
5268.45, 0.241262
5273.81, 0.237883
5279.18, 0.234631
5284.56, 0.231316
5289.95, 0.227873
5295.36, 0.224621
5300.77, 0.221561
5306.2, 0.218246
5311.63, 0.214930
5317.08, 0.211487
5322.54, 0.207917
5328.01, 0.204282
5333.49, 0.200584
5338.98, 0.196631
5344.49, 0.192360
5350.0, 0.187833
5355.53, 0.184071
5361.07, 0.180309
5366.62, 0.176292
5372.18, 0.171957
5377.75, 0.167430
5383.34, 0.162839
5388.93, 0.158312
5394.54, 0.153339
5400.16, 0.148111
5405.79, 0.142628
5411.44, 0.136826
5417.09, 0.130450
5422.76, 0.123883
5428.43, 0.117890
5434.12, 0.111769
5439.83, 0.105202
5445.54, 0.0984430
5451.26, 0.0915570
5457.0, 0.0844160
5462.75, 0.0768930
5468.52, 0.0694970
5474.29, 0.0621010
5480.08, 0.0543860
5485.88, 0.0470540
5491.69, 0.0401680
5497.51, 0.0339200
5503.35, 0.0284360
5509.2, 0.0241640
5515.06, 0.0212320
5520.93, 0.0197010
5526.82, 0.0190000
5532.71, 0.0187450
5538.63, 0.0188090
5544.55, 0.0191280
5550.49, 0.0193830
5556.44, 0.0194460
5562.4, 0.0198290
5568.37, 0.0205940
5574.36, 0.0216780
5580.36, 0.0232080
5586.37, 0.0249930
5592.4, 0.0266510
5598.44, 0.0280540
5604.49, 0.0293290
5610.56, 0.0302850
5616.63, 0.0308590
5622.73, 0.0311780
5628.83, 0.0313690
5634.95, 0.0313050
5641.08, 0.0309870
5647.23, 0.0307950
5653.39, 0.0305400
5659.56, 0.0302850
5665.74, 0.0300940
5671.94, 0.0297750
5678.15, 0.0296480
5684.38, 0.0295200
5690.62, 0.0292650
5696.87, 0.0290100
5703.14, 0.0286910
5709.42, 0.0283090
5715.72, 0.0281180
5722.03, 0.0280540
5728.35, 0.0279260
5734.69, 0.0276710
5741.03, 0.0273520
5747.4, 0.0267790
5753.78, 0.0264600
5760.17, 0.0260770
5766.58, 0.0254400
5773.0, 0.0251850
5779.44, 0.0248660
5785.88, 0.0242920
5792.35, 0.0238460
5798.83, 0.0233360
5805.32, 0.0228260
5811.83, 0.0223150
5818.35, 0.0218050
5824.89, 0.0214870
5831.45, 0.0213590
5838.01, 0.0212950
5844.59, 0.0211680
5851.19, 0.0210400
5857.8, 0.0209130
5864.43, 0.0206580
5871.07, 0.0204660
5877.73, 0.0199560
5884.4, 0.0195740
5891.09, 0.0192550
5897.79, 0.0188090
5904.5, 0.0187450
5911.23, 0.0184900
5917.98, 0.0181070
5924.75, 0.0176610
5931.53, 0.0169600
5938.32, 0.0163860
5945.13, 0.0161310
5951.96, 0.0156850
5958.8, 0.0151750
5965.65, 0.0144730
5972.53, 0.0138360
5979.42, 0.0133260
5986.32, 0.0128790
5993.24, 0.0125600
6000.18, 0.0123050
6007.13, 0.0121140
6014.1, 0.0116680
6021.08, 0.0113490
6028.09, 0.0110940
6035.1, 0.0107750
6042.14, 0.0103290
6049.19, 0.00988300
6056.25, 0.00969100
6063.34, 0.00956400
6070.44, 0.00918100
6077.55, 0.00905400
6084.69, 0.00886200
6091.84, 0.00873500
6099.0, 0.00860700
6106.19, 0.00841600
6113.39, 0.00828900
6120.61, 0.00848000
6127.84, 0.00848000
6135.09, 0.00854400
6142.36, 0.00848000
6149.65, 0.00848000
6156.95, 0.00848000
6164.27, 0.00886200
6171.61, 0.00918100
6178.97, 0.00962800
6186.34, 0.0100100
6193.73, 0.0107750
6201.14, 0.0114770
6208.57, 0.0126880
6216.01, 0.0139630
6223.47, 0.0154930
6230.95, 0.0172790
6238.45, 0.0195100
6245.97, 0.0218690
6253.5, 0.0246110
6261.06, 0.0276070
6268.63, 0.0308590
6276.21, 0.0340470
6283.82, 0.0374900
6291.45, 0.0411240
6299.1, 0.0452690
6306.76, 0.0500500
6314.44, 0.0558520
6322.14, 0.0622920
6329.86, 0.0699430
6337.6, 0.0778490
6345.35, 0.0871580
6353.13, 0.0988260
6360.92, 0.112406
6368.74, 0.128282
6376.57, 0.147218
6384.43, 0.166346
6392.3, 0.186239
6400.19, 0.205876
6408.1, 0.223665
6416.03, 0.245853
6423.98, 0.274608
6431.95, 0.301004
6439.94, 0.324595
6447.95, 0.341363
6455.98, 0.352202
6464.03, 0.358196
6472.1, 0.359598
6480.19, 0.358323
6488.31, 0.354179
6496.44, 0.351373
6504.59, 0.353414
6512.76, 0.351820
6520.95, 0.346273
6529.16, 0.343212
6537.4, 0.339195
6545.65, 0.333330
6553.92, 0.327273
6562.22, 0.321534
6570.54, 0.314075
6578.88, 0.309675
6587.23, 0.306487
6595.61, 0.302024
6604.02, 0.298518
6612.44, 0.293736
6620.89, 0.288635
6629.35, 0.281430
6637.84, 0.274162
6646.35, 0.272695
6654.88, 0.271420
6663.44, 0.266830
6672.01, 0.261346
6680.61, 0.255927
6689.23, 0.252356
6697.88, 0.248913
6706.54, 0.243111
6715.23, 0.237501
6723.94, 0.232782
6732.67, 0.228128
6741.42, 0.223282
6750.2, 0.218501
6759.0, 0.214548
6767.82, 0.210467
6776.67, 0.206833
6785.54, 0.202943
6794.44, 0.200457
6803.35, 0.199756
6812.29, 0.198162
6821.26, 0.195292
6830.24, 0.193061
6839.25, 0.191913
6848.29, 0.189490
6857.35, 0.185537
6866.43, 0.183115
6875.54, 0.183752
6884.67, 0.183115
6893.82, 0.181584
6903.0, 0.179480
6912.2, 0.177695
6921.43, 0.176356
6930.69, 0.174890
6939.96, 0.173615
6949.27, 0.171957
6958.59, 0.169534
6967.95, 0.169279
6977.33, 0.169534
6986.73, 0.168769
6996.16, 0.168323
7005.61, 0.168386
7015.09, 0.168131
7024.6, 0.167685
7034.13, 0.167239
7043.69, 0.166219
7053.27, 0.166920
7062.88, 0.168195
7072.52, 0.168896
7082.18, 0.169725
7091.87, 0.170682
7101.58, 0.171702
7111.32, 0.172276
7121.09, 0.172786
7130.88, 0.173168
7140.71, 0.171957
7150.56, 0.168769
7160.43, 0.162712
7170.33, 0.153276
7180.27, 0.143967
7190.23, 0.135933
7200.21, 0.129812
7210.23, 0.126369
7220.27, 0.124775
7230.34, 0.122480
7240.44, 0.119739
7250.56, 0.116933
7260.72, 0.114510
7270.9, 0.112343
7281.12, 0.110685
7291.36, 0.109410
7301.63, 0.108390
7311.93, 0.107369
7322.25, 0.106541
7332.61, 0.105584
7343.0, 0.104947
7353.41, 0.104500
7363.86, 0.103990
7374.33, 0.103353
7384.83, 0.102588
7395.37, 0.101950
7405.93, 0.101376
7416.53, 0.100547
7427.15, 0.0997820
7437.81, 0.0988260
7448.5, 0.0979330
7459.22, 0.0968490
7469.96, 0.0960840
7480.74, 0.0958930
7491.55, 0.0957650
7502.39, 0.0952550
7513.27, 0.0946810
7524.17, 0.0942350
7535.11, 0.0939160
7546.08, 0.0935340
7557.08, 0.0931510
7568.11, 0.0925140
7579.17, 0.0918120
7590.27, 0.0910470
7601.4, 0.0905370
7612.56, 0.0900910
7623.76, 0.0896450
7634.98, 0.0891980
7646.24, 0.0889430
7657.54, 0.0887520
7668.87, 0.0884970
7680.23, 0.0883060
7691.62, 0.0883060
7703.05, 0.0882420
7714.51, 0.0883690
7726.01, 0.0884970
7737.54, 0.0884970
7749.11, 0.0884330
7760.71, 0.0882420
7772.35, 0.0879870
7784.02, 0.0877320
7795.72, 0.0874770
7807.46, 0.0871580
7819.23, 0.0868390
7831.04, 0.0867120
7842.89, 0.0865840
7854.77, 0.0863290
7866.69, 0.0860100
7878.65, 0.0857550
7890.64, 0.0855640
7902.67, 0.0853730
7914.74, 0.0851810
7926.84, 0.0849260
7938.98, 0.0847350
7951.16, 0.0847350
7963.37, 0.0847350
7975.62, 0.0847990
7987.91, 0.0848630
8000.24, 0.0849260
8012.6, 0.0851180
8025.01, 0.0853730
8037.45, 0.0856280
8049.93, 0.0859470
8062.45, 0.0862020
8075.01, 0.0865200
8087.61, 0.0866480
8100.24, 0.0867120
8112.91, 0.0868390
8125.63, 0.0870300
8138.39, 0.0871580
8151.18, 0.0871580
8164.02, 0.0870300
8176.9, 0.0868390
8189.81, 0.0865840
8202.77, 0.0864570
8215.77, 0.0861380
8228.82, 0.0857550
8241.9, 0.0852450
8255.02, 0.0845440
8268.19, 0.0837150
8281.39, 0.0829500
8294.65, 0.0820570
8307.94, 0.0812280
8321.28, 0.0802720
8334.66, 0.0796340
8348.08, 0.0792520
8361.54, 0.0790610
8375.05, 0.0789330
8388.6, 0.0788690
8402.2, 0.0788690
8415.84, 0.0790610
8429.52, 0.0792520
8443.25, 0.0795070
8457.02, 0.0795070
8470.84, 0.0791240
8484.7, 0.0785510
8498.61, 0.0779770
8512.57, 0.0774670
8526.57, 0.0767650
8540.62, 0.0760000
8554.71, 0.0753630
8568.85, 0.0747250
8583.04, 0.0741510
8597.27, 0.0733860
8611.55, 0.0728760
8625.88, 0.0730670
8640.26, 0.0737690
8654.68, 0.0746610
8669.16, 0.0757450
8683.68, 0.0770840
8698.25, 0.0786780
8712.87, 0.0804000
8727.53, 0.0822490
8742.25, 0.0844160
8757.02, 0.0868390
8771.83, 0.0894530
8786.7, 0.0923220
8801.62, 0.0951920
8816.59, 0.0978060
8831.61, 0.0997180
8846.68, 0.100739
8861.8, 0.101121
8876.97, 0.100930
8892.2, 0.100420
8907.48, 0.0997180
8922.81, 0.0990170
8938.2, 0.0983160
8953.63, 0.0976780
8969.13, 0.0970410
8984.67, 0.0962750
9000.27, 0.0956380
9015.92, 0.0951920
9031.63, 0.0950000
9047.39, 0.0950640
9063.21, 0.0948730
9079.08, 0.0940440
9095.01, 0.0928320
9111.0, 0.0911110
9127.04, 0.0889430
9143.13, 0.0866480
9159.28, 0.0842250
9175.49, 0.0822490
9191.76, 0.0809100
9208.09, 0.0805270
9224.47, 0.0826950
9240.92, 0.0865200
9257.42, 0.0892620
9273.98, 0.0909200
9290.6, 0.0923860
9307.28, 0.0939160
9324.02, 0.0950000
9340.82, 0.0953190
9357.68, 0.0950000
9374.6, 0.0937890
9391.58, 0.0921950
9408.62, 0.0910470
9425.73, 0.0904100
9442.9, 0.0899630
9460.13, 0.0899630
9477.42, 0.0904100
9494.78, 0.0909200
9512.2, 0.0913020
9529.69, 0.0920670
9547.24, 0.0927050
9564.86, 0.0927690
9582.54, 0.0926410
9600.28, 0.0921950
9618.1, 0.0916210
9635.97, 0.0909830
9653.92, 0.0899630
9671.93, 0.0884330
9690.01, 0.0868390
9708.16, 0.0856280
9726.37, 0.0849260
9744.65, 0.0845440
9763.0, 0.0842250
9781.43, 0.0845440
9799.92, 0.0855000
9818.48, 0.0870300
9837.1, 0.0889430
9855.8, 0.0911110
9874.58, 0.0934060
9893.42, 0.0956380
9912.34, 0.0977420
9931.33, 0.0996550
9950.39, 0.101312
9969.52, 0.102651
9988.74, 0.103608
10008.0, 0.104373
10027.4, 0.105074
10046.8, 0.106094
10066.3, 0.107242
10085.9, 0.107688
10105.6, 0.107624
10125.3, 0.107943
10145.1, 0.108900
10165.0, 0.109792
10185.0, 0.110302
10205.0, 0.110302
10225.2, 0.109920
10245.4, 0.109473
10265.7, 0.109218
10286.0, 0.109027
10306.5, 0.108900
10327.0, 0.109091
10347.6, 0.109537
10368.3, 0.109792
10389.1, 0.109728
10409.9, 0.109346
10430.9, 0.108772
10451.9, 0.108390
10473.0, 0.107816
10494.2, 0.106668
10515.5, 0.105393
10536.9, 0.104692
10558.4, 0.104564
10579.9, 0.104819
10601.5, 0.105010
10623.3, 0.105202
10645.1, 0.105712
10667.0, 0.106668
10689.0, 0.108007
10711.1, 0.109282
10733.2, 0.109984
10755.5, 0.109984
10777.9, 0.109282
10800.3, 0.108390
10822.9, 0.107497
10845.5, 0.106413
10868.2, 0.105265
10891.1, 0.104245
10914.0, 0.103480
10937.0, 0.103098
10960.2, 0.102970
10983.4, 0.102460
11006.7, 0.101504
11030.1, 0.100802
11053.6, 0.100228
11077.3, 0.0993360
11101.0, 0.0983160
11124.8, 0.0969770
11148.7, 0.0956380
11172.7, 0.0944900
11196.9, 0.0933430
11221.1, 0.0930240
11245.4, 0.0948090
11269.9, 0.101312
11294.4, 0.115849
11319.1, 0.140779
11343.9, 0.173168
11368.8, 0.195165
11393.7, 0.191849
11418.8, 0.174571
11444.0, 0.156719
11469.4, 0.141671
11494.8, 0.127326
11520.3, 0.112215
11546.0, 0.0983160
11571.8, 0.0897080
11597.7, 0.0854360
11623.7, 0.0830770
11649.8, 0.0820570
11676.0, 0.0821210
11702.4, 0.0827590
11728.9, 0.0841610
11755.5, 0.0860100
11782.2, 0.0883690
11809.0, 0.0903460
11836.0, 0.0901550
11863.0, 0.0857550
11890.3, 0.0779770
11917.6, 0.0717280
11945.0, 0.0751710
11972.6, 0.0928320
12000.4, 0.112661
12028.2, 0.126880
12056.2, 0.136571
12084.3, 0.143776
12112.5, 0.149641
12140.9, 0.154933
12169.4, 0.159460
12198.0, 0.163094
12226.8, 0.165900
12255.7, 0.167813
12284.7, 0.169406
12313.9, 0.170044
12343.2, 0.169406
12372.7, 0.167685
12402.3, 0.164816
12432.0, 0.161500
12461.9, 0.158376
12491.9, 0.155571
12522.1, 0.153276
12552.4, 0.151618
12582.9, 0.150598
12613.5, 0.149705
12644.3, 0.148366
12675.2, 0.147027
12706.3, 0.145752
12737.5, 0.144222
12768.9, 0.142054
12800.4, 0.139950
12832.1, 0.138484
12863.9, 0.137400
12895.9, 0.136380
12928.1, 0.135232
12960.4, 0.133638
12992.9, 0.131853
13025.5, 0.129302
13058.3, 0.126114
13091.3, 0.122608
13124.4, 0.118400
13157.8, 0.113681
13191.2, 0.108708
13224.9, 0.103161
13258.7, 0.0974870
13292.7, 0.0916210
13326.9, 0.0856280
13361.2, 0.0794430
13395.7, 0.0730040
13430.4, 0.0661810
13465.3, 0.0587850
13500.4, 0.0514530
13535.7, 0.0441210
13571.1, 0.0369160
13606.7, 0.0302220
13642.5, 0.0248660
13678.5, 0.0244830
13714.7, 0.0358320
13751.1, 0.0512620
13787.6, 0.0562350
13824.4, 0.0540670
13861.4, 0.0520910
13898.5, 0.0521540
13935.9, 0.0540670
13973.5, 0.0571910
14011.2, 0.0613360
14049.2, 0.0670100
14087.4, 0.0735770
14125.8, 0.0803360
14164.3, 0.0869030
14203.2, 0.0930870
14242.2, 0.0971680
14281.4, 0.100228
14320.9, 0.104755
14360.5, 0.109473
14400.4, 0.112789
14440.5, 0.115275
14480.9, 0.117061
14521.4, 0.118782
14562.2, 0.119930
14603.3, 0.120504
14644.5, 0.121014
14686.0, 0.121396
14727.7, 0.121205
14769.7, 0.120695
14811.9, 0.119802
14854.3, 0.118973
14897.0, 0.118208
14939.9, 0.117698
14983.1, 0.117124
15026.5, 0.116551
15070.2, 0.115594
15114.2, 0.114510
15158.3, 0.113809
15202.8, 0.113171
15247.5, 0.112088
15292.5, 0.110940
15337.7, 0.109984
15383.2, 0.109473
15429.0, 0.109027
15475.1, 0.108326
15521.4, 0.107752
15568.0, 0.107306
15614.9, 0.106732
15662.1, 0.106030
15709.6, 0.105584
15757.3, 0.105010
15805.4, 0.104309
15853.7, 0.103416
15902.3, 0.102779
15951.2, 0.102269
16000.5, 0.101185
16050.0, 0.0999730
16099.8, 0.0985710
16150.0, 0.0965300
16200.5, 0.0944900
16251.3, 0.0926410
16302.4, 0.0907920
16353.8, 0.0884330
16405.5, 0.0860100
16457.6, 0.0833320
16510.0, 0.0809730
16562.8, 0.0789970
16615.9, 0.0767650
16669.3, 0.0743420
16723.1, 0.0719200
16777.2, 0.0699430
16831.7, 0.0677750
16886.5, 0.0659260
16941.7, 0.0645870
16997.2, 0.0634400
17053.1, 0.0618460
17109.4, 0.0605710
17166.1, 0.0596140
17223.1, 0.0586580
17280.5, 0.0581480
17338.3, 0.0583390
17396.5, 0.0582750
17455.1, 0.0578930
17514.0, 0.0581480
17573.4, 0.0586580
17633.2, 0.0586580
17693.4, 0.0582750
17754.0, 0.0580840
17815.0, 0.0575740
17876.4, 0.0573830
17938.3, 0.0575100
18000.5, 0.0570000
18063.3, 0.0563630
18126.4, 0.0557250
18190.0, 0.0547050
18254.1, 0.0533020
18318.6, 0.0520910
18383.5, 0.0512620
18449.0, 0.0501140
18514.9, 0.0482010
18581.2, 0.0460340
18648.0, 0.0445670
18715.4, 0.0436110
18783.2, 0.0423360
18851.5, 0.0416980
18920.3, 0.0402950
18989.6, 0.0380000
19059.4, 0.0365340
19129.7, 0.0363420
19200.6, 0.0360870
19272.0, 0.0357690
19343.9, 0.0355770
19416.3, 0.0351950
19489.3, 0.0347480
19562.8, 0.0344930
19637.0, 0.0344930
19711.6, 0.0346210
19786.8, 0.0335370
19862.6, 0.0318160
19939.0, 0.0311780
20016.0, 0.0313690
20093.6, 0.0313050
20171.8, 0.0309230
20250.6, 0.0304770
20330.0, 0.0302850
20410.0, 0.0297750
20490.7, 0.0284360
20572.0, 0.0279260
20654.0, 0.0286910
20736.6, 0.0281810
20819.9, 0.0268420
20903.8, 0.0260770
20988.5, 0.0259500
21073.8, 0.0250570
21159.8, 0.0241640
21246.5, 0.0238460
21334.0, 0.0236540
21422.1, 0.0247380
21511.0, 0.0258220
21600.7, 0.0256310
21691.0, 0.0251850
21782.1, 0.0249300
21874.0, 0.0235910
21966.7, 0.0226340
22060.2, 0.0234630
22154.5, 0.0242280
22249.6, 0.0214870
22345.5, 0.0189360
22442.2, 0.0195100
22539.8, 0.0202750
22638.2, 0.0197650
22737.5, 0.0208490
22837.7, 0.0204660
22938.7, 0.0191910
23040.7, 0.0177250
23143.5, 0.0176610
23247.3, 0.0181070
23352.1, 0.0175970
23457.7, 0.0172790
23564.4, 0.0180440
23672.0, 0.0188090
23780.5, 0.0199560
23890.1, 0.0207220
24000.7, 0.0224430
24112.3, 0.0236540
24225.0, 0.0233990
24338.7, 0.0230810
24453.5, 0.0260770
24569.4, 0.0305400
24686.4, 0.0369160
24804.5, 0.0387650
