Database of Origin,USGS Spectral Database
Sample Description,See USGS database for additional info
Date Added,2017-02-22 02:48:43.827505

Data ID,USGS_wit02          
Sample ID,witherite_hs273.23595
Mineral Name,witherite

Wavelength
1541.98, 0.418053
1542.44, 0.418129
1542.9, 0.418512
1543.36, 0.418894
1543.82, 0.418894
1544.28, 0.419507
1544.74, 0.419813
1545.2, 0.419813
1545.66, 0.420731
1546.12, 0.421572
1546.59, 0.422338
1547.05, 0.422261
1547.51, 0.421955
1547.97, 0.421955
1548.43, 0.422184
1548.9, 0.422184
1549.36, 0.422338
1549.82, 0.422873
1550.29, 0.423715
1550.75, 0.423638
1551.21, 0.424174
1551.68, 0.424556
1552.14, 0.424250
1552.61, 0.424556
1553.07, 0.424786
1553.54, 0.424862
1554.0, 0.425168
1554.47, 0.425474
1554.93, 0.426087
1555.4, 0.426240
1555.87, 0.426393
1556.34, 0.426316
1556.8, 0.426775
1557.27, 0.427311
1557.74, 0.427846
1558.21, 0.428229
1558.68, 0.429147
1559.14, 0.428688
1559.61, 0.428688
1560.08, 0.429759
1560.55, 0.430218
1561.02, 0.429835
1561.49, 0.430448
1561.96, 0.430448
1562.43, 0.429989
1562.9, 0.430448
1563.38, 0.430907
1563.85, 0.430907
1564.32, 0.431901
1564.79, 0.432360
1565.26, 0.433202
1565.74, 0.433125
1566.21, 0.433585
1566.68, 0.433661
1567.16, 0.432743
1567.63, 0.432743
1568.1, 0.434350
1568.58, 0.435268
1569.05, 0.435115
1569.53, 0.435268
1570.0, 0.436262
1570.48, 0.435880
1570.96, 0.436186
1571.43, 0.437257
1571.91, 0.438328
1572.39, 0.438022
1572.86, 0.438328
1573.34, 0.438252
1573.82, 0.438099
1574.3, 0.438022
1574.77, 0.438787
1575.25, 0.439858
1575.73, 0.440164
1576.21, 0.439782
1576.69, 0.439093
1577.17, 0.439017
1577.65, 0.440317
1578.13, 0.441389
1578.61, 0.441159
1579.09, 0.440317
1579.57, 0.441159
1580.05, 0.441542
1580.54, 0.441389
1581.02, 0.441771
1581.5, 0.442307
1581.98, 0.442995
1582.47, 0.443225
1582.95, 0.443607
1583.43, 0.444143
1583.92, 0.444372
1584.4, 0.444679
1584.88, 0.445138
1585.37, 0.445826
1585.85, 0.445367
1586.34, 0.445444
1586.82, 0.445597
1587.31, 0.446132
1587.8, 0.446515
1588.28, 0.446132
1588.77, 0.445673
1589.26, 0.446438
1589.74, 0.447203
1590.23, 0.447280
1590.72, 0.447509
1591.21, 0.448198
1591.7, 0.448351
1592.19, 0.449040
1592.67, 0.450187
1593.16, 0.450111
1593.65, 0.448963
1594.14, 0.449575
1594.63, 0.449728
1595.12, 0.450111
1595.61, 0.450952
1596.11, 0.451335
1596.6, 0.451488
1597.09, 0.451641
1597.58, 0.452024
1598.08, 0.452330
1598.57, 0.452483
1599.06, 0.453248
1599.55, 0.453248
1600.05, 0.453248
1600.54, 0.453095
1601.04, 0.453783
1601.53, 0.454778
1602.03, 0.455543
1602.52, 0.455390
1603.02, 0.455466
1603.51, 0.455543
1604.01, 0.455466
1604.5, 0.455313
1605.0, 0.456308
1605.5, 0.457150
1606.0, 0.457532
1606.49, 0.457915
1606.99, 0.458450
1607.49, 0.458221
1607.99, 0.458068
1608.49, 0.458221
1608.99, 0.458909
1609.49, 0.459522
1609.99, 0.459675
1610.49, 0.459675
1610.99, 0.460210
1611.49, 0.460134
1611.99, 0.460516
1612.49, 0.461128
1612.99, 0.461587
1613.49, 0.461893
1614.0, 0.462582
1614.5, 0.462429
1615.0, 0.461970
1615.51, 0.462352
1616.01, 0.463118
1616.51, 0.463500
1617.02, 0.464189
1617.52, 0.464801
1618.03, 0.464724
1618.53, 0.464571
1619.04, 0.464648
1619.54, 0.464648
1620.05, 0.465107
1620.55, 0.465795
1621.06, 0.466101
1621.57, 0.465948
1622.08, 0.465795
1622.58, 0.466025
1623.09, 0.467249
1623.6, 0.467785
1624.11, 0.468014
1624.62, 0.467938
1625.13, 0.467326
1625.64, 0.467249
1626.15, 0.467861
1626.66, 0.468397
1627.17, 0.468856
1627.68, 0.469085
1628.19, 0.468703
1628.7, 0.468856
1629.21, 0.469850
1629.72, 0.470003
1630.24, 0.469697
1630.75, 0.469850
1631.26, 0.470156
1631.78, 0.470616
1632.29, 0.470692
1632.8, 0.470769
1633.32, 0.471151
1633.83, 0.471993
1634.35, 0.472452
1634.86, 0.472146
1635.38, 0.472681
1635.9, 0.472987
1636.41, 0.472605
1636.93, 0.472758
1637.45, 0.473523
1637.96, 0.473217
1638.48, 0.473599
1639.0, 0.474135
1639.52, 0.474441
1640.04, 0.474212
1640.56, 0.474135
1641.08, 0.474212
1641.59, 0.474824
1642.11, 0.475130
1642.63, 0.475130
1643.16, 0.475589
1643.68, 0.475742
1644.2, 0.475818
1644.72, 0.475665
1645.24, 0.475742
1645.76, 0.476277
1646.29, 0.476201
1646.81, 0.476277
1647.33, 0.477119
1647.86, 0.477425
1648.38, 0.476889
1648.9, 0.477195
1649.43, 0.477731
1649.95, 0.477731
1650.48, 0.477654
1651.0, 0.477884
1651.53, 0.478343
1652.06, 0.478802
1652.58, 0.478649
1653.11, 0.478955
1653.64, 0.478802
1654.17, 0.479032
1654.69, 0.479491
1655.22, 0.480026
1655.75, 0.479950
1656.28, 0.480256
1656.81, 0.480485
1657.34, 0.480485
1657.87, 0.480332
1658.4, 0.480638
1658.93, 0.481021
1659.46, 0.481327
1659.99, 0.481786
1660.52, 0.481403
1661.05, 0.481021
1661.59, 0.481403
1662.12, 0.481786
1662.65, 0.482475
1663.19, 0.482704
1663.72, 0.482398
1664.26, 0.482704
1664.79, 0.482934
1665.32, 0.483240
1665.86, 0.483852
1666.39, 0.483622
1666.93, 0.483240
1667.47, 0.484081
1668.0, 0.484387
1668.54, 0.484387
1669.08, 0.484770
1669.61, 0.484847
1670.15, 0.485229
1670.69, 0.485382
1671.23, 0.485535
1671.77, 0.485612
1672.31, 0.485994
1672.85, 0.486224
1673.39, 0.486224
1673.93, 0.486147
1674.47, 0.486147
1675.01, 0.486377
1675.55, 0.486759
1676.09, 0.486836
1676.64, 0.487218
1677.18, 0.487218
1677.72, 0.487295
1678.26, 0.488060
1678.81, 0.488366
1679.35, 0.487601
1679.89, 0.487677
1680.44, 0.487754
1680.98, 0.488213
1681.53, 0.488748
1682.07, 0.488978
1682.62, 0.488978
1683.17, 0.488902
1683.71, 0.489361
1684.26, 0.489896
1684.81, 0.489590
1685.36, 0.490279
1685.9, 0.490126
1686.45, 0.489973
1687.0, 0.490202
1687.55, 0.490891
1688.1, 0.491044
1688.65, 0.490967
1689.2, 0.490814
1689.75, 0.491426
1690.3, 0.491120
1690.85, 0.490814
1691.41, 0.490585
1691.96, 0.491579
1692.51, 0.491962
1693.06, 0.492345
1693.61, 0.492115
1694.17, 0.491885
1694.72, 0.492498
1695.28, 0.492880
1695.83, 0.493263
1696.39, 0.493951
1696.94, 0.493798
1697.5, 0.493492
1698.05, 0.493875
1698.61, 0.493722
1699.17, 0.493798
1699.72, 0.494028
1700.28, 0.494334
1700.84, 0.494869
1701.4, 0.494946
1701.95, 0.495328
1702.51, 0.495328
1703.07, 0.495252
1703.63, 0.495558
1704.19, 0.495558
1704.75, 0.495787
1705.31, 0.496017
1705.88, 0.495558
1706.44, 0.495787
1707.0, 0.496094
1707.56, 0.496629
1708.12, 0.496400
1708.69, 0.496476
1709.25, 0.496629
1709.81, 0.496859
1710.38, 0.496782
1710.94, 0.497012
1711.51, 0.497241
1712.07, 0.497547
1712.64, 0.497088
1713.2, 0.497165
1713.77, 0.497547
1714.34, 0.497547
1714.9, 0.497624
1715.47, 0.497930
1716.04, 0.497700
1716.61, 0.497930
1717.18, 0.498236
1717.74, 0.498236
1718.31, 0.498312
1718.88, 0.498695
1719.45, 0.498771
1720.02, 0.498312
1720.59, 0.498006
1721.17, 0.498542
1721.74, 0.499154
1722.31, 0.499613
1722.88, 0.499919
1723.45, 0.499996
1724.03, 0.499536
1724.6, 0.499613
1725.18, 0.499996
1725.75, 0.500072
1726.33, 0.499996
1726.9, 0.499919
1727.48, 0.499919
1728.05, 0.500378
1728.63, 0.500990
1729.2, 0.501220
1729.78, 0.500914
1730.36, 0.501143
1730.94, 0.501373
1731.51, 0.501220
1732.09, 0.501220
1732.67, 0.501449
1733.25, 0.501296
1733.83, 0.501449
1734.41, 0.501908
1734.99, 0.502291
1735.57, 0.502138
1736.15, 0.501832
1736.73, 0.502061
1737.32, 0.502444
1737.9, 0.502826
1738.48, 0.503209
1739.07, 0.502903
1739.65, 0.502750
1740.23, 0.502520
1740.82, 0.502750
1741.4, 0.502979
1741.99, 0.502903
1742.57, 0.502903
1743.16, 0.503438
1743.74, 0.504051
1744.33, 0.504663
1744.92, 0.504433
1745.51, 0.504357
1746.09, 0.504663
1746.68, 0.505045
1747.27, 0.505198
1747.86, 0.505504
1748.45, 0.505504
1749.04, 0.505657
1749.63, 0.505275
1750.22, 0.505045
1750.81, 0.504969
1751.4, 0.505504
1751.99, 0.506040
1752.59, 0.506346
1753.18, 0.506422
1753.77, 0.506269
1754.37, 0.506728
1754.96, 0.507187
1755.56, 0.506958
1756.15, 0.506881
1756.74, 0.507035
1757.34, 0.507570
1757.94, 0.507494
1758.53, 0.507417
1759.13, 0.507341
1759.73, 0.507723
1760.32, 0.507876
1760.92, 0.507647
1761.52, 0.507570
1762.12, 0.507876
1762.72, 0.507953
1763.32, 0.507876
1763.92, 0.508106
1764.52, 0.508565
1765.12, 0.508718
1765.72, 0.509024
1766.32, 0.509636
1766.92, 0.510171
1767.53, 0.509559
1768.13, 0.508947
1768.73, 0.509483
1769.34, 0.510171
1769.94, 0.510171
1770.55, 0.509483
1771.15, 0.509100
1771.76, 0.509559
1772.36, 0.510171
1772.97, 0.510324
1773.57, 0.510477
1774.18, 0.510707
1774.79, 0.510783
1775.4, 0.511013
1776.0, 0.510860
1776.61, 0.511013
1777.22, 0.511090
1777.83, 0.511396
1778.44, 0.511778
1779.05, 0.511472
1779.66, 0.511319
1780.27, 0.511549
1780.88, 0.511778
1781.5, 0.511855
1782.11, 0.511778
1782.72, 0.511855
1783.33, 0.512084
1783.95, 0.512543
1784.56, 0.512467
1785.18, 0.512467
1785.79, 0.512543
1786.41, 0.512849
1787.02, 0.512926
1787.64, 0.512849
1788.26, 0.513385
1788.87, 0.513920
1789.49, 0.513844
1790.11, 0.513691
1790.73, 0.513691
1791.35, 0.513997
1791.96, 0.513767
1792.58, 0.513691
1793.21, 0.513691
1793.83, 0.513691
1794.45, 0.513920
1795.07, 0.513920
1795.69, 0.513385
1796.31, 0.513232
1796.93, 0.513997
1797.56, 0.514456
1798.18, 0.514456
1798.8, 0.514533
1799.43, 0.514686
1800.05, 0.514915
1800.68, 0.515145
1801.3, 0.515757
1801.93, 0.516063
1802.56, 0.515910
1803.18, 0.515833
1803.81, 0.515833
1804.44, 0.515680
1805.07, 0.516139
1805.7, 0.516598
1806.33, 0.516675
1806.95, 0.516598
1807.58, 0.516751
1808.22, 0.517134
1808.85, 0.517440
1809.48, 0.517363
1810.11, 0.517593
1810.74, 0.517823
1811.38, 0.517823
1812.01, 0.518052
1812.64, 0.518435
1813.28, 0.518435
1813.91, 0.518588
1814.55, 0.518511
1815.18, 0.518664
1815.82, 0.518664
1816.45, 0.518817
1817.09, 0.519123
1817.73, 0.519276
1818.36, 0.519353
1819.0, 0.519200
1819.64, 0.519276
1820.28, 0.519888
1820.92, 0.520347
1821.56, 0.520118
1822.2, 0.520118
1822.84, 0.520424
1823.48, 0.520653
1824.12, 0.520653
1824.76, 0.520500
1825.41, 0.520577
1826.05, 0.521189
1826.69, 0.521801
1827.34, 0.521571
1827.98, 0.521419
1828.63, 0.521342
1829.27, 0.521571
1829.92, 0.521801
1830.56, 0.522031
1831.21, 0.522643
1831.86, 0.522566
1832.5, 0.522337
1833.15, 0.522719
1833.8, 0.522260
1834.45, 0.522260
1835.1, 0.523178
1835.75, 0.523714
1836.4, 0.524173
1837.05, 0.524326
1837.7, 0.524402
1838.35, 0.523943
1839.01, 0.523255
1839.66, 0.524096
1840.31, 0.524479
1840.96, 0.523943
1841.62, 0.524249
1842.27, 0.525244
1842.93, 0.524708
1843.58, 0.524326
1844.24, 0.524479
1844.9, 0.524402
1845.55, 0.524096
1846.21, 0.524326
1846.87, 0.525703
1847.53, 0.526392
1848.18, 0.525933
1848.84, 0.525780
1849.5, 0.525244
1850.16, 0.525244
1850.82, 0.525244
1851.48, 0.524861
1852.14, 0.524632
1852.81, 0.525091
1853.47, 0.525627
1854.13, 0.526392
1854.8, 0.526086
1855.46, 0.525703
1856.12, 0.525780
1856.79, 0.526621
1857.45, 0.526239
1858.12, 0.525703
1858.79, 0.525474
1859.45, 0.526315
1860.12, 0.527004
1860.79, 0.526851
1861.46, 0.526545
1862.12, 0.526392
1862.79, 0.526315
1863.46, 0.526162
1864.13, 0.526392
1864.8, 0.526392
1865.48, 0.526086
1866.15, 0.526392
1866.82, 0.526545
1867.49, 0.527310
1868.16, 0.527616
1868.84, 0.526698
1869.51, 0.526239
1870.19, 0.526545
1870.86, 0.527616
1871.54, 0.527539
1872.21, 0.526239
1872.89, 0.527157
1873.56, 0.527922
1874.24, 0.527004
1874.92, 0.526162
1875.6, 0.526315
1876.28, 0.526239
1876.96, 0.526698
1877.64, 0.526545
1878.32, 0.526162
1879.0, 0.526545
1879.68, 0.526621
1880.36, 0.526698
1881.04, 0.526774
1881.73, 0.526468
1882.41, 0.526468
1883.09, 0.526621
1883.78, 0.527310
1884.46, 0.527692
1885.15, 0.527463
1885.83, 0.527080
1886.52, 0.527080
1887.21, 0.526851
1887.89, 0.526621
1888.58, 0.526545
1889.27, 0.526774
1889.96, 0.527463
1890.65, 0.527692
1891.34, 0.526698
1892.03, 0.526774
1892.72, 0.527157
1893.41, 0.527463
1894.1, 0.527539
1894.79, 0.527004
1895.49, 0.527004
1896.18, 0.527080
1896.87, 0.526698
1897.57, 0.526698
1898.26, 0.526774
1898.96, 0.526851
1899.65, 0.527998
1900.35, 0.528151
1901.05, 0.527386
1901.74, 0.526698
1902.44, 0.527004
1903.14, 0.527539
1903.84, 0.526774
1904.54, 0.526392
1905.24, 0.526698
1905.94, 0.526468
1906.64, 0.526392
1907.34, 0.526392
1908.04, 0.525627
1908.75, 0.525474
1909.45, 0.525014
1910.15, 0.524708
1910.86, 0.524632
1911.56, 0.524632
1912.27, 0.524173
1912.97, 0.523790
1913.68, 0.523943
1914.39, 0.523637
1915.09, 0.523025
1915.8, 0.522643
1916.51, 0.521954
1917.22, 0.521725
1917.93, 0.521648
1918.64, 0.521878
1919.35, 0.522490
1920.06, 0.523561
1920.77, 0.524249
1921.48, 0.524479
1922.19, 0.524785
1922.91, 0.525321
1923.62, 0.526086
1924.33, 0.527080
1925.05, 0.527616
1925.76, 0.527922
1926.48, 0.528610
1927.19, 0.529376
1927.91, 0.529529
1928.63, 0.530217
1929.35, 0.530829
1930.07, 0.531288
1930.78, 0.531594
1931.5, 0.531671
1932.22, 0.531747
1932.94, 0.531977
1933.66, 0.532359
1934.39, 0.532666
1935.11, 0.532589
1935.83, 0.532666
1936.55, 0.533125
1937.28, 0.533584
1938.0, 0.533507
1938.73, 0.533660
1939.45, 0.533966
1940.18, 0.534119
1940.9, 0.533966
1941.63, 0.533966
1942.36, 0.534043
1943.09, 0.534119
1943.81, 0.534272
1944.54, 0.534731
1945.27, 0.534884
1946.0, 0.535190
1946.73, 0.535267
1947.47, 0.535190
1948.2, 0.535190
1948.93, 0.535420
1949.66, 0.535649
1950.4, 0.535955
1951.13, 0.536032
1951.86, 0.535955
1952.6, 0.535726
1953.34, 0.536108
1954.07, 0.536108
1954.81, 0.536032
1955.55, 0.536185
1956.29, 0.536415
1957.02, 0.536415
1957.76, 0.536644
1958.5, 0.536568
1959.24, 0.536797
1959.98, 0.536874
1960.72, 0.536721
1961.47, 0.536797
1962.21, 0.536797
1962.95, 0.536950
1963.7, 0.537180
1964.44, 0.537256
1965.18, 0.537409
1965.93, 0.537333
1966.67, 0.537103
1967.42, 0.537333
1968.17, 0.537945
1968.92, 0.538327
1969.66, 0.538174
1970.41, 0.537639
1971.16, 0.537639
1971.91, 0.538098
1972.66, 0.537868
1973.41, 0.538021
1974.16, 0.538404
1974.92, 0.538480
1975.67, 0.538557
1976.42, 0.538251
1977.18, 0.538021
1977.93, 0.538098
1978.69, 0.538404
1979.44, 0.538557
1980.2, 0.538939
1980.95, 0.539398
1981.71, 0.539169
1982.47, 0.539016
1983.23, 0.539169
1983.99, 0.539016
1984.74, 0.539245
1985.51, 0.539245
1986.27, 0.539245
1987.03, 0.539398
1987.79, 0.539551
1988.55, 0.539169
1989.32, 0.539551
1990.08, 0.539781
1990.84, 0.539628
1991.61, 0.539398
1992.37, 0.539245
1993.14, 0.539475
1993.9, 0.539781
1994.67, 0.539628
1995.44, 0.539475
1996.21, 0.539475
1996.98, 0.539551
1997.75, 0.539551
1998.52, 0.539628
1999.29, 0.539551
2000.06, 0.539704
2000.83, 0.539551
2001.6, 0.539628
2002.38, 0.539704
2003.15, 0.539781
2003.93, 0.539934
2004.7, 0.540240
2005.48, 0.540240
2006.25, 0.540011
2007.03, 0.539934
2007.81, 0.539934
2008.58, 0.540317
2009.36, 0.540699
2010.14, 0.540546
2010.92, 0.540699
2011.7, 0.540623
2012.48, 0.541082
2013.26, 0.541005
2014.05, 0.541005
2014.83, 0.541388
2015.61, 0.541617
2016.4, 0.541617
2017.18, 0.541847
2017.97, 0.541770
2018.75, 0.541694
2019.54, 0.541847
2020.32, 0.542076
2021.11, 0.542000
2021.9, 0.541923
2022.69, 0.542229
2023.48, 0.542229
2024.27, 0.542229
2025.06, 0.542688
2025.85, 0.542459
2026.64, 0.542229
2027.44, 0.542229
2028.23, 0.542382
2029.02, 0.542306
2029.82, 0.542000
2030.61, 0.542153
2031.41, 0.542229
2032.2, 0.541617
2033.0, 0.541541
2033.8, 0.541464
2034.6, 0.541311
2035.4, 0.540929
2036.2, 0.540776
2037.0, 0.540699
2037.8, 0.540470
2038.6, 0.540240
2039.4, 0.540317
2040.2, 0.540240
2041.01, 0.539628
2041.81, 0.539092
2042.61, 0.538480
2043.42, 0.537639
2044.22, 0.536797
2045.03, 0.536032
2045.84, 0.535726
2046.65, 0.535496
2047.46, 0.535649
2048.26, 0.536568
2049.07, 0.538021
2049.88, 0.539398
2050.69, 0.540546
2051.51, 0.541617
2052.32, 0.542306
2053.13, 0.543224
2053.94, 0.544295
2054.76, 0.544984
2055.57, 0.545366
2056.39, 0.545443
2057.2, 0.546208
2058.02, 0.546820
2058.84, 0.547126
2059.66, 0.547662
2060.48, 0.547738
2061.29, 0.547738
2062.11, 0.548044
2062.94, 0.548427
2063.76, 0.548962
2064.58, 0.549192
2065.4, 0.549498
2066.22, 0.549880
2067.05, 0.549957
2067.87, 0.550033
2068.7, 0.550110
2069.52, 0.550110
2070.35, 0.550492
2071.18, 0.550569
2072.0, 0.550416
2072.83, 0.550492
2073.66, 0.551028
2074.49, 0.551257
2075.32, 0.551257
2076.15, 0.551181
2076.98, 0.551257
2077.82, 0.551410
2078.65, 0.551717
2079.48, 0.551717
2080.32, 0.551564
2081.15, 0.551564
2081.99, 0.552099
2082.83, 0.552711
2083.66, 0.552635
2084.5, 0.552329
2085.34, 0.552635
2086.18, 0.552711
2087.02, 0.552711
2087.86, 0.552711
2088.7, 0.552711
2089.54, 0.552482
2090.39, 0.552635
2091.23, 0.552941
2092.07, 0.552941
2092.92, 0.552711
2093.76, 0.552941
2094.61, 0.553323
2095.45, 0.553323
2096.3, 0.553476
2097.15, 0.553476
2098.0, 0.553629
2098.85, 0.553935
2099.7, 0.554012
2100.55, 0.553859
2101.4, 0.553859
2102.25, 0.553629
2103.1, 0.553706
2103.96, 0.554241
2104.81, 0.554394
2105.67, 0.554547
2106.52, 0.554624
2107.38, 0.554471
2108.24, 0.554471
2109.09, 0.554624
2109.95, 0.554777
2110.81, 0.555083
2111.67, 0.555083
2112.53, 0.555160
2113.39, 0.555466
2114.25, 0.555848
2115.12, 0.556078
2115.98, 0.556078
2116.84, 0.556154
2117.71, 0.556231
2118.58, 0.556001
2119.44, 0.556154
2120.31, 0.556307
2121.18, 0.556460
2122.04, 0.556307
2122.91, 0.556231
2123.78, 0.556460
2124.65, 0.556919
2125.52, 0.557225
2126.4, 0.557378
2127.27, 0.556919
2128.14, 0.556996
2129.02, 0.557225
2129.89, 0.557225
2130.77, 0.557149
2131.64, 0.557455
2132.52, 0.557684
2133.4, 0.557837
2134.27, 0.557837
2135.15, 0.557837
2136.03, 0.557990
2136.91, 0.557990
2137.79, 0.558067
2138.68, 0.558220
2139.56, 0.558450
2140.44, 0.558373
2141.33, 0.558296
2142.21, 0.558526
2143.1, 0.558450
2143.99, 0.558450
2144.87, 0.558526
2145.76, 0.558603
2146.65, 0.558526
2147.54, 0.558373
2148.43, 0.558373
2149.32, 0.558909
2150.21, 0.559215
2151.1, 0.559138
2151.99, 0.559062
2152.89, 0.559138
2153.78, 0.559291
2154.68, 0.559138
2155.57, 0.558985
2156.47, 0.559062
2157.37, 0.559138
2158.27, 0.559444
2159.16, 0.559750
2160.06, 0.560056
2160.96, 0.559903
2161.86, 0.559674
2162.77, 0.559827
2163.67, 0.560056
2164.57, 0.560056
2165.48, 0.560056
2166.38, 0.560056
2167.29, 0.560286
2168.2, 0.560209
2169.1, 0.559980
2170.01, 0.560286
2170.92, 0.560439
2171.83, 0.560362
2172.74, 0.560439
2173.65, 0.560439
2174.56, 0.560515
2175.47, 0.560668
2176.39, 0.560745
2177.3, 0.560745
2178.22, 0.560439
2179.13, 0.560515
2180.05, 0.560745
2180.96, 0.560745
2181.88, 0.560745
2182.8, 0.560592
2183.72, 0.560439
2184.64, 0.560133
2185.56, 0.560133
2186.48, 0.559903
2187.41, 0.559903
2188.33, 0.559674
2189.25, 0.559597
2190.18, 0.559827
2191.1, 0.559827
2192.03, 0.559215
2192.96, 0.559138
2193.89, 0.559368
2194.82, 0.559291
2195.74, 0.558756
2196.68, 0.558373
2197.61, 0.557684
2198.54, 0.557149
2199.47, 0.556384
2200.4, 0.555236
2201.34, 0.554241
2202.28, 0.553247
2203.21, 0.551870
2204.15, 0.550875
2205.08, 0.550110
2206.02, 0.549727
2206.96, 0.550110
2207.9, 0.550722
2208.84, 0.551257
2209.78, 0.551870
2210.73, 0.552405
2211.67, 0.553017
2212.61, 0.553323
2213.56, 0.553859
2214.5, 0.554241
2215.45, 0.554471
2216.4, 0.555160
2217.35, 0.556384
2218.3, 0.557455
2219.24, 0.558450
2220.2, 0.559138
2221.15, 0.559827
2222.1, 0.560745
2223.05, 0.561280
2224.0, 0.561433
2224.96, 0.561586
2225.91, 0.561816
2226.87, 0.562275
2227.83, 0.562428
2228.79, 0.562581
2229.74, 0.562811
2230.7, 0.563117
2231.66, 0.562964
2232.63, 0.562887
2233.59, 0.562964
2234.55, 0.563193
2235.51, 0.563040
2236.48, 0.563193
2237.44, 0.562964
2238.41, 0.563040
2239.38, 0.563117
2240.34, 0.563423
2241.31, 0.563729
2242.28, 0.563652
2243.25, 0.563652
2244.22, 0.563807
2245.19, 0.563807
2246.17, 0.563343
2247.14, 0.563188
2248.12, 0.563497
2249.09, 0.563188
2250.07, 0.562414
2251.04, 0.562182
2252.02, 0.562414
2253.0, 0.562956
2253.98, 0.562956
2254.96, 0.562027
2255.94, 0.561795
2256.92, 0.561563
2257.91, 0.561176
2258.89, 0.561022
2259.88, 0.561099
2260.86, 0.560557
2261.85, 0.560403
2262.83, 0.560248
2263.82, 0.559784
2264.81, 0.559629
2265.8, 0.559706
2266.79, 0.559552
2267.78, 0.559706
2268.78, 0.559319
2269.77, 0.559319
2270.76, 0.559319
2271.76, 0.559010
2272.75, 0.559087
2273.75, 0.558546
2274.75, 0.557772
2275.75, 0.557617
2276.75, 0.557308
2277.75, 0.557076
2278.75, 0.557076
2279.75, 0.556921
2280.75, 0.556611
2281.76, 0.556534
2282.76, 0.555992
2283.77, 0.555141
2284.77, 0.554522
2285.78, 0.554368
2286.79, 0.554136
2287.8, 0.553517
2288.81, 0.553052
2289.82, 0.552898
2290.83, 0.552201
2291.84, 0.551582
2292.86, 0.551350
2293.87, 0.550886
2294.89, 0.550267
2295.91, 0.549725
2296.92, 0.548797
2297.94, 0.547868
2298.96, 0.547249
2299.98, 0.547172
2301.0, 0.546940
2302.02, 0.546398
2303.04, 0.545393
2304.07, 0.544851
2305.09, 0.544309
2306.12, 0.543381
2307.15, 0.542530
2308.17, 0.541911
2309.2, 0.541137
2310.23, 0.540441
2311.26, 0.539358
2312.29, 0.538507
2313.32, 0.538120
2314.35, 0.537733
2315.39, 0.536263
2316.42, 0.535102
2317.46, 0.534638
2318.5, 0.533555
2319.53, 0.532471
2320.57, 0.531543
2321.61, 0.530615
2322.65, 0.529531
2323.69, 0.528912
2324.73, 0.528061
2325.78, 0.527674
2326.82, 0.527520
2327.86, 0.526901
2328.91, 0.525740
2329.96, 0.524812
2331.01, 0.524502
2332.05, 0.524347
2333.1, 0.524502
2334.15, 0.524734
2335.21, 0.524193
2336.26, 0.523651
2337.31, 0.523496
2338.36, 0.523109
2339.42, 0.523574
2340.48, 0.523419
2341.53, 0.522568
2342.59, 0.522181
2343.65, 0.522026
2344.71, 0.521717
2345.77, 0.521020
2346.83, 0.520401
2347.9, 0.520247
2348.96, 0.519937
2350.02, 0.519396
2351.09, 0.518854
2352.16, 0.518545
2353.23, 0.517152
2354.29, 0.516146
2355.36, 0.515140
2356.43, 0.513980
2357.51, 0.512819
2358.58, 0.511040
2359.65, 0.509569
2360.73, 0.507945
2361.8, 0.506397
2362.88, 0.504772
2363.96, 0.502064
2365.03, 0.499279
2366.11, 0.497113
2367.19, 0.494173
2368.27, 0.490536
2369.36, 0.486513
2370.44, 0.482335
2371.53, 0.477073
2372.61, 0.471425
2373.7, 0.465622
2374.78, 0.459742
2375.87, 0.453630
2376.96, 0.448214
2378.05, 0.444423
2379.14, 0.442334
2380.24, 0.442411
2381.33, 0.444732
2382.42, 0.447982
2383.52, 0.452701
2384.61, 0.457963
2385.71, 0.463069
2386.81, 0.468485
2387.91, 0.472895
2389.01, 0.476996
2390.11, 0.482180
2391.22, 0.487596
2392.32, 0.493012
2393.42, 0.498660
2394.53, 0.505082
2395.64, 0.511194
2396.74, 0.516610
2397.85, 0.521872
2398.96, 0.526823
2400.07, 0.531311
2401.18, 0.534870
2402.3, 0.538120
2403.41, 0.540905
2404.52, 0.543845
2405.64, 0.546166
2406.76, 0.548023
2407.88, 0.549803
2408.99, 0.551737
2410.11, 0.553439
2411.23, 0.554522
2412.36, 0.555606
2413.48, 0.556921
2414.6, 0.557927
2415.73, 0.558933
2416.85, 0.559706
2417.98, 0.560712
2419.11, 0.561486
2420.24, 0.562492
2421.37, 0.563033
2422.5, 0.563807
2423.64, 0.564116
2424.77, 0.564581
2425.9, 0.565200
2427.04, 0.565896
2428.18, 0.566360
2429.31, 0.566902
2430.45, 0.567289
2431.59, 0.567366
2432.73, 0.567443
2433.88, 0.567598
2435.02, 0.567366
2436.16, 0.567289
2437.31, 0.566747
2438.45, 0.566824
2439.6, 0.566979
2440.75, 0.566979
2441.9, 0.566902
2443.05, 0.566824
2444.2, 0.566902
2445.35, 0.567134
2446.51, 0.567366
2447.67, 0.568062
2448.82, 0.568372
2449.98, 0.568372
2451.14, 0.568295
2452.3, 0.567985
2453.46, 0.567985
2454.62, 0.568449
2455.78, 0.568062
2456.94, 0.567830
2458.11, 0.567908
2459.28, 0.567753
2460.44, 0.567366
2461.61, 0.567211
2462.78, 0.567211
2463.95, 0.566824
2465.12, 0.566670
2466.3, 0.566747
2467.47, 0.566438
2468.65, 0.566283
2469.82, 0.566128
2471.0, 0.566128
2472.18, 0.565664
2473.36, 0.565432
2474.54, 0.565122
2475.72, 0.565045
2476.9, 0.565122
2478.08, 0.564581
2479.27, 0.563730
2480.46, 0.563265
2481.64, 0.563188
2482.83, 0.562724
2484.02, 0.561641
2485.21, 0.561254
2486.4, 0.560325
2487.6, 0.559087
2488.79, 0.558081
2489.99, 0.557617
2491.18, 0.556457
2492.38, 0.555141
2493.58, 0.553826
2494.78, 0.551969
2495.98, 0.550344
2497.18, 0.548874
2498.39, 0.547017
2499.59, 0.544928
2500.8, 0.542917
2502.01, 0.540828
2503.21, 0.538274
2504.42, 0.535798
2505.63, 0.533090
2506.84, 0.530460
2508.06, 0.527442
2509.27, 0.524580
2510.49, 0.521330
2511.7, 0.518312
2512.92, 0.515759
2514.14, 0.513206
2515.36, 0.510188
2516.58, 0.507790
2517.8, 0.505469
2519.03, 0.502993
2520.25, 0.500981
2521.48, 0.499589
2522.7, 0.498660
2523.93, 0.497267
2525.16, 0.496494
2526.39, 0.496029
2527.62, 0.494714
2528.86, 0.494018
2530.09, 0.494018
2531.33, 0.494327
2532.56, 0.495256
2533.8, 0.494869
2535.04, 0.493863
2536.28, 0.493786
2537.52, 0.494327
2538.76, 0.494173
2540.01, 0.494018
2541.25, 0.494250
2542.5, 0.494327
2543.75, 0.493167
2544.99, 0.491542
2546.24, 0.490381
2547.49, 0.489066
2548.75, 0.488060
2550.0, 0.488602
2551.26, 0.489608
2552.51, 0.487828
2553.77, 0.484965
2555.03, 0.480400
2556.29, 0.475758
2557.55, 0.473205
2558.81, 0.472354
2560.08, 0.469646
2561.34, 0.464384
2562.61, 0.462682
2563.88, 0.459355
2565.14, 0.453243
2566.41, 0.449452
2567.68, 0.443339
2568.96, 0.436376
2570.23, 0.432353
2571.51, 0.427246
2572.78, 0.423455
2574.06, 0.420283
2575.34, 0.414093
2576.62, 0.411540
2577.9, 0.408677
2579.18, 0.404731
2580.47, 0.400476
2581.75, 0.397226
2583.04, 0.397458
2584.32, 0.400940
2585.61, 0.393899
2586.9, 0.385233
2588.2, 0.382448
2589.49, 0.384846
2590.78, 0.392893
2592.08, 0.404963
2593.37, 0.418967
2594.67, 0.435215
2595.97, 0.448601
2597.27, 0.458504
2598.57, 0.469800
2599.88, 0.480710
2601.18, 0.490227
2602.49, 0.500904
2603.79, 0.510111
2605.1, 0.521485
2606.41, 0.534019
2607.72, 0.538971
2609.03, 0.547017
2610.35, 0.555219
2611.66, 0.555219
2612.98, 0.558391
2614.3, 0.563884
2615.62, 0.571467
2616.94, 0.572705
2618.26, 0.574330
2619.58, 0.580983
2620.91, 0.579204
2622.23, 0.576883
2623.56, 0.577347
2624.89, 0.574716
2626.22, 0.573014
2627.55, 0.570770
2628.88, 0.569300
2630.21, 0.568913
2631.55, 0.570925
2632.89, 0.573324
2634.22, 0.577966
2635.56, 0.579978
2636.9, 0.579436
2638.25, 0.579359
2639.59, 0.581216
2640.93, 0.584543
2642.28, 0.585239
2643.63, 0.583924
2644.98, 0.584620
2646.33, 0.583073
2647.68, 0.585239
2649.03, 0.587096
2650.39, 0.586554
2651.74, 0.585626
2653.1, 0.590500
2654.46, 0.596535
2655.82, 0.596845
2657.18, 0.591970
2658.54, 0.595916
2659.9, 0.598779
2661.27, 0.589649
2662.64, 0.587173
2664.01, 0.589572
2665.38, 0.593595
2666.74, 0.593595
2668.12, 0.592512
2669.49, 0.587870
2670.87, 0.586013
2672.24, 0.587947
2673.62, 0.588024
2675.0, 0.588256
2676.38, 0.587405
2677.76, 0.586322
2679.15, 0.585471
2680.54, 0.586554
2681.92, 0.591429
2683.31, 0.592899
2684.7, 0.589185
2686.09, 0.585239
2687.48, 0.583305
2688.88, 0.584697
2690.27, 0.585007
2691.67, 0.582376
2693.07, 0.581061
2694.47, 0.580519
2695.87, 0.580365
2697.27, 0.583382
2698.67, 0.586554
2700.08, 0.585858
2701.49, 0.579127
2702.9, 0.576341
2704.31, 0.575567
2705.72, 0.576032
2707.13, 0.577347
2708.54, 0.582840
2709.96, 0.580597
2711.38, 0.575103
2712.8, 0.576805
2714.22, 0.573246
2715.64, 0.566979
2717.06, 0.564194
2718.49, 0.562878
2719.91, 0.561486
2721.34, 0.560712
2722.77, 0.562414
2724.2, 0.560635
2725.63, 0.558081
2727.07, 0.561718
2728.5, 0.563807
2729.94, 0.559474
2731.38, 0.552898
2732.82, 0.549261
2734.26, 0.547868
2735.7, 0.546244
2737.15, 0.544696
2738.59, 0.543226
2740.04, 0.542143
2741.49, 0.540982
2742.94, 0.544387
2744.39, 0.543226
2745.84, 0.534947
2747.3, 0.530228
2748.76, 0.528061
2750.21, 0.528448
2751.67, 0.526591
2753.14, 0.522181
2754.6, 0.519937
2756.06, 0.518467
2757.53, 0.516223
2759.0, 0.515140
2760.46, 0.511891
2761.94, 0.508254
2763.41, 0.506552
2764.88, 0.505469
2766.36, 0.503689
2767.83, 0.501987
2769.31, 0.501059
2770.79, 0.499666
2772.27, 0.498196
2773.76, 0.498196
2775.24, 0.498892
2776.73, 0.496494
2778.22, 0.493476
2779.71, 0.492316
2781.2, 0.491774
2782.69, 0.491000
2784.18, 0.490227
2785.68, 0.489376
2787.18, 0.488370
2788.68, 0.487751
2790.18, 0.488679
2791.68, 0.487751
2793.19, 0.484656
2794.69, 0.482257
2796.2, 0.480787
2797.71, 0.479008
2799.22, 0.477538
2800.73, 0.476687
2802.24, 0.475913
2803.76, 0.474288
2805.28, 0.472741
2806.8, 0.471580
2808.32, 0.469878
2809.84, 0.467325
2811.36, 0.464307
2812.89, 0.461676
2814.42, 0.458814
2815.94, 0.455255
2817.48, 0.451309
2819.01, 0.447208
2820.54, 0.443262
2822.08, 0.439703
2823.61, 0.436531
2825.15, 0.433900
2826.69, 0.431347
2828.23, 0.428020
2829.78, 0.424383
2831.32, 0.420128
2832.87, 0.415718
2834.42, 0.409528
2835.97, 0.400862
2837.52, 0.387787
2839.08, 0.370378
2840.63, 0.352660
2842.19, 0.340358
2843.75, 0.336180
2845.31, 0.338114
2846.87, 0.341750
2848.44, 0.345387
2850.0, 0.350571
2851.57, 0.358617
2853.14, 0.369604
2854.71, 0.381442
2856.28, 0.391732
2857.86, 0.400708
2859.43, 0.408135
2861.01, 0.414093
2862.59, 0.418658
2864.17, 0.422604
2865.76, 0.425853
2867.34, 0.429180
2868.93, 0.432120
2870.52, 0.434828
2872.11, 0.437691
2873.7, 0.440477
2875.29, 0.442411
2876.89, 0.444268
2878.49, 0.445893
2880.08, 0.447363
2881.69, 0.448755
2883.29, 0.449684
2884.89, 0.449839
2886.5, 0.450458
2888.11, 0.451231
2889.72, 0.451773
2891.33, 0.452005
2892.94, 0.451618
2894.56, 0.451541
2896.17, 0.451618
2897.79, 0.451463
2899.42, 0.451231
2901.04, 0.450922
2902.66, 0.450922
2904.29, 0.450690
2905.92, 0.450922
2907.55, 0.450690
2909.18, 0.450612
2910.81, 0.450535
2912.45, 0.450225
2914.08, 0.449839
2915.72, 0.449529
2917.36, 0.449297
2919.01, 0.449374
2920.65, 0.449297
2922.3, 0.449065
2923.94, 0.449142
2925.59, 0.449529
2927.25, 0.449374
2928.9, 0.449297
2930.56, 0.449297
2932.21, 0.449374
2933.87, 0.449684
2935.53, 0.449684
2937.2, 0.449529
2938.86, 0.449606
2940.53, 0.449684
2942.2, 0.449916
2943.87, 0.450148
2945.54, 0.450380
2947.22, 0.450535
2948.89, 0.450690
2950.57, 0.450612
2952.25, 0.450690
2953.93, 0.450999
2955.62, 0.451309
2957.3, 0.451541
2958.99, 0.451773
2960.68, 0.451928
2962.37, 0.452082
2964.07, 0.452237
2965.76, 0.452779
2967.46, 0.452933
2969.16, 0.453011
2970.86, 0.453088
2972.56, 0.453475
2974.27, 0.453862
2975.98, 0.454326
2977.69, 0.454481
2979.4, 0.454713
2981.11, 0.454790
2982.83, 0.454868
2984.54, 0.455177
2986.26, 0.455641
2987.98, 0.455874
2989.71, 0.456183
2991.43, 0.456725
2993.16, 0.457112
2994.89, 0.457266
2996.62, 0.457498
2998.35, 0.457885
3000.09, 0.458195
3001.83, 0.458582
3003.57, 0.458891
3005.31, 0.459046
3007.05, 0.459665
3008.79, 0.459974
3010.54, 0.460129
3012.29, 0.460361
3014.04, 0.460748
3015.8, 0.461135
3017.55, 0.461522
3019.31, 0.461754
3021.07, 0.461909
3022.83, 0.462141
3024.59, 0.462373
3026.36, 0.462450
3028.13, 0.462528
3029.9, 0.462373
3031.67, 0.462373
3033.44, 0.462063
3035.22, 0.461909
3037.0, 0.461676
3038.78, 0.461367
3040.56, 0.461057
3042.34, 0.460825
3044.13, 0.460516
3045.92, 0.460206
3047.71, 0.459587
3049.5, 0.459123
3051.3, 0.458659
3053.09, 0.458504
3054.89, 0.458195
3056.69, 0.457963
3058.5, 0.457576
3060.3, 0.457344
3062.11, 0.457034
3063.92, 0.456879
3065.73, 0.457034
3067.55, 0.456879
3069.36, 0.456570
3071.18, 0.456879
3073.0, 0.457112
3074.82, 0.457189
3076.65, 0.457266
3078.48, 0.457653
3080.31, 0.457730
3082.14, 0.457653
3083.97, 0.457653
3085.8, 0.457885
3087.64, 0.457963
3089.48, 0.458195
3091.33, 0.458195
3093.17, 0.458349
3095.02, 0.458504
3096.87, 0.458659
3098.72, 0.458582
3100.57, 0.458736
3102.43, 0.458659
3104.28, 0.458659
3106.14, 0.458659
3108.01, 0.458504
3109.87, 0.458195
3111.74, 0.458117
3113.61, 0.457885
3115.48, 0.457576
3117.35, 0.457034
3119.23, 0.456260
3121.1, 0.455409
3122.98, 0.454404
3124.87, 0.453088
3126.75, 0.451618
3128.64, 0.449993
3130.53, 0.448369
3132.42, 0.446357
3134.31, 0.443881
3136.21, 0.441096
3138.11, 0.438620
3140.01, 0.436299
3141.91, 0.433591
3143.82, 0.430883
3145.73, 0.428252
3147.64, 0.425080
3149.55, 0.421134
3151.46, 0.416337
3153.38, 0.410766
3155.3, 0.403957
3157.22, 0.395756
3159.14, 0.386703
3161.07, 0.377728
3163.0, 0.369217
3164.93, 0.362486
3166.86, 0.360397
3168.8, 0.363724
3170.74, 0.369991
3172.68, 0.376800
3174.62, 0.383608
3176.56, 0.391346
3178.51, 0.399702
3180.46, 0.408600
3182.42, 0.417652
3184.37, 0.426395
3186.33, 0.434287
3188.29, 0.441560
3190.25, 0.448136
3192.21, 0.454481
3194.18, 0.459820
3196.15, 0.464075
3198.12, 0.466783
3200.09, 0.468795
3202.07, 0.470110
3204.05, 0.471116
3206.03, 0.471967
3208.02, 0.472508
3210.0, 0.472741
3211.99, 0.472663
3213.98, 0.472431
3215.98, 0.472044
3217.97, 0.471580
3219.97, 0.471116
3221.97, 0.470497
3223.98, 0.470033
3225.98, 0.469491
3227.99, 0.468717
3230.0, 0.468021
3232.02, 0.467170
3234.03, 0.466164
3236.05, 0.465468
3238.07, 0.464617
3240.1, 0.463688
3242.12, 0.462760
3244.15, 0.461676
3246.18, 0.460361
3248.22, 0.459510
3250.25, 0.458272
3252.29, 0.456725
3254.33, 0.455332
3256.38, 0.453785
3258.43, 0.452160
3260.47, 0.450458
3262.53, 0.448755
3264.58, 0.446976
3266.64, 0.445042
3268.7, 0.443107
3270.76, 0.441096
3272.82, 0.439393
3274.89, 0.437769
3276.96, 0.435757
3279.04, 0.433745
3281.11, 0.432120
3283.19, 0.430341
3285.27, 0.428639
3287.35, 0.427014
3289.44, 0.425467
3291.53, 0.423764
3293.62, 0.422372
3295.71, 0.421134
3297.81, 0.419818
3299.91, 0.418503
3302.01, 0.417420
3304.11, 0.416027
3306.22, 0.414789
3308.33, 0.413861
3310.44, 0.413010
3312.56, 0.411849
3314.68, 0.410998
3316.8, 0.410070
3318.92, 0.409064
3321.05, 0.408135
3323.18, 0.407284
3325.31, 0.406433
3327.44, 0.405427
3329.58, 0.404189
3331.72, 0.402874
3333.86, 0.401559
3336.01, 0.399624
3338.16, 0.397303
3340.31, 0.394982
3342.46, 0.392197
3344.61, 0.389179
3346.77, 0.386007
3348.94, 0.382835
3351.1, 0.379585
3353.27, 0.375871
3355.44, 0.371771
3357.61, 0.367902
3359.79, 0.364188
3361.97, 0.360320
3364.15, 0.356374
3366.33, 0.352196
3368.52, 0.347785
3370.71, 0.343221
3372.9, 0.338501
3375.1, 0.333549
3377.3, 0.327824
3379.5, 0.321634
3381.71, 0.314902
3383.91, 0.307397
3386.12, 0.299119
3388.34, 0.290144
3390.55, 0.280704
3392.77, 0.271033
3394.99, 0.260974
3397.22, 0.250220
3399.45, 0.238769
3401.68, 0.226621
3403.91, 0.214087
3406.15, 0.201553
3408.39, 0.189019
3410.63, 0.176949
3412.87, 0.165498
3415.12, 0.154898
3417.37, 0.145381
3419.63, 0.137335
3421.88, 0.130449
3424.14, 0.124414
3426.41, 0.119307
3428.67, 0.115052
3430.94, 0.111492
3433.21, 0.108320
3435.49, 0.105535
3437.77, 0.103214
3440.05, 0.101202
3442.33, 0.0998870
3444.62, 0.0988810
3446.91, 0.0981850
3449.2, 0.0977200
3451.5, 0.0976430
3453.8, 0.0976430
3456.1, 0.0981070
3458.41, 0.0990360
3460.72, 0.100196
3463.03, 0.101744
3465.34, 0.103601
3467.66, 0.105535
3469.98, 0.107624
3472.31, 0.109868
3474.63, 0.112034
3476.96, 0.113272
3479.3, 0.113272
3481.64, 0.111879
3483.97, 0.109945
3486.32, 0.108011
3488.66, 0.106076
3491.01, 0.103987
3493.36, 0.101821
3495.72, 0.100042
3498.08, 0.0984940
3500.44, 0.0964050
3502.81, 0.0937740
3505.18, 0.0910660
3507.55, 0.0880490
3509.92, 0.0847220
3512.3, 0.0812400
3514.68, 0.0780680
3517.06, 0.0755920
3519.45, 0.0741220
3521.84, 0.0737350
3524.24, 0.0743540
3526.64, 0.0759790
3529.04, 0.0782230
3531.44, 0.0813180
3533.85, 0.0857280
3536.26, 0.0918400
3538.67, 0.0989580
3541.09, 0.105767
3543.51, 0.110641
3545.93, 0.114201
3548.36, 0.119230
3550.79, 0.127199
3553.22, 0.137567
3555.66, 0.150178
3558.1, 0.164492
3560.54, 0.179889
3562.99, 0.196214
3565.44, 0.213468
3567.9, 0.231186
3570.35, 0.249291
3572.81, 0.267319
3575.28, 0.284960
3577.75, 0.301440
3580.22, 0.316295
3582.69, 0.329603
3585.17, 0.341441
3587.65, 0.351963
3590.14, 0.361558
3592.62, 0.370455
3595.11, 0.378425
3597.61, 0.385465
3600.11, 0.391191
3602.61, 0.395601
3605.11, 0.399005
3607.62, 0.400785
3610.14, 0.401094
3612.65, 0.398773
3615.17, 0.392274
3617.69, 0.380514
3620.22, 0.366974
3622.75, 0.360861
3625.28, 0.368985
3627.82, 0.386471
3630.36, 0.403106
3632.9, 0.414944
3635.45, 0.422991
3638.0, 0.428871
3640.56, 0.432972
3643.12, 0.435447
3645.68, 0.437459
3648.24, 0.440090
3650.81, 0.443262
3653.39, 0.446047
3655.96, 0.448601
3658.54, 0.450612
3661.13, 0.452314
3663.71, 0.453785
3666.3, 0.454713
3668.9, 0.455332
3671.5, 0.456183
3674.1, 0.457112
3676.7, 0.458040
3679.31, 0.458659
3681.93, 0.459201
3684.54, 0.459587
3687.17, 0.459897
3689.79, 0.459974
3692.42, 0.459974
3695.05, 0.459897
3697.69, 0.459742
3700.32, 0.459587
3702.97, 0.459742
3705.61, 0.460052
3708.27, 0.460593
3710.92, 0.460980
3713.58, 0.461522
3716.24, 0.461909
3718.91, 0.462141
3721.58, 0.462218
3724.25, 0.462141
3726.93, 0.461676
3729.61, 0.461057
3732.29, 0.460361
3734.98, 0.459587
3737.67, 0.458349
3740.37, 0.456802
3743.07, 0.455255
3745.78, 0.453862
3748.49, 0.452314
3751.2, 0.450458
3753.91, 0.448678
3756.63, 0.447053
3759.36, 0.445119
3762.09, 0.443185
3764.82, 0.441328
3767.55, 0.439703
3770.29, 0.437614
3773.04, 0.435525
3775.78, 0.433591
3778.54, 0.431734
3781.29, 0.429799
3784.05, 0.427246
3786.82, 0.424461
3789.59, 0.421598
3792.36, 0.418426
3795.13, 0.414944
3797.92, 0.411230
3800.7, 0.407362
3803.49, 0.403648
3806.28, 0.400476
3809.08, 0.397767
3811.88, 0.395833
3814.68, 0.394363
3817.49, 0.393203
3820.31, 0.392274
3823.12, 0.391500
3825.94, 0.390262
3828.77, 0.388328
3831.6, 0.385079
3834.43, 0.380514
3837.27, 0.374556
3840.11, 0.367051
3842.96, 0.357302
3845.81, 0.345000
3848.67, 0.329062
3851.53, 0.309177
3854.39, 0.285192
3857.26, 0.258963
3860.13, 0.233198
3863.01, 0.210683
3865.89, 0.191959
3868.77, 0.176639
3871.66, 0.164415
3874.55, 0.155130
3877.45, 0.147857
3880.35, 0.142596
3883.26, 0.138727
3886.17, 0.135942
3889.09, 0.134008
3892.01, 0.132615
3894.93, 0.131532
3897.86, 0.130835
3900.79, 0.130294
3903.73, 0.129907
3906.67, 0.129675
3909.62, 0.129520
3912.57, 0.129520
3915.52, 0.129675
3918.48, 0.129984
3921.45, 0.130603
3924.42, 0.131145
3927.39, 0.131919
3930.37, 0.132692
3933.35, 0.133389
3936.34, 0.133930
3939.33, 0.134085
3942.32, 0.133853
3945.32, 0.133079
3948.33, 0.131686
3951.34, 0.130062
3954.35, 0.128050
3957.37, 0.125419
3960.39, 0.122479
3963.42, 0.119462
3966.45, 0.116522
3969.49, 0.114278
3972.53, 0.112576
3975.58, 0.111725
3978.63, 0.111338
3981.68, 0.109558
3984.75, 0.105380
3987.81, 0.100196
3990.88, 0.0951670
3993.95, 0.0906020
3997.03, 0.0861920
4000.12, 0.0819370
4003.21, 0.0778360
4006.3, 0.0737350
4009.4, 0.0700210
4012.5, 0.0674680
4015.61, 0.0663070
4018.72, 0.0660750
4021.84, 0.0658430
4024.96, 0.0653020
4028.09, 0.0642180
4031.22, 0.0629030
4034.36, 0.0614330
4037.5, 0.0597310
4040.65, 0.0579510
4043.8, 0.0560940
4046.96, 0.0543150
4050.12, 0.0536190
4053.29, 0.0543920
4056.46, 0.0564040
4059.64, 0.0595760
4062.82, 0.0638320
4066.0, 0.0687830
4069.19, 0.0747410
4072.39, 0.0825560
4075.59, 0.0936200
4078.8, 0.108862
4082.01, 0.126812
4085.23, 0.144143
4088.45, 0.156368
4091.68, 0.160623
4094.91, 0.165111
4098.15, 0.178342
4101.39, 0.192578
4104.63, 0.203874
4107.89, 0.221824
4111.14, 0.245887
4114.41, 0.269485
4117.67, 0.290221
4120.95, 0.307243
4124.23, 0.320628
4127.51, 0.331228
4130.8, 0.339739
4134.09, 0.347244
4137.39, 0.353511
4140.7, 0.358695
4144.01, 0.362950
4147.32, 0.366509
4150.64, 0.369604
4153.97, 0.372467
4157.3, 0.375020
4160.64, 0.377496
4163.98, 0.379817
4167.33, 0.382293
4170.68, 0.384846
4174.04, 0.387400
4177.4, 0.389721
4180.77, 0.392042
4184.14, 0.394441
4187.52, 0.396839
4190.91, 0.399160
4194.3, 0.401481
4197.69, 0.403416
4201.1, 0.405195
4204.5, 0.406820
4207.92, 0.408445
4211.34, 0.409992
4214.76, 0.411694
4218.19, 0.412932
4221.62, 0.413783
4225.06, 0.414093
4228.51, 0.413629
4231.96, 0.412700
4235.42, 0.412313
4238.88, 0.413087
4242.35, 0.415718
4245.83, 0.420360
4249.31, 0.426704
4252.79, 0.433900
4256.28, 0.441018
4259.78, 0.447363
4263.29, 0.452856
4266.79, 0.457112
4270.31, 0.460593
4273.83, 0.463224
4277.35, 0.465390
4280.89, 0.467247
4284.42, 0.468795
4287.97, 0.469955
4291.52, 0.471193
4295.07, 0.472044
4298.63, 0.472199
4302.2, 0.471657
4305.78, 0.471038
4309.35, 0.470342
4312.94, 0.470110
4316.53, 0.470419
4320.13, 0.470729
4323.73, 0.470265
4327.34, 0.468872
4330.96, 0.466706
4334.58, 0.464462
4338.21, 0.462141
4341.84, 0.459510
4345.48, 0.455874
4349.12, 0.450999
4352.77, 0.444577
4356.43, 0.437769
4360.1, 0.432120
4363.76, 0.428484
4367.44, 0.427710
4371.12, 0.431579
4374.81, 0.439935
4378.51, 0.450612
4382.21, 0.462682
4385.92, 0.475913
4389.63, 0.488602
4393.35, 0.499589
4397.08, 0.508564
4400.81, 0.516301
4404.55, 0.522645
4408.29, 0.527752
4412.04, 0.532007
4415.8, 0.535953
4419.57, 0.539590
4423.34, 0.542917
4427.12, 0.545238
4430.9, 0.546708
4434.69, 0.547095
4438.49, 0.547017
4442.29, 0.546166
4446.1, 0.545160
4449.92, 0.544309
4453.74, 0.544155
4457.57, 0.544077
4461.41, 0.543922
4465.25, 0.543071
4469.1, 0.541756
4472.95, 0.539203
4476.82, 0.535257
4480.69, 0.530073
4484.56, 0.523961
4488.44, 0.517384
4492.33, 0.511194
4496.23, 0.505082
4500.13, 0.499434
4504.04, 0.494559
4507.96, 0.490846
4511.88, 0.487751
4515.81, 0.484501
4519.75, 0.481406
4523.69, 0.479008
4527.65, 0.476996
4531.6, 0.475758
4535.57, 0.474984
4539.54, 0.474675
4543.52, 0.474211
4547.5, 0.473746
4551.5, 0.473360
4555.5, 0.473205
4559.5, 0.473127
4563.52, 0.473360
4567.54, 0.473437
4571.56, 0.473746
4575.6, 0.473979
4579.64, 0.474288
4583.69, 0.474520
4587.75, 0.474520
4591.81, 0.473979
4595.88, 0.472973
4599.96, 0.471271
4604.04, 0.469027
4608.14, 0.466087
4612.24, 0.462605
4616.34, 0.458504
4620.46, 0.454017
4624.58, 0.449529
4628.71, 0.445661
4632.84, 0.441792
4636.99, 0.438465
4641.14, 0.435370
4645.3, 0.431656
4649.47, 0.426472
4653.64, 0.420283
4657.82, 0.413242
4662.01, 0.405427
4666.21, 0.395988
4670.41, 0.384692
4674.62, 0.372699
4678.84, 0.360861
4683.07, 0.349565
4687.3, 0.339507
4691.54, 0.331383
4695.79, 0.325580
4700.05, 0.320628
4704.31, 0.314129
4708.59, 0.304457
4712.87, 0.293161
4717.15, 0.280704
4721.45, 0.267396
4725.76, 0.254088
4730.07, 0.242251
4734.39, 0.232502
4738.72, 0.225538
4743.05, 0.223140
4747.39, 0.227550
4751.75, 0.239465
4756.1, 0.257957
4760.47, 0.280008
4764.85, 0.303529
4769.23, 0.328365
4773.62, 0.355755
4778.02, 0.385156
4782.43, 0.414170
4786.85, 0.440709
4791.27, 0.463611
4795.7, 0.481019
4800.14, 0.493940
4804.59, 0.503380
4809.05, 0.510034
4813.51, 0.515682
4817.99, 0.522413
4822.47, 0.529299
4826.96, 0.536650
4831.46, 0.543226
4835.96, 0.548101
4840.48, 0.551118
4845.0, 0.553207
4849.54, 0.554522
4854.08, 0.555838
4858.63, 0.556534
4863.18, 0.556998
4867.75, 0.556921
4872.33, 0.556766
4876.91, 0.556302
4881.5, 0.556070
4886.1, 0.555992
4890.71, 0.556225
4895.33, 0.556070
4899.96, 0.555838
4904.59, 0.555373
4909.24, 0.555219
4913.89, 0.555064
4918.55, 0.555528
4923.22, 0.555760
4927.9, 0.555915
4932.59, 0.556225
4937.29, 0.556998
4942.0, 0.557617
4946.71, 0.558159
4951.44, 0.558236
4956.17, 0.558236
4960.91, 0.557772
4965.67, 0.557076
4970.43, 0.555760
4975.2, 0.554522
4979.98, 0.553284
4984.76, 0.551505
4989.56, 0.549416
4994.37, 0.547714
4999.18, 0.546012
5004.01, 0.545083
5008.84, 0.544851
5013.69, 0.545547
5018.54, 0.546244
5023.4, 0.547249
5028.28, 0.547636
5033.16, 0.547327
5038.05, 0.546166
5042.95, 0.544619
5047.86, 0.541833
5052.78, 0.538429
5057.71, 0.534715
5062.65, 0.530847
5067.6, 0.526669
5072.56, 0.522877
5077.53, 0.519241
5082.5, 0.516378
5087.49, 0.514212
5092.49, 0.513206
5097.5, 0.512819
5102.51, 0.513593
5107.54, 0.514676
5112.58, 0.514831
5117.62, 0.515140
5122.68, 0.516301
5127.75, 0.517384
5132.82, 0.518312
5137.91, 0.518467
5143.01, 0.518312
5148.12, 0.517539
5153.23, 0.516688
5158.36, 0.515295
5163.5, 0.513051
5168.65, 0.511504
5173.81, 0.509802
5178.98, 0.506861
5184.15, 0.504386
5189.34, 0.501291
5194.54, 0.498351
5199.75, 0.495256
5204.98, 0.493554
5210.21, 0.492780
5215.45, 0.492935
5220.7, 0.493476
5225.96, 0.494791
5231.23, 0.496339
5236.52, 0.497654
5241.81, 0.498273
5247.12, 0.499356
5252.44, 0.498737
5257.76, 0.497886
5263.1, 0.497190
5268.45, 0.496262
5273.81, 0.494869
5279.18, 0.492935
5284.56, 0.490149
5289.95, 0.487364
5295.36, 0.484501
5300.77, 0.483108
5306.2, 0.482025
5311.63, 0.479085
5317.08, 0.476532
5322.54, 0.475449
5328.01, 0.474365
5333.49, 0.473514
5338.98, 0.472508
5344.49, 0.471503
5350.0, 0.470187
5355.53, 0.468872
5361.07, 0.467325
5366.62, 0.465777
5372.18, 0.465468
5377.75, 0.464617
5383.34, 0.459355
5388.93, 0.455564
5394.54, 0.452933
5400.16, 0.450303
5405.79, 0.447131
5411.44, 0.445042
5417.09, 0.443649
5422.76, 0.440090
5428.43, 0.436453
5434.12, 0.433745
5439.83, 0.429412
5445.54, 0.426163
5451.26, 0.423145
5457.0, 0.420592
5462.75, 0.417884
5468.52, 0.416182
5474.29, 0.414248
5480.08, 0.411694
5485.88, 0.408135
5491.69, 0.404963
5497.51, 0.401868
5503.35, 0.399392
5509.2, 0.395292
5515.06, 0.390262
5520.93, 0.385388
5526.82, 0.382371
5532.71, 0.377264
5538.63, 0.368908
5544.55, 0.361093
5550.49, 0.354362
5556.44, 0.346238
5562.4, 0.337263
5568.37, 0.327514
5574.36, 0.316295
5580.36, 0.304303
5586.37, 0.292387
5592.4, 0.278074
5598.44, 0.256951
5604.49, 0.231264
5610.56, 0.198226
5616.63, 0.155904
5622.73, 0.107469
5628.83, 0.0646830
5634.95, 0.0418580
5641.08, 0.0343530
5647.23, 0.0331150
5653.39, 0.0330380
5659.56, 0.0338110
5665.74, 0.0367520
5671.94, 0.0423220
5678.15, 0.0517620
5684.38, 0.0707180
5690.62, 0.101744
5696.87, 0.137025
5703.14, 0.165421
5709.42, 0.186466
5715.72, 0.205190
5722.03, 0.216795
5728.35, 0.225770
5734.69, 0.231883
5741.03, 0.230800
5747.4, 0.217569
5753.78, 0.203410
5760.17, 0.207898
5766.58, 0.208207
5773.0, 0.197684
5779.44, 0.205190
5785.88, 0.215712
5792.35, 0.217260
5798.83, 0.215016
5805.32, 0.210296
5811.83, 0.203797
5818.35, 0.195982
5824.89, 0.191031
5831.45, 0.182210
5838.01, 0.173235
5844.59, 0.165421
5851.19, 0.156059
5857.8, 0.148554
5864.43, 0.142209
5871.07, 0.135865
5877.73, 0.131145
5884.4, 0.124878
5891.09, 0.116212
5897.79, 0.108552
5904.5, 0.101821
5911.23, 0.0960960
5917.98, 0.0900610
5924.75, 0.0842580
5931.53, 0.0796930
5938.32, 0.0745090
5945.13, 0.0695570
5951.96, 0.0651470
5958.8, 0.0613560
5965.65, 0.0573320
5972.53, 0.0539280
5979.42, 0.0509110
5986.32, 0.0490540
5993.24, 0.0471190
6000.18, 0.0439470
6007.13, 0.0415490
6014.1, 0.0401560
6021.08, 0.0382990
6028.09, 0.0364420
6035.1, 0.0349720
6042.14, 0.0340440
6049.19, 0.0333470
6056.25, 0.0327280
6063.34, 0.0315680
6070.44, 0.0306390
6077.55, 0.0299430
6084.69, 0.0294010
6091.84, 0.0286270
6099.0, 0.0280090
6106.19, 0.0273120
6113.39, 0.0265380
6120.61, 0.0258420
6127.84, 0.0251460
6135.09, 0.0240630
6142.36, 0.0232110
6149.65, 0.0225150
6156.95, 0.0220510
6164.27, 0.0215090
6171.61, 0.0210450
6178.97, 0.0205810
6186.34, 0.0200390
6193.73, 0.0197300
6201.14, 0.0194980
6208.57, 0.0191880
6216.01, 0.0188790
6223.47, 0.0184920
6230.95, 0.0182600
6238.45, 0.0179500
6245.97, 0.0177950
6253.5, 0.0176410
6261.06, 0.0174860
6268.63, 0.0173310
6276.21, 0.0174090
6283.82, 0.0176410
6291.45, 0.0175630
6299.1, 0.0177180
6306.76, 0.0181820
6314.44, 0.0186470
6322.14, 0.0191110
6329.86, 0.0198070
6337.6, 0.0208900
6345.35, 0.0225150
6353.13, 0.0246820
6360.92, 0.0265380
6368.74, 0.0290140
6376.57, 0.0324960
6384.43, 0.0368290
6392.3, 0.0425540
6400.19, 0.0495950
6408.1, 0.0588020
6416.03, 0.0697890
6423.98, 0.0837930
6431.95, 0.100660
6439.94, 0.117141
6447.95, 0.136097
6455.98, 0.160623
6464.03, 0.184996
6472.1, 0.210606
6480.19, 0.238382
6488.31, 0.267474
6496.44, 0.295405
6504.59, 0.326276
6512.76, 0.352660
6520.95, 0.374169
6529.16, 0.392274
6537.4, 0.401868
6545.65, 0.406124
6553.92, 0.406511
6562.22, 0.407207
6570.54, 0.405195
6578.88, 0.391578
6587.23, 0.378657
6595.61, 0.369682
6604.02, 0.361867
6612.44, 0.354207
6620.89, 0.346315
6629.35, 0.341828
6637.84, 0.343066
6646.35, 0.343685
6654.88, 0.343143
6663.44, 0.342602
6672.01, 0.343685
6680.61, 0.345619
6689.23, 0.347321
6697.88, 0.349410
6706.54, 0.352118
6715.23, 0.355213
6723.94, 0.355832
6732.67, 0.352041
6741.42, 0.350493
6750.2, 0.351035
6759.0, 0.349874
6767.82, 0.346006
6776.67, 0.344845
6785.54, 0.346780
6794.44, 0.345077
6803.35, 0.336953
6812.29, 0.332079
6821.26, 0.328752
6830.24, 0.326586
6839.25, 0.323413
6848.29, 0.319932
6857.35, 0.317224
6866.43, 0.315135
6875.54, 0.314361
6884.67, 0.315444
6893.82, 0.312659
6903.0, 0.309796
6912.2, 0.309564
6921.43, 0.309177
6930.69, 0.308094
6939.96, 0.307707
6949.27, 0.306469
6958.59, 0.304148
6967.95, 0.299970
6977.33, 0.285966
6986.73, 0.263605
6996.16, 0.239465
7005.61, 0.218575
7015.09, 0.202636
7024.6, 0.190721
7034.13, 0.182133
7043.69, 0.175788
7053.27, 0.170837
7062.88, 0.167277
7072.52, 0.164105
7082.18, 0.161165
7091.87, 0.158689
7101.58, 0.156059
7111.32, 0.154124
7121.09, 0.152732
7130.88, 0.151107
7140.71, 0.148863
7150.56, 0.146464
7160.43, 0.143679
7170.33, 0.139501
7180.27, 0.135168
7190.23, 0.133853
7200.21, 0.133543
7210.23, 0.131686
7220.27, 0.130913
7230.34, 0.131841
7240.44, 0.133079
7250.56, 0.134008
7260.72, 0.134008
7270.9, 0.132924
7281.12, 0.131841
7291.36, 0.130681
7301.63, 0.129597
7311.93, 0.128437
7322.25, 0.127276
7332.61, 0.126116
7343.0, 0.125110
7353.41, 0.124104
7363.86, 0.123098
7374.33, 0.122325
7384.83, 0.121473
7395.37, 0.120700
7405.93, 0.119771
7416.53, 0.118920
7427.15, 0.118146
7437.81, 0.117373
7448.5, 0.116444
7459.22, 0.115748
7469.96, 0.115284
7480.74, 0.114742
7491.55, 0.114046
7502.39, 0.113195
7513.27, 0.112576
7524.17, 0.112111
7535.11, 0.111725
7546.08, 0.111338
7557.08, 0.111183
7568.11, 0.110796
7579.17, 0.110487
7590.27, 0.110409
7601.4, 0.110177
7612.56, 0.109790
7623.76, 0.109713
7634.98, 0.110022
7646.24, 0.110409
7657.54, 0.110719
7668.87, 0.111183
7680.23, 0.112034
7691.62, 0.113659
7703.05, 0.116290
7714.51, 0.119307
7726.01, 0.122479
7737.54, 0.125574
7749.11, 0.128127
7760.71, 0.129984
7772.35, 0.130758
7784.02, 0.130835
7795.72, 0.130526
7807.46, 0.129984
7819.23, 0.129597
7831.04, 0.129597
7842.89, 0.129830
7854.77, 0.130294
7866.69, 0.130681
7878.65, 0.131068
7890.64, 0.131609
7902.67, 0.132615
7914.74, 0.133930
7926.84, 0.135787
7938.98, 0.138031
7951.16, 0.140584
7963.37, 0.143447
7975.62, 0.147161
7987.91, 0.151880
8000.24, 0.156523
8012.6, 0.159463
8025.01, 0.159695
8037.45, 0.157683
8049.93, 0.154588
8062.45, 0.151880
8075.01, 0.150256
8087.61, 0.148708
8100.24, 0.146155
8112.91, 0.143602
8125.63, 0.142905
8138.39, 0.144685
8151.18, 0.148863
8164.02, 0.154898
8176.9, 0.161707
8189.81, 0.168206
8202.77, 0.174318
8215.77, 0.179115
8228.82, 0.181204
8241.9, 0.180817
8255.02, 0.179812
8268.19, 0.179347
8281.39, 0.179270
8294.65, 0.178806
8307.94, 0.177877
8321.28, 0.176562
8334.66, 0.174473
8348.08, 0.171688
8361.54, 0.168051
8375.05, 0.164492
8388.6, 0.163022
8402.2, 0.165111
8415.84, 0.169599
8429.52, 0.174396
8443.25, 0.178342
8457.02, 0.180817
8470.84, 0.181204
8484.7, 0.178961
8498.61, 0.174086
8512.57, 0.169444
8526.57, 0.168515
8540.62, 0.170527
8554.71, 0.171688
8568.85, 0.171610
8583.04, 0.173467
8597.27, 0.179115
8611.55, 0.186620
8625.88, 0.192810
8640.26, 0.195905
8654.68, 0.196060
8669.16, 0.196524
8683.68, 0.199928
8698.25, 0.206273
8712.87, 0.212617
8727.53, 0.213700
8742.25, 0.209213
8757.02, 0.203487
8771.83, 0.198768
8786.7, 0.194590
8801.62, 0.190644
8816.59, 0.186620
8831.61, 0.182442
8846.68, 0.179657
8861.8, 0.179038
8876.97, 0.180972
8892.2, 0.184609
8907.48, 0.188941
8922.81, 0.193274
8938.2, 0.196756
8953.63, 0.199464
8969.13, 0.202404
8984.67, 0.205576
9000.27, 0.208981
9015.92, 0.212540
9031.63, 0.216486
9047.39, 0.220973
9063.21, 0.225770
9079.08, 0.229871
9095.01, 0.233198
9111.0, 0.235597
9127.04, 0.238227
9143.13, 0.241864
9159.28, 0.245191
9175.49, 0.246583
9191.76, 0.246970
9208.09, 0.246661
9224.47, 0.242715
9240.92, 0.230103
9257.42, 0.203100
9273.98, 0.155440
9290.6, 0.109713
9307.28, 0.0995000
9324.02, 0.129288
9340.82, 0.179270
9357.68, 0.215712
9374.6, 0.230645
9391.58, 0.233121
9408.62, 0.232656
9425.73, 0.232579
9442.9, 0.232192
9460.13, 0.231883
9477.42, 0.223294
9494.78, 0.222753
9512.2, 0.238846
9529.69, 0.247899
9547.24, 0.251226
9564.86, 0.253005
9582.54, 0.253934
9600.28, 0.253160
9618.1, 0.252077
9635.97, 0.252696
9653.92, 0.255868
9671.93, 0.259427
9690.01, 0.262677
9708.16, 0.264688
9726.37, 0.265926
9744.65, 0.266236
9763.0, 0.266468
9781.43, 0.266468
9799.92, 0.267319
9818.48, 0.270414
9837.1, 0.276526
9855.8, 0.282097
9874.58, 0.284728
9893.42, 0.283876
9912.34, 0.281246
9931.33, 0.280240
9950.39, 0.284495
9969.52, 0.291768
9988.74, 0.298732
10008.0, 0.302368
10027.4, 0.302446
10046.8, 0.302136
10066.3, 0.303451
10085.9, 0.306314
10105.6, 0.309409
10125.3, 0.309873
10145.1, 0.307320
10165.0, 0.303065
10185.0, 0.299583
10205.0, 0.300743
10225.2, 0.306933
10245.4, 0.311962
10265.7, 0.316140
10286.0, 0.323259
10306.5, 0.332002
10327.0, 0.338578
10347.6, 0.340822
10368.3, 0.338423
10389.1, 0.334555
10409.9, 0.329448
10430.9, 0.321556
10451.9, 0.311189
10473.0, 0.301208
10494.2, 0.292387
10515.5, 0.284109
10536.9, 0.274669
10558.4, 0.264301
10579.9, 0.253856
10601.5, 0.246196
10623.3, 0.244107
10645.1, 0.247202
10667.0, 0.252541
10689.0, 0.259582
10711.1, 0.267474
10733.2, 0.273818
10755.5, 0.275366
10777.9, 0.270027
10800.3, 0.257957
10822.9, 0.242251
10845.5, 0.224378
10868.2, 0.206350
10891.1, 0.190334
10914.0, 0.177955
10937.0, 0.168902
10960.2, 0.162248
10983.4, 0.156678
11006.7, 0.151262
11030.1, 0.143989
11053.6, 0.130681
11077.3, 0.110564
11101.0, 0.100196
11124.8, 0.108011
11148.7, 0.117760
11172.7, 0.122247
11196.9, 0.123872
11221.1, 0.124336
11245.4, 0.124723
11269.9, 0.128127
11294.4, 0.141435
11319.1, 0.180431
11343.9, 0.250065
11368.8, 0.300202
11393.7, 0.292619
11418.8, 0.261671
11444.0, 0.236525
11469.4, 0.212462
11494.8, 0.183061
11520.3, 0.158689
11546.0, 0.145536
11571.8, 0.139501
11597.7, 0.136638
11623.7, 0.134240
11649.8, 0.128437
11676.0, 0.123330
11702.4, 0.131300
11728.9, 0.149172
11755.5, 0.168051
11782.2, 0.188245
11809.0, 0.209135
11836.0, 0.230413
11863.0, 0.253392
11890.3, 0.274669
11917.6, 0.290763
11945.0, 0.301362
11972.6, 0.307862
12000.4, 0.312194
12028.2, 0.315444
12056.2, 0.317456
12084.3, 0.318926
12112.5, 0.322330
12140.9, 0.327282
12169.4, 0.331924
12198.0, 0.337572
12226.8, 0.347244
12255.7, 0.359701
12284.7, 0.371538
12313.9, 0.380514
12343.2, 0.385543
12372.7, 0.388406
12402.3, 0.389489
12432.0, 0.389257
12461.9, 0.388251
12491.9, 0.387168
12522.1, 0.385775
12552.4, 0.383376
12582.9, 0.379430
12613.5, 0.375020
12644.3, 0.370997
12675.2, 0.367438
12706.3, 0.364111
12737.5, 0.361480
12768.9, 0.361480
12800.4, 0.365349
12832.1, 0.370765
12863.9, 0.376955
12895.9, 0.384305
12928.1, 0.395059
12960.4, 0.407748
12992.9, 0.419199
13025.5, 0.428329
13058.3, 0.436995
13091.3, 0.445351
13124.4, 0.452314
13157.8, 0.457189
13191.2, 0.460980
13224.9, 0.463146
13258.7, 0.463765
13292.7, 0.462837
13326.9, 0.460438
13361.2, 0.455874
13395.7, 0.449839
13430.4, 0.442334
13465.3, 0.433745
13500.4, 0.423764
13535.7, 0.412313
13571.1, 0.398619
13606.7, 0.383067
13642.5, 0.366587
13678.5, 0.350493
13714.7, 0.332775
13751.1, 0.311498
13787.6, 0.284805
13824.4, 0.248827
13861.4, 0.192501
13898.5, 0.130835
13935.9, 0.0963280
13973.5, 0.0701760
14011.2, 0.0492080
14049.2, 0.0528450
14087.4, 0.0850310
14125.8, 0.103601
14164.3, 0.0953220
14203.2, 0.0953220
14242.2, 0.111879
14281.4, 0.139578
14320.9, 0.180972
14360.5, 0.199232
14400.4, 0.208826
14440.5, 0.246893
14480.9, 0.280627
14521.4, 0.302987
14562.2, 0.320164
14603.3, 0.337263
14644.5, 0.356064
14686.0, 0.376722
14727.7, 0.396607
14769.7, 0.414402
14811.9, 0.426782
14854.3, 0.433591
14897.0, 0.436299
14939.9, 0.437459
14983.1, 0.438001
15026.5, 0.439239
15070.2, 0.441947
15114.2, 0.446047
15158.3, 0.448833
15202.8, 0.450535
15247.5, 0.450922
15292.5, 0.449684
15337.7, 0.447131
15383.2, 0.442952
15429.0, 0.436995
15475.1, 0.432275
15521.4, 0.428252
15568.0, 0.424848
15614.9, 0.423919
15662.1, 0.426782
15709.6, 0.429180
15757.3, 0.428716
15805.4, 0.425467
15853.7, 0.422062
15902.3, 0.419896
15951.2, 0.419586
16000.5, 0.417807
16050.0, 0.413551
16099.8, 0.406588
16150.0, 0.401946
16200.5, 0.405118
16251.3, 0.412855
16302.4, 0.418348
16353.8, 0.419432
16405.5, 0.417033
16457.6, 0.417343
16510.0, 0.421753
16562.8, 0.426085
16615.9, 0.426937
16669.3, 0.423610
16723.1, 0.417884
16777.2, 0.416259
16831.7, 0.417110
16886.5, 0.415253
16941.7, 0.409760
16997.2, 0.408367
17053.1, 0.411694
17109.4, 0.412468
17166.1, 0.407362
17223.1, 0.398232
17280.5, 0.385698
17338.3, 0.371925
17396.5, 0.360088
17455.1, 0.356374
17514.0, 0.359004
17573.4, 0.361093
17633.2, 0.359546
17693.4, 0.353588
17754.0, 0.342834
17815.0, 0.333549
17876.4, 0.330686
17938.3, 0.329990
18000.5, 0.328752
18063.3, 0.330532
18126.4, 0.333394
18190.0, 0.334091
18254.1, 0.334168
18318.6, 0.335251
18383.5, 0.337418
18449.0, 0.340203
18514.9, 0.341750
18581.2, 0.343685
18648.0, 0.345387
18715.4, 0.343607
18783.2, 0.337108
18851.5, 0.330222
18920.3, 0.324729
18989.6, 0.320551
19059.4, 0.316682
19129.7, 0.314593
19200.6, 0.313432
19272.0, 0.313432
19343.9, 0.313278
19416.3, 0.310724
19489.3, 0.307243
19562.8, 0.304767
19637.0, 0.301749
19711.6, 0.298887
19786.8, 0.297107
19862.6, 0.294631
19939.0, 0.290763
20016.0, 0.286043
20093.6, 0.280008
20171.8, 0.274747
20250.6, 0.268170
20330.0, 0.262367
20410.0, 0.257415
20490.7, 0.251535
20572.0, 0.244262
20654.0, 0.238150
20736.6, 0.231573
20819.9, 0.225461
20903.8, 0.219735
20988.5, 0.215016
21073.8, 0.211611
21159.8, 0.207279
21246.5, 0.202946
21334.0, 0.198149
21422.1, 0.192114
21511.0, 0.186079
21600.7, 0.178651
21691.0, 0.170604
21782.1, 0.161552
21874.0, 0.153196
21966.7, 0.145072
22060.2, 0.137335
22154.5, 0.130758
22249.6, 0.123949
22345.5, 0.118765
22442.2, 0.115438
22539.8, 0.111957
22638.2, 0.109713
22737.5, 0.107314
22837.7, 0.107237
22938.7, 0.105844
23040.7, 0.104761
23143.5, 0.104452
23247.3, 0.101666
23352.1, 0.0965600
23457.7, 0.0910660
23564.4, 0.0897510
23672.0, 0.0891320
23780.5, 0.0827100
23890.1, 0.0788420
24000.7, 0.0745860
