Database of Origin, USGS Spectral Database
Sample Description, See USGS database for additional info
Date Added,2016-08-10 05:23:00.491248

Data ID,USGS_pec04          
Sample ID, pectolite_nmnh94865.17514
Mineral Name, pectolite
Material Class,Inosilicate

Wavelength
1637.45, 0.661022
1637.96, 0.661022
1638.48, 0.661077
1639.0, 0.661077
1639.52, 0.661403
1640.04, 0.661675
1640.56, 0.661620
1641.08, 0.661675
1641.59, 0.661892
1642.11, 0.662001
1642.63, 0.661892
1643.16, 0.661784
1643.68, 0.661947
1644.2, 0.662001
1644.72, 0.662110
1645.24, 0.662327
1645.76, 0.662219
1646.29, 0.661947
1646.81, 0.662001
1647.33, 0.662219
1647.86, 0.662219
1648.38, 0.661947
1648.9, 0.662164
1649.43, 0.662382
1649.95, 0.662382
1650.48, 0.662327
1651.0, 0.662436
1651.53, 0.662545
1652.06, 0.662382
1652.58, 0.662382
1653.11, 0.662654
1653.64, 0.662599
1654.17, 0.662490
1654.69, 0.662436
1655.22, 0.662490
1655.75, 0.662490
1656.28, 0.662273
1656.81, 0.662436
1657.34, 0.662817
1657.87, 0.662817
1658.4, 0.662545
1658.93, 0.662708
1659.46, 0.662817
1659.99, 0.662708
1660.52, 0.662599
1661.05, 0.662490
1661.59, 0.662708
1662.12, 0.662708
1662.65, 0.662762
1663.19, 0.662817
1663.72, 0.662871
1664.26, 0.662762
1664.79, 0.662871
1665.32, 0.662708
1665.86, 0.662925
1666.39, 0.663197
1666.93, 0.663197
1667.47, 0.662980
1668.0, 0.662925
1668.54, 0.662871
1669.08, 0.663088
1669.61, 0.663360
1670.15, 0.663197
1670.69, 0.663360
1671.23, 0.663687
1671.77, 0.663415
1672.31, 0.663306
1672.85, 0.663306
1673.39, 0.663469
1673.93, 0.663687
1674.47, 0.663850
1675.01, 0.663850
1675.55, 0.663795
1676.09, 0.663578
1676.64, 0.663632
1677.18, 0.663795
1677.72, 0.663741
1678.26, 0.663850
1678.81, 0.664067
1679.35, 0.664067
1679.89, 0.664230
1680.44, 0.664230
1680.98, 0.664230
1681.53, 0.663958
1682.07, 0.664013
1682.62, 0.664013
1683.17, 0.664013
1683.71, 0.664176
1684.26, 0.664230
1684.81, 0.664121
1685.36, 0.664393
1685.9, 0.664448
1686.45, 0.664230
1687.0, 0.664013
1687.55, 0.664285
1688.1, 0.664230
1688.65, 0.664339
1689.2, 0.664230
1689.75, 0.664393
1690.3, 0.664339
1690.85, 0.664502
1691.41, 0.664665
1691.96, 0.664883
1692.51, 0.664883
1693.06, 0.664611
1693.61, 0.664611
1694.17, 0.664720
1694.72, 0.664828
1695.28, 0.664720
1695.83, 0.664665
1696.39, 0.664828
1696.94, 0.664611
1697.5, 0.664448
1698.05, 0.664556
1698.61, 0.664937
1699.17, 0.664828
1699.72, 0.664611
1700.28, 0.664556
1700.84, 0.664448
1701.4, 0.664720
1701.95, 0.664665
1702.51, 0.664556
1703.07, 0.664502
1703.63, 0.664448
1704.19, 0.664448
1704.75, 0.664448
1705.31, 0.664448
1705.88, 0.664665
1706.44, 0.664556
1707.0, 0.664393
1707.56, 0.664448
1708.12, 0.664448
1708.69, 0.664393
1709.25, 0.664339
1709.81, 0.664230
1710.38, 0.663958
1710.94, 0.664339
1711.51, 0.664502
1712.07, 0.664339
1712.64, 0.664067
1713.2, 0.664067
1713.77, 0.664176
1714.34, 0.664285
1714.9, 0.664067
1715.47, 0.664013
1716.04, 0.664013
1716.61, 0.664013
1717.18, 0.664013
1717.74, 0.663795
1718.31, 0.663741
1718.88, 0.663795
1719.45, 0.663523
1720.02, 0.663523
1720.59, 0.663632
1721.17, 0.663795
1721.74, 0.663795
1722.31, 0.663687
1722.88, 0.663415
1723.45, 0.663252
1724.03, 0.663197
1724.6, 0.663469
1725.18, 0.663469
1725.75, 0.662925
1726.33, 0.662925
1726.9, 0.663034
1727.48, 0.662980
1728.05, 0.662762
1728.63, 0.662817
1729.2, 0.663088
1729.78, 0.663143
1730.36, 0.663088
1730.94, 0.662980
1731.51, 0.662762
1732.09, 0.662599
1732.67, 0.662382
1733.25, 0.662436
1733.83, 0.662436
1734.41, 0.662490
1734.99, 0.662654
1735.57, 0.662545
1736.15, 0.662273
1736.73, 0.662110
1737.32, 0.662001
1737.9, 0.662001
1738.48, 0.662219
1739.07, 0.662001
1739.65, 0.662110
1740.23, 0.662219
1740.82, 0.662164
1741.4, 0.661892
1741.99, 0.661892
1742.57, 0.661947
1743.16, 0.662055
1743.74, 0.661892
1744.33, 0.661784
1744.92, 0.661838
1745.51, 0.661675
1746.09, 0.661620
1746.68, 0.661784
1747.27, 0.661729
1747.86, 0.661512
1748.45, 0.661457
1749.04, 0.661457
1749.63, 0.661403
1750.22, 0.661403
1750.81, 0.661349
1751.4, 0.661186
1751.99, 0.661022
1752.59, 0.661131
1753.18, 0.661186
1753.77, 0.661403
1754.37, 0.661240
1754.96, 0.661240
1755.56, 0.661077
1756.15, 0.660696
1756.74, 0.660968
1757.34, 0.661022
1757.94, 0.660805
1758.53, 0.660914
1759.13, 0.660805
1759.73, 0.660696
1760.32, 0.660751
1760.92, 0.660696
1761.52, 0.660587
1762.12, 0.660261
1762.72, 0.660533
1763.32, 0.660805
1763.92, 0.660587
1764.52, 0.660533
1765.12, 0.660587
1765.72, 0.660587
1766.32, 0.660479
1766.92, 0.660479
1767.53, 0.660316
1768.13, 0.660316
1768.73, 0.660370
1769.34, 0.660152
1769.94, 0.659989
1770.55, 0.660152
1771.15, 0.660479
1771.76, 0.660533
1772.36, 0.660207
1772.97, 0.659935
1773.57, 0.659989
1774.18, 0.659989
1774.79, 0.659989
1775.4, 0.659772
1776.0, 0.659718
1776.61, 0.659989
1777.22, 0.660098
1777.83, 0.659772
1778.44, 0.659881
1779.05, 0.659826
1779.66, 0.659554
1780.27, 0.659337
1780.88, 0.659391
1781.5, 0.659446
1782.11, 0.659119
1782.72, 0.659174
1783.33, 0.659500
1783.95, 0.659337
1784.56, 0.659228
1785.18, 0.659174
1785.79, 0.659065
1786.41, 0.659119
1787.02, 0.659011
1787.64, 0.658902
1788.26, 0.658902
1788.87, 0.659011
1789.49, 0.659011
1790.11, 0.658902
1790.73, 0.658739
1791.35, 0.658685
1791.96, 0.658685
1792.58, 0.658467
1793.21, 0.658467
1793.83, 0.658250
1794.45, 0.658086
1795.07, 0.658195
1795.69, 0.658195
1796.31, 0.657978
1796.93, 0.657978
1797.56, 0.658086
1798.18, 0.658195
1798.8, 0.658032
1799.43, 0.657869
1800.05, 0.657597
1800.68, 0.657488
1801.3, 0.657597
1801.93, 0.657652
1802.56, 0.657760
1803.18, 0.657706
1803.81, 0.657652
1804.44, 0.657597
1805.07, 0.657271
1805.7, 0.656890
1806.33, 0.656999
1806.95, 0.656890
1807.58, 0.656836
1808.22, 0.656782
1808.85, 0.656618
1809.48, 0.656836
1810.11, 0.656673
1810.74, 0.656238
1811.38, 0.656184
1812.01, 0.656238
1812.64, 0.656075
1813.28, 0.656238
1813.91, 0.656184
1814.55, 0.655694
1815.18, 0.655042
1815.82, 0.655096
1816.45, 0.655477
1817.09, 0.655531
1817.73, 0.655422
1818.36, 0.655422
1819.0, 0.655314
1819.64, 0.654444
1820.28, 0.653519
1820.92, 0.654118
1821.56, 0.654226
1822.2, 0.654498
1822.84, 0.655042
1823.48, 0.655205
1824.12, 0.655151
1824.76, 0.655042
1825.41, 0.653846
1826.05, 0.652432
1826.69, 0.653519
1827.34, 0.654389
1827.98, 0.653574
1828.63, 0.653411
1829.27, 0.653737
1829.92, 0.653411
1830.56, 0.652541
1831.21, 0.652595
1831.86, 0.653193
1832.5, 0.653248
1833.15, 0.653628
1833.8, 0.653954
1834.45, 0.652976
1835.1, 0.652215
1835.75, 0.651345
1836.4, 0.651182
1837.05, 0.651073
1837.7, 0.650747
1838.35, 0.652269
1839.01, 0.651888
1839.66, 0.650312
1840.31, 0.651127
1840.96, 0.650964
1841.62, 0.649116
1842.27, 0.650257
1842.93, 0.651834
1843.58, 0.652052
1844.24, 0.652052
1844.9, 0.652106
1845.55, 0.651562
1846.21, 0.649659
1846.87, 0.647811
1847.53, 0.648191
1848.18, 0.648844
1848.84, 0.650366
1849.5, 0.650692
1850.16, 0.650692
1850.82, 0.650801
1851.48, 0.651073
1852.14, 0.650257
1852.81, 0.648952
1853.47, 0.647539
1854.13, 0.648409
1854.8, 0.649931
1855.46, 0.649605
1856.12, 0.647919
1856.79, 0.647865
1857.45, 0.649224
1858.12, 0.649550
1858.79, 0.648246
1859.45, 0.646343
1860.12, 0.646941
1860.79, 0.648137
1861.46, 0.648735
1862.12, 0.648572
1862.79, 0.648409
1863.46, 0.647919
1864.13, 0.647484
1864.8, 0.647539
1865.48, 0.647756
1866.15, 0.647484
1866.82, 0.646125
1867.49, 0.643950
1868.16, 0.644712
1868.84, 0.645636
1869.51, 0.645092
1870.19, 0.643244
1870.86, 0.641884
1871.54, 0.644331
1872.21, 0.643842
1872.89, 0.641721
1873.56, 0.642700
1874.24, 0.644059
1874.92, 0.643679
1875.6, 0.643787
1876.28, 0.643081
1876.96, 0.642374
1877.64, 0.643352
1878.32, 0.643842
1879.0, 0.643733
1879.68, 0.643679
1880.36, 0.643407
1881.04, 0.643026
1881.73, 0.643189
1882.41, 0.642863
1883.09, 0.641939
1883.78, 0.640960
1884.46, 0.641341
1885.15, 0.641830
1885.83, 0.641667
1886.52, 0.641449
1887.21, 0.641558
1887.89, 0.641232
1888.58, 0.640797
1889.27, 0.639818
1889.96, 0.638677
1890.65, 0.639383
1891.34, 0.639655
1892.03, 0.639166
1892.72, 0.639112
1893.41, 0.638459
1894.1, 0.638350
1894.79, 0.638514
1895.49, 0.638622
1896.18, 0.638187
1896.87, 0.637480
1897.57, 0.636774
1898.26, 0.636502
1898.96, 0.635088
1899.65, 0.634218
1900.35, 0.635143
1901.05, 0.636121
1901.74, 0.636176
1902.44, 0.634653
1903.14, 0.634490
1903.84, 0.635469
1904.54, 0.634381
1905.24, 0.633077
1905.94, 0.633131
1906.64, 0.633403
1907.34, 0.634545
1908.04, 0.634871
1908.75, 0.634490
1909.45, 0.634327
1910.15, 0.634055
1910.86, 0.633240
1911.56, 0.633077
1912.27, 0.633022
1912.97, 0.631554
1913.68, 0.631011
1914.39, 0.632370
1915.09, 0.632805
1915.8, 0.632424
1916.51, 0.632152
1917.22, 0.632207
1917.93, 0.632207
1918.64, 0.631717
1919.35, 0.630195
1920.06, 0.628618
1920.77, 0.628836
1921.48, 0.630521
1922.19, 0.630956
1922.91, 0.630739
1923.62, 0.629760
1924.33, 0.629706
1925.05, 0.630086
1925.76, 0.629978
1926.48, 0.629543
1927.19, 0.629325
1927.91, 0.628727
1928.63, 0.628455
1929.35, 0.628727
1930.07, 0.628618
1930.78, 0.628401
1931.5, 0.628346
1932.22, 0.628238
1932.94, 0.627857
1933.66, 0.627477
1934.39, 0.627640
1935.11, 0.627585
1935.83, 0.627042
1936.55, 0.626715
1937.28, 0.626824
1938.0, 0.626498
1938.73, 0.625845
1939.45, 0.625682
1940.18, 0.625682
1940.9, 0.625519
1941.63, 0.625465
1942.36, 0.625465
1943.09, 0.624976
1943.81, 0.624595
1944.54, 0.624541
1945.27, 0.624432
1946.0, 0.624160
1946.73, 0.624106
1947.47, 0.623834
1948.2, 0.623562
1948.93, 0.623453
1949.66, 0.623236
1950.4, 0.623181
1951.13, 0.622909
1951.86, 0.622475
1952.6, 0.622148
1953.34, 0.621931
1954.07, 0.621659
1954.81, 0.621659
1955.55, 0.621387
1956.29, 0.621224
1957.02, 0.620735
1957.76, 0.620463
1958.5, 0.620409
1959.24, 0.620137
1959.98, 0.620028
1960.72, 0.619756
1961.47, 0.619267
1962.21, 0.618995
1962.95, 0.618777
1963.7, 0.618614
1964.44, 0.618451
1965.18, 0.618234
1965.93, 0.617908
1966.67, 0.617473
1967.42, 0.617255
1968.17, 0.617146
1968.92, 0.616983
1969.66, 0.616603
1970.41, 0.616331
1971.16, 0.616113
1971.91, 0.615733
1972.66, 0.615570
1973.41, 0.615352
1974.16, 0.615026
1974.92, 0.614972
1975.67, 0.614645
1976.42, 0.614319
1977.18, 0.614156
1977.93, 0.613884
1978.69, 0.613612
1979.44, 0.613449
1980.2, 0.613341
1980.95, 0.613123
1981.71, 0.612688
1982.47, 0.612525
1983.23, 0.612362
1983.99, 0.611981
1984.74, 0.611492
1985.51, 0.611220
1986.27, 0.610948
1987.03, 0.610948
1987.79, 0.610568
1988.55, 0.610241
1989.32, 0.610187
1990.08, 0.610024
1990.84, 0.609752
1991.61, 0.609480
1992.37, 0.609045
1993.14, 0.608719
1993.9, 0.608556
1994.67, 0.608339
1995.44, 0.608121
1996.21, 0.607904
1996.98, 0.607686
1997.75, 0.607469
1998.52, 0.607306
1999.29, 0.606925
2000.06, 0.606762
2000.83, 0.606544
2001.6, 0.606381
2002.38, 0.606055
2003.15, 0.605729
2003.93, 0.605457
2004.7, 0.605131
2005.48, 0.604968
2006.25, 0.604859
2007.03, 0.604587
2007.81, 0.604370
2008.58, 0.604315
2009.36, 0.604098
2010.14, 0.604043
2010.92, 0.603826
2011.7, 0.603500
2012.48, 0.603282
2013.26, 0.603065
2014.05, 0.602630
2014.83, 0.602467
2015.61, 0.602412
2016.4, 0.602032
2017.18, 0.601977
2017.97, 0.601814
2018.75, 0.601542
2019.54, 0.601270
2020.32, 0.600944
2021.11, 0.600672
2021.9, 0.600564
2022.69, 0.600509
2023.48, 0.600346
2024.27, 0.599966
2025.06, 0.599585
2025.85, 0.599368
2026.64, 0.599259
2027.44, 0.599041
2028.23, 0.598606
2029.02, 0.598389
2029.82, 0.598280
2030.61, 0.598008
2031.41, 0.597737
2032.2, 0.597410
2033.0, 0.596975
2033.8, 0.596921
2034.6, 0.596812
2035.4, 0.596432
2036.2, 0.596105
2037.0, 0.595779
2037.8, 0.595616
2038.6, 0.595236
2039.4, 0.594855
2040.2, 0.594692
2041.01, 0.594366
2041.81, 0.593985
2042.61, 0.593768
2043.42, 0.593441
2044.22, 0.593278
2045.03, 0.592952
2045.84, 0.592735
2046.65, 0.592463
2047.46, 0.592463
2048.26, 0.592136
2049.07, 0.591865
2049.88, 0.591430
2050.69, 0.591049
2051.51, 0.590723
2052.32, 0.590614
2053.13, 0.590397
2053.94, 0.590070
2054.76, 0.589853
2055.57, 0.589364
2056.39, 0.589037
2057.2, 0.588657
2058.02, 0.588167
2058.84, 0.588004
2059.66, 0.587733
2060.48, 0.587243
2061.29, 0.586971
2062.11, 0.586536
2062.94, 0.586156
2063.76, 0.585884
2064.58, 0.585449
2065.4, 0.585068
2066.22, 0.584905
2067.05, 0.584579
2067.87, 0.584144
2068.7, 0.583709
2069.52, 0.583437
2070.35, 0.583274
2071.18, 0.583002
2072.0, 0.582676
2072.83, 0.582078
2073.66, 0.581589
2074.49, 0.581263
2075.32, 0.580828
2076.15, 0.580556
2076.98, 0.580175
2077.82, 0.579632
2078.65, 0.579197
2079.48, 0.578925
2080.32, 0.578544
2081.15, 0.577946
2081.99, 0.577620
2082.83, 0.577348
2083.66, 0.577239
2084.5, 0.577022
2085.34, 0.576478
2086.18, 0.576043
2087.02, 0.575717
2087.86, 0.575336
2088.7, 0.575119
2089.54, 0.574630
2090.39, 0.574412
2091.23, 0.573977
2092.07, 0.573488
2092.92, 0.573107
2093.76, 0.572890
2094.61, 0.572727
2095.45, 0.572292
2096.3, 0.571857
2097.15, 0.571530
2098.0, 0.570987
2098.85, 0.570552
2099.7, 0.570226
2100.55, 0.569954
2101.4, 0.569682
2102.25, 0.569356
2103.1, 0.568975
2103.96, 0.568595
2104.81, 0.568268
2105.67, 0.567725
2106.52, 0.567235
2107.38, 0.567072
2108.24, 0.566855
2109.09, 0.566528
2109.95, 0.566039
2110.81, 0.565822
2111.67, 0.565550
2112.53, 0.565169
2113.39, 0.564843
2114.25, 0.564408
2115.12, 0.564082
2115.98, 0.563864
2116.84, 0.563538
2117.71, 0.562994
2118.58, 0.562560
2119.44, 0.562179
2120.31, 0.561961
2121.18, 0.561744
2122.04, 0.561363
2122.91, 0.561037
2123.78, 0.560874
2124.65, 0.560657
2125.52, 0.560222
2126.4, 0.559895
2127.27, 0.559624
2128.14, 0.559134
2129.02, 0.558754
2129.89, 0.558536
2130.77, 0.558264
2131.64, 0.557884
2132.52, 0.557340
2133.4, 0.557068
2134.27, 0.556905
2135.15, 0.556688
2136.03, 0.556307
2136.91, 0.555709
2137.79, 0.555220
2138.68, 0.554948
2139.56, 0.554730
2140.44, 0.554350
2141.33, 0.553969
2142.21, 0.553697
2143.1, 0.553425
2143.99, 0.553154
2144.87, 0.552719
2145.76, 0.552392
2146.65, 0.552066
2147.54, 0.551686
2148.43, 0.551196
2149.32, 0.550979
2150.21, 0.550707
2151.1, 0.550326
2151.99, 0.549783
2152.89, 0.549511
2153.78, 0.549239
2154.68, 0.548750
2155.57, 0.548260
2156.47, 0.547989
2157.37, 0.547717
2158.27, 0.547002
2159.16, 0.546417
2160.06, 0.545637
2160.96, 0.545507
2161.86, 0.545507
2162.77, 0.544532
2163.67, 0.543167
2164.57, 0.542841
2165.48, 0.542256
2166.38, 0.541606
2167.29, 0.541151
2168.2, 0.540306
2169.1, 0.539851
2170.01, 0.539461
2170.92, 0.538746
2171.83, 0.538096
2172.74, 0.537576
2173.65, 0.536666
2174.56, 0.536406
2175.47, 0.535951
2176.39, 0.534976
2177.3, 0.533741
2178.22, 0.532701
2179.13, 0.532246
2180.05, 0.532246
2180.96, 0.531466
2181.88, 0.530621
2182.8, 0.530166
2183.72, 0.529971
2184.64, 0.529126
2185.56, 0.528086
2186.48, 0.526981
2187.41, 0.526591
2188.33, 0.526526
2189.25, 0.525941
2190.18, 0.525161
2191.1, 0.523991
2192.03, 0.522756
2192.96, 0.522300
2193.89, 0.522040
2194.82, 0.521390
2195.74, 0.520870
2196.68, 0.520415
2197.61, 0.519570
2198.54, 0.518920
2199.47, 0.518400
2200.4, 0.517750
2201.34, 0.516970
2202.28, 0.516190
2203.21, 0.515670
2204.15, 0.515215
2205.08, 0.514630
2206.02, 0.513850
2206.96, 0.513395
2207.9, 0.513135
2208.84, 0.512225
2209.78, 0.511055
2210.73, 0.510600
2211.67, 0.509820
2212.61, 0.508910
2213.56, 0.508325
2214.5, 0.507610
2215.45, 0.507285
2216.4, 0.506440
2217.35, 0.505400
2218.3, 0.505205
2219.24, 0.504945
2220.2, 0.503840
2221.15, 0.503255
2222.1, 0.503125
2223.05, 0.502735
2224.0, 0.501565
2224.96, 0.500654
2225.91, 0.500069
2226.87, 0.499744
2227.83, 0.498964
2228.79, 0.498574
2229.74, 0.497729
2230.7, 0.497534
2231.66, 0.496949
2232.63, 0.496104
2233.59, 0.495519
2234.55, 0.494869
2235.51, 0.493959
2236.48, 0.493114
2237.44, 0.492659
2238.41, 0.492334
2239.38, 0.491554
2240.34, 0.490709
2241.31, 0.489994
2242.28, 0.489279
2243.25, 0.488694
2244.22, 0.487914
2245.19, 0.487394
2246.17, 0.486549
2247.14, 0.485834
2248.12, 0.485119
2249.09, 0.484339
2250.07, 0.484014
2251.04, 0.483364
2252.02, 0.482454
2253.0, 0.481674
2253.98, 0.481088
2254.96, 0.480763
2255.94, 0.480048
2256.92, 0.479658
2257.91, 0.478878
2258.89, 0.477838
2259.88, 0.477123
2260.86, 0.476538
2261.85, 0.475693
2262.83, 0.475368
2263.82, 0.474978
2264.81, 0.474003
2265.8, 0.473548
2266.79, 0.472768
2267.78, 0.472118
2268.78, 0.471598
2269.77, 0.470818
2270.76, 0.469713
2271.76, 0.468998
2272.75, 0.468023
2273.75, 0.467503
2274.75, 0.467048
2275.75, 0.466398
2276.75, 0.465813
2277.75, 0.465488
2278.75, 0.464708
2279.75, 0.463798
2280.75, 0.463343
2281.76, 0.462758
2282.76, 0.462173
2283.77, 0.461328
2284.77, 0.460222
2285.78, 0.459702
2286.79, 0.459247
2287.8, 0.458662
2288.81, 0.457622
2289.82, 0.456777
2290.83, 0.456322
2291.84, 0.455867
2292.86, 0.455477
2293.87, 0.454697
2294.89, 0.453787
2295.91, 0.453137
2296.92, 0.452357
2297.94, 0.451707
2298.96, 0.451057
2299.98, 0.450407
2301.0, 0.449757
2302.02, 0.449172
2303.04, 0.448912
2304.07, 0.448457
2305.09, 0.447287
2306.12, 0.446702
2307.15, 0.446637
2308.17, 0.446247
2309.2, 0.445532
2310.23, 0.444687
2311.26, 0.443842
2312.29, 0.443192
2313.32, 0.442542
2314.35, 0.441957
2315.39, 0.441307
2316.42, 0.440722
2317.46, 0.439876
2318.5, 0.439226
2319.53, 0.438966
2320.57, 0.438706
2321.61, 0.438186
2322.65, 0.437406
2323.69, 0.436756
2324.73, 0.436691
2325.78, 0.436236
2326.82, 0.435521
2327.86, 0.434611
2328.91, 0.434286
2329.96, 0.433896
2331.01, 0.433181
2332.05, 0.432661
2333.1, 0.432206
2334.15, 0.431361
2335.21, 0.430516
2336.26, 0.429801
2337.31, 0.429411
2338.36, 0.429151
2339.42, 0.428371
2340.48, 0.427526
2341.53, 0.427266
2342.59, 0.426681
2343.65, 0.426096
2344.71, 0.425511
2345.77, 0.425381
2346.83, 0.425056
2347.9, 0.424406
2348.96, 0.423626
2350.02, 0.422846
2351.09, 0.422001
2352.16, 0.421611
2353.23, 0.421156
2354.29, 0.420636
2355.36, 0.420181
2356.43, 0.419660
2357.51, 0.419010
2358.58, 0.418685
2359.65, 0.418230
2360.73, 0.417905
2361.8, 0.417450
2362.88, 0.416735
2363.96, 0.415565
2365.03, 0.414525
2366.11, 0.414330
2367.19, 0.414330
2368.27, 0.413745
2369.36, 0.413160
2370.44, 0.412510
2371.53, 0.412315
2372.61, 0.411665
2373.7, 0.410950
2374.78, 0.410495
2375.87, 0.410170
2376.96, 0.409650
2378.05, 0.409065
2379.14, 0.408415
2380.24, 0.407700
2381.33, 0.407115
2382.42, 0.406725
2383.52, 0.406335
2384.61, 0.405750
2385.71, 0.405230
2386.81, 0.404710
2387.91, 0.404385
2389.01, 0.404255
2390.11, 0.403930
2391.22, 0.403280
2392.32, 0.402565
2393.42, 0.401980
2394.53, 0.401070
2395.64, 0.400420
2396.74, 0.400355
2397.85, 0.400225
2398.96, 0.399510
2400.07, 0.398664
2401.18, 0.398014
2402.3, 0.397559
2403.41, 0.396974
2404.52, 0.396779
2405.64, 0.396714
2406.76, 0.396194
2407.88, 0.395349
2408.99, 0.394764
2410.11, 0.394504
2411.23, 0.394114
2412.36, 0.393594
2413.48, 0.392814
2414.6, 0.391904
2415.73, 0.391319
2416.85, 0.390734
2417.98, 0.390539
2419.11, 0.389954
2420.24, 0.389239
2421.37, 0.388719
2422.5, 0.388459
2423.64, 0.387939
2424.77, 0.387419
2425.9, 0.386769
2427.04, 0.386054
2428.18, 0.385534
2429.31, 0.384884
2430.45, 0.384494
2431.59, 0.384559
2432.73, 0.384039
2433.88, 0.383519
2435.02, 0.382804
2436.16, 0.382219
2437.31, 0.381764
2438.45, 0.381439
2439.6, 0.380789
2440.75, 0.380269
2441.9, 0.379554
2443.05, 0.378969
2444.2, 0.378448
2445.35, 0.378188
2446.51, 0.377733
2447.67, 0.377083
2448.82, 0.376563
2449.98, 0.376303
2451.14, 0.375718
2452.3, 0.375198
2453.46, 0.374743
2454.62, 0.374483
2455.78, 0.373898
2456.94, 0.373248
2458.11, 0.372728
2459.28, 0.372013
2460.44, 0.371233
2461.61, 0.371298
2462.78, 0.370778
2463.95, 0.370258
2465.12, 0.369868
2466.3, 0.369543
2467.47, 0.369348
2468.65, 0.368763
2469.82, 0.368048
2471.0, 0.367463
2472.18, 0.367008
2473.36, 0.366683
2474.54, 0.366163
2475.72, 0.365773
2476.9, 0.365058
2478.08, 0.364408
2479.27, 0.364148
2480.46, 0.363498
2481.64, 0.362783
2482.83, 0.362653
2484.02, 0.362393
2485.21, 0.361938
2486.4, 0.361353
2487.6, 0.360768
2488.79, 0.360248
2489.99, 0.359793
2491.18, 0.359208
2492.38, 0.358818
2493.58, 0.358557
2494.78, 0.358232
2495.98, 0.357322
2497.18, 0.356802
2498.39, 0.356672
2499.59, 0.356217
2500.8, 0.355632
2502.01, 0.354852
2503.21, 0.354332
2504.42, 0.353812
2505.63, 0.353357
2506.84, 0.352837
2508.06, 0.352252
2509.27, 0.351927
2510.49, 0.351732
2511.7, 0.351212
2512.92, 0.350432
2514.14, 0.349652
2515.36, 0.349067
2516.58, 0.348742
2517.8, 0.348352
2519.03, 0.347962
2520.25, 0.347572
2521.48, 0.347312
2522.7, 0.346467
2523.93, 0.345752
2525.16, 0.344972
2526.39, 0.344452
2527.62, 0.343997
2528.86, 0.343542
2530.09, 0.342762
2531.33, 0.342372
2532.56, 0.342112
2533.8, 0.341527
2535.04, 0.340942
2536.28, 0.340682
2537.52, 0.340162
2538.76, 0.339252
2540.01, 0.338537
2541.25, 0.338017
2542.5, 0.337496
2543.75, 0.337171
2544.99, 0.336521
2546.24, 0.335481
2547.49, 0.334766
2548.75, 0.334506
2550.0, 0.333791
2551.26, 0.332881
2552.51, 0.332231
2553.77, 0.332166
2555.03, 0.331776
2556.29, 0.330866
2557.55, 0.330281
2558.81, 0.329436
2560.08, 0.328266
2561.34, 0.327356
2562.61, 0.326706
2563.88, 0.326446
2565.14, 0.326446
2566.41, 0.326056
2567.68, 0.325016
2568.96, 0.323781
2570.23, 0.323196
2571.51, 0.322676
2572.78, 0.321831
2574.06, 0.321766
2575.34, 0.320921
2576.62, 0.319816
2577.9, 0.319491
2579.18, 0.319101
2580.47, 0.318126
2581.75, 0.317280
2583.04, 0.315980
2584.32, 0.315915
2585.61, 0.315395
2586.9, 0.314420
2588.2, 0.313900
2589.49, 0.313315
2590.78, 0.312535
2592.08, 0.310975
2593.37, 0.308505
2594.67, 0.307660
2595.97, 0.308960
2597.27, 0.309480
2598.57, 0.308830
2599.88, 0.307725
2601.18, 0.306685
2602.49, 0.305775
2603.79, 0.304540
2605.1, 0.303825
2606.41, 0.303565
2607.72, 0.303045
2609.03, 0.302525
2610.35, 0.302070
2611.66, 0.301420
2612.98, 0.300575
2614.3, 0.299795
2615.62, 0.298365
2616.94, 0.297585
2618.26, 0.297195
2619.58, 0.296154
2620.91, 0.296024
2622.23, 0.296089
2623.56, 0.295309
2624.89, 0.294074
2626.22, 0.292644
2627.55, 0.292059
2628.88, 0.290954
2630.21, 0.290109
2631.55, 0.290499
2632.89, 0.289849
2634.22, 0.289329
2635.56, 0.288874
2636.9, 0.288094
2638.25, 0.287509
2639.59, 0.286534
2640.93, 0.285689
2642.28, 0.285234
2643.63, 0.284519
2644.98, 0.283349
2646.33, 0.282829
2647.68, 0.282504
2649.03, 0.281919
2650.39, 0.281074
2651.74, 0.279969
2653.1, 0.279254
2654.46, 0.278474
2655.82, 0.278084
2657.18, 0.277694
2658.54, 0.276394
2659.9, 0.275613
2661.27, 0.274963
2662.64, 0.274118
2664.01, 0.272363
2665.38, 0.271063
2666.74, 0.270868
2668.12, 0.270543
2669.49, 0.268853
2670.87, 0.269113
2672.24, 0.269373
2673.62, 0.268333
2675.0, 0.266903
2676.38, 0.265668
2677.76, 0.265018
2679.15, 0.264758
2680.54, 0.264953
2681.92, 0.264368
2683.31, 0.263458
2684.7, 0.262743
2686.09, 0.262093
2687.48, 0.261638
2688.88, 0.261183
2690.27, 0.260728
2691.67, 0.259753
2693.07, 0.258128
2694.47, 0.257283
2695.87, 0.257023
2697.27, 0.256828
2698.67, 0.255852
2700.08, 0.254617
2701.49, 0.253967
2702.9, 0.253252
2704.31, 0.252277
2705.72, 0.251237
2707.13, 0.249612
2708.54, 0.247662
2709.96, 0.246167
2711.38, 0.245517
2712.8, 0.245257
2714.22, 0.244477
2715.64, 0.243567
2717.06, 0.242397
2718.49, 0.240967
2719.91, 0.239277
2721.34, 0.239472
2722.77, 0.239732
2724.2, 0.239927
2725.63, 0.240642
2727.07, 0.241032
2728.5, 0.240707
2729.94, 0.240122
2731.38, 0.239667
2732.82, 0.238952
2734.26, 0.238172
2735.7, 0.237847
2737.15, 0.237002
2738.59, 0.235506
2740.04, 0.234596
2741.49, 0.234596
2742.94, 0.234856
2744.39, 0.234531
2745.84, 0.233946
2747.3, 0.233231
2748.76, 0.232646
2750.21, 0.231996
2751.67, 0.231021
2753.14, 0.229916
2754.6, 0.228356
2756.06, 0.228291
2757.53, 0.228681
2759.0, 0.228096
2760.46, 0.227056
2761.94, 0.226146
2763.41, 0.225691
2764.88, 0.225366
2766.36, 0.224716
2767.83, 0.224131
2769.31, 0.223611
2770.79, 0.222896
2772.27, 0.222441
2773.76, 0.221986
2775.24, 0.221531
2776.73, 0.220946
2778.22, 0.220231
2779.71, 0.219386
2781.2, 0.218606
2782.69, 0.217956
2784.18, 0.217436
2785.68, 0.216461
2787.18, 0.215746
2788.68, 0.215616
2790.18, 0.215356
2791.68, 0.214705
2793.19, 0.214120
2794.69, 0.213535
2796.2, 0.212625
2797.71, 0.211780
2799.22, 0.211260
2800.73, 0.210480
2802.24, 0.209440
2803.76, 0.208855
2805.28, 0.208530
2806.8, 0.208075
2808.32, 0.207425
2809.84, 0.206905
2811.36, 0.206255
2812.89, 0.205410
2814.42, 0.204695
2815.94, 0.204110
2817.48, 0.203655
2819.01, 0.202940
2820.54, 0.202160
2822.08, 0.201575
2823.61, 0.201120
2825.15, 0.200600
2826.69, 0.199950
2828.23, 0.199300
2829.78, 0.198910
2831.32, 0.198130
2832.87, 0.197025
2834.42, 0.196180
2835.97, 0.195595
2837.52, 0.194880
2839.08, 0.194294
2840.63, 0.193709
2842.19, 0.192994
2843.75, 0.192279
2845.31, 0.191759
2846.87, 0.191044
2848.44, 0.190264
2850.0, 0.189679
2851.57, 0.189094
2853.14, 0.188314
2854.71, 0.187664
2856.28, 0.187274
2857.86, 0.186819
2859.43, 0.186169
2861.01, 0.185519
2862.59, 0.184999
2864.17, 0.184414
2865.76, 0.183569
2867.34, 0.182789
2868.93, 0.182334
2870.52, 0.181749
2872.11, 0.181164
2873.7, 0.180514
2875.29, 0.179994
2876.89, 0.179149
2878.49, 0.178369
2880.08, 0.177654
2881.69, 0.177004
2883.29, 0.176289
2884.89, 0.175899
2886.5, 0.175184
2888.11, 0.174404
2889.72, 0.173948
2891.33, 0.173428
2892.94, 0.172908
2894.56, 0.172388
2896.17, 0.171738
2897.79, 0.171023
2899.42, 0.170308
2901.04, 0.169723
2902.66, 0.169203
2904.29, 0.168488
2905.92, 0.167968
2907.55, 0.167448
2909.18, 0.166993
2910.81, 0.166148
2912.45, 0.165433
2914.08, 0.165108
2915.72, 0.164653
2917.36, 0.164003
2919.01, 0.163353
2920.65, 0.162703
2922.3, 0.161923
2923.94, 0.161208
2925.59, 0.160493
2927.25, 0.160038
2928.9, 0.159583
2930.56, 0.159063
2932.21, 0.158543
2933.87, 0.157893
2935.53, 0.157178
2937.2, 0.156658
2938.86, 0.156073
2940.53, 0.155488
2942.2, 0.154903
2943.87, 0.154318
2945.54, 0.153733
2947.22, 0.153212
2948.89, 0.152692
2950.57, 0.151977
2952.25, 0.151327
2953.93, 0.150872
2955.62, 0.150482
2957.3, 0.150027
2958.99, 0.149247
2960.68, 0.148337
2962.37, 0.147817
2964.07, 0.147362
2965.76, 0.146712
2967.46, 0.146062
2969.16, 0.145607
2970.86, 0.145022
2972.56, 0.144307
2974.27, 0.143722
2975.98, 0.143202
2977.69, 0.142552
2979.4, 0.141837
2981.11, 0.141252
2982.83, 0.140797
2984.54, 0.140017
2986.26, 0.139497
2987.98, 0.139042
2989.71, 0.138522
2991.43, 0.137807
2993.16, 0.137092
2994.89, 0.136442
2996.62, 0.135857
2998.35, 0.135207
3000.09, 0.134622
3001.83, 0.134167
3003.57, 0.133647
3005.31, 0.132866
3007.05, 0.132151
3008.79, 0.131501
3010.54, 0.131046
3012.29, 0.130526
3014.04, 0.130071
3015.8, 0.129486
3017.55, 0.128966
3019.31, 0.128316
3021.07, 0.127861
3022.83, 0.127471
3024.59, 0.126821
3026.36, 0.126236
3028.13, 0.125846
3029.9, 0.125196
3031.67, 0.124416
3033.44, 0.123896
3035.22, 0.123441
3037.0, 0.122726
3038.78, 0.122076
3040.56, 0.121556
3042.34, 0.121101
3044.13, 0.120646
3045.92, 0.119996
3047.71, 0.119281
3049.5, 0.118501
3051.3, 0.117981
3053.09, 0.117591
3054.89, 0.117071
3056.69, 0.116486
3058.5, 0.115901
3060.3, 0.115381
3062.11, 0.115056
3063.92, 0.114601
3065.73, 0.114146
3067.55, 0.113561
3069.36, 0.112781
3071.18, 0.112065
3073.0, 0.111545
3074.82, 0.110960
3076.65, 0.110440
3078.48, 0.109985
3080.31, 0.109530
3082.14, 0.109075
3083.97, 0.108555
3085.8, 0.107905
3087.64, 0.107320
3089.48, 0.106865
3091.33, 0.106475
3093.17, 0.105825
3095.02, 0.105175
3096.87, 0.104655
3098.72, 0.104200
3100.57, 0.103680
3102.43, 0.103095
3104.28, 0.102575
3106.14, 0.102120
3108.01, 0.101535
3109.87, 0.100885
3111.74, 0.100300
3113.61, 0.0999750
3115.48, 0.0995850
3117.35, 0.0990650
3119.23, 0.0984800
3121.1, 0.0980900
3122.98, 0.0976350
3124.87, 0.0969850
3126.75, 0.0965300
3128.64, 0.0959450
3130.53, 0.0953600
3132.42, 0.0949050
3134.31, 0.0943200
3136.21, 0.0938000
3138.11, 0.0933450
3140.01, 0.0928900
3141.91, 0.0923700
3143.82, 0.0918490
3145.73, 0.0912640
3147.64, 0.0908090
3149.55, 0.0903540
3151.46, 0.0898990
3153.38, 0.0895090
3155.3, 0.0889240
3157.22, 0.0882740
3159.14, 0.0877540
3161.07, 0.0872990
3163.0, 0.0867140
3164.93, 0.0863240
3166.86, 0.0859340
3168.8, 0.0854790
3170.74, 0.0850890
3172.68, 0.0845040
3174.62, 0.0838540
3176.56, 0.0833340
3178.51, 0.0829440
3180.46, 0.0825540
3182.42, 0.0820990
3184.37, 0.0817090
3186.33, 0.0811240
3188.29, 0.0804740
3190.25, 0.0800190
3192.21, 0.0796290
3194.18, 0.0791740
3196.15, 0.0787190
3198.12, 0.0784590
3200.09, 0.0781340
3202.07, 0.0777440
3204.05, 0.0770940
3206.03, 0.0765090
3208.02, 0.0760540
3210.0, 0.0755990
3211.99, 0.0750790
3213.98, 0.0746890
3215.98, 0.0742340
3217.97, 0.0737140
3219.97, 0.0731940
3221.97, 0.0727390
3223.98, 0.0723490
3225.98, 0.0720240
3227.99, 0.0716340
3230.0, 0.0711130
3232.02, 0.0705930
3234.03, 0.0702030
3236.05, 0.0698130
3238.07, 0.0693580
3240.1, 0.0689030
3242.12, 0.0685130
3244.15, 0.0681880
3246.18, 0.0677330
3248.22, 0.0672780
3250.25, 0.0668230
3252.29, 0.0662380
3254.33, 0.0657830
3256.38, 0.0655230
3258.43, 0.0650680
3260.47, 0.0645480
3262.53, 0.0641580
3264.58, 0.0638330
3266.64, 0.0635080
3268.7, 0.0630530
3270.76, 0.0626630
3272.82, 0.0622730
3274.89, 0.0618830
3276.96, 0.0614930
3279.04, 0.0609730
3281.11, 0.0606480
3283.19, 0.0604530
3285.27, 0.0599330
3287.35, 0.0594780
3289.44, 0.0590230
3291.53, 0.0586330
3293.62, 0.0582430
3295.71, 0.0578530
3297.81, 0.0573330
3299.91, 0.0568780
3302.01, 0.0566180
3304.11, 0.0562930
3306.22, 0.0559680
3308.33, 0.0555130
3310.44, 0.0552530
3312.56, 0.0549280
3314.68, 0.0543430
3316.8, 0.0539530
3318.92, 0.0534330
3321.05, 0.0530430
3323.18, 0.0528480
3325.31, 0.0524580
3327.44, 0.0520030
3329.58, 0.0517430
3331.72, 0.0514830
3333.86, 0.0510270
3336.01, 0.0505720
3338.16, 0.0501820
3340.31, 0.0497270
3342.46, 0.0493370
3344.61, 0.0488820
3346.77, 0.0484920
3348.94, 0.0481020
3351.1, 0.0477770
3353.27, 0.0475170
3355.44, 0.0471270
3357.61, 0.0466720
3359.79, 0.0462820
3361.97, 0.0460220
3364.15, 0.0456320
3366.33, 0.0453070
3368.52, 0.0448520
3370.71, 0.0443970
3372.9, 0.0440720
3375.1, 0.0439420
3377.3, 0.0437470
3379.5, 0.0433570
3381.71, 0.0429020
3383.91, 0.0423820
3386.12, 0.0420570
3388.34, 0.0418620
3390.55, 0.0416020
3392.77, 0.0413420
3394.99, 0.0408870
3397.22, 0.0404320
3399.45, 0.0401070
3401.68, 0.0398470
3403.91, 0.0393920
3406.15, 0.0391320
3408.39, 0.0389370
3410.63, 0.0384820
3412.87, 0.0380920
3415.12, 0.0377670
3417.37, 0.0373120
3419.63, 0.0369870
3421.88, 0.0368570
3424.14, 0.0366620
3426.41, 0.0364020
3428.67, 0.0360120
3430.94, 0.0357520
3433.21, 0.0354270
3435.49, 0.0351020
3437.77, 0.0347770
3440.05, 0.0343870
3442.33, 0.0339320
3444.62, 0.0336070
3446.91, 0.0334770
3449.2, 0.0332820
3451.5, 0.0328920
3453.8, 0.0325020
3456.1, 0.0323070
3458.41, 0.0319820
3460.72, 0.0316570
3463.03, 0.0313970
3465.34, 0.0311370
3467.66, 0.0307470
3469.98, 0.0303560
3472.31, 0.0300960
3474.63, 0.0299010
3476.96, 0.0295760
3479.3, 0.0291860
3481.64, 0.0287960
3483.97, 0.0286010
3486.32, 0.0284060
3488.66, 0.0280810
3491.01, 0.0278210
3493.36, 0.0275610
3495.72, 0.0273010
3498.08, 0.0270410
3500.44, 0.0269110
3502.81, 0.0265860
3505.18, 0.0263910
3507.55, 0.0260660
3509.92, 0.0257410
3512.3, 0.0256110
3514.68, 0.0254160
3517.06, 0.0252860
3519.45, 0.0250260
3521.84, 0.0246360
3524.24, 0.0243760
3526.64, 0.0241160
3529.04, 0.0237910
3531.44, 0.0235310
3533.85, 0.0234010
3536.26, 0.0233360
3538.67, 0.0232060
3541.09, 0.0229460
3543.51, 0.0226210
3545.93, 0.0223610
3548.36, 0.0223610
3550.79, 0.0221010
3553.22, 0.0218410
3555.66, 0.0217110
3558.1, 0.0216460
3560.54, 0.0213210
3562.99, 0.0212560
3565.44, 0.0209960
3567.9, 0.0208010
3570.35, 0.0207360
3572.81, 0.0206060
3575.28, 0.0204760
3577.75, 0.0203460
3580.22, 0.0200860
3582.69, 0.0198260
3585.17, 0.0197610
3587.65, 0.0195010
3590.14, 0.0193710
3592.62, 0.0192410
3595.11, 0.0191760
3597.61, 0.0189810
3600.11, 0.0187860
3602.61, 0.0187210
3605.11, 0.0185910
3607.62, 0.0183310
3610.14, 0.0181360
3612.65, 0.0180060
3615.17, 0.0177460
3617.69, 0.0176160
3620.22, 0.0175510
3622.75, 0.0176160
3625.28, 0.0175510
3627.82, 0.0172260
3630.36, 0.0169010
3632.9, 0.0167060
3635.45, 0.0165760
3638.0, 0.0165110
3640.56, 0.0162510
3643.12, 0.0160560
3645.68, 0.0159910
3648.24, 0.0157960
3650.81, 0.0155360
3653.39, 0.0154060
3655.96, 0.0153410
3658.54, 0.0152110
3661.13, 0.0151460
3663.71, 0.0150160
3666.3, 0.0148210
3668.9, 0.0146260
3671.5, 0.0143660
3674.1, 0.0141710
3676.7, 0.0141060
3679.31, 0.0139110
3681.93, 0.0135860
3684.54, 0.0133910
3687.17, 0.0132610
3689.79, 0.0130660
3692.42, 0.0129360
3695.05, 0.0127410
3697.69, 0.0126760
3700.32, 0.0124810
3702.97, 0.0123510
3705.61, 0.0122210
3708.27, 0.0120910
3710.92, 0.0119610
3713.58, 0.0117660
3716.24, 0.0115710
3718.91, 0.0115710
3721.58, 0.0115060
3724.25, 0.0111160
3726.93, 0.0108560
3729.61, 0.0108560
3732.29, 0.0107910
3734.98, 0.0107260
3737.67, 0.0105960
3740.37, 0.0105310
3743.07, 0.0104660
3745.78, 0.0102710
3748.49, 0.0102050
3751.2, 0.0100750
3753.91, 0.00981500
3756.63, 0.00968500
3759.36, 0.00962000
3762.09, 0.00955500
3764.82, 0.00949000
3767.55, 0.00936000
3770.29, 0.00923000
3773.04, 0.00916500
3775.78, 0.00910000
3778.54, 0.00903500
3781.29, 0.00910000
3784.05, 0.00916500
3786.82, 0.00897000
3789.59, 0.00884000
3792.36, 0.00897000
3795.13, 0.00890500
3797.92, 0.00871000
3800.7, 0.00871000
3803.49, 0.00871000
3806.28, 0.00858000
3809.08, 0.00845000
3811.88, 0.00864500
3814.68, 0.00871000
3817.49, 0.00877500
3820.31, 0.00864500
3823.12, 0.00851500
3825.94, 0.00858000
3828.77, 0.00871000
3831.6, 0.00877500
3834.43, 0.00871000
3837.27, 0.00871000
3840.11, 0.00877500
3842.96, 0.00890500
3845.81, 0.00897000
3848.67, 0.00897000
3851.53, 0.00884000
3854.39, 0.00877500
3857.26, 0.00884000
3860.13, 0.00897000
3863.01, 0.00903500
3865.89, 0.00903500
3868.77, 0.00910000
3871.66, 0.00929500
3874.55, 0.00936000
3877.45, 0.00936000
3880.35, 0.00942500
3883.26, 0.00968500
3886.17, 0.00981500
3889.09, 0.00988000
3892.01, 0.0100100
3894.93, 0.00994500
3897.86, 0.0100750
3900.79, 0.0101400
3903.73, 0.0102710
3906.67, 0.0103360
3909.62, 0.0104010
3912.57, 0.0104660
3915.52, 0.0105960
3918.48, 0.0107910
3921.45, 0.0109210
3924.42, 0.0109860
3927.39, 0.0109860
3930.37, 0.0111160
3933.35, 0.0112460
3936.34, 0.0113760
3939.33, 0.0115710
3942.32, 0.0116360
3945.32, 0.0117660
3948.33, 0.0118310
3951.34, 0.0118960
3954.35, 0.0121560
3957.37, 0.0122210
3960.39, 0.0122860
3963.42, 0.0123510
3966.45, 0.0124810
3969.49, 0.0126760
3972.53, 0.0128710
3975.58, 0.0129360
3978.63, 0.0130010
3981.68, 0.0132610
3984.75, 0.0134560
3987.81, 0.0135210
3990.88, 0.0135860
3993.95, 0.0136510
3997.03, 0.0139110
4000.12, 0.0140410
4003.21, 0.0142360
4006.3, 0.0143010
4009.4, 0.0143660
4012.5, 0.0144960
4015.61, 0.0144960
4018.72, 0.0145610
4021.84, 0.0146260
4024.96, 0.0148210
4028.09, 0.0150160
4031.22, 0.0152760
4034.36, 0.0154060
4037.5, 0.0154710
4040.65, 0.0155360
4043.8, 0.0156010
4046.96, 0.0157960
4050.12, 0.0159910
4053.29, 0.0160560
4056.46, 0.0160560
4059.64, 0.0161860
4062.82, 0.0163810
4066.0, 0.0164460
4069.19, 0.0165760
4072.39, 0.0166410
4075.59, 0.0167710
4078.8, 0.0169660
4082.01, 0.0171610
4085.23, 0.0172910
4088.45, 0.0174210
4091.68, 0.0175510
4094.91, 0.0175510
4098.15, 0.0175510
4101.39, 0.0177460
4104.63, 0.0180060
4107.89, 0.0180710
4111.14, 0.0181360
4114.41, 0.0183310
4117.67, 0.0184610
4120.95, 0.0185260
4124.23, 0.0185910
4127.51, 0.0188510
4130.8, 0.0189810
4134.09, 0.0190460
4137.39, 0.0191760
4140.7, 0.0192410
4144.01, 0.0192410
4147.32, 0.0193060
4150.64, 0.0195660
4153.97, 0.0196310
4157.3, 0.0197610
4160.64, 0.0198260
4163.98, 0.0199560
4167.33, 0.0200210
4170.68, 0.0200860
4174.04, 0.0202810
4177.4, 0.0204760
4180.77, 0.0206060
4184.14, 0.0206710
4187.52, 0.0207360
4190.91, 0.0207360
4194.3, 0.0208010
4197.69, 0.0209310
4201.1, 0.0209310
4204.5, 0.0208660
4207.92, 0.0208010
4211.34, 0.0204760
4214.76, 0.0201510
4218.19, 0.0199560
4221.62, 0.0198910
4225.06, 0.0198910
4228.51, 0.0198260
4231.96, 0.0198260
4235.42, 0.0198260
4238.88, 0.0200860
4242.35, 0.0205410
4245.83, 0.0208660
4249.31, 0.0213210
4252.79, 0.0219060
4256.28, 0.0224260
4259.78, 0.0223610
4263.29, 0.0221660
4266.79, 0.0220360
4270.31, 0.0219060
4273.83, 0.0219710
4277.35, 0.0221660
4280.89, 0.0224260
4284.42, 0.0226210
4287.97, 0.0226860
4291.52, 0.0229460
4295.07, 0.0232060
4298.63, 0.0232710
4302.2, 0.0234660
4305.78, 0.0237910
4309.35, 0.0241810
4312.94, 0.0244410
4316.53, 0.0245710
4320.13, 0.0247660
4323.73, 0.0249610
4327.34, 0.0252860
4330.96, 0.0254810
4334.58, 0.0256110
4338.21, 0.0257410
4341.84, 0.0258710
4345.48, 0.0260660
4349.12, 0.0262610
4352.77, 0.0264560
4356.43, 0.0265860
4360.1, 0.0266510
4363.76, 0.0268460
4367.44, 0.0269760
4371.12, 0.0271710
4374.81, 0.0273010
4378.51, 0.0274310
4382.21, 0.0276260
4385.92, 0.0277560
4389.63, 0.0279510
4393.35, 0.0280160
4397.08, 0.0280160
4400.81, 0.0281460
4404.55, 0.0284060
4408.29, 0.0286010
4412.04, 0.0286010
4415.8, 0.0287960
4419.57, 0.0290560
4423.34, 0.0292510
4427.12, 0.0293160
4430.9, 0.0294460
4434.69, 0.0295760
4438.49, 0.0297060
4442.29, 0.0298360
4446.1, 0.0300310
4449.92, 0.0300960
4453.74, 0.0302260
4457.57, 0.0305510
4461.41, 0.0307470
4465.25, 0.0307470
4469.1, 0.0308120
4472.95, 0.0310070
4476.82, 0.0312020
4480.69, 0.0313970
4484.56, 0.0315920
4488.44, 0.0316570
4492.33, 0.0317870
4496.23, 0.0319820
4500.13, 0.0320470
4504.04, 0.0321770
4507.96, 0.0323720
4511.88, 0.0325020
4515.81, 0.0326320
4519.75, 0.0326320
4523.69, 0.0326970
4527.65, 0.0329570
4531.6, 0.0330870
4535.57, 0.0332170
4539.54, 0.0333470
4543.52, 0.0334120
4547.5, 0.0336070
4551.5, 0.0337370
4555.5, 0.0338020
4559.5, 0.0339970
4563.52, 0.0341270
4567.54, 0.0341270
4571.56, 0.0341920
4575.6, 0.0343870
4579.64, 0.0345820
4583.69, 0.0346470
4587.75, 0.0347770
4591.81, 0.0349070
4595.88, 0.0349720
4599.96, 0.0350370
4604.04, 0.0352320
4608.14, 0.0354920
4612.24, 0.0355570
4616.34, 0.0355570
4620.46, 0.0356220
4624.58, 0.0356870
4628.71, 0.0358170
4632.84, 0.0360120
4636.99, 0.0362070
4641.14, 0.0364020
4645.3, 0.0364670
4649.47, 0.0364670
4653.64, 0.0365970
4657.82, 0.0367270
4662.01, 0.0367920
4666.21, 0.0369870
4670.41, 0.0371820
4674.62, 0.0372470
4678.84, 0.0371820
4683.07, 0.0372470
4687.3, 0.0374420
4691.54, 0.0375720
4695.79, 0.0377020
4700.05, 0.0377670
4704.31, 0.0378970
4708.59, 0.0377670
4712.87, 0.0377670
4717.15, 0.0380270
4721.45, 0.0380920
4725.76, 0.0380920
4730.07, 0.0382220
4734.39, 0.0382870
4738.72, 0.0382220
4743.05, 0.0382870
4747.39, 0.0383520
4751.75, 0.0384170
4756.1, 0.0385470
4760.47, 0.0385470
4764.85, 0.0386120
4769.23, 0.0386770
4773.62, 0.0388070
4778.02, 0.0389370
4782.43, 0.0389370
4786.85, 0.0390670
4791.27, 0.0391970
4795.7, 0.0391970
4800.14, 0.0391320
4804.59, 0.0392620
4809.05, 0.0393920
4813.51, 0.0394570
4817.99, 0.0394570
4822.47, 0.0394570
4826.96, 0.0395220
4831.46, 0.0394570
4835.96, 0.0394570
4840.48, 0.0395220
4845.0, 0.0395220
4849.54, 0.0395220
4854.08, 0.0395870
4858.63, 0.0394570
4863.18, 0.0395220
4867.75, 0.0395220
4872.33, 0.0395870
4876.91, 0.0395870
4881.5, 0.0395220
4886.1, 0.0394570
4890.71, 0.0395220
4895.33, 0.0395220
4899.96, 0.0395220
4904.59, 0.0394570
4909.24, 0.0393920
4913.89, 0.0393920
4918.55, 0.0391970
4923.22, 0.0391320
4927.9, 0.0390670
4932.59, 0.0390670
4937.29, 0.0389370
4942.0, 0.0389370
4946.71, 0.0388070
4951.44, 0.0386770
4956.17, 0.0387420
4960.91, 0.0388070
4965.67, 0.0388070
4970.43, 0.0387420
4975.2, 0.0386770
4979.98, 0.0387420
4984.76, 0.0388070
4989.56, 0.0388720
4994.37, 0.0389370
4999.18, 0.0390020
5004.01, 0.0390020
5008.84, 0.0390670
5013.69, 0.0391320
5018.54, 0.0392620
5023.4, 0.0395220
5028.28, 0.0395870
5033.16, 0.0395870
5038.05, 0.0396520
5042.95, 0.0397170
5047.86, 0.0396520
5052.78, 0.0395870
5057.71, 0.0396520
5062.65, 0.0395870
5067.6, 0.0396520
5072.56, 0.0395870
5077.53, 0.0395870
5082.5, 0.0395220
5087.49, 0.0395870
5092.49, 0.0396520
5097.5, 0.0397820
5102.51, 0.0397820
5107.54, 0.0398470
5112.58, 0.0399120
5117.62, 0.0399770
5122.68, 0.0399120
5127.75, 0.0399120
5132.82, 0.0398470
5137.91, 0.0397170
5143.01, 0.0396520
5148.12, 0.0396520
5153.23, 0.0395870
5158.36, 0.0394570
5163.5, 0.0393920
5168.65, 0.0393920
5173.81, 0.0393270
5178.98, 0.0393270
5184.15, 0.0393270
5189.34, 0.0393920
5194.54, 0.0391970
5199.75, 0.0390020
5204.98, 0.0389370
5210.21, 0.0389370
5215.45, 0.0389370
5220.7, 0.0389370
5225.96, 0.0391320
5231.23, 0.0393270
5236.52, 0.0392620
5241.81, 0.0392620
5247.12, 0.0393920
5252.44, 0.0394570
5257.76, 0.0395220
5263.1, 0.0395220
5268.45, 0.0396520
5273.81, 0.0399120
5279.18, 0.0401070
5284.56, 0.0402370
5289.95, 0.0401720
5295.36, 0.0403670
5300.77, 0.0404970
5306.2, 0.0406920
5311.63, 0.0408870
5317.08, 0.0408870
5322.54, 0.0408220
5328.01, 0.0409520
5333.49, 0.0411470
5338.98, 0.0412120
5344.49, 0.0411470
5350.0, 0.0411470
5355.53, 0.0414070
5361.07, 0.0416020
5366.62, 0.0416020
5372.18, 0.0415370
5377.75, 0.0414070
5383.34, 0.0414070
5388.93, 0.0414720
5394.54, 0.0415370
5400.16, 0.0415370
5405.79, 0.0414070
5411.44, 0.0414070
5417.09, 0.0414070
5422.76, 0.0414070
5428.43, 0.0416670
5434.12, 0.0417320
5439.83, 0.0417970
5445.54, 0.0417970
5451.26, 0.0418620
5457.0, 0.0418620
5462.75, 0.0417970
5468.52, 0.0418620
5474.29, 0.0419920
5480.08, 0.0419920
5485.88, 0.0421220
5491.69, 0.0421870
5497.51, 0.0423170
5503.35, 0.0423170
5509.2, 0.0423820
5515.06, 0.0423820
5520.93, 0.0424470
5526.82, 0.0425120
5532.71, 0.0425770
5538.63, 0.0425770
5544.55, 0.0426420
5550.49, 0.0426420
5556.44, 0.0426420
5562.4, 0.0427720
5568.37, 0.0428370
5574.36, 0.0427720
5580.36, 0.0428370
5586.37, 0.0430320
5592.4, 0.0430320
5598.44, 0.0429670
5604.49, 0.0430970
5610.56, 0.0431620
5616.63, 0.0430320
5622.73, 0.0431620
5628.83, 0.0432270
5634.95, 0.0430320
5641.08, 0.0429020
5647.23, 0.0431620
5653.39, 0.0432270
5659.56, 0.0432270
5665.74, 0.0433570
5671.94, 0.0431620
5678.15, 0.0430320
5684.38, 0.0430970
5690.62, 0.0430970
5696.87, 0.0431620
5703.14, 0.0430320
5709.42, 0.0427720
5715.72, 0.0427070
5722.03, 0.0427070
5728.35, 0.0427070
5734.69, 0.0427070
5741.03, 0.0426420
5747.4, 0.0425120
5753.78, 0.0425770
5760.17, 0.0423820
5766.58, 0.0421220
5773.0, 0.0423820
5779.44, 0.0425120
5785.88, 0.0424470
5792.35, 0.0424470
5798.83, 0.0423820
5805.32, 0.0423820
5811.83, 0.0422520
5818.35, 0.0419270
5824.89, 0.0419270
5831.45, 0.0421220
5838.01, 0.0422520
5844.59, 0.0421870
5851.19, 0.0420570
5857.8, 0.0419270
5864.43, 0.0418620
5871.07, 0.0418620
5877.73, 0.0415370
5884.4, 0.0416020
5891.09, 0.0417320
5897.79, 0.0416670
5904.5, 0.0418620
5911.23, 0.0418620
5917.98, 0.0417320
5924.75, 0.0416670
5931.53, 0.0413420
5938.32, 0.0413420
5945.13, 0.0416670
5951.96, 0.0416670
5958.8, 0.0416020
5965.65, 0.0414070
5972.53, 0.0414720
5979.42, 0.0416020
5986.32, 0.0414070
5993.24, 0.0415370
6000.18, 0.0416670
6007.13, 0.0414720
6014.1, 0.0413420
6021.08, 0.0413420
6028.09, 0.0412770
6035.1, 0.0410820
6042.14, 0.0405620
6049.19, 0.0401070
6056.25, 0.0404320
6063.34, 0.0403670
6070.44, 0.0400420
6077.55, 0.0399770
6084.69, 0.0399770
6091.84, 0.0398470
6099.0, 0.0397170
6106.19, 0.0393920
6113.39, 0.0390670
6120.61, 0.0391320
6127.84, 0.0390020
6135.09, 0.0387420
6142.36, 0.0384820
6149.65, 0.0384170
6156.95, 0.0382220
6164.27, 0.0382220
6171.61, 0.0382220
6178.97, 0.0379620
6186.34, 0.0379620
6193.73, 0.0381570
6201.14, 0.0380920
6208.57, 0.0380270
6216.01, 0.0380920
6223.47, 0.0382220
6230.95, 0.0383520
6238.45, 0.0383520
6245.97, 0.0384820
6253.5, 0.0384170
6261.06, 0.0384170
6268.63, 0.0384170
6276.21, 0.0384170
6283.82, 0.0384170
6291.45, 0.0383520
6299.1, 0.0383520
6306.76, 0.0384820
6314.44, 0.0384820
6322.14, 0.0383520
6329.86, 0.0383520
6337.6, 0.0382870
6345.35, 0.0382220
6353.13, 0.0384170
6360.92, 0.0384170
6368.74, 0.0382220
6376.57, 0.0384170
6384.43, 0.0384170
6392.3, 0.0382870
6400.19, 0.0381570
6408.1, 0.0377020
6416.03, 0.0375720
6423.98, 0.0378320
6431.95, 0.0379620
6439.94, 0.0382220
6447.95, 0.0383520
6455.98, 0.0384820
6464.03, 0.0384820
6472.1, 0.0382870
6480.19, 0.0381570
6488.31, 0.0379620
6496.44, 0.0379620
6504.59, 0.0382220
6512.76, 0.0382870
6520.95, 0.0381570
6529.16, 0.0381570
6537.4, 0.0380270
6545.65, 0.0378970
6553.92, 0.0376370
6562.22, 0.0373770
6570.54, 0.0369220
6578.88, 0.0369220
6587.23, 0.0367920
6595.61, 0.0365970
6604.02, 0.0364670
6612.44, 0.0361420
6620.89, 0.0359470
6629.35, 0.0354920
6637.84, 0.0351020
6646.35, 0.0351670
6654.88, 0.0351020
6663.44, 0.0347770
6672.01, 0.0343220
6680.61, 0.0339970
6689.23, 0.0339320
6697.88, 0.0337370
6706.54, 0.0332820
6715.23, 0.0330220
6723.94, 0.0328270
6732.67, 0.0327620
6741.42, 0.0326320
6750.2, 0.0325020
6759.0, 0.0321770
6767.82, 0.0317870
6776.67, 0.0315270
6785.54, 0.0314620
6794.44, 0.0313970
6803.35, 0.0313320
6812.29, 0.0310720
6821.26, 0.0308120
6830.24, 0.0306160
6839.25, 0.0304860
6848.29, 0.0302910
6857.35, 0.0299010
6866.43, 0.0296410
6875.54, 0.0296410
6884.67, 0.0295110
6893.82, 0.0293160
6903.0, 0.0288610
6912.2, 0.0285360
6921.43, 0.0280810
6930.69, 0.0276260
6939.96, 0.0271710
6949.27, 0.0267810
6958.59, 0.0261960
6967.95, 0.0257410
6977.33, 0.0252210
6986.73, 0.0247010
6996.16, 0.0241810
7005.61, 0.0236610
7015.09, 0.0231410
7024.6, 0.0224260
7034.13, 0.0217760
7043.69, 0.0210610
7053.27, 0.0203460
7062.88, 0.0198910
7072.52, 0.0193710
7082.18, 0.0189160
7091.87, 0.0184610
7101.58, 0.0182010
7111.32, 0.0178760
7121.09, 0.0177460
7130.88, 0.0177460
7140.71, 0.0177460
7150.56, 0.0180060
7160.43, 0.0183960
7170.33, 0.0188510
7180.27, 0.0193710
7190.23, 0.0198260
7200.21, 0.0202160
7210.23, 0.0205410
7220.27, 0.0209960
7230.34, 0.0214510
7240.44, 0.0217760
7250.56, 0.0220360
7260.72, 0.0224260
7270.9, 0.0228160
7281.12, 0.0232060
7291.36, 0.0236610
7301.63, 0.0241160
7311.93, 0.0244410
7322.25, 0.0248960
7332.61, 0.0252860
7343.0, 0.0256110
7353.41, 0.0259360
7363.86, 0.0261960
7374.33, 0.0263910
7384.83, 0.0265860
7395.37, 0.0268460
7405.93, 0.0270410
7416.53, 0.0271710
7427.15, 0.0273660
7437.81, 0.0273660
7448.5, 0.0273010
7459.22, 0.0274310
7469.96, 0.0275610
7480.74, 0.0276260
7491.55, 0.0276910
7502.39, 0.0276910
7513.27, 0.0275610
7524.17, 0.0274310
7535.11, 0.0273010
7546.08, 0.0273010
7557.08, 0.0273010
7568.11, 0.0271710
7579.17, 0.0269760
7590.27, 0.0267810
7601.4, 0.0266510
7612.56, 0.0264560
7623.76, 0.0263910
7634.98, 0.0262610
7646.24, 0.0261310
7657.54, 0.0261310
7668.87, 0.0259360
7680.23, 0.0256760
7691.62, 0.0255460
7703.05, 0.0254810
7714.51, 0.0252210
7726.01, 0.0250260
7737.54, 0.0247660
7749.11, 0.0246360
7760.71, 0.0244410
7772.35, 0.0243110
7784.02, 0.0241160
7795.72, 0.0239210
7807.46, 0.0237260
7819.23, 0.0234660
7831.04, 0.0232710
7842.89, 0.0230760
7854.77, 0.0228160
7866.69, 0.0226210
7878.65, 0.0224260
7890.64, 0.0221660
7902.67, 0.0219060
7914.74, 0.0215810
7926.84, 0.0213210
7938.98, 0.0211910
7951.16, 0.0209310
7963.37, 0.0206710
7975.62, 0.0202160
7987.91, 0.0198260
8000.24, 0.0195660
8012.6, 0.0191760
8025.01, 0.0190460
8037.45, 0.0188510
8049.93, 0.0184610
8062.45, 0.0181360
8075.01, 0.0177460
8087.61, 0.0173560
8100.24, 0.0170960
8112.91, 0.0168360
8125.63, 0.0166410
8138.39, 0.0163160
8151.18, 0.0159910
8164.02, 0.0158610
8176.9, 0.0154710
8189.81, 0.0150810
8202.77, 0.0147560
8215.77, 0.0144960
8228.82, 0.0141060
8241.9, 0.0137810
8255.02, 0.0135210
8268.19, 0.0133910
8281.39, 0.0130010
8294.65, 0.0126110
8307.94, 0.0122860
8321.28, 0.0121560
8334.66, 0.0120260
8348.08, 0.0117660
8361.54, 0.0115060
8375.05, 0.0112460
8388.6, 0.0111160
8402.2, 0.0108560
8415.84, 0.0105960
8429.52, 0.0104010
8443.25, 0.0102050
8457.02, 0.0100750
8470.84, 0.00988000
8484.7, 0.00968500
8498.61, 0.00949000
8512.57, 0.00942500
8526.57, 0.00936000
8540.62, 0.00936000
8554.71, 0.00936000
8568.85, 0.00942500
8583.04, 0.00962000
8597.27, 0.00975000
8611.55, 0.00994500
8625.88, 0.0103360
8640.26, 0.0109210
8654.68, 0.0114410
8669.16, 0.0120910
8683.68, 0.0130010
8698.25, 0.0140410
8712.87, 0.0153410
8727.53, 0.0166410
8742.25, 0.0181360
8757.02, 0.0200210
8771.83, 0.0221660
8786.7, 0.0247010
8801.62, 0.0278210
8816.59, 0.0312670
8831.61, 0.0351670
8846.68, 0.0395870
8861.8, 0.0445920
8876.97, 0.0502470
8892.2, 0.0562280
8907.48, 0.0626630
8922.81, 0.0700080
8938.2, 0.0781990
8953.63, 0.0865840
8969.13, 0.0952300
8984.67, 0.104655
9000.27, 0.114341
9015.92, 0.124026
9031.63, 0.133452
9047.39, 0.142552
9063.21, 0.150937
9079.08, 0.158218
9095.01, 0.164133
9111.0, 0.168683
9127.04, 0.171868
9143.13, 0.174599
9159.28, 0.177004
9175.49, 0.178759
9191.76, 0.180059
9208.09, 0.181359
9224.47, 0.182399
9240.92, 0.183114
9257.42, 0.183699
9273.98, 0.183829
9290.6, 0.183504
9307.28, 0.182854
9324.02, 0.181814
9340.82, 0.180579
9357.68, 0.178954
9374.6, 0.177329
9391.58, 0.175704
9408.62, 0.174013
9425.73, 0.172193
9442.9, 0.170438
9460.13, 0.168488
9477.42, 0.166538
9494.78, 0.164458
9512.2, 0.162248
9529.69, 0.160038
9547.24, 0.157698
9564.86, 0.155098
9582.54, 0.152367
9600.28, 0.148662
9618.1, 0.144047
9635.97, 0.138132
9653.92, 0.131111
9671.93, 0.123766
9690.01, 0.116616
9708.16, 0.110245
9726.37, 0.104330
9744.65, 0.0986750
9763.0, 0.0933450
9781.43, 0.0884040
9799.92, 0.0836590
9818.48, 0.0790440
9837.1, 0.0746240
9855.8, 0.0705280
9874.58, 0.0671480
9893.42, 0.0653280
9912.34, 0.0661080
9931.33, 0.0698780
9950.39, 0.0759890
9969.52, 0.0832690
9988.74, 0.0906140
10008.0, 0.0975050
10027.4, 0.103745
10046.8, 0.109790
10066.3, 0.115641
10085.9, 0.120971
10105.6, 0.125196
10125.3, 0.128056
10145.1, 0.130071
10165.0, 0.131046
10185.0, 0.131696
10205.0, 0.132281
10225.2, 0.132671
10245.4, 0.133517
10265.7, 0.135922
10286.0, 0.141187
10306.5, 0.149312
10327.0, 0.158673
10347.6, 0.167838
10368.3, 0.174729
10389.1, 0.179214
10409.9, 0.181944
10430.9, 0.183569
10451.9, 0.183894
10473.0, 0.183569
10494.2, 0.182529
10515.5, 0.180904
10536.9, 0.178564
10558.4, 0.176354
10579.9, 0.175574
10601.5, 0.178239
10623.3, 0.185909
10645.1, 0.197415
10667.0, 0.208270
10689.0, 0.215876
10711.1, 0.220101
10733.2, 0.222311
10755.5, 0.223026
10777.9, 0.222766
10800.3, 0.220946
10822.9, 0.217631
10845.5, 0.213015
10868.2, 0.207620
10891.1, 0.201575
10914.0, 0.196245
10937.0, 0.191824
10960.2, 0.188054
10983.4, 0.184934
11006.7, 0.181684
11030.1, 0.177264
11053.6, 0.171543
11077.3, 0.164393
11101.0, 0.155943
11124.8, 0.147102
11148.7, 0.138717
11172.7, 0.131111
11196.9, 0.124936
11221.1, 0.120061
11245.4, 0.116031
11269.9, 0.112390
11294.4, 0.109140
11319.1, 0.106605
11343.9, 0.104460
11368.8, 0.102380
11393.7, 0.100170
11418.8, 0.0981550
11444.0, 0.0963350
11469.4, 0.0949700
11494.8, 0.0936050
11520.3, 0.0923050
11546.0, 0.0911990
11571.8, 0.0900940
11597.7, 0.0889890
11623.7, 0.0880140
11649.8, 0.0873640
11676.0, 0.0870390
11702.4, 0.0866490
11728.9, 0.0861940
11755.5, 0.0858690
11782.2, 0.0856740
11809.0, 0.0855440
11836.0, 0.0853490
11863.0, 0.0854140
11890.3, 0.0856740
11917.6, 0.0860640
11945.0, 0.0861290
11972.6, 0.0865840
12000.4, 0.0871040
12028.2, 0.0873640
12056.2, 0.0872990
12084.3, 0.0875590
12112.5, 0.0879490
12140.9, 0.0880140
12169.4, 0.0876890
12198.0, 0.0876240
12226.8, 0.0876890
12255.7, 0.0876890
12284.7, 0.0876240
12313.9, 0.0877540
12343.2, 0.0878840
12372.7, 0.0881440
12402.3, 0.0881440
12432.0, 0.0879490
12461.9, 0.0876890
12491.9, 0.0874290
12522.1, 0.0869740
12552.4, 0.0872340
12582.9, 0.0872990
12613.5, 0.0869090
12644.3, 0.0867790
12675.2, 0.0866490
12706.3, 0.0863240
12737.5, 0.0863240
12768.9, 0.0863890
12800.4, 0.0862590
12832.1, 0.0860640
12863.9, 0.0860640
12895.9, 0.0859340
12928.1, 0.0857390
12960.4, 0.0857390
12992.9, 0.0853490
13025.5, 0.0851540
13058.3, 0.0848940
13091.3, 0.0842440
13124.4, 0.0839840
13157.8, 0.0837890
13191.2, 0.0832690
13224.9, 0.0828140
13258.7, 0.0823590
13292.7, 0.0817090
13326.9, 0.0811240
13361.2, 0.0806040
13395.7, 0.0801490
13430.4, 0.0798890
13465.3, 0.0796940
13500.4, 0.0791740
13535.7, 0.0785240
13571.1, 0.0777440
13606.7, 0.0770290
13642.5, 0.0760540
13678.5, 0.0752090
13714.7, 0.0744940
13751.1, 0.0735190
13787.6, 0.0724790
13824.4, 0.0713080
13861.4, 0.0700080
13898.5, 0.0688380
13935.9, 0.0674730
13973.5, 0.0657830
14011.2, 0.0642230
14049.2, 0.0627280
14087.4, 0.0609080
14125.8, 0.0589580
14164.3, 0.0571380
14203.2, 0.0560980
14242.2, 0.0562280
14281.4, 0.0585030
14320.9, 0.0645480
14360.5, 0.0735840
14400.4, 0.0814490
14440.5, 0.0846990
14480.9, 0.0844390
14521.4, 0.0836590
14562.2, 0.0850890
14603.3, 0.0923050
14644.5, 0.105305
14686.0, 0.119996
14727.7, 0.130526
14769.7, 0.132476
14811.9, 0.127666
14854.3, 0.119151
14897.0, 0.109335
14939.9, 0.0994550
14983.1, 0.0913940
15026.5, 0.0861940
15070.2, 0.0813840
15114.2, 0.0767040
15158.3, 0.0726090
15202.8, 0.0691630
15247.5, 0.0662380
15292.5, 0.0651330
15337.7, 0.0660430
15383.2, 0.0696180
15429.0, 0.0748190
15475.1, 0.0806040
15521.4, 0.0848290
15568.0, 0.0866490
15614.9, 0.0859990
15662.1, 0.0839840
15709.6, 0.0817740
15757.3, 0.0794990
15805.4, 0.0778090
15853.7, 0.0770940
15902.3, 0.0768990
15951.2, 0.0766390
16000.5, 0.0761190
16050.0, 0.0757940
16099.8, 0.0749490
16150.0, 0.0736490
16200.5, 0.0728040
16251.3, 0.0726740
16302.4, 0.0718290
16353.8, 0.0702680
16405.5, 0.0700080
16457.6, 0.0695530
16510.0, 0.0684480
16562.8, 0.0676680
16615.9, 0.0663030
16669.3, 0.0648730
16723.1, 0.0633780
16777.2, 0.0623380
16831.7, 0.0616880
16886.5, 0.0608430
16941.7, 0.0594130
16997.2, 0.0579830
17053.1, 0.0569430
17109.4, 0.0560980
17166.1, 0.0554480
17223.1, 0.0551880
17280.5, 0.0546030
17338.3, 0.0536280
17396.5, 0.0525230
17455.1, 0.0525230
17514.0, 0.0522630
17573.4, 0.0514830
17633.2, 0.0512220
17693.4, 0.0515480
17754.0, 0.0519380
17815.0, 0.0529130
17876.4, 0.0535630
17938.3, 0.0550580
18000.5, 0.0567480
18063.3, 0.0585680
18126.4, 0.0603230
18190.0, 0.0624680
18254.1, 0.0653930
18318.6, 0.0676680
18383.5, 0.0690980
18449.0, 0.0710480
18514.9, 0.0728040
18581.2, 0.0737140
18648.0, 0.0744940
18715.4, 0.0759240
18783.2, 0.0778740
18851.5, 0.0798240
18920.3, 0.0816440
18989.6, 0.0846990
19059.4, 0.0890540
19129.7, 0.0963350
19200.6, 0.105305
19272.0, 0.115121
19343.9, 0.124481
19416.3, 0.131631
19489.3, 0.138782
19562.8, 0.146907
19637.0, 0.156203
19711.6, 0.167383
19786.8, 0.181294
19862.6, 0.196505
19939.0, 0.209375
20016.0, 0.220361
20093.6, 0.228876
20171.8, 0.234531
20250.6, 0.236872
20330.0, 0.240577
20410.0, 0.248897
20490.7, 0.257803
20572.0, 0.263653
20654.0, 0.265733
20736.6, 0.266383
20819.9, 0.266318
20903.8, 0.265018
20988.5, 0.263263
21073.8, 0.262158
21159.8, 0.260468
21246.5, 0.256438
21334.0, 0.252797
21422.1, 0.248312
21511.0, 0.245647
21600.7, 0.242982
21691.0, 0.238237
21782.1, 0.232516
21874.0, 0.228746
21966.7, 0.225106
22060.2, 0.221271
22154.5, 0.218363
22249.6, 0.218168
22345.5, 0.214370
22442.2, 0.206676
22539.8, 0.199566
22638.2, 0.191871
22737.5, 0.184567
22837.7, 0.180476
22938.7, 0.179892
23040.7, 0.177164
23143.5, 0.169957
23247.3, 0.163821
23352.1, 0.159146
23457.7, 0.152426
23564.4, 0.144342
23672.0, 0.138693
23780.5, 0.137329
23890.1, 0.136647
24000.7, 0.132265
24112.3, 0.132752
24225.0, 0.139277
24338.7, 0.143173
24453.5, 0.145803
24569.4, 0.154081
24686.4, 0.163918
24804.5, 0.171223
24923.8, 0.176288
25044.2, 0.178625
25165.8, 0.184177
25288.6, 0.187975
25412.5, 0.183495
25537.7, 0.175898
25664.1, 0.178041
25791.8, 0.191190
25920.8, 0.203948
26051.1, 0.211838
26182.6, 0.213104
26315.5, 0.203559
26449.8, 0.188852
26585.4, 0.172002
26722.5, 0.155445
26860.9, 0.137134
27000.8, 0.122233
27142.1, 0.117558
27285.0, 0.119603
27429.4, 0.123888
27575.3, 0.127979
27722.7, 0.131291
27871.8, 0.132167
28022.4, 0.137524
28174.7, 0.143660
28328.7, 0.144050
28484.4, 0.142881
28641.7, 0.142491
28800.9, 0.141225
28961.8, 0.139667
29124.5, 0.135186
29289.0, 0.127784
29455.4, 0.122330
29623.8, 0.117558
29794.0, 0.106649
29966.3, 0.0971040
30140.5, 0.0888260
30316.7, 0.0770410
30495.1, 0.0699310
30675.5, 0.0771380
30858.1, 0.0929160
31042.8, 0.114538
31229.8, 0.134797
31419.1, 0.145803
31610.7, 0.146095
31804.6, 0.141420
32000.9, 0.132654
32199.7, 0.122233
32400.9, 0.112980
32604.8, 0.110253
32811.1, 0.113759
33020.1, 0.122525
33231.8, 0.135771
33446.2, 0.147848
33663.4, 0.156127
33883.4, 0.160510
34106.3, 0.164698
34332.1, 0.166159
34561.0, 0.165477
34792.9, 0.165185
35028.0, 0.162847
35266.3, 0.157685
35507.8, 0.154861
35752.7, 0.155348
36001.0, 0.155153
36252.8, 0.159341
36508.1, 0.162263
36767.0, 0.162750
37029.7, 0.162068
37296.1, 0.161289
37566.3, 0.157101
37840.5, 0.156711
38118.8, 0.153692
38401.2, 0.144537
38687.8, 0.137719
38978.6, 0.142686
39273.9, 0.157393
39573.7, 0.174145
39878.1, 0.187294
40187.3, 0.199273
40501.2, 0.205702
40820.0, 0.211351
41144.0, 0.218850
41473.2, 0.218948
41807.6, 0.213006
42147.5, 0.204046
42493.0, 0.191969
42844.2, 0.186514
43201.2, 0.186417
43564.3, 0.181060
43933.5, 0.166548
44309.0, 0.163334
44691.0, 0.170541
45079.6, 0.175606
45475.0, 0.171418
45877.5, 0.172002
46287.1, 0.177067
46704.2, 0.183300
47128.7, 0.184372
47561.1, 0.189826
48001.5, 0.190021
48450.1, 0.191482
48907.2, 0.193917
49373.0, 0.202001
49847.7, 0.215928
50331.5, 0.223428
50825.0, 0.222649
51328.2, 0.232388
51841.5, 0.231512
52365.1, 0.210084
52899.4, 0.208331
53444.8, 0.233460
54001.5, 0.244368
54570.1, 0.233947
55150.6, 0.211351
55743.6, 0.193430
56349.5, 0.176288
56968.7, 0.181255
57601.7, 0.190410
58248.9, 0.191774
58910.9, 0.189047
59588.1, 0.196644
60281.0, 0.202877
60990.2, 0.200150
61716.3, 0.192456
62459.8, 0.187391
63221.6, 0.176970
64002.1, 0.123109
64802.1, 0.0642820
65622.1, 0.153497
66463.4, 0.190703
67326.6, 0.174729
68212.4, 0.168886
69121.9, 0.162652
70056.0, 0.165672
71015.7, 0.171710
72002.0, 0.165769
73016.3, 0.158172
74059.4, 0.150478
75132.7, 0.143952
76237.6, 0.149991
77375.5, 0.154374
78547.9, 0.155153
79756.3, 0.172587
81002.5, 0.184274
82288.5, 0.189339
83615.7, 0.191482
84986.5, 0.202877
86402.9, 0.224889
87867.4, 0.243881
89382.4, 0.254303
90950.5, 0.258880
92574.6, 0.263653
94257.2, 0.260925
96002.7, 0.254984
97814.1, 0.259367
99695.1, 0.256056
101650.0, 0.270763
103683.0, 0.299592
105799.0, 0.309137
108003.0, 0.300956
110301.0, 0.295793
112699.0, 0.289852
115204.0, 0.298423
117822.0, 0.306118
120562.0, 0.305144
123433.0, 0.311572
126443.0, 0.315468
129604.0, 0.313033
132926.0, 0.311085
136424.0, 0.328129
140111.0, 0.321117
144003.0, 0.319656
148118.0, 0.324428
152474.0, 0.308845
157095.0, 0.265114
162004.0, 0.274366
167231.0, 0.338551
172805.0, 0.371081
178764.0, 0.328421
185148.0, 0.288586
192005.0, 0.208624
199390.0, 0.605904
207366.0, 0.396209
216006.0, 0.351504
