Database of Origin, USGS Spectral Database
Sample Description, See USGS database for additional info
Date Added,2016-08-03 21:30:37.604071

Data ID,USGS_dio06          
Sample ID, diopside_nmnh18685.7049
Mineral Name, diopside
Material Class,Inosilicate

Wavelength
1578.13, 0.561215
1578.61, 0.561565
1579.09, 0.561495
1579.57, 0.561845
1580.05, 0.562125
1580.54, 0.561845
1581.02, 0.561775
1581.5, 0.562125
1581.98, 0.562265
1582.47, 0.562265
1582.95, 0.562475
1583.43, 0.562545
1583.92, 0.562265
1584.4, 0.562405
1584.88, 0.562755
1585.37, 0.562615
1585.85, 0.562545
1586.34, 0.562895
1586.82, 0.562825
1587.31, 0.562825
1587.8, 0.563105
1588.28, 0.563385
1588.77, 0.563315
1589.26, 0.563945
1589.74, 0.564295
1590.23, 0.564295
1590.72, 0.564365
1591.21, 0.564435
1591.7, 0.564225
1592.19, 0.565064
1592.67, 0.565554
1593.16, 0.565414
1593.65, 0.564924
1594.14, 0.564784
1594.63, 0.565344
1595.12, 0.565764
1595.61, 0.565554
1596.11, 0.565694
1596.6, 0.566184
1597.09, 0.566604
1597.58, 0.566254
1598.08, 0.565974
1598.57, 0.566534
1599.06, 0.567374
1599.55, 0.567444
1600.05, 0.567094
1600.54, 0.567164
1601.04, 0.567514
1601.53, 0.567864
1602.03, 0.568074
1602.52, 0.568144
1603.02, 0.568214
1603.51, 0.568354
1604.01, 0.568494
1604.5, 0.568564
1605.0, 0.568634
1605.5, 0.568704
1606.0, 0.568914
1606.49, 0.569474
1606.99, 0.569754
1607.49, 0.570103
1607.99, 0.570103
1608.49, 0.569893
1608.99, 0.569893
1609.49, 0.569893
1609.99, 0.569963
1610.49, 0.570243
1610.99, 0.570523
1611.49, 0.570873
1611.99, 0.571083
1612.49, 0.571153
1612.99, 0.571433
1613.49, 0.571783
1614.0, 0.571993
1614.5, 0.571923
1615.0, 0.572063
1615.51, 0.572203
1616.01, 0.572273
1616.51, 0.572553
1617.02, 0.572763
1617.52, 0.572833
1618.03, 0.572833
1618.53, 0.572973
1619.04, 0.573323
1619.54, 0.573253
1620.05, 0.573253
1620.55, 0.573603
1621.06, 0.574163
1621.57, 0.574093
1622.08, 0.573883
1622.58, 0.574233
1623.09, 0.574862
1623.6, 0.574932
1624.11, 0.575142
1624.62, 0.574862
1625.13, 0.575142
1625.64, 0.575562
1626.15, 0.575912
1626.66, 0.575842
1627.17, 0.575632
1627.68, 0.575562
1628.19, 0.575492
1628.7, 0.575912
1629.21, 0.576542
1629.72, 0.576682
1630.24, 0.576542
1630.75, 0.576472
1631.26, 0.576822
1631.78, 0.576822
1632.29, 0.577172
1632.8, 0.577452
1633.32, 0.577802
1633.83, 0.577592
1634.35, 0.577732
1634.86, 0.577732
1635.38, 0.577802
1635.9, 0.577942
1636.41, 0.578292
1636.93, 0.578222
1637.45, 0.578432
1637.96, 0.578572
1638.48, 0.578642
1639.0, 0.578572
1639.52, 0.578432
1640.04, 0.578362
1640.56, 0.578712
1641.08, 0.579272
1641.59, 0.579691
1642.11, 0.579412
1642.63, 0.579691
1643.16, 0.579971
1643.68, 0.580181
1644.2, 0.580041
1644.72, 0.579971
1645.24, 0.580041
1645.76, 0.580601
1646.29, 0.580741
1646.81, 0.580461
1647.33, 0.580461
1647.86, 0.580531
1648.38, 0.580531
1648.9, 0.580671
1649.43, 0.580881
1649.95, 0.580951
1650.48, 0.581231
1651.0, 0.581301
1651.53, 0.581091
1652.06, 0.581301
1652.58, 0.581581
1653.11, 0.581651
1653.64, 0.581651
1654.17, 0.582001
1654.69, 0.582001
1655.22, 0.582001
1655.75, 0.582001
1656.28, 0.582071
1656.81, 0.582141
1657.34, 0.582561
1657.87, 0.582771
1658.4, 0.582911
1658.93, 0.582981
1659.46, 0.582981
1659.99, 0.583051
1660.52, 0.583191
1661.05, 0.583401
1661.59, 0.583681
1662.12, 0.583681
1662.65, 0.583471
1663.19, 0.583751
1663.72, 0.584241
1664.26, 0.584031
1664.79, 0.583891
1665.32, 0.584171
1665.86, 0.584520
1666.39, 0.584660
1666.93, 0.584800
1667.47, 0.584730
1668.0, 0.584800
1668.54, 0.584730
1669.08, 0.585080
1669.61, 0.585500
1670.15, 0.585430
1670.69, 0.585150
1671.23, 0.585430
1671.77, 0.585780
1672.31, 0.586060
1672.85, 0.586480
1673.39, 0.586970
1673.93, 0.586760
1674.47, 0.586550
1675.01, 0.586900
1675.55, 0.587040
1676.09, 0.587040
1676.64, 0.587180
1677.18, 0.587180
1677.72, 0.587390
1678.26, 0.587810
1678.81, 0.588300
1679.35, 0.588370
1679.89, 0.588090
1680.44, 0.588160
1680.98, 0.588440
1681.53, 0.588650
1682.07, 0.588440
1682.62, 0.588580
1683.17, 0.588930
1683.71, 0.588930
1684.26, 0.589000
1684.81, 0.588930
1685.36, 0.588790
1685.9, 0.588930
1686.45, 0.589490
1687.0, 0.589769
1687.55, 0.589769
1688.1, 0.590049
1688.65, 0.590119
1689.2, 0.590329
1689.75, 0.590609
1690.3, 0.590399
1690.85, 0.590259
1691.41, 0.590119
1691.96, 0.590539
1692.51, 0.590959
1693.06, 0.591029
1693.61, 0.591239
1694.17, 0.591169
1694.72, 0.591029
1695.28, 0.591379
1695.83, 0.591799
1696.39, 0.591939
1696.94, 0.591589
1697.5, 0.591799
1698.05, 0.592009
1698.61, 0.591869
1699.17, 0.591869
1699.72, 0.591869
1700.28, 0.592079
1700.84, 0.592779
1701.4, 0.592779
1701.95, 0.592569
1702.51, 0.592569
1703.07, 0.592359
1703.63, 0.592569
1704.19, 0.592989
1704.75, 0.593339
1705.31, 0.593339
1705.88, 0.593059
1706.44, 0.592849
1707.0, 0.592919
1707.56, 0.593199
1708.12, 0.593409
1708.69, 0.593479
1709.25, 0.593549
1709.81, 0.593689
1710.38, 0.593759
1710.94, 0.593899
1711.51, 0.593759
1712.07, 0.593689
1712.64, 0.593619
1713.2, 0.593829
1713.77, 0.593759
1714.34, 0.593899
1714.9, 0.594178
1715.47, 0.594318
1716.04, 0.594178
1716.61, 0.594178
1717.18, 0.594388
1717.74, 0.594668
1718.31, 0.594878
1718.88, 0.594808
1719.45, 0.594808
1720.02, 0.594738
1720.59, 0.594598
1721.17, 0.594738
1721.74, 0.594878
1722.31, 0.594878
1722.88, 0.595158
1723.45, 0.595298
1724.03, 0.595438
1724.6, 0.595438
1725.18, 0.595648
1725.75, 0.595718
1726.33, 0.595648
1726.9, 0.595508
1727.48, 0.595788
1728.05, 0.595858
1728.63, 0.595788
1729.2, 0.595858
1729.78, 0.596208
1730.36, 0.596558
1730.94, 0.596348
1731.51, 0.596208
1732.09, 0.596138
1732.67, 0.596278
1733.25, 0.596488
1733.83, 0.597048
1734.41, 0.597188
1734.99, 0.596698
1735.57, 0.596838
1736.15, 0.597398
1736.73, 0.597468
1737.32, 0.597328
1737.9, 0.597398
1738.48, 0.597538
1739.07, 0.597678
1739.65, 0.597398
1740.23, 0.597468
1740.82, 0.597818
1741.4, 0.597958
1741.99, 0.598238
1742.57, 0.598238
1743.16, 0.598098
1743.74, 0.598378
1744.33, 0.598658
1744.92, 0.598868
1745.51, 0.598868
1746.09, 0.598728
1746.68, 0.598798
1747.27, 0.598938
1747.86, 0.598868
1748.45, 0.599008
1749.04, 0.599008
1749.63, 0.599357
1750.22, 0.599637
1750.81, 0.599917
1751.4, 0.599987
1751.99, 0.599777
1752.59, 0.599987
1753.18, 0.600267
1753.77, 0.600267
1754.37, 0.600197
1754.96, 0.600477
1755.56, 0.600617
1756.15, 0.600267
1756.74, 0.600617
1757.34, 0.601177
1757.94, 0.601247
1758.53, 0.601107
1759.13, 0.601037
1759.73, 0.600967
1760.32, 0.601247
1760.92, 0.601667
1761.52, 0.601947
1762.12, 0.601947
1762.72, 0.601737
1763.32, 0.601947
1763.92, 0.602157
1764.52, 0.602367
1765.12, 0.602507
1765.72, 0.602227
1766.32, 0.602157
1766.92, 0.602297
1767.53, 0.602297
1768.13, 0.602717
1768.73, 0.602857
1769.34, 0.602787
1769.94, 0.603207
1770.55, 0.603347
1771.15, 0.602997
1771.76, 0.603137
1772.36, 0.603207
1772.97, 0.603207
1773.57, 0.603347
1774.18, 0.603417
1774.79, 0.603277
1775.4, 0.603347
1776.0, 0.603697
1776.61, 0.603907
1777.22, 0.603837
1777.83, 0.603767
1778.44, 0.603697
1779.05, 0.603627
1779.66, 0.603697
1780.27, 0.603697
1780.88, 0.603907
1781.5, 0.603977
1782.11, 0.604116
1782.72, 0.604116
1783.33, 0.604186
1783.95, 0.604326
1784.56, 0.604186
1785.18, 0.604326
1785.79, 0.604256
1786.41, 0.604186
1787.02, 0.604047
1787.64, 0.603907
1788.26, 0.604116
1788.87, 0.604186
1789.49, 0.604396
1790.11, 0.604396
1790.73, 0.604186
1791.35, 0.604186
1791.96, 0.604536
1792.58, 0.604746
1793.21, 0.604886
1793.83, 0.604886
1794.45, 0.604816
1795.07, 0.604956
1795.69, 0.604606
1796.31, 0.604606
1796.93, 0.604676
1797.56, 0.604606
1798.18, 0.604816
1798.8, 0.605236
1799.43, 0.605096
1800.05, 0.604816
1800.68, 0.604816
1801.3, 0.604886
1801.93, 0.604816
1802.56, 0.604816
1803.18, 0.605096
1803.81, 0.605166
1804.44, 0.604956
1805.07, 0.604956
1805.7, 0.604886
1806.33, 0.604676
1806.95, 0.604536
1807.58, 0.604676
1808.22, 0.605026
1808.85, 0.605166
1809.48, 0.605096
1810.11, 0.605166
1810.74, 0.605236
1811.38, 0.605166
1812.01, 0.605236
1812.64, 0.605516
1813.28, 0.605586
1813.91, 0.605446
1814.55, 0.605166
1815.18, 0.605096
1815.82, 0.605446
1816.45, 0.605726
1817.09, 0.606006
1817.73, 0.605656
1818.36, 0.605866
1819.0, 0.606286
1819.64, 0.606146
1820.28, 0.606006
1820.92, 0.606006
1821.56, 0.605656
1822.2, 0.606076
1822.84, 0.606496
1823.48, 0.606636
1824.12, 0.606566
1824.76, 0.606706
1825.41, 0.606286
1826.05, 0.606076
1826.69, 0.606636
1827.34, 0.606706
1827.98, 0.606496
1828.63, 0.606706
1829.27, 0.606776
1829.92, 0.606566
1830.56, 0.606636
1831.21, 0.607056
1831.86, 0.607266
1832.5, 0.607406
1833.15, 0.607546
1833.8, 0.607546
1834.45, 0.607266
1835.1, 0.607126
1835.75, 0.607266
1836.4, 0.607406
1837.05, 0.606986
1837.7, 0.607126
1838.35, 0.607826
1839.01, 0.607826
1839.66, 0.607756
1840.31, 0.607896
1840.96, 0.607336
1841.62, 0.607406
1842.27, 0.608106
1842.93, 0.608456
1843.58, 0.608386
1844.24, 0.608666
1844.9, 0.608666
1845.55, 0.608316
1846.21, 0.607756
1846.87, 0.607826
1847.53, 0.608316
1848.18, 0.608666
1848.84, 0.609225
1849.5, 0.609015
1850.16, 0.608945
1850.82, 0.609015
1851.48, 0.609295
1852.14, 0.609225
1852.81, 0.609015
1853.47, 0.608526
1854.13, 0.608876
1854.8, 0.609225
1855.46, 0.609155
1856.12, 0.608806
1856.79, 0.609365
1857.45, 0.609995
1858.12, 0.609785
1858.79, 0.609225
1859.45, 0.608876
1860.12, 0.609505
1860.79, 0.609575
1861.46, 0.609435
1862.12, 0.609365
1862.79, 0.609575
1863.46, 0.609505
1864.13, 0.609575
1864.8, 0.609715
1865.48, 0.609505
1866.15, 0.609435
1866.82, 0.608806
1867.49, 0.608526
1868.16, 0.609015
1868.84, 0.609155
1869.51, 0.609085
1870.19, 0.608526
1870.86, 0.608666
1871.54, 0.609155
1872.21, 0.608456
1872.89, 0.608316
1873.56, 0.608806
1874.24, 0.609225
1874.92, 0.609085
1875.6, 0.609155
1876.28, 0.608806
1876.96, 0.608806
1877.64, 0.608876
1878.32, 0.608736
1879.0, 0.608876
1879.68, 0.609085
1880.36, 0.608876
1881.04, 0.608596
1881.73, 0.608806
1882.41, 0.608945
1883.09, 0.608736
1883.78, 0.608316
1884.46, 0.608526
1885.15, 0.608736
1885.83, 0.608666
1886.52, 0.608666
1887.21, 0.608666
1887.89, 0.608666
1888.58, 0.608526
1889.27, 0.608246
1889.96, 0.607966
1890.65, 0.608176
1891.34, 0.608106
1892.03, 0.607826
1892.72, 0.607966
1893.41, 0.607966
1894.1, 0.608176
1894.79, 0.608106
1895.49, 0.608036
1896.18, 0.607756
1896.87, 0.607686
1897.57, 0.607826
1898.26, 0.607546
1898.96, 0.606986
1899.65, 0.607196
1900.35, 0.607686
1901.05, 0.607616
1901.74, 0.607336
1902.44, 0.606846
1903.14, 0.607126
1903.84, 0.607336
1904.54, 0.606846
1905.24, 0.606636
1905.94, 0.606846
1906.64, 0.607196
1907.34, 0.607406
1908.04, 0.607406
1908.75, 0.607336
1909.45, 0.607266
1910.15, 0.607266
1910.86, 0.607126
1911.56, 0.607406
1912.27, 0.607546
1912.97, 0.607266
1913.68, 0.607266
1914.39, 0.607686
1915.09, 0.607546
1915.8, 0.607406
1916.51, 0.607616
1917.22, 0.607686
1917.93, 0.607616
1918.64, 0.607546
1919.35, 0.607336
1920.06, 0.607266
1920.77, 0.607616
1921.48, 0.607826
1922.19, 0.607826
1922.91, 0.607756
1923.62, 0.607756
1924.33, 0.608246
1925.05, 0.608456
1925.76, 0.608386
1926.48, 0.608316
1927.19, 0.608176
1927.91, 0.607896
1928.63, 0.608176
1929.35, 0.608386
1930.07, 0.608386
1930.78, 0.608456
1931.5, 0.608666
1932.22, 0.608526
1932.94, 0.608386
1933.66, 0.608316
1934.39, 0.608456
1935.11, 0.608456
1935.83, 0.608526
1936.55, 0.608596
1937.28, 0.608806
1938.0, 0.608736
1938.73, 0.608666
1939.45, 0.608316
1940.18, 0.608456
1940.9, 0.608736
1941.63, 0.608945
1942.36, 0.609085
1943.09, 0.609085
1943.81, 0.608945
1944.54, 0.608806
1945.27, 0.608666
1946.0, 0.608736
1946.73, 0.608736
1947.47, 0.609085
1948.2, 0.609225
1948.93, 0.609085
1949.66, 0.608945
1950.4, 0.608876
1951.13, 0.608736
1951.86, 0.608596
1952.6, 0.608876
1953.34, 0.608876
1954.07, 0.608666
1954.81, 0.608666
1955.55, 0.608736
1956.29, 0.608736
1957.02, 0.608596
1957.76, 0.608666
1958.5, 0.608736
1959.24, 0.608596
1959.98, 0.608526
1960.72, 0.608596
1961.47, 0.608526
1962.21, 0.608106
1962.95, 0.608036
1963.7, 0.607896
1964.44, 0.608036
1965.18, 0.607966
1965.93, 0.607826
1966.67, 0.607826
1967.42, 0.607826
1968.17, 0.607686
1968.92, 0.607616
1969.66, 0.607406
1970.41, 0.607336
1971.16, 0.607476
1971.91, 0.607546
1972.66, 0.607406
1973.41, 0.607196
1974.16, 0.607126
1974.92, 0.607126
1975.67, 0.607126
1976.42, 0.606986
1977.18, 0.607126
1977.93, 0.607126
1978.69, 0.606916
1979.44, 0.606706
1980.2, 0.606636
1980.95, 0.606706
1981.71, 0.606916
1982.47, 0.607056
1983.23, 0.606986
1983.99, 0.606986
1984.74, 0.606776
1985.51, 0.606566
1986.27, 0.606636
1987.03, 0.606356
1987.79, 0.606006
1988.55, 0.606286
1989.32, 0.606286
1990.08, 0.606006
1990.84, 0.606076
1991.61, 0.606426
1992.37, 0.606356
1993.14, 0.606216
1993.9, 0.606356
1994.67, 0.606356
1995.44, 0.606076
1996.21, 0.605796
1996.98, 0.605936
1997.75, 0.606146
1998.52, 0.605866
1999.29, 0.605936
2000.06, 0.605936
2000.83, 0.605586
2001.6, 0.605796
2002.38, 0.606146
2003.15, 0.606216
2003.93, 0.606286
2004.7, 0.606146
2005.48, 0.605866
2006.25, 0.605866
2007.03, 0.606076
2007.81, 0.606006
2008.58, 0.605796
2009.36, 0.606006
2010.14, 0.606286
2010.92, 0.606496
2011.7, 0.606426
2012.48, 0.605936
2013.26, 0.605726
2014.05, 0.606006
2014.83, 0.606216
2015.61, 0.606426
2016.4, 0.606356
2017.18, 0.606426
2017.97, 0.606496
2018.75, 0.606356
2019.54, 0.606286
2020.32, 0.606146
2021.11, 0.606006
2021.9, 0.606216
2022.69, 0.606566
2023.48, 0.606356
2024.27, 0.606356
2025.06, 0.606426
2025.85, 0.606286
2026.64, 0.606216
2027.44, 0.605796
2028.23, 0.606006
2029.02, 0.606496
2029.82, 0.606426
2030.61, 0.606146
2031.41, 0.606566
2032.2, 0.606566
2033.0, 0.606286
2033.8, 0.606216
2034.6, 0.606286
2035.4, 0.606356
2036.2, 0.606426
2037.0, 0.606006
2037.8, 0.606006
2038.6, 0.606216
2039.4, 0.606216
2040.2, 0.606216
2041.01, 0.606216
2041.81, 0.606076
2042.61, 0.606216
2043.42, 0.605936
2044.22, 0.605796
2045.03, 0.605866
2045.84, 0.605936
2046.65, 0.606076
2047.46, 0.606216
2048.26, 0.606006
2049.07, 0.605796
2049.88, 0.605516
2050.69, 0.605516
2051.51, 0.605656
2052.32, 0.605656
2053.13, 0.605446
2053.94, 0.605236
2054.76, 0.605306
2055.57, 0.605376
2056.39, 0.605166
2057.2, 0.605096
2058.02, 0.604956
2058.84, 0.604886
2059.66, 0.604676
2060.48, 0.604606
2061.29, 0.604746
2062.11, 0.604536
2062.94, 0.604466
2063.76, 0.604466
2064.58, 0.604326
2065.4, 0.604326
2066.22, 0.604116
2067.05, 0.603627
2067.87, 0.603207
2068.7, 0.603207
2069.52, 0.603137
2070.35, 0.602857
2071.18, 0.602927
2072.0, 0.602997
2072.83, 0.602787
2073.66, 0.602507
2074.49, 0.602647
2075.32, 0.602717
2076.15, 0.602367
2076.98, 0.602227
2077.82, 0.602157
2078.65, 0.602017
2079.48, 0.601877
2080.32, 0.601667
2081.15, 0.601737
2081.99, 0.601807
2082.83, 0.601527
2083.66, 0.601247
2084.5, 0.600897
2085.34, 0.600757
2086.18, 0.600547
2087.02, 0.600547
2087.86, 0.600547
2088.7, 0.600547
2089.54, 0.600547
2090.39, 0.600337
2091.23, 0.600127
2092.07, 0.600267
2092.92, 0.599987
2093.76, 0.599637
2094.61, 0.599357
2095.45, 0.599357
2096.3, 0.599567
2097.15, 0.599427
2098.0, 0.599357
2098.85, 0.599637
2099.7, 0.599497
2100.55, 0.599078
2101.4, 0.598938
2102.25, 0.599008
2103.1, 0.599008
2103.96, 0.598798
2104.81, 0.598728
2105.67, 0.598658
2106.52, 0.598658
2107.38, 0.598448
2108.24, 0.598238
2109.09, 0.598238
2109.95, 0.598448
2110.81, 0.598238
2111.67, 0.597958
2112.53, 0.598168
2113.39, 0.598238
2114.25, 0.598098
2115.12, 0.597888
2115.98, 0.598028
2116.84, 0.598238
2117.71, 0.598308
2118.58, 0.598238
2119.44, 0.598098
2120.31, 0.597748
2121.18, 0.597678
2122.04, 0.597748
2122.91, 0.597678
2123.78, 0.597678
2124.65, 0.597608
2125.52, 0.597538
2126.4, 0.597608
2127.27, 0.597608
2128.14, 0.597818
2129.02, 0.597678
2129.89, 0.597328
2130.77, 0.597118
2131.64, 0.597328
2132.52, 0.597328
2133.4, 0.597258
2134.27, 0.597398
2135.15, 0.597328
2136.03, 0.597258
2136.91, 0.597188
2137.79, 0.597538
2138.68, 0.597258
2139.56, 0.596768
2140.44, 0.597048
2141.33, 0.597118
2142.21, 0.597048
2143.1, 0.597048
2143.99, 0.596908
2144.87, 0.596908
2145.76, 0.596908
2146.65, 0.596628
2147.54, 0.596348
2148.43, 0.596418
2149.32, 0.596558
2150.21, 0.596768
2151.1, 0.596768
2151.99, 0.596628
2152.89, 0.596488
2153.78, 0.596208
2154.68, 0.596138
2155.57, 0.595718
2156.47, 0.595648
2157.37, 0.595858
2158.27, 0.595718
2159.16, 0.595578
2160.06, 0.595438
2160.96, 0.595158
2161.86, 0.595158
2162.77, 0.595228
2163.67, 0.595088
2164.57, 0.594668
2165.48, 0.594598
2166.38, 0.594528
2167.29, 0.594528
2168.2, 0.594459
2169.1, 0.594459
2170.01, 0.594178
2170.92, 0.593969
2171.83, 0.593899
2172.74, 0.593479
2173.65, 0.593479
2174.56, 0.593479
2175.47, 0.593269
2176.39, 0.593199
2177.3, 0.593059
2178.22, 0.592849
2179.13, 0.592639
2180.05, 0.592639
2180.96, 0.592359
2181.88, 0.592009
2182.8, 0.592009
2183.72, 0.591869
2184.64, 0.591799
2185.56, 0.591449
2186.48, 0.591309
2187.41, 0.591309
2188.33, 0.591099
2189.25, 0.590959
2190.18, 0.590749
2191.1, 0.590679
2192.03, 0.590399
2192.96, 0.590189
2193.89, 0.590189
2194.82, 0.590119
2195.74, 0.589839
2196.68, 0.589629
2197.61, 0.589279
2198.54, 0.589210
2199.47, 0.589210
2200.4, 0.589140
2201.34, 0.588860
2202.28, 0.588650
2203.21, 0.588440
2204.15, 0.588090
2205.08, 0.588090
2206.02, 0.588300
2206.96, 0.588230
2207.9, 0.587880
2208.84, 0.587600
2209.78, 0.587390
2210.73, 0.587320
2211.67, 0.587110
2212.61, 0.586970
2213.56, 0.587180
2214.5, 0.586900
2215.45, 0.586620
2216.4, 0.586690
2217.35, 0.586760
2218.3, 0.586620
2219.24, 0.586270
2220.2, 0.586410
2221.15, 0.586200
2222.1, 0.585920
2223.05, 0.585920
2224.0, 0.585990
2224.96, 0.586060
2225.91, 0.585990
2226.87, 0.585780
2227.83, 0.585640
2228.79, 0.585570
2229.74, 0.585640
2230.7, 0.585500
2231.66, 0.585150
2232.63, 0.585220
2233.59, 0.585150
2234.55, 0.585080
2235.51, 0.585080
2236.48, 0.585080
2237.44, 0.584940
2238.41, 0.584800
2239.38, 0.584660
2240.34, 0.584800
2241.31, 0.584940
2242.28, 0.584800
2243.25, 0.584730
2244.22, 0.584660
2245.19, 0.584660
2246.17, 0.584660
2247.14, 0.584520
2248.12, 0.584660
2249.09, 0.584591
2250.07, 0.584450
2251.04, 0.584591
2252.02, 0.584450
2253.0, 0.584247
2253.98, 0.584518
2254.96, 0.584586
2255.94, 0.583570
2256.92, 0.583299
2257.91, 0.583705
2258.89, 0.583570
2259.88, 0.582960
2260.86, 0.582486
2261.85, 0.582553
2262.83, 0.582418
2263.82, 0.582282
2264.81, 0.582147
2265.8, 0.582147
2266.79, 0.581605
2267.78, 0.581605
2268.78, 0.581740
2269.77, 0.581876
2270.76, 0.581537
2271.76, 0.581605
2272.75, 0.581334
2273.75, 0.581063
2274.75, 0.580385
2275.75, 0.580317
2276.75, 0.580588
2277.75, 0.580656
2278.75, 0.580859
2279.75, 0.580385
2280.75, 0.579708
2281.76, 0.579369
2282.76, 0.578895
2283.77, 0.578556
2284.77, 0.578014
2285.78, 0.577540
2286.79, 0.577404
2287.8, 0.577065
2288.81, 0.576862
2289.82, 0.576184
2290.83, 0.575778
2291.84, 0.576049
2292.86, 0.576523
2293.87, 0.576862
2294.89, 0.576862
2295.91, 0.576726
2296.92, 0.576523
2297.94, 0.576726
2298.96, 0.576659
2299.98, 0.576117
2301.0, 0.575846
2302.02, 0.575981
2303.04, 0.575913
2304.07, 0.575371
2305.09, 0.574694
2306.12, 0.574355
2307.15, 0.573813
2308.17, 0.573068
2309.2, 0.572526
2310.23, 0.572051
2311.26, 0.571442
2312.29, 0.571645
2313.32, 0.572119
2314.35, 0.572322
2315.39, 0.572526
2316.42, 0.572729
2317.46, 0.573881
2318.5, 0.574558
2319.53, 0.574694
2320.57, 0.574965
2321.61, 0.575100
2322.65, 0.575371
2323.69, 0.575642
2324.73, 0.575710
2325.78, 0.575846
2326.82, 0.576252
2327.86, 0.576659
2328.91, 0.577065
2329.96, 0.577268
2331.01, 0.577336
2332.05, 0.577472
2333.1, 0.577472
2334.15, 0.577133
2335.21, 0.577268
2336.26, 0.576997
2337.31, 0.576659
2338.36, 0.576659
2339.42, 0.576659
2340.48, 0.576862
2341.53, 0.577268
2342.59, 0.577472
2343.65, 0.577065
2344.71, 0.576726
2345.77, 0.576388
2346.83, 0.576388
2347.9, 0.576659
2348.96, 0.576591
2350.02, 0.576930
2351.09, 0.576930
2352.16, 0.577065
2353.23, 0.576794
2354.29, 0.576117
2355.36, 0.575642
2356.43, 0.575981
2357.51, 0.575981
2358.58, 0.576049
2359.65, 0.576117
2360.73, 0.576320
2361.8, 0.575846
2362.88, 0.575575
2363.96, 0.576184
2365.03, 0.576117
2366.11, 0.576117
2367.19, 0.576252
2368.27, 0.576184
2369.36, 0.575507
2370.44, 0.575371
2371.53, 0.575710
2372.61, 0.575439
2373.7, 0.575100
2374.78, 0.574897
2375.87, 0.574762
2376.96, 0.574626
2378.05, 0.574694
2379.14, 0.574287
2380.24, 0.574152
2381.33, 0.574220
2382.42, 0.574491
2383.52, 0.574152
2384.61, 0.573949
2385.71, 0.573678
2386.81, 0.573474
2387.91, 0.573745
2389.01, 0.573813
2390.11, 0.574016
2391.22, 0.574152
2392.32, 0.573813
2393.42, 0.573813
2394.53, 0.574016
2395.64, 0.574491
2396.74, 0.574626
2397.85, 0.574694
2398.96, 0.574626
2400.07, 0.575100
2401.18, 0.575033
2402.3, 0.574965
2403.41, 0.575100
2404.52, 0.575507
2405.64, 0.575642
2406.76, 0.575710
2407.88, 0.575913
2408.99, 0.576117
2410.11, 0.575846
2411.23, 0.575778
2412.36, 0.575846
2413.48, 0.575846
2414.6, 0.575710
2415.73, 0.575846
2416.85, 0.575710
2417.98, 0.575642
2419.11, 0.575575
2420.24, 0.575507
2421.37, 0.575507
2422.5, 0.576117
2423.64, 0.576252
2424.77, 0.575981
2425.9, 0.575710
2427.04, 0.575778
2428.18, 0.576049
2429.31, 0.576455
2430.45, 0.576794
2431.59, 0.576523
2432.73, 0.575846
2433.88, 0.576049
2435.02, 0.576252
2436.16, 0.576388
2437.31, 0.576591
2438.45, 0.576659
2439.6, 0.576388
2440.75, 0.576455
2441.9, 0.576523
2443.05, 0.576591
2444.2, 0.576591
2445.35, 0.577065
2446.51, 0.577201
2447.67, 0.577201
2448.82, 0.577201
2449.98, 0.577268
2451.14, 0.577607
2452.3, 0.577675
2453.46, 0.577811
2454.62, 0.577878
2455.78, 0.577946
2456.94, 0.578014
2458.11, 0.577878
2459.28, 0.577878
2460.44, 0.578149
2461.61, 0.578353
2462.78, 0.578556
2463.95, 0.578488
2465.12, 0.578420
2466.3, 0.578759
2467.47, 0.579233
2468.65, 0.579572
2469.82, 0.579640
2471.0, 0.579640
2472.18, 0.579911
2473.36, 0.580046
2474.54, 0.579911
2475.72, 0.580385
2476.9, 0.580250
2478.08, 0.580317
2479.27, 0.580453
2480.46, 0.580724
2481.64, 0.581198
2482.83, 0.581605
2484.02, 0.581673
2485.21, 0.581605
2486.4, 0.582079
2487.6, 0.582689
2488.79, 0.582553
2489.99, 0.582282
2491.18, 0.582486
2492.38, 0.582757
2493.58, 0.582960
2494.78, 0.582892
2495.98, 0.582824
2497.18, 0.583095
2498.39, 0.583502
2499.59, 0.583976
2500.8, 0.583976
2502.01, 0.583841
2503.21, 0.584044
2504.42, 0.584247
2505.63, 0.584383
2506.84, 0.584586
2508.06, 0.584722
2509.27, 0.584857
2510.49, 0.584789
2511.7, 0.584789
2512.92, 0.584992
2514.14, 0.585128
2515.36, 0.585331
2516.58, 0.585670
2517.8, 0.585806
2519.03, 0.585941
2520.25, 0.585806
2521.48, 0.585602
2522.7, 0.585941
2523.93, 0.586483
2525.16, 0.586483
2526.39, 0.586686
2527.62, 0.586619
2528.86, 0.586415
2530.09, 0.586890
2531.33, 0.587838
2532.56, 0.588041
2533.8, 0.587228
2535.04, 0.587838
2536.28, 0.588854
2537.52, 0.587838
2538.76, 0.587296
2540.01, 0.587364
2541.25, 0.588312
2542.5, 0.589735
2543.75, 0.589668
2544.99, 0.588380
2546.24, 0.588380
2547.49, 0.589735
2548.75, 0.589600
2550.0, 0.589464
2551.26, 0.590413
2552.51, 0.590819
2553.77, 0.589600
2555.03, 0.588109
2556.29, 0.588245
2557.55, 0.588380
2558.81, 0.588922
2560.08, 0.592378
2561.34, 0.596240
2562.61, 0.595969
2563.88, 0.595359
2565.14, 0.592717
2566.41, 0.589600
2567.68, 0.589803
2568.96, 0.592784
2570.23, 0.592852
2571.51, 0.590752
2572.78, 0.594749
2574.06, 0.594885
2575.34, 0.592445
2576.62, 0.594275
2577.9, 0.592175
2579.18, 0.590277
2580.47, 0.593191
2581.75, 0.593259
2583.04, 0.596579
2584.32, 0.598679
2585.61, 0.594546
2586.9, 0.595698
2588.2, 0.595223
2589.49, 0.593665
2590.78, 0.591565
2592.08, 0.592107
2593.37, 0.600441
2594.67, 0.611417
2595.97, 0.604235
2597.27, 0.594681
2598.57, 0.591361
2599.88, 0.591971
2601.18, 0.594410
2602.49, 0.595833
2603.79, 0.597527
2605.1, 0.601321
2606.41, 0.599898
2607.72, 0.596579
2609.03, 0.595833
2610.35, 0.594546
2611.66, 0.593597
2612.98, 0.594478
2614.3, 0.593665
2615.62, 0.597934
2616.94, 0.602067
2618.26, 0.597798
2619.58, 0.599221
2620.91, 0.599628
2622.23, 0.593462
2623.56, 0.592039
2624.89, 0.593936
2626.22, 0.599221
2627.55, 0.597595
2628.88, 0.597866
2630.21, 0.603490
2631.55, 0.599492
2632.89, 0.596308
2634.22, 0.596308
2635.56, 0.593597
2636.9, 0.592920
2638.25, 0.592784
2639.59, 0.593191
2640.93, 0.594072
2642.28, 0.594614
2643.63, 0.594004
2644.98, 0.596036
2646.33, 0.596036
2647.68, 0.594004
2649.03, 0.592988
2650.39, 0.593733
2651.74, 0.597053
2653.1, 0.597459
2654.46, 0.596036
2655.82, 0.596172
2657.18, 0.594139
2658.54, 0.596172
2659.9, 0.597866
2661.27, 0.596782
2662.64, 0.595359
2664.01, 0.600847
2665.38, 0.607555
2666.74, 0.607148
2668.12, 0.600847
2669.49, 0.605454
2670.87, 0.608300
2672.24, 0.597798
2673.62, 0.595088
2675.0, 0.598137
2676.38, 0.602405
2677.76, 0.601118
2679.15, 0.598679
2680.54, 0.593123
2681.92, 0.590616
2683.31, 0.591768
2684.7, 0.590481
2686.09, 0.589126
2687.48, 0.586686
2688.88, 0.584315
2690.27, 0.581876
2691.67, 0.581605
2693.07, 0.585806
2694.47, 0.586551
2695.87, 0.582079
2697.27, 0.577336
2698.67, 0.574897
2700.08, 0.575846
2701.49, 0.575913
2702.9, 0.572661
2704.31, 0.569951
2705.72, 0.568122
2707.13, 0.566292
2708.54, 0.565479
2709.96, 0.562701
2711.38, 0.554029
2712.8, 0.538716
2714.22, 0.526995
2715.64, 0.516425
2717.06, 0.500299
2718.49, 0.471978
2719.91, 0.456259
2721.34, 0.466151
2722.77, 0.487223
2724.2, 0.515747
2725.63, 0.530518
2727.07, 0.534041
2728.5, 0.533364
2729.94, 0.527808
2731.38, 0.521303
2732.82, 0.522862
2734.26, 0.530179
2735.7, 0.530924
2737.15, 0.527943
2738.59, 0.530450
2740.04, 0.530586
2741.49, 0.524691
2742.94, 0.517238
2744.39, 0.513511
2745.84, 0.512563
2747.3, 0.511614
2748.76, 0.511005
2750.21, 0.511005
2751.67, 0.510666
2753.14, 0.510666
2754.6, 0.516222
2756.06, 0.516493
2757.53, 0.509243
2759.0, 0.506059
2760.46, 0.506330
2761.94, 0.509175
2763.41, 0.509582
2764.88, 0.506939
2766.36, 0.506668
2767.83, 0.507346
2769.31, 0.507143
2770.79, 0.507685
2772.27, 0.505449
2773.76, 0.503077
2775.24, 0.502739
2776.73, 0.503281
2778.22, 0.502603
2779.71, 0.502196
2781.2, 0.502535
2782.69, 0.502061
2784.18, 0.500977
2785.68, 0.502739
2787.18, 0.504771
2788.68, 0.502400
2790.18, 0.499690
2791.68, 0.498944
2793.19, 0.498741
2794.69, 0.498402
2796.2, 0.498199
2797.71, 0.497860
2799.22, 0.497521
2800.73, 0.498267
2802.24, 0.500909
2803.76, 0.500841
2805.28, 0.497725
2806.8, 0.495963
2808.32, 0.495286
2809.84, 0.494540
2811.36, 0.493930
2812.89, 0.493456
2814.42, 0.493592
2815.94, 0.493050
2817.48, 0.492508
2819.01, 0.492779
2820.54, 0.492304
2822.08, 0.491017
2823.61, 0.490068
2825.15, 0.489526
2826.69, 0.489526
2828.23, 0.489188
2829.78, 0.488646
2831.32, 0.488646
2832.87, 0.488646
2834.42, 0.488375
2835.97, 0.487900
2837.52, 0.487561
2839.08, 0.486410
2840.63, 0.485461
2842.19, 0.485122
2843.75, 0.484445
2845.31, 0.483700
2846.87, 0.483429
2848.44, 0.483496
2850.0, 0.483022
2851.57, 0.482412
2853.14, 0.482615
2854.71, 0.482209
2856.28, 0.480922
2857.86, 0.479837
2859.43, 0.479295
2861.01, 0.478618
2862.59, 0.477534
2864.17, 0.477060
2865.76, 0.476518
2867.34, 0.475501
2868.93, 0.474485
2870.52, 0.474011
2872.11, 0.473740
2873.7, 0.472994
2875.29, 0.472452
2876.89, 0.471978
2878.49, 0.471571
2880.08, 0.471233
2881.69, 0.470691
2883.29, 0.470284
2884.89, 0.469945
2886.5, 0.469336
2888.11, 0.468929
2889.72, 0.468523
2891.33, 0.468048
2892.94, 0.467506
2894.56, 0.466896
2896.17, 0.466287
2897.79, 0.465745
2899.42, 0.465745
2901.04, 0.465677
2902.66, 0.464728
2904.29, 0.463915
2905.92, 0.463305
2907.55, 0.462763
2909.18, 0.462289
2910.81, 0.461815
2912.45, 0.461612
2914.08, 0.461408
2915.72, 0.460866
2917.36, 0.460595
2919.01, 0.460595
2920.65, 0.460595
2922.3, 0.460798
2923.94, 0.460798
2925.59, 0.460189
2927.25, 0.459782
2928.9, 0.459511
2930.56, 0.459172
2932.21, 0.458901
2933.87, 0.458630
2935.53, 0.458292
2937.2, 0.457817
2938.86, 0.457140
2940.53, 0.456327
2942.2, 0.455785
2943.87, 0.455175
2945.54, 0.454294
2947.22, 0.453413
2948.89, 0.452465
2950.57, 0.451448
2952.25, 0.450364
2953.93, 0.449416
2955.62, 0.448399
2957.3, 0.447451
2958.99, 0.446841
2960.68, 0.446773
2962.37, 0.446909
2964.07, 0.447112
2965.76, 0.447586
2967.46, 0.448264
2969.16, 0.448874
2970.86, 0.449755
2972.56, 0.450635
2974.27, 0.451584
2975.98, 0.452397
2977.69, 0.453074
2979.4, 0.454023
2981.11, 0.455039
2982.83, 0.455920
2984.54, 0.456665
2986.26, 0.457682
2987.98, 0.458495
2989.71, 0.459105
2991.43, 0.459714
2993.16, 0.460527
2994.89, 0.461205
2996.62, 0.461747
2998.35, 0.461883
3000.09, 0.462154
3001.83, 0.462560
3003.57, 0.462899
3005.31, 0.462967
3007.05, 0.463441
3008.79, 0.464118
3010.54, 0.464254
3012.29, 0.464390
3014.04, 0.464931
3015.8, 0.465541
3017.55, 0.466151
3019.31, 0.466625
3021.07, 0.467032
3022.83, 0.467371
3024.59, 0.467845
3026.36, 0.468319
3028.13, 0.468997
3029.9, 0.469607
3031.67, 0.470216
3033.44, 0.470691
3035.22, 0.471233
3037.0, 0.471910
3038.78, 0.472588
3040.56, 0.472927
3042.34, 0.473401
3044.13, 0.473943
3045.92, 0.474485
3047.71, 0.475027
3049.5, 0.475501
3051.3, 0.475637
3053.09, 0.476111
3054.89, 0.476653
3056.69, 0.476789
3058.5, 0.477060
3060.3, 0.477534
3062.11, 0.477805
3063.92, 0.478211
3065.73, 0.478753
3067.55, 0.479092
3069.36, 0.479363
3071.18, 0.479499
3073.0, 0.479702
3074.82, 0.479973
3076.65, 0.480176
3078.48, 0.480380
3080.31, 0.480718
3082.14, 0.481125
3083.97, 0.481667
3085.8, 0.482277
3087.64, 0.482548
3089.48, 0.482886
3091.33, 0.483225
3093.17, 0.483767
3095.02, 0.484242
3096.87, 0.484648
3098.72, 0.485122
3100.57, 0.485393
3102.43, 0.485664
3104.28, 0.486071
3106.14, 0.486613
3108.01, 0.487291
3109.87, 0.487833
3111.74, 0.488307
3113.61, 0.488781
3115.48, 0.489188
3117.35, 0.489594
3119.23, 0.490001
3121.1, 0.490543
3122.98, 0.491220
3124.87, 0.491830
3126.75, 0.492372
3128.64, 0.492846
3130.53, 0.493388
3132.42, 0.493998
3134.31, 0.494608
3136.21, 0.495082
3138.11, 0.495489
3140.01, 0.496166
3141.91, 0.496776
3143.82, 0.497183
3145.73, 0.497657
3147.64, 0.498267
3149.55, 0.498944
3151.46, 0.499486
3153.38, 0.500164
3155.3, 0.500503
3157.22, 0.501045
3159.14, 0.501519
3161.07, 0.501993
3163.0, 0.502535
3164.93, 0.503010
3166.86, 0.503281
3168.8, 0.503619
3170.74, 0.504026
3172.68, 0.504703
3174.62, 0.505245
3176.56, 0.505584
3178.51, 0.505923
3180.46, 0.506330
3182.42, 0.506736
3184.37, 0.507075
3186.33, 0.507346
3188.29, 0.507888
3190.25, 0.508430
3192.21, 0.508904
3194.18, 0.509175
3196.15, 0.509514
3198.12, 0.509853
3200.09, 0.510395
3202.07, 0.510666
3204.05, 0.511005
3206.03, 0.511547
3208.02, 0.512089
3210.0, 0.512495
3211.99, 0.512969
3213.98, 0.513376
3215.98, 0.513783
3217.97, 0.514257
3219.97, 0.514596
3221.97, 0.515138
3223.98, 0.515476
3225.98, 0.515951
3227.99, 0.516493
3230.0, 0.516967
3232.02, 0.517238
3234.03, 0.517509
3236.05, 0.517645
3238.07, 0.517983
3240.1, 0.518322
3242.12, 0.518796
3244.15, 0.519135
3246.18, 0.519406
3248.22, 0.519880
3250.25, 0.520422
3252.29, 0.520626
3254.33, 0.520693
3256.38, 0.521032
3258.43, 0.521236
3260.47, 0.521642
3262.53, 0.522116
3264.58, 0.522455
3266.64, 0.522591
3268.7, 0.522929
3270.76, 0.523200
3272.82, 0.523200
3274.89, 0.523336
3276.96, 0.523539
3279.04, 0.523675
3281.11, 0.523946
3283.19, 0.524081
3285.27, 0.524081
3287.35, 0.523946
3289.44, 0.524149
3291.53, 0.524420
3293.62, 0.524488
3295.71, 0.524420
3297.81, 0.524691
3299.91, 0.524623
3302.01, 0.524149
3304.11, 0.523946
3306.22, 0.524081
3308.33, 0.524081
3310.44, 0.523810
3312.56, 0.523675
3314.68, 0.523742
3316.8, 0.523742
3318.92, 0.523810
3321.05, 0.523878
3323.18, 0.523878
3325.31, 0.523539
3327.44, 0.523336
3329.58, 0.523133
3331.72, 0.523065
3333.86, 0.522726
3336.01, 0.522320
3338.16, 0.521778
3340.31, 0.521100
3342.46, 0.520219
3344.61, 0.519542
3346.77, 0.518796
3348.94, 0.517848
3351.1, 0.516696
3353.27, 0.515815
3355.44, 0.514596
3357.61, 0.513173
3359.79, 0.511818
3361.97, 0.510259
3364.15, 0.508294
3366.33, 0.505923
3368.52, 0.503281
3370.71, 0.501180
3372.9, 0.499757
3375.1, 0.498741
3377.3, 0.498538
3379.5, 0.499148
3381.71, 0.500232
3383.91, 0.501722
3386.12, 0.503010
3388.34, 0.503823
3390.55, 0.504161
3392.77, 0.504026
3394.99, 0.502942
3397.22, 0.501587
3399.45, 0.500028
3401.68, 0.498199
3403.91, 0.496437
3406.15, 0.494743
3408.39, 0.493388
3410.63, 0.492033
3412.87, 0.490678
3415.12, 0.489933
3417.37, 0.489797
3419.63, 0.490407
3421.88, 0.491627
3424.14, 0.493524
3426.41, 0.495760
3428.67, 0.498402
3430.94, 0.501112
3433.21, 0.503890
3435.49, 0.506194
3437.77, 0.507956
3440.05, 0.509175
3442.33, 0.510327
3444.62, 0.511343
3446.91, 0.512224
3449.2, 0.512902
3451.5, 0.513783
3453.8, 0.514528
3456.1, 0.515409
3458.41, 0.516018
3460.72, 0.516425
3463.03, 0.516560
3465.34, 0.516493
3467.66, 0.516086
3469.98, 0.515409
3472.31, 0.514799
3474.63, 0.514325
3476.96, 0.514121
3479.3, 0.514392
3481.64, 0.514867
3483.97, 0.515476
3486.32, 0.515951
3488.66, 0.515883
3491.01, 0.515680
3493.36, 0.515273
3495.72, 0.514325
3498.08, 0.513241
3500.44, 0.512495
3502.81, 0.512495
3505.18, 0.513037
3507.55, 0.514731
3509.92, 0.517170
3512.3, 0.520422
3514.68, 0.523742
3517.06, 0.526656
3519.45, 0.528688
3521.84, 0.530450
3524.24, 0.531805
3526.64, 0.532822
3529.04, 0.533770
3531.44, 0.534380
3533.85, 0.534854
3536.26, 0.535261
3538.67, 0.535803
3541.09, 0.536209
3543.51, 0.536480
3545.93, 0.536751
3548.36, 0.536887
3550.79, 0.537158
3553.22, 0.537429
3555.66, 0.537700
3558.1, 0.537971
3560.54, 0.538106
3562.99, 0.538106
3565.44, 0.538242
3567.9, 0.538648
3570.35, 0.538852
3572.81, 0.538716
3575.28, 0.538919
3577.75, 0.539123
3580.22, 0.539055
3582.69, 0.539055
3585.17, 0.539258
3587.65, 0.539394
3590.14, 0.539461
3592.62, 0.539461
3595.11, 0.539529
3597.61, 0.539394
3600.11, 0.539326
3602.61, 0.539394
3605.11, 0.539665
3607.62, 0.539665
3610.14, 0.539733
3612.65, 0.539800
3615.17, 0.539868
3617.69, 0.539868
3620.22, 0.540071
3622.75, 0.540139
3625.28, 0.540342
3627.82, 0.540342
3630.36, 0.540478
3632.9, 0.540546
3635.45, 0.540681
3638.0, 0.540884
3640.56, 0.540952
3643.12, 0.541088
3645.68, 0.541291
3648.24, 0.541291
3650.81, 0.541291
3653.39, 0.541291
3655.96, 0.541426
3658.54, 0.541562
3661.13, 0.541562
3663.71, 0.541630
3666.3, 0.541697
3668.9, 0.541630
3671.5, 0.541630
3674.1, 0.541765
3676.7, 0.541765
3679.31, 0.541833
3681.93, 0.541765
3684.54, 0.541630
3687.17, 0.541630
3689.79, 0.541562
3692.42, 0.541426
3695.05, 0.541291
3697.69, 0.541291
3700.32, 0.541020
3702.97, 0.540817
3705.61, 0.540410
3708.27, 0.540342
3710.92, 0.540275
3713.58, 0.540004
3716.24, 0.539733
3718.91, 0.539461
3721.58, 0.539258
3724.25, 0.539190
3726.93, 0.538919
3729.61, 0.538852
3732.29, 0.538581
3734.98, 0.538310
3737.67, 0.538174
3740.37, 0.538039
3743.07, 0.537971
3745.78, 0.537835
3748.49, 0.537564
3751.2, 0.537361
3753.91, 0.537429
3756.63, 0.537429
3759.36, 0.537429
3762.09, 0.537497
3764.82, 0.537429
3767.55, 0.537361
3770.29, 0.537429
3773.04, 0.537564
3775.78, 0.537564
3778.54, 0.537497
3781.29, 0.537429
3784.05, 0.537429
3786.82, 0.537293
3789.59, 0.537022
3792.36, 0.536955
3795.13, 0.537090
3797.92, 0.536887
3800.7, 0.536616
3803.49, 0.536548
3806.28, 0.536412
3809.08, 0.536074
3811.88, 0.535870
3814.68, 0.535803
3817.49, 0.535667
3820.31, 0.535396
3823.12, 0.535193
3825.94, 0.534854
3828.77, 0.534583
3831.6, 0.534380
3834.43, 0.534312
3837.27, 0.534041
3840.11, 0.533906
3842.96, 0.533702
3845.81, 0.533567
3848.67, 0.533431
3851.53, 0.533364
3854.39, 0.533093
3857.26, 0.532957
3860.13, 0.532754
3863.01, 0.532618
3865.89, 0.532618
3868.77, 0.532618
3871.66, 0.532483
3874.55, 0.532483
3877.45, 0.532415
3880.35, 0.532415
3883.26, 0.532347
3886.17, 0.532212
3889.09, 0.532212
3892.01, 0.532144
3894.93, 0.532008
3897.86, 0.531873
3900.79, 0.531805
3903.73, 0.531873
3906.67, 0.531805
3909.62, 0.531737
3912.57, 0.531602
3915.52, 0.531399
3918.48, 0.531195
3921.45, 0.531195
3924.42, 0.531060
3927.39, 0.530789
3930.37, 0.530518
3933.35, 0.530382
3936.34, 0.530044
3939.33, 0.529637
3942.32, 0.529163
3945.32, 0.528824
3948.33, 0.528350
3951.34, 0.527672
3954.35, 0.527198
3957.37, 0.526724
3960.39, 0.526114
3963.42, 0.525572
3966.45, 0.525030
3969.49, 0.524555
3972.53, 0.524149
3975.58, 0.523742
3978.63, 0.523336
3981.68, 0.523065
3984.75, 0.522658
3987.81, 0.522591
3990.88, 0.522455
3993.95, 0.522252
3997.03, 0.522116
4000.12, 0.522184
4003.21, 0.522116
4006.3, 0.522049
4009.4, 0.522049
4012.5, 0.521913
4015.61, 0.521845
4018.72, 0.521913
4021.84, 0.521913
4024.96, 0.521913
4028.09, 0.521778
4031.22, 0.521710
4034.36, 0.521642
4037.5, 0.521574
4040.65, 0.521506
4043.8, 0.521506
4046.96, 0.521303
4050.12, 0.521303
4053.29, 0.521100
4056.46, 0.520965
4059.64, 0.521032
4062.82, 0.520761
4066.0, 0.520355
4069.19, 0.520151
4072.39, 0.519880
4075.59, 0.519677
4078.8, 0.519406
4082.01, 0.519135
4085.23, 0.518729
4088.45, 0.518390
4091.68, 0.517983
4094.91, 0.517441
4098.15, 0.516831
4101.39, 0.516357
4104.63, 0.515951
4107.89, 0.515476
4111.14, 0.515002
4114.41, 0.514596
4117.67, 0.514054
4120.95, 0.513715
4124.23, 0.513173
4127.51, 0.512495
4130.8, 0.511953
4134.09, 0.511411
4137.39, 0.510937
4140.7, 0.510530
4144.01, 0.509853
4147.32, 0.509446
4150.64, 0.509107
4153.97, 0.508701
4157.3, 0.508091
4160.64, 0.507414
4163.98, 0.506872
4167.33, 0.506397
4170.68, 0.505923
4174.04, 0.505381
4177.4, 0.504568
4180.77, 0.503823
4184.14, 0.503348
4187.52, 0.502874
4190.91, 0.502332
4194.3, 0.502129
4197.69, 0.502264
4201.1, 0.502874
4204.5, 0.503958
4207.92, 0.505652
4211.34, 0.507617
4214.76, 0.509717
4218.19, 0.511750
4221.62, 0.513579
4225.06, 0.514731
4228.51, 0.515409
4231.96, 0.515612
4235.42, 0.515070
4238.88, 0.513715
4242.35, 0.511547
4245.83, 0.508498
4249.31, 0.504432
4252.79, 0.499419
4256.28, 0.495828
4259.78, 0.496302
4263.29, 0.498605
4266.79, 0.499893
4270.31, 0.499961
4273.83, 0.499351
4277.35, 0.498402
4280.89, 0.497183
4284.42, 0.495895
4287.97, 0.494540
4291.52, 0.493050
4295.07, 0.491153
4298.63, 0.489391
4302.2, 0.487629
4305.78, 0.485868
4309.35, 0.483970
4312.94, 0.482006
4316.53, 0.480109
4320.13, 0.478279
4323.73, 0.476585
4327.34, 0.474959
4330.96, 0.473198
4334.58, 0.471504
4338.21, 0.469878
4341.84, 0.468455
4345.48, 0.466964
4349.12, 0.465609
4352.77, 0.464322
4356.43, 0.462899
4360.1, 0.461341
4363.76, 0.459782
4367.44, 0.458292
4371.12, 0.456733
4374.81, 0.455310
4378.51, 0.453820
4382.21, 0.452329
4385.92, 0.450906
4389.63, 0.449416
4393.35, 0.447993
4397.08, 0.446638
4400.81, 0.445283
4404.55, 0.443792
4408.29, 0.442369
4412.04, 0.441014
4415.8, 0.439659
4419.57, 0.438236
4423.34, 0.436881
4427.12, 0.435458
4430.9, 0.434103
4434.69, 0.432613
4438.49, 0.431122
4442.29, 0.429631
4446.1, 0.428141
4449.92, 0.426515
4453.74, 0.424753
4457.57, 0.422924
4461.41, 0.421230
4465.25, 0.419536
4469.1, 0.417978
4472.95, 0.416351
4476.82, 0.414793
4480.69, 0.413235
4484.56, 0.411405
4488.44, 0.409441
4492.33, 0.407408
4496.23, 0.405308
4500.13, 0.403072
4504.04, 0.400294
4507.96, 0.397313
4511.88, 0.393586
4515.81, 0.389046
4519.75, 0.383694
4523.69, 0.377799
4527.65, 0.371701
4531.6, 0.365739
4535.57, 0.360319
4539.54, 0.355440
4543.52, 0.351036
4547.5, 0.347039
4551.5, 0.343312
4555.5, 0.339924
4559.5, 0.336469
4563.52, 0.332878
4567.54, 0.328880
4571.56, 0.324341
4575.6, 0.319259
4579.64, 0.314042
4583.69, 0.308622
4587.75, 0.303405
4591.81, 0.298323
4595.88, 0.293716
4599.96, 0.289515
4604.04, 0.285721
4608.14, 0.282198
4612.24, 0.279081
4616.34, 0.276032
4620.46, 0.272915
4624.58, 0.269731
4628.71, 0.266207
4632.84, 0.262481
4636.99, 0.258687
4641.14, 0.254893
4645.3, 0.251301
4649.47, 0.248185
4653.64, 0.245678
4657.82, 0.243713
4662.01, 0.242019
4666.21, 0.240325
4670.41, 0.238428
4674.62, 0.236057
4678.84, 0.233143
4683.07, 0.229891
4687.3, 0.226300
4691.54, 0.222506
4695.79, 0.218441
4700.05, 0.214104
4704.31, 0.209632
4708.59, 0.204822
4712.87, 0.199876
4717.15, 0.195065
4721.45, 0.190661
4725.76, 0.186393
4730.07, 0.182598
4734.39, 0.179211
4738.72, 0.176365
4743.05, 0.174265
4747.39, 0.172910
4751.75, 0.171961
4756.1, 0.171419
4760.47, 0.170809
4764.85, 0.170335
4769.23, 0.169793
4773.62, 0.169319
4778.02, 0.168505
4782.43, 0.167286
4786.85, 0.165660
4791.27, 0.163627
4795.7, 0.161324
4800.14, 0.158884
4804.59, 0.156377
4809.05, 0.153735
4813.51, 0.151228
4817.99, 0.148789
4822.47, 0.146350
4826.96, 0.143978
4831.46, 0.141471
4835.96, 0.139236
4840.48, 0.137000
4845.0, 0.134696
4849.54, 0.132392
4854.08, 0.130292
4858.63, 0.128463
4863.18, 0.126769
4867.75, 0.125143
4872.33, 0.123720
4876.91, 0.122636
4881.5, 0.121687
4886.1, 0.121077
4890.71, 0.120535
4895.33, 0.119993
4899.96, 0.119654
4904.59, 0.119248
4909.24, 0.118841
4913.89, 0.118232
4918.55, 0.117351
4923.22, 0.116335
4927.9, 0.115183
4932.59, 0.114302
4937.29, 0.113624
4942.0, 0.113082
4946.71, 0.112473
4951.44, 0.112201
4956.17, 0.112201
4960.91, 0.112134
4965.67, 0.111930
4970.43, 0.111727
4975.2, 0.111321
4979.98, 0.110914
4984.76, 0.110440
4989.56, 0.109762
4994.37, 0.108949
4999.18, 0.108136
5004.01, 0.106849
5008.84, 0.105020
5013.69, 0.102919
5018.54, 0.100683
5023.4, 0.0979050
5028.28, 0.0950600
5033.16, 0.0924170
5038.05, 0.0897750
5042.95, 0.0872680
5047.86, 0.0853710
5052.78, 0.0838800
5057.71, 0.0827960
5062.65, 0.0819830
5067.6, 0.0816440
5072.56, 0.0817120
5077.53, 0.0823220
5082.5, 0.0832700
5087.49, 0.0846250
5092.49, 0.0864550
5097.5, 0.0886230
5102.51, 0.0909940
5107.54, 0.0933660
5112.58, 0.0956690
5117.62, 0.0980410
5122.68, 0.100209
5127.75, 0.102242
5132.82, 0.104206
5137.91, 0.106239
5143.01, 0.108136
5148.12, 0.109898
5153.23, 0.111253
5158.36, 0.112676
5163.5, 0.114302
5168.65, 0.115928
5173.81, 0.117419
5178.98, 0.118774
5184.15, 0.120061
5189.34, 0.121348
5194.54, 0.122771
5199.75, 0.124262
5204.98, 0.125481
5210.21, 0.126769
5215.45, 0.127514
5220.7, 0.127175
5225.96, 0.126701
5231.23, 0.126091
5236.52, 0.125549
5241.81, 0.124601
5247.12, 0.123584
5252.44, 0.122839
5257.76, 0.122297
5263.1, 0.121687
5268.45, 0.121281
5273.81, 0.121077
5279.18, 0.120942
5284.56, 0.121213
5289.95, 0.121958
5295.36, 0.122500
5300.77, 0.123178
5306.2, 0.124194
5311.63, 0.125210
5317.08, 0.126227
5322.54, 0.127243
5328.01, 0.127921
5333.49, 0.128192
5338.98, 0.128395
5344.49, 0.129072
5350.0, 0.130427
5355.53, 0.131512
5361.07, 0.132799
5366.62, 0.134493
5372.18, 0.136119
5377.75, 0.137745
5383.34, 0.139236
5388.93, 0.140794
5394.54, 0.142420
5400.16, 0.144317
5405.79, 0.146756
5411.44, 0.149670
5417.09, 0.153532
5422.76, 0.158342
5428.43, 0.161730
5434.12, 0.165660
5439.83, 0.170470
5445.54, 0.175213
5451.26, 0.179753
5457.0, 0.184563
5462.75, 0.189713
5468.52, 0.193371
5474.29, 0.196556
5480.08, 0.200350
5485.88, 0.202857
5491.69, 0.205364
5497.51, 0.207871
5503.35, 0.210378
5509.2, 0.212343
5515.06, 0.214511
5520.93, 0.216814
5526.82, 0.218508
5532.71, 0.219525
5538.63, 0.220744
5544.55, 0.221828
5550.49, 0.223251
5556.44, 0.223861
5562.4, 0.223929
5568.37, 0.224200
5574.36, 0.225758
5580.36, 0.226842
5586.37, 0.225555
5592.4, 0.224674
5598.44, 0.225081
5604.49, 0.225081
5610.56, 0.224877
5616.63, 0.224809
5622.73, 0.224200
5628.83, 0.223793
5634.95, 0.224538
5641.08, 0.225961
5647.23, 0.224674
5653.39, 0.222709
5659.56, 0.221015
5665.74, 0.218915
5671.94, 0.218576
5678.15, 0.217018
5684.38, 0.214511
5690.62, 0.212885
5696.87, 0.210446
5703.14, 0.208277
5709.42, 0.207668
5715.72, 0.205161
5722.03, 0.201908
5728.35, 0.198860
5734.69, 0.196624
5741.03, 0.194523
5747.4, 0.193033
5753.78, 0.189848
5760.17, 0.188629
5766.58, 0.187883
5773.0, 0.182598
5779.44, 0.177720
5785.88, 0.173790
5792.35, 0.170064
5798.83, 0.166879
5805.32, 0.163424
5811.83, 0.160646
5818.35, 0.159562
5824.89, 0.157529
5831.45, 0.153803
5838.01, 0.150551
5844.59, 0.148315
5851.19, 0.147366
5857.8, 0.147569
5864.43, 0.148247
5871.07, 0.148179
5877.73, 0.150415
5884.4, 0.149534
5891.09, 0.145943
5897.79, 0.142827
5904.5, 0.136729
5911.23, 0.131173
5917.98, 0.126091
5924.75, 0.120603
5931.53, 0.116470
5938.32, 0.111388
5945.13, 0.104071
5951.96, 0.0978380
5958.8, 0.0928910
5965.65, 0.0890970
5972.53, 0.0851670
5979.42, 0.0812380
5986.32, 0.0788660
5993.24, 0.0760210
6000.18, 0.0728360
6007.13, 0.0706680
6014.1, 0.0691100
6021.08, 0.0671450
6028.09, 0.0655860
6035.1, 0.0645700
6042.14, 0.0647730
6049.19, 0.0651800
6056.25, 0.0628080
6063.34, 0.0606400
6070.44, 0.0598270
6077.55, 0.0580660
6084.69, 0.0563720
6091.84, 0.0554230
6099.0, 0.0551520
6106.19, 0.0555590
6113.39, 0.0567110
6120.61, 0.0567780
6127.84, 0.0569820
6135.09, 0.0579300
6142.36, 0.0590140
6149.65, 0.0597590
6156.95, 0.0605730
6164.27, 0.0609790
6171.61, 0.0609110
6178.97, 0.0611150
6186.34, 0.0613180
6193.73, 0.0603020
6201.14, 0.0595560
6208.57, 0.0590820
6216.01, 0.0584720
6223.47, 0.0576590
6230.95, 0.0568460
6238.45, 0.0561010
6245.97, 0.0553550
6253.5, 0.0546780
6261.06, 0.0541360
6268.63, 0.0535260
6276.21, 0.0528490
6283.82, 0.0525100
6291.45, 0.0523740
6299.1, 0.0521710
6306.76, 0.0520350
6314.44, 0.0518320
6322.14, 0.0515610
6329.86, 0.0512220
6337.6, 0.0510870
6345.35, 0.0508160
6353.13, 0.0495290
6360.92, 0.0485120
6368.74, 0.0481730
6376.57, 0.0471570
6384.43, 0.0459380
6392.3, 0.0449210
6400.19, 0.0441760
6408.1, 0.0442440
6416.03, 0.0440400
6423.98, 0.0425500
6431.95, 0.0415340
6439.94, 0.0409240
6447.95, 0.0405170
6455.98, 0.0402460
6464.03, 0.0401110
6472.1, 0.0403140
6480.19, 0.0405170
6488.31, 0.0409910
6496.44, 0.0411950
6504.59, 0.0405850
6512.76, 0.0405170
6520.95, 0.0413300
6529.16, 0.0418050
6537.4, 0.0422790
6545.65, 0.0431600
6553.92, 0.0442440
6562.22, 0.0451250
6570.54, 0.0466150
6578.88, 0.0475640
6587.23, 0.0479020
6595.61, 0.0483770
6604.02, 0.0485800
6612.44, 0.0487830
6620.89, 0.0491220
6629.35, 0.0498670
6637.84, 0.0505450
6646.35, 0.0500030
6654.88, 0.0493930
6663.44, 0.0495290
6672.01, 0.0501380
6680.61, 0.0508160
6689.23, 0.0510870
6697.88, 0.0514260
6706.54, 0.0525100
6715.23, 0.0534580
6723.94, 0.0541360
6732.67, 0.0548130
6741.42, 0.0554230
6750.2, 0.0560330
6759.0, 0.0565070
6767.82, 0.0571170
6776.67, 0.0576590
6785.54, 0.0581330
6794.44, 0.0583370
6803.35, 0.0581330
6812.29, 0.0586750
6821.26, 0.0600300
6830.24, 0.0613860
6839.25, 0.0623340
6848.29, 0.0636210
6857.35, 0.0653830
6866.43, 0.0664670
6875.54, 0.0660610
6884.67, 0.0658570
6893.82, 0.0658570
6903.0, 0.0659930
6912.2, 0.0657900
6921.43, 0.0653150
6930.69, 0.0649770
6939.96, 0.0646380
6949.27, 0.0643670
6958.59, 0.0644350
6967.95, 0.0636210
6977.33, 0.0626050
6986.73, 0.0621310
6996.16, 0.0615210
7005.61, 0.0606400
7015.09, 0.0598950
7024.6, 0.0592170
7034.13, 0.0585400
7043.69, 0.0579980
7053.27, 0.0568460
7062.88, 0.0552880
7072.52, 0.0538650
7082.18, 0.0526450
7091.87, 0.0513580
7101.58, 0.0501380
7111.32, 0.0490540
7121.09, 0.0480380
7130.88, 0.0469540
7140.71, 0.0464120
7150.56, 0.0461410
7160.43, 0.0456670
7170.33, 0.0451250
7180.27, 0.0443790
7190.23, 0.0437020
7200.21, 0.0432950
7210.23, 0.0428210
7220.27, 0.0420080
7230.34, 0.0412620
7240.44, 0.0406530
7250.56, 0.0403140
7260.72, 0.0400430
7270.9, 0.0398400
7281.12, 0.0397040
7291.36, 0.0394330
7301.63, 0.0393650
7311.93, 0.0395010
7322.25, 0.0395690
7332.61, 0.0395690
7343.0, 0.0394330
7353.41, 0.0390270
7363.86, 0.0386200
7374.33, 0.0382810
7384.83, 0.0379430
7395.37, 0.0376720
7405.93, 0.0376720
7416.53, 0.0376040
7427.15, 0.0373330
7437.81, 0.0368580
7448.5, 0.0364520
7459.22, 0.0359780
7469.96, 0.0354360
7480.74, 0.0347580
7491.55, 0.0341480
7502.39, 0.0334710
7513.27, 0.0327930
7524.17, 0.0321830
7535.11, 0.0317770
7546.08, 0.0314380
7557.08, 0.0310990
7568.11, 0.0307610
7579.17, 0.0304220
7590.27, 0.0301510
7601.4, 0.0299470
7612.56, 0.0296760
7623.76, 0.0294730
7634.98, 0.0291340
7646.24, 0.0288630
7657.54, 0.0284570
7668.87, 0.0280500
7680.23, 0.0275080
7691.62, 0.0268990
7703.05, 0.0263570
7714.51, 0.0259500
7726.01, 0.0255430
7737.54, 0.0250690
7749.11, 0.0245950
7760.71, 0.0239850
7772.35, 0.0233080
7784.02, 0.0228330
7795.72, 0.0223590
7807.46, 0.0219520
7819.23, 0.0215460
7831.04, 0.0212750
7842.89, 0.0209360
7854.77, 0.0205300
7866.69, 0.0202590
7878.65, 0.0199880
7890.64, 0.0195810
7902.67, 0.0191750
7914.74, 0.0190390
7926.84, 0.0188360
7938.98, 0.0184970
7951.16, 0.0181580
7963.37, 0.0177520
7975.62, 0.0173450
7987.91, 0.0170060
8000.24, 0.0169390
8012.6, 0.0166000
8025.01, 0.0163290
8037.45, 0.0160580
8049.93, 0.0157870
8062.45, 0.0155840
8075.01, 0.0155160
8087.61, 0.0154480
8100.24, 0.0155160
8112.91, 0.0154480
8125.63, 0.0151770
8138.39, 0.0149060
8151.18, 0.0150420
8164.02, 0.0151090
8176.9, 0.0148380
8189.81, 0.0145670
8202.77, 0.0144320
8215.77, 0.0142280
8228.82, 0.0140930
8241.9, 0.0138220
8255.02, 0.0134830
8268.19, 0.0132120
8281.39, 0.0130090
8294.65, 0.0128060
8307.94, 0.0126700
8321.28, 0.0124670
8334.66, 0.0123310
8348.08, 0.0121280
8361.54, 0.0119250
8375.05, 0.0116540
8388.6, 0.0115180
8402.2, 0.0114510
8415.84, 0.0114510
8429.52, 0.0113830
8443.25, 0.0115860
8457.02, 0.0119930
8470.84, 0.0124670
8484.7, 0.0129410
8498.61, 0.0137540
8512.57, 0.0150420
8526.57, 0.0168030
8540.62, 0.0192420
8554.71, 0.0222910
8568.85, 0.0258140
8583.04, 0.0298800
8597.27, 0.0348940
8611.55, 0.0405170
8625.88, 0.0470220
8640.26, 0.0548810
8654.68, 0.0636210
8669.16, 0.0734460
8683.68, 0.0848290
8698.25, 0.0977020
8712.87, 0.111930
8727.53, 0.127514
8742.25, 0.144249
8757.02, 0.161459
8771.83, 0.178398
8786.7, 0.192762
8801.62, 0.203196
8816.59, 0.210513
8831.61, 0.218237
8846.68, 0.227926
8861.8, 0.239512
8876.97, 0.251098
8892.2, 0.260990
8907.48, 0.267834
8922.81, 0.271899
8938.2, 0.273525
8953.63, 0.273322
8969.13, 0.271899
8984.67, 0.270341
9000.27, 0.268579
9015.92, 0.267359
9031.63, 0.266479
9047.39, 0.266072
9063.21, 0.265801
9079.08, 0.265598
9095.01, 0.265056
9111.0, 0.264378
9127.04, 0.263294
9143.13, 0.262346
9159.28, 0.261058
9175.49, 0.259771
9191.76, 0.258551
9208.09, 0.257467
9224.47, 0.255909
9240.92, 0.253876
9257.42, 0.251301
9273.98, 0.247778
9290.6, 0.242764
9307.28, 0.235921
9324.02, 0.226774
9340.82, 0.214917
9357.68, 0.200215
9374.6, 0.182463
9391.58, 0.163221
9408.62, 0.145198
9425.73, 0.129343
9442.9, 0.115928
9460.13, 0.104884
9477.42, 0.0960080
9494.78, 0.0891650
9512.2, 0.0841510
9529.69, 0.0808990
9547.24, 0.0791370
9564.86, 0.0783240
9582.54, 0.0783240
9600.28, 0.0791370
9618.1, 0.0809670
9635.97, 0.0842870
9653.92, 0.0888940
9671.93, 0.0943140
9690.01, 0.100751
9708.16, 0.108543
9726.37, 0.117419
9744.65, 0.127378
9763.0, 0.138084
9781.43, 0.146960
9799.92, 0.152244
9818.48, 0.155564
9837.1, 0.158884
9855.8, 0.161595
9874.58, 0.162272
9893.42, 0.160307
9912.34, 0.155903
9931.33, 0.149670
9950.39, 0.141471
9969.52, 0.130902
9988.74, 0.118435
10008.0, 0.105358
10027.4, 0.0937720
10046.8, 0.0869970
10066.3, 0.0887580
10085.9, 0.101971
10105.6, 0.125617
10125.3, 0.154142
10145.1, 0.182327
10165.0, 0.208819
10185.0, 0.234973
10205.0, 0.261736
10225.2, 0.289176
10245.4, 0.317430
10265.7, 0.346022
10286.0, 0.373327
10306.5, 0.398532
10327.0, 0.420281
10347.6, 0.436678
10368.3, 0.444673
10389.1, 0.443928
10409.9, 0.436136
10430.9, 0.423127
10451.9, 0.406188
10473.0, 0.389927
10494.2, 0.376986
10515.5, 0.367094
10536.9, 0.358354
10558.4, 0.350291
10579.9, 0.342160
10601.5, 0.333894
10623.3, 0.325628
10645.1, 0.318243
10667.0, 0.311942
10689.0, 0.310112
10711.1, 0.317633
10733.2, 0.338908
10755.5, 0.369059
10777.9, 0.397313
10800.3, 0.417029
10822.9, 0.427938
10845.5, 0.431867
10868.2, 0.430919
10891.1, 0.425702
10914.0, 0.417639
10937.0, 0.408085
10960.2, 0.398464
10983.4, 0.389588
11006.7, 0.381729
11030.1, 0.374615
11053.6, 0.368314
11077.3, 0.362419
11101.0, 0.357270
11124.8, 0.352188
11148.7, 0.347445
11172.7, 0.343041
11196.9, 0.339044
11221.1, 0.335182
11245.4, 0.331387
11269.9, 0.327390
11294.4, 0.323731
11319.1, 0.320276
11343.9, 0.317023
11368.8, 0.313636
11393.7, 0.310248
11418.8, 0.306657
11444.0, 0.302998
11469.4, 0.299068
11494.8, 0.295274
11520.3, 0.291277
11546.0, 0.286940
11571.8, 0.282198
11597.7, 0.276845
11623.7, 0.270205
11649.8, 0.262752
11676.0, 0.253944
11702.4, 0.242697
11728.9, 0.229552
11755.5, 0.215663
11782.2, 0.202315
11809.0, 0.190390
11836.0, 0.179753
11863.0, 0.170945
11890.3, 0.163153
11917.6, 0.155903
11945.0, 0.149263
11972.6, 0.143504
12000.4, 0.138626
12028.2, 0.134154
12056.2, 0.129614
12084.3, 0.125752
12112.5, 0.122297
12140.9, 0.119180
12169.4, 0.116131
12198.0, 0.113150
12226.8, 0.110440
12255.7, 0.107797
12284.7, 0.105155
12313.9, 0.102987
12343.2, 0.101090
12372.7, 0.0993280
12402.3, 0.0972280
12432.0, 0.0952630
12461.9, 0.0935010
12491.9, 0.0916720
12522.1, 0.0898420
12552.4, 0.0880810
12582.9, 0.0863190
12613.5, 0.0847610
12644.3, 0.0832700
12675.2, 0.0820510
12706.3, 0.0809670
12737.5, 0.0798830
12768.9, 0.0787310
12800.4, 0.0775790
12832.1, 0.0760880
12863.9, 0.0745300
12895.9, 0.0733100
12928.1, 0.0724300
12960.4, 0.0714810
12992.9, 0.0702610
13025.5, 0.0689060
13058.3, 0.0675510
13091.3, 0.0661280
13124.4, 0.0649770
13157.8, 0.0640280
13191.2, 0.0629440
13224.9, 0.0621990
13258.7, 0.0615890
13292.7, 0.0608440
13326.9, 0.0602340
13361.2, 0.0591500
13395.7, 0.0577950
13430.4, 0.0567780
13465.3, 0.0556940
13500.4, 0.0549490
13535.7, 0.0542040
13571.1, 0.0534580
13606.7, 0.0524420
13642.5, 0.0512900
13678.5, 0.0498670
13714.7, 0.0490540
13751.1, 0.0484440
13787.6, 0.0472930
13824.4, 0.0460730
13861.4, 0.0449210
13898.5, 0.0437020
13935.9, 0.0422790
13973.5, 0.0414660
14011.2, 0.0405850
14049.2, 0.0392300
14087.4, 0.0381460
14125.8, 0.0371290
14164.3, 0.0355030
14203.2, 0.0341480
14242.2, 0.0332670
14281.4, 0.0323870
14320.9, 0.0312350
14360.5, 0.0298120
14400.4, 0.0288630
14440.5, 0.0277790
14480.9, 0.0269660
14521.4, 0.0261530
14562.2, 0.0245270
14603.3, 0.0237820
14644.5, 0.0241210
14686.0, 0.0256790
14727.7, 0.0310990
14769.7, 0.0402460
14811.9, 0.0495290
14854.3, 0.0537970
14897.0, 0.0521030
14939.9, 0.0476990
14983.1, 0.0416690
15026.5, 0.0363160
15070.2, 0.0323870
15114.2, 0.0290670
15158.3, 0.0260180
15202.8, 0.0237140
15247.5, 0.0218850
15292.5, 0.0207330
15337.7, 0.0202590
15383.2, 0.0207330
15429.0, 0.0233750
15475.1, 0.0273730
15521.4, 0.0321160
15568.0, 0.0365870
15614.9, 0.0383490
15662.1, 0.0374680
15709.6, 0.0354360
15757.3, 0.0330640
15805.4, 0.0298800
15853.7, 0.0262890
15902.3, 0.0231720
15951.2, 0.0203940
16000.5, 0.0177520
16050.0, 0.0154480
16099.8, 0.0143640
16150.0, 0.0135510
16200.5, 0.0125350
16251.3, 0.0117890
16302.4, 0.0121960
16353.8, 0.0138220
16405.5, 0.0163970
16457.6, 0.0191750
16510.0, 0.0230370
16562.8, 0.0288630
16615.9, 0.0366550
16669.3, 0.0467510
16723.1, 0.0588110
16777.2, 0.0733100
16831.7, 0.0908590
16886.5, 0.110237
16941.7, 0.131240
16997.2, 0.153532
17053.1, 0.177449
17109.4, 0.202925
17166.1, 0.229281
17223.1, 0.257535
17280.5, 0.286805
17338.3, 0.316210
17396.5, 0.344667
17455.1, 0.370278
17514.0, 0.391960
17573.4, 0.410050
17633.2, 0.423805
17693.4, 0.435052
17754.0, 0.443521
17815.0, 0.450161
17876.4, 0.454768
17938.3, 0.457479
18000.5, 0.459105
18063.3, 0.459511
18126.4, 0.458359
18190.0, 0.457004
18254.1, 0.454294
18318.6, 0.451584
18383.5, 0.447857
18449.0, 0.442979
18514.9, 0.438236
18581.2, 0.431935
18648.0, 0.424279
18715.4, 0.415945
18783.2, 0.407408
18851.5, 0.401513
18920.3, 0.397855
18989.6, 0.397177
19059.4, 0.400971
19129.7, 0.412490
19200.6, 0.429564
19272.0, 0.447654
19343.9, 0.461408
19416.3, 0.470420
19489.3, 0.475095
19562.8, 0.478279
19637.0, 0.475433
19711.6, 0.466422
19786.8, 0.449212
19862.6, 0.426718
19939.0, 0.399955
20016.0, 0.371092
20093.6, 0.347784
20171.8, 0.337756
20250.6, 0.342228
20330.0, 0.360928
20410.0, 0.384507
20490.7, 0.402259
20572.0, 0.410389
20654.0, 0.411405
20736.6, 0.407001
20819.9, 0.398803
20903.8, 0.389250
20988.5, 0.380374
21073.8, 0.370346
21159.8, 0.361267
21246.5, 0.351375
21334.0, 0.338502
21422.1, 0.324205
21511.0, 0.311061
21600.7, 0.296562
21691.0, 0.281859
21782.1, 0.271357
21874.0, 0.261939
21966.7, 0.248049
22060.2, 0.235582
22154.5, 0.223996
22249.6, 0.213088
22345.5, 0.202654
22442.2, 0.194591
22539.8, 0.189171
22638.2, 0.186257
22737.5, 0.190661
22837.7, 0.204348
22938.7, 0.220676
23040.7, 0.232059
23143.5, 0.233618
23247.3, 0.215625
23352.1, 0.194133
23457.7, 0.178845
23564.4, 0.180728
23672.0, 0.193616
23780.5, 0.202664
23890.1, 0.206467
24000.7, 0.214628
24112.3, 0.229806
24225.0, 0.245021
24338.7, 0.254142
24453.5, 0.257650
24569.4, 0.257872
24686.4, 0.256062
24804.5, 0.254216
24923.8, 0.251520
25044.2, 0.247790
25165.8, 0.243580
25288.6, 0.238373
25412.5, 0.232206
25537.7, 0.225559
25664.1, 0.217767
25791.8, 0.208129
25920.8, 0.197715
26051.1, 0.187708
26182.6, 0.175410
26315.5, 0.163409
26449.8, 0.152404
26585.4, 0.140107
26722.5, 0.128179
26860.9, 0.119833
27000.8, 0.113666
27142.1, 0.111155
27285.0, 0.110970
27429.4, 0.107130
27575.3, 0.0995590
27722.7, 0.0906590
27871.8, 0.0829040
28022.4, 0.0782880
28174.7, 0.0798020
28328.7, 0.0916570
28484.4, 0.114921
28641.7, 0.143836
28800.9, 0.169982
28961.8, 0.190699
29124.5, 0.205766
29289.0, 0.215035
29455.4, 0.219798
29623.8, 0.220722
29794.0, 0.216696
29966.3, 0.209975
30140.5, 0.199599
30316.7, 0.184532
30495.1, 0.167175
30675.5, 0.150336
30858.1, 0.132315
31042.8, 0.118393
31229.8, 0.111192
31419.1, 0.115623
31610.7, 0.132610
31804.6, 0.151185
32000.9, 0.160713
32199.7, 0.160713
32400.9, 0.155875
32604.8, 0.149487
32811.1, 0.137669
33020.1, 0.124080
33231.8, 0.123230
33446.2, 0.144280
33663.4, 0.176518
33883.4, 0.198971
34106.3, 0.206283
34332.1, 0.202294
34561.0, 0.190366
34792.9, 0.175226
35028.0, 0.161193
35266.3, 0.148711
35507.8, 0.139183
35752.7, 0.132019
36001.0, 0.124708
36252.8, 0.119501
36508.1, 0.114552
36767.0, 0.110010
37029.7, 0.105652
37296.1, 0.101147
37566.3, 0.0981560
37840.5, 0.0978610
38118.8, 0.101443
38401.2, 0.115032
38687.8, 0.136451
38978.6, 0.156355
39273.9, 0.168025
39573.7, 0.175669
39878.1, 0.179288
40187.3, 0.176555
40501.2, 0.171348
40820.0, 0.165809
41144.0, 0.159605
41473.2, 0.152256
41807.6, 0.144797
42147.5, 0.136672
42493.0, 0.127846
42844.2, 0.119205
43201.2, 0.111672
43564.3, 0.106760
43933.5, 0.103252
44309.0, 0.106982
44691.0, 0.116251
45079.6, 0.122012
45475.0, 0.122086
45877.5, 0.119242
46287.1, 0.115032
46704.2, 0.110712
47128.7, 0.106797
47561.1, 0.104323
48001.5, 0.101221
48450.1, 0.0993010
48907.2, 0.0965680
49373.0, 0.0934660
49847.7, 0.0934290
50331.5, 0.0937980
50825.0, 0.0946110
51328.2, 0.0950170
51841.5, 0.0912500
52365.1, 0.0855630
52899.4, 0.0819810
53444.8, 0.0786950
54001.5, 0.0774760
54570.1, 0.0750020
55150.6, 0.0725280
55743.6, 0.0680220
56349.5, 0.0649200
56968.7, 0.0650680
57601.7, 0.0656960
58248.9, 0.0649940
58910.9, 0.0627050
59588.1, 0.0652900
60281.0, 0.0810210
60990.2, 0.110675
61716.3, 0.145351
62459.8, 0.170905
63221.6, 0.185344
64002.1, 0.174635
64802.1, 0.167877
65622.1, 0.201334
66463.4, 0.195684
67326.6, 0.189812
68212.4, 0.189185
69121.9, 0.183608
70056.0, 0.173896
71015.7, 0.160713
72002.0, 0.149080
73016.3, 0.143393
74059.4, 0.138223
75132.7, 0.131244
76237.6, 0.128400
77375.5, 0.128844
78547.9, 0.119722
79756.3, 0.119242
81002.5, 0.120498
82288.5, 0.118097
83615.7, 0.116399
84986.5, 0.118688
86402.9, 0.118060
87867.4, 0.119353
89382.4, 0.117691
90950.5, 0.122640
92574.6, 0.123230
94257.2, 0.119907
96002.7, 0.119685
97814.1, 0.130727
99695.1, 0.126739
101650.0, 0.121569
103683.0, 0.123969
105799.0, 0.127477
108003.0, 0.131281
110301.0, 0.136008
112699.0, 0.137743
115204.0, 0.143098
117822.0, 0.144464
120562.0, 0.147972
123433.0, 0.144760
126443.0, 0.153106
129604.0, 0.164036
132926.0, 0.171939
136424.0, 0.169133
140111.0, 0.189997
144003.0, 0.217730
148118.0, 0.202627
152474.0, 0.202368
157095.0, 0.205655
162004.0, 0.215108
167231.0, 0.235419
172805.0, 0.241734
178764.0, 0.233868
185148.0, 0.223196
192005.0, 0.221940
199390.0, 0.107647
207366.0, 0.130247
216006.0, 0.233351
