Database of Origin, USGS Spectral Database
Sample Description, See USGS database for additional info
Date Added,2016-08-10 02:45:33.425675

Data ID,USGS_gay01          
Sample ID, gaylussite_nmnh102876-2.8003
Mineral Name, gaylussite
Material Class,Carbonate

Wavelength
221.1, 0.325740
229.1, 0.334435
236.1, 0.337666
242.1, 0.340564
248.1, 0.344306
253.6, 0.348950
258.6, 0.352078
263.6, 0.354465
268.6, 0.357236
273.1, 0.361017
277.1, 0.363440
281.1, 0.364382
285.1, 0.365895
289.1, 0.368058
293.1, 0.369303
297.1, 0.371088
301.1, 0.375806
305.1, 0.379821
309.1, 0.382520
313.1, 0.387172
317.1, 0.391046
321.1, 0.395657
325.1, 0.398196
329.1, 0.400361
333.1, 0.402855
337.1, 0.405357
341.1, 0.406950
345.1, 0.409496
349.1, 0.409326
353.1, 0.413415
357.1, 0.415360
360.6, 0.416985
363.6, 0.416566
366.6, 0.417117
369.6, 0.417094
372.6, 0.417585
375.6, 0.416849
378.6, 0.416758
381.1, 0.417129
383.1, 0.415813
385.1, 0.415447
387.1, 0.415039
389.1, 0.414108
391.1, 0.412812
393.1, 0.411539
395.1, 0.411225
397.1, 0.409783
399.1, 0.408598
401.1, 0.407048
403.1, 0.406778
405.1, 0.407105
407.1, 0.407701
409.1, 0.408583
411.1, 0.411704
412.8, 0.412010
415.8, 0.415210
418.8, 0.418357
421.8, 0.422379
424.8, 0.427775
427.8, 0.433076
430.8, 0.438586
433.8, 0.443687
436.8, 0.448938
439.8, 0.453609
442.8, 0.458405
445.8, 0.462797
448.8, 0.467397
451.3, 0.471940
453.3, 0.473628
455.3, 0.476158
457.3, 0.478389
459.3, 0.481688
461.3, 0.482391
463.3, 0.485321
465.3, 0.486153
467.3, 0.488300
469.3, 0.490974
471.3, 0.491768
473.3, 0.494878
475.3, 0.495745
477.3, 0.498631
479.3, 0.500000
481.3, 0.502381
483.3, 0.503502
485.3, 0.504530
487.3, 0.506365
489.3, 0.507032
491.3, 0.508020
493.3, 0.508698
495.3, 0.510267
497.3, 0.510861
499.3, 0.512079
501.3, 0.513198
503.3, 0.513966
505.3, 0.516190
507.3, 0.517607
509.3, 0.520649
511.3, 0.521677
513.3, 0.524311
515.3, 0.527602
517.3, 0.530186
519.3, 0.532586
521.3, 0.535067
523.3, 0.537571
525.3, 0.540247
527.3, 0.541778
529.3, 0.543904
531.3, 0.545032
533.3, 0.546393
535.3, 0.547915
537.3, 0.549444
539.3, 0.549536
541.3, 0.550840
543.3, 0.551593
545.3, 0.552442
547.3, 0.554950
549.3, 0.554982
551.3, 0.557093
553.3, 0.558289
555.3, 0.559204
557.3, 0.560109
559.3, 0.561463
561.3, 0.559852
563.3, 0.562320
565.3, 0.562070
567.3, 0.563968
569.3, 0.564726
571.3, 0.566050
573.3, 0.566226
575.3, 0.568570
577.3, 0.569593
579.3, 0.571250
581.3, 0.571859
583.3, 0.572640
585.3, 0.572893
587.3, 0.573228
589.3, 0.573033
591.3, 0.571988
593.3, 0.571079
595.3, 0.571267
597.3, 0.570010
599.3, 0.569138
601.1, 0.567857
602.7, 0.568605
604.3, 0.567706
605.9, 0.567522
607.5, 0.567730
609.1, 0.567426
610.7, 0.567869
612.3, 0.567538
613.9, 0.568128
615.5, 0.568433
617.1, 0.569504
618.7, 0.570380
620.3, 0.570478
621.9, 0.572019
623.5, 0.571676
625.1, 0.572206
626.7, 0.572441
628.3, 0.572688
629.9, 0.573335
631.7, 0.573242
633.7, 0.572318
635.7, 0.572921
637.7, 0.572012
639.7, 0.569755
641.7, 0.567526
643.7, 0.563380
645.7, 0.559029
647.7, 0.553928
649.7, 0.549428
651.7, 0.545653
653.7, 0.542804
655.7, 0.542943
657.7, 0.541748
659.7, 0.543727
661.7, 0.544602
663.7, 0.546096
665.7, 0.548025
667.7, 0.550161
670.2, 0.554367
673.2, 0.560503
676.2, 0.567840
679.2, 0.576096
682.2, 0.583409
685.2, 0.590369
688.2, 0.597044
691.2, 0.602703
694.2, 0.608288
697.2, 0.611955
700.2, 0.620724
702.0, 0.622750
704.0, 0.626254
706.0, 0.630036
708.0, 0.631942
710.0, 0.633603
712.0, 0.638327
714.0, 0.640843
716.0, 0.642871
718.0, 0.644303
720.0, 0.647127
722.0, 0.650427
724.0, 0.652011
726.0, 0.654195
728.0, 0.654415
730.0, 0.657701
732.0, 0.659394
734.0, 0.660332
736.0, 0.662636
738.0, 0.664896
740.0, 0.666330
742.0, 0.667495
744.0, 0.670514
746.0, 0.670216
748.0, 0.672593
750.5, 0.673207
753.5, 0.675628
756.5, 0.676833
759.5, 0.679588
762.5, 0.679826
765.5, 0.682235
768.5, 0.684509
771.5, 0.686574
774.5, 0.688469
777.5, 0.688727
781.0, 0.690804
785.0, 0.692141
789.0, 0.694492
793.0, 0.697447
797.0, 0.698223
801.5, 0.700713
806.5, 0.701057
811.5, 0.703431
816.5, 0.705396
822.0, 0.705913
828.0, 0.707216
835.0, 0.707497
843.0, 0.708787
851.0, 0.709466
859.0, 0.708928
871.0, 0.710082
883.0, 0.710220
894.0, 0.711288
904.0, 0.708881
914.0, 0.706161
924.0, 0.706141
933.0, 0.706779
941.0, 0.704455
949.0, 0.700738
957.0, 0.695633
964.0, 0.693759
970.0, 0.690602
976.0, 0.686650
982.0, 0.682106
988.0, 0.677479
994.0, 0.673367
1000.0, 0.671952
1006.0, 0.667591
1012.0, 0.664826
1018.0, 0.665318
1023.5, 0.664569
1028.5, 0.665839
1033.5, 0.665865
1038.5, 0.667976
1043.5, 0.668963
1048.5, 0.670445
1053.5, 0.670574
1058.5, 0.669070
1063.5, 0.669622
1068.5, 0.668842
1073.5, 0.669845
1078.5, 0.666709
1083.5, 0.667497
1088.5, 0.664925
1093.5, 0.663713
1098.5, 0.661831
1103.5, 0.659546
1108.5, 0.657628
1113.5, 0.654897
1118.5, 0.653713
1123.5, 0.651693
1128.5, 0.649617
1133.5, 0.645645
1138.5, 0.643425
1143.5, 0.640288
1148.5, 0.637840
1153.5, 0.631373
1158.5, 0.624499
1163.5, 0.617784
1168.5, 0.609177
1173.5, 0.599427
1178.5, 0.592330
1183.5, 0.583902
1188.5, 0.578702
1193.5, 0.571158
1198.5, 0.565814
1203.5, 0.559248
1208.5, 0.555477
1213.5, 0.551232
1218.5, 0.549889
1223.5, 0.547596
1228.5, 0.546473
1233.5, 0.542545
1238.5, 0.540749
1243.5, 0.540055
1248.5, 0.539486
1253.5, 0.538513
1258.5, 0.536795
1263.5, 0.535550
1268.5, 0.536898
1273.5, 0.535840
1278.5, 0.535283
1283.5, 0.536274
1288.5, 0.536275
1293.5, 0.536099
1298.5, 0.533899
1303.5, 0.532237
1308.5, 0.529853
1313.5, 0.526974
1318.5, 0.523830
1323.5, 0.519419
1328.5, 0.513412
1333.5, 0.505453
1338.5, 0.498020
1343.5, 0.488203
1348.5, 0.481422
1353.5, 0.470375
1358.5, 0.462166
1363.5, 0.455036
1368.5, 0.446753
1373.5, 0.441636
1378.5, 0.436910
1383.5, 0.433787
1388.5, 0.426878
1393.5, 0.423443
1398.5, 0.417699
1403.5, 0.406521
1408.5, 0.395511
1413.5, 0.382825
1418.5, 0.366181
1423.5, 0.348314
1428.5, 0.333031
1433.5, 0.317914
1438.5, 0.298795
1443.5, 0.280218
1448.5, 0.264102
1453.5, 0.245282
1458.5, 0.232662
1463.5, 0.215746
1468.5, 0.203634
1473.5, 0.191104
1478.5, 0.177884
1483.5, 0.169405
1488.5, 0.162856
1493.5, 0.158794
1498.5, 0.157758
1503.5, 0.154099
1508.5, 0.153396
1513.5, 0.152559
1518.5, 0.147373
1523.5, 0.143847
1528.5, 0.142635
1534.0, 0.139343
1540.0, 0.137355
1546.0, 0.134918
1552.0, 0.131343
1558.0, 0.129629
1564.0, 0.128267
1570.5, 0.128188
1577.5, 0.128329
1584.5, 0.129182
1591.5, 0.131455
1598.5, 0.133103
1605.5, 0.135765
1612.5, 0.137215
1619.5, 0.138587
1626.5, 0.136733
1633.5, 0.136729
1640.5, 0.134555
1647.5, 0.132806
1654.5, 0.127513
1661.5, 0.126882
1668.5, 0.121897
1676.0, 0.118154
1684.0, 0.112117
1692.0, 0.109287
1700.0, 0.105005
1708.0, 0.102027
1716.0, 0.0979160
1724.0, 0.0917770
1732.0, 0.0895770
1740.0, 0.0864020
1748.0, 0.0836600
1756.0, 0.0832450
1764.0, 0.0799810
1772.0, 0.0794480
1780.0, 0.0776730
1788.0, 0.0776840
1796.0, 0.0786380
1805.0, 0.0772320
1815.0, 0.0784270
1825.0, 0.0801280
1835.0, 0.0813340
1845.0, 0.0837100
1855.0, 0.0842650
1865.0, 0.0800850
1875.0, 0.0776180
1885.0, 0.0702440
1895.0, 0.0653620
1905.0, 0.0591910
1915.0, 0.0544300
1925.0, 0.0504570
1935.0, 0.0467030
1945.0, 0.0420030
1955.0, 0.0410940
1965.0, 0.0391830
1975.0, 0.0387310
1985.0, 0.0399720
1995.0, 0.0397500
2005.0, 0.0396620
2015.0, 0.0435320
2025.0, 0.0439400
2035.0, 0.0420560
2045.0, 0.0430550
2055.0, 0.0424520
2065.0, 0.0463700
2075.0, 0.0459390
2085.0, 0.0436780
2095.0, 0.0470720
2105.0, 0.0460440
2115.0, 0.0482540
2125.0, 0.0465530
2135.0, 0.0475090
2145.0, 0.0504150
2155.0, 0.0485190
2165.0, 0.0506600
2175.0, 0.0511090
2185.0, 0.0527120
2195.0, 0.0532810
2205.0, 0.0559800
2215.0, 0.0590380
2225.0, 0.0624700
2235.0, 0.0629130
2245.0, 0.0620960
2255.0, 0.0620040
2265.0, 0.0630270
2275.0, 0.0621700
2285.0, 0.0603790
2295.0, 0.0598930
2305.0, 0.0579330
2315.0, 0.0538000
2325.0, 0.0502610
2335.0, 0.0494810
2345.0, 0.0491010
2355.0, 0.0460510
2365.0, 0.0458040
2375.0, 0.0442590
2386.0, 0.0435780
2400.0, 0.0416100
2418.0, 0.0378390
2440.0, 0.0330940
2466.0, 0.0309590
2496.0, 0.0299620
2528.0, 0.0298880
2560.0, 0.0286120
2592.0, 0.0288880
2624.0, 0.0274110
2656.0, 0.0253240
2688.0, 0.0189510
2720.0, 0.0188850
2752.0, 0.0172760
2784.0, 0.0100000
2816.0, 0.0123580
2848.0, 0.00585600
2880.0, 0.0144150
2912.0, 0.00373300
2976.0, 0.00677700
