Database of Origin,USGS Spectral Database
Sample Description,See USGS database for additional info
Date Added,2017-02-22 02:49:16.875130

Data ID,USGS_tal04          
Sample ID,talc_hs21.21570
Mineral Name,talc

Wavelength
1372.56, 0.705156
1372.92, 0.704802
1373.29, 0.704146
1373.65, 0.703641
1374.01, 0.702884
1374.38, 0.702026
1374.74, 0.701622
1375.11, 0.701016
1375.47, 0.700461
1375.84, 0.699906
1376.2, 0.699603
1376.57, 0.698997
1376.93, 0.698947
1377.3, 0.698745
1377.67, 0.698392
1378.03, 0.696978
1378.4, 0.695615
1378.76, 0.695010
1379.13, 0.695414
1379.5, 0.695212
1379.87, 0.694253
1380.23, 0.691426
1380.6, 0.690164
1380.97, 0.691325
1381.34, 0.691476
1381.7, 0.690719
1382.07, 0.688498
1382.44, 0.684864
1382.81, 0.684157
1383.18, 0.684309
1383.55, 0.682593
1383.92, 0.680069
1384.29, 0.677999
1384.66, 0.674365
1385.03, 0.670781
1385.4, 0.667702
1385.77, 0.664522
1386.14, 0.660736
1386.51, 0.656496
1386.88, 0.652307
1387.25, 0.647259
1387.62, 0.641909
1387.99, 0.636508
1388.36, 0.630905
1388.74, 0.624545
1389.11, 0.616267
1389.48, 0.604657
1389.85, 0.587091
1390.23, 0.557260
1390.6, 0.503704
1390.97, 0.426172
1391.35, 0.359897
1391.72, 0.346622
1392.09, 0.374939
1392.47, 0.423901
1392.84, 0.478466
1393.21, 0.523996
1393.59, 0.557562
1393.96, 0.580479
1394.34, 0.596177
1394.71, 0.606070
1395.09, 0.612582
1395.46, 0.617831
1395.84, 0.620961
1396.22, 0.622677
1396.59, 0.622879
1396.97, 0.614853
1397.35, 0.593552
1397.72, 0.573614
1398.1, 0.574169
1398.48, 0.589161
1398.85, 0.606878
1399.23, 0.621264
1399.61, 0.631006
1399.99, 0.635397
1400.37, 0.636306
1400.74, 0.636558
1401.12, 0.637265
1401.5, 0.638375
1401.88, 0.639940
1402.26, 0.641202
1402.64, 0.641858
1403.02, 0.641202
1403.4, 0.641050
1403.78, 0.640394
1404.16, 0.640192
1404.54, 0.638779
1404.92, 0.637366
1405.3, 0.637719
1405.68, 0.638476
1406.06, 0.639435
1406.44, 0.639385
1406.83, 0.638830
1407.21, 0.638728
1407.59, 0.639132
1407.97, 0.639132
1408.35, 0.639637
1408.74, 0.639334
1409.12, 0.638880
1409.5, 0.639132
1409.89, 0.639789
1410.27, 0.640243
1410.65, 0.640495
1411.04, 0.640748
1411.42, 0.640899
1411.81, 0.641252
1412.19, 0.641252
1412.58, 0.640849
1412.96, 0.640546
1413.35, 0.640293
1413.73, 0.639991
1414.12, 0.639486
1414.5, 0.639587
1414.89, 0.640041
1415.28, 0.640495
1415.66, 0.640798
1416.05, 0.641000
1416.44, 0.640445
1416.82, 0.639637
1417.21, 0.639132
1417.6, 0.639132
1417.98, 0.639082
1418.37, 0.638325
1418.76, 0.637164
1419.15, 0.636558
1419.54, 0.636407
1419.93, 0.636154
1420.32, 0.635801
1420.71, 0.635145
1421.09, 0.635094
1421.48, 0.634892
1421.88, 0.634892
1422.27, 0.634892
1422.66, 0.634388
1423.05, 0.633933
1423.44, 0.633277
1423.83, 0.632823
1424.22, 0.632621
1424.61, 0.632318
1425.0, 0.631611
1425.39, 0.631561
1425.78, 0.631258
1426.18, 0.630602
1426.57, 0.629845
1426.96, 0.629845
1427.36, 0.629845
1427.75, 0.629138
1428.14, 0.628229
1428.54, 0.627624
1428.93, 0.627220
1429.32, 0.626968
1429.72, 0.626513
1430.11, 0.626160
1430.51, 0.625756
1430.9, 0.624898
1431.3, 0.624444
1431.69, 0.623939
1432.09, 0.623636
1432.48, 0.623232
1432.88, 0.623081
1433.28, 0.622526
1433.67, 0.622122
1434.07, 0.621617
1434.46, 0.620910
1434.86, 0.620809
1435.26, 0.620254
1435.66, 0.619850
1436.05, 0.619649
1436.45, 0.619194
1436.85, 0.618992
1437.25, 0.618235
1437.65, 0.617781
1438.05, 0.617983
1438.44, 0.617528
1438.84, 0.616872
1439.24, 0.616468
1439.64, 0.616216
1440.04, 0.616267
1440.44, 0.616065
1440.84, 0.615560
1441.24, 0.615408
1441.65, 0.615408
1442.05, 0.615156
1442.45, 0.614803
1442.85, 0.614500
1443.25, 0.614248
1443.65, 0.614147
1444.05, 0.614298
1444.46, 0.613945
1444.86, 0.613389
1445.26, 0.613238
1445.67, 0.613036
1446.07, 0.612834
1446.47, 0.612582
1446.88, 0.612582
1447.28, 0.612430
1447.68, 0.612582
1448.09, 0.612683
1448.49, 0.612582
1448.9, 0.612228
1449.3, 0.611875
1449.71, 0.611825
1450.11, 0.611825
1450.52, 0.611421
1450.93, 0.611168
1451.33, 0.611370
1451.74, 0.611370
1452.14, 0.611320
1452.55, 0.611219
1452.96, 0.611320
1453.36, 0.611320
1453.77, 0.611421
1454.18, 0.611421
1454.59, 0.611421
1455.0, 0.611269
1455.41, 0.611017
1455.81, 0.611017
1456.22, 0.610815
1456.63, 0.611118
1457.04, 0.611168
1457.45, 0.611219
1457.86, 0.611118
1458.27, 0.611118
1458.68, 0.611017
1459.09, 0.610866
1459.5, 0.610967
1459.91, 0.611017
1460.32, 0.610815
1460.74, 0.610815
1461.15, 0.610613
1461.56, 0.610563
1461.97, 0.610563
1462.39, 0.610462
1462.8, 0.610310
1463.21, 0.610462
1463.62, 0.610815
1464.04, 0.610815
1464.45, 0.610765
1464.86, 0.610512
1465.28, 0.610361
1465.69, 0.610411
1466.11, 0.610563
1466.52, 0.610613
1466.94, 0.610512
1467.35, 0.610613
1467.77, 0.610411
1468.18, 0.610260
1468.6, 0.610411
1469.02, 0.610361
1469.43, 0.610209
1469.85, 0.610411
1470.27, 0.610209
1470.68, 0.610310
1471.1, 0.610664
1471.52, 0.610664
1471.94, 0.610512
1472.35, 0.610310
1472.77, 0.610260
1473.19, 0.610260
1473.61, 0.610260
1474.03, 0.610310
1474.45, 0.610563
1474.87, 0.610765
1475.29, 0.610765
1475.71, 0.610664
1476.13, 0.610815
1476.55, 0.610714
1476.97, 0.610916
1477.39, 0.610967
1477.81, 0.610765
1478.23, 0.610916
1478.65, 0.610916
1479.07, 0.610512
1479.5, 0.610361
1479.92, 0.610512
1480.34, 0.610866
1480.76, 0.610765
1481.19, 0.610664
1481.61, 0.610714
1482.03, 0.610613
1482.46, 0.610260
1482.88, 0.610512
1483.31, 0.611118
1483.73, 0.611168
1484.16, 0.611168
1484.58, 0.611471
1485.01, 0.611724
1485.43, 0.611370
1485.86, 0.611572
1486.28, 0.611673
1486.71, 0.611269
1487.14, 0.611269
1487.56, 0.611421
1487.99, 0.611522
1488.42, 0.611825
1488.84, 0.611774
1489.27, 0.611724
1489.7, 0.611673
1490.13, 0.611623
1490.56, 0.611673
1490.98, 0.611724
1491.41, 0.611623
1491.84, 0.611572
1492.27, 0.611623
1492.7, 0.611623
1493.13, 0.611623
1493.56, 0.611825
1493.99, 0.611825
1494.42, 0.611623
1494.85, 0.611522
1495.29, 0.611370
1495.72, 0.611118
1496.15, 0.611421
1496.58, 0.611623
1497.01, 0.611673
1497.44, 0.611320
1497.88, 0.611370
1498.31, 0.611774
1498.74, 0.611724
1499.18, 0.611471
1499.61, 0.611421
1500.04, 0.611623
1500.48, 0.611522
1500.91, 0.611673
1501.35, 0.611724
1501.78, 0.611572
1502.22, 0.611522
1502.65, 0.611623
1503.09, 0.611724
1503.53, 0.611673
1503.96, 0.611421
1504.4, 0.611522
1504.83, 0.612027
1505.27, 0.612077
1505.71, 0.612127
1506.15, 0.611825
1506.58, 0.611623
1507.02, 0.611572
1507.46, 0.611320
1507.9, 0.611118
1508.34, 0.611471
1508.78, 0.611522
1509.21, 0.611370
1509.66, 0.611421
1510.09, 0.611522
1510.53, 0.611421
1510.97, 0.611522
1511.42, 0.611522
1511.86, 0.611370
1512.3, 0.611471
1512.74, 0.611623
1513.18, 0.611471
1513.62, 0.611370
1514.06, 0.611522
1514.51, 0.611623
1514.95, 0.611522
1515.39, 0.611269
1515.83, 0.611522
1516.28, 0.611774
1516.72, 0.611623
1517.16, 0.611572
1517.61, 0.611774
1518.05, 0.611825
1518.5, 0.611522
1518.94, 0.611522
1519.39, 0.611370
1519.83, 0.611421
1520.28, 0.611168
1520.73, 0.611421
1521.17, 0.611673
1521.62, 0.611774
1522.07, 0.611522
1522.51, 0.611522
1522.96, 0.611623
1523.41, 0.611875
1523.85, 0.611724
1524.3, 0.611572
1524.75, 0.611370
1525.2, 0.611471
1525.65, 0.611875
1526.1, 0.611774
1526.55, 0.611572
1527.0, 0.611623
1527.45, 0.611471
1527.9, 0.611673
1528.35, 0.611976
1528.8, 0.611926
1529.25, 0.611471
1529.7, 0.611421
1530.15, 0.611522
1530.6, 0.611471
1531.05, 0.611471
1531.51, 0.611673
1531.96, 0.611976
1532.41, 0.611875
1532.87, 0.611825
1533.32, 0.612228
1533.77, 0.612632
1534.23, 0.612784
1534.68, 0.612481
1535.14, 0.612834
1535.59, 0.613339
1536.05, 0.613490
1536.5, 0.613541
1536.96, 0.613591
1537.41, 0.613642
1537.87, 0.613793
1538.32, 0.613692
1538.78, 0.613844
1539.24, 0.614348
1539.7, 0.614449
1540.15, 0.614046
1540.61, 0.614348
1541.07, 0.614651
1541.53, 0.614803
1541.98, 0.614853
1542.44, 0.614954
1542.9, 0.615156
1543.36, 0.615459
1543.82, 0.615863
1544.28, 0.616166
1544.74, 0.616468
1545.2, 0.616822
1545.66, 0.616771
1546.12, 0.616822
1546.59, 0.616721
1547.05, 0.617074
1547.51, 0.617024
1547.97, 0.617528
1548.43, 0.617781
1548.9, 0.618033
1549.36, 0.618134
1549.82, 0.618336
1550.29, 0.618437
1550.75, 0.618891
1551.21, 0.619194
1551.68, 0.619194
1552.14, 0.619093
1552.61, 0.619295
1553.07, 0.619598
1553.54, 0.619598
1554.0, 0.619749
1554.47, 0.620153
1554.93, 0.620103
1555.4, 0.620456
1555.87, 0.620809
1556.34, 0.621062
1556.8, 0.621213
1557.27, 0.621567
1557.74, 0.621668
1558.21, 0.621920
1558.68, 0.622223
1559.14, 0.622475
1559.61, 0.622728
1560.08, 0.622526
1560.55, 0.622677
1561.02, 0.622728
1561.49, 0.622879
1561.96, 0.623182
1562.43, 0.623283
1562.9, 0.623535
1563.38, 0.623687
1563.85, 0.624040
1564.32, 0.623989
1564.79, 0.624343
1565.26, 0.624747
1565.74, 0.624949
1566.21, 0.625100
1566.68, 0.625504
1567.16, 0.625756
1567.63, 0.625453
1568.1, 0.625554
1568.58, 0.626009
1569.05, 0.626210
1569.53, 0.626261
1570.0, 0.626160
1570.48, 0.626412
1570.96, 0.626715
1571.43, 0.627220
1571.91, 0.627422
1572.39, 0.627573
1572.86, 0.627624
1573.34, 0.627775
1573.82, 0.627876
1574.3, 0.628129
1574.77, 0.628129
1575.25, 0.628330
1575.73, 0.628835
1576.21, 0.628936
1576.69, 0.629239
1577.17, 0.629542
1577.65, 0.629643
1578.13, 0.629895
1578.61, 0.629794
1579.09, 0.629895
1579.57, 0.630198
1580.05, 0.630652
1580.54, 0.630753
1581.02, 0.630854
1581.5, 0.630955
1581.98, 0.631056
1582.47, 0.631460
1582.95, 0.631864
1583.43, 0.632066
1583.92, 0.632419
1584.4, 0.632520
1584.88, 0.632823
1585.37, 0.632772
1585.85, 0.632772
1586.34, 0.633075
1586.82, 0.633075
1587.31, 0.633429
1587.8, 0.633681
1588.28, 0.633681
1588.77, 0.633933
1589.26, 0.634287
1589.74, 0.634337
1590.23, 0.634438
1590.72, 0.634690
1591.21, 0.634943
1591.7, 0.635094
1592.19, 0.635296
1592.67, 0.635750
1593.16, 0.635902
1593.65, 0.635650
1594.14, 0.636053
1594.63, 0.636659
1595.12, 0.636861
1595.61, 0.636810
1596.11, 0.636911
1596.6, 0.637416
1597.09, 0.637618
1597.58, 0.637971
1598.08, 0.638274
1598.57, 0.638426
1599.06, 0.638779
1599.55, 0.638830
1600.05, 0.638830
1600.54, 0.639183
1601.04, 0.639486
1601.53, 0.639789
1602.03, 0.639889
1602.52, 0.639991
1603.02, 0.640394
1603.51, 0.640697
1604.01, 0.640899
1604.5, 0.641353
1605.0, 0.641656
1605.5, 0.641656
1606.0, 0.641656
1606.49, 0.641808
1606.99, 0.642110
1607.49, 0.642565
1607.99, 0.642767
1608.49, 0.642918
1608.99, 0.643372
1609.49, 0.643372
1609.99, 0.643423
1610.49, 0.643776
1610.99, 0.644029
1611.49, 0.644281
1611.99, 0.644483
1612.49, 0.644685
1612.99, 0.644786
1613.49, 0.645089
1614.0, 0.645290
1614.5, 0.645543
1615.0, 0.645846
1615.51, 0.646401
1616.01, 0.646653
1616.51, 0.646704
1617.02, 0.647158
1617.52, 0.647411
1618.03, 0.647411
1618.53, 0.647562
1619.04, 0.647612
1619.54, 0.648016
1620.05, 0.648269
1620.55, 0.648571
1621.06, 0.648773
1621.57, 0.648824
1622.08, 0.648925
1622.58, 0.649430
1623.09, 0.649682
1623.6, 0.649783
1624.11, 0.650237
1624.62, 0.650641
1625.13, 0.650742
1625.64, 0.650843
1626.15, 0.650792
1626.66, 0.651196
1627.17, 0.651499
1627.68, 0.651650
1628.19, 0.651751
1628.7, 0.652004
1629.21, 0.652206
1629.72, 0.652357
1630.24, 0.652357
1630.75, 0.652710
1631.26, 0.653013
1631.78, 0.653165
1632.29, 0.653316
1632.8, 0.653468
1633.32, 0.653518
1633.83, 0.654023
1634.35, 0.654275
1634.86, 0.654477
1635.38, 0.654679
1635.9, 0.654931
1636.41, 0.655184
1636.93, 0.655335
1637.45, 0.655184
1637.96, 0.655234
1638.48, 0.655285
1639.0, 0.655588
1639.52, 0.655739
1640.04, 0.655991
1640.56, 0.656395
1641.08, 0.656446
1641.59, 0.656597
1642.11, 0.656850
1642.63, 0.656850
1643.16, 0.657052
1643.68, 0.657304
1644.2, 0.657354
1644.72, 0.657405
1645.24, 0.657708
1645.76, 0.657708
1646.29, 0.657708
1646.81, 0.658112
1647.33, 0.658414
1647.86, 0.658465
1648.38, 0.658566
1648.9, 0.658414
1649.43, 0.658465
1649.95, 0.658768
1650.48, 0.658970
1651.0, 0.659020
1651.53, 0.659222
1652.06, 0.659525
1652.58, 0.659575
1653.11, 0.659676
1653.64, 0.659878
1654.17, 0.660030
1654.69, 0.659979
1655.22, 0.660030
1655.75, 0.660181
1656.28, 0.660282
1656.81, 0.660484
1657.34, 0.660686
1657.87, 0.660888
1658.4, 0.660938
1658.93, 0.660989
1659.46, 0.660989
1659.99, 0.661191
1660.52, 0.661443
1661.05, 0.661645
1661.59, 0.661948
1662.12, 0.662352
1662.65, 0.662503
1663.19, 0.662553
1663.72, 0.662604
1664.26, 0.662705
1664.79, 0.662957
1665.32, 0.663058
1665.86, 0.663210
1666.39, 0.663462
1666.93, 0.663513
1667.47, 0.663815
1668.0, 0.664017
1668.54, 0.664421
1669.08, 0.664573
1669.61, 0.664724
1670.15, 0.664724
1670.69, 0.664875
1671.23, 0.665027
1671.77, 0.665229
1672.31, 0.665532
1672.85, 0.665633
1673.39, 0.665683
1673.93, 0.665986
1674.47, 0.666137
1675.01, 0.666289
1675.55, 0.666289
1676.09, 0.666339
1676.64, 0.666541
1677.18, 0.666844
1677.72, 0.666945
1678.26, 0.666793
1678.81, 0.667147
1679.35, 0.667551
1679.89, 0.667450
1680.44, 0.667702
1680.98, 0.667904
1681.53, 0.668156
1682.07, 0.668308
1682.62, 0.668510
1683.17, 0.668560
1683.71, 0.668863
1684.26, 0.669065
1684.81, 0.669368
1685.36, 0.669418
1685.9, 0.669368
1686.45, 0.669368
1687.0, 0.669721
1687.55, 0.670024
1688.1, 0.670276
1688.65, 0.670327
1689.2, 0.670377
1689.75, 0.670327
1690.3, 0.670478
1690.85, 0.670832
1691.41, 0.671185
1691.96, 0.671336
1692.51, 0.671437
1693.06, 0.671437
1693.61, 0.671538
1694.17, 0.671690
1694.72, 0.672043
1695.28, 0.672194
1695.83, 0.672396
1696.39, 0.672598
1696.94, 0.672598
1697.5, 0.672598
1698.05, 0.672851
1698.61, 0.672952
1699.17, 0.673053
1699.72, 0.673204
1700.28, 0.673456
1700.84, 0.673709
1701.4, 0.673759
1701.95, 0.673810
1702.51, 0.673810
1703.07, 0.674062
1703.63, 0.674314
1704.19, 0.674365
1704.75, 0.674314
1705.31, 0.674415
1705.88, 0.674516
1706.44, 0.674516
1707.0, 0.674516
1707.56, 0.674769
1708.12, 0.675223
1708.69, 0.675072
1709.25, 0.675072
1709.81, 0.675173
1710.38, 0.675425
1710.94, 0.675324
1711.51, 0.675324
1712.07, 0.675122
1712.64, 0.675223
1713.2, 0.675526
1713.77, 0.675829
1714.34, 0.675576
1714.9, 0.675526
1715.47, 0.675677
1716.04, 0.675980
1716.61, 0.676081
1717.18, 0.676182
1717.74, 0.676182
1718.31, 0.676535
1718.88, 0.676586
1719.45, 0.676485
1720.02, 0.676485
1720.59, 0.676687
1721.17, 0.676737
1721.74, 0.676687
1722.31, 0.676889
1722.88, 0.677091
1723.45, 0.677091
1724.03, 0.677091
1724.6, 0.676939
1725.18, 0.677141
1725.75, 0.677293
1726.33, 0.677444
1726.9, 0.677293
1727.48, 0.677444
1728.05, 0.677494
1728.63, 0.677696
1729.2, 0.677747
1729.78, 0.677898
1730.36, 0.677949
1730.94, 0.677848
1731.51, 0.677898
1732.09, 0.678151
1732.67, 0.678201
1733.25, 0.678302
1733.83, 0.678403
1734.41, 0.678554
1734.99, 0.678504
1735.57, 0.678756
1736.15, 0.678807
1736.73, 0.678807
1737.32, 0.678958
1737.9, 0.678908
1738.48, 0.679110
1739.07, 0.679261
1739.65, 0.679312
1740.23, 0.679261
1740.82, 0.679312
1741.4, 0.679564
1741.99, 0.679614
1742.57, 0.679715
1743.16, 0.679715
1743.74, 0.679766
1744.33, 0.679867
1744.92, 0.680119
1745.51, 0.680271
1746.09, 0.680523
1746.68, 0.680624
1747.27, 0.680674
1747.86, 0.680674
1748.45, 0.680775
1749.04, 0.680775
1749.63, 0.680977
1750.22, 0.681129
1750.81, 0.681179
1751.4, 0.681129
1751.99, 0.681381
1752.59, 0.681432
1753.18, 0.681381
1753.77, 0.681583
1754.37, 0.681734
1754.96, 0.681785
1755.56, 0.682088
1756.15, 0.682088
1756.74, 0.682037
1757.34, 0.682189
1757.94, 0.682340
1758.53, 0.682542
1759.13, 0.682845
1759.73, 0.682795
1760.32, 0.682895
1760.92, 0.682845
1761.52, 0.683097
1762.12, 0.683350
1762.72, 0.683451
1763.32, 0.683451
1763.92, 0.683350
1764.52, 0.683400
1765.12, 0.683552
1765.72, 0.683653
1766.32, 0.683855
1766.92, 0.683905
1767.53, 0.684056
1768.13, 0.684006
1768.73, 0.684258
1769.34, 0.684359
1769.94, 0.684410
1770.55, 0.684460
1771.15, 0.684561
1771.76, 0.684612
1772.36, 0.684662
1772.97, 0.684612
1773.57, 0.684662
1774.18, 0.684763
1774.79, 0.684965
1775.4, 0.684864
1776.0, 0.684915
1776.61, 0.684915
1777.22, 0.685015
1777.83, 0.685066
1778.44, 0.685217
1779.05, 0.685268
1779.66, 0.685419
1780.27, 0.685419
1780.88, 0.685167
1781.5, 0.685167
1782.11, 0.685217
1782.72, 0.685318
1783.33, 0.685520
1783.95, 0.685419
1784.56, 0.685419
1785.18, 0.685520
1785.79, 0.685571
1786.41, 0.685520
1787.02, 0.685520
1787.64, 0.685369
1788.26, 0.685419
1788.87, 0.685571
1789.49, 0.685470
1790.11, 0.685268
1790.73, 0.685369
1791.35, 0.685470
1791.96, 0.685672
1792.58, 0.685470
1793.21, 0.685217
1793.83, 0.685116
1794.45, 0.685217
1795.07, 0.685167
1795.69, 0.685167
1796.31, 0.685318
1796.93, 0.685520
1797.56, 0.685318
1798.18, 0.685167
1798.8, 0.685369
1799.43, 0.685318
1800.05, 0.685217
1800.68, 0.685167
1801.3, 0.685015
1801.93, 0.685015
1802.56, 0.684965
1803.18, 0.684965
1803.81, 0.685116
1804.44, 0.685066
1805.07, 0.684763
1805.7, 0.684410
1806.33, 0.684561
1806.95, 0.684612
1807.58, 0.684612
1808.22, 0.684359
1808.85, 0.684309
1809.48, 0.684359
1810.11, 0.683905
1810.74, 0.683653
1811.38, 0.683753
1812.01, 0.683703
1812.64, 0.683501
1813.28, 0.683753
1813.91, 0.683855
1814.55, 0.683501
1815.18, 0.682946
1815.82, 0.683047
1816.45, 0.683249
1817.09, 0.683249
1817.73, 0.683249
1818.36, 0.682946
1819.0, 0.683097
1819.64, 0.682441
1820.28, 0.681785
1820.92, 0.682189
1821.56, 0.682593
1822.2, 0.682895
1822.84, 0.683097
1823.48, 0.683249
1824.12, 0.683249
1824.76, 0.683148
1825.41, 0.681936
1826.05, 0.680372
1826.69, 0.681634
1827.34, 0.682694
1827.98, 0.682340
1828.63, 0.682239
1829.27, 0.682088
1829.92, 0.681835
1830.56, 0.681129
1831.21, 0.681331
1831.86, 0.682138
1832.5, 0.682391
1833.15, 0.682744
1833.8, 0.682795
1834.45, 0.681936
1835.1, 0.681381
1835.75, 0.680775
1836.4, 0.680977
1837.05, 0.681078
1837.7, 0.681028
1838.35, 0.682492
1839.01, 0.682037
1839.66, 0.680674
1840.31, 0.681734
1840.96, 0.681734
1841.62, 0.679968
1842.27, 0.681028
1842.93, 0.682391
1843.58, 0.682643
1844.24, 0.682694
1844.9, 0.682845
1845.55, 0.682845
1846.21, 0.681129
1846.87, 0.679261
1847.53, 0.679614
1848.18, 0.680220
1848.84, 0.681684
1849.5, 0.682290
1850.16, 0.682037
1850.82, 0.682138
1851.48, 0.682290
1852.14, 0.681734
1852.81, 0.680624
1853.47, 0.679312
1854.13, 0.679867
1854.8, 0.681533
1855.46, 0.681331
1856.12, 0.679867
1856.79, 0.679766
1857.45, 0.681078
1858.12, 0.681179
1858.79, 0.680018
1859.45, 0.678252
1860.12, 0.678908
1860.79, 0.680069
1861.46, 0.680775
1862.12, 0.680826
1862.79, 0.680674
1863.46, 0.680119
1864.13, 0.679564
1864.8, 0.679715
1865.48, 0.680018
1866.15, 0.679867
1866.82, 0.678554
1867.49, 0.676586
1868.16, 0.677242
1868.84, 0.678252
1869.51, 0.677797
1870.19, 0.676132
1870.86, 0.674870
1871.54, 0.676889
1872.21, 0.676333
1872.89, 0.674213
1873.56, 0.675425
1874.24, 0.676889
1874.92, 0.676535
1875.6, 0.676485
1876.28, 0.675728
1876.96, 0.675274
1877.64, 0.676283
1878.32, 0.676889
1879.0, 0.677141
1879.68, 0.676990
1880.36, 0.676737
1881.04, 0.676384
1881.73, 0.676687
1882.41, 0.676990
1883.09, 0.676535
1883.78, 0.675475
1884.46, 0.676182
1885.15, 0.676838
1885.83, 0.676990
1886.52, 0.676636
1887.21, 0.676737
1887.89, 0.676990
1888.58, 0.677141
1889.27, 0.676132
1889.96, 0.675173
1890.65, 0.675930
1891.34, 0.676384
1892.03, 0.676081
1892.72, 0.676435
1893.41, 0.676283
1894.1, 0.676333
1894.79, 0.676586
1895.49, 0.676535
1896.18, 0.676485
1896.87, 0.676132
1897.57, 0.675778
1898.26, 0.675576
1898.96, 0.674264
1899.65, 0.673557
1900.35, 0.674365
1901.05, 0.675122
1901.74, 0.675122
1902.44, 0.673961
1903.14, 0.674062
1903.84, 0.674971
1904.54, 0.673709
1905.24, 0.672901
1905.94, 0.673456
1906.64, 0.673709
1907.34, 0.674870
1908.04, 0.675728
1908.75, 0.675576
1909.45, 0.675576
1910.15, 0.675475
1910.86, 0.675425
1911.56, 0.675475
1912.27, 0.675627
1912.97, 0.674617
1913.68, 0.674516
1914.39, 0.675778
1915.09, 0.676283
1915.8, 0.676081
1916.51, 0.676233
1917.22, 0.676586
1917.93, 0.676889
1918.64, 0.676687
1919.35, 0.675576
1920.06, 0.674466
1920.77, 0.674971
1921.48, 0.676788
1922.19, 0.677141
1922.91, 0.677141
1923.62, 0.676737
1924.33, 0.676939
1925.05, 0.677545
1925.76, 0.677595
1926.48, 0.677343
1927.19, 0.677242
1927.91, 0.676990
1928.63, 0.676889
1929.35, 0.677343
1930.07, 0.677545
1930.78, 0.677494
1931.5, 0.677444
1932.22, 0.677545
1932.94, 0.677545
1933.66, 0.677192
1934.39, 0.677242
1935.11, 0.677393
1935.83, 0.676838
1936.55, 0.676687
1937.28, 0.676889
1938.0, 0.676889
1938.73, 0.676586
1939.45, 0.676586
1940.18, 0.676788
1940.9, 0.676636
1941.63, 0.676435
1942.36, 0.676333
1943.09, 0.676081
1943.81, 0.675728
1944.54, 0.675728
1945.27, 0.675627
1946.0, 0.675475
1946.73, 0.675223
1947.47, 0.675021
1948.2, 0.674920
1948.93, 0.674920
1949.66, 0.674819
1950.4, 0.674718
1951.13, 0.674718
1951.86, 0.674617
1952.6, 0.674415
1953.34, 0.674314
1954.07, 0.674314
1954.81, 0.674415
1955.55, 0.674314
1956.29, 0.674314
1957.02, 0.674213
1957.76, 0.674062
1958.5, 0.674012
1959.24, 0.674012
1959.98, 0.674062
1960.72, 0.673759
1961.47, 0.673557
1962.21, 0.673557
1962.95, 0.673658
1963.7, 0.673406
1964.44, 0.673305
1965.18, 0.673204
1965.93, 0.673254
1966.67, 0.672901
1967.42, 0.672851
1968.17, 0.672649
1968.92, 0.672396
1969.66, 0.672144
1970.41, 0.671841
1971.16, 0.671336
1971.91, 0.670983
1972.66, 0.670882
1973.41, 0.670680
1974.16, 0.670226
1974.92, 0.669822
1975.67, 0.669872
1976.42, 0.670074
1977.18, 0.669772
1977.93, 0.669216
1978.69, 0.669014
1979.44, 0.668560
1980.2, 0.668308
1980.95, 0.668207
1981.71, 0.667904
1982.47, 0.667803
1983.23, 0.667551
1983.99, 0.667450
1984.74, 0.667147
1985.51, 0.666995
1986.27, 0.666945
1987.03, 0.666793
1987.79, 0.666390
1988.55, 0.666087
1989.32, 0.666036
1990.08, 0.665986
1990.84, 0.665784
1991.61, 0.665633
1992.37, 0.665683
1993.14, 0.665633
1993.9, 0.665330
1994.67, 0.665128
1995.44, 0.665279
1996.21, 0.665380
1996.98, 0.665330
1997.75, 0.665330
1998.52, 0.665279
1999.29, 0.665380
2000.06, 0.665431
2000.83, 0.665330
2001.6, 0.665279
2002.38, 0.665330
2003.15, 0.665229
2003.93, 0.665128
2004.7, 0.665128
2005.48, 0.665178
2006.25, 0.665128
2007.03, 0.664976
2007.81, 0.664976
2008.58, 0.665077
2009.36, 0.664926
2010.14, 0.664976
2010.92, 0.665178
2011.7, 0.665330
2012.48, 0.665532
2013.26, 0.665633
2014.05, 0.666036
2014.83, 0.666339
2015.61, 0.666793
2016.4, 0.667298
2017.18, 0.667954
2017.97, 0.668560
2018.75, 0.668964
2019.54, 0.669418
2020.32, 0.669973
2021.11, 0.670630
2021.9, 0.671437
2022.69, 0.671892
2023.48, 0.672447
2024.27, 0.673002
2025.06, 0.673456
2025.85, 0.674062
2026.64, 0.674617
2027.44, 0.674870
2028.23, 0.675021
2029.02, 0.675526
2029.82, 0.676182
2030.61, 0.676586
2031.41, 0.676788
2032.2, 0.677040
2033.0, 0.677242
2033.8, 0.677343
2034.6, 0.677444
2035.4, 0.677595
2036.2, 0.677797
2037.0, 0.677999
2037.8, 0.678151
2038.6, 0.678454
2039.4, 0.678554
2040.2, 0.678353
2041.01, 0.678353
2041.81, 0.678504
2042.61, 0.678756
2043.42, 0.678756
2044.22, 0.678908
2045.03, 0.678958
2045.84, 0.678958
2046.65, 0.679009
2047.46, 0.679059
2048.26, 0.678908
2049.07, 0.678857
2049.88, 0.679009
2050.69, 0.678908
2051.51, 0.678908
2052.32, 0.678605
2053.13, 0.678454
2053.94, 0.678554
2054.76, 0.678605
2055.57, 0.678504
2056.39, 0.678403
2057.2, 0.678302
2058.02, 0.678302
2058.84, 0.678201
2059.66, 0.678100
2060.48, 0.677949
2061.29, 0.677848
2062.11, 0.677646
2062.94, 0.677393
2063.76, 0.677242
2064.58, 0.677040
2065.4, 0.676788
2066.22, 0.676435
2067.05, 0.675778
2067.87, 0.675173
2068.7, 0.674365
2069.52, 0.673204
2070.35, 0.671892
2071.18, 0.670377
2072.0, 0.668712
2072.83, 0.666945
2073.66, 0.665077
2074.49, 0.663412
2075.32, 0.661897
2076.15, 0.660736
2076.98, 0.660181
2077.82, 0.660484
2078.65, 0.661342
2079.48, 0.662452
2080.32, 0.663866
2081.15, 0.664926
2081.99, 0.665733
2082.83, 0.666491
2083.66, 0.667046
2084.5, 0.667349
2085.34, 0.667298
2086.18, 0.667450
2087.02, 0.667450
2087.86, 0.667399
2088.7, 0.667349
2089.54, 0.667551
2090.39, 0.667652
2091.23, 0.667803
2092.07, 0.668055
2092.92, 0.668156
2093.76, 0.668156
2094.61, 0.668156
2095.45, 0.667645
2096.3, 0.667645
2097.15, 0.668310
2098.0, 0.668412
2098.85, 0.668514
2099.7, 0.668310
2100.55, 0.668105
2101.4, 0.668514
2102.25, 0.668054
2103.1, 0.667747
2103.96, 0.667491
2104.81, 0.667287
2105.67, 0.667645
2106.52, 0.667645
2107.38, 0.667645
2108.24, 0.667645
2109.09, 0.667952
2109.95, 0.667389
2110.81, 0.666213
2111.67, 0.665702
2112.53, 0.665497
2113.39, 0.664321
2114.25, 0.662071
2115.12, 0.660281
2115.98, 0.659513
2116.84, 0.660178
2117.71, 0.661303
2118.58, 0.662377
2119.44, 0.663093
2120.31, 0.663707
2121.18, 0.663656
2122.04, 0.662787
2122.91, 0.661150
2123.78, 0.659872
2124.65, 0.658695
2125.52, 0.657059
2126.4, 0.655985
2127.27, 0.655627
2128.14, 0.655883
2129.02, 0.656292
2129.89, 0.656240
2130.77, 0.655729
2131.64, 0.655678
2132.52, 0.656087
2133.4, 0.656292
2134.27, 0.656138
2135.15, 0.656394
2136.03, 0.656240
2136.91, 0.656138
2137.79, 0.656394
2138.68, 0.656956
2139.56, 0.657008
2140.44, 0.657110
2141.33, 0.657366
2142.21, 0.657212
2143.1, 0.657570
2143.99, 0.658337
2144.87, 0.659002
2145.76, 0.659258
2146.65, 0.659155
2147.54, 0.659565
2148.43, 0.660025
2149.32, 0.660485
2150.21, 0.661252
2151.1, 0.661713
2151.99, 0.662173
2152.89, 0.662480
2153.78, 0.662735
2154.68, 0.663093
2155.57, 0.662787
2156.47, 0.662633
2157.37, 0.662071
2158.27, 0.661252
2159.16, 0.660997
2160.06, 0.661048
2160.96, 0.661201
2161.86, 0.660792
2162.77, 0.660536
2163.67, 0.660587
2164.57, 0.660587
2165.48, 0.659718
2166.38, 0.658798
2167.29, 0.659155
2168.2, 0.658798
2169.1, 0.657928
2170.01, 0.656854
2170.92, 0.655934
2171.83, 0.655064
2172.74, 0.654706
2173.65, 0.654399
2174.56, 0.654706
2175.47, 0.655115
2176.39, 0.655269
2177.3, 0.654962
2178.22, 0.654553
2179.13, 0.655218
2180.05, 0.655729
2180.96, 0.656240
2181.88, 0.656752
2182.8, 0.656905
2183.72, 0.657314
2184.64, 0.657826
2185.56, 0.658798
2186.48, 0.658491
2187.41, 0.658900
2188.33, 0.659258
2189.25, 0.658951
2190.18, 0.658746
2191.1, 0.659155
2192.03, 0.659258
2192.96, 0.659053
2193.89, 0.658900
2194.82, 0.659053
2195.74, 0.658542
2196.68, 0.658286
2197.61, 0.658542
2198.54, 0.657928
2199.47, 0.657366
2200.4, 0.657366
2201.34, 0.656905
2202.28, 0.656547
2203.21, 0.656547
2204.15, 0.656292
2205.08, 0.656087
2206.02, 0.655524
2206.96, 0.655013
2207.9, 0.654553
2208.84, 0.654041
2209.78, 0.653735
2210.73, 0.653428
2211.67, 0.652763
2212.61, 0.651893
2213.56, 0.651382
2214.5, 0.650922
2215.45, 0.650410
2216.4, 0.649439
2217.35, 0.648416
2218.3, 0.647291
2219.24, 0.646115
2220.2, 0.645143
2221.15, 0.643558
2222.1, 0.640796
2223.05, 0.637983
2224.0, 0.634659
2224.96, 0.630823
2225.91, 0.626834
2226.87, 0.623050
2227.83, 0.619930
2228.79, 0.617629
2229.74, 0.615635
2230.7, 0.613487
2231.66, 0.611543
2232.63, 0.610623
2233.59, 0.610776
2234.55, 0.610469
2235.51, 0.610469
2236.48, 0.610162
2237.44, 0.609037
2238.41, 0.607401
2239.38, 0.605713
2240.34, 0.603923
2241.31, 0.601673
2242.28, 0.599372
2243.25, 0.596764
2244.22, 0.594104
2245.19, 0.592212
2246.17, 0.590831
2247.14, 0.589860
2248.12, 0.589604
2249.09, 0.589808
2250.07, 0.589860
2251.04, 0.589860
2252.02, 0.589962
2253.0, 0.590320
2253.98, 0.591087
2254.96, 0.591240
2255.94, 0.591240
2256.92, 0.591701
2257.91, 0.591701
2258.89, 0.591291
2259.88, 0.590576
2260.86, 0.589348
2261.85, 0.588274
2262.83, 0.587098
2263.82, 0.585768
2264.81, 0.584285
2265.8, 0.582597
2266.79, 0.580910
2267.78, 0.579222
2268.78, 0.577177
2269.77, 0.574722
2270.76, 0.571551
2271.76, 0.568380
2272.75, 0.565261
2273.75, 0.561885
2274.75, 0.558050
2275.75, 0.554061
2276.75, 0.549254
2277.75, 0.544140
2278.75, 0.539332
2279.75, 0.533349
2280.75, 0.525933
2281.76, 0.517700
2282.76, 0.508341
2283.77, 0.497499
2284.77, 0.484458
2285.78, 0.470087
2286.79, 0.455717
2287.8, 0.442216
2288.81, 0.431374
2289.82, 0.426055
2290.83, 0.428714
2291.84, 0.438227
2292.86, 0.450500
2293.87, 0.462365
2294.89, 0.471059
2295.91, 0.475969
2296.92, 0.477861
2297.94, 0.477810
2298.96, 0.476071
2299.98, 0.472696
2301.0, 0.466866
2302.02, 0.458990
2303.04, 0.449733
2304.07, 0.439147
2305.09, 0.426822
2306.12, 0.413526
2307.15, 0.400229
2308.17, 0.388057
2309.2, 0.377062
2310.23, 0.367550
2311.26, 0.360083
2312.29, 0.355685
2313.32, 0.355992
2314.35, 0.363356
2315.39, 0.378750
2316.42, 0.399871
2317.46, 0.420481
2318.5, 0.436744
2319.53, 0.447381
2320.57, 0.453773
2321.61, 0.457763
2322.65, 0.460422
2323.69, 0.464257
2324.73, 0.470292
2325.78, 0.479242
2326.82, 0.490390
2327.86, 0.502613
2328.91, 0.513660
2329.96, 0.522763
2331.01, 0.529718
2332.05, 0.534985
2333.1, 0.539179
2334.15, 0.542810
2335.21, 0.545827
2336.26, 0.548691
2337.31, 0.551044
2338.36, 0.552833
2339.42, 0.554470
2340.48, 0.555595
2341.53, 0.556158
2342.59, 0.556413
2343.65, 0.556925
2344.71, 0.557232
2345.77, 0.556720
2346.83, 0.556004
2347.9, 0.555595
2348.96, 0.554828
2350.02, 0.553703
2351.09, 0.552476
2352.16, 0.550992
2353.23, 0.549612
2354.29, 0.548947
2355.36, 0.548742
2356.43, 0.548845
2357.51, 0.549458
2358.58, 0.550992
2359.65, 0.552629
2360.73, 0.553498
2361.8, 0.553601
2362.88, 0.553294
2363.96, 0.552169
2365.03, 0.550276
2366.11, 0.547924
2367.19, 0.544855
2368.27, 0.541634
2369.36, 0.538667
2370.44, 0.535241
2371.53, 0.531508
2372.61, 0.527365
2373.7, 0.523530
2374.78, 0.520410
2375.87, 0.517904
2376.96, 0.516012
2378.05, 0.513302
2379.14, 0.509466
2380.24, 0.505682
2381.33, 0.502460
2382.42, 0.499340
2383.52, 0.496476
2384.61, 0.494686
2385.71, 0.493715
2386.81, 0.492999
2387.91, 0.490953
2389.01, 0.486657
2390.11, 0.481645
2391.22, 0.478884
2392.32, 0.481185
2393.42, 0.486913
2394.53, 0.491669
2395.64, 0.494993
2396.74, 0.499954
2397.85, 0.508187
2398.96, 0.519234
2400.07, 0.530741
2401.18, 0.541327
2402.3, 0.549407
2403.41, 0.555237
2404.52, 0.560607
2405.64, 0.565158
2406.76, 0.568636
2407.88, 0.571244
2408.99, 0.573136
2410.11, 0.573852
2411.23, 0.573392
2412.36, 0.572472
2413.48, 0.571909
2414.6, 0.571602
2415.73, 0.571244
2416.85, 0.570324
2417.98, 0.568994
2419.11, 0.567358
2420.24, 0.565312
2421.37, 0.562499
2422.5, 0.558408
2423.64, 0.552885
2424.77, 0.547055
2425.9, 0.543424
2427.04, 0.543526
2428.18, 0.546492
2429.31, 0.550686
2430.45, 0.553805
2431.59, 0.554061
2432.73, 0.551657
2433.88, 0.548538
2435.02, 0.546748
2436.16, 0.546697
2437.31, 0.547259
2438.45, 0.547208
2439.6, 0.546441
2440.75, 0.546032
2441.9, 0.546441
2443.05, 0.547259
2444.2, 0.546901
2445.35, 0.545674
2446.51, 0.544140
2447.67, 0.542759
2448.82, 0.541838
2449.98, 0.541225
2451.14, 0.540457
2452.3, 0.538872
2453.46, 0.536315
2454.62, 0.532991
2455.78, 0.530434
2456.94, 0.528848
2458.11, 0.527161
2459.28, 0.524553
2460.44, 0.520052
2461.61, 0.514785
2462.78, 0.511461
2463.95, 0.510233
2465.12, 0.509364
2466.3, 0.509057
2467.47, 0.509364
2468.65, 0.511102
2469.82, 0.514734
2471.0, 0.519592
2472.18, 0.524246
2473.36, 0.528644
2474.54, 0.532889
2475.72, 0.536929
2476.9, 0.540509
2478.08, 0.543679
2479.27, 0.546645
2480.46, 0.548691
2481.64, 0.549100
2482.83, 0.548538
2484.02, 0.547873
2485.21, 0.547310
2486.4, 0.547106
2487.6, 0.546850
2488.79, 0.546134
2489.99, 0.544753
2491.18, 0.542963
2492.38, 0.540815
2493.58, 0.538361
2494.78, 0.536162
2495.98, 0.534781
2497.18, 0.534678
2498.39, 0.534678
2499.59, 0.534474
2500.8, 0.535088
2502.01, 0.537338
2503.21, 0.540304
2504.42, 0.543424
2505.63, 0.545111
2506.84, 0.545214
2508.06, 0.544855
2509.27, 0.544344
2510.49, 0.542656
2511.7, 0.539690
2512.92, 0.536673
2514.14, 0.534423
2515.36, 0.533093
2516.58, 0.533195
2517.8, 0.533758
2519.03, 0.534678
2520.25, 0.535548
2521.48, 0.536520
2522.7, 0.537287
2523.93, 0.537900
2525.16, 0.538105
2526.39, 0.536980
2527.62, 0.535088
2528.86, 0.533758
2530.09, 0.533605
2531.33, 0.534372
2532.56, 0.535548
2533.8, 0.536980
2535.04, 0.537542
2536.28, 0.537696
2537.52, 0.538463
2538.76, 0.539179
2540.01, 0.539690
2541.25, 0.540099
2542.5, 0.540509
2543.75, 0.542554
2544.99, 0.544958
2546.24, 0.545520
2547.49, 0.544344
2548.75, 0.543730
2550.0, 0.541940
2551.26, 0.539383
2552.51, 0.536520
2553.77, 0.535752
2555.03, 0.535650
2556.29, 0.535548
2557.55, 0.535752
2558.81, 0.535241
2560.08, 0.532786
2561.34, 0.531252
2562.61, 0.531712
2563.88, 0.531712
2565.14, 0.532786
2566.41, 0.534065
2567.68, 0.532479
2568.96, 0.529155
2570.23, 0.530178
2571.51, 0.533093
2572.78, 0.531099
2574.06, 0.531303
2575.34, 0.529104
2576.62, 0.525422
2577.9, 0.527621
2579.18, 0.530689
2580.47, 0.530587
2581.75, 0.531405
2583.04, 0.529104
2584.32, 0.530689
2585.61, 0.534423
2586.9, 0.534627
2588.2, 0.536622
2589.49, 0.539588
2590.78, 0.542145
2592.08, 0.541531
2593.37, 0.533144
2594.67, 0.526700
2595.97, 0.534474
2597.27, 0.541787
2598.57, 0.545162
2599.88, 0.545674
2601.18, 0.544497
2602.49, 0.543270
2603.79, 0.540713
2605.1, 0.539128
2606.41, 0.544344
2607.72, 0.549918
2609.03, 0.552424
2610.35, 0.554828
2611.66, 0.556362
2612.98, 0.556055
2614.3, 0.556055
2615.62, 0.550839
2616.94, 0.548487
2618.26, 0.552015
2619.58, 0.549612
2620.91, 0.551606
2622.23, 0.557334
2623.56, 0.559124
2624.89, 0.557538
2626.22, 0.554163
2627.55, 0.556925
2628.88, 0.555646
2630.21, 0.552066
2631.55, 0.556822
2632.89, 0.558561
2634.22, 0.558919
2635.56, 0.561323
2636.9, 0.562090
2638.25, 0.561783
2639.59, 0.560914
2640.93, 0.559635
2642.28, 0.559022
2643.63, 0.558715
2644.98, 0.557027
2646.33, 0.557436
2647.68, 0.558970
2649.03, 0.559686
2650.39, 0.558868
2651.74, 0.556567
2653.1, 0.557232
2654.46, 0.558152
2655.82, 0.558357
2657.18, 0.559942
2658.54, 0.558152
2659.9, 0.557436
2661.27, 0.558152
2662.64, 0.557641
2664.01, 0.551350
2665.38, 0.546287
2666.74, 0.546952
2668.12, 0.549765
2669.49, 0.542759
2670.87, 0.542247
2672.24, 0.549663
2673.62, 0.549049
2675.0, 0.543424
2676.38, 0.537542
2677.76, 0.535855
2679.15, 0.534372
2680.54, 0.535855
2681.92, 0.533298
2683.31, 0.528695
2684.7, 0.524808
2686.09, 0.520564
2687.48, 0.516575
2688.88, 0.512739
2690.27, 0.508903
2691.67, 0.503687
2693.07, 0.495863
2694.47, 0.491669
2695.87, 0.490186
2697.27, 0.488498
2698.67, 0.484049
2700.08, 0.476224
2701.49, 0.466508
2702.9, 0.455461
2704.31, 0.436948
2705.72, 0.411122
2707.13, 0.380744
2708.54, 0.350162
2709.96, 0.320705
2711.38, 0.294367
2712.8, 0.270075
2714.22, 0.242408
2715.64, 0.207990
2717.06, 0.162066
2718.49, 0.108572
2719.91, 0.0785010
2721.34, 0.0887810
2722.77, 0.116294
2724.2, 0.152809
2725.63, 0.189273
2727.07, 0.214383
2728.5, 0.223230
2729.94, 0.207734
2731.38, 0.178533
2732.82, 0.181039
2734.26, 0.215508
2735.7, 0.247676
2737.15, 0.253454
2738.59, 0.250642
2740.04, 0.259540
2741.49, 0.269410
2742.94, 0.273706
2744.39, 0.273911
2745.84, 0.276161
2747.3, 0.280303
2748.76, 0.282298
2750.21, 0.283525
2751.67, 0.284650
2753.14, 0.285008
2754.6, 0.282554
2756.06, 0.283781
2757.53, 0.286031
2759.0, 0.285264
2760.46, 0.282042
2761.94, 0.276775
2763.41, 0.272172
2764.88, 0.267876
2766.36, 0.261484
2767.83, 0.254068
2769.31, 0.244812
2770.79, 0.233816
2772.27, 0.226503
2773.76, 0.222616
2775.24, 0.219139
2776.73, 0.215457
2778.22, 0.211365
2779.71, 0.206763
2781.2, 0.202211
2782.69, 0.198683
2784.18, 0.195410
2785.68, 0.191779
2787.18, 0.188812
2788.68, 0.187483
2790.18, 0.186358
2791.68, 0.185130
2793.19, 0.184056
2794.69, 0.183136
2796.2, 0.182420
2797.71, 0.181908
2799.22, 0.181550
2800.73, 0.180885
2802.24, 0.179760
2803.76, 0.179760
2805.28, 0.180885
2806.8, 0.181499
2808.32, 0.181908
2809.84, 0.182420
2811.36, 0.183033
2812.89, 0.183698
2814.42, 0.184414
2815.94, 0.185437
2817.48, 0.186204
2819.01, 0.186971
2820.54, 0.188250
2822.08, 0.189835
2823.61, 0.191063
2825.15, 0.192085
2826.69, 0.193108
2828.23, 0.194540
2829.78, 0.196023
2831.32, 0.197097
2832.87, 0.198069
2834.42, 0.199296
2835.97, 0.200524
2837.52, 0.201649
2839.08, 0.202927
2840.63, 0.204103
2842.19, 0.205126
2843.75, 0.206047
2845.31, 0.206916
2846.87, 0.207428
2848.44, 0.207888
2850.0, 0.208706
2851.57, 0.209627
2853.14, 0.210496
2854.71, 0.211314
2856.28, 0.212133
2857.86, 0.212900
2859.43, 0.213360
2861.01, 0.213974
2862.59, 0.214485
2864.17, 0.214690
2865.76, 0.214843
2867.34, 0.214843
2868.93, 0.214792
2870.52, 0.214639
2872.11, 0.214485
2873.7, 0.214127
2875.29, 0.213718
2876.89, 0.213002
2878.49, 0.212133
2880.08, 0.211008
2881.69, 0.209729
2883.29, 0.208655
2884.89, 0.207581
2886.5, 0.206354
2888.11, 0.204922
2889.72, 0.203387
2891.33, 0.201802
2892.94, 0.200370
2894.56, 0.199143
2896.17, 0.197813
2897.79, 0.196535
2899.42, 0.195307
2901.04, 0.194233
2902.66, 0.193364
2904.29, 0.192341
2905.92, 0.191369
2907.55, 0.190449
2909.18, 0.189733
2910.81, 0.189273
2912.45, 0.188659
2914.08, 0.187994
2915.72, 0.187687
2917.36, 0.187534
2919.01, 0.187329
2920.65, 0.187074
2922.3, 0.186818
2923.94, 0.186920
2925.59, 0.187176
2927.25, 0.187432
2928.9, 0.187636
2930.56, 0.188045
2932.21, 0.188454
2933.87, 0.188863
2935.53, 0.189579
2937.2, 0.190295
2938.86, 0.190909
2940.53, 0.191727
2942.2, 0.192494
2943.87, 0.193313
2945.54, 0.194029
2947.22, 0.194796
2948.89, 0.195819
2950.57, 0.196893
2952.25, 0.197762
2953.93, 0.198529
2955.62, 0.199347
2957.3, 0.200421
2958.99, 0.201495
2960.68, 0.202365
2962.37, 0.203285
2964.07, 0.204257
2965.76, 0.205280
2967.46, 0.206098
2969.16, 0.207018
2970.86, 0.208092
2972.56, 0.209269
2974.27, 0.210496
2975.98, 0.211519
2977.69, 0.212491
2979.4, 0.213565
2981.11, 0.214690
2982.83, 0.215764
2984.54, 0.216786
2986.26, 0.218065
2987.98, 0.219292
2989.71, 0.220520
2991.43, 0.221798
2993.16, 0.223230
2994.89, 0.224560
2996.62, 0.225838
2998.35, 0.227168
3000.09, 0.228702
3001.83, 0.230390
3003.57, 0.231873
3005.31, 0.233203
3007.05, 0.234890
3008.79, 0.236527
3010.54, 0.238010
3012.29, 0.239698
3014.04, 0.241181
3015.8, 0.242664
3017.55, 0.244096
3019.31, 0.245630
3021.07, 0.247266
3022.83, 0.248698
3024.59, 0.250130
3026.36, 0.251665
3028.13, 0.253148
3029.9, 0.254426
3031.67, 0.255756
3033.44, 0.257341
3035.22, 0.258927
3037.0, 0.260665
3038.78, 0.262353
3040.56, 0.264041
3042.34, 0.265728
3044.13, 0.267672
3045.92, 0.269513
3047.71, 0.271149
3049.5, 0.272683
3051.3, 0.274473
3053.09, 0.276468
3054.89, 0.278360
3056.69, 0.280099
3058.5, 0.281889
3060.3, 0.283679
3062.11, 0.285622
3063.92, 0.287565
3065.73, 0.289765
3067.55, 0.291964
3069.36, 0.293958
3071.18, 0.295850
3073.0, 0.297640
3074.82, 0.299532
3076.65, 0.301783
3078.48, 0.303982
3080.31, 0.305976
3082.14, 0.308073
3083.97, 0.310374
3085.8, 0.312727
3087.64, 0.315079
3089.48, 0.317125
3091.33, 0.318915
3093.17, 0.320909
3095.02, 0.322904
3096.87, 0.324745
3098.72, 0.326842
3100.57, 0.329194
3102.43, 0.331598
3104.28, 0.333899
3106.14, 0.336047
3108.01, 0.338144
3109.87, 0.340138
3111.74, 0.342184
3113.61, 0.344281
3115.48, 0.346173
3117.35, 0.348065
3119.23, 0.350060
3121.1, 0.351952
3122.98, 0.353691
3124.87, 0.355327
3126.75, 0.357066
3128.64, 0.358754
3130.53, 0.360339
3132.42, 0.361771
3134.31, 0.363049
3136.21, 0.364277
3138.11, 0.365402
3140.01, 0.366220
3141.91, 0.366783
3143.82, 0.367141
3145.73, 0.367550
3147.64, 0.368573
3149.55, 0.370056
3151.46, 0.371385
3153.38, 0.372101
3155.3, 0.372511
3157.22, 0.373431
3159.14, 0.375119
3161.07, 0.377267
3163.0, 0.379210
3164.93, 0.380795
3166.86, 0.382125
3168.8, 0.383455
3170.74, 0.385091
3172.68, 0.386932
3174.62, 0.388722
3176.56, 0.390512
3178.51, 0.392251
3180.46, 0.394092
3182.42, 0.395780
3184.37, 0.397263
3186.33, 0.398797
3188.29, 0.400382
3190.25, 0.402070
3192.21, 0.403758
3194.18, 0.405650
3196.15, 0.407338
3198.12, 0.408974
3200.09, 0.410559
3202.07, 0.412145
3204.05, 0.413730
3206.03, 0.415264
3208.02, 0.416799
3210.0, 0.418333
3211.99, 0.419765
3213.98, 0.420992
3215.98, 0.422117
3217.97, 0.423038
3219.97, 0.424214
3221.97, 0.425390
3223.98, 0.426567
3225.98, 0.427692
3227.99, 0.428868
3230.0, 0.430249
3232.02, 0.431425
3234.03, 0.432601
3236.05, 0.433624
3238.07, 0.434698
3240.1, 0.435874
3242.12, 0.436846
3244.15, 0.437613
3246.18, 0.438431
3248.22, 0.439249
3250.25, 0.439965
3252.29, 0.440477
3254.33, 0.441244
3256.38, 0.441909
3258.43, 0.442318
3260.47, 0.442676
3262.53, 0.442983
3264.58, 0.443392
3266.64, 0.443648
3268.7, 0.443545
3270.76, 0.443238
3272.82, 0.442676
3274.89, 0.441858
3276.96, 0.440477
3279.04, 0.439198
3281.11, 0.438380
3283.19, 0.437920
3285.27, 0.437766
3287.35, 0.437766
3289.44, 0.437511
3291.53, 0.436590
3293.62, 0.434698
3295.71, 0.431578
3297.81, 0.427027
3299.91, 0.421197
3302.01, 0.414804
3304.11, 0.408514
3306.22, 0.403349
3308.33, 0.399615
3310.44, 0.397570
3312.56, 0.397160
3314.68, 0.398132
3316.8, 0.400280
3318.92, 0.403451
3321.05, 0.407440
3323.18, 0.412247
3325.31, 0.417310
3327.44, 0.422475
3329.58, 0.427385
3331.72, 0.431169
3333.86, 0.433471
3336.01, 0.434545
3338.16, 0.434596
3340.31, 0.434135
3342.46, 0.432806
3344.61, 0.430607
3346.77, 0.427283
3348.94, 0.422936
3351.1, 0.418128
3353.27, 0.414037
3355.44, 0.411940
3357.61, 0.412247
3359.79, 0.414906
3361.97, 0.419202
3364.15, 0.423856
3366.33, 0.428203
3368.52, 0.431732
3370.71, 0.434545
3372.9, 0.437204
3375.1, 0.439403
3377.3, 0.441193
3379.5, 0.442676
3381.71, 0.444057
3383.91, 0.445591
3386.12, 0.447125
3388.34, 0.448455
3390.55, 0.449631
3392.77, 0.450756
3394.99, 0.451728
3397.22, 0.452444
3399.45, 0.452904
3401.68, 0.453058
3403.91, 0.453006
3406.15, 0.452955
3408.39, 0.453006
3410.63, 0.453058
3412.87, 0.453211
3415.12, 0.453722
3417.37, 0.454489
3419.63, 0.455308
3421.88, 0.456484
3424.14, 0.458018
3426.41, 0.459552
3428.67, 0.461087
3430.94, 0.462416
3433.21, 0.463439
3435.49, 0.464155
3437.77, 0.464769
3440.05, 0.465383
3442.33, 0.466047
3444.62, 0.466661
3446.91, 0.467428
3449.2, 0.468298
3451.5, 0.469014
3453.8, 0.469729
3456.1, 0.470445
3458.41, 0.471264
3460.72, 0.472235
3463.03, 0.472900
3465.34, 0.473207
3467.66, 0.473412
3469.98, 0.473463
3472.31, 0.473616
3474.63, 0.473770
3476.96, 0.473718
3479.3, 0.473667
3481.64, 0.473923
3483.97, 0.474230
3486.32, 0.474741
3488.66, 0.475253
3491.01, 0.475815
3493.36, 0.476582
3495.72, 0.477554
3498.08, 0.478730
3500.44, 0.479907
3502.81, 0.481287
3505.18, 0.482873
3507.55, 0.484765
3509.92, 0.486862
3512.3, 0.489010
3514.68, 0.490902
3517.06, 0.492590
3519.45, 0.494277
3521.84, 0.495811
3524.24, 0.497039
3526.64, 0.498062
3529.04, 0.499136
3531.44, 0.500210
3533.85, 0.501028
3536.26, 0.501693
3538.67, 0.502255
3541.09, 0.502971
3543.51, 0.503534
3545.93, 0.503840
3548.36, 0.504403
3550.79, 0.505068
3553.22, 0.505784
3555.66, 0.506602
3558.1, 0.507318
3560.54, 0.507881
3562.99, 0.508545
3565.44, 0.509261
3567.9, 0.509875
3570.35, 0.510284
3572.81, 0.510949
3575.28, 0.511614
3577.75, 0.512023
3580.22, 0.512534
3582.69, 0.513097
3585.17, 0.513660
3587.65, 0.514069
3590.14, 0.514376
3592.62, 0.514836
3595.11, 0.515245
3597.61, 0.515501
3600.11, 0.515859
3602.61, 0.516319
3605.11, 0.516677
3607.62, 0.516933
3610.14, 0.517188
3612.65, 0.517495
3615.17, 0.517802
3617.69, 0.518109
3620.22, 0.518313
3622.75, 0.518518
3625.28, 0.518774
3627.82, 0.518825
3630.36, 0.519029
3632.9, 0.519387
3635.45, 0.519694
3638.0, 0.520052
3640.56, 0.520308
3643.12, 0.520512
3645.68, 0.520717
3648.24, 0.520973
3650.81, 0.521331
3653.39, 0.521586
3655.96, 0.521893
3658.54, 0.522200
3661.13, 0.522405
3663.71, 0.522609
3666.3, 0.522814
3668.9, 0.523018
3671.5, 0.523274
3674.1, 0.523581
3676.7, 0.523837
3679.31, 0.524041
3681.93, 0.524143
3684.54, 0.523530
3687.17, 0.518876
3689.79, 0.515603
3692.42, 0.520359
3695.05, 0.524553
3697.69, 0.525729
3700.32, 0.525933
3702.97, 0.525985
3705.61, 0.526291
3708.27, 0.526649
3710.92, 0.526803
3713.58, 0.526905
3716.24, 0.526956
3718.91, 0.527110
3721.58, 0.527161
3724.25, 0.527314
3726.93, 0.527468
3729.61, 0.527672
3732.29, 0.527570
3734.98, 0.527570
3737.67, 0.527468
3740.37, 0.527416
3743.07, 0.527314
3745.78, 0.527110
3748.49, 0.526649
3751.2, 0.526240
3753.91, 0.525729
3756.63, 0.525217
3759.36, 0.524757
3762.09, 0.524246
3764.82, 0.523734
3767.55, 0.523325
3770.29, 0.522763
3773.04, 0.522251
3775.78, 0.521484
3778.54, 0.520819
3781.29, 0.520206
3784.05, 0.519541
3786.82, 0.518825
3789.59, 0.518109
3792.36, 0.517495
3795.13, 0.516881
3797.92, 0.516217
3800.7, 0.515654
3803.49, 0.515296
3806.28, 0.515194
3809.08, 0.515143
3811.88, 0.515347
3814.68, 0.515859
3817.49, 0.516370
3820.31, 0.516933
3823.12, 0.517597
3825.94, 0.518109
3828.77, 0.518569
3831.6, 0.518927
3834.43, 0.519132
3837.27, 0.519336
3840.11, 0.519490
3842.96, 0.519438
3845.81, 0.519183
3848.67, 0.518518
3851.53, 0.517649
3854.39, 0.516779
3857.26, 0.515961
3860.13, 0.515245
3863.01, 0.514785
3865.89, 0.514376
3868.77, 0.514018
3871.66, 0.513660
3874.55, 0.513302
3877.45, 0.512995
3880.35, 0.512790
3883.26, 0.512483
3886.17, 0.512279
3889.09, 0.512125
3892.01, 0.511921
3894.93, 0.511563
3897.86, 0.511102
3900.79, 0.510438
3903.73, 0.509670
3906.67, 0.508852
3909.62, 0.508239
3912.57, 0.507829
3915.52, 0.507369
3918.48, 0.506858
3921.45, 0.506551
3924.42, 0.506295
3927.39, 0.506091
3930.37, 0.505835
3933.35, 0.505579
3936.34, 0.505426
3939.33, 0.505221
3942.32, 0.504914
3945.32, 0.504863
3948.33, 0.504812
3951.34, 0.504710
3954.35, 0.504659
3957.37, 0.504608
3960.39, 0.504505
3963.42, 0.504608
3966.45, 0.504710
3969.49, 0.504914
3972.53, 0.505375
3975.58, 0.506142
3978.63, 0.507062
3981.68, 0.508136
3984.75, 0.509057
3987.81, 0.509875
3990.88, 0.510693
3993.95, 0.511358
3997.03, 0.511921
4000.12, 0.512381
4003.21, 0.512841
4006.3, 0.513404
4009.4, 0.513762
4012.5, 0.514069
4015.61, 0.514324
4018.72, 0.514478
4021.84, 0.514631
4024.96, 0.514836
4028.09, 0.514938
4031.22, 0.514989
4034.36, 0.514989
4037.5, 0.514989
4040.65, 0.515040
4043.8, 0.515091
4046.96, 0.514989
4050.12, 0.515143
4053.29, 0.515194
4056.46, 0.515245
4059.64, 0.515143
4062.82, 0.515091
4066.0, 0.515091
4069.19, 0.515091
4072.39, 0.515194
4075.59, 0.515194
4078.8, 0.515245
4082.01, 0.515296
4085.23, 0.515245
4088.45, 0.515245
4091.68, 0.515245
4094.91, 0.515194
4098.15, 0.515143
4101.39, 0.515194
4104.63, 0.515143
4107.89, 0.515040
4111.14, 0.514836
4114.41, 0.514785
4117.67, 0.514734
4120.95, 0.514529
4124.23, 0.514324
4127.51, 0.514222
4130.8, 0.514120
4134.09, 0.513813
4137.39, 0.513506
4140.7, 0.513455
4144.01, 0.513250
4147.32, 0.512995
4150.64, 0.512688
4153.97, 0.512534
4157.3, 0.512279
4160.64, 0.512074
4163.98, 0.511921
4167.33, 0.511767
4170.68, 0.511665
4174.04, 0.511409
4177.4, 0.511154
4180.77, 0.510898
4184.14, 0.510847
4187.52, 0.510591
4190.91, 0.510131
4194.3, 0.509670
4197.69, 0.508903
4201.1, 0.507881
4204.5, 0.506346
4207.92, 0.504454
4211.34, 0.502409
4214.76, 0.500414
4218.19, 0.498420
4221.62, 0.496527
4225.06, 0.495044
4228.51, 0.493919
4231.96, 0.493152
4235.42, 0.492845
4238.88, 0.492947
4242.35, 0.493459
4245.83, 0.494482
4249.31, 0.496374
4252.79, 0.498778
4256.28, 0.500107
4259.78, 0.498266
4263.29, 0.495351
4266.79, 0.493459
4270.31, 0.492334
4273.83, 0.491720
4277.35, 0.491464
4280.89, 0.491413
4284.42, 0.491209
4287.97, 0.491055
4291.52, 0.491209
4295.07, 0.491516
4298.63, 0.491822
4302.2, 0.492129
4305.78, 0.492590
4309.35, 0.492845
4312.94, 0.493305
4316.53, 0.493868
4320.13, 0.494328
4323.73, 0.494533
4327.34, 0.494789
4330.96, 0.494993
4334.58, 0.495095
4338.21, 0.495044
4341.84, 0.494942
4345.48, 0.494891
4349.12, 0.494737
4352.77, 0.494482
4356.43, 0.494226
4360.1, 0.493868
4363.76, 0.493408
4367.44, 0.492896
4371.12, 0.492232
4374.81, 0.491567
4378.51, 0.490902
4382.21, 0.489930
4385.92, 0.488907
4389.63, 0.487833
4393.35, 0.486708
4397.08, 0.485583
4400.81, 0.484458
4404.55, 0.483333
4408.29, 0.482259
4412.04, 0.481134
4415.8, 0.479855
4419.57, 0.478526
4423.34, 0.477094
4427.12, 0.475406
4430.9, 0.473770
4434.69, 0.472184
4438.49, 0.470701
4442.29, 0.469218
4446.1, 0.467888
4449.92, 0.466866
4453.74, 0.466047
4457.57, 0.465331
4461.41, 0.464871
4465.25, 0.464360
4469.1, 0.463899
4472.95, 0.463490
4476.82, 0.463081
4480.69, 0.462570
4484.56, 0.462161
4488.44, 0.461547
4492.33, 0.460984
4496.23, 0.460524
4500.13, 0.460115
4504.04, 0.459655
4507.96, 0.459348
4511.88, 0.458990
4515.81, 0.458581
4519.75, 0.458121
4523.69, 0.457609
4527.65, 0.456893
4531.6, 0.456228
4535.57, 0.455410
4539.54, 0.454489
4543.52, 0.453364
4547.5, 0.452239
4551.5, 0.450910
4555.5, 0.449427
4559.5, 0.447790
4563.52, 0.446102
4567.54, 0.444261
4571.56, 0.442471
4575.6, 0.440630
4579.64, 0.438534
4583.69, 0.436232
4587.75, 0.433829
4591.81, 0.431220
4595.88, 0.428612
4599.96, 0.425851
4604.04, 0.423038
4608.14, 0.420072
4612.24, 0.417003
4616.34, 0.413935
4620.46, 0.410866
4624.58, 0.407849
4628.71, 0.404832
4632.84, 0.401968
4636.99, 0.399360
4641.14, 0.397109
4645.3, 0.395217
4649.47, 0.393836
4653.64, 0.392967
4657.82, 0.392098
4662.01, 0.391330
4666.21, 0.390461
4670.41, 0.389489
4674.62, 0.388211
4678.84, 0.386779
4683.07, 0.385245
4687.3, 0.383608
4691.54, 0.382023
4695.79, 0.380591
4700.05, 0.379363
4704.31, 0.378289
4708.59, 0.377625
4712.87, 0.377164
4717.15, 0.377011
4721.45, 0.376909
4725.76, 0.376909
4730.07, 0.376858
4734.39, 0.376551
4738.72, 0.376039
4743.05, 0.375272
4747.39, 0.374045
4751.75, 0.372459
4756.1, 0.370465
4760.47, 0.368112
4764.85, 0.365607
4769.23, 0.362947
4773.62, 0.360595
4778.02, 0.358549
4782.43, 0.356913
4786.85, 0.355532
4791.27, 0.354253
4795.7, 0.352821
4800.14, 0.351287
4804.59, 0.349753
4809.05, 0.348372
4813.51, 0.347042
4817.99, 0.345815
4822.47, 0.344588
4826.96, 0.343360
4831.46, 0.342235
4835.96, 0.341059
4840.48, 0.339985
4845.0, 0.339013
4849.54, 0.337939
4854.08, 0.336712
4858.63, 0.335178
4863.18, 0.333337
4867.75, 0.331240
4872.33, 0.329092
4876.91, 0.326842
4881.5, 0.324540
4886.1, 0.322188
4890.71, 0.319580
4895.33, 0.316818
4899.96, 0.314056
4904.59, 0.311295
4909.24, 0.308329
4913.89, 0.305414
4918.55, 0.302550
4923.22, 0.299686
4927.9, 0.296924
4932.59, 0.294674
4937.29, 0.293293
4942.0, 0.292833
4946.71, 0.293191
4951.44, 0.293856
4956.17, 0.294572
4960.91, 0.295339
4965.67, 0.295799
4970.43, 0.295901
4975.2, 0.295850
4979.98, 0.295748
4984.76, 0.295748
4989.56, 0.295697
4994.37, 0.295543
4999.18, 0.295339
5004.01, 0.295134
5008.84, 0.294827
5013.69, 0.294367
5018.54, 0.293805
5023.4, 0.293651
5028.28, 0.293344
5033.16, 0.292526
5038.05, 0.291196
5042.95, 0.289407
5047.86, 0.286952
5052.78, 0.283832
5057.71, 0.280048
5062.65, 0.275701
5067.6, 0.270842
5072.56, 0.265319
5077.53, 0.259182
5082.5, 0.252585
5087.49, 0.245937
5092.49, 0.239135
5097.5, 0.232487
5102.51, 0.226401
5107.54, 0.221133
5112.58, 0.216684
5117.62, 0.213104
5122.68, 0.210036
5127.75, 0.207479
5132.82, 0.205484
5137.91, 0.203950
5143.01, 0.202467
5148.12, 0.201137
5153.23, 0.200166
5158.36, 0.198785
5163.5, 0.196841
5168.65, 0.194387
5173.81, 0.191523
5178.98, 0.188454
5184.15, 0.185232
5189.34, 0.182113
5194.54, 0.179044
5199.75, 0.176283
5204.98, 0.174442
5210.21, 0.173163
5215.45, 0.173163
5220.7, 0.174544
5225.96, 0.176078
5231.23, 0.177817
5236.52, 0.179658
5241.81, 0.181550
5247.12, 0.183238
5252.44, 0.184670
5257.76, 0.185846
5263.1, 0.187022
5268.45, 0.187841
5273.81, 0.188352
5279.18, 0.188710
5284.56, 0.188761
5289.95, 0.188199
5295.36, 0.187790
5300.77, 0.187227
5306.2, 0.185948
5311.63, 0.184107
5317.08, 0.181704
5322.54, 0.179044
5328.01, 0.176590
5333.49, 0.174288
5338.98, 0.172345
5344.49, 0.170146
5350.0, 0.168356
5355.53, 0.167793
5361.07, 0.167487
5366.62, 0.167129
5372.18, 0.166975
5377.75, 0.167026
5383.34, 0.167487
5388.93, 0.168151
5394.54, 0.168765
5400.16, 0.169276
5405.79, 0.169430
5411.44, 0.168765
5417.09, 0.166668
5422.76, 0.164009
5428.43, 0.162117
5434.12, 0.158997
5439.83, 0.155059
5445.54, 0.150815
5451.26, 0.146519
5457.0, 0.141916
5462.75, 0.137569
5468.52, 0.134756
5474.29, 0.132762
5480.08, 0.131125
5485.88, 0.130614
5491.69, 0.130409
5497.51, 0.130563
5503.35, 0.130972
5509.2, 0.131637
5515.06, 0.131995
5520.93, 0.132353
5526.82, 0.133069
5532.71, 0.134092
5538.63, 0.135114
5544.55, 0.136291
5550.49, 0.137467
5556.44, 0.139308
5562.4, 0.141609
5568.37, 0.143962
5574.36, 0.145547
5580.36, 0.147951
5586.37, 0.151479
5592.4, 0.154292
5598.44, 0.156082
5604.49, 0.157719
5610.56, 0.158946
5616.63, 0.159560
5622.73, 0.159969
5628.83, 0.159560
5634.95, 0.157872
5641.08, 0.155571
5647.23, 0.155008
5653.39, 0.154394
5659.56, 0.153730
5665.74, 0.153474
5671.94, 0.152656
5678.15, 0.153116
5684.38, 0.154599
5690.62, 0.155775
5696.87, 0.157719
5703.14, 0.158844
5709.42, 0.159202
5715.72, 0.160838
5722.03, 0.162526
5728.35, 0.163753
5734.69, 0.164316
5741.03, 0.164367
5747.4, 0.164009
5753.78, 0.164572
5760.17, 0.162730
5766.58, 0.160378
5773.0, 0.161452
5779.44, 0.161350
5785.88, 0.160276
5792.35, 0.158639
5798.83, 0.156133
5805.32, 0.153167
5811.83, 0.148922
5818.35, 0.143143
5824.89, 0.138848
5831.45, 0.136546
5838.01, 0.134552
5844.59, 0.133222
5851.19, 0.132506
5857.8, 0.132813
5864.43, 0.134450
5871.07, 0.136751
5877.73, 0.136904
5884.4, 0.139717
5891.09, 0.142018
5897.79, 0.142479
5904.5, 0.144064
5911.23, 0.143092
5917.98, 0.140280
5924.75, 0.136342
5931.53, 0.129949
5938.32, 0.123812
5945.13, 0.120693
5951.96, 0.116499
5958.8, 0.112357
5965.65, 0.108265
5972.53, 0.106424
5979.42, 0.106015
5986.32, 0.105657
5993.24, 0.106987
6000.18, 0.109390
6007.13, 0.110771
6014.1, 0.112203
6021.08, 0.114351
6028.09, 0.115834
6035.1, 0.116294
6042.14, 0.114300
6049.19, 0.112612
6056.25, 0.115272
6063.34, 0.116346
6070.44, 0.115885
6077.55, 0.117880
6084.69, 0.121511
6091.84, 0.125142
6099.0, 0.129233
6106.19, 0.132864
6113.39, 0.137007
6120.61, 0.143757
6127.84, 0.149434
6135.09, 0.153014
6142.36, 0.155724
6149.65, 0.158077
6156.95, 0.159355
6164.27, 0.161401
6171.61, 0.163549
6178.97, 0.163395
6186.34, 0.163804
6193.73, 0.166975
6201.14, 0.168919
6208.57, 0.169992
6216.01, 0.171169
6223.47, 0.172550
6230.95, 0.173777
6238.45, 0.174800
6245.97, 0.175567
6253.5, 0.176334
6261.06, 0.176692
6268.63, 0.176794
6276.21, 0.176641
6283.82, 0.176436
6291.45, 0.176129
6299.1, 0.176129
6306.76, 0.176129
6314.44, 0.176232
6322.14, 0.176232
6329.86, 0.176334
6337.6, 0.174800
6345.35, 0.174186
6353.13, 0.176743
6360.92, 0.177306
6368.74, 0.176129
6376.57, 0.176692
6384.43, 0.177152
6392.3, 0.176743
6400.19, 0.175362
6408.1, 0.170862
6416.03, 0.169174
6423.98, 0.172345
6431.95, 0.173572
6439.94, 0.174442
6447.95, 0.174544
6455.98, 0.174288
6464.03, 0.173419
6472.1, 0.171169
6480.19, 0.168663
6488.31, 0.165441
6496.44, 0.164725
6504.59, 0.166924
6512.76, 0.166668
6520.95, 0.165083
6529.16, 0.165543
6537.4, 0.165288
6545.65, 0.164214
6553.92, 0.163293
6562.22, 0.162628
6570.54, 0.161299
6578.88, 0.162782
6587.23, 0.164162
6595.61, 0.165288
6604.02, 0.166719
6612.44, 0.166975
6620.89, 0.166617
6629.35, 0.164418
6637.84, 0.163088
6646.35, 0.166055
6654.88, 0.167845
6663.44, 0.166924
6672.01, 0.165288
6680.61, 0.163856
6689.23, 0.163753
6697.88, 0.163037
6706.54, 0.160378
6715.23, 0.158383
6723.94, 0.157054
6732.67, 0.155673
6741.42, 0.153781
6750.2, 0.151633
6759.0, 0.149792
6767.82, 0.147286
6776.67, 0.144473
6785.54, 0.141354
6794.44, 0.139257
6803.35, 0.138285
6812.29, 0.136137
6821.26, 0.133069
6830.24, 0.130870
6839.25, 0.129693
6848.29, 0.127443
6857.35, 0.124272
6866.43, 0.123045
6875.54, 0.124170
6884.67, 0.123812
6893.82, 0.122789
6903.0, 0.121153
6912.2, 0.119670
6921.43, 0.117982
6930.69, 0.115988
6939.96, 0.113737
6949.27, 0.111129
6958.59, 0.108317
6967.95, 0.107396
6977.33, 0.106578
6986.73, 0.104941
6996.16, 0.103356
7005.61, 0.102128
7015.09, 0.100390
7024.6, 0.0987530
7034.13, 0.0968100
7043.69, 0.0944060
7053.27, 0.0931280
7062.88, 0.0923090
7072.52, 0.0909800
7082.18, 0.0895480
7091.87, 0.0882180
7101.58, 0.0870420
7111.32, 0.0855590
7121.09, 0.0842800
7130.88, 0.0831550
7140.71, 0.0818250
7150.56, 0.0804960
7160.43, 0.0793200
7170.33, 0.0779900
7180.27, 0.0773760
7190.23, 0.0768140
7200.21, 0.0760980
7210.23, 0.0756890
7220.27, 0.0756890
7230.34, 0.0753820
7240.44, 0.0750750
7250.56, 0.0746150
7260.72, 0.0740010
7270.9, 0.0730290
7281.12, 0.0721600
7291.36, 0.0712390
7301.63, 0.0701650
7311.93, 0.0688360
7322.25, 0.0676080
7332.61, 0.0662790
7343.0, 0.0650510
7353.41, 0.0639770
7363.86, 0.0628010
7374.33, 0.0615740
7384.83, 0.0606530
7395.37, 0.0597330
7405.93, 0.0588120
7416.53, 0.0579940
7427.15, 0.0574310
7437.81, 0.0568180
7448.5, 0.0560500
7459.22, 0.0549770
7469.96, 0.0539030
7480.74, 0.0528290
7491.55, 0.0517550
7502.39, 0.0506810
7513.27, 0.0495560
7524.17, 0.0481750
7535.11, 0.0467430
7546.08, 0.0451570
7557.08, 0.0436740
7568.11, 0.0422940
7579.17, 0.0410150
7590.27, 0.0398900
7601.4, 0.0388670
7612.56, 0.0378950
7623.76, 0.0370770
7634.98, 0.0362080
7646.24, 0.0354410
7657.54, 0.0345200
7668.87, 0.0338040
7680.23, 0.0331900
7691.62, 0.0327300
7703.05, 0.0320140
7714.51, 0.0314010
7726.01, 0.0310430
7737.54, 0.0307870
7749.11, 0.0304290
7760.71, 0.0301730
7772.35, 0.0299690
7784.02, 0.0297130
7795.72, 0.0293550
7807.46, 0.0289970
7819.23, 0.0284860
7831.04, 0.0280250
7842.89, 0.0277700
7854.77, 0.0274630
7866.69, 0.0269510
7878.65, 0.0264400
7890.64, 0.0258770
7902.67, 0.0252640
7914.74, 0.0247010
7926.84, 0.0241900
7938.98, 0.0237290
7951.16, 0.0232690
7963.37, 0.0227580
7975.62, 0.0225530
7987.91, 0.0224000
8000.24, 0.0222970
8012.6, 0.0221950
8025.01, 0.0221950
8037.45, 0.0221950
8049.93, 0.0225530
8062.45, 0.0227580
8075.01, 0.0228600
8087.61, 0.0230650
8100.24, 0.0236780
8112.91, 0.0242410
8125.63, 0.0249060
8138.39, 0.0256220
8151.18, 0.0265930
8164.02, 0.0276160
8176.9, 0.0286900
8189.81, 0.0298150
8202.77, 0.0311960
8215.77, 0.0325260
8228.82, 0.0340600
8241.9, 0.0357480
8255.02, 0.0377420
8268.19, 0.0397880
8281.39, 0.0419870
8294.65, 0.0445440
8307.94, 0.0473050
8321.28, 0.0503230
8334.66, 0.0535960
8348.08, 0.0572780
8361.54, 0.0613690
8375.05, 0.0656140
8388.6, 0.0700120
8402.2, 0.0746150
8415.84, 0.0791660
8429.52, 0.0837180
8443.25, 0.0886270
8457.02, 0.0936390
8470.84, 0.0988550
8484.7, 0.104583
8498.61, 0.110771
8512.57, 0.116959
8526.57, 0.122943
8540.62, 0.129029
8554.71, 0.135012
8568.85, 0.140689
8583.04, 0.146059
8597.27, 0.151479
8611.55, 0.157054
8625.88, 0.162372
8640.26, 0.167589
8654.68, 0.172601
8669.16, 0.177561
8683.68, 0.182420
8698.25, 0.187329
8712.87, 0.191932
8727.53, 0.195972
8742.25, 0.199501
8757.02, 0.202518
8771.83, 0.205126
8786.7, 0.207274
8801.62, 0.209269
8816.59, 0.211110
8831.61, 0.212849
8846.68, 0.214587
8861.8, 0.216173
8876.97, 0.217809
8892.2, 0.219497
8907.48, 0.221133
8922.81, 0.222872
8938.2, 0.224867
8953.63, 0.226657
8969.13, 0.228242
8984.67, 0.229572
9000.27, 0.230390
9015.92, 0.230646
9031.63, 0.230390
9047.39, 0.229674
9063.21, 0.228447
9079.08, 0.226605
9095.01, 0.224458
9111.0, 0.221952
9127.04, 0.218627
9143.13, 0.215610
9159.28, 0.214025
9175.49, 0.212746
9191.76, 0.211008
9208.09, 0.209115
9224.47, 0.206967
9240.92, 0.204768
9257.42, 0.202211
9273.98, 0.199450
9290.6, 0.196177
9307.28, 0.192546
9324.02, 0.188505
9340.82, 0.183954
9357.68, 0.179044
9374.6, 0.173572
9391.58, 0.168100
9408.62, 0.162577
9425.73, 0.157054
9442.9, 0.151889
9460.13, 0.147132
9477.42, 0.143553
9494.78, 0.142070
9512.2, 0.143041
9529.69, 0.145701
9547.24, 0.149280
9564.86, 0.153116
9582.54, 0.156389
9600.28, 0.158741
9618.1, 0.160122
9635.97, 0.160634
9653.92, 0.160480
9671.93, 0.159764
9690.01, 0.158128
9708.16, 0.155826
9726.37, 0.152860
9744.65, 0.149383
9763.0, 0.145291
9781.43, 0.140024
9799.92, 0.134245
9818.48, 0.128671
9837.1, 0.122841
9855.8, 0.116806
9874.58, 0.110618
9893.42, 0.104634
9912.34, 0.0992650
9931.33, 0.0948660
9950.39, 0.0912870
9969.52, 0.0885760
9988.74, 0.0865820
10008.0, 0.0849450
10027.4, 0.0835640
10046.8, 0.0824900
10066.3, 0.0818250
10085.9, 0.0813140
10105.6, 0.0807000
10125.3, 0.0801380
10145.1, 0.0795240
10165.0, 0.0789620
10185.0, 0.0786550
10205.0, 0.0784500
10225.2, 0.0781940
10245.4, 0.0780410
10265.7, 0.0778370
10286.0, 0.0776830
10306.5, 0.0774270
10327.0, 0.0773760
10347.6, 0.0775300
10368.3, 0.0775300
10389.1, 0.0772740
10409.9, 0.0772230
10430.9, 0.0771210
10451.9, 0.0768650
10473.0, 0.0770690
10494.2, 0.0775810
10515.5, 0.0778370
10536.9, 0.0781940
10558.4, 0.0785520
10579.9, 0.0792170
10601.5, 0.0800870
10623.3, 0.0812120
10645.1, 0.0823880
10667.0, 0.0832570
10689.0, 0.0840250
10711.1, 0.0848430
10733.2, 0.0852520
10755.5, 0.0857120
10777.9, 0.0860700
10800.3, 0.0863770
10822.9, 0.0865300
10845.5, 0.0864790
10868.2, 0.0863260
10891.1, 0.0863260
10914.0, 0.0860700
10937.0, 0.0857630
10960.2, 0.0856610
10983.4, 0.0855590
11006.7, 0.0853030
11030.1, 0.0851500
11053.6, 0.0849450
11077.3, 0.0850470
11101.0, 0.0850990
11124.8, 0.0853540
11148.7, 0.0855080
11172.7, 0.0857120
11196.9, 0.0856610
11221.1, 0.0856610
11245.4, 0.0855590
11269.9, 0.0853030
11294.4, 0.0848940
11319.1, 0.0845360
11343.9, 0.0840760
11368.8, 0.0838200
11393.7, 0.0836670
11418.8, 0.0835130
11444.0, 0.0834620
11469.4, 0.0835640
11494.8, 0.0833600
11520.3, 0.0834620
11546.0, 0.0835640
11571.8, 0.0834620
11597.7, 0.0833090
11623.7, 0.0834620
11649.8, 0.0835130
11676.0, 0.0835640
11702.4, 0.0832060
11728.9, 0.0828990
11755.5, 0.0827970
11782.2, 0.0826440
11809.0, 0.0819280
11836.0, 0.0809050
11863.0, 0.0796260
11890.3, 0.0781430
11917.6, 0.0764050
11945.0, 0.0745630
11972.6, 0.0725690
12000.4, 0.0710350
12028.2, 0.0698070
12056.2, 0.0684270
12084.3, 0.0673010
12112.5, 0.0663810
12140.9, 0.0652560
12169.4, 0.0642840
12198.0, 0.0634660
12226.8, 0.0625450
12255.7, 0.0613690
12284.7, 0.0602440
12313.9, 0.0592720
12343.2, 0.0584030
12372.7, 0.0568690
12402.3, 0.0554370
12432.0, 0.0540560
12461.9, 0.0528290
12491.9, 0.0517550
12522.1, 0.0507320
12552.4, 0.0496580
12582.9, 0.0483790
12613.5, 0.0468960
12644.3, 0.0453110
12675.2, 0.0440830
12706.3, 0.0432140
12737.5, 0.0422940
12768.9, 0.0413730
12800.4, 0.0409130
12832.1, 0.0415260
12863.9, 0.0423450
12895.9, 0.0423960
12928.1, 0.0420890
12960.4, 0.0420890
12992.9, 0.0419360
13025.5, 0.0411680
13058.3, 0.0405550
13091.3, 0.0402480
13124.4, 0.0394300
13157.8, 0.0388670
13191.2, 0.0384580
13224.9, 0.0380490
13258.7, 0.0370260
13292.7, 0.0359010
13326.9, 0.0348780
13361.2, 0.0342640
13395.7, 0.0332420
13430.4, 0.0319630
13465.3, 0.0305310
13500.4, 0.0293040
13535.7, 0.0280760
13571.1, 0.0266960
13606.7, 0.0255190
13642.5, 0.0246500
13678.5, 0.0234230
13714.7, 0.0224510
13751.1, 0.0211720
13787.6, 0.0200470
13824.4, 0.0190240
13861.4, 0.0180020
13898.5, 0.0169280
13935.9, 0.0159560
13973.5, 0.0145750
14011.2, 0.0137060
14049.2, 0.0131940
14087.4, 0.0126830
14125.8, 0.0123760
14164.3, 0.0125810
14203.2, 0.0129390
14242.2, 0.0139610
14281.4, 0.0158540
14320.9, 0.0190240
14360.5, 0.0233710
14400.4, 0.0289460
14440.5, 0.0358500
14480.9, 0.0436230
14521.4, 0.0501180
14562.2, 0.0544140
14603.3, 0.0555390
14644.5, 0.0537490
14686.0, 0.0510390
14727.7, 0.0508850
14769.7, 0.0543630
14811.9, 0.0595790
14854.3, 0.0628010
14897.0, 0.0629030
14939.9, 0.0592720
14983.1, 0.0538510
15026.5, 0.0495560
15070.2, 0.0463850
15114.2, 0.0444410
15158.3, 0.0432650
15202.8, 0.0419870
15247.5, 0.0410660
15292.5, 0.0402990
15337.7, 0.0396850
15383.2, 0.0387140
15429.0, 0.0377930
15475.1, 0.0369750
15521.4, 0.0364120
15568.0, 0.0355430
15614.9, 0.0346220
15662.1, 0.0339060
15709.6, 0.0329860
15757.3, 0.0314520
15805.4, 0.0300710
15853.7, 0.0287410
15902.3, 0.0278210
15951.2, 0.0264910
16000.5, 0.0251610
16050.0, 0.0239340
16099.8, 0.0229110
16150.0, 0.0218880
16200.5, 0.0203540
16251.3, 0.0191270
16302.4, 0.0183600
16353.8, 0.0172860
16405.5, 0.0160070
16457.6, 0.0149840
16510.0, 0.0148820
16562.8, 0.0146770
16615.9, 0.0141150
16669.3, 0.0143190
16723.1, 0.0153930
16777.2, 0.0163650
16831.7, 0.0173370
16886.5, 0.0193310
16941.7, 0.0225530
16997.2, 0.0264910
17053.1, 0.0314520
17109.4, 0.0374350
17166.1, 0.0445440
17223.1, 0.0523170
17280.5, 0.0616760
17338.3, 0.0721600
17396.5, 0.0838200
17455.1, 0.0952760
17514.0, 0.106271
17573.4, 0.116243
17633.2, 0.125449
17693.4, 0.133938
17754.0, 0.140944
17815.0, 0.145752
17876.4, 0.147695
17938.3, 0.147593
18000.5, 0.146468
18063.3, 0.144269
18126.4, 0.142172
18190.0, 0.139717
18254.1, 0.136444
18318.6, 0.132711
18383.5, 0.129233
18449.0, 0.126216
18514.9, 0.125653
18581.2, 0.129796
18648.0, 0.137211
18715.4, 0.146570
18783.2, 0.156798
18851.5, 0.167231
18920.3, 0.175720
18989.6, 0.182266
19059.4, 0.188096
19129.7, 0.192494
19200.6, 0.195410
19272.0, 0.197455
19343.9, 0.198734
19416.3, 0.197967
19489.3, 0.196279
19562.8, 0.192290
19637.0, 0.185232
19711.6, 0.178533
19786.8, 0.172703
19862.6, 0.168612
19939.0, 0.169123
20016.0, 0.172805
20093.6, 0.178124
20171.8, 0.183033
20250.6, 0.186102
20330.0, 0.186971
20410.0, 0.187841
20490.7, 0.187994
20572.0, 0.186562
20654.0, 0.184772
20736.6, 0.183443
20819.9, 0.180937
20903.8, 0.177203
20988.5, 0.173726
21073.8, 0.171015
21159.8, 0.166515
21246.5, 0.161708
21334.0, 0.155929
21422.1, 0.147132
21511.0, 0.134245
21600.7, 0.124818
21691.0, 0.113711
21782.1, 0.111953
21874.0, 0.115069
21966.7, 0.120583
22060.2, 0.123539
22154.5, 0.122261
22249.6, 0.118026
22345.5, 0.113631
22442.2, 0.110914
22539.8, 0.105560
22638.2, 0.102443
22737.5, 0.103962
22837.7, 0.104761
22938.7, 0.103802
23040.7, 0.101005
23143.5, 0.0942930
23247.3, 0.0864620
23352.1, 0.0824660
23457.7, 0.0834250
23564.4, 0.0893380
23672.0, 0.0958910
23780.5, 0.101165
23890.1, 0.105240
24000.7, 0.109395
24112.3, 0.113711
24225.0, 0.114590
24338.7, 0.112991
24453.5, 0.109076
24569.4, 0.101564
24686.4, 0.0895780
24804.5, 0.0760730
24923.8, 0.0633680
25044.2, 0.0580940
25165.8, 0.0660850
25288.6, 0.0783910
25412.5, 0.0846240
25537.7, 0.0878200
25664.1, 0.0884590
25791.8, 0.0876600
25920.8, 0.0875000
26051.1, 0.0922150
26182.6, 0.0984480
26315.5, 0.105959
26449.8, 0.109156
26585.4, 0.110514
26722.5, 0.115628
26860.9, 0.124658
27000.8, 0.134487
27142.1, 0.142478
27285.0, 0.150868
27429.4, 0.157900
27575.3, 0.165412
27722.7, 0.171005
27871.8, 0.172923
28022.4, 0.176119
28174.7, 0.181154
28328.7, 0.182912
28484.4, 0.176199
28641.7, 0.157261
28800.9, 0.135046
28961.8, 0.130092
29124.5, 0.148231
29289.0, 0.174202
29455.4, 0.192101
29623.8, 0.201051
29794.0, 0.206645
29966.3, 0.211040
30140.5, 0.215435
30316.7, 0.217672
30495.1, 0.218391
30675.5, 0.222147
30858.1, 0.224944
31042.8, 0.223585
31229.8, 0.220948
31419.1, 0.217672
31610.7, 0.210081
31804.6, 0.193859
32000.9, 0.184510
32199.7, 0.198094
32400.9, 0.220229
32604.8, 0.232775
32811.1, 0.239168
33020.1, 0.243882
33231.8, 0.248038
33446.2, 0.249955
33663.4, 0.247478
33883.4, 0.243643
34106.3, 0.241885
34332.1, 0.242204
34561.0, 0.248277
34792.9, 0.258506
35028.0, 0.266097
35266.3, 0.268334
35507.8, 0.268814
35752.7, 0.269213
36001.0, 0.268414
36252.8, 0.270172
36508.1, 0.270332
36767.0, 0.268334
37029.7, 0.264818
37296.1, 0.256028
37566.3, 0.242044
37840.5, 0.222706
38118.8, 0.193939
38401.2, 0.167969
38687.8, 0.162855
38978.6, 0.179556
39273.9, 0.204807
39573.7, 0.234533
39878.1, 0.257147
40187.3, 0.271691
40501.2, 0.284076
40820.0, 0.292147
41144.0, 0.296702
41473.2, 0.296063
41807.6, 0.290949
42147.5, 0.288152
42493.0, 0.272969
42844.2, 0.242843
43201.2, 0.230617
43564.3, 0.248597
43933.5, 0.273049
44309.0, 0.292147
44691.0, 0.302535
45079.6, 0.307330
45475.0, 0.311805
45877.5, 0.314362
46287.1, 0.313163
46704.2, 0.314602
47128.7, 0.321634
47561.1, 0.325709
48001.5, 0.321634
48450.1, 0.318997
48907.2, 0.312125
49373.0, 0.311325
49847.7, 0.316679
50331.5, 0.317798
50825.0, 0.318517
51328.2, 0.319157
51841.5, 0.321794
52365.1, 0.319956
52899.4, 0.316599
53444.8, 0.311805
54001.5, 0.305812
54570.1, 0.283997
55150.6, 0.229579
55743.6, 0.157660
56349.5, 0.144875
56968.7, 0.180834
57601.7, 0.192021
58248.9, 0.166371
58910.9, 0.129932
59588.1, 0.135925
60281.0, 0.182432
60990.2, 0.220469
61716.3, 0.241085
62459.8, 0.243563
63221.6, 0.248677
64002.1, 0.229978
64802.1, 0.228460
65622.1, 0.250275
66463.4, 0.255789
67326.6, 0.264659
68212.4, 0.270012
69121.9, 0.267855
70056.0, 0.259544
71015.7, 0.243882
72002.0, 0.209122
73016.3, 0.188825
74059.4, 0.175880
75132.7, 0.171724
76237.6, 0.168608
77375.5, 0.174441
78547.9, 0.188825
79756.3, 0.207524
81002.5, 0.224624
82288.5, 0.239327
83615.7, 0.246839
84986.5, 0.261782
86402.9, 0.273449
87867.4, 0.280481
89382.4, 0.285675
90950.5, 0.280401
92574.6, 0.263300
94257.2, 0.242204
96002.7, 0.218391
97814.1, 0.206964
99695.1, 0.211359
101650.0, 0.225184
103683.0, 0.238608
105799.0, 0.259225
108003.0, 0.285515
110301.0, 0.299579
112699.0, 0.297581
115204.0, 0.300138
117822.0, 0.301337
120562.0, 0.307809
123433.0, 0.314762
126443.0, 0.319396
129604.0, 0.316280
132926.0, 0.313163
136424.0, 0.319716
140111.0, 0.330184
144003.0, 0.317239
148118.0, 0.301816
152474.0, 0.302775
157095.0, 0.319077
162004.0, 0.311006
167231.0, 0.340013
172805.0, 0.342490
178764.0, 0.312604
185148.0, 0.300378
192005.0, 0.252113
199390.0, 0.406817
207366.0, 0.512856
216006.0, 0.471543
