Database of Origin, USGS Spectral Database
Sample Description, See USGS database for additional info
Date Added,2016-08-03 20:54:12.443013

Data ID,USGS_alu10          
Sample ID, alunite_gds84.1226
Mineral Name, alunite
Material Class,Sulfate

Wavelength
1459.09, 0.376193
1459.5, 0.378392
1459.91, 0.381769
1460.32, 0.383340
1460.74, 0.385931
1461.15, 0.387895
1461.56, 0.391743
1461.97, 0.393078
1462.39, 0.394884
1462.8, 0.397790
1463.21, 0.399911
1463.62, 0.400775
1464.04, 0.402974
1464.45, 0.405016
1464.86, 0.408000
1465.28, 0.409414
1465.69, 0.410985
1466.11, 0.412477
1466.52, 0.414205
1466.94, 0.415069
1467.35, 0.416168
1467.77, 0.415461
1468.18, 0.417425
1468.6, 0.417896
1469.02, 0.418995
1469.43, 0.419545
1469.85, 0.420723
1470.27, 0.421587
1470.68, 0.421273
1471.1, 0.420409
1471.52, 0.420802
1471.94, 0.418524
1472.35, 0.416953
1472.77, 0.414676
1473.19, 0.414126
1473.61, 0.409964
1474.03, 0.406351
1474.45, 0.403367
1474.87, 0.401639
1475.29, 0.397947
1475.71, 0.393628
1476.13, 0.391586
1476.55, 0.389308
1476.97, 0.386795
1477.39, 0.385853
1477.81, 0.386402
1478.23, 0.388759
1478.65, 0.391979
1479.07, 0.397712
1479.5, 0.405408
1479.92, 0.412006
1480.34, 0.418524
1480.76, 0.426221
1481.19, 0.434546
1481.61, 0.442164
1482.03, 0.446640
1482.46, 0.451196
1482.88, 0.456536
1483.31, 0.463133
1483.73, 0.468709
1484.16, 0.474207
1484.58, 0.479155
1485.01, 0.482532
1485.43, 0.485673
1485.86, 0.489522
1486.28, 0.493134
1486.71, 0.496669
1487.14, 0.500281
1487.56, 0.503266
1487.99, 0.506643
1488.42, 0.509077
1488.84, 0.510491
1489.27, 0.513240
1489.7, 0.516538
1490.13, 0.520073
1490.56, 0.522036
1490.98, 0.523371
1491.41, 0.524078
1491.84, 0.525806
1492.27, 0.527769
1492.7, 0.528947
1493.13, 0.529733
1493.56, 0.531618
1493.99, 0.532481
1494.42, 0.533267
1494.85, 0.534916
1495.29, 0.537822
1495.72, 0.539236
1496.15, 0.539785
1496.58, 0.539628
1497.01, 0.541199
1497.44, 0.543084
1497.88, 0.545047
1498.31, 0.546775
1498.74, 0.548032
1499.18, 0.549367
1499.61, 0.551330
1500.04, 0.552194
1500.48, 0.553058
1500.91, 0.554315
1501.35, 0.556200
1501.78, 0.556592
1502.22, 0.558320
1502.65, 0.559420
1503.09, 0.560598
1503.53, 0.561776
1503.96, 0.563818
1504.4, 0.566331
1504.83, 0.569394
1505.27, 0.571122
1505.71, 0.572064
1506.15, 0.573164
1506.58, 0.576070
1507.02, 0.577876
1507.46, 0.579132
1507.9, 0.580625
1508.34, 0.583138
1508.78, 0.585023
1509.21, 0.585808
1509.66, 0.586358
1510.09, 0.588793
1510.53, 0.589185
1510.97, 0.588950
1511.42, 0.590834
1511.86, 0.591777
1512.3, 0.592248
1512.74, 0.593034
1513.18, 0.594918
1513.62, 0.596018
1514.06, 0.596725
1514.51, 0.598138
1514.95, 0.598767
1515.39, 0.599317
1515.83, 0.600180
1516.28, 0.602537
1516.72, 0.603558
1517.16, 0.603008
1517.61, 0.603479
1518.05, 0.605678
1518.5, 0.607641
1518.94, 0.608662
1519.39, 0.609055
1519.83, 0.609605
1520.28, 0.609998
1520.73, 0.609998
1521.17, 0.611176
1521.62, 0.611961
1522.07, 0.611961
1522.51, 0.613453
1522.96, 0.614867
1523.41, 0.615652
1523.85, 0.616045
1524.3, 0.616202
1524.75, 0.616438
1525.2, 0.618008
1525.65, 0.619344
1526.1, 0.619501
1526.55, 0.619029
1527.0, 0.619344
1527.45, 0.620207
1527.9, 0.620522
1528.35, 0.620757
1528.8, 0.620600
1529.25, 0.620286
1529.7, 0.620914
1530.15, 0.622328
1530.6, 0.623742
1531.05, 0.624291
1531.51, 0.624606
1531.96, 0.624527
1532.41, 0.624527
1532.87, 0.624370
1533.32, 0.625312
1533.77, 0.626019
1534.23, 0.626333
1534.68, 0.625941
1535.14, 0.626255
1535.59, 0.626883
1536.05, 0.627433
1536.5, 0.627747
1536.96, 0.628532
1537.41, 0.629710
1537.87, 0.630496
1538.32, 0.630103
1538.78, 0.630810
1539.24, 0.631752
1539.7, 0.631988
1540.15, 0.632145
1540.61, 0.632381
1541.07, 0.632302
1541.53, 0.632538
1541.98, 0.632930
1542.44, 0.633559
1542.9, 0.634030
1543.36, 0.633088
1543.82, 0.632695
1544.28, 0.634030
1544.74, 0.634423
1545.2, 0.634580
1545.66, 0.634737
1546.12, 0.635601
1546.59, 0.635208
1547.05, 0.635287
1547.51, 0.636150
1547.97, 0.635915
1548.43, 0.636229
1548.9, 0.636936
1549.36, 0.637250
1549.82, 0.637486
1550.29, 0.637486
1550.75, 0.638035
1551.21, 0.637564
1551.68, 0.636936
1552.14, 0.636936
1552.61, 0.636308
1553.07, 0.635758
1553.54, 0.636386
1554.0, 0.638035
1554.47, 0.638114
1554.93, 0.637564
1555.4, 0.637486
1555.87, 0.637957
1556.34, 0.638428
1556.8, 0.639135
1557.27, 0.640077
1557.74, 0.639449
1558.21, 0.639370
1558.68, 0.639213
1559.14, 0.638428
1559.61, 0.638114
1560.08, 0.638585
1560.55, 0.638585
1561.02, 0.639135
1561.49, 0.639135
1561.96, 0.639292
1562.43, 0.639842
1562.9, 0.639763
1563.38, 0.640077
1563.85, 0.639842
1564.32, 0.639842
1564.79, 0.640077
1565.26, 0.640470
1565.74, 0.639999
1566.21, 0.638978
1566.68, 0.638742
1567.16, 0.639370
1567.63, 0.639920
1568.1, 0.639763
1568.58, 0.639999
1569.05, 0.639920
1569.53, 0.639999
1570.0, 0.639763
1570.48, 0.639606
1570.96, 0.640156
1571.43, 0.640784
1571.91, 0.639999
1572.39, 0.638899
1572.86, 0.639370
1573.34, 0.639449
1573.82, 0.639213
1574.3, 0.639135
1574.77, 0.638899
1575.25, 0.639213
1575.73, 0.639056
1576.21, 0.638899
1576.69, 0.638428
1577.17, 0.638035
1577.65, 0.637957
1578.13, 0.638585
1578.61, 0.638821
1579.09, 0.638585
1579.57, 0.638664
1580.05, 0.638428
1580.54, 0.637957
1581.02, 0.637486
1581.5, 0.637800
1581.98, 0.638428
1582.47, 0.638428
1582.95, 0.638114
1583.43, 0.637328
1583.92, 0.637171
1584.4, 0.637171
1584.88, 0.637407
1585.37, 0.636936
1585.85, 0.636465
1586.34, 0.636700
1586.82, 0.636779
1587.31, 0.636700
1587.8, 0.636386
1588.28, 0.636229
1588.77, 0.636622
1589.26, 0.636857
1589.74, 0.636543
1590.23, 0.636386
1590.72, 0.636386
1591.21, 0.636700
1591.7, 0.636700
1592.19, 0.635679
1592.67, 0.634972
1593.16, 0.636072
1593.65, 0.636308
1594.14, 0.636229
1594.63, 0.636150
1595.12, 0.635522
1595.61, 0.635915
1596.11, 0.636072
1596.6, 0.635365
1597.09, 0.635758
1597.58, 0.636229
1598.08, 0.636150
1598.57, 0.635601
1599.06, 0.635365
1599.55, 0.635758
1600.05, 0.635522
1600.54, 0.634972
1601.04, 0.635522
1601.53, 0.636229
1602.03, 0.635522
1602.52, 0.634894
1603.02, 0.634501
1603.51, 0.633794
1604.01, 0.633559
1604.5, 0.634266
1605.0, 0.634737
1605.5, 0.634266
1606.0, 0.634266
1606.49, 0.634737
1606.99, 0.634737
1607.49, 0.633951
1607.99, 0.633716
1608.49, 0.633794
1608.99, 0.633402
1609.49, 0.633009
1609.99, 0.633402
1610.49, 0.633559
1610.99, 0.633716
1611.49, 0.633480
1611.99, 0.633166
1612.49, 0.632695
1612.99, 0.632538
1613.49, 0.632930
1614.0, 0.632616
1614.5, 0.632538
1615.0, 0.632773
1615.51, 0.632616
1616.01, 0.632224
1616.51, 0.632459
1617.02, 0.633166
1617.52, 0.633166
1618.03, 0.632224
1618.53, 0.631988
1619.04, 0.632773
1619.54, 0.632538
1620.05, 0.632066
1620.55, 0.631517
1621.06, 0.631517
1621.57, 0.631281
1622.08, 0.631281
1622.58, 0.631360
1623.09, 0.631281
1623.6, 0.630653
1624.11, 0.630574
1624.62, 0.631124
1625.13, 0.631203
1625.64, 0.630967
1626.15, 0.630574
1626.66, 0.630731
1627.17, 0.630653
1627.68, 0.630182
1628.19, 0.630025
1628.7, 0.629710
1629.21, 0.629239
1629.72, 0.629004
1630.24, 0.629396
1630.75, 0.629475
1631.26, 0.628925
1631.78, 0.628611
1632.29, 0.628532
1632.8, 0.628375
1633.32, 0.627983
1633.83, 0.628061
1634.35, 0.628689
1634.86, 0.628454
1635.38, 0.628375
1635.9, 0.628375
1636.41, 0.628218
1636.93, 0.627747
1637.45, 0.627433
1637.96, 0.627354
1638.48, 0.626805
1639.0, 0.626569
1639.52, 0.626412
1640.04, 0.626412
1640.56, 0.626726
1641.08, 0.626726
1641.59, 0.625784
1642.11, 0.625391
1642.63, 0.625626
1643.16, 0.626019
1643.68, 0.625862
1644.2, 0.625312
1644.72, 0.624684
1645.24, 0.623977
1645.76, 0.624448
1646.29, 0.624920
1646.81, 0.624448
1647.33, 0.624134
1647.86, 0.624291
1648.38, 0.624291
1648.9, 0.624213
1649.43, 0.624134
1649.95, 0.623663
1650.48, 0.623349
1651.0, 0.623113
1651.53, 0.623113
1652.06, 0.622799
1652.58, 0.622956
1653.11, 0.622799
1653.64, 0.622564
1654.17, 0.622249
1654.69, 0.622249
1655.22, 0.622171
1655.75, 0.621464
1656.28, 0.621150
1656.81, 0.621700
1657.34, 0.621778
1657.87, 0.621228
1658.4, 0.620679
1658.93, 0.620129
1659.46, 0.619893
1659.99, 0.619736
1660.52, 0.619186
1661.05, 0.618951
1661.59, 0.619265
1662.12, 0.618872
1662.65, 0.618558
1663.19, 0.619108
1663.72, 0.618872
1664.26, 0.618872
1664.79, 0.618637
1665.32, 0.618558
1665.86, 0.618322
1666.39, 0.617930
1666.93, 0.617773
1667.47, 0.617066
1668.0, 0.616752
1668.54, 0.616752
1669.08, 0.616595
1669.61, 0.616673
1670.15, 0.616359
1670.69, 0.615966
1671.23, 0.615574
1671.77, 0.615024
1672.31, 0.614710
1672.85, 0.614710
1673.39, 0.614553
1673.93, 0.614160
1674.47, 0.613924
1675.01, 0.613767
1675.55, 0.613767
1676.09, 0.613610
1676.64, 0.613453
1677.18, 0.613218
1677.72, 0.612825
1678.26, 0.612668
1678.81, 0.612432
1679.35, 0.612275
1679.89, 0.611804
1680.44, 0.611411
1680.98, 0.611176
1681.53, 0.610940
1682.07, 0.610626
1682.62, 0.610076
1683.17, 0.609841
1683.71, 0.609919
1684.26, 0.610155
1684.81, 0.609998
1685.36, 0.609291
1685.9, 0.608898
1686.45, 0.609134
1687.0, 0.608741
1687.55, 0.608427
1688.1, 0.608427
1688.65, 0.608348
1689.2, 0.608270
1689.75, 0.607956
1690.3, 0.607563
1690.85, 0.607484
1691.41, 0.607170
1691.96, 0.606385
1692.51, 0.606149
1693.06, 0.606306
1693.61, 0.605914
1694.17, 0.605128
1694.72, 0.604736
1695.28, 0.604736
1695.83, 0.604657
1696.39, 0.604421
1696.94, 0.604029
1697.5, 0.603715
1698.05, 0.603322
1698.61, 0.602929
1699.17, 0.603086
1699.72, 0.603165
1700.28, 0.602772
1700.84, 0.602615
1701.4, 0.602772
1701.95, 0.602458
1702.51, 0.601201
1703.07, 0.601280
1703.63, 0.601437
1704.19, 0.601044
1704.75, 0.600338
1705.31, 0.600180
1705.88, 0.600573
1706.44, 0.600102
1707.0, 0.599552
1707.56, 0.599395
1708.12, 0.599081
1708.69, 0.598453
1709.25, 0.598217
1709.81, 0.598217
1710.38, 0.598138
1710.94, 0.597746
1711.51, 0.596960
1712.07, 0.596332
1712.64, 0.595861
1713.2, 0.595704
1713.77, 0.595468
1714.34, 0.594840
1714.9, 0.594526
1715.47, 0.593976
1716.04, 0.593426
1716.61, 0.593583
1717.18, 0.593269
1717.74, 0.592405
1718.31, 0.591463
1718.88, 0.590599
1719.45, 0.590206
1720.02, 0.589971
1720.59, 0.589421
1721.17, 0.588321
1721.74, 0.587693
1722.31, 0.587379
1722.88, 0.586358
1723.45, 0.585573
1724.03, 0.584787
1724.6, 0.584237
1725.18, 0.583295
1725.75, 0.582353
1726.33, 0.581332
1726.9, 0.580311
1727.48, 0.579368
1728.05, 0.578583
1728.63, 0.577640
1729.2, 0.576462
1729.78, 0.575363
1730.36, 0.574734
1730.94, 0.573792
1731.51, 0.572457
1732.09, 0.571357
1732.67, 0.570493
1733.25, 0.569708
1733.83, 0.568923
1734.41, 0.567980
1734.99, 0.567038
1735.57, 0.565938
1736.15, 0.564917
1736.73, 0.564210
1737.32, 0.563582
1737.9, 0.562640
1738.48, 0.561540
1739.07, 0.560519
1739.65, 0.559498
1740.23, 0.558163
1740.82, 0.556592
1741.4, 0.555336
1741.99, 0.554236
1742.57, 0.553215
1743.16, 0.551645
1743.74, 0.550074
1744.33, 0.548974
1744.92, 0.547875
1745.51, 0.546540
1746.09, 0.545440
1746.68, 0.544419
1747.27, 0.543005
1747.86, 0.541749
1748.45, 0.540649
1749.04, 0.539707
1749.63, 0.538607
1750.22, 0.537665
1750.81, 0.536644
1751.4, 0.535544
1751.99, 0.534602
1752.59, 0.534052
1753.18, 0.533974
1753.77, 0.533817
1754.37, 0.533424
1754.96, 0.532874
1755.56, 0.532246
1756.15, 0.531618
1756.74, 0.531225
1757.34, 0.530440
1757.94, 0.529419
1758.53, 0.528476
1759.13, 0.527455
1759.73, 0.526513
1760.32, 0.525570
1760.92, 0.525020
1761.52, 0.524549
1762.12, 0.523842
1762.72, 0.523293
1763.32, 0.522900
1763.92, 0.522664
1764.52, 0.522115
1765.12, 0.521408
1765.72, 0.521015
1766.32, 0.520230
1766.92, 0.519601
1767.53, 0.519680
1768.13, 0.520230
1768.73, 0.520858
1769.34, 0.521329
1769.94, 0.522193
1770.55, 0.523293
1771.15, 0.524471
1771.76, 0.525649
1772.36, 0.526984
1772.97, 0.528790
1773.57, 0.530440
1774.18, 0.532010
1774.79, 0.533188
1775.4, 0.534131
1776.0, 0.534759
1776.61, 0.535230
1777.22, 0.535309
1777.83, 0.535466
1778.44, 0.535544
1779.05, 0.536016
1779.66, 0.537037
1780.27, 0.538843
1780.88, 0.540885
1781.5, 0.543084
1782.11, 0.545047
1782.72, 0.546697
1783.33, 0.548267
1783.95, 0.549995
1784.56, 0.551645
1785.18, 0.553451
1785.79, 0.555179
1786.41, 0.556592
1787.02, 0.558242
1787.64, 0.560127
1788.26, 0.562247
1788.87, 0.564525
1789.49, 0.566645
1790.11, 0.568530
1790.73, 0.570101
1791.35, 0.571907
1791.96, 0.574185
1792.58, 0.576305
1793.21, 0.577719
1793.83, 0.578661
1794.45, 0.579839
1795.07, 0.581096
1795.69, 0.581960
1796.31, 0.582510
1796.93, 0.583216
1797.56, 0.583923
1798.18, 0.584473
1798.8, 0.584944
1799.43, 0.585337
1800.05, 0.585965
1800.68, 0.586436
1801.3, 0.586829
1801.93, 0.587222
1802.56, 0.587614
1803.18, 0.587850
1803.81, 0.588164
1804.44, 0.588714
1805.07, 0.589342
1805.7, 0.589578
1806.33, 0.589421
1806.95, 0.589578
1807.58, 0.589892
1808.22, 0.589892
1808.85, 0.589814
1809.48, 0.589892
1810.11, 0.590049
1810.74, 0.590285
1811.38, 0.590363
1812.01, 0.590442
1812.64, 0.590599
1813.28, 0.590677
1813.91, 0.590520
1814.55, 0.590285
1815.18, 0.590285
1815.82, 0.590756
1816.45, 0.591384
1817.09, 0.590992
1817.73, 0.590756
1818.36, 0.590756
1819.0, 0.591149
1819.64, 0.591227
1820.28, 0.590834
1820.92, 0.590834
1821.56, 0.591070
1822.2, 0.590677
1822.84, 0.590285
1823.48, 0.590363
1824.12, 0.590756
1824.76, 0.590913
1825.41, 0.591306
1826.05, 0.591541
1826.69, 0.590834
1827.34, 0.590756
1827.98, 0.590834
1828.63, 0.590363
1829.27, 0.590285
1829.92, 0.589892
1830.56, 0.589892
1831.21, 0.589735
1831.86, 0.589735
1832.5, 0.589499
1833.15, 0.589264
1833.8, 0.589421
1834.45, 0.589342
1835.1, 0.588871
1835.75, 0.588950
1836.4, 0.589107
1837.05, 0.589028
1837.7, 0.588714
1838.35, 0.588321
1839.01, 0.588714
1839.66, 0.588635
1840.31, 0.588086
1840.96, 0.588086
1841.62, 0.588400
1842.27, 0.587850
1842.93, 0.587143
1843.58, 0.587065
1844.24, 0.587457
1844.9, 0.587536
1845.55, 0.587300
1846.21, 0.587300
1846.87, 0.586986
1847.53, 0.587143
1848.18, 0.587065
1848.84, 0.586358
1849.5, 0.585887
1850.16, 0.585415
1850.82, 0.585494
1851.48, 0.585415
1852.14, 0.585337
1852.81, 0.585180
1853.47, 0.585258
1854.13, 0.584866
1854.8, 0.584159
1855.46, 0.584002
1856.12, 0.584002
1856.79, 0.583766
1857.45, 0.583609
1858.12, 0.583374
1858.79, 0.583452
1859.45, 0.583216
1860.12, 0.582353
1860.79, 0.581960
1861.46, 0.581881
1862.12, 0.581881
1862.79, 0.581724
1863.46, 0.581410
1864.13, 0.580782
1864.8, 0.580075
1865.48, 0.579918
1866.15, 0.579761
1866.82, 0.579368
1867.49, 0.579447
1868.16, 0.579054
1868.84, 0.578504
1869.51, 0.578033
1870.19, 0.578033
1870.86, 0.578112
1871.54, 0.577248
1872.21, 0.577012
1872.89, 0.576619
1873.56, 0.575520
1874.24, 0.574813
1874.92, 0.574420
1875.6, 0.574106
1876.28, 0.573949
1876.96, 0.573164
1877.64, 0.572300
1878.32, 0.571986
1879.0, 0.571514
1879.68, 0.571043
1880.36, 0.570493
1881.04, 0.569708
1881.73, 0.568844
1882.41, 0.568137
1883.09, 0.567980
1883.78, 0.567980
1884.46, 0.567116
1885.15, 0.566252
1885.83, 0.565624
1886.52, 0.564996
1887.21, 0.564289
1887.89, 0.563582
1888.58, 0.562797
1889.27, 0.562483
1889.96, 0.562247
1890.65, 0.561305
1891.34, 0.560519
1892.03, 0.559812
1892.72, 0.558948
1893.41, 0.558556
1894.1, 0.558006
1894.79, 0.556592
1895.49, 0.555650
1896.18, 0.555179
1896.87, 0.554393
1897.57, 0.553686
1898.26, 0.553215
1898.96, 0.552980
1899.65, 0.552273
1900.35, 0.551252
1901.05, 0.550309
1901.74, 0.549446
1902.44, 0.548582
1903.14, 0.547404
1903.84, 0.546618
1904.54, 0.546618
1905.24, 0.545911
1905.94, 0.544655
1906.64, 0.543555
1907.34, 0.542534
1908.04, 0.541670
1908.75, 0.541278
1909.45, 0.540492
1910.15, 0.539628
1910.86, 0.538686
1911.56, 0.538450
1912.27, 0.537901
1912.97, 0.537037
1913.68, 0.535859
1914.39, 0.534995
1915.09, 0.534602
1915.8, 0.534052
1916.51, 0.533267
1917.22, 0.532324
1917.93, 0.531775
1918.64, 0.531303
1919.35, 0.530989
1920.06, 0.530597
1920.77, 0.529811
1921.48, 0.528790
1922.19, 0.528240
1922.91, 0.528162
1923.62, 0.528005
1924.33, 0.527455
1925.05, 0.526827
1925.76, 0.526434
1926.48, 0.525963
1927.19, 0.525570
1927.91, 0.525492
1928.63, 0.525413
1929.35, 0.525099
1930.07, 0.524706
1930.78, 0.524549
1931.5, 0.524628
1932.22, 0.524471
1932.94, 0.524314
1933.66, 0.524157
1934.39, 0.523921
1935.11, 0.523528
1935.83, 0.523214
1936.55, 0.522821
1937.28, 0.522900
1938.0, 0.523214
1938.73, 0.523057
1939.45, 0.522586
1940.18, 0.522350
1940.9, 0.522115
1941.63, 0.521722
1942.36, 0.521408
1943.09, 0.521565
1943.81, 0.521329
1944.54, 0.520858
1945.27, 0.520465
1946.0, 0.520073
1946.73, 0.519680
1947.47, 0.519523
1948.2, 0.519523
1948.93, 0.519130
1949.66, 0.518423
1950.4, 0.518031
1951.13, 0.517874
1951.86, 0.517481
1952.6, 0.516774
1953.34, 0.516303
1954.07, 0.516067
1954.81, 0.515832
1955.55, 0.515360
1956.29, 0.514889
1957.02, 0.514575
1957.76, 0.514496
1958.5, 0.514261
1959.24, 0.513711
1959.98, 0.513397
1960.72, 0.513397
1961.47, 0.513083
1962.21, 0.512847
1962.95, 0.512847
1963.7, 0.513004
1964.44, 0.513161
1965.18, 0.513318
1965.93, 0.513161
1966.67, 0.513397
1967.42, 0.513790
1968.17, 0.513947
1968.92, 0.514182
1969.66, 0.514418
1970.41, 0.514654
1971.16, 0.514889
1971.91, 0.514968
1972.66, 0.515125
1973.41, 0.515596
1974.16, 0.515989
1974.92, 0.516146
1975.67, 0.516224
1976.42, 0.516224
1977.18, 0.516460
1977.93, 0.516460
1978.69, 0.516381
1979.44, 0.516381
1980.2, 0.516460
1980.95, 0.516381
1981.71, 0.516224
1982.47, 0.516146
1983.23, 0.515675
1983.99, 0.515360
1984.74, 0.515125
1985.51, 0.514496
1986.27, 0.513947
1987.03, 0.513475
1987.79, 0.513161
1988.55, 0.512769
1989.32, 0.512062
1990.08, 0.511434
1990.84, 0.510805
1991.61, 0.510020
1992.37, 0.509234
1993.14, 0.508449
1993.9, 0.507821
1994.67, 0.506800
1995.44, 0.505936
1996.21, 0.504994
1996.98, 0.504208
1997.75, 0.503658
1998.52, 0.502637
1999.29, 0.501616
2000.06, 0.500910
2000.83, 0.499967
2001.6, 0.499103
2002.38, 0.498161
2003.15, 0.497611
2003.93, 0.497061
2004.7, 0.496669
2005.48, 0.496354
2006.25, 0.495883
2007.03, 0.495176
2007.81, 0.494705
2008.58, 0.494548
2009.36, 0.494470
2010.14, 0.493998
2010.92, 0.493763
2011.7, 0.493841
2012.48, 0.493998
2013.26, 0.493998
2014.05, 0.494234
2014.83, 0.494234
2015.61, 0.494391
2016.4, 0.494470
2017.18, 0.495019
2017.97, 0.495569
2018.75, 0.495883
2019.54, 0.495962
2020.32, 0.496040
2021.11, 0.496197
2021.9, 0.496354
2022.69, 0.496512
2023.48, 0.496512
2024.27, 0.496276
2025.06, 0.496119
2025.85, 0.495805
2026.64, 0.495333
2027.44, 0.495255
2028.23, 0.495176
2029.02, 0.494784
2029.82, 0.494470
2030.61, 0.494155
2031.41, 0.493920
2032.2, 0.493527
2033.0, 0.492899
2033.8, 0.492349
2034.6, 0.491799
2035.4, 0.491564
2036.2, 0.491171
2037.0, 0.490543
2037.8, 0.490307
2038.6, 0.490150
2039.4, 0.489836
2040.2, 0.489443
2041.01, 0.489050
2041.81, 0.488658
2042.61, 0.488579
2043.42, 0.488108
2044.22, 0.487715
2045.03, 0.487558
2045.84, 0.487087
2046.65, 0.486459
2047.46, 0.485909
2048.26, 0.485124
2049.07, 0.484574
2049.88, 0.484103
2050.69, 0.483710
2051.51, 0.483317
2052.32, 0.482768
2053.13, 0.482139
2053.94, 0.481511
2054.76, 0.481197
2055.57, 0.481040
2056.39, 0.480490
2057.2, 0.479940
2058.02, 0.479626
2058.84, 0.479312
2059.66, 0.478684
2060.48, 0.478134
2061.29, 0.477977
2062.11, 0.477977
2062.94, 0.477977
2063.76, 0.477977
2064.58, 0.477898
2065.4, 0.477898
2066.22, 0.477977
2067.05, 0.478134
2067.87, 0.478291
2068.7, 0.478448
2069.52, 0.478448
2070.35, 0.478448
2071.18, 0.478448
2072.0, 0.478684
2072.83, 0.478684
2073.66, 0.479155
2074.49, 0.479390
2075.32, 0.479312
2076.15, 0.479390
2076.98, 0.479469
2077.82, 0.479469
2078.65, 0.479469
2079.48, 0.479469
2080.32, 0.479469
2081.15, 0.479233
2081.99, 0.479076
2082.83, 0.478841
2083.66, 0.478605
2084.5, 0.478212
2085.34, 0.478134
2086.18, 0.478055
2087.02, 0.477584
2087.86, 0.476799
2088.7, 0.476485
2089.54, 0.476092
2090.39, 0.475464
2091.23, 0.474600
2092.07, 0.473814
2092.92, 0.472950
2093.76, 0.472008
2094.61, 0.471144
2095.45, 0.470437
2096.3, 0.469338
2097.15, 0.468631
2098.0, 0.467688
2098.85, 0.466353
2099.7, 0.464940
2100.55, 0.463840
2101.4, 0.462662
2102.25, 0.461405
2103.1, 0.459756
2103.96, 0.458107
2104.81, 0.456222
2105.67, 0.454259
2106.52, 0.452374
2107.38, 0.450332
2108.24, 0.448211
2109.09, 0.445934
2109.95, 0.443420
2110.81, 0.440986
2111.67, 0.438630
2112.53, 0.435959
2113.39, 0.433132
2114.25, 0.430697
2115.12, 0.427792
2115.98, 0.424336
2116.84, 0.421194
2117.71, 0.418210
2118.58, 0.415069
2119.44, 0.411534
2120.31, 0.407529
2121.18, 0.403838
2122.04, 0.400225
2122.91, 0.396926
2123.78, 0.393628
2124.65, 0.390722
2125.52, 0.387895
2126.4, 0.385460
2127.27, 0.383418
2128.14, 0.381533
2129.02, 0.379727
2129.89, 0.378078
2130.77, 0.376507
2131.64, 0.375407
2132.52, 0.374308
2133.4, 0.372816
2134.27, 0.371166
2135.15, 0.369910
2136.03, 0.368418
2136.91, 0.366925
2137.79, 0.365355
2138.68, 0.363862
2139.56, 0.362056
2140.44, 0.360564
2141.33, 0.358993
2142.21, 0.357579
2143.1, 0.356637
2143.99, 0.356087
2144.87, 0.355223
2145.76, 0.354045
2146.65, 0.352946
2147.54, 0.351846
2148.43, 0.349804
2149.32, 0.347448
2150.21, 0.344856
2151.1, 0.341950
2151.99, 0.338652
2152.89, 0.335353
2153.78, 0.332055
2154.68, 0.329306
2155.57, 0.327343
2156.47, 0.326243
2157.37, 0.326007
2158.27, 0.326557
2159.16, 0.327500
2160.06, 0.328835
2160.96, 0.330170
2161.86, 0.331269
2162.77, 0.331505
2163.67, 0.331427
2164.57, 0.330798
2165.48, 0.329385
2166.38, 0.327578
2167.29, 0.326400
2168.2, 0.326007
2169.1, 0.327186
2170.01, 0.329227
2170.92, 0.331662
2171.83, 0.334332
2172.74, 0.337081
2173.65, 0.338652
2174.56, 0.339045
2175.47, 0.338573
2176.39, 0.337081
2177.3, 0.334804
2178.22, 0.332290
2179.13, 0.330013
2180.05, 0.328128
2180.96, 0.327343
2181.88, 0.328678
2182.8, 0.331976
2183.72, 0.336453
2184.64, 0.341715
2185.56, 0.347291
2186.48, 0.352003
2187.41, 0.355537
2188.33, 0.358129
2189.25, 0.359307
2190.18, 0.359621
2191.1, 0.360956
2192.03, 0.364098
2192.96, 0.369360
2193.89, 0.376507
2194.82, 0.384753
2195.74, 0.393157
2196.68, 0.400539
2197.61, 0.406037
2198.54, 0.409571
2199.47, 0.410670
2200.4, 0.409335
2201.34, 0.405487
2202.28, 0.399440
2203.21, 0.391193
2204.15, 0.382319
2205.08, 0.375721
2206.02, 0.372030
2206.96, 0.369438
2207.9, 0.366847
2208.84, 0.364569
2209.78, 0.363470
2210.73, 0.364883
2211.67, 0.369674
2212.61, 0.376742
2213.56, 0.385931
2214.5, 0.395827
2215.45, 0.405723
2216.4, 0.414990
2217.35, 0.423786
2218.3, 0.432582
2219.24, 0.442164
2220.2, 0.452374
2221.15, 0.462269
2222.1, 0.471065
2223.05, 0.478369
2224.0, 0.484574
2224.96, 0.490229
2225.91, 0.494784
2226.87, 0.498396
2227.83, 0.501459
2228.79, 0.504130
2229.74, 0.506486
2230.7, 0.508606
2231.66, 0.510570
2232.63, 0.512533
2233.59, 0.514025
2234.55, 0.515596
2235.51, 0.517088
2236.48, 0.518345
2237.44, 0.519366
2238.41, 0.520387
2239.38, 0.521015
2240.34, 0.521879
2241.31, 0.522586
2242.28, 0.523214
2243.25, 0.523842
2244.22, 0.524314
2245.19, 0.524549
2246.17, 0.525020
2247.14, 0.525413
2248.12, 0.525806
2249.09, 0.526041
2250.07, 0.526199
2251.04, 0.526513
2252.02, 0.526513
2253.0, 0.526581
2253.98, 0.526239
2254.96, 0.525966
2255.94, 0.525829
2256.92, 0.525829
2257.91, 0.525761
2258.89, 0.525213
2259.88, 0.525419
2260.86, 0.525487
2261.85, 0.525419
2262.83, 0.525555
2263.82, 0.525692
2264.81, 0.525487
2265.8, 0.525145
2266.79, 0.525350
2267.78, 0.525624
2268.78, 0.525555
2269.77, 0.525624
2270.76, 0.525555
2271.76, 0.525213
2272.75, 0.524530
2273.75, 0.524461
2274.75, 0.524393
2275.75, 0.524256
2276.75, 0.523436
2277.75, 0.522889
2278.75, 0.522684
2279.75, 0.522342
2280.75, 0.521863
2281.76, 0.521111
2282.76, 0.520701
2283.77, 0.520564
2284.77, 0.519880
2285.78, 0.519265
2286.79, 0.518649
2287.8, 0.517760
2288.81, 0.516803
2289.82, 0.516393
2290.83, 0.515504
2291.84, 0.514136
2292.86, 0.512837
2293.87, 0.511675
2294.89, 0.510170
2295.91, 0.508461
2296.92, 0.506957
2297.94, 0.505247
2298.96, 0.502922
2299.98, 0.500529
2301.0, 0.497862
2302.02, 0.494580
2303.04, 0.490751
2304.07, 0.486648
2305.09, 0.482204
2306.12, 0.477007
2307.15, 0.471058
2308.17, 0.464904
2309.2, 0.458545
2310.23, 0.451775
2311.26, 0.444869
2312.29, 0.438578
2313.32, 0.432356
2314.35, 0.426749
2315.39, 0.422304
2316.42, 0.418817
2317.46, 0.415740
2318.5, 0.413415
2319.53, 0.412321
2320.57, 0.412458
2321.61, 0.412868
2322.65, 0.414030
2323.69, 0.416629
2324.73, 0.419843
2325.78, 0.422578
2326.82, 0.425860
2327.86, 0.429210
2328.91, 0.432903
2329.96, 0.436664
2331.01, 0.440493
2332.05, 0.443912
2333.1, 0.447946
2334.15, 0.452117
2335.21, 0.455946
2336.26, 0.459707
2337.31, 0.463331
2338.36, 0.467297
2339.42, 0.470921
2340.48, 0.473861
2341.53, 0.476665
2342.59, 0.479263
2343.65, 0.481588
2344.71, 0.483366
2345.77, 0.484665
2346.83, 0.485691
2347.9, 0.486853
2348.96, 0.487742
2350.02, 0.488289
2351.09, 0.488358
2352.16, 0.488426
2353.23, 0.488289
2354.29, 0.488631
2355.36, 0.489041
2356.43, 0.489178
2357.51, 0.489041
2358.58, 0.488700
2359.65, 0.487605
2360.73, 0.486922
2361.8, 0.486375
2362.88, 0.485349
2363.96, 0.483776
2365.03, 0.481998
2366.11, 0.480289
2367.19, 0.478443
2368.27, 0.475844
2369.36, 0.473451
2370.44, 0.470990
2371.53, 0.467844
2372.61, 0.464152
2373.7, 0.460596
2374.78, 0.456493
2375.87, 0.452117
2376.96, 0.447194
2378.05, 0.442613
2379.14, 0.437553
2380.24, 0.431877
2381.33, 0.425928
2382.42, 0.420390
2383.52, 0.414304
2384.61, 0.407945
2385.71, 0.402338
2386.81, 0.397209
2387.91, 0.392081
2389.01, 0.387978
2390.11, 0.384012
2391.22, 0.380525
2392.32, 0.377585
2393.42, 0.375123
2394.53, 0.373345
2395.64, 0.372115
2396.74, 0.370815
2397.85, 0.369995
2398.96, 0.369379
2400.07, 0.369516
2401.18, 0.369926
2402.3, 0.370268
2403.41, 0.370337
2404.52, 0.370542
2405.64, 0.370405
2406.76, 0.369516
2407.88, 0.368080
2408.99, 0.366576
2410.11, 0.365140
2411.23, 0.363841
2412.36, 0.362063
2413.48, 0.359601
2414.6, 0.356388
2415.73, 0.353379
2416.85, 0.350302
2417.98, 0.347362
2419.11, 0.344763
2420.24, 0.342097
2421.37, 0.339566
2422.5, 0.337105
2423.64, 0.334165
2424.77, 0.331019
2425.9, 0.327532
2427.04, 0.324181
2428.18, 0.321104
2429.31, 0.318780
2430.45, 0.316797
2431.59, 0.315702
2432.73, 0.316044
2433.88, 0.317412
2435.02, 0.319874
2436.16, 0.322609
2437.31, 0.325686
2438.45, 0.328694
2439.6, 0.331293
2440.75, 0.334096
2441.9, 0.336831
2443.05, 0.339225
2444.2, 0.341139
2445.35, 0.342780
2446.51, 0.343601
2447.67, 0.344079
2448.82, 0.344353
2449.98, 0.344695
2451.14, 0.344421
2452.3, 0.344011
2453.46, 0.343054
2454.62, 0.341891
2455.78, 0.340045
2456.94, 0.337584
2458.11, 0.334712
2459.28, 0.331635
2460.44, 0.328284
2461.61, 0.324797
2462.78, 0.321378
2463.95, 0.318301
2465.12, 0.315771
2466.3, 0.314130
2467.47, 0.313651
2468.65, 0.314267
2469.82, 0.315292
2471.0, 0.317138
2472.18, 0.319805
2473.36, 0.322882
2474.54, 0.326438
2475.72, 0.330130
2476.9, 0.333481
2478.08, 0.336695
2479.27, 0.339772
2480.46, 0.342165
2481.64, 0.343464
2482.83, 0.344285
2484.02, 0.344558
2485.21, 0.343396
2486.4, 0.340934
2487.6, 0.337242
2488.79, 0.332660
2489.99, 0.327874
2491.18, 0.323087
2492.38, 0.318848
2493.58, 0.315087
2494.78, 0.311531
2495.98, 0.308386
2497.18, 0.305377
2498.39, 0.301822
2499.59, 0.297993
2500.8, 0.293548
2502.01, 0.288214
2503.21, 0.282266
2504.42, 0.276043
2505.63, 0.269479
2506.84, 0.263393
2508.06, 0.257854
2509.27, 0.253547
2510.49, 0.250948
2511.7, 0.249786
2512.92, 0.249376
2514.14, 0.249581
2515.36, 0.250880
2516.58, 0.253341
2517.8, 0.256624
2519.03, 0.260931
2520.25, 0.265786
2521.48, 0.271325
2522.7, 0.277274
2523.93, 0.283838
2525.16, 0.290744
2526.39, 0.297035
2527.62, 0.302164
2528.86, 0.306061
2530.09, 0.309207
2531.33, 0.311531
2532.56, 0.313104
2533.8, 0.314198
2535.04, 0.315155
2536.28, 0.316797
2537.52, 0.318301
2538.76, 0.320147
2540.01, 0.322198
2541.25, 0.324865
2542.5, 0.327600
2543.75, 0.329447
2544.99, 0.330814
2546.24, 0.332524
2547.49, 0.334233
2548.75, 0.335190
2550.0, 0.336011
2551.26, 0.336558
2552.51, 0.336079
2553.77, 0.334301
2555.03, 0.332113
2556.29, 0.330199
2557.55, 0.328147
2558.81, 0.327122
2560.08, 0.327532
2561.34, 0.328079
2562.61, 0.327532
2563.88, 0.327464
2565.14, 0.326780
2566.41, 0.326369
2567.68, 0.327532
2568.96, 0.329652
2570.23, 0.329857
2571.51, 0.329378
2572.78, 0.331019
2574.06, 0.330130
2575.34, 0.328831
2576.62, 0.328900
2577.9, 0.326780
2579.18, 0.325344
2580.47, 0.325412
2581.75, 0.325070
2583.04, 0.326233
2584.32, 0.326438
2585.61, 0.325139
2586.9, 0.327258
2588.2, 0.328968
2589.49, 0.331224
2590.78, 0.334370
2592.08, 0.339156
2593.37, 0.347635
2594.67, 0.356114
2595.97, 0.355088
2597.27, 0.352969
2598.57, 0.353311
2599.88, 0.354952
2601.18, 0.355977
2602.49, 0.356661
2603.79, 0.357550
2605.1, 0.358712
2606.41, 0.357071
2607.72, 0.355430
2609.03, 0.355909
2610.35, 0.357413
2611.66, 0.359465
2612.98, 0.362884
2614.3, 0.365550
2615.62, 0.370132
2616.94, 0.373072
2618.26, 0.371773
2619.58, 0.373414
2620.91, 0.373414
2622.23, 0.370474
2623.56, 0.370268
2624.89, 0.371841
2626.22, 0.375328
2627.55, 0.375465
2628.88, 0.377653
2630.21, 0.382371
2631.55, 0.382440
2632.89, 0.382918
2634.22, 0.384628
2635.56, 0.384628
2636.9, 0.385790
2638.25, 0.386884
2639.59, 0.388594
2640.93, 0.390713
2642.28, 0.392218
2643.63, 0.391876
2644.98, 0.391534
2646.33, 0.388457
2647.68, 0.383944
2649.03, 0.379226
2650.39, 0.375055
2651.74, 0.371157
2653.1, 0.365482
2654.46, 0.359328
2655.82, 0.354336
2657.18, 0.349823
2658.54, 0.348661
2659.9, 0.347362
2661.27, 0.345789
2662.64, 0.344832
2664.01, 0.347020
2665.38, 0.348524
2666.74, 0.346541
2668.12, 0.342165
2669.49, 0.343259
2670.87, 0.341139
2672.24, 0.333481
2673.62, 0.329515
2675.0, 0.328079
2676.38, 0.327190
2677.76, 0.325207
2679.15, 0.323840
2680.54, 0.321583
2681.92, 0.321036
2683.31, 0.322404
2684.7, 0.323292
2686.09, 0.324592
2687.48, 0.325481
2688.88, 0.326643
2690.27, 0.328421
2691.67, 0.331224
2693.07, 0.334848
2694.47, 0.335190
2695.87, 0.332182
2697.27, 0.328694
2698.67, 0.325822
2700.08, 0.324387
2701.49, 0.321925
2702.9, 0.317617
2704.31, 0.313309
2705.72, 0.309754
2707.13, 0.306745
2708.54, 0.304762
2709.96, 0.302164
2711.38, 0.296557
2712.8, 0.288214
2714.22, 0.281582
2715.64, 0.275701
2717.06, 0.271051
2718.49, 0.267496
2719.91, 0.265991
2721.34, 0.260111
2722.77, 0.254846
2724.2, 0.252384
2725.63, 0.247598
2727.07, 0.242264
2728.5, 0.238093
2729.94, 0.234332
2731.38, 0.230025
2732.82, 0.225238
2734.26, 0.220999
2735.7, 0.214639
2737.15, 0.208075
2738.59, 0.203152
2740.04, 0.196861
2741.49, 0.189408
2742.94, 0.182980
2744.39, 0.177578
2745.84, 0.173612
2747.3, 0.171151
2748.76, 0.169510
2750.21, 0.167732
2751.67, 0.165749
2753.14, 0.163082
2754.6, 0.161373
2756.06, 0.156997
2757.53, 0.150637
2759.0, 0.144894
2760.46, 0.140107
2761.94, 0.135731
2763.41, 0.130534
2764.88, 0.124243
2766.36, 0.118363
2767.83, 0.113029
2769.31, 0.108243
2770.79, 0.104003
2772.27, 0.0998320
2773.76, 0.0961400
2775.24, 0.0933360
2776.73, 0.0909430
2778.22, 0.0887550
2779.71, 0.0870460
2781.2, 0.0856780
2782.69, 0.0841740
2784.18, 0.0825330
2785.68, 0.0807550
2787.18, 0.0788400
2788.68, 0.0763100
2790.18, 0.0742590
2791.68, 0.0725490
2793.19, 0.0709080
2794.69, 0.0691300
2796.2, 0.0673530
2797.71, 0.0652330
2799.22, 0.0630450
2800.73, 0.0610620
2802.24, 0.0592840
2803.76, 0.0570960
2805.28, 0.0549760
2806.8, 0.0532670
2808.32, 0.0516260
2809.84, 0.0501210
2811.36, 0.0486850
2812.89, 0.0471810
2814.42, 0.0454030
2815.94, 0.0434200
2817.48, 0.0413000
2819.01, 0.0389760
2820.54, 0.0367190
2822.08, 0.0345310
2823.61, 0.0322750
2825.15, 0.0297450
2826.69, 0.0275560
2828.23, 0.0256420
2829.78, 0.0243430
2831.32, 0.0235910
2832.87, 0.0239320
2834.42, 0.0261210
2835.97, 0.0302920
2837.52, 0.0356930
2839.08, 0.0406850
2840.63, 0.0436250
2842.19, 0.0449930
2843.75, 0.0450610
2845.31, 0.0441040
2846.87, 0.0419840
2848.44, 0.0393180
2850.0, 0.0365820
2851.57, 0.0342580
2853.14, 0.0333690
2854.71, 0.0356250
2856.28, 0.0430780
2857.86, 0.0571640
2859.43, 0.0774040
2861.01, 0.0994220
2862.59, 0.117064
2864.17, 0.127115
2865.76, 0.129919
2867.34, 0.126637
2868.93, 0.118021
2870.52, 0.106533
2872.11, 0.0947720
2873.7, 0.0854730
2875.29, 0.0789090
2876.89, 0.0743270
2878.49, 0.0713190
2880.08, 0.0698830
2881.69, 0.0688570
2883.29, 0.0679680
2884.89, 0.0672160
2886.5, 0.0666000
2888.11, 0.0661220
2889.72, 0.0655060
2891.33, 0.0648910
2892.94, 0.0646170
2894.56, 0.0650280
2896.17, 0.0657800
2897.79, 0.0665320
2899.42, 0.0671470
2901.04, 0.0674890
2902.66, 0.0670790
2904.29, 0.0663270
2905.92, 0.0653700
2907.55, 0.0644810
2909.18, 0.0642760
2910.81, 0.0650960
2912.45, 0.0665320
2914.08, 0.0676940
2915.72, 0.0685830
2917.36, 0.0693360
2919.01, 0.0698830
2920.65, 0.0702930
2922.3, 0.0708400
2923.94, 0.0710450
2925.59, 0.0711130
2927.25, 0.0709770
2928.9, 0.0707030
2930.56, 0.0704980
2932.21, 0.0702930
2933.87, 0.0698830
2935.53, 0.0696770
2937.2, 0.0695410
2938.86, 0.0693360
2940.53, 0.0691300
2942.2, 0.0691300
2943.87, 0.0693360
2945.54, 0.0696090
2947.22, 0.0701560
2948.89, 0.0708400
2950.57, 0.0713870
2952.25, 0.0718660
2953.93, 0.0723440
2955.62, 0.0729600
2957.3, 0.0735750
2958.99, 0.0742590
2960.68, 0.0750110
2962.37, 0.0755580
2964.07, 0.0761050
2965.76, 0.0767890
2967.46, 0.0771990
2969.16, 0.0777460
2970.86, 0.0782930
2972.56, 0.0787720
2974.27, 0.0787720
2975.98, 0.0788400
2977.69, 0.0792500
2979.4, 0.0800030
2981.11, 0.0808910
2982.83, 0.0820540
2984.54, 0.0832160
2986.26, 0.0840370
2987.98, 0.0847890
2989.71, 0.0856780
2991.43, 0.0865670
2993.16, 0.0874560
2994.89, 0.0885500
2996.62, 0.0895070
2998.35, 0.0899860
3000.09, 0.0903280
3001.83, 0.0903960
3003.57, 0.0900540
3005.31, 0.0897120
3007.05, 0.0891650
3008.79, 0.0886180
3010.54, 0.0884810
3012.29, 0.0886180
3014.04, 0.0887550
3015.8, 0.0891650
3017.55, 0.0897120
3019.31, 0.0903280
3021.07, 0.0908060
3022.83, 0.0912850
3024.59, 0.0919000
3026.36, 0.0924470
3028.13, 0.0929260
3029.9, 0.0933360
3031.67, 0.0936780
3033.44, 0.0938830
3035.22, 0.0941570
3037.0, 0.0943620
3038.78, 0.0945670
3040.56, 0.0947720
3042.34, 0.0947040
3044.13, 0.0946360
3045.92, 0.0947040
3047.71, 0.0944990
3049.5, 0.0940890
3051.3, 0.0937470
3053.09, 0.0934730
3054.89, 0.0930630
3056.69, 0.0927890
3058.5, 0.0923790
3060.3, 0.0923110
3062.11, 0.0923110
3063.92, 0.0922420
3065.73, 0.0922420
3067.55, 0.0922420
3069.36, 0.0920370
3071.18, 0.0921060
3073.0, 0.0923110
3074.82, 0.0921740
3076.65, 0.0921060
3078.48, 0.0920370
3080.31, 0.0918320
3082.14, 0.0919000
3083.97, 0.0919000
3085.8, 0.0919690
3087.64, 0.0921060
3089.48, 0.0925840
3091.33, 0.0932000
3093.17, 0.0936100
3095.02, 0.0940890
3096.87, 0.0947720
3098.72, 0.0955930
3100.57, 0.0962770
3102.43, 0.0971660
3104.28, 0.0979860
3106.14, 0.0986010
3108.01, 0.0991480
3109.87, 0.0995590
3111.74, 0.0998320
3113.61, 0.0998320
3115.48, 0.0996960
3117.35, 0.0994900
3119.23, 0.0991480
3121.1, 0.0986700
3122.98, 0.0981910
3124.87, 0.0980540
3126.75, 0.0983280
3128.64, 0.0986010
3130.53, 0.0990120
3132.42, 0.0994220
3134.31, 0.0999010
3136.21, 0.100243
3138.11, 0.100790
3140.01, 0.101337
3141.91, 0.101678
3143.82, 0.101884
3145.73, 0.102020
3147.64, 0.102226
3149.55, 0.102499
3151.46, 0.102636
3153.38, 0.102909
3155.3, 0.103183
3157.22, 0.103251
3159.14, 0.103388
3161.07, 0.103525
3163.0, 0.103661
3164.93, 0.103935
3166.86, 0.104277
3168.8, 0.104277
3170.74, 0.104345
3172.68, 0.104619
3174.62, 0.104892
3176.56, 0.105166
3178.51, 0.105439
3180.46, 0.105713
3182.42, 0.105781
3184.37, 0.106055
3186.33, 0.106191
3188.29, 0.106328
3190.25, 0.106533
3192.21, 0.106670
3194.18, 0.106670
3196.15, 0.106670
3198.12, 0.106807
3200.09, 0.107012
3202.07, 0.107149
3204.05, 0.107354
3206.03, 0.107559
3208.02, 0.107627
3210.0, 0.107559
3211.99, 0.107627
3213.98, 0.107764
3215.98, 0.107833
3217.97, 0.107833
3219.97, 0.108038
3221.97, 0.108311
3223.98, 0.108516
3225.98, 0.108721
3227.99, 0.108721
3230.0, 0.108858
3232.02, 0.109063
3234.03, 0.109268
3236.05, 0.109542
3238.07, 0.109747
3240.1, 0.110021
3242.12, 0.110294
3244.15, 0.110499
3246.18, 0.110773
3248.22, 0.110910
3250.25, 0.111046
3252.29, 0.111183
3254.33, 0.111320
3256.38, 0.111593
3258.43, 0.111730
3260.47, 0.111662
3262.53, 0.111730
3264.58, 0.111867
3266.64, 0.112072
3268.7, 0.112346
3270.76, 0.112619
3272.82, 0.113029
3274.89, 0.113234
3276.96, 0.113508
3279.04, 0.113918
3281.11, 0.114123
3283.19, 0.114328
3285.27, 0.114670
3287.35, 0.114807
3289.44, 0.114876
3291.53, 0.114944
3293.62, 0.115149
3295.71, 0.115354
3297.81, 0.115423
3299.91, 0.115559
3302.01, 0.115833
3304.11, 0.116175
3306.22, 0.116517
3308.33, 0.116858
3310.44, 0.117064
3312.56, 0.117542
3314.68, 0.117953
3316.8, 0.118226
3318.92, 0.118500
3321.05, 0.118636
3323.18, 0.118978
3325.31, 0.119457
3327.44, 0.119867
3329.58, 0.120072
3331.72, 0.120209
3333.86, 0.120551
3336.01, 0.120893
3338.16, 0.121235
3340.31, 0.121713
3342.46, 0.121987
3344.61, 0.122260
3346.77, 0.122671
3348.94, 0.123218
3351.1, 0.123628
3353.27, 0.123970
3355.44, 0.124380
3357.61, 0.124995
3359.79, 0.125543
3361.97, 0.126090
3364.15, 0.126637
3366.33, 0.127115
3368.52, 0.127457
3370.71, 0.127867
3372.9, 0.128141
3375.1, 0.128483
3377.3, 0.129030
3379.5, 0.129508
3381.71, 0.129850
3383.91, 0.130329
3386.12, 0.130808
3388.34, 0.131218
3390.55, 0.131560
3392.77, 0.131970
3394.99, 0.132380
3397.22, 0.132791
3399.45, 0.133269
3401.68, 0.133474
3403.91, 0.133680
3406.15, 0.134090
3408.39, 0.134500
3410.63, 0.134774
3412.87, 0.135047
3415.12, 0.135594
3417.37, 0.135936
3419.63, 0.136278
3421.88, 0.136893
3424.14, 0.137714
3426.41, 0.138466
3428.67, 0.139013
3430.94, 0.139628
3433.21, 0.140381
3435.49, 0.140928
3437.77, 0.141611
3440.05, 0.142364
3442.33, 0.142911
3444.62, 0.143321
3446.91, 0.143936
3449.2, 0.144552
3451.5, 0.145099
3453.8, 0.145646
3456.1, 0.146261
3458.41, 0.146877
3460.72, 0.147424
3463.03, 0.147902
3465.34, 0.148449
3467.66, 0.148996
3469.98, 0.149475
3472.31, 0.149954
3474.63, 0.150637
3476.96, 0.151253
3479.3, 0.151937
3481.64, 0.152757
3483.97, 0.153031
3486.32, 0.153236
3488.66, 0.153714
3491.01, 0.154125
3493.36, 0.154672
3495.72, 0.155219
3498.08, 0.155766
3500.44, 0.156176
3502.81, 0.156655
3505.18, 0.157202
3507.55, 0.157954
3509.92, 0.158638
3512.3, 0.159253
3514.68, 0.160005
3517.06, 0.160552
3519.45, 0.161099
3521.84, 0.161920
3524.24, 0.162535
3526.64, 0.163151
3529.04, 0.163766
3531.44, 0.164450
3533.85, 0.165065
3536.26, 0.165612
3538.67, 0.166228
3541.09, 0.166706
3543.51, 0.167322
3545.93, 0.168074
3548.36, 0.168689
3550.79, 0.169236
3553.22, 0.169920
3555.66, 0.170535
3558.1, 0.171082
3560.54, 0.171835
3562.99, 0.172587
3565.44, 0.173271
3567.9, 0.173886
3570.35, 0.174570
3572.81, 0.175185
3575.28, 0.175869
3577.75, 0.176484
3580.22, 0.177236
3582.69, 0.177920
3585.17, 0.178604
3587.65, 0.179288
3590.14, 0.179972
3592.62, 0.180655
3595.11, 0.181476
3597.61, 0.182160
3600.11, 0.182844
3602.61, 0.183527
3605.11, 0.184211
3607.62, 0.184895
3610.14, 0.185647
3612.65, 0.186399
3615.17, 0.187151
3617.69, 0.187903
3620.22, 0.188587
3622.75, 0.189271
3625.28, 0.189955
3627.82, 0.190639
3630.36, 0.191322
3632.9, 0.192075
3635.45, 0.192758
3638.0, 0.193374
3640.56, 0.194126
3643.12, 0.194741
3645.68, 0.195425
3648.24, 0.196109
3650.81, 0.196793
3653.39, 0.197340
3655.96, 0.197955
3658.54, 0.198571
3661.13, 0.199391
3663.71, 0.200006
3666.3, 0.200417
3668.9, 0.200964
3671.5, 0.201579
3674.1, 0.202331
3676.7, 0.203015
3679.31, 0.203494
3681.93, 0.204109
3684.54, 0.204793
3687.17, 0.205272
3689.79, 0.205819
3692.42, 0.206502
3695.05, 0.207118
3697.69, 0.207938
3700.32, 0.208554
3702.97, 0.209238
3705.61, 0.209921
3708.27, 0.210605
3710.92, 0.211289
3713.58, 0.211973
3716.24, 0.212588
3718.91, 0.213135
3721.58, 0.213614
3724.25, 0.214229
3726.93, 0.214845
3729.61, 0.215597
3732.29, 0.216212
3734.98, 0.216759
3737.67, 0.217169
3740.37, 0.217716
3743.07, 0.218195
3745.78, 0.218742
3748.49, 0.219289
3751.2, 0.219836
3753.91, 0.220383
3756.63, 0.220862
3759.36, 0.221340
3762.09, 0.221751
3764.82, 0.222161
3767.55, 0.222640
3770.29, 0.223187
3773.04, 0.223529
3775.78, 0.223870
3778.54, 0.224212
3781.29, 0.224623
3784.05, 0.224965
3786.82, 0.225306
3789.59, 0.225648
3792.36, 0.225853
3795.13, 0.226264
3797.92, 0.226400
3800.7, 0.226606
3803.49, 0.226879
3806.28, 0.227084
3809.08, 0.227289
3811.88, 0.227563
3814.68, 0.227700
3817.49, 0.227905
3820.31, 0.228042
3823.12, 0.228110
3825.94, 0.228110
3828.77, 0.228178
3831.6, 0.228247
3834.43, 0.228452
3837.27, 0.228452
3840.11, 0.228452
3842.96, 0.228520
3845.81, 0.228383
3848.67, 0.228110
3851.53, 0.227973
3854.39, 0.227768
3857.26, 0.227358
3860.13, 0.226469
3863.01, 0.225033
3865.89, 0.222435
3868.77, 0.219289
3871.66, 0.217853
3874.55, 0.220041
3877.45, 0.223118
3880.35, 0.225033
3883.26, 0.226127
3886.17, 0.226879
3889.09, 0.227289
3892.01, 0.227426
3894.93, 0.227289
3897.86, 0.227426
3900.79, 0.227426
3903.73, 0.227358
3906.67, 0.227289
3909.62, 0.227084
3912.57, 0.226742
3915.52, 0.226606
3918.48, 0.226400
3921.45, 0.226332
3924.42, 0.226195
3927.39, 0.226059
3930.37, 0.225922
3933.35, 0.225785
3936.34, 0.225512
3939.33, 0.225306
3942.32, 0.225170
3945.32, 0.224965
3948.33, 0.224828
3951.34, 0.224623
3954.35, 0.224281
3957.37, 0.224144
3960.39, 0.223870
3963.42, 0.223597
3966.45, 0.223392
3969.49, 0.223187
3972.53, 0.222982
3975.58, 0.222776
3978.63, 0.222435
3981.68, 0.222298
3984.75, 0.222161
3987.81, 0.221956
3990.88, 0.221751
3993.95, 0.221477
3997.03, 0.221135
4000.12, 0.220862
4003.21, 0.220520
4006.3, 0.220246
4009.4, 0.219973
4012.5, 0.219699
4015.61, 0.219289
4018.72, 0.218947
4021.84, 0.218674
4024.96, 0.218537
4028.09, 0.218195
4031.22, 0.217716
4034.36, 0.217169
4037.5, 0.216828
4040.65, 0.216486
4043.8, 0.216075
4046.96, 0.215665
4050.12, 0.215255
4053.29, 0.214776
4056.46, 0.214298
4059.64, 0.213819
4062.82, 0.213409
4066.0, 0.212862
4069.19, 0.212315
4072.39, 0.211904
4075.59, 0.211494
4078.8, 0.211015
4082.01, 0.210605
4085.23, 0.210195
4088.45, 0.209785
4091.68, 0.209374
4094.91, 0.209032
4098.15, 0.208690
4101.39, 0.208349
4104.63, 0.207938
4107.89, 0.207596
4111.14, 0.207186
4114.41, 0.206844
4117.67, 0.206571
4120.95, 0.206297
4124.23, 0.205887
4127.51, 0.205613
4130.8, 0.205340
4134.09, 0.205203
4137.39, 0.205066
4140.7, 0.204998
4144.01, 0.204861
4147.32, 0.205066
4150.64, 0.205203
4153.97, 0.205408
4157.3, 0.205545
4160.64, 0.205750
4163.98, 0.205955
4167.33, 0.206297
4170.68, 0.206639
4174.04, 0.206776
4177.4, 0.206708
4180.77, 0.206502
4184.14, 0.206366
4187.52, 0.206161
4190.91, 0.205887
4194.3, 0.205613
4197.69, 0.205272
4201.1, 0.204998
4204.5, 0.204725
4207.92, 0.204451
4211.34, 0.204246
4214.76, 0.203904
4218.19, 0.203357
4221.62, 0.202673
4225.06, 0.201784
4228.51, 0.200553
4231.96, 0.198981
4235.42, 0.197340
4238.88, 0.195357
4242.35, 0.193237
4245.83, 0.191254
4249.31, 0.189271
4252.79, 0.187220
4256.28, 0.185510
4259.78, 0.184553
4263.29, 0.184006
4266.79, 0.183254
4270.31, 0.182365
4273.83, 0.181339
4277.35, 0.180314
4280.89, 0.179288
4284.42, 0.178399
4287.97, 0.177236
4291.52, 0.176006
4295.07, 0.174775
4298.63, 0.173202
4302.2, 0.171288
4305.78, 0.169168
4309.35, 0.166569
4312.94, 0.163356
4316.53, 0.159732
4320.13, 0.155834
4323.73, 0.151937
4327.34, 0.148176
4330.96, 0.144825
4334.58, 0.141953
4338.21, 0.139628
4341.84, 0.137645
4345.48, 0.136004
4349.12, 0.134637
4352.77, 0.133474
4356.43, 0.132585
4360.1, 0.131560
4363.76, 0.130876
4367.44, 0.130466
4371.12, 0.130261
4374.81, 0.130397
4378.51, 0.130944
4382.21, 0.131902
4385.92, 0.133201
4389.63, 0.134227
4393.35, 0.135115
4397.08, 0.135868
4400.81, 0.136346
4404.55, 0.136483
4408.29, 0.136415
4412.04, 0.136073
4415.8, 0.135321
4419.57, 0.134363
4423.34, 0.133064
4427.12, 0.131833
4430.9, 0.130671
4434.69, 0.129714
4438.49, 0.129030
4442.29, 0.128209
4446.1, 0.127457
4449.92, 0.126705
4453.74, 0.125816
4457.57, 0.125064
4461.41, 0.124517
4465.25, 0.123970
4469.1, 0.123286
4472.95, 0.122124
4476.82, 0.120756
4480.69, 0.119115
4484.56, 0.117337
4488.44, 0.115833
4492.33, 0.114876
4496.23, 0.114397
4500.13, 0.114465
4504.04, 0.114670
4507.96, 0.114944
4511.88, 0.115354
4515.81, 0.115628
4519.75, 0.115696
4523.69, 0.115696
4527.65, 0.115423
4531.6, 0.115012
4535.57, 0.114328
4539.54, 0.113508
4543.52, 0.112824
4547.5, 0.112277
4551.5, 0.111867
4555.5, 0.111662
4559.5, 0.111388
4563.52, 0.110773
4567.54, 0.109542
4571.56, 0.107696
4575.6, 0.105234
4579.64, 0.102704
4583.69, 0.100516
4587.75, 0.0991480
4591.81, 0.0986010
4595.88, 0.0989430
4599.96, 0.0999010
4604.04, 0.101473
4608.14, 0.103525
4612.24, 0.105850
4616.34, 0.108038
4620.46, 0.109952
4624.58, 0.111730
4628.71, 0.113508
4632.84, 0.115764
4636.99, 0.118705
4641.14, 0.121918
4645.3, 0.125269
4649.47, 0.128414
4653.64, 0.130944
4657.82, 0.132175
4662.01, 0.131902
4666.21, 0.130534
4670.41, 0.128893
4674.62, 0.127662
4678.84, 0.126978
4683.07, 0.126705
4687.3, 0.126568
4691.54, 0.126090
4695.79, 0.125269
4700.05, 0.124243
4704.31, 0.123081
4708.59, 0.121577
4712.87, 0.119730
4717.15, 0.117816
4721.45, 0.115970
4725.76, 0.115081
4730.07, 0.115491
4734.39, 0.117884
4738.72, 0.122124
4743.05, 0.127731
4747.39, 0.134158
4751.75, 0.140859
4756.1, 0.148039
4760.47, 0.155766
4764.85, 0.164586
4769.23, 0.174501
4773.62, 0.185715
4778.02, 0.196998
4782.43, 0.207733
4786.85, 0.216964
4791.27, 0.224486
4795.7, 0.230298
4800.14, 0.235085
4804.59, 0.239050
4809.05, 0.242127
4813.51, 0.244589
4817.99, 0.246504
4822.47, 0.247324
4826.96, 0.246709
4831.46, 0.244521
4835.96, 0.240965
4840.48, 0.236589
4845.0, 0.233170
4849.54, 0.232623
4854.08, 0.236042
4858.63, 0.242333
4863.18, 0.249444
4867.75, 0.255666
4872.33, 0.260043
4876.91, 0.262026
4881.5, 0.263120
4886.1, 0.265376
4890.71, 0.269410
4895.33, 0.274060
4899.96, 0.278231
4904.59, 0.281513
4909.24, 0.284248
4913.89, 0.286437
4918.55, 0.288420
4923.22, 0.290129
4927.9, 0.291565
4932.59, 0.292659
4937.29, 0.293821
4942.0, 0.294984
4946.71, 0.295941
4951.44, 0.296693
4956.17, 0.297377
4960.91, 0.297856
4965.67, 0.298266
4970.43, 0.298540
4975.2, 0.298745
4979.98, 0.299018
4984.76, 0.299360
4989.56, 0.299702
4994.37, 0.300044
4999.18, 0.300317
5004.01, 0.300659
5008.84, 0.300728
5013.69, 0.300933
5018.54, 0.301138
5023.4, 0.301138
5028.28, 0.300933
5033.16, 0.300933
5038.05, 0.300864
5042.95, 0.300796
5047.86, 0.300523
5052.78, 0.300386
5057.71, 0.300044
5062.65, 0.299702
5067.6, 0.299292
5072.56, 0.299018
5077.53, 0.298676
5082.5, 0.298471
5087.49, 0.297924
5092.49, 0.297309
5097.5, 0.296830
5102.51, 0.296488
5107.54, 0.296010
5112.58, 0.295668
5117.62, 0.295257
5122.68, 0.294847
5127.75, 0.294300
5132.82, 0.293890
5137.91, 0.293480
5143.01, 0.293274
5148.12, 0.293001
5153.23, 0.292249
5158.36, 0.291565
5163.5, 0.291155
5168.65, 0.290744
5173.81, 0.290471
5178.98, 0.290129
5184.15, 0.289787
5189.34, 0.289514
5194.54, 0.289445
5199.75, 0.289445
5204.98, 0.289172
5210.21, 0.289172
5215.45, 0.288967
5220.7, 0.288009
5225.96, 0.287462
5231.23, 0.286984
5236.52, 0.286642
5241.81, 0.285958
5247.12, 0.285069
5252.44, 0.284248
5257.76, 0.283496
5263.1, 0.282607
5268.45, 0.281924
5273.81, 0.281240
5279.18, 0.280488
5284.56, 0.279599
5289.95, 0.279394
5295.36, 0.278505
5300.77, 0.277547
5306.2, 0.276864
5311.63, 0.276317
5317.08, 0.275838
5322.54, 0.275496
5328.01, 0.275086
5333.49, 0.274812
5338.98, 0.274402
5344.49, 0.274744
5350.0, 0.275154
5355.53, 0.274334
5361.07, 0.273240
5366.62, 0.272624
5372.18, 0.272077
5377.75, 0.271599
5383.34, 0.270983
5388.93, 0.270163
5394.54, 0.269137
5400.16, 0.268180
5405.79, 0.267086
5411.44, 0.266128
5417.09, 0.265718
5422.76, 0.264829
5428.43, 0.261752
5434.12, 0.259359
5439.83, 0.257444
5445.54, 0.255461
5451.26, 0.253136
5457.0, 0.251085
5462.75, 0.249444
5468.52, 0.246367
5474.29, 0.243427
5480.08, 0.240965
5485.88, 0.237820
5491.69, 0.235358
5497.51, 0.233170
5503.35, 0.231324
5509.2, 0.229751
5515.06, 0.228589
5520.93, 0.227563
5526.82, 0.226469
5532.71, 0.225101
5538.63, 0.224007
5544.55, 0.223392
5550.49, 0.223323
5556.44, 0.222571
5562.4, 0.221546
5568.37, 0.220930
5574.36, 0.221340
5580.36, 0.221067
5586.37, 0.219494
5592.4, 0.218332
5598.44, 0.217990
5604.49, 0.217375
5610.56, 0.216691
5616.63, 0.216075
5622.73, 0.215050
5628.83, 0.214161
5634.95, 0.214024
5641.08, 0.214092
5647.23, 0.211973
5653.39, 0.209785
5659.56, 0.207870
5665.74, 0.206161
5671.94, 0.205750
5678.15, 0.204519
5684.38, 0.202947
5690.62, 0.201989
5696.87, 0.200348
5703.14, 0.199186
5709.42, 0.198981
5715.72, 0.197408
5722.03, 0.195220
5728.35, 0.193100
5734.69, 0.191528
5741.03, 0.190092
5747.4, 0.188792
5753.78, 0.186194
5760.17, 0.185647
5766.58, 0.185032
5773.0, 0.181339
5779.44, 0.178194
5785.88, 0.175595
5792.35, 0.173065
5798.83, 0.171082
5805.32, 0.168689
5811.83, 0.166980
5818.35, 0.166296
5824.89, 0.164039
5831.45, 0.160210
5838.01, 0.156723
5844.59, 0.153509
5851.19, 0.150842
5857.8, 0.148312
5864.43, 0.145509
5871.07, 0.142569
5877.73, 0.141543
5884.4, 0.137714
5891.09, 0.133338
5897.79, 0.129850
5904.5, 0.125543
5911.23, 0.123354
5917.98, 0.121987
5924.75, 0.120824
5931.53, 0.121303
5938.32, 0.121166
5945.13, 0.118978
5951.96, 0.117747
5958.8, 0.117337
5965.65, 0.117747
5972.53, 0.117132
5979.42, 0.116311
5986.32, 0.116448
5993.24, 0.115764
6000.18, 0.114328
6007.13, 0.113713
6014.1, 0.113371
6021.08, 0.112140
6028.09, 0.111115
6035.1, 0.110568
6042.14, 0.111798
6049.19, 0.112687
6056.25, 0.109884
6063.34, 0.108653
6070.44, 0.109268
6077.55, 0.108721
6084.69, 0.107627
6091.84, 0.107286
6099.0, 0.107491
6106.19, 0.108585
6113.39, 0.109679
6120.61, 0.108721
6127.84, 0.108174
6135.09, 0.108721
6142.36, 0.109610
6149.65, 0.110157
6156.95, 0.111115
6164.27, 0.111662
6171.61, 0.112004
6178.97, 0.113645
6186.34, 0.115081
6193.73, 0.114807
6201.14, 0.115149
6208.57, 0.116038
6216.01, 0.116995
6223.47, 0.117816
6230.95, 0.118363
6238.45, 0.118773
6245.97, 0.119183
6253.5, 0.119594
6261.06, 0.119935
6268.63, 0.120072
6276.21, 0.120004
6283.82, 0.120004
6291.45, 0.120004
6299.1, 0.119935
6306.76, 0.120004
6314.44, 0.120141
6322.14, 0.120346
6329.86, 0.120551
6337.6, 0.121850
6345.35, 0.122739
6353.13, 0.121713
6360.92, 0.121782
6368.74, 0.122876
6376.57, 0.123013
6384.43, 0.123218
6392.3, 0.123833
6400.19, 0.124790
6408.1, 0.127867
6416.03, 0.129167
6423.98, 0.127115
6431.95, 0.126295
6439.94, 0.125474
6447.95, 0.124654
6455.98, 0.123765
6464.03, 0.122944
6472.1, 0.122602
6480.19, 0.122397
6488.31, 0.122602
6496.44, 0.121098
6504.59, 0.117816
6512.76, 0.116106
6520.95, 0.115081
6529.16, 0.112756
6537.4, 0.110773
6545.65, 0.109132
6553.92, 0.107491
6562.22, 0.105986
6570.54, 0.104756
6578.88, 0.102431
6587.23, 0.100584
6595.61, 0.0988750
6604.02, 0.0970970
6612.44, 0.0959350
6620.89, 0.0951140
6629.35, 0.0951140
6637.84, 0.0944300
6646.35, 0.0918320
6654.88, 0.0897120
6663.44, 0.0884810
6672.01, 0.0875240
6680.61, 0.0864300
6689.23, 0.0845160
6697.88, 0.0829430
6706.54, 0.0821220
6715.23, 0.0811650
6723.94, 0.0799340
6732.67, 0.0787720
6741.42, 0.0780200
6750.2, 0.0777460
6759.0, 0.0773360
6767.82, 0.0772670
6776.67, 0.0776090
6785.54, 0.0781560
6794.44, 0.0781560
6803.35, 0.0776780
6812.29, 0.0778830
6821.26, 0.0783620
6830.24, 0.0784300
6839.25, 0.0782930
6848.29, 0.0787030
6857.35, 0.0794560
6866.43, 0.0791820
6875.54, 0.0776090
6884.67, 0.0765840
6893.82, 0.0758320
6903.0, 0.0750790
6912.2, 0.0741220
6921.43, 0.0730280
6930.69, 0.0720020
6939.96, 0.0709080
6949.27, 0.0701560
6958.59, 0.0696770
6967.95, 0.0682420
6977.33, 0.0670110
6986.73, 0.0663270
6996.16, 0.0657800
7005.61, 0.0651640
7015.09, 0.0649590
7024.6, 0.0648230
7034.13, 0.0648910
7043.69, 0.0655060
7053.27, 0.0654380
7062.88, 0.0652330
7072.52, 0.0655060
7082.18, 0.0658480
7091.87, 0.0661900
7101.58, 0.0663950
7111.32, 0.0665320
7121.09, 0.0665320
7130.88, 0.0661900
7140.71, 0.0659850
7150.56, 0.0656430
7160.43, 0.0652330
7170.33, 0.0646170
7180.27, 0.0636600
7190.23, 0.0627030
7200.21, 0.0620190
7210.23, 0.0612670
7220.27, 0.0601730
7230.34, 0.0590790
7240.44, 0.0579850
7250.56, 0.0569590
7260.72, 0.0559330
7270.9, 0.0548390
7281.12, 0.0536090
7291.36, 0.0525150
7301.63, 0.0514890
7311.93, 0.0504630
7322.25, 0.0495740
7332.61, 0.0486850
7343.0, 0.0476600
7353.41, 0.0465660
7363.86, 0.0454030
7374.33, 0.0440360
7384.83, 0.0426680
7395.37, 0.0412320
7405.93, 0.0397280
7416.53, 0.0381550
7427.15, 0.0367190
7437.81, 0.0352150
7448.5, 0.0338470
7459.22, 0.0326160
7469.96, 0.0315220
7480.74, 0.0303600
7491.55, 0.0294030
7502.39, 0.0284450
7513.27, 0.0278300
7524.17, 0.0273510
7535.11, 0.0268040
7546.08, 0.0263940
7557.08, 0.0259840
7568.11, 0.0254370
7579.17, 0.0250260
7590.27, 0.0248210
7601.4, 0.0250260
7612.56, 0.0254370
7623.76, 0.0261890
7634.98, 0.0272150
7646.24, 0.0288560
7657.54, 0.0309070
7668.87, 0.0334370
7680.23, 0.0366510
7691.62, 0.0406170
7703.05, 0.0452660
7714.51, 0.0507370
7726.01, 0.0571640
7737.54, 0.0643440
7749.11, 0.0720710
7760.71, 0.0802760
7772.35, 0.0884810
7784.02, 0.0960030
7795.72, 0.102362
7807.46, 0.107012
7819.23, 0.109679
7831.04, 0.110499
7842.89, 0.109679
7854.77, 0.107559
7866.69, 0.104892
7878.65, 0.102294
7890.64, 0.0994900
7902.67, 0.0966190
7914.74, 0.0937470
7926.84, 0.0908750
7938.98, 0.0878660
7951.16, 0.0846520
7963.37, 0.0815070
7975.62, 0.0785670
7987.91, 0.0756950
8000.24, 0.0730960
8012.6, 0.0704980
8025.01, 0.0680360
8037.45, 0.0660530
8049.93, 0.0645490
8062.45, 0.0630450
8075.01, 0.0618140
8087.61, 0.0608570
8100.24, 0.0601730
8112.91, 0.0596260
8125.63, 0.0592840
8138.39, 0.0592160
8151.18, 0.0590790
8164.02, 0.0589420
8176.9, 0.0590790
8189.81, 0.0593520
8202.77, 0.0596260
8215.77, 0.0600360
8228.82, 0.0608570
8241.9, 0.0618820
8255.02, 0.0631130
8268.19, 0.0648910
8281.39, 0.0671470
8294.65, 0.0699510
8307.94, 0.0733020
8321.28, 0.0771990
8334.66, 0.0817120
8348.08, 0.0870460
8361.54, 0.0931310
8375.05, 0.0999690
8388.6, 0.107559
8402.2, 0.115901
8415.84, 0.125201
8429.52, 0.135594
8443.25, 0.147560
8457.02, 0.161578
8470.84, 0.177852
8484.7, 0.196724
8498.61, 0.218605
8512.57, 0.242811
8526.57, 0.267701
8540.62, 0.290950
8554.71, 0.308728
8568.85, 0.318164
8583.04, 0.315429
8597.27, 0.295736
8611.55, 0.259564
8625.88, 0.224007
8640.26, 0.212588
8654.68, 0.227426
8669.16, 0.252111
8683.68, 0.274881
8698.25, 0.292796
8712.87, 0.306471
8727.53, 0.317002
8742.25, 0.325412
8757.02, 0.331840
8771.83, 0.336831
8786.7, 0.340592
8801.62, 0.343601
8816.59, 0.345926
8831.61, 0.348045
8846.68, 0.349823
8861.8, 0.351601
8876.97, 0.352900
8892.2, 0.353994
8907.48, 0.354610
8922.81, 0.355020
8938.2, 0.355088
8953.63, 0.355020
8969.13, 0.353994
8984.67, 0.352353
9000.27, 0.350507
9015.92, 0.348592
9031.63, 0.346336
9047.39, 0.344148
9063.21, 0.341960
9079.08, 0.339703
9095.01, 0.337105
9111.0, 0.334643
9127.04, 0.332182
9143.13, 0.329720
9159.28, 0.326985
9175.49, 0.323976
9191.76, 0.320557
9208.09, 0.316933
9224.47, 0.312967
9240.92, 0.308796
9257.42, 0.303873
9273.98, 0.297856
9290.6, 0.289787
9307.28, 0.277684
9324.02, 0.259359
9340.82, 0.237888
9357.68, 0.218469
9374.6, 0.202878
9391.58, 0.190570
9408.62, 0.180997
9425.73, 0.173612
9442.9, 0.167664
9460.13, 0.162535
9477.42, 0.158159
9494.78, 0.154740
9512.2, 0.151800
9529.69, 0.148791
9547.24, 0.146056
9564.86, 0.143184
9582.54, 0.140175
9600.28, 0.137030
9618.1, 0.133748
9635.97, 0.130124
9653.92, 0.126226
9671.93, 0.122807
9690.01, 0.122876
9708.16, 0.130055
9726.37, 0.137919
9744.65, 0.138398
9763.0, 0.133680
9781.43, 0.130055
9799.92, 0.129235
9818.48, 0.129714
9837.1, 0.130671
9855.8, 0.131628
9874.58, 0.132654
9893.42, 0.132996
9912.34, 0.132517
9931.33, 0.131628
9950.39, 0.131970
9969.52, 0.133132
9988.74, 0.133748
10008.0, 0.133680
10027.4, 0.133611
10046.8, 0.133748
10066.3, 0.133816
10085.9, 0.133611
10105.6, 0.133132
10125.3, 0.132312
10145.1, 0.131491
10165.0, 0.130944
10185.0, 0.130671
10205.0, 0.130808
10225.2, 0.131218
10245.4, 0.131491
10265.7, 0.131697
10286.0, 0.131491
10306.5, 0.131013
10327.0, 0.130397
10347.6, 0.129987
10368.3, 0.129303
10389.1, 0.128346
10409.9, 0.127252
10430.9, 0.126021
10451.9, 0.124722
10473.0, 0.123833
10494.2, 0.122807
10515.5, 0.121440
10536.9, 0.120141
10558.4, 0.118910
10579.9, 0.117816
10601.5, 0.116790
10623.3, 0.116175
10645.1, 0.115559
10667.0, 0.114465
10689.0, 0.113440
10711.1, 0.112551
10733.2, 0.111798
10755.5, 0.110704
10777.9, 0.109405
10800.3, 0.108038
10822.9, 0.106602
10845.5, 0.105303
10868.2, 0.104140
10891.1, 0.102567
10914.0, 0.100926
10937.0, 0.0992850
10960.2, 0.0979860
10983.4, 0.0967550
11006.7, 0.0955240
11030.1, 0.0943620
11053.6, 0.0932680
11077.3, 0.0923110
11101.0, 0.0914900
11124.8, 0.0907380
11148.7, 0.0897120
11172.7, 0.0886180
11196.9, 0.0877290
11221.1, 0.0871820
11245.4, 0.0867720
11269.9, 0.0862930
11294.4, 0.0859510
11319.1, 0.0858830
11343.9, 0.0860200
11368.8, 0.0861570
11393.7, 0.0858150
11418.8, 0.0852680
11444.0, 0.0845160
11469.4, 0.0834900
11494.8, 0.0828060
11520.3, 0.0818490
11546.0, 0.0808230
11571.8, 0.0796610
11597.7, 0.0786350
11623.7, 0.0775410
11649.8, 0.0763790
11676.0, 0.0753530
11702.4, 0.0741220
11728.9, 0.0728910
11755.5, 0.0716600
11782.2, 0.0702930
11809.0, 0.0690620
11836.0, 0.0675580
11863.0, 0.0657800
11890.3, 0.0637290
11917.6, 0.0618820
11945.0, 0.0603100
11972.6, 0.0589420
12000.4, 0.0576430
12028.2, 0.0560700
12056.2, 0.0543610
12084.3, 0.0527200
12112.5, 0.0510790
12140.9, 0.0495060
12169.4, 0.0477960
12198.0, 0.0462240
12226.8, 0.0447880
12255.7, 0.0433520
12284.7, 0.0416420
12313.9, 0.0401380
12343.2, 0.0388390
12372.7, 0.0375400
12402.3, 0.0363090
12432.0, 0.0350780
12461.9, 0.0339160
12491.9, 0.0326160
12522.1, 0.0314540
12552.4, 0.0302230
12582.9, 0.0292660
12613.5, 0.0283770
12644.3, 0.0272150
12675.2, 0.0259150
12706.3, 0.0244790
12737.5, 0.0233170
12768.9, 0.0221550
12800.4, 0.0211970
12832.1, 0.0202400
12863.9, 0.0192830
12895.9, 0.0183940
12928.1, 0.0173000
12960.4, 0.0162740
12992.9, 0.0156590
13025.5, 0.0151800
13058.3, 0.0146330
13091.3, 0.0145650
13124.4, 0.0147700
13157.8, 0.0151120
13191.2, 0.0156590
13224.9, 0.0168210
13258.7, 0.0189410
13292.7, 0.0213340
13326.9, 0.0242060
13361.2, 0.0278300
13395.7, 0.0324110
13430.4, 0.0378820
13465.3, 0.0441040
13500.4, 0.0515570
13535.7, 0.0596940
13571.1, 0.0685830
13606.7, 0.0782930
13642.5, 0.0888920
13678.5, 0.100037
13714.7, 0.111662
13751.1, 0.123833
13787.6, 0.136620
13824.4, 0.149954
13861.4, 0.163766
13898.5, 0.178194
13935.9, 0.192006
13973.5, 0.204519
14011.2, 0.215118
14049.2, 0.223597
14087.4, 0.230708
14125.8, 0.236179
14164.3, 0.240623
14203.2, 0.244726
14242.2, 0.248282
14281.4, 0.251564
14320.9, 0.254025
14360.5, 0.256008
14400.4, 0.257034
14440.5, 0.256418
14480.9, 0.254367
14521.4, 0.251290
14562.2, 0.246093
14603.3, 0.239392
14644.5, 0.231392
14686.0, 0.221956
14727.7, 0.210742
14769.7, 0.198844
14811.9, 0.186468
14854.3, 0.174433
14897.0, 0.163492
14939.9, 0.153646
14983.1, 0.143252
15026.5, 0.131902
15070.2, 0.121098
15114.2, 0.110226
15158.3, 0.0984650
15202.8, 0.0870460
15247.5, 0.0789090
15292.5, 0.0764470
15337.7, 0.0802080
15383.2, 0.0893700
15429.0, 0.105918
15475.1, 0.134295
15521.4, 0.170194
15568.0, 0.201921
15614.9, 0.223870
15662.1, 0.237683
15709.6, 0.246230
15757.3, 0.251700
15805.4, 0.254983
15853.7, 0.257307
15902.3, 0.257923
15951.2, 0.254709
16000.5, 0.246299
16050.0, 0.232076
16099.8, 0.211836
16150.0, 0.188245
16200.5, 0.165270
16251.3, 0.148381
16302.4, 0.145509
16353.8, 0.164792
16405.5, 0.203494
16457.6, 0.246025
16510.0, 0.278300
16562.8, 0.298266
16615.9, 0.308181
16669.3, 0.310848
16723.1, 0.306882
16777.2, 0.297104
16831.7, 0.282334
16886.5, 0.264009
16941.7, 0.244384
16997.2, 0.227631
17053.1, 0.213887
17109.4, 0.203220
17166.1, 0.193852
17223.1, 0.186194
17280.5, 0.179972
17338.3, 0.174228
17396.5, 0.169031
17455.1, 0.164518
17514.0, 0.160621
17573.4, 0.157338
17633.2, 0.154125
17693.4, 0.151184
17754.0, 0.148107
17815.0, 0.145372
17876.4, 0.142090
17938.3, 0.139013
18000.5, 0.137098
18063.3, 0.134363
18126.4, 0.130944
18190.0, 0.128141
18254.1, 0.125337
18318.6, 0.121645
18383.5, 0.118021
18449.0, 0.114534
18514.9, 0.111935
18581.2, 0.110157
18648.0, 0.110499
18715.4, 0.114807
18783.2, 0.121987
18851.5, 0.128346
18920.3, 0.133064
18989.6, 0.136620
19059.4, 0.137509
19129.7, 0.137714
19200.6, 0.136688
19272.0, 0.134090
19343.9, 0.131013
19416.3, 0.127867
19489.3, 0.125064
19562.8, 0.122124
19637.0, 0.118841
19711.6, 0.116790
19786.8, 0.115149
19862.6, 0.113303
19939.0, 0.111388
20016.0, 0.109405
20093.6, 0.107422
20171.8, 0.104414
20250.6, 0.0998320
20330.0, 0.0949770
20410.0, 0.0942940
20490.7, 0.100106
20572.0, 0.107149
20654.0, 0.111388
20736.6, 0.114055
20819.9, 0.115423
20903.8, 0.115559
20988.5, 0.115149
21073.8, 0.113508
21159.8, 0.111525
21246.5, 0.109200
21334.0, 0.107286
21422.1, 0.104824
21511.0, 0.101268
21600.7, 0.0982600
21691.0, 0.0953880
21782.1, 0.0929260
21874.0, 0.0911480
21966.7, 0.0886870
22060.2, 0.0867040
22154.5, 0.0860880
22249.6, 0.0871820
22345.5, 0.0929260
22442.2, 0.102431
22539.8, 0.113576
22638.2, 0.123081
22737.5, 0.129303
22837.7, 0.133406
22938.7, 0.137098
23040.7, 0.138534
23143.5, 0.138671
23247.3, 0.140791
23352.1, 0.142842
23457.7, 0.141475
23564.4, 0.139560
23672.0, 0.136757
23780.5, 0.135731
23890.1, 0.135321
24000.7, 0.130602
24112.3, 0.126910
24225.0, 0.123696
24338.7, 0.119662
24453.5, 0.116243
24569.4, 0.111525
24686.4, 0.106533
24804.5, 0.101610
