Database of Origin, USGS Spectral Database
Sample Description, See USGS database for additional info
Date Added,2016-08-10 05:21:22.377415

Data ID,USGS_ort02          
Sample ID, orthoclase_hs13.17296
Mineral Name, orthoclase
Material Class,Tectosilicate

Wavelength
1602.52, 0.631701
1603.02, 0.632686
1603.51, 0.633672
1604.01, 0.634658
1604.5, 0.634987
1605.0, 0.636082
1605.5, 0.636082
1606.0, 0.636301
1606.49, 0.636849
1606.99, 0.637835
1607.49, 0.638054
1607.99, 0.639259
1608.49, 0.639806
1608.99, 0.640573
1609.49, 0.640573
1609.99, 0.642326
1610.49, 0.642435
1610.99, 0.642873
1611.49, 0.643969
1611.99, 0.645393
1612.49, 0.644626
1612.99, 0.645174
1613.49, 0.644845
1614.0, 0.645393
1614.5, 0.646379
1615.0, 0.647255
1615.51, 0.646926
1616.01, 0.647145
1616.51, 0.647912
1617.02, 0.649993
1617.52, 0.650212
1618.03, 0.650651
1618.53, 0.651527
1619.04, 0.652622
1619.54, 0.653170
1620.05, 0.654265
1620.55, 0.653827
1621.06, 0.653937
1621.57, 0.653718
1622.08, 0.655032
1622.58, 0.656018
1623.09, 0.656894
1623.6, 0.657004
1624.11, 0.657442
1624.62, 0.657004
1625.13, 0.657113
1625.64, 0.657442
1626.15, 0.658975
1626.66, 0.659085
1627.17, 0.660290
1627.68, 0.660838
1628.19, 0.661495
1628.7, 0.661276
1629.21, 0.662042
1629.72, 0.662700
1630.24, 0.664014
1630.75, 0.663685
1631.26, 0.663576
1631.78, 0.664014
1632.29, 0.665109
1632.8, 0.665329
1633.32, 0.665548
1633.83, 0.665219
1634.35, 0.666533
1634.86, 0.667410
1635.38, 0.667957
1635.9, 0.667738
1636.41, 0.667957
1636.93, 0.667629
1637.45, 0.668724
1637.96, 0.669053
1638.48, 0.669600
1639.0, 0.669491
1639.52, 0.670148
1640.04, 0.671024
1640.56, 0.671791
1641.08, 0.671791
1641.59, 0.672887
1642.11, 0.673544
1642.63, 0.673763
1643.16, 0.673544
1643.68, 0.674858
1644.2, 0.675296
1644.72, 0.675515
1645.24, 0.675735
1645.76, 0.676392
1646.29, 0.676611
1646.81, 0.677158
1647.33, 0.677268
1647.86, 0.677925
1648.38, 0.677925
1648.9, 0.678582
1649.43, 0.679240
1649.95, 0.680007
1650.48, 0.680445
1651.0, 0.681102
1651.53, 0.680883
1652.06, 0.681321
1652.58, 0.681321
1653.11, 0.682745
1653.64, 0.683183
1654.17, 0.683293
1654.69, 0.682964
1655.22, 0.683074
1655.75, 0.683402
1656.28, 0.684498
1656.81, 0.684388
1657.34, 0.684388
1657.87, 0.684278
1658.4, 0.685483
1658.93, 0.685812
1659.46, 0.687126
1659.99, 0.687674
1660.52, 0.688441
1661.05, 0.687784
1661.59, 0.688222
1662.12, 0.688222
1662.65, 0.688660
1663.19, 0.689755
1663.72, 0.690413
1664.26, 0.689865
1664.79, 0.690084
1665.32, 0.690193
1665.86, 0.691617
1666.39, 0.692384
1666.93, 0.693261
1667.47, 0.693370
1668.0, 0.693041
1668.54, 0.692713
1669.08, 0.693370
1669.61, 0.693589
1670.15, 0.693918
1670.69, 0.694356
1671.23, 0.694794
1671.77, 0.695232
1672.31, 0.696108
1672.85, 0.696218
1673.39, 0.696766
1673.93, 0.696875
1674.47, 0.697532
1675.01, 0.697642
1675.55, 0.697532
1676.09, 0.696875
1676.64, 0.697423
1677.18, 0.697861
1677.72, 0.698737
1678.26, 0.699285
1678.81, 0.700052
1679.35, 0.700490
1679.89, 0.700819
1680.44, 0.700819
1680.98, 0.701147
1681.53, 0.701038
1682.07, 0.701257
1682.62, 0.700709
1683.17, 0.701804
1683.71, 0.702571
1684.26, 0.702900
1684.81, 0.703447
1685.36, 0.704214
1685.9, 0.703228
1686.45, 0.703447
1687.0, 0.704324
1687.55, 0.705419
1688.1, 0.705529
1688.65, 0.706076
1689.2, 0.705419
1689.75, 0.705091
1690.3, 0.705091
1690.85, 0.705967
1691.41, 0.706186
1691.96, 0.706624
1692.51, 0.706405
1693.06, 0.706843
1693.61, 0.706624
1694.17, 0.707391
1694.72, 0.708158
1695.28, 0.708705
1695.83, 0.708267
1696.39, 0.708815
1696.94, 0.708815
1697.5, 0.709472
1698.05, 0.710020
1698.61, 0.710458
1699.17, 0.710129
1699.72, 0.710567
1700.28, 0.710896
1700.84, 0.710567
1701.4, 0.710129
1701.95, 0.711225
1702.51, 0.711553
1703.07, 0.712649
1703.63, 0.712539
1704.19, 0.712539
1704.75, 0.712868
1705.31, 0.713306
1705.88, 0.713525
1706.44, 0.713744
1707.0, 0.713853
1707.56, 0.714401
1708.12, 0.714511
1708.69, 0.714511
1709.25, 0.714182
1709.81, 0.714839
1710.38, 0.714949
1710.94, 0.715606
1711.51, 0.715606
1712.07, 0.716482
1712.64, 0.717140
1713.2, 0.717140
1713.77, 0.716701
1714.34, 0.717249
1714.9, 0.717359
1715.47, 0.718016
1716.04, 0.718235
1716.61, 0.718673
1717.18, 0.718125
1717.74, 0.718783
1718.31, 0.719111
1718.88, 0.719768
1719.45, 0.719659
1720.02, 0.719768
1720.59, 0.719440
1721.17, 0.719659
1721.74, 0.720097
1722.31, 0.720754
1722.88, 0.720973
1723.45, 0.721302
1724.03, 0.721083
1724.6, 0.721412
1725.18, 0.721083
1725.75, 0.721302
1726.33, 0.721631
1726.9, 0.722726
1727.48, 0.722616
1728.05, 0.723164
1728.63, 0.723383
1729.2, 0.723602
1729.78, 0.723493
1730.36, 0.723931
1730.94, 0.723931
1731.51, 0.724150
1732.09, 0.724259
1732.67, 0.724698
1733.25, 0.724479
1733.83, 0.724698
1734.41, 0.724807
1734.99, 0.725136
1735.57, 0.725355
1736.15, 0.726231
1736.73, 0.726560
1737.32, 0.727107
1737.9, 0.726779
1738.48, 0.727107
1739.07, 0.727217
1739.65, 0.727436
1740.23, 0.726779
1740.82, 0.727327
1741.4, 0.727436
1741.99, 0.727436
1742.57, 0.727655
1743.16, 0.728093
1743.74, 0.728422
1744.33, 0.729079
1744.92, 0.729079
1745.51, 0.729517
1746.09, 0.729189
1746.68, 0.729627
1747.27, 0.730065
1747.86, 0.730722
1748.45, 0.730722
1749.04, 0.730613
1749.63, 0.731051
1750.22, 0.731598
1750.81, 0.731051
1751.4, 0.731270
1751.99, 0.730722
1752.59, 0.731051
1753.18, 0.731927
1753.77, 0.732256
1754.37, 0.731927
1754.96, 0.733022
1755.56, 0.733132
1756.15, 0.733132
1756.74, 0.732475
1757.34, 0.732913
1757.94, 0.732913
1758.53, 0.733570
1759.13, 0.733899
1759.73, 0.733899
1760.32, 0.733570
1760.92, 0.734227
1761.52, 0.734118
1762.12, 0.734337
1762.72, 0.734666
1763.32, 0.734775
1763.92, 0.734775
1764.52, 0.734994
1765.12, 0.734775
1765.72, 0.735323
1766.32, 0.734994
1766.92, 0.735213
1767.53, 0.735323
1768.13, 0.735651
1768.73, 0.735870
1769.34, 0.735980
1769.94, 0.735870
1770.55, 0.736528
1771.15, 0.736089
1771.76, 0.736309
1772.36, 0.736418
1772.97, 0.736856
1773.57, 0.736966
1774.18, 0.737623
1774.79, 0.737623
1775.4, 0.737952
1776.0, 0.738171
1776.61, 0.737952
1777.22, 0.737733
1777.83, 0.737842
1778.44, 0.737513
1779.05, 0.737952
1779.66, 0.737952
1780.27, 0.738390
1780.88, 0.738828
1781.5, 0.739266
1782.11, 0.739266
1782.72, 0.739485
1783.33, 0.739376
1783.95, 0.740361
1784.56, 0.740581
1785.18, 0.740033
1785.79, 0.739376
1786.41, 0.739923
1787.02, 0.740142
1787.64, 0.740471
1788.26, 0.740581
1788.87, 0.740800
1789.49, 0.740690
1790.11, 0.740909
1790.73, 0.740471
1791.35, 0.740800
1791.96, 0.740800
1792.58, 0.741347
1793.21, 0.741785
1793.83, 0.741895
1794.45, 0.741566
1795.07, 0.741895
1795.69, 0.742333
1796.31, 0.742771
1796.93, 0.742771
1797.56, 0.742881
1798.18, 0.742443
1798.8, 0.742443
1799.43, 0.742881
1800.05, 0.743648
1800.68, 0.743976
1801.3, 0.743867
1801.93, 0.743209
1802.56, 0.743319
1803.18, 0.743648
1803.81, 0.744524
1804.44, 0.744524
1805.07, 0.744743
1805.7, 0.744743
1806.33, 0.744743
1806.95, 0.744414
1807.58, 0.744633
1808.22, 0.744743
1808.85, 0.745181
1809.48, 0.745400
1810.11, 0.745838
1810.74, 0.745729
1811.38, 0.745729
1812.01, 0.745948
1812.64, 0.746605
1813.28, 0.746386
1813.91, 0.746495
1814.55, 0.746276
1815.18, 0.746934
1815.82, 0.747043
1816.45, 0.747372
1817.09, 0.747591
1817.73, 0.747810
1818.36, 0.747372
1819.0, 0.747481
1819.64, 0.747810
1820.28, 0.748358
1820.92, 0.748358
1821.56, 0.748905
1822.2, 0.748686
1822.84, 0.749015
1823.48, 0.749234
1824.12, 0.749344
1824.76, 0.748905
1825.41, 0.749563
1826.05, 0.749782
1826.69, 0.749563
1827.34, 0.749015
1827.98, 0.749453
1828.63, 0.749672
1829.27, 0.750329
1829.92, 0.750220
1830.56, 0.750548
1831.21, 0.750439
1831.86, 0.750329
1832.5, 0.750548
1833.15, 0.750767
1833.8, 0.750548
1834.45, 0.751644
1835.1, 0.751425
1835.75, 0.751753
1836.4, 0.751534
1837.05, 0.751644
1837.7, 0.751753
1838.35, 0.751315
1839.01, 0.751534
1839.66, 0.752520
1840.31, 0.751863
1840.96, 0.751644
1841.62, 0.752301
1842.27, 0.752191
1842.93, 0.751315
1843.58, 0.751972
1844.24, 0.752191
1844.9, 0.752191
1845.55, 0.752191
1846.21, 0.753287
1846.87, 0.754273
1847.53, 0.753944
1848.18, 0.753287
1848.84, 0.752849
1849.5, 0.752849
1850.16, 0.752630
1850.82, 0.751753
1851.48, 0.752301
1852.14, 0.753068
1852.81, 0.753835
1853.47, 0.753725
1854.13, 0.753396
1854.8, 0.752849
1855.46, 0.753177
1856.12, 0.753287
1856.79, 0.753506
1857.45, 0.753068
1858.12, 0.752849
1858.79, 0.753177
1859.45, 0.754492
1860.12, 0.754273
1860.79, 0.753615
1861.46, 0.753177
1862.12, 0.753287
1862.79, 0.753396
1863.46, 0.753506
1864.13, 0.753177
1864.8, 0.753068
1865.48, 0.752739
1866.15, 0.752849
1866.82, 0.753068
1867.49, 0.753835
1868.16, 0.753506
1868.84, 0.753068
1869.51, 0.752958
1870.19, 0.753177
1870.86, 0.753615
1871.54, 0.753068
1872.21, 0.752520
1872.89, 0.753177
1873.56, 0.752301
1874.24, 0.751753
1874.92, 0.751644
1875.6, 0.751096
1876.28, 0.751206
1876.96, 0.751972
1877.64, 0.750658
1878.32, 0.749891
1879.0, 0.749672
1879.68, 0.749782
1880.36, 0.749563
1881.04, 0.749124
1881.73, 0.748686
1882.41, 0.748467
1883.09, 0.748686
1883.78, 0.748905
1884.46, 0.747919
1885.15, 0.747372
1885.83, 0.747043
1886.52, 0.746934
1887.21, 0.746167
1887.89, 0.745510
1888.58, 0.744962
1889.27, 0.744743
1889.96, 0.744633
1890.65, 0.744086
1891.34, 0.743319
1892.03, 0.743319
1892.72, 0.742771
1893.41, 0.742333
1894.1, 0.741785
1894.79, 0.741019
1895.49, 0.740142
1896.18, 0.739814
1896.87, 0.739376
1897.57, 0.739376
1898.26, 0.738609
1898.96, 0.738609
1899.65, 0.737952
1900.35, 0.736966
1901.05, 0.736089
1901.74, 0.736089
1902.44, 0.736528
1903.14, 0.736199
1903.84, 0.735323
1904.54, 0.735761
1905.24, 0.735651
1905.94, 0.734885
1906.64, 0.734227
1907.34, 0.733899
1908.04, 0.734008
1908.75, 0.734227
1909.45, 0.733461
1910.15, 0.733680
1910.86, 0.733789
1911.56, 0.733241
1912.27, 0.732694
1912.97, 0.733461
1913.68, 0.733351
1914.39, 0.732913
1915.09, 0.732475
1915.8, 0.732365
1916.51, 0.732584
1917.22, 0.733132
1917.93, 0.732694
1918.64, 0.732365
1919.35, 0.732584
1920.06, 0.733351
1920.77, 0.733351
1921.48, 0.732913
1922.19, 0.732256
1922.91, 0.732584
1923.62, 0.732584
1924.33, 0.732694
1925.05, 0.732584
1925.76, 0.733132
1926.48, 0.732913
1927.19, 0.732803
1927.91, 0.732475
1928.63, 0.732803
1929.35, 0.732584
1930.07, 0.732913
1930.78, 0.733022
1931.5, 0.733241
1932.22, 0.733132
1932.94, 0.733351
1933.66, 0.732913
1934.39, 0.733241
1935.11, 0.733241
1935.83, 0.733461
1936.55, 0.733132
1937.28, 0.733570
1938.0, 0.733789
1938.73, 0.734227
1939.45, 0.734227
1940.18, 0.734227
1940.9, 0.734118
1941.63, 0.734446
1942.36, 0.734227
1943.09, 0.734337
1943.81, 0.734446
1944.54, 0.735104
1945.27, 0.735323
1946.0, 0.735542
1946.73, 0.735432
1947.47, 0.735104
1948.2, 0.734994
1948.93, 0.735323
1949.66, 0.735542
1950.4, 0.736089
1951.13, 0.736089
1951.86, 0.736199
1952.6, 0.736309
1953.34, 0.736747
1954.07, 0.736747
1954.81, 0.737075
1955.55, 0.736856
1956.29, 0.736966
1957.02, 0.736856
1957.76, 0.737185
1958.5, 0.737185
1959.24, 0.737404
1959.98, 0.737294
1960.72, 0.737623
1961.47, 0.737733
1962.21, 0.737952
1962.95, 0.737952
1963.7, 0.737842
1964.44, 0.737733
1965.18, 0.737842
1965.93, 0.738061
1966.67, 0.738061
1967.42, 0.737623
1968.17, 0.738171
1968.92, 0.738171
1969.66, 0.738718
1970.41, 0.738718
1971.16, 0.738718
1971.91, 0.738390
1972.66, 0.738828
1973.41, 0.738828
1974.16, 0.738937
1974.92, 0.739156
1975.67, 0.739376
1976.42, 0.739156
1977.18, 0.739266
1977.93, 0.739156
1978.69, 0.739485
1979.44, 0.739376
1980.2, 0.739485
1980.95, 0.739814
1981.71, 0.740142
1982.47, 0.740142
1983.23, 0.740142
1983.99, 0.739923
1984.74, 0.740252
1985.51, 0.739923
1986.27, 0.739485
1987.03, 0.739266
1987.79, 0.740033
1988.55, 0.740033
1989.32, 0.739814
1990.08, 0.739485
1990.84, 0.739485
1991.61, 0.739156
1992.37, 0.739047
1993.14, 0.738828
1993.9, 0.739266
1994.67, 0.738937
1995.44, 0.738828
1996.21, 0.738390
1996.98, 0.738390
1997.75, 0.738390
1998.52, 0.738061
1999.29, 0.737733
2000.06, 0.737842
2000.83, 0.737842
2001.6, 0.737842
2002.38, 0.737623
2003.15, 0.737952
2003.93, 0.738061
2004.7, 0.738390
2005.48, 0.738609
2006.25, 0.739047
2007.03, 0.739047
2007.81, 0.739156
2008.58, 0.739047
2009.36, 0.739595
2010.14, 0.739704
2010.92, 0.740252
2011.7, 0.740142
2012.48, 0.740471
2013.26, 0.740690
2014.05, 0.741019
2014.83, 0.741019
2015.61, 0.741238
2016.4, 0.741347
2017.18, 0.742005
2017.97, 0.741895
2018.75, 0.741895
2019.54, 0.742005
2020.32, 0.742333
2021.11, 0.742114
2021.9, 0.742114
2022.69, 0.741785
2023.48, 0.742224
2024.27, 0.742662
2025.06, 0.742990
2025.85, 0.742881
2026.64, 0.742881
2027.44, 0.742552
2028.23, 0.742662
2029.02, 0.742662
2029.82, 0.742990
2030.61, 0.742990
2031.41, 0.742990
2032.2, 0.743100
2033.0, 0.743538
2033.8, 0.743428
2034.6, 0.743538
2035.4, 0.743648
2036.2, 0.744195
2037.0, 0.743757
2037.8, 0.743428
2038.6, 0.743319
2039.4, 0.743648
2040.2, 0.743538
2041.01, 0.743538
2041.81, 0.743648
2042.61, 0.743867
2043.42, 0.743757
2044.22, 0.743976
2045.03, 0.744086
2045.84, 0.743976
2046.65, 0.743867
2047.46, 0.743976
2048.26, 0.743976
2049.07, 0.744086
2049.88, 0.743648
2050.69, 0.743319
2051.51, 0.743100
2052.32, 0.743648
2053.13, 0.743867
2053.94, 0.743976
2054.76, 0.743648
2055.57, 0.743976
2056.39, 0.744086
2057.2, 0.744305
2058.02, 0.743757
2058.84, 0.743976
2059.66, 0.743867
2060.48, 0.743648
2061.29, 0.743428
2062.11, 0.743867
2062.94, 0.743538
2063.76, 0.743867
2064.58, 0.743867
2065.4, 0.743538
2066.22, 0.742990
2067.05, 0.743100
2067.87, 0.743209
2068.7, 0.743209
2069.52, 0.743319
2070.35, 0.743648
2071.18, 0.743100
2072.0, 0.743100
2072.83, 0.742990
2073.66, 0.743100
2074.49, 0.742881
2075.32, 0.742881
2076.15, 0.742552
2076.98, 0.742771
2077.82, 0.742443
2078.65, 0.742224
2079.48, 0.741676
2080.32, 0.741347
2081.15, 0.741128
2081.99, 0.741347
2082.83, 0.741457
2083.66, 0.741347
2084.5, 0.740800
2085.34, 0.740471
2086.18, 0.740142
2087.02, 0.739814
2087.86, 0.739485
2088.7, 0.739814
2089.54, 0.739047
2090.39, 0.738718
2091.23, 0.738280
2092.07, 0.737952
2092.92, 0.737404
2093.76, 0.737294
2094.61, 0.736856
2095.45, 0.736637
2096.3, 0.736199
2097.15, 0.736199
2098.0, 0.735761
2098.85, 0.735323
2099.7, 0.735213
2100.55, 0.735870
2101.4, 0.735323
2102.25, 0.735542
2103.1, 0.735432
2103.96, 0.735213
2104.81, 0.735323
2105.67, 0.735761
2106.52, 0.735870
2107.38, 0.736089
2108.24, 0.735761
2109.09, 0.735761
2109.95, 0.735761
2110.81, 0.735980
2111.67, 0.735980
2112.53, 0.736309
2113.39, 0.736528
2114.25, 0.736966
2115.12, 0.736747
2115.98, 0.736966
2116.84, 0.736966
2117.71, 0.736966
2118.58, 0.737404
2119.44, 0.737842
2120.31, 0.737623
2121.18, 0.738280
2122.04, 0.738280
2122.91, 0.738609
2123.78, 0.738609
2124.65, 0.738609
2125.52, 0.738499
2126.4, 0.739156
2127.27, 0.739156
2128.14, 0.739156
2129.02, 0.739156
2129.89, 0.739704
2130.77, 0.739485
2131.64, 0.739485
2132.52, 0.739376
2133.4, 0.739814
2134.27, 0.739923
2135.15, 0.740252
2136.03, 0.740252
2136.91, 0.740471
2137.79, 0.740252
2138.68, 0.740361
2139.56, 0.740690
2140.44, 0.740909
2141.33, 0.740581
2142.21, 0.740581
2143.1, 0.740252
2143.99, 0.740471
2144.87, 0.740581
2145.76, 0.740581
2146.65, 0.740581
2147.54, 0.740800
2148.43, 0.740581
2149.32, 0.740800
2150.21, 0.740800
2151.1, 0.740690
2151.99, 0.740581
2152.89, 0.740690
2153.78, 0.740471
2154.68, 0.740361
2155.57, 0.740361
2156.47, 0.740800
2157.37, 0.740909
2158.27, 0.740800
2159.16, 0.740471
2160.06, 0.740800
2160.96, 0.740690
2161.86, 0.740471
2162.77, 0.740252
2163.67, 0.740690
2164.57, 0.740581
2165.48, 0.740581
2166.38, 0.740361
2167.29, 0.740252
2168.2, 0.740033
2169.1, 0.740142
2170.01, 0.739923
2170.92, 0.740361
2171.83, 0.740252
2172.74, 0.740252
2173.65, 0.739485
2174.56, 0.739266
2175.47, 0.739156
2176.39, 0.739156
2177.3, 0.738937
2178.22, 0.738718
2179.13, 0.738390
2180.05, 0.738171
2180.96, 0.737623
2181.88, 0.737404
2182.8, 0.736966
2183.72, 0.736747
2184.64, 0.736199
2185.56, 0.735980
2186.48, 0.735432
2187.41, 0.735213
2188.33, 0.734666
2189.25, 0.734118
2190.18, 0.733461
2191.1, 0.733241
2192.03, 0.733022
2192.96, 0.732913
2193.89, 0.732365
2194.82, 0.731927
2195.74, 0.731708
2196.68, 0.731708
2197.61, 0.731270
2198.54, 0.731598
2199.47, 0.731489
2200.4, 0.731598
2201.34, 0.731818
2202.28, 0.731818
2203.21, 0.731489
2204.15, 0.731708
2205.08, 0.731708
2206.02, 0.731927
2206.96, 0.732037
2207.9, 0.732913
2208.84, 0.733351
2209.78, 0.733680
2210.73, 0.734556
2211.67, 0.735761
2212.61, 0.736528
2213.56, 0.737623
2214.5, 0.738718
2215.45, 0.739814
2216.4, 0.740142
2217.35, 0.741128
2218.3, 0.741566
2219.24, 0.742443
2220.2, 0.743100
2221.15, 0.743867
2222.1, 0.744524
2223.05, 0.745510
2224.0, 0.746057
2224.96, 0.746605
2225.91, 0.746824
2226.87, 0.747372
2227.83, 0.747591
2228.79, 0.748248
2229.74, 0.748796
2230.7, 0.749453
2231.66, 0.749672
2232.63, 0.750110
2233.59, 0.750220
2234.55, 0.750986
2235.51, 0.751096
2236.48, 0.751315
2237.44, 0.751753
2238.41, 0.751972
2239.38, 0.752082
2240.34, 0.752630
2241.31, 0.752739
2242.28, 0.753396
2243.25, 0.753506
2244.22, 0.753944
2245.19, 0.754163
2246.17, 0.754492
2247.14, 0.754492
2248.12, 0.755039
2249.09, 0.755149
2250.07, 0.755368
2251.04, 0.755916
2252.02, 0.756406
2253.0, 0.756897
2253.98, 0.757191
2254.96, 0.756995
2255.94, 0.757485
2256.92, 0.757289
2257.91, 0.757289
2258.89, 0.757289
2259.88, 0.757779
2260.86, 0.757878
2261.85, 0.758270
2262.83, 0.758760
2263.82, 0.759447
2264.81, 0.759349
2265.8, 0.759055
2266.79, 0.758957
2267.78, 0.759349
2268.78, 0.758859
2269.77, 0.759055
2270.76, 0.759251
2271.76, 0.759251
2272.75, 0.759643
2273.75, 0.760232
2274.75, 0.759741
2275.75, 0.759447
2276.75, 0.759447
2277.75, 0.759447
2278.75, 0.759447
2279.75, 0.760134
2280.75, 0.759349
2281.76, 0.758662
2282.76, 0.758957
2283.77, 0.759349
2284.77, 0.758859
2285.78, 0.759055
2286.79, 0.758859
2287.8, 0.759055
2288.81, 0.758859
2289.82, 0.758859
2290.83, 0.758662
2291.84, 0.758270
2292.86, 0.757583
2293.87, 0.757485
2294.89, 0.757289
2295.91, 0.757289
2296.92, 0.757387
2297.94, 0.757093
2298.96, 0.756308
2299.98, 0.756308
2301.0, 0.756112
2302.02, 0.755719
2303.04, 0.755523
2304.07, 0.755425
2305.09, 0.754935
2306.12, 0.754052
2307.15, 0.753659
2308.17, 0.753758
2309.2, 0.753267
2310.23, 0.753365
2311.26, 0.752875
2312.29, 0.752286
2313.32, 0.751796
2314.35, 0.751992
2315.39, 0.751305
2316.42, 0.750913
2317.46, 0.750815
2318.5, 0.750422
2319.53, 0.749834
2320.57, 0.749638
2321.61, 0.749147
2322.65, 0.748362
2323.69, 0.747774
2324.73, 0.747676
2325.78, 0.747185
2326.82, 0.746989
2327.86, 0.746597
2328.91, 0.746008
2329.96, 0.745518
2331.01, 0.745420
2332.05, 0.744831
2333.1, 0.744242
2334.15, 0.744046
2335.21, 0.744144
2336.26, 0.743654
2337.31, 0.743261
2338.36, 0.742869
2339.42, 0.742575
2340.48, 0.742182
2341.53, 0.742477
2342.59, 0.742084
2343.65, 0.741398
2344.71, 0.740711
2345.77, 0.740515
2346.83, 0.740221
2347.9, 0.739730
2348.96, 0.739730
2350.02, 0.740122
2351.09, 0.739926
2352.16, 0.740613
2353.23, 0.740417
2354.29, 0.739730
2355.36, 0.740221
2356.43, 0.740711
2357.51, 0.740122
2358.58, 0.740417
2359.65, 0.740809
2360.73, 0.741103
2361.8, 0.740907
2362.88, 0.741005
2363.96, 0.740613
2365.03, 0.740809
2366.11, 0.740809
2367.19, 0.740613
2368.27, 0.740221
2369.36, 0.740515
2370.44, 0.740809
2371.53, 0.741005
2372.61, 0.740907
2373.7, 0.741005
2374.78, 0.740809
2375.87, 0.740809
2376.96, 0.740221
2378.05, 0.740319
2379.14, 0.740319
2380.24, 0.740319
2381.33, 0.740122
2382.42, 0.740319
2383.52, 0.740515
2384.61, 0.741005
2385.71, 0.740711
2386.81, 0.740515
2387.91, 0.740417
2389.01, 0.739926
2390.11, 0.740024
2391.22, 0.740515
2392.32, 0.740221
2393.42, 0.740221
2394.53, 0.740122
2395.64, 0.740711
2396.74, 0.740613
2397.85, 0.740221
2398.96, 0.740024
2400.07, 0.740417
2401.18, 0.740024
2402.3, 0.740319
2403.41, 0.740319
2404.52, 0.740319
2405.64, 0.740122
2406.76, 0.740024
2407.88, 0.739338
2408.99, 0.738651
2410.11, 0.738357
2411.23, 0.738553
2412.36, 0.738161
2413.48, 0.737670
2414.6, 0.737278
2415.73, 0.737180
2416.85, 0.736885
2417.98, 0.736199
2419.11, 0.734923
2420.24, 0.734531
2421.37, 0.734433
2422.5, 0.734825
2423.64, 0.734531
2424.77, 0.734335
2425.9, 0.733550
2427.04, 0.733256
2428.18, 0.732863
2429.31, 0.732569
2430.45, 0.732373
2431.59, 0.731981
2432.73, 0.730607
2433.88, 0.729823
2435.02, 0.729528
2436.16, 0.729921
2437.31, 0.729921
2438.45, 0.729528
2439.6, 0.728940
2440.75, 0.728940
2441.9, 0.728449
2443.05, 0.728155
2444.2, 0.727664
2445.35, 0.727468
2446.51, 0.727370
2447.67, 0.727174
2448.82, 0.726880
2449.98, 0.726978
2451.14, 0.726880
2452.3, 0.726585
2453.46, 0.726095
2454.62, 0.726291
2455.78, 0.726095
2456.94, 0.725703
2458.11, 0.725506
2459.28, 0.725212
2460.44, 0.725310
2461.61, 0.725310
2462.78, 0.724820
2463.95, 0.724525
2465.12, 0.723937
2466.3, 0.723741
2467.47, 0.723741
2468.65, 0.723937
2469.82, 0.723544
2471.0, 0.723544
2472.18, 0.723348
2473.36, 0.723054
2474.54, 0.722662
2475.72, 0.722367
2476.9, 0.721877
2478.08, 0.721877
2479.27, 0.721583
2480.46, 0.721681
2481.64, 0.721386
2482.83, 0.720896
2484.02, 0.720602
2485.21, 0.720504
2486.4, 0.720405
2487.6, 0.720405
2488.79, 0.720307
2489.99, 0.719915
2491.18, 0.719326
2492.38, 0.719326
2493.58, 0.719032
2494.78, 0.718738
2495.98, 0.718345
2497.18, 0.718149
2498.39, 0.718444
2499.59, 0.718640
2500.8, 0.718345
2502.01, 0.718444
2503.21, 0.718444
2504.42, 0.718345
2505.63, 0.718051
2506.84, 0.717855
2508.06, 0.717757
2509.27, 0.718149
2510.49, 0.717953
2511.7, 0.717855
2512.92, 0.717659
2514.14, 0.717561
2515.36, 0.717463
2516.58, 0.717659
2517.8, 0.717266
2519.03, 0.717659
2520.25, 0.717659
2521.48, 0.717561
2522.7, 0.717855
2523.93, 0.718149
2525.16, 0.717757
2526.39, 0.717953
2527.62, 0.718247
2528.86, 0.718247
2530.09, 0.718640
2531.33, 0.719523
2532.56, 0.719621
2533.8, 0.719326
2535.04, 0.719719
2536.28, 0.719719
2537.52, 0.718444
2538.76, 0.718640
2540.01, 0.718542
2541.25, 0.719719
2542.5, 0.721092
2543.75, 0.720307
2544.99, 0.718836
2546.24, 0.719326
2547.49, 0.720405
2548.75, 0.719915
2550.0, 0.720307
2551.26, 0.721583
2552.51, 0.721877
2553.77, 0.719817
2555.03, 0.718247
2556.29, 0.718247
2557.55, 0.717953
2558.81, 0.719523
2560.08, 0.723152
2561.34, 0.725604
2562.61, 0.724820
2563.88, 0.724035
2565.14, 0.720307
2566.41, 0.717070
2567.68, 0.718051
2568.96, 0.721386
2570.23, 0.719621
2571.51, 0.717561
2572.78, 0.722564
2574.06, 0.720602
2575.34, 0.718345
2576.62, 0.720013
2577.9, 0.716874
2579.18, 0.715599
2580.47, 0.718444
2581.75, 0.718247
2583.04, 0.722465
2584.32, 0.721092
2585.61, 0.716580
2586.9, 0.719032
2588.2, 0.717561
2589.49, 0.715403
2590.78, 0.713048
2592.08, 0.714814
2593.37, 0.727174
2594.67, 0.736591
2595.97, 0.722760
2597.27, 0.712264
2598.57, 0.709026
2599.88, 0.709615
2601.18, 0.710988
2602.49, 0.711969
2603.79, 0.715108
2605.1, 0.719032
2606.41, 0.714324
2607.72, 0.710106
2609.03, 0.709026
2610.35, 0.706966
2611.66, 0.705299
2612.98, 0.705691
2614.3, 0.704514
2615.62, 0.710498
2616.94, 0.712362
2618.26, 0.706672
2619.58, 0.710400
2620.91, 0.708046
2622.23, 0.699806
2623.56, 0.698628
2624.89, 0.701375
2626.22, 0.706378
2627.55, 0.701669
2628.88, 0.703533
2630.21, 0.708046
2631.55, 0.700787
2632.89, 0.697844
2634.22, 0.697059
2635.56, 0.693037
2636.9, 0.692252
2638.25, 0.691173
2639.59, 0.690487
2640.93, 0.690094
2642.28, 0.689898
2643.63, 0.688623
2644.98, 0.689996
2646.33, 0.688132
2647.68, 0.685582
2649.03, 0.683816
2650.39, 0.684111
2651.74, 0.686269
2653.1, 0.684601
2654.46, 0.682149
2655.82, 0.681070
2657.18, 0.677146
2658.54, 0.678421
2659.9, 0.677931
2661.27, 0.675282
2662.64, 0.673222
2664.01, 0.679598
2665.38, 0.683326
2666.74, 0.679402
2668.12, 0.671358
2669.49, 0.677734
2670.87, 0.673614
2672.24, 0.658704
2673.62, 0.654878
2675.0, 0.656742
2676.38, 0.657821
2677.76, 0.652524
2679.15, 0.646933
2680.54, 0.637516
2681.92, 0.632219
2683.31, 0.628687
2684.7, 0.622605
2686.09, 0.616523
2687.48, 0.607891
2688.88, 0.598278
2690.27, 0.587782
2691.67, 0.579640
2693.07, 0.573558
2694.47, 0.561983
2695.87, 0.546386
2697.27, 0.531672
2698.67, 0.519606
2700.08, 0.511072
2701.49, 0.502047
2702.9, 0.492434
2704.31, 0.486745
2705.72, 0.483802
2707.13, 0.483311
2708.54, 0.485960
2709.96, 0.489295
2711.38, 0.487824
2712.8, 0.480761
2714.22, 0.477229
2715.64, 0.473698
2717.06, 0.470657
2718.49, 0.468008
2719.91, 0.467126
2721.34, 0.456728
2722.77, 0.448390
2724.2, 0.444172
2725.63, 0.434068
2727.07, 0.424356
2728.5, 0.417882
2729.94, 0.411997
2731.38, 0.406699
2732.82, 0.402580
2734.26, 0.400127
2735.7, 0.394438
2737.15, 0.390122
2738.59, 0.390122
2740.04, 0.387865
2741.49, 0.380606
2742.94, 0.373347
2744.39, 0.368148
2745.84, 0.364225
2747.3, 0.360497
2748.76, 0.356868
2750.21, 0.352944
2751.67, 0.349216
2753.14, 0.346273
2754.6, 0.346175
2756.06, 0.340878
2757.53, 0.333815
2759.0, 0.329793
2760.46, 0.328126
2761.94, 0.329107
2763.41, 0.330088
2764.88, 0.329990
2766.36, 0.331461
2767.83, 0.332344
2769.31, 0.332442
2770.79, 0.332638
2772.27, 0.331265
2773.76, 0.329695
2775.24, 0.328911
2776.73, 0.328616
2778.22, 0.328126
2779.71, 0.327439
2781.2, 0.327537
2782.69, 0.326654
2784.18, 0.325575
2785.68, 0.326458
2787.18, 0.326851
2788.68, 0.324791
2790.18, 0.322829
2791.68, 0.321750
2793.19, 0.321063
2794.69, 0.320082
2796.2, 0.319003
2797.71, 0.317728
2799.22, 0.316355
2800.73, 0.315570
2802.24, 0.316355
2803.76, 0.314981
2805.28, 0.311940
2806.8, 0.309684
2808.32, 0.308311
2809.84, 0.306839
2811.36, 0.305368
2812.89, 0.303897
2814.42, 0.302719
2815.94, 0.300659
2817.48, 0.299188
2819.01, 0.298207
2820.54, 0.296932
2822.08, 0.295166
2823.61, 0.293499
2825.15, 0.291929
2826.69, 0.290752
2828.23, 0.289379
2829.78, 0.288103
2831.32, 0.286828
2832.87, 0.285259
2834.42, 0.283983
2835.97, 0.282904
2837.52, 0.281825
2839.08, 0.280648
2840.63, 0.279177
2842.19, 0.277902
2843.75, 0.276430
2845.31, 0.275155
2846.87, 0.273978
2848.44, 0.272899
2850.0, 0.271623
2851.57, 0.270544
2853.14, 0.269563
2854.71, 0.268779
2856.28, 0.267602
2857.86, 0.266621
2859.43, 0.265444
2861.01, 0.264266
2862.59, 0.263384
2864.17, 0.262403
2865.76, 0.261225
2867.34, 0.260146
2868.93, 0.259165
2870.52, 0.258479
2872.11, 0.257596
2873.7, 0.256615
2875.29, 0.255830
2876.89, 0.255144
2878.49, 0.254065
2880.08, 0.253280
2881.69, 0.252397
2883.29, 0.251612
2884.89, 0.250631
2886.5, 0.250141
2888.11, 0.249650
2889.72, 0.249160
2891.33, 0.247787
2892.94, 0.247100
2894.56, 0.246904
2896.17, 0.246217
2897.79, 0.245334
2899.42, 0.245040
2901.04, 0.244844
2902.66, 0.244255
2904.29, 0.243372
2905.92, 0.242686
2907.55, 0.241901
2909.18, 0.241508
2910.81, 0.241018
2912.45, 0.240724
2914.08, 0.240233
2915.72, 0.239939
2917.36, 0.239547
2919.01, 0.239056
2920.65, 0.238664
2922.3, 0.238271
2923.94, 0.237683
2925.59, 0.237290
2927.25, 0.236996
2928.9, 0.236702
2930.56, 0.236211
2932.21, 0.235819
2933.87, 0.235329
2935.53, 0.234838
2937.2, 0.234544
2938.86, 0.234544
2940.53, 0.233661
2942.2, 0.233170
2943.87, 0.232778
2945.54, 0.232484
2947.22, 0.232091
2948.89, 0.231895
2950.57, 0.231209
2952.25, 0.230816
2953.93, 0.230228
2955.62, 0.229639
2957.3, 0.229050
2958.99, 0.228560
2960.68, 0.227873
2962.37, 0.227089
2964.07, 0.226304
2965.76, 0.225617
2967.46, 0.224734
2969.16, 0.223753
2970.86, 0.222772
2972.56, 0.221988
2974.27, 0.220516
2975.98, 0.219045
2977.69, 0.217672
2979.4, 0.216200
2981.11, 0.214533
2982.83, 0.212767
2984.54, 0.210609
2986.26, 0.208647
2987.98, 0.206096
2989.71, 0.203546
2991.43, 0.201192
2993.16, 0.199034
2994.89, 0.196287
2996.62, 0.193736
2998.35, 0.191480
3000.09, 0.189224
3001.83, 0.187360
3003.57, 0.186085
3005.31, 0.185202
3007.05, 0.184614
3008.79, 0.184123
3010.54, 0.184418
3012.29, 0.185104
3014.04, 0.185595
3015.8, 0.186085
3017.55, 0.186870
3019.31, 0.187360
3021.07, 0.187753
3022.83, 0.188341
3024.59, 0.188930
3026.36, 0.189224
3028.13, 0.189322
3029.9, 0.189420
3031.67, 0.189715
3033.44, 0.189518
3035.22, 0.189322
3037.0, 0.189028
3038.78, 0.188930
3040.56, 0.188537
3042.34, 0.188145
3044.13, 0.187655
3045.92, 0.187557
3047.71, 0.187262
3049.5, 0.186772
3051.3, 0.186085
3053.09, 0.185693
3054.89, 0.185398
3056.69, 0.185300
3058.5, 0.185006
3060.3, 0.184908
3062.11, 0.184810
3063.92, 0.184614
3065.73, 0.184418
3067.55, 0.184712
3069.36, 0.184810
3071.18, 0.185202
3073.0, 0.185300
3074.82, 0.185006
3076.65, 0.184516
3078.48, 0.184614
3080.31, 0.185006
3082.14, 0.185300
3083.97, 0.185006
3085.8, 0.184908
3087.64, 0.184908
3089.48, 0.184908
3091.33, 0.185006
3093.17, 0.185202
3095.02, 0.185398
3096.87, 0.185300
3098.72, 0.185300
3100.57, 0.185693
3102.43, 0.185987
3104.28, 0.186085
3106.14, 0.186183
3108.01, 0.186772
3109.87, 0.187360
3111.74, 0.187949
3113.61, 0.188439
3115.48, 0.189126
3117.35, 0.189813
3119.23, 0.190499
3121.1, 0.191382
3122.98, 0.192461
3124.87, 0.193148
3126.75, 0.194129
3128.64, 0.195012
3130.53, 0.195993
3132.42, 0.196974
3134.31, 0.198151
3136.21, 0.199328
3138.11, 0.200701
3140.01, 0.201976
3141.91, 0.203055
3143.82, 0.204331
3145.73, 0.205802
3147.64, 0.207274
3149.55, 0.208843
3151.46, 0.210413
3153.38, 0.211982
3155.3, 0.213355
3157.22, 0.215121
3159.14, 0.216789
3161.07, 0.218554
3163.0, 0.220418
3164.93, 0.222282
3166.86, 0.224048
3168.8, 0.226010
3170.74, 0.227775
3172.68, 0.229639
3174.62, 0.231503
3176.56, 0.233563
3178.51, 0.235132
3180.46, 0.237192
3182.42, 0.239252
3184.37, 0.241214
3186.33, 0.242980
3188.29, 0.244648
3190.25, 0.246217
3192.21, 0.247688
3194.18, 0.249160
3196.15, 0.250533
3198.12, 0.251710
3200.09, 0.252986
3202.07, 0.253868
3204.05, 0.254751
3206.03, 0.255242
3208.02, 0.255830
3210.0, 0.256321
3211.99, 0.256713
3213.98, 0.256909
3215.98, 0.257302
3217.97, 0.257498
3219.97, 0.257498
3221.97, 0.257694
3223.98, 0.258185
3225.98, 0.258283
3227.99, 0.258773
3230.0, 0.259264
3232.02, 0.259656
3234.03, 0.260048
3236.05, 0.260539
3238.07, 0.260931
3240.1, 0.261324
3242.12, 0.261618
3244.15, 0.261814
3246.18, 0.261716
3248.22, 0.261520
3250.25, 0.261127
3252.29, 0.261127
3254.33, 0.261127
3256.38, 0.261324
3258.43, 0.261520
3260.47, 0.261912
3262.53, 0.262403
3264.58, 0.263285
3266.64, 0.264561
3268.7, 0.266228
3270.76, 0.267896
3272.82, 0.269956
3274.89, 0.271820
3276.96, 0.274174
3279.04, 0.276528
3281.11, 0.279177
3283.19, 0.281727
3285.27, 0.284278
3287.35, 0.286926
3289.44, 0.289967
3291.53, 0.292910
3293.62, 0.295853
3295.71, 0.298698
3297.81, 0.301935
3299.91, 0.304779
3302.01, 0.307624
3304.11, 0.310567
3306.22, 0.313608
3308.33, 0.316453
3310.44, 0.319494
3312.56, 0.322240
3314.68, 0.325281
3316.8, 0.328126
3318.92, 0.330873
3321.05, 0.333423
3323.18, 0.336464
3325.31, 0.339211
3327.44, 0.341957
3329.58, 0.344508
3331.72, 0.347254
3333.86, 0.349903
3336.01, 0.352748
3338.16, 0.355494
3340.31, 0.358241
3342.46, 0.360791
3344.61, 0.363342
3346.77, 0.365696
3348.94, 0.368050
3351.1, 0.370601
3353.27, 0.373053
3355.44, 0.375015
3357.61, 0.377173
3359.79, 0.379233
3361.97, 0.381391
3364.15, 0.383255
3366.33, 0.385119
3368.52, 0.386688
3370.71, 0.388552
3372.9, 0.390514
3375.1, 0.392476
3377.3, 0.394438
3379.5, 0.396498
3381.71, 0.398656
3383.91, 0.401206
3386.12, 0.403757
3388.34, 0.406209
3390.55, 0.408759
3392.77, 0.411310
3394.99, 0.413272
3397.22, 0.415136
3399.45, 0.416607
3401.68, 0.418177
3403.91, 0.419354
3406.15, 0.420629
3408.39, 0.421708
3410.63, 0.422885
3412.87, 0.424062
3415.12, 0.425534
3417.37, 0.427103
3419.63, 0.428967
3421.88, 0.430929
3424.14, 0.433283
3426.41, 0.435637
3428.67, 0.437894
3430.94, 0.439659
3433.21, 0.441621
3435.49, 0.443093
3437.77, 0.444172
3440.05, 0.445251
3442.33, 0.446526
3444.62, 0.447311
3446.91, 0.447899
3449.2, 0.448488
3451.5, 0.449174
3453.8, 0.449959
3456.1, 0.450646
3458.41, 0.451136
3460.72, 0.452019
3463.03, 0.452804
3465.34, 0.453392
3467.66, 0.453883
3469.98, 0.454373
3472.31, 0.454864
3474.63, 0.455354
3476.96, 0.455747
3479.3, 0.456237
3481.64, 0.456531
3483.97, 0.456826
3486.32, 0.457022
3488.66, 0.457120
3491.01, 0.456924
3493.36, 0.456335
3495.72, 0.455452
3498.08, 0.455060
3500.44, 0.454570
3502.81, 0.454079
3505.18, 0.453883
3507.55, 0.454373
3509.92, 0.455256
3512.3, 0.456924
3514.68, 0.458886
3517.06, 0.461436
3519.45, 0.463987
3521.84, 0.467028
3524.24, 0.470167
3526.64, 0.473796
3529.04, 0.477229
3531.44, 0.480859
3533.85, 0.484390
3536.26, 0.487824
3538.67, 0.490865
3541.09, 0.493905
3543.51, 0.496946
3545.93, 0.499791
3548.36, 0.502538
3550.79, 0.505382
3553.22, 0.507933
3555.66, 0.510581
3558.1, 0.513034
3560.54, 0.515781
3562.99, 0.518527
3565.44, 0.521176
3567.9, 0.523824
3570.35, 0.526669
3572.81, 0.529318
3575.28, 0.531966
3577.75, 0.534615
3580.22, 0.537165
3582.69, 0.539617
3585.17, 0.542070
3587.65, 0.544326
3590.14, 0.546582
3592.62, 0.548544
3595.11, 0.550604
3597.61, 0.552468
3600.11, 0.554430
3602.61, 0.556293
3605.11, 0.558157
3607.62, 0.559825
3610.14, 0.561493
3612.65, 0.562866
3615.17, 0.564435
3617.69, 0.565711
3620.22, 0.566986
3622.75, 0.568359
3625.28, 0.569732
3627.82, 0.570910
3630.36, 0.571890
3632.9, 0.572871
3635.45, 0.574049
3638.0, 0.575128
3640.56, 0.576010
3643.12, 0.576893
3645.68, 0.578169
3648.24, 0.579051
3650.81, 0.579738
3653.39, 0.580523
3655.96, 0.581406
3658.54, 0.581994
3661.13, 0.582877
3663.71, 0.583662
3666.3, 0.584447
3668.9, 0.585035
3671.5, 0.585820
3674.1, 0.586507
3676.7, 0.587291
3679.31, 0.587782
3681.93, 0.588468
3684.54, 0.589057
3687.17, 0.589744
3689.79, 0.590332
3692.42, 0.591019
3695.05, 0.591509
3697.69, 0.592196
3700.32, 0.592687
3702.97, 0.593373
3705.61, 0.593766
3708.27, 0.594354
3710.92, 0.594648
3713.58, 0.595041
3716.24, 0.595335
3718.91, 0.595924
3721.58, 0.596414
3724.25, 0.596807
3726.93, 0.597101
3729.61, 0.597493
3732.29, 0.597689
3734.98, 0.597984
3737.67, 0.598376
3740.37, 0.598866
3743.07, 0.599161
3745.78, 0.599651
3748.49, 0.599946
3751.2, 0.600338
3753.91, 0.600534
3756.63, 0.600730
3759.36, 0.600926
3762.09, 0.601221
3764.82, 0.601221
3767.55, 0.601515
3770.29, 0.601515
3773.04, 0.601711
3775.78, 0.601907
3778.54, 0.602104
3781.29, 0.602104
3784.05, 0.602104
3786.82, 0.602104
3789.59, 0.602300
3792.36, 0.602202
3795.13, 0.602104
3797.92, 0.602005
3800.7, 0.602104
3803.49, 0.602104
3806.28, 0.602104
3809.08, 0.601907
3811.88, 0.601809
3814.68, 0.601417
3817.49, 0.601319
3820.31, 0.600828
3823.12, 0.600730
3825.94, 0.600534
3828.77, 0.600142
3831.6, 0.599749
3834.43, 0.599455
3837.27, 0.598866
3840.11, 0.598768
3842.96, 0.598376
3845.81, 0.597886
3848.67, 0.597493
3851.53, 0.597101
3854.39, 0.596610
3857.26, 0.596218
3860.13, 0.595727
3863.01, 0.595237
3865.89, 0.594452
3868.77, 0.593962
3871.66, 0.593373
3874.55, 0.593079
3877.45, 0.592883
3880.35, 0.592490
3883.26, 0.591804
3886.17, 0.591608
3889.09, 0.591313
3892.01, 0.591117
3894.93, 0.590725
3897.86, 0.590627
3900.79, 0.590332
3903.73, 0.590038
3906.67, 0.589646
3909.62, 0.589351
3912.57, 0.588861
3915.52, 0.588763
3918.48, 0.588370
3921.45, 0.588174
3924.42, 0.587782
3927.39, 0.587586
3930.37, 0.587193
3933.35, 0.586801
3936.34, 0.586310
3939.33, 0.586016
3942.32, 0.585722
3945.32, 0.585526
3948.33, 0.585329
3951.34, 0.585133
3954.35, 0.584643
3957.37, 0.584447
3960.39, 0.584152
3963.42, 0.584054
3966.45, 0.583760
3969.49, 0.583760
3972.53, 0.583564
3975.58, 0.583368
3978.63, 0.583171
3981.68, 0.583073
3984.75, 0.582877
3987.81, 0.582877
3990.88, 0.582779
3993.95, 0.582681
3997.03, 0.582485
4000.12, 0.582485
4003.21, 0.582289
4006.3, 0.582190
4009.4, 0.581896
4012.5, 0.581700
4015.61, 0.581504
4018.72, 0.581504
4021.84, 0.581308
4024.96, 0.581013
4028.09, 0.580425
4031.22, 0.580130
4034.36, 0.579738
4037.5, 0.579640
4040.65, 0.579542
4043.8, 0.579248
4046.96, 0.578953
4050.12, 0.578659
4053.29, 0.578267
4056.46, 0.577874
4059.64, 0.577384
4062.82, 0.577188
4066.0, 0.576795
4069.19, 0.576305
4072.39, 0.575716
4075.59, 0.575324
4078.8, 0.574637
4082.01, 0.574441
4085.23, 0.574147
4088.45, 0.573558
4091.68, 0.573068
4094.91, 0.572479
4098.15, 0.571890
4101.39, 0.571498
4104.63, 0.570910
4107.89, 0.570419
4111.14, 0.569732
4114.41, 0.569144
4117.67, 0.568359
4120.95, 0.567574
4124.23, 0.566888
4127.51, 0.566299
4130.8, 0.565416
4134.09, 0.564632
4137.39, 0.563847
4140.7, 0.562964
4144.01, 0.561885
4147.32, 0.560904
4150.64, 0.559433
4153.97, 0.557569
4157.3, 0.555411
4160.64, 0.553841
4163.98, 0.552272
4167.33, 0.550898
4170.68, 0.549623
4174.04, 0.548250
4177.4, 0.546092
4180.77, 0.543835
4184.14, 0.541187
4187.52, 0.538146
4190.91, 0.534713
4194.3, 0.530985
4197.69, 0.526669
4201.1, 0.522059
4204.5, 0.517056
4207.92, 0.511366
4211.34, 0.504892
4214.76, 0.497927
4218.19, 0.490276
4221.62, 0.481938
4225.06, 0.472717
4228.51, 0.463398
4231.96, 0.453589
4235.42, 0.443779
4238.88, 0.433675
4242.35, 0.423376
4245.83, 0.412291
4249.31, 0.400127
4252.79, 0.386100
4256.28, 0.371091
4259.78, 0.355788
4263.29, 0.342251
4266.79, 0.336562
4270.31, 0.343036
4273.83, 0.356279
4277.35, 0.369326
4280.89, 0.379331
4284.42, 0.387081
4287.97, 0.393457
4291.52, 0.398950
4295.07, 0.403757
4298.63, 0.408759
4302.2, 0.413468
4305.78, 0.417980
4309.35, 0.422198
4312.94, 0.426024
4316.53, 0.429065
4320.13, 0.432008
4323.73, 0.434362
4327.34, 0.436128
4330.96, 0.437403
4334.58, 0.438384
4338.21, 0.438678
4341.84, 0.438776
4345.48, 0.438580
4349.12, 0.438090
4352.77, 0.436913
4356.43, 0.435932
4360.1, 0.434558
4363.76, 0.432891
4367.44, 0.431027
4371.12, 0.429261
4374.81, 0.427005
4378.51, 0.424455
4382.21, 0.421610
4385.92, 0.418961
4389.63, 0.416509
4393.35, 0.414547
4397.08, 0.412781
4400.81, 0.410918
4404.55, 0.408759
4408.29, 0.406699
4412.04, 0.404640
4415.8, 0.402580
4419.57, 0.400323
4423.34, 0.398165
4427.12, 0.395909
4430.9, 0.393751
4434.69, 0.391495
4438.49, 0.389141
4442.29, 0.386590
4446.1, 0.384040
4449.92, 0.381293
4453.74, 0.378644
4457.57, 0.375604
4461.41, 0.372465
4465.25, 0.369129
4469.1, 0.365990
4472.95, 0.362557
4476.82, 0.359320
4480.69, 0.355985
4484.56, 0.352748
4488.44, 0.349412
4492.33, 0.346175
4496.23, 0.343134
4500.13, 0.340093
4504.04, 0.337052
4507.96, 0.333913
4511.88, 0.330774
4515.81, 0.327733
4519.75, 0.324496
4523.69, 0.321161
4527.65, 0.317728
4531.6, 0.314491
4535.57, 0.311155
4539.54, 0.307722
4543.52, 0.304289
4547.5, 0.300954
4551.5, 0.297520
4555.5, 0.293989
4559.5, 0.290163
4563.52, 0.286730
4567.54, 0.283101
4571.56, 0.279765
4575.6, 0.276724
4579.64, 0.273880
4583.69, 0.271035
4587.75, 0.268681
4591.81, 0.266326
4595.88, 0.264168
4599.96, 0.261814
4604.04, 0.259656
4608.14, 0.257302
4612.24, 0.254751
4616.34, 0.252299
4620.46, 0.250239
4624.58, 0.247983
4628.71, 0.245825
4632.84, 0.243667
4636.99, 0.241508
4641.14, 0.239449
4645.3, 0.237781
4649.47, 0.236211
4653.64, 0.234936
4657.82, 0.233857
4662.01, 0.232974
4666.21, 0.232091
4670.41, 0.231405
4674.62, 0.230816
4678.84, 0.230228
4683.07, 0.229737
4687.3, 0.229443
4691.54, 0.229247
4695.79, 0.229345
4700.05, 0.229443
4704.31, 0.229835
4708.59, 0.230326
4712.87, 0.230816
4717.15, 0.231307
4721.45, 0.231895
4725.76, 0.232288
4730.07, 0.232680
4734.39, 0.232778
4738.72, 0.232484
4743.05, 0.231797
4747.39, 0.230914
4751.75, 0.229835
4756.1, 0.228560
4760.47, 0.227285
4764.85, 0.226108
4769.23, 0.225225
4773.62, 0.224734
4778.02, 0.224440
4782.43, 0.224538
4786.85, 0.224734
4791.27, 0.225617
4795.7, 0.226500
4800.14, 0.227383
4804.59, 0.228364
4809.05, 0.229443
4813.51, 0.230424
4817.99, 0.231503
4822.47, 0.232582
4826.96, 0.233269
4831.46, 0.233759
4835.96, 0.234348
4840.48, 0.234544
4845.0, 0.234348
4849.54, 0.233759
4854.08, 0.233170
4858.63, 0.232386
4863.18, 0.231601
4867.75, 0.230522
4872.33, 0.229443
4876.91, 0.228266
4881.5, 0.226991
4886.1, 0.225519
4890.71, 0.224244
4895.33, 0.222772
4899.96, 0.221693
4904.59, 0.220811
4909.24, 0.220614
4913.89, 0.220516
4918.55, 0.221105
4923.22, 0.221988
4927.9, 0.223067
4932.59, 0.223950
4937.29, 0.225029
4942.0, 0.226010
4946.71, 0.226991
4951.44, 0.227873
4956.17, 0.228756
4960.91, 0.229443
4965.67, 0.230031
4970.43, 0.230031
4975.2, 0.229933
4979.98, 0.229541
4984.76, 0.229149
4989.56, 0.228462
4994.37, 0.227677
4999.18, 0.226794
5004.01, 0.225911
5008.84, 0.224636
5013.69, 0.223459
5018.54, 0.221890
5023.4, 0.220026
5028.28, 0.217966
5033.16, 0.215710
5038.05, 0.213453
5042.95, 0.211394
5047.86, 0.209726
5052.78, 0.208451
5057.71, 0.207372
5062.65, 0.205998
5067.6, 0.204429
5072.56, 0.202565
5077.53, 0.200309
5082.5, 0.197758
5087.49, 0.194423
5092.49, 0.190892
5097.5, 0.187262
5102.51, 0.183437
5107.54, 0.179317
5112.58, 0.175687
5117.62, 0.171960
5122.68, 0.168428
5127.75, 0.164701
5132.82, 0.161169
5137.91, 0.157736
5143.01, 0.154695
5148.12, 0.151556
5153.23, 0.148221
5158.36, 0.144787
5163.5, 0.141845
5168.65, 0.138902
5173.81, 0.135763
5178.98, 0.132624
5184.15, 0.129877
5189.34, 0.127032
5194.54, 0.124384
5199.75, 0.121735
5204.98, 0.118694
5210.21, 0.116046
5215.45, 0.113397
5220.7, 0.110454
5225.96, 0.108198
5231.23, 0.106040
5236.52, 0.104372
5241.81, 0.102803
5247.12, 0.101626
5252.44, 0.100351
5257.76, 0.0991730
5263.1, 0.0980940
5268.45, 0.0972120
5273.81, 0.0962310
5279.18, 0.0951520
5284.56, 0.0941710
5289.95, 0.0934840
5295.36, 0.0925030
5300.77, 0.0912280
5306.2, 0.0900510
5311.63, 0.0893640
5317.08, 0.0884810
5322.54, 0.0875980
5328.01, 0.0866170
5333.49, 0.0856360
5338.98, 0.0846550
5344.49, 0.0840670
5350.0, 0.0832820
5355.53, 0.0822030
5361.07, 0.0811240
5366.62, 0.0802410
5372.18, 0.0795550
5377.75, 0.0788680
5383.34, 0.0780830
5388.93, 0.0773970
5394.54, 0.0768080
5400.16, 0.0761210
5405.79, 0.0751400
5411.44, 0.0741590
5417.09, 0.0736690
5422.76, 0.0730800
5428.43, 0.0716090
5434.12, 0.0706280
5439.83, 0.0699410
5445.54, 0.0692550
5451.26, 0.0684700
5457.0, 0.0680780
5462.75, 0.0675870
5468.52, 0.0669000
5474.29, 0.0660180
5480.08, 0.0653310
5485.88, 0.0641540
5491.69, 0.0631730
5497.51, 0.0620940
5503.35, 0.0608190
5509.2, 0.0594450
5515.06, 0.0579740
5520.93, 0.0564040
5526.82, 0.0548350
5532.71, 0.0530690
5538.63, 0.0516960
5544.55, 0.0506170
5550.49, 0.0498320
5556.44, 0.0490470
5562.4, 0.0483610
5568.37, 0.0479680
5574.36, 0.0478700
5580.36, 0.0476740
5586.37, 0.0469870
5592.4, 0.0463990
5598.44, 0.0459080
5604.49, 0.0453200
5610.56, 0.0446330
5616.63, 0.0441420
5622.73, 0.0435540
5628.83, 0.0427690
5634.95, 0.0424750
5641.08, 0.0423770
5647.23, 0.0420830
5653.39, 0.0419840
5659.56, 0.0418860
5665.74, 0.0418860
5671.94, 0.0420830
5678.15, 0.0422790
5684.38, 0.0425730
5690.62, 0.0428670
5696.87, 0.0429650
5703.14, 0.0433580
5709.42, 0.0439460
5715.72, 0.0442410
5722.03, 0.0442410
5728.35, 0.0443390
5734.69, 0.0445350
5741.03, 0.0448290
5747.4, 0.0451230
5753.78, 0.0451230
5760.17, 0.0456140
5766.58, 0.0461040
5773.0, 0.0458100
5779.44, 0.0457120
5785.88, 0.0457120
5792.35, 0.0458100
5798.83, 0.0460060
5805.32, 0.0461040
5811.83, 0.0465950
5818.35, 0.0474780
5824.89, 0.0479680
5831.45, 0.0477720
5838.01, 0.0475760
5844.59, 0.0474780
5851.19, 0.0477720
5857.8, 0.0480660
5864.43, 0.0480660
5871.07, 0.0481640
5877.73, 0.0492430
5884.4, 0.0492430
5891.09, 0.0490470
5897.79, 0.0489490
5904.5, 0.0481640
5911.23, 0.0479680
5917.98, 0.0480660
5924.75, 0.0482620
5931.53, 0.0490470
5938.32, 0.0493410
5945.13, 0.0486550
5951.96, 0.0483610
5958.8, 0.0483610
5965.65, 0.0486550
5972.53, 0.0487530
5979.42, 0.0485570
5986.32, 0.0487530
5993.24, 0.0483610
6000.18, 0.0476740
6007.13, 0.0475760
6014.1, 0.0475760
6021.08, 0.0467910
6028.09, 0.0462020
6035.1, 0.0461040
6042.14, 0.0468890
6049.19, 0.0470850
6056.25, 0.0456140
6063.34, 0.0449270
6070.44, 0.0449270
6077.55, 0.0441420
6084.69, 0.0432600
6091.84, 0.0427690
6099.0, 0.0422790
6106.19, 0.0420830
6113.39, 0.0420830
6120.61, 0.0412980
6127.84, 0.0404150
6135.09, 0.0400230
6142.36, 0.0396300
6149.65, 0.0391400
6156.95, 0.0389430
6164.27, 0.0384530
6171.61, 0.0380610
6178.97, 0.0381590
6186.34, 0.0380610
6193.73, 0.0373740
6201.14, 0.0370800
6208.57, 0.0369820
6216.01, 0.0368840
6223.47, 0.0367850
6230.95, 0.0366870
6238.45, 0.0365890
6245.97, 0.0363930
6253.5, 0.0363930
6261.06, 0.0365890
6268.63, 0.0366870
6276.21, 0.0367850
6283.82, 0.0366870
6291.45, 0.0367850
6299.1, 0.0368840
6306.76, 0.0368840
6314.44, 0.0369820
6322.14, 0.0372760
6329.86, 0.0373740
6337.6, 0.0380610
6345.35, 0.0386490
6353.13, 0.0384530
6360.92, 0.0386490
6368.74, 0.0391400
6376.57, 0.0391400
6384.43, 0.0392380
6392.3, 0.0395320
6400.19, 0.0401210
6408.1, 0.0412980
6416.03, 0.0416900
6423.98, 0.0409050
6431.95, 0.0408070
6439.94, 0.0408070
6447.95, 0.0408070
6455.98, 0.0410030
6464.03, 0.0412980
6472.1, 0.0416900
6480.19, 0.0420830
6488.31, 0.0425730
6496.44, 0.0425730
6504.59, 0.0415920
6512.76, 0.0414940
6520.95, 0.0417880
6529.16, 0.0414940
6537.4, 0.0412980
6545.65, 0.0412000
6553.92, 0.0411020
6562.22, 0.0412000
6570.54, 0.0412980
6578.88, 0.0409050
6587.23, 0.0405130
6595.61, 0.0402190
6604.02, 0.0396300
6612.44, 0.0393360
6620.89, 0.0392380
6629.35, 0.0395320
6637.84, 0.0396300
6646.35, 0.0385510
6654.88, 0.0377660
6663.44, 0.0375700
6672.01, 0.0375700
6680.61, 0.0372760
6689.23, 0.0363930
6697.88, 0.0357060
6706.54, 0.0354120
6715.23, 0.0349220
6723.94, 0.0342350
6732.67, 0.0333520
6741.42, 0.0325670
6750.2, 0.0321750
6759.0, 0.0316840
6767.82, 0.0312920
6776.67, 0.0309000
6785.54, 0.0308020
6794.44, 0.0303110
6803.35, 0.0297230
6812.29, 0.0293300
6821.26, 0.0291340
6830.24, 0.0286440
6839.25, 0.0280550
6848.29, 0.0275650
6857.35, 0.0275650
6866.43, 0.0269760
6875.54, 0.0258970
6884.67, 0.0250140
6893.82, 0.0243270
6903.0, 0.0235430
6912.2, 0.0228560
6921.43, 0.0222670
6930.69, 0.0217770
6939.96, 0.0212860
6949.27, 0.0210900
6958.59, 0.0209920
6967.95, 0.0206980
6977.33, 0.0204040
6986.73, 0.0206000
6996.16, 0.0206000
7005.61, 0.0205020
7015.09, 0.0203060
7024.6, 0.0203060
7034.13, 0.0202070
7043.69, 0.0204040
7053.27, 0.0203060
7062.88, 0.0202070
7072.52, 0.0200110
7082.18, 0.0200110
7091.87, 0.0201090
7101.58, 0.0201090
7111.32, 0.0200110
7121.09, 0.0198150
7130.88, 0.0197170
7140.71, 0.0196190
7150.56, 0.0191280
7160.43, 0.0186380
7170.33, 0.0183440
7180.27, 0.0179510
7190.23, 0.0175590
7200.21, 0.0173630
7210.23, 0.0168720
7220.27, 0.0163820
7230.34, 0.0158910
7240.44, 0.0155970
7250.56, 0.0153030
7260.72, 0.0148120
7270.9, 0.0145180
7281.12, 0.0141260
7291.36, 0.0137330
7301.63, 0.0134390
7311.93, 0.0129480
7322.25, 0.0125560
7332.61, 0.0122620
7343.0, 0.0120660
7353.41, 0.0115750
7363.86, 0.0111830
7374.33, 0.0108880
7384.83, 0.0107900
7395.37, 0.0104960
7405.93, 0.0101040
7416.53, 0.00980900
7427.15, 0.00941700
7437.81, 0.00922100
7448.5, 0.00912300
7459.22, 0.00882800
7469.96, 0.00843600
7480.74, 0.00804400
7491.55, 0.00804400
7502.39, 0.00765100
7513.27, 0.00735700
7524.17, 0.00706300
7535.11, 0.00686700
7546.08, 0.00667000
7557.08, 0.00647400
7568.11, 0.00627800
7579.17, 0.00598400
7590.27, 0.00559100
7601.4, 0.00519900
7612.56, 0.00490500
7623.76, 0.00480700
7634.98, 0.00461000
7646.24, 0.00441400
7657.54, 0.00412000
7668.87, 0.00412000
7680.23, 0.00392400
7691.62, 0.00362900
7703.05, 0.00333500
7714.51, 0.00323700
7726.01, 0.00304100
7737.54, 0.00294300
7749.11, 0.00294300
7760.71, 0.00294300
7772.35, 0.00274700
7784.02, 0.00284500
7795.72, 0.00284500
7807.46, 0.00284500
7819.23, 0.00284500
7831.04, 0.00304100
7842.89, 0.00313900
7854.77, 0.00323700
7866.69, 0.00333500
7878.65, 0.00362900
7890.64, 0.00402200
7902.67, 0.00431600
7914.74, 0.00461000
7926.84, 0.00539500
7938.98, 0.00627800
7951.16, 0.00716100
7963.37, 0.00824000
7975.62, 0.00941700
7987.91, 0.0105940
8000.24, 0.0119680
8012.6, 0.0137330
8025.01, 0.0156950
8037.45, 0.0175590
8049.93, 0.0198150
8062.45, 0.0227580
8075.01, 0.0259950
8087.61, 0.0292320
8100.24, 0.0327640
8112.91, 0.0365890
8125.63, 0.0409050
8138.39, 0.0453200
8151.18, 0.0500280
8164.02, 0.0551290
8176.9, 0.0608190
8189.81, 0.0668020
8202.77, 0.0729820
8215.77, 0.0794560
8228.82, 0.0863230
8241.9, 0.0937780
8255.02, 0.101430
8268.19, 0.109473
8281.39, 0.117909
8294.65, 0.126444
8307.94, 0.134684
8321.28, 0.142531
8334.66, 0.149888
8348.08, 0.156559
8361.54, 0.162346
8375.05, 0.167055
8388.6, 0.171077
8402.2, 0.174118
8415.84, 0.176668
8429.52, 0.178826
8443.25, 0.180199
8457.02, 0.181377
8470.84, 0.182358
8484.7, 0.183044
8498.61, 0.183535
8512.57, 0.183829
8526.57, 0.183829
8540.62, 0.183633
8554.71, 0.182946
8568.85, 0.182063
8583.04, 0.180886
8597.27, 0.179415
8611.55, 0.178041
8625.88, 0.176570
8640.26, 0.174902
8654.68, 0.173431
8669.16, 0.171960
8683.68, 0.170390
8698.25, 0.169017
8712.87, 0.167447
8727.53, 0.165780
8742.25, 0.163916
8757.02, 0.161758
8771.83, 0.159403
8786.7, 0.156755
8801.62, 0.153812
8816.59, 0.150869
8831.61, 0.147828
8846.68, 0.144787
8861.8, 0.141943
8876.97, 0.138902
8892.2, 0.135567
8907.48, 0.132231
8922.81, 0.129190
8938.2, 0.126346
8953.63, 0.123795
8969.13, 0.122226
8984.67, 0.121539
9000.27, 0.122324
9015.92, 0.124286
9031.63, 0.126934
9047.39, 0.129779
9063.21, 0.132918
9079.08, 0.136449
9095.01, 0.139981
9111.0, 0.143610
9127.04, 0.147240
9143.13, 0.150673
9159.28, 0.153322
9175.49, 0.155185
9191.76, 0.156264
9208.09, 0.156755
9224.47, 0.157049
9240.92, 0.156951
9257.42, 0.156363
9273.98, 0.155676
9290.6, 0.154989
9307.28, 0.154303
9324.02, 0.153714
9340.82, 0.153812
9357.68, 0.154499
9374.6, 0.156264
9391.58, 0.159698
9408.62, 0.165387
9425.73, 0.172352
9442.9, 0.178336
9460.13, 0.182161
9477.42, 0.183829
9494.78, 0.183633
9512.2, 0.182848
9529.69, 0.182161
9547.24, 0.181475
9564.86, 0.180396
9582.54, 0.178826
9600.28, 0.177355
9618.1, 0.176178
9635.97, 0.175000
9653.92, 0.173921
9671.93, 0.172744
9690.01, 0.171567
9708.16, 0.170684
9726.37, 0.170390
9744.65, 0.170488
9763.0, 0.170979
9781.43, 0.171665
9799.92, 0.172450
9818.48, 0.173627
9837.1, 0.175099
9855.8, 0.175981
9874.58, 0.175785
9893.42, 0.174608
9912.34, 0.172450
9931.33, 0.169507
9950.39, 0.166074
9969.52, 0.162052
9988.74, 0.157834
10008.0, 0.153714
10027.4, 0.149594
10046.8, 0.145866
10066.3, 0.142237
10085.9, 0.138411
10105.6, 0.134782
10125.3, 0.131348
10145.1, 0.128111
10165.0, 0.124776
10185.0, 0.121637
10205.0, 0.118694
10225.2, 0.116144
10245.4, 0.113593
10265.7, 0.111337
10286.0, 0.109179
10306.5, 0.107021
10327.0, 0.105059
10347.6, 0.103097
10368.3, 0.101430
10389.1, 0.100253
10409.9, 0.0987810
10430.9, 0.0971130
10451.9, 0.0958380
10473.0, 0.0947590
10494.2, 0.0935820
10515.5, 0.0926010
10536.9, 0.0915220
10558.4, 0.0906390
10579.9, 0.0895600
10601.5, 0.0883830
10623.3, 0.0875000
10645.1, 0.0866170
10667.0, 0.0856360
10689.0, 0.0847540
10711.1, 0.0841650
10733.2, 0.0833800
10755.5, 0.0826940
10777.9, 0.0819090
10800.3, 0.0810260
10822.9, 0.0803390
10845.5, 0.0796530
10868.2, 0.0791620
10891.1, 0.0786720
10914.0, 0.0777890
10937.0, 0.0770040
10960.2, 0.0762190
10983.4, 0.0756310
11006.7, 0.0751400
11030.1, 0.0745520
11053.6, 0.0737670
11077.3, 0.0732770
11101.0, 0.0725900
11124.8, 0.0721970
11148.7, 0.0717070
11172.7, 0.0712170
11196.9, 0.0705300
11221.1, 0.0699410
11245.4, 0.0694510
11269.9, 0.0687640
11294.4, 0.0682740
11319.1, 0.0679790
11343.9, 0.0674890
11368.8, 0.0669980
11393.7, 0.0664100
11418.8, 0.0662140
11444.0, 0.0657230
11469.4, 0.0653310
11494.8, 0.0648400
11520.3, 0.0641540
11546.0, 0.0636630
11571.8, 0.0631730
11597.7, 0.0626820
11623.7, 0.0619960
11649.8, 0.0615050
11676.0, 0.0611130
11702.4, 0.0608190
11728.9, 0.0601320
11755.5, 0.0594450
11782.2, 0.0590530
11809.0, 0.0584640
11836.0, 0.0580720
11863.0, 0.0576800
11890.3, 0.0571890
11917.6, 0.0566000
11945.0, 0.0560120
11972.6, 0.0553250
12000.4, 0.0544420
12028.2, 0.0534610
12056.2, 0.0524810
12084.3, 0.0517940
12112.5, 0.0510090
12140.9, 0.0498320
12169.4, 0.0486550
12198.0, 0.0469870
12226.8, 0.0449270
12255.7, 0.0435540
12284.7, 0.0420830
12313.9, 0.0404150
12343.2, 0.0387470
12372.7, 0.0369820
12402.3, 0.0353140
12432.0, 0.0337440
12461.9, 0.0322730
12491.9, 0.0308020
12522.1, 0.0295260
12552.4, 0.0288400
12582.9, 0.0283490
12613.5, 0.0281530
12644.3, 0.0286440
12675.2, 0.0291340
12706.3, 0.0289380
12737.5, 0.0283490
12768.9, 0.0283490
12800.4, 0.0291340
12832.1, 0.0308020
12863.9, 0.0336460
12895.9, 0.0365890
12928.1, 0.0386490
12960.4, 0.0395320
12992.9, 0.0403170
13025.5, 0.0413960
13058.3, 0.0419840
13091.3, 0.0416900
13124.4, 0.0409050
13157.8, 0.0396300
13191.2, 0.0384530
13224.9, 0.0373740
13258.7, 0.0363930
13292.7, 0.0354120
13326.9, 0.0347250
13361.2, 0.0348240
13395.7, 0.0346270
13430.4, 0.0345290
13465.3, 0.0345290
13500.4, 0.0342350
13535.7, 0.0345290
13571.1, 0.0361970
13606.7, 0.0383550
13642.5, 0.0403170
13678.5, 0.0419840
13714.7, 0.0433580
13751.1, 0.0449270
13787.6, 0.0459080
13824.4, 0.0463990
13861.4, 0.0463990
13898.5, 0.0459080
13935.9, 0.0453200
13973.5, 0.0449270
14011.2, 0.0445350
14049.2, 0.0438480
14087.4, 0.0432600
14125.8, 0.0425730
14164.3, 0.0416900
14203.2, 0.0408070
14242.2, 0.0400230
14281.4, 0.0393360
14320.9, 0.0390420
14360.5, 0.0381590
14400.4, 0.0367850
14440.5, 0.0358040
14480.9, 0.0352160
14521.4, 0.0348240
14562.2, 0.0343330
14603.3, 0.0333520
14644.5, 0.0322730
14686.0, 0.0312920
14727.7, 0.0302130
14769.7, 0.0291340
14811.9, 0.0283490
14854.3, 0.0279570
14897.0, 0.0278590
14939.9, 0.0276630
14983.1, 0.0274660
15026.5, 0.0281530
15070.2, 0.0298210
15114.2, 0.0318810
15158.3, 0.0343330
15202.8, 0.0370800
15247.5, 0.0405130
15292.5, 0.0439460
15337.7, 0.0467910
15383.2, 0.0479680
15429.0, 0.0472820
15475.1, 0.0448290
15521.4, 0.0416900
15568.0, 0.0391400
15614.9, 0.0367850
15662.1, 0.0342350
15709.6, 0.0326650
15757.3, 0.0319790
15805.4, 0.0317830
15853.7, 0.0328620
15902.3, 0.0352160
15951.2, 0.0390420
16000.5, 0.0438480
16050.0, 0.0494400
16099.8, 0.0563060
16150.0, 0.0638590
16200.5, 0.0717070
16251.3, 0.0796530
16302.4, 0.0878930
16353.8, 0.0964270
16405.5, 0.105648
16457.6, 0.114967
16510.0, 0.123207
16562.8, 0.129190
16615.9, 0.132918
16669.3, 0.134291
16723.1, 0.133899
16777.2, 0.131741
16831.7, 0.129877
16886.5, 0.127915
16941.7, 0.124580
16997.2, 0.120852
17053.1, 0.117517
17109.4, 0.113593
17166.1, 0.109964
17223.1, 0.107119
17280.5, 0.104078
17338.3, 0.100056
17396.5, 0.0961330
17455.1, 0.0927970
17514.0, 0.0886770
17573.4, 0.0847540
17633.2, 0.0813200
17693.4, 0.0777890
17754.0, 0.0743560
17815.0, 0.0712170
17876.4, 0.0679790
17938.3, 0.0652330
18000.5, 0.0628790
18063.3, 0.0602300
18126.4, 0.0583660
18190.0, 0.0580720
18254.1, 0.0601320
18318.6, 0.0642520
18383.5, 0.0688620
18449.0, 0.0736690
18514.9, 0.0766120
18581.2, 0.0770040
18648.0, 0.0753370
18715.4, 0.0721970
18783.2, 0.0688620
18851.5, 0.0656250
18920.3, 0.0617990
18989.6, 0.0579740
19059.4, 0.0567970
19129.7, 0.0553250
19200.6, 0.0535600
19272.0, 0.0515980
19343.9, 0.0499300
19416.3, 0.0490470
19489.3, 0.0478700
19562.8, 0.0458100
19637.0, 0.0441420
19711.6, 0.0424750
19786.8, 0.0412000
19862.6, 0.0404150
19939.0, 0.0402190
20016.0, 0.0399240
20093.6, 0.0383550
20171.8, 0.0364910
20250.6, 0.0360990
20330.0, 0.0369820
20410.0, 0.0387470
20490.7, 0.0410030
20572.0, 0.0412000
20654.0, 0.0409050
20736.6, 0.0426710
20819.9, 0.0442410
20903.8, 0.0459080
20988.5, 0.0477720
21073.8, 0.0503220
21159.8, 0.0552270
21246.5, 0.0593470
21334.0, 0.0611130
21422.1, 0.0628790
21511.0, 0.0673910
21600.7, 0.0714130
21691.0, 0.0772000
21782.1, 0.0880890
21874.0, 0.0978590
21966.7, 0.111936
22060.2, 0.122706
22154.5, 0.130579
22249.6, 0.137713
22345.5, 0.143317
22442.2, 0.145367
22539.8, 0.144137
22638.2, 0.143317
22737.5, 0.141813
22837.7, 0.141759
22938.7, 0.143618
23040.7, 0.144711
23143.5, 0.146132
23247.3, 0.148319
23352.1, 0.149604
23457.7, 0.148921
23564.4, 0.148511
23672.0, 0.145230
23780.5, 0.140392
23890.1, 0.134378
24000.7, 0.127080
24112.3, 0.118661
24225.0, 0.109996
24338.7, 0.102561
24453.5, 0.0966290
24569.4, 0.0923370
24686.4, 0.0905610
24804.5, 0.0873620
24923.8, 0.0810480
25044.2, 0.0783140
25165.8, 0.0804470
25288.6, 0.0796540
25412.5, 0.0782330
25537.7, 0.0810480
25664.1, 0.0832620
25791.8, 0.0845470
25920.8, 0.0876080
26051.1, 0.0926650
26182.6, 0.100046
26315.5, 0.104939
26449.8, 0.106825
26585.4, 0.106305
26722.5, 0.104884
26860.9, 0.103818
27000.8, 0.101959
27142.1, 0.0989800
27285.0, 0.0949340
27429.4, 0.0896310
27575.3, 0.0853940
27722.7, 0.0814580
27871.8, 0.0780410
28022.4, 0.0759360
28174.7, 0.0721910
28328.7, 0.0674900
28484.4, 0.0647290
28641.7, 0.0610660
28800.9, 0.0579500
28961.8, 0.0563920
29124.5, 0.0559000
29289.0, 0.0566650
29455.4, 0.0602460
29623.8, 0.0655490
29794.0, 0.0723280
29966.3, 0.0826060
30140.5, 0.0888930
30316.7, 0.0910530
30495.1, 0.0909710
30675.5, 0.0889480
30858.1, 0.0859680
31042.8, 0.0836990
31229.8, 0.0829070
31419.1, 0.0809930
31610.7, 0.0779040
31804.6, 0.0754440
32000.9, 0.0747610
32199.7, 0.0733670
32400.9, 0.0712620
32604.8, 0.0699500
32811.1, 0.0703330
33020.1, 0.0688290
33231.8, 0.0688290
33446.2, 0.0686650
33663.4, 0.0677090
33883.4, 0.0681460
34106.3, 0.0706060
34332.1, 0.0708520
34561.0, 0.0688840
34792.9, 0.0693760
35028.0, 0.0687470
35266.3, 0.0657950
35507.8, 0.0645380
35752.7, 0.0637720
36001.0, 0.0651660
36252.8, 0.0684740
36508.1, 0.0711800
36767.0, 0.0753900
37029.7, 0.0800640
37296.1, 0.0812940
37566.3, 0.0809930
37840.5, 0.0818680
38118.8, 0.0832070
38401.2, 0.0834810
38687.8, 0.0843010
38978.6, 0.0858590
39273.9, 0.0857220
39573.7, 0.0842460
39878.1, 0.0858590
40187.3, 0.0862690
40501.2, 0.0847660
40820.0, 0.0846840
41144.0, 0.0838630
41473.2, 0.0830430
41807.6, 0.0819230
42147.5, 0.0776040
42493.0, 0.0719450
42844.2, 0.0700590
43201.2, 0.0699230
43564.3, 0.0669980
43933.5, 0.0648660
44309.0, 0.0662870
44691.0, 0.0700320
45079.6, 0.0706060
45475.0, 0.0679820
45877.5, 0.0712070
46287.1, 0.0738590
46704.2, 0.0762100
47128.7, 0.0776310
47561.1, 0.0776040
48001.5, 0.0744600
48450.1, 0.0738860
48907.2, 0.0787790
49373.0, 0.0817040
49847.7, 0.0792170
50331.5, 0.0764560
50825.0, 0.0747060
51328.2, 0.0726020
51841.5, 0.0759640
52365.1, 0.0805560
52899.4, 0.0813210
53444.8, 0.0798450
54001.5, 0.0788890
54570.1, 0.0741600
55150.6, 0.0725190
55743.6, 0.0739140
56349.5, 0.0708250
56968.7, 0.0660960
57601.7, 0.0643740
58248.9, 0.0629250
58910.9, 0.0560640
59588.1, 0.0512260
60281.0, 0.0491210
60990.2, 0.0494220
61716.3, 0.0504600
62459.8, 0.0533300
63221.6, 0.0552440
64002.1, 0.0574850
64802.1, 0.0604650
65622.1, 0.0624600
66463.4, 0.0687750
67326.6, 0.0694580
68212.4, 0.0700870
69121.9, 0.0712890
70056.0, 0.0686110
71015.7, 0.0684470
72002.0, 0.0756900
73016.3, 0.0809660
74059.4, 0.0798730
75132.7, 0.0727110
76237.6, 0.0675450
77375.5, 0.0676540
78547.9, 0.0630070
79756.3, 0.0595900
81002.5, 0.0650020
82288.5, 0.0760460
83615.7, 0.0880180
84986.5, 0.102397
86402.9, 0.113959
87867.4, 0.135062
89382.4, 0.124702
90950.5, 0.101959
92574.6, 0.0944970
94257.2, 0.0936770
96002.7, 0.108984
97814.1, 0.118251
99695.1, 0.133996
101650.0, 0.154060
103683.0, 0.157804
105799.0, 0.152939
108003.0, 0.152119
110301.0, 0.148292
112699.0, 0.146050
115204.0, 0.143700
117822.0, 0.138752
120562.0, 0.124428
123433.0, 0.131864
126443.0, 0.166880
129604.0, 0.190415
132926.0, 0.169203
136424.0, 0.146925
140111.0, 0.136401
144003.0, 0.126697
148118.0, 0.129485
152474.0, 0.134324
157095.0, 0.140529
162004.0, 0.173768
167231.0, 0.228820
172805.0, 0.240848
178764.0, 0.230215
185148.0, 0.200447
192005.0, 0.207390
199390.0, 0.224092
207366.0, 0.270178
216006.0, 0.323208
