Database of Origin, USGS Spectral Database
Sample Description, See USGS database for additional info
Date Added,2016-08-03 20:51:42.213239

Data ID,USGS_alb06          
Sample ID, albite_hs324.3b.414
Mineral Name, albite
Material Class,Tectosilicate

Wavelength
1548.43, 0.714787
1548.9, 0.714787
1549.36, 0.715287
1549.82, 0.715912
1550.29, 0.716037
1550.75, 0.716162
1551.21, 0.716536
1551.68, 0.717286
1552.14, 0.716911
1552.61, 0.716037
1553.07, 0.716037
1553.54, 0.715912
1554.0, 0.715787
1554.47, 0.716037
1554.93, 0.716661
1555.4, 0.716661
1555.87, 0.716911
1556.34, 0.716786
1556.8, 0.716412
1557.27, 0.716536
1557.74, 0.717161
1558.21, 0.717536
1558.68, 0.717911
1559.14, 0.717036
1559.61, 0.716911
1560.08, 0.717536
1560.55, 0.717786
1561.02, 0.718036
1561.49, 0.718161
1561.96, 0.718286
1562.43, 0.718660
1562.9, 0.718660
1563.38, 0.718411
1563.85, 0.718286
1564.32, 0.718785
1564.79, 0.718536
1565.26, 0.718660
1565.74, 0.719160
1566.21, 0.719160
1566.68, 0.719410
1567.16, 0.720160
1567.63, 0.719535
1568.1, 0.718785
1568.58, 0.718910
1569.05, 0.719410
1569.53, 0.719285
1570.0, 0.718910
1570.48, 0.718161
1570.96, 0.718411
1571.43, 0.719160
1571.91, 0.719910
1572.39, 0.720285
1572.86, 0.719910
1573.34, 0.719535
1573.82, 0.720160
1574.3, 0.720909
1574.77, 0.721284
1575.25, 0.721034
1575.73, 0.721034
1576.21, 0.721159
1576.69, 0.720909
1577.17, 0.721534
1577.65, 0.721659
1578.13, 0.721409
1578.61, 0.721534
1579.09, 0.721534
1579.57, 0.721659
1580.05, 0.722284
1580.54, 0.721909
1581.02, 0.721534
1581.5, 0.721534
1581.98, 0.722034
1582.47, 0.722659
1582.95, 0.722534
1583.43, 0.721534
1583.92, 0.721534
1584.4, 0.722159
1584.88, 0.722784
1585.37, 0.722784
1585.85, 0.722659
1586.34, 0.722784
1586.82, 0.722784
1587.31, 0.722409
1587.8, 0.722659
1588.28, 0.723408
1588.77, 0.723783
1589.26, 0.724908
1589.74, 0.724658
1590.23, 0.723658
1590.72, 0.723783
1591.21, 0.724033
1591.7, 0.723908
1592.19, 0.724283
1592.67, 0.725032
1593.16, 0.725407
1593.65, 0.724908
1594.14, 0.724783
1594.63, 0.724783
1595.12, 0.724783
1595.61, 0.725282
1596.11, 0.724908
1596.6, 0.725157
1597.09, 0.725782
1597.58, 0.726157
1598.08, 0.725907
1598.57, 0.726032
1599.06, 0.726657
1599.55, 0.726657
1600.05, 0.726282
1600.54, 0.726907
1601.04, 0.727531
1601.53, 0.727281
1602.03, 0.727031
1602.52, 0.727531
1603.02, 0.728281
1603.51, 0.727531
1604.01, 0.726782
1604.5, 0.726782
1605.0, 0.727031
1605.5, 0.727656
1606.0, 0.727781
1606.49, 0.728156
1606.99, 0.728281
1607.49, 0.728531
1607.99, 0.728906
1608.49, 0.729031
1608.99, 0.729156
1609.49, 0.729530
1609.99, 0.729780
1610.49, 0.729280
1610.99, 0.729156
1611.49, 0.729530
1611.99, 0.729905
1612.49, 0.729280
1612.99, 0.729156
1613.49, 0.729280
1614.0, 0.729905
1614.5, 0.729905
1615.0, 0.729530
1615.51, 0.729655
1616.01, 0.729655
1616.51, 0.730155
1617.02, 0.730405
1617.52, 0.730655
1618.03, 0.730530
1618.53, 0.730655
1619.04, 0.730155
1619.54, 0.730280
1620.05, 0.731279
1620.55, 0.731529
1621.06, 0.732029
1621.57, 0.732404
1622.08, 0.731779
1622.58, 0.731904
1623.09, 0.732279
1623.6, 0.732029
1624.11, 0.732029
1624.62, 0.732154
1625.13, 0.732904
1625.64, 0.733279
1626.15, 0.732529
1626.66, 0.732279
1627.17, 0.732029
1627.68, 0.731904
1628.19, 0.732154
1628.7, 0.733029
1629.21, 0.733903
1629.72, 0.733778
1630.24, 0.733778
1630.75, 0.733653
1631.26, 0.733528
1631.78, 0.733653
1632.29, 0.733528
1632.8, 0.733653
1633.32, 0.733903
1633.83, 0.733279
1634.35, 0.733653
1634.86, 0.733778
1635.38, 0.733903
1635.9, 0.734653
1636.41, 0.734278
1636.93, 0.733778
1637.45, 0.733778
1637.96, 0.734153
1638.48, 0.733903
1639.0, 0.734028
1639.52, 0.734403
1640.04, 0.734903
1640.56, 0.735028
1641.08, 0.735028
1641.59, 0.734653
1642.11, 0.734278
1642.63, 0.734278
1643.16, 0.734653
1643.68, 0.735153
1644.2, 0.735278
1644.72, 0.735153
1645.24, 0.735777
1645.76, 0.736277
1646.29, 0.736152
1646.81, 0.735652
1647.33, 0.735777
1647.86, 0.735278
1648.38, 0.735278
1648.9, 0.735777
1649.43, 0.736277
1649.95, 0.736652
1650.48, 0.736277
1651.0, 0.736152
1651.53, 0.735777
1652.06, 0.735902
1652.58, 0.736402
1653.11, 0.737027
1653.64, 0.737152
1654.17, 0.737027
1654.69, 0.737027
1655.22, 0.737402
1655.75, 0.737776
1656.28, 0.737652
1656.81, 0.738026
1657.34, 0.737776
1657.87, 0.737277
1658.4, 0.737277
1658.93, 0.737527
1659.46, 0.737652
1659.99, 0.738151
1660.52, 0.738401
1661.05, 0.737776
1661.59, 0.737776
1662.12, 0.738401
1662.65, 0.738651
1663.19, 0.739151
1663.72, 0.739651
1664.26, 0.740025
1664.79, 0.740150
1665.32, 0.739900
1665.86, 0.740150
1666.39, 0.740150
1666.93, 0.740400
1667.47, 0.740775
1668.0, 0.740650
1668.54, 0.740775
1669.08, 0.740775
1669.61, 0.740525
1670.15, 0.740150
1670.69, 0.740775
1671.23, 0.740775
1671.77, 0.741275
1672.31, 0.742149
1672.85, 0.742524
1673.39, 0.742149
1673.93, 0.741774
1674.47, 0.741899
1675.01, 0.742149
1675.55, 0.742399
1676.09, 0.742524
1676.64, 0.742649
1677.18, 0.743149
1677.72, 0.743274
1678.26, 0.743524
1678.81, 0.743274
1679.35, 0.743024
1679.89, 0.743399
1680.44, 0.744148
1680.98, 0.743649
1681.53, 0.743649
1682.07, 0.743649
1682.62, 0.743524
1683.17, 0.743774
1683.71, 0.743649
1684.26, 0.743899
1684.81, 0.744398
1685.36, 0.744523
1685.9, 0.745023
1686.45, 0.745148
1687.0, 0.744648
1687.55, 0.744523
1688.1, 0.744523
1688.65, 0.745023
1689.2, 0.745148
1689.75, 0.744898
1690.3, 0.745523
1690.85, 0.745523
1691.41, 0.745773
1691.96, 0.746147
1692.51, 0.745773
1693.06, 0.745898
1693.61, 0.746397
1694.17, 0.747022
1694.72, 0.746522
1695.28, 0.746397
1695.83, 0.747022
1696.39, 0.747022
1696.94, 0.746647
1697.5, 0.746647
1698.05, 0.746647
1698.61, 0.746647
1699.17, 0.746772
1699.72, 0.746647
1700.28, 0.746647
1700.84, 0.746897
1701.4, 0.747647
1701.95, 0.748271
1702.51, 0.748022
1703.07, 0.747397
1703.63, 0.747522
1704.19, 0.747647
1704.75, 0.747772
1705.31, 0.747897
1705.88, 0.747772
1706.44, 0.747647
1707.0, 0.747647
1707.56, 0.747772
1708.12, 0.747772
1708.69, 0.748022
1709.25, 0.748521
1709.81, 0.748646
1710.38, 0.748022
1710.94, 0.747897
1711.51, 0.747522
1712.07, 0.747897
1712.64, 0.748271
1713.2, 0.748147
1713.77, 0.748521
1714.34, 0.748646
1714.9, 0.748147
1715.47, 0.748147
1716.04, 0.748646
1716.61, 0.748521
1717.18, 0.748646
1717.74, 0.748896
1718.31, 0.748646
1718.88, 0.749396
1719.45, 0.749646
1720.02, 0.749021
1720.59, 0.748896
1721.17, 0.748771
1721.74, 0.748771
1722.31, 0.749021
1722.88, 0.749146
1723.45, 0.749646
1724.03, 0.750021
1724.6, 0.749771
1725.18, 0.749646
1725.75, 0.749896
1726.33, 0.750021
1726.9, 0.749771
1727.48, 0.749896
1728.05, 0.750146
1728.63, 0.750271
1729.2, 0.750395
1729.78, 0.750395
1730.36, 0.750395
1730.94, 0.750520
1731.51, 0.750645
1732.09, 0.751020
1732.67, 0.751270
1733.25, 0.751395
1733.83, 0.751270
1734.41, 0.750895
1734.99, 0.750770
1735.57, 0.751270
1736.15, 0.751895
1736.73, 0.751770
1737.32, 0.751770
1737.9, 0.752020
1738.48, 0.751770
1739.07, 0.751770
1739.65, 0.752519
1740.23, 0.752644
1740.82, 0.752270
1741.4, 0.752270
1741.99, 0.752395
1742.57, 0.752894
1743.16, 0.753519
1743.74, 0.753519
1744.33, 0.753644
1744.92, 0.753644
1745.51, 0.753269
1746.09, 0.753269
1746.68, 0.753144
1747.27, 0.753519
1747.86, 0.754643
1748.45, 0.755018
1749.04, 0.754643
1749.63, 0.754643
1750.22, 0.754768
1750.81, 0.754893
1751.4, 0.755018
1751.99, 0.755143
1752.59, 0.755268
1753.18, 0.755518
1753.77, 0.755893
1754.37, 0.756018
1754.96, 0.755643
1755.56, 0.755143
1756.15, 0.755643
1756.74, 0.756018
1757.34, 0.755893
1757.94, 0.756643
1758.53, 0.756892
1759.13, 0.756143
1759.73, 0.756268
1760.32, 0.756393
1760.92, 0.757017
1761.52, 0.757642
1762.12, 0.757892
1762.72, 0.757767
1763.32, 0.757767
1763.92, 0.757892
1764.52, 0.757767
1765.12, 0.757517
1765.72, 0.757392
1766.32, 0.758142
1766.92, 0.757892
1767.53, 0.758142
1768.13, 0.758517
1768.73, 0.758517
1769.34, 0.758642
1769.94, 0.759016
1770.55, 0.759141
1771.15, 0.759141
1771.76, 0.759141
1772.36, 0.758891
1772.97, 0.758767
1773.57, 0.758891
1774.18, 0.759141
1774.79, 0.759016
1775.4, 0.759016
1776.0, 0.759391
1776.61, 0.759766
1777.22, 0.760016
1777.83, 0.759516
1778.44, 0.759266
1779.05, 0.759516
1779.66, 0.759641
1780.27, 0.759641
1780.88, 0.759641
1781.5, 0.759391
1782.11, 0.759516
1782.72, 0.759391
1783.33, 0.759266
1783.95, 0.759391
1784.56, 0.759016
1785.18, 0.758642
1785.79, 0.758891
1786.41, 0.759891
1787.02, 0.760516
1787.64, 0.759891
1788.26, 0.759766
1788.87, 0.760266
1789.49, 0.760266
1790.11, 0.759766
1790.73, 0.759891
1791.35, 0.760266
1791.96, 0.760516
1792.58, 0.760266
1793.21, 0.760391
1793.83, 0.760516
1794.45, 0.760016
1795.07, 0.760016
1795.69, 0.759891
1796.31, 0.760016
1796.93, 0.760266
1797.56, 0.760141
1798.18, 0.760141
1798.8, 0.760516
1799.43, 0.760890
1800.05, 0.760890
1800.68, 0.760391
1801.3, 0.759891
1801.93, 0.759766
1802.56, 0.760141
1803.18, 0.760391
1803.81, 0.760516
1804.44, 0.760266
1805.07, 0.760141
1805.7, 0.760266
1806.33, 0.760641
1806.95, 0.761015
1807.58, 0.760766
1808.22, 0.760641
1808.85, 0.760641
1809.48, 0.760766
1810.11, 0.760766
1810.74, 0.760890
1811.38, 0.761140
1812.01, 0.761515
1812.64, 0.761515
1813.28, 0.761390
1813.91, 0.761265
1814.55, 0.761265
1815.18, 0.761265
1815.82, 0.761765
1816.45, 0.762140
1817.09, 0.762265
1817.73, 0.762390
1818.36, 0.762515
1819.0, 0.762265
1819.64, 0.762140
1820.28, 0.761640
1820.92, 0.761515
1821.56, 0.762015
1822.2, 0.762640
1822.84, 0.762765
1823.48, 0.762890
1824.12, 0.763389
1824.76, 0.763764
1825.41, 0.763639
1826.05, 0.762890
1826.69, 0.762765
1827.34, 0.763139
1827.98, 0.763514
1828.63, 0.763514
1829.27, 0.763514
1829.92, 0.763639
1830.56, 0.763889
1831.21, 0.763639
1831.86, 0.764139
1832.5, 0.764764
1833.15, 0.764889
1833.8, 0.765139
1834.45, 0.765513
1835.1, 0.765139
1835.75, 0.764764
1836.4, 0.764889
1837.05, 0.765139
1837.7, 0.765139
1838.35, 0.765763
1839.01, 0.766138
1839.66, 0.765763
1840.31, 0.765513
1840.96, 0.766138
1841.62, 0.766138
1842.27, 0.766013
1842.93, 0.767013
1843.58, 0.767387
1844.24, 0.766763
1844.9, 0.766763
1845.55, 0.767387
1846.21, 0.767512
1846.87, 0.766763
1847.53, 0.766388
1848.18, 0.766388
1848.84, 0.767013
1849.5, 0.767887
1850.16, 0.768012
1850.82, 0.768262
1851.48, 0.768887
1852.14, 0.769262
1852.81, 0.768512
1853.47, 0.767387
1854.13, 0.767138
1854.8, 0.768262
1855.46, 0.768637
1856.12, 0.768137
1856.79, 0.768012
1857.45, 0.768262
1858.12, 0.768637
1858.79, 0.768512
1859.45, 0.768137
1860.12, 0.768387
1860.79, 0.768637
1861.46, 0.769012
1862.12, 0.769636
1862.79, 0.769636
1863.46, 0.769137
1864.13, 0.768762
1864.8, 0.768887
1865.48, 0.768887
1866.15, 0.769511
1866.82, 0.769386
1867.49, 0.768387
1868.16, 0.767512
1868.84, 0.767887
1869.51, 0.768387
1870.19, 0.768262
1870.86, 0.767138
1871.54, 0.767387
1872.21, 0.768262
1872.89, 0.767263
1873.56, 0.766763
1874.24, 0.767637
1874.92, 0.767887
1875.6, 0.767762
1876.28, 0.767263
1876.96, 0.767013
1877.64, 0.767512
1878.32, 0.768012
1879.0, 0.767387
1879.68, 0.767263
1880.36, 0.767637
1881.04, 0.767263
1881.73, 0.767138
1882.41, 0.767263
1883.09, 0.766888
1883.78, 0.766513
1884.46, 0.766388
1885.15, 0.766638
1885.83, 0.766638
1886.52, 0.766138
1887.21, 0.765513
1887.89, 0.765513
1888.58, 0.765263
1889.27, 0.765014
1889.96, 0.764764
1890.65, 0.764514
1891.34, 0.764889
1892.03, 0.764764
1892.72, 0.764389
1893.41, 0.763639
1894.1, 0.763639
1894.79, 0.763639
1895.49, 0.763514
1896.18, 0.763139
1896.87, 0.762640
1897.57, 0.762640
1898.26, 0.762640
1898.96, 0.761890
1899.65, 0.760766
1900.35, 0.760766
1901.05, 0.761390
1901.74, 0.761640
1902.44, 0.761015
1903.14, 0.760391
1903.84, 0.760766
1904.54, 0.760890
1905.24, 0.760141
1905.94, 0.759766
1906.64, 0.759641
1907.34, 0.759766
1908.04, 0.760141
1908.75, 0.760516
1909.45, 0.760516
1910.15, 0.760141
1910.86, 0.760016
1911.56, 0.760141
1912.27, 0.760266
1912.97, 0.759891
1913.68, 0.759141
1914.39, 0.759266
1915.09, 0.760016
1915.8, 0.760266
1916.51, 0.760141
1917.22, 0.760391
1917.93, 0.760266
1918.64, 0.760266
1919.35, 0.760266
1920.06, 0.759516
1920.77, 0.758891
1921.48, 0.759516
1922.19, 0.760516
1922.91, 0.760890
1923.62, 0.760766
1924.33, 0.760266
1925.05, 0.760766
1925.76, 0.761390
1926.48, 0.761515
1927.19, 0.761015
1927.91, 0.760766
1928.63, 0.760890
1929.35, 0.761140
1930.07, 0.761390
1930.78, 0.761515
1931.5, 0.761890
1932.22, 0.762515
1932.94, 0.762390
1933.66, 0.762140
1934.39, 0.762390
1935.11, 0.763014
1935.83, 0.763014
1936.55, 0.762765
1937.28, 0.762890
1938.0, 0.763264
1938.73, 0.763389
1939.45, 0.763389
1940.18, 0.763764
1940.9, 0.763889
1941.63, 0.764014
1942.36, 0.763889
1943.09, 0.764014
1943.81, 0.764264
1944.54, 0.764514
1945.27, 0.765139
1946.0, 0.765388
1946.73, 0.765388
1947.47, 0.765388
1948.2, 0.765139
1948.93, 0.765513
1949.66, 0.765763
1950.4, 0.765888
1951.13, 0.766263
1951.86, 0.766388
1952.6, 0.766513
1953.34, 0.766263
1954.07, 0.766263
1954.81, 0.766513
1955.55, 0.766513
1956.29, 0.766513
1957.02, 0.767138
1957.76, 0.767387
1958.5, 0.767387
1959.24, 0.767138
1959.98, 0.766888
1960.72, 0.767138
1961.47, 0.767263
1962.21, 0.767387
1962.95, 0.767512
1963.7, 0.767512
1964.44, 0.767387
1965.18, 0.767512
1965.93, 0.768012
1966.67, 0.768012
1967.42, 0.767887
1968.17, 0.767637
1968.92, 0.767637
1969.66, 0.768387
1970.41, 0.768137
1971.16, 0.767512
1971.91, 0.767512
1972.66, 0.768012
1973.41, 0.768637
1974.16, 0.768637
1974.92, 0.768512
1975.67, 0.768137
1976.42, 0.768012
1977.18, 0.768012
1977.93, 0.768262
1978.69, 0.768762
1979.44, 0.769012
1980.2, 0.768637
1980.95, 0.768387
1981.71, 0.768762
1982.47, 0.768887
1983.23, 0.768512
1983.99, 0.768762
1984.74, 0.769012
1985.51, 0.768887
1986.27, 0.769012
1987.03, 0.769262
1987.79, 0.769636
1988.55, 0.769386
1989.32, 0.769012
1990.08, 0.769137
1990.84, 0.769137
1991.61, 0.769386
1992.37, 0.769886
1993.14, 0.769886
1993.9, 0.770011
1994.67, 0.770386
1995.44, 0.770386
1996.21, 0.770261
1996.98, 0.770386
1997.75, 0.770636
1998.52, 0.770636
1999.29, 0.770761
2000.06, 0.770886
2000.83, 0.771261
2001.6, 0.771511
2002.38, 0.771386
2003.15, 0.772010
2003.93, 0.772135
2004.7, 0.771885
2005.48, 0.772135
2006.25, 0.772385
2007.03, 0.772010
2007.81, 0.771635
2008.58, 0.771885
2009.36, 0.772635
2010.14, 0.773135
2010.92, 0.773260
2011.7, 0.773135
2012.48, 0.773385
2013.26, 0.773510
2014.05, 0.773884
2014.83, 0.773884
2015.61, 0.773884
2016.4, 0.774134
2017.18, 0.774384
2017.97, 0.774759
2018.75, 0.774884
2019.54, 0.775134
2020.32, 0.775259
2021.11, 0.775634
2021.9, 0.775758
2022.69, 0.775634
2023.48, 0.776008
2024.27, 0.776383
2025.06, 0.776383
2025.85, 0.776508
2026.64, 0.776383
2027.44, 0.776758
2028.23, 0.777133
2029.02, 0.777258
2029.82, 0.777508
2030.61, 0.777633
2031.41, 0.777633
2032.2, 0.777633
2033.0, 0.777758
2033.8, 0.778132
2034.6, 0.778632
2035.4, 0.779382
2036.2, 0.779507
2037.0, 0.779382
2037.8, 0.779382
2038.6, 0.779382
2039.4, 0.779632
2040.2, 0.779632
2041.01, 0.779382
2041.81, 0.779632
2042.61, 0.779757
2043.42, 0.779632
2044.22, 0.780006
2045.03, 0.780631
2045.84, 0.780756
2046.65, 0.780506
2047.46, 0.780131
2048.26, 0.780506
2049.07, 0.780506
2049.88, 0.780381
2050.69, 0.780631
2051.51, 0.781131
2052.32, 0.781381
2053.13, 0.781506
2053.94, 0.781506
2054.76, 0.781131
2055.57, 0.780756
2056.39, 0.781006
2057.2, 0.781506
2058.02, 0.782006
2058.84, 0.782131
2059.66, 0.781631
2060.48, 0.781631
2061.29, 0.781881
2062.11, 0.782131
2062.94, 0.782131
2063.76, 0.782006
2064.58, 0.782131
2065.4, 0.781881
2066.22, 0.781506
2067.05, 0.781381
2067.87, 0.781256
2068.7, 0.781381
2069.52, 0.781631
2070.35, 0.781631
2071.18, 0.781506
2072.0, 0.781756
2072.83, 0.781881
2073.66, 0.781631
2074.49, 0.781381
2075.32, 0.781256
2076.15, 0.781506
2076.98, 0.781381
2077.82, 0.781381
2078.65, 0.781506
2079.48, 0.781381
2080.32, 0.781006
2081.15, 0.781006
2081.99, 0.781006
2082.83, 0.780756
2083.66, 0.780756
2084.5, 0.780631
2085.34, 0.780631
2086.18, 0.780881
2087.02, 0.781006
2087.86, 0.781006
2088.7, 0.781006
2089.54, 0.780631
2090.39, 0.780381
2091.23, 0.780381
2092.07, 0.780506
2092.92, 0.780506
2093.76, 0.780381
2094.61, 0.780256
2095.45, 0.779757
2096.3, 0.779632
2097.15, 0.780131
2098.0, 0.780381
2098.85, 0.780256
2099.7, 0.780006
2100.55, 0.779882
2101.4, 0.780131
2102.25, 0.779757
2103.1, 0.779507
2103.96, 0.779757
2104.81, 0.780131
2105.67, 0.780006
2106.52, 0.779757
2107.38, 0.779757
2108.24, 0.779882
2109.09, 0.779632
2109.95, 0.779632
2110.81, 0.779882
2111.67, 0.780006
2112.53, 0.780131
2113.39, 0.780131
2114.25, 0.780131
2115.12, 0.779882
2115.98, 0.779632
2116.84, 0.779757
2117.71, 0.780006
2118.58, 0.780506
2119.44, 0.780631
2120.31, 0.780631
2121.18, 0.780506
2122.04, 0.781006
2122.91, 0.781006
2123.78, 0.781131
2124.65, 0.781381
2125.52, 0.781631
2126.4, 0.781381
2127.27, 0.781381
2128.14, 0.781881
2129.02, 0.782380
2129.89, 0.782131
2130.77, 0.781881
2131.64, 0.782006
2132.52, 0.782380
2133.4, 0.782880
2134.27, 0.783255
2135.15, 0.783130
2136.03, 0.782755
2136.91, 0.782755
2137.79, 0.782880
2138.68, 0.782755
2139.56, 0.782630
2140.44, 0.783005
2141.33, 0.783380
2142.21, 0.783380
2143.1, 0.783380
2143.99, 0.783630
2144.87, 0.783880
2145.76, 0.784254
2146.65, 0.784379
2147.54, 0.784629
2148.43, 0.784504
2149.32, 0.784379
2150.21, 0.784254
2151.1, 0.784130
2151.99, 0.784379
2152.89, 0.784504
2153.78, 0.784254
2154.68, 0.784130
2155.57, 0.784504
2156.47, 0.784504
2157.37, 0.784504
2158.27, 0.784754
2159.16, 0.784629
2160.06, 0.784504
2160.96, 0.784130
2161.86, 0.783755
2162.77, 0.783380
2163.67, 0.783505
2164.57, 0.783380
2165.48, 0.783255
2166.38, 0.783380
2167.29, 0.783005
2168.2, 0.782505
2169.1, 0.781881
2170.01, 0.781381
2170.92, 0.781006
2171.83, 0.780881
2172.74, 0.780506
2173.65, 0.779632
2174.56, 0.779007
2175.47, 0.778382
2176.39, 0.777633
2177.3, 0.776758
2178.22, 0.776008
2179.13, 0.775259
2180.05, 0.774509
2180.96, 0.774009
2181.88, 0.772885
2182.8, 0.771635
2183.72, 0.770511
2184.64, 0.769511
2185.56, 0.768387
2186.48, 0.767512
2187.41, 0.766763
2188.33, 0.765888
2189.25, 0.765014
2190.18, 0.764514
2191.1, 0.764014
2192.03, 0.762890
2192.96, 0.762265
2193.89, 0.762140
2194.82, 0.762390
2195.74, 0.762265
2196.68, 0.762015
2197.61, 0.761890
2198.54, 0.762140
2199.47, 0.762390
2200.4, 0.762890
2201.34, 0.763639
2202.28, 0.764264
2203.21, 0.765388
2204.15, 0.766013
2205.08, 0.766638
2206.02, 0.767512
2206.96, 0.768387
2207.9, 0.769137
2208.84, 0.770011
2209.78, 0.770886
2210.73, 0.772135
2211.67, 0.773260
2212.61, 0.774009
2213.56, 0.775009
2214.5, 0.775758
2215.45, 0.776383
2216.4, 0.777133
2217.35, 0.778132
2218.3, 0.778632
2219.24, 0.779007
2220.2, 0.779382
2221.15, 0.779757
2222.1, 0.779632
2223.05, 0.779757
2224.0, 0.780131
2224.96, 0.780756
2225.91, 0.781131
2226.87, 0.781381
2227.83, 0.781756
2228.79, 0.782131
2229.74, 0.782380
2230.7, 0.782630
2231.66, 0.782630
2232.63, 0.782505
2233.59, 0.782755
2234.55, 0.782880
2235.51, 0.783005
2236.48, 0.783255
2237.44, 0.783505
2238.41, 0.783255
2239.38, 0.783505
2240.34, 0.783755
2241.31, 0.784379
2242.28, 0.784629
2243.25, 0.784504
2244.22, 0.784504
2245.19, 0.784629
2246.17, 0.785004
2247.14, 0.784879
2248.12, 0.784629
2249.09, 0.784879
2250.07, 0.784984
2251.04, 0.785297
2252.02, 0.785192
2253.0, 0.784984
2253.98, 0.785088
2254.96, 0.785297
2255.94, 0.785401
2256.92, 0.785401
2257.91, 0.785401
2258.89, 0.785401
2259.88, 0.785297
2260.86, 0.785610
2261.85, 0.786132
2262.83, 0.786132
2263.82, 0.785610
2264.81, 0.785088
2265.8, 0.784879
2266.79, 0.784984
2267.78, 0.785088
2268.78, 0.785610
2269.77, 0.785401
2270.76, 0.785401
2271.76, 0.785819
2272.75, 0.785401
2273.75, 0.785088
2274.75, 0.785192
2275.75, 0.785192
2276.75, 0.785297
2277.75, 0.785506
2278.75, 0.785297
2279.75, 0.785610
2280.75, 0.785506
2281.76, 0.785088
2282.76, 0.784984
2283.77, 0.784984
2284.77, 0.784879
2285.78, 0.784984
2286.79, 0.784775
2287.8, 0.784462
2288.81, 0.784044
2289.82, 0.783731
2290.83, 0.783940
2291.84, 0.784044
2292.86, 0.784357
2293.87, 0.784253
2294.89, 0.783835
2295.91, 0.784044
2296.92, 0.784148
2297.94, 0.783104
2298.96, 0.782165
2299.98, 0.782165
2301.0, 0.782165
2302.02, 0.782269
2303.04, 0.782165
2304.07, 0.782060
2305.09, 0.781852
2306.12, 0.781225
2307.15, 0.780703
2308.17, 0.779972
2309.2, 0.779346
2310.23, 0.779346
2311.26, 0.779346
2312.29, 0.778720
2313.32, 0.778615
2314.35, 0.778406
2315.39, 0.777989
2316.42, 0.777780
2317.46, 0.777362
2318.5, 0.776840
2319.53, 0.777049
2320.57, 0.776840
2321.61, 0.775901
2322.65, 0.775170
2323.69, 0.774544
2324.73, 0.774022
2325.78, 0.773917
2326.82, 0.773813
2327.86, 0.773186
2328.91, 0.772351
2329.96, 0.772038
2331.01, 0.771516
2332.05, 0.771412
2333.1, 0.770785
2334.15, 0.770368
2335.21, 0.770263
2336.26, 0.770263
2337.31, 0.769950
2338.36, 0.769324
2339.42, 0.768488
2340.48, 0.768384
2341.53, 0.769219
2342.59, 0.768906
2343.65, 0.767862
2344.71, 0.767444
2345.77, 0.767653
2346.83, 0.767758
2347.9, 0.767549
2348.96, 0.767027
2350.02, 0.766714
2351.09, 0.767340
2352.16, 0.767444
2353.23, 0.767444
2354.29, 0.767236
2355.36, 0.767340
2356.43, 0.767966
2357.51, 0.768279
2358.58, 0.768175
2359.65, 0.768175
2360.73, 0.768488
2361.8, 0.768906
2362.88, 0.768906
2363.96, 0.769115
2365.03, 0.769637
2366.11, 0.769637
2367.19, 0.769950
2368.27, 0.769846
2369.36, 0.769324
2370.44, 0.769115
2371.53, 0.768802
2372.61, 0.769010
2373.7, 0.768802
2374.78, 0.769219
2375.87, 0.769846
2376.96, 0.770159
2378.05, 0.769950
2379.14, 0.769324
2380.24, 0.768906
2381.33, 0.768802
2382.42, 0.768802
2383.52, 0.769219
2384.61, 0.768906
2385.71, 0.768697
2386.81, 0.769324
2387.91, 0.769846
2389.01, 0.769532
2390.11, 0.769637
2391.22, 0.770054
2392.32, 0.769950
2393.42, 0.769950
2394.53, 0.769637
2395.64, 0.768593
2396.74, 0.768697
2397.85, 0.769532
2398.96, 0.769741
2400.07, 0.769219
2401.18, 0.768906
2402.3, 0.768697
2403.41, 0.768175
2404.52, 0.767758
2405.64, 0.767549
2406.76, 0.767549
2407.88, 0.767340
2408.99, 0.767027
2410.11, 0.766714
2411.23, 0.766192
2412.36, 0.765356
2413.48, 0.764834
2414.6, 0.764834
2415.73, 0.764521
2416.85, 0.764208
2417.98, 0.764104
2419.11, 0.763477
2420.24, 0.762642
2421.37, 0.762642
2422.5, 0.762433
2423.64, 0.761598
2424.77, 0.761076
2425.9, 0.760867
2427.04, 0.760972
2428.18, 0.760554
2429.31, 0.759510
2430.45, 0.758988
2431.59, 0.759197
2432.73, 0.759301
2433.88, 0.758988
2435.02, 0.757944
2436.16, 0.757735
2437.31, 0.758048
2438.45, 0.757944
2439.6, 0.757631
2440.75, 0.757631
2441.9, 0.757631
2443.05, 0.757213
2444.2, 0.757004
2445.35, 0.757213
2446.51, 0.757422
2447.67, 0.758153
2448.82, 0.758257
2449.98, 0.758257
2451.14, 0.758362
2452.3, 0.758779
2453.46, 0.758362
2454.62, 0.757840
2455.78, 0.757735
2456.94, 0.758048
2458.11, 0.758257
2459.28, 0.758362
2460.44, 0.758048
2461.61, 0.757944
2462.78, 0.757944
2463.95, 0.758362
2465.12, 0.758570
2466.3, 0.758779
2467.47, 0.758362
2468.65, 0.757840
2469.82, 0.758048
2471.0, 0.758153
2472.18, 0.758048
2473.36, 0.758362
2474.54, 0.758570
2475.72, 0.758048
2476.9, 0.757840
2478.08, 0.757840
2479.27, 0.757944
2480.46, 0.758570
2481.64, 0.758675
2482.83, 0.758153
2484.02, 0.758048
2485.21, 0.757944
2486.4, 0.757840
2487.6, 0.757735
2488.79, 0.757840
2489.99, 0.757213
2491.18, 0.757422
2492.38, 0.757944
2493.58, 0.757944
2494.78, 0.757422
2495.98, 0.757213
2497.18, 0.757422
2498.39, 0.757631
2499.59, 0.757840
2500.8, 0.758048
2502.01, 0.758153
2503.21, 0.758257
2504.42, 0.758466
2505.63, 0.758257
2506.84, 0.758988
2508.06, 0.759614
2509.27, 0.759614
2510.49, 0.759510
2511.7, 0.759301
2512.92, 0.759510
2514.14, 0.759406
2515.36, 0.759197
2516.58, 0.759614
2517.8, 0.759928
2519.03, 0.760032
2520.25, 0.759823
2521.48, 0.759719
2522.7, 0.759823
2523.93, 0.760032
2525.16, 0.760345
2526.39, 0.760554
2527.62, 0.760554
2528.86, 0.760658
2530.09, 0.760032
2531.33, 0.759092
2532.56, 0.759092
2533.8, 0.759614
2535.04, 0.759092
2536.28, 0.758988
2537.52, 0.760972
2538.76, 0.761911
2540.01, 0.761598
2541.25, 0.760032
2542.5, 0.757526
2543.75, 0.758048
2544.99, 0.759928
2546.24, 0.759928
2547.49, 0.758048
2548.75, 0.759301
2550.0, 0.759301
2551.26, 0.757004
2552.51, 0.755334
2553.77, 0.758048
2555.03, 0.761389
2556.29, 0.762016
2557.55, 0.761807
2558.81, 0.759197
2560.08, 0.751889
2561.34, 0.744790
2562.61, 0.744372
2563.88, 0.746147
2565.14, 0.752202
2566.41, 0.758988
2567.68, 0.758153
2568.96, 0.751054
2570.23, 0.751158
2571.51, 0.755438
2572.78, 0.746773
2574.06, 0.746878
2575.34, 0.752411
2576.62, 0.750114
2577.9, 0.753246
2579.18, 0.757004
2580.47, 0.752515
2581.75, 0.750427
2583.04, 0.741658
2584.32, 0.739361
2585.61, 0.747713
2586.9, 0.744998
2588.2, 0.746251
2589.49, 0.750845
2590.78, 0.754812
2592.08, 0.751576
2593.37, 0.727668
2594.67, 0.703343
2595.97, 0.719316
2597.27, 0.744059
2598.57, 0.753872
2599.88, 0.753246
2601.18, 0.748548
2602.49, 0.744581
2603.79, 0.737482
2605.1, 0.725998
2606.41, 0.730174
2607.72, 0.740092
2609.03, 0.742910
2610.35, 0.745729
2611.66, 0.748757
2612.98, 0.747400
2614.3, 0.747504
2615.62, 0.737690
2616.94, 0.729130
2618.26, 0.736229
2619.58, 0.730174
2620.91, 0.730278
2622.23, 0.745938
2623.56, 0.750740
2624.89, 0.745938
2626.22, 0.734036
2627.55, 0.737795
2628.88, 0.736333
2630.21, 0.723701
2631.55, 0.732784
2632.89, 0.741866
2634.22, 0.742806
2635.56, 0.748026
2636.9, 0.750010
2638.25, 0.750218
2639.59, 0.748966
2640.93, 0.747295
2642.28, 0.745938
2643.63, 0.746147
2644.98, 0.741866
2646.33, 0.741762
2647.68, 0.745103
2649.03, 0.746460
2650.39, 0.743850
2651.74, 0.737273
2653.1, 0.735498
2654.46, 0.737795
2655.82, 0.737795
2657.18, 0.740927
2658.54, 0.736124
2659.9, 0.732157
2661.27, 0.732366
2662.64, 0.732262
2664.01, 0.716393
2665.38, 0.700942
2666.74, 0.700524
2668.12, 0.711799
2669.49, 0.699167
2670.87, 0.693738
2672.24, 0.717332
2673.62, 0.724223
2675.0, 0.715558
2676.38, 0.705118
2677.76, 0.706057
2679.15, 0.707519
2680.54, 0.716288
2681.92, 0.718794
2683.31, 0.713992
2684.7, 0.712217
2686.09, 0.710860
2687.48, 0.710129
2688.88, 0.709607
2690.27, 0.707414
2691.67, 0.700315
2693.07, 0.684655
2694.47, 0.677243
2695.87, 0.679435
2697.27, 0.681628
2698.67, 0.679331
2700.08, 0.670770
2701.49, 0.663671
2702.9, 0.663462
2704.31, 0.661583
2705.72, 0.658660
2707.13, 0.653440
2708.54, 0.643104
2709.96, 0.629219
2711.38, 0.625252
2712.8, 0.634334
2714.22, 0.634439
2715.64, 0.628592
2717.06, 0.619405
2718.49, 0.606355
2719.91, 0.585997
2721.34, 0.583596
2722.77, 0.584536
2724.2, 0.573156
2725.63, 0.574618
2727.07, 0.579629
2728.5, 0.578167
2729.94, 0.573574
2731.38, 0.569189
2732.82, 0.562298
2734.26, 0.551858
2735.7, 0.548622
2737.15, 0.546743
2738.59, 0.532962
2740.04, 0.522626
2741.49, 0.524923
2742.94, 0.531083
2744.39, 0.531605
2745.84, 0.528682
2747.3, 0.525236
2748.76, 0.521269
2750.21, 0.516571
2751.67, 0.511456
2753.14, 0.504670
2754.6, 0.490367
2756.06, 0.486713
2757.53, 0.494752
2759.0, 0.496944
2760.46, 0.493603
2761.94, 0.486400
2763.41, 0.484416
2764.88, 0.487235
2766.36, 0.486295
2767.83, 0.483790
2769.31, 0.482224
2770.79, 0.480240
2772.27, 0.482746
2773.76, 0.485251
2775.24, 0.484938
2776.73, 0.482954
2778.22, 0.482224
2779.71, 0.480762
2781.2, 0.479196
2782.69, 0.479092
2784.18, 0.478674
2785.68, 0.473976
2787.18, 0.470322
2788.68, 0.472410
2790.18, 0.474707
2791.68, 0.474289
2793.19, 0.472619
2794.69, 0.470948
2796.2, 0.469591
2797.71, 0.468234
2799.22, 0.466981
2800.73, 0.463849
2802.24, 0.458212
2803.76, 0.455915
2805.28, 0.457481
2806.8, 0.457794
2808.32, 0.456646
2809.84, 0.455810
2811.36, 0.454871
2812.89, 0.453305
2814.42, 0.450799
2815.94, 0.449129
2817.48, 0.447563
2819.01, 0.444744
2820.54, 0.443282
2822.08, 0.442656
2823.61, 0.441821
2825.15, 0.440046
2826.69, 0.437645
2828.23, 0.435870
2829.78, 0.434722
2831.32, 0.432634
2832.87, 0.429919
2834.42, 0.428040
2835.97, 0.426787
2837.52, 0.425012
2839.08, 0.423342
2840.63, 0.421776
2842.19, 0.420210
2843.75, 0.418540
2845.31, 0.415616
2846.87, 0.410710
2848.44, 0.404654
2850.0, 0.400270
2851.57, 0.399852
2853.14, 0.401940
2854.71, 0.403819
2856.28, 0.405176
2857.86, 0.405490
2859.43, 0.404550
2861.01, 0.403610
2862.59, 0.402775
2864.17, 0.401731
2865.76, 0.400270
2867.34, 0.398808
2868.93, 0.397346
2870.52, 0.395780
2872.11, 0.394423
2873.7, 0.393901
2875.29, 0.392962
2876.89, 0.391813
2878.49, 0.390874
2880.08, 0.390352
2881.69, 0.389516
2883.29, 0.388786
2884.89, 0.388264
2886.5, 0.387846
2888.11, 0.387011
2889.72, 0.386593
2891.33, 0.386071
2892.94, 0.385236
2894.56, 0.384296
2896.17, 0.383461
2897.79, 0.382939
2899.42, 0.381791
2901.04, 0.380956
2902.66, 0.380747
2904.29, 0.380538
2905.92, 0.380434
2907.55, 0.380120
2909.18, 0.379494
2910.81, 0.379076
2912.45, 0.378868
2914.08, 0.378450
2915.72, 0.378241
2917.36, 0.378137
2919.01, 0.378032
2920.65, 0.377928
2922.3, 0.377406
2923.94, 0.377197
2925.59, 0.377197
2927.25, 0.377093
2928.9, 0.376884
2930.56, 0.377093
2932.21, 0.377510
2933.87, 0.377406
2935.53, 0.377302
2937.2, 0.377719
2938.86, 0.378032
2940.53, 0.377928
2942.2, 0.377928
2943.87, 0.378450
2945.54, 0.378763
2947.22, 0.378868
2948.89, 0.379807
2950.57, 0.380434
2952.25, 0.380747
2953.93, 0.380851
2955.62, 0.381060
2957.3, 0.381582
2958.99, 0.382208
2960.68, 0.382626
2962.37, 0.383148
2964.07, 0.383774
2965.76, 0.384401
2967.46, 0.384818
2969.16, 0.384818
2970.86, 0.385027
2972.56, 0.385862
2974.27, 0.386489
2975.98, 0.387115
2977.69, 0.388159
2979.4, 0.389099
2981.11, 0.389621
2982.83, 0.390352
2984.54, 0.390978
2986.26, 0.391604
2987.98, 0.392544
2989.71, 0.393170
2991.43, 0.394006
2993.16, 0.394945
2994.89, 0.395780
2996.62, 0.396720
2998.35, 0.397764
3000.09, 0.398704
3001.83, 0.399643
3003.57, 0.400478
3005.31, 0.401105
3007.05, 0.401940
3008.79, 0.402984
3010.54, 0.403819
3012.29, 0.404446
3014.04, 0.405490
3015.8, 0.406116
3017.55, 0.406847
3019.31, 0.407786
3021.07, 0.408622
3022.83, 0.409352
3024.59, 0.410083
3026.36, 0.410605
3028.13, 0.411336
3029.9, 0.412276
3031.67, 0.413215
3033.44, 0.414050
3035.22, 0.414677
3037.0, 0.415199
3038.78, 0.416138
3040.56, 0.416974
3042.34, 0.417496
3044.13, 0.418018
3045.92, 0.418748
3047.71, 0.419584
3049.5, 0.420523
3051.3, 0.421045
3053.09, 0.421672
3054.89, 0.422507
3056.69, 0.423133
3058.5, 0.423864
3060.3, 0.424699
3062.11, 0.425430
3063.92, 0.426474
3065.73, 0.427414
3067.55, 0.428040
3069.36, 0.428562
3071.18, 0.429188
3073.0, 0.430024
3074.82, 0.431068
3076.65, 0.431903
3078.48, 0.432738
3080.31, 0.433886
3082.14, 0.435139
3083.97, 0.436288
3085.8, 0.437227
3087.64, 0.438062
3089.48, 0.439106
3091.33, 0.440150
3093.17, 0.441508
3095.02, 0.442760
3096.87, 0.444013
3098.72, 0.445057
3100.57, 0.446310
3102.43, 0.447354
3104.28, 0.448502
3106.14, 0.449651
3108.01, 0.451008
3109.87, 0.452365
3111.74, 0.453722
3113.61, 0.454975
3115.48, 0.456228
3117.35, 0.457794
3119.23, 0.459151
3121.1, 0.460404
3122.98, 0.461657
3124.87, 0.462910
3126.75, 0.464580
3128.64, 0.466042
3130.53, 0.467608
3132.42, 0.469278
3134.31, 0.470635
3136.21, 0.471888
3138.11, 0.473350
3140.01, 0.474811
3141.91, 0.476273
3143.82, 0.477630
3145.73, 0.478987
3147.64, 0.480449
3149.55, 0.482328
3151.46, 0.484207
3153.38, 0.485669
3155.3, 0.487130
3157.22, 0.488592
3159.14, 0.490054
3161.07, 0.491620
3163.0, 0.493081
3164.93, 0.494230
3166.86, 0.495587
3168.8, 0.497257
3170.74, 0.498719
3172.68, 0.500285
3174.62, 0.501851
3176.56, 0.503312
3178.51, 0.504461
3180.46, 0.505818
3182.42, 0.507488
3184.37, 0.508950
3186.33, 0.510098
3188.29, 0.511351
3190.25, 0.512813
3192.21, 0.514170
3194.18, 0.515423
3196.15, 0.516571
3198.12, 0.517720
3200.09, 0.518868
3202.07, 0.520225
3204.05, 0.521687
3206.03, 0.523044
3208.02, 0.524192
3210.0, 0.525236
3211.99, 0.526280
3213.98, 0.527429
3215.98, 0.528682
3217.97, 0.529934
3219.97, 0.530978
3221.97, 0.532127
3223.98, 0.533380
3225.98, 0.534424
3227.99, 0.535572
3230.0, 0.536512
3232.02, 0.537556
3234.03, 0.538913
3236.05, 0.540061
3238.07, 0.541001
3240.1, 0.541940
3242.12, 0.542776
3244.15, 0.543715
3246.18, 0.544864
3248.22, 0.545908
3250.25, 0.546952
3252.29, 0.547891
3254.33, 0.549040
3256.38, 0.549979
3258.43, 0.550710
3260.47, 0.551650
3262.53, 0.552485
3264.58, 0.553529
3266.64, 0.554677
3268.7, 0.555826
3270.76, 0.556661
3272.82, 0.557600
3274.89, 0.558749
3276.96, 0.560002
3279.04, 0.560837
3281.11, 0.561881
3283.19, 0.563134
3285.27, 0.564178
3287.35, 0.565222
3289.44, 0.566579
3291.53, 0.567832
3293.62, 0.568771
3295.71, 0.569920
3297.81, 0.571068
3299.91, 0.572425
3302.01, 0.573782
3304.11, 0.575244
3306.22, 0.576601
3308.33, 0.578063
3310.44, 0.579524
3312.56, 0.580986
3314.68, 0.582552
3316.8, 0.584118
3318.92, 0.585475
3321.05, 0.586937
3323.18, 0.588712
3325.31, 0.590591
3327.44, 0.592052
3329.58, 0.593618
3331.72, 0.595393
3333.86, 0.596959
3336.01, 0.598212
3338.16, 0.599569
3340.31, 0.601240
3342.46, 0.602701
3344.61, 0.603954
3346.77, 0.604894
3348.94, 0.606042
3351.1, 0.607190
3353.27, 0.608652
3355.44, 0.609592
3357.61, 0.610322
3359.79, 0.611262
3361.97, 0.612097
3364.15, 0.612828
3366.33, 0.613768
3368.52, 0.614707
3370.71, 0.615438
3372.9, 0.616378
3375.1, 0.617317
3377.3, 0.618570
3379.5, 0.619823
3381.71, 0.621076
3383.91, 0.622642
3386.12, 0.623999
3388.34, 0.625356
3390.55, 0.626713
3392.77, 0.628070
3394.99, 0.629323
3397.22, 0.630472
3399.45, 0.631307
3401.68, 0.632038
3403.91, 0.632873
3406.15, 0.633812
3408.39, 0.634543
3410.63, 0.635378
3412.87, 0.636214
3415.12, 0.637362
3417.37, 0.638510
3419.63, 0.639659
3421.88, 0.641016
3424.14, 0.642478
3426.41, 0.644044
3428.67, 0.645610
3430.94, 0.646967
3433.21, 0.648220
3435.49, 0.649368
3437.77, 0.650203
3440.05, 0.651143
3442.33, 0.652396
3444.62, 0.653544
3446.91, 0.654484
3449.2, 0.655528
3451.5, 0.656363
3453.8, 0.657407
3456.1, 0.658346
3458.41, 0.659286
3460.72, 0.660330
3463.03, 0.661478
3465.34, 0.662522
3467.66, 0.663253
3469.98, 0.664088
3472.31, 0.664924
3474.63, 0.665654
3476.96, 0.666594
3479.3, 0.667325
3481.64, 0.667742
3483.97, 0.668264
3486.32, 0.668891
3488.66, 0.669413
3491.01, 0.669726
3493.36, 0.669830
3495.72, 0.670039
3498.08, 0.670352
3500.44, 0.670770
3502.81, 0.671083
3505.18, 0.671396
3507.55, 0.671814
3509.92, 0.672440
3512.3, 0.673171
3514.68, 0.673589
3517.06, 0.674111
3519.45, 0.674946
3521.84, 0.675677
3524.24, 0.676408
3526.64, 0.676930
3529.04, 0.677765
3531.44, 0.678496
3533.85, 0.679122
3536.26, 0.679748
3538.67, 0.680270
3541.09, 0.681106
3543.51, 0.681732
3545.93, 0.682358
3548.36, 0.682985
3550.79, 0.683716
3553.22, 0.684133
3555.66, 0.684551
3558.1, 0.684968
3560.54, 0.685595
3562.99, 0.685908
3565.44, 0.686534
3567.9, 0.687161
3570.35, 0.687578
3572.81, 0.687787
3575.28, 0.688205
3577.75, 0.688622
3580.22, 0.688831
3582.69, 0.688936
3585.17, 0.688936
3587.65, 0.689040
3590.14, 0.689353
3592.62, 0.689458
3595.11, 0.689666
3597.61, 0.689666
3600.11, 0.689562
3602.61, 0.689353
3605.11, 0.689249
3607.62, 0.689249
3610.14, 0.689249
3612.65, 0.689353
3615.17, 0.689353
3617.69, 0.689040
3620.22, 0.688936
3622.75, 0.688936
3625.28, 0.688727
3627.82, 0.688518
3630.36, 0.688518
3632.9, 0.688414
3635.45, 0.688309
3638.0, 0.687996
3640.56, 0.687787
3643.12, 0.687370
3645.68, 0.687161
3648.24, 0.686952
3650.81, 0.686639
3653.39, 0.686117
3655.96, 0.685908
3658.54, 0.685490
3661.13, 0.685282
3663.71, 0.685282
3666.3, 0.684864
3668.9, 0.684551
3671.5, 0.684342
3674.1, 0.684238
3676.7, 0.684029
3679.31, 0.683924
3681.93, 0.683716
3684.54, 0.683611
3687.17, 0.683716
3689.79, 0.683611
3692.42, 0.683298
3695.05, 0.683194
3697.69, 0.683089
3700.32, 0.682776
3702.97, 0.682776
3705.61, 0.682776
3708.27, 0.682567
3710.92, 0.682463
3713.58, 0.682463
3716.24, 0.682358
3718.91, 0.682045
3721.58, 0.681836
3724.25, 0.681836
3726.93, 0.681836
3729.61, 0.681628
3732.29, 0.681419
3734.98, 0.681210
3737.67, 0.681001
3740.37, 0.680897
3743.07, 0.680792
3745.78, 0.680479
3748.49, 0.680270
3751.2, 0.680062
3753.91, 0.679853
3756.63, 0.679435
3759.36, 0.679122
3762.09, 0.678704
3764.82, 0.678391
3767.55, 0.677974
3770.29, 0.677660
3773.04, 0.677243
3775.78, 0.676721
3778.54, 0.676199
3781.29, 0.675677
3784.05, 0.675050
3786.82, 0.674737
3789.59, 0.674320
3792.36, 0.673589
3795.13, 0.673171
3797.92, 0.672440
3800.7, 0.671710
3803.49, 0.671188
3806.28, 0.670874
3809.08, 0.670248
3811.88, 0.669413
3814.68, 0.668786
3817.49, 0.668264
3820.31, 0.667742
3823.12, 0.667220
3825.94, 0.666803
3828.77, 0.666385
3831.6, 0.665968
3834.43, 0.665550
3837.27, 0.665132
3840.11, 0.664819
3842.96, 0.664715
3845.81, 0.664506
3848.67, 0.664088
3851.53, 0.663566
3854.39, 0.663044
3857.26, 0.662627
3860.13, 0.662209
3863.01, 0.661792
3865.89, 0.661478
3868.77, 0.661165
3871.66, 0.660643
3874.55, 0.660121
3877.45, 0.659912
3880.35, 0.659704
3883.26, 0.659390
3886.17, 0.659077
3889.09, 0.658555
3892.01, 0.658033
3894.93, 0.657616
3897.86, 0.657198
3900.79, 0.656780
3903.73, 0.656258
3906.67, 0.655632
3909.62, 0.655110
3912.57, 0.654588
3915.52, 0.654066
3918.48, 0.653335
3921.45, 0.652813
3924.42, 0.652082
3927.39, 0.651560
3930.37, 0.650934
3933.35, 0.650203
3936.34, 0.649577
3939.33, 0.649264
3942.32, 0.648637
3945.32, 0.648115
3948.33, 0.647489
3951.34, 0.646862
3954.35, 0.646549
3957.37, 0.646236
3960.39, 0.645610
3963.42, 0.644983
3966.45, 0.644670
3969.49, 0.644357
3972.53, 0.644044
3975.58, 0.643835
3978.63, 0.643626
3981.68, 0.643522
3984.75, 0.643313
3987.81, 0.643208
3990.88, 0.643104
3993.95, 0.643000
3997.03, 0.642895
4000.12, 0.643000
4003.21, 0.643104
4006.3, 0.643104
4009.4, 0.643104
4012.5, 0.642895
4015.61, 0.642791
4018.72, 0.642895
4021.84, 0.642895
4024.96, 0.642895
4028.09, 0.642582
4031.22, 0.642478
4034.36, 0.642478
4037.5, 0.642478
4040.65, 0.642269
4043.8, 0.642060
4046.96, 0.642060
4050.12, 0.641851
4053.29, 0.641434
4056.46, 0.641120
4059.64, 0.641016
4062.82, 0.640807
4066.0, 0.640598
4069.19, 0.640181
4072.39, 0.639868
4075.59, 0.639554
4078.8, 0.638928
4082.01, 0.638615
4085.23, 0.638093
4088.45, 0.637675
4091.68, 0.637362
4094.91, 0.636944
4098.15, 0.636422
4101.39, 0.635796
4104.63, 0.635378
4107.89, 0.634856
4111.14, 0.634126
4114.41, 0.633499
4117.67, 0.632873
4120.95, 0.632246
4124.23, 0.631829
4127.51, 0.631202
4130.8, 0.630472
4134.09, 0.629845
4137.39, 0.629219
4140.7, 0.628384
4144.01, 0.627548
4147.32, 0.627026
4150.64, 0.626400
4153.97, 0.625565
4157.3, 0.624625
4160.64, 0.623686
4163.98, 0.622642
4167.33, 0.621493
4170.68, 0.620345
4174.04, 0.619196
4177.4, 0.618048
4180.77, 0.616795
4184.14, 0.615334
4187.52, 0.613663
4190.91, 0.611993
4194.3, 0.610218
4197.69, 0.607921
4201.1, 0.605311
4204.5, 0.602075
4207.92, 0.597899
4211.34, 0.593305
4214.76, 0.588294
4218.19, 0.582865
4221.62, 0.577332
4225.06, 0.571903
4228.51, 0.567414
4231.96, 0.563551
4235.42, 0.560732
4238.88, 0.558853
4242.35, 0.558122
4245.83, 0.558227
4249.31, 0.558853
4252.79, 0.559584
4256.28, 0.558122
4259.78, 0.552067
4263.29, 0.543402
4266.79, 0.536616
4270.31, 0.534110
4273.83, 0.533902
4277.35, 0.533693
4280.89, 0.532649
4284.42, 0.530978
4287.97, 0.529204
4291.52, 0.527324
4295.07, 0.525445
4298.63, 0.523566
4302.2, 0.521478
4305.78, 0.519286
4309.35, 0.517093
4312.94, 0.514588
4316.53, 0.511978
4320.13, 0.509368
4323.73, 0.506549
4327.34, 0.503521
4330.96, 0.500389
4334.58, 0.497362
4338.21, 0.494334
4341.84, 0.491411
4345.48, 0.488801
4349.12, 0.486295
4352.77, 0.483790
4356.43, 0.481493
4360.1, 0.479092
4363.76, 0.476899
4367.44, 0.474707
4371.12, 0.472410
4374.81, 0.469800
4378.51, 0.467294
4382.21, 0.464684
4385.92, 0.462179
4389.63, 0.459464
4393.35, 0.456646
4397.08, 0.453931
4400.81, 0.451530
4404.55, 0.449233
4408.29, 0.447145
4412.04, 0.445057
4415.8, 0.443178
4419.57, 0.441194
4423.34, 0.439524
4427.12, 0.437958
4430.9, 0.436705
4434.69, 0.435452
4438.49, 0.434200
4442.29, 0.432842
4446.1, 0.431276
4449.92, 0.429710
4453.74, 0.427622
4457.57, 0.425012
4461.41, 0.422194
4465.25, 0.418957
4469.1, 0.415512
4472.95, 0.411858
4476.82, 0.407891
4480.69, 0.403506
4484.56, 0.399226
4488.44, 0.394841
4492.33, 0.390038
4496.23, 0.385132
4500.13, 0.380434
4504.04, 0.375840
4507.96, 0.371142
4511.88, 0.366444
4515.81, 0.361850
4519.75, 0.357257
4523.69, 0.352976
4527.65, 0.348905
4531.6, 0.345146
4535.57, 0.341701
4539.54, 0.338569
4543.52, 0.335646
4547.5, 0.332723
4551.5, 0.329800
4555.5, 0.326772
4559.5, 0.323849
4563.52, 0.320612
4567.54, 0.317376
4571.56, 0.314453
4575.6, 0.311530
4579.64, 0.308711
4583.69, 0.305892
4587.75, 0.303178
4591.81, 0.300359
4595.88, 0.297540
4599.96, 0.294617
4604.04, 0.291067
4608.14, 0.287204
4612.24, 0.283133
4616.34, 0.278957
4620.46, 0.274259
4624.58, 0.269039
4628.71, 0.263819
4632.84, 0.258390
4636.99, 0.253274
4641.14, 0.248890
4645.3, 0.245236
4649.47, 0.242417
4653.64, 0.240642
4657.82, 0.239494
4662.01, 0.238867
4666.21, 0.238032
4670.41, 0.236884
4674.62, 0.235631
4678.84, 0.234065
4683.07, 0.232081
4687.3, 0.230306
4691.54, 0.228427
4695.79, 0.226130
4700.05, 0.223834
4704.31, 0.221641
4708.59, 0.219031
4712.87, 0.216108
4717.15, 0.213289
4721.45, 0.210053
4725.76, 0.207025
4730.07, 0.204102
4734.39, 0.201179
4738.72, 0.198464
4743.05, 0.195541
4747.39, 0.192409
4751.75, 0.188964
4756.1, 0.185310
4760.47, 0.181552
4764.85, 0.178106
4769.23, 0.174974
4773.62, 0.172573
4778.02, 0.171634
4782.43, 0.172156
4786.85, 0.174139
4791.27, 0.177480
4795.7, 0.181760
4800.14, 0.186458
4804.59, 0.191052
4809.05, 0.195019
4813.51, 0.198256
4817.99, 0.200761
4822.47, 0.202223
4826.96, 0.203162
4831.46, 0.203058
4835.96, 0.201596
4840.48, 0.198778
4845.0, 0.195228
4849.54, 0.191365
4854.08, 0.187085
4858.63, 0.183013
4863.18, 0.179464
4867.75, 0.176436
4872.33, 0.173722
4876.91, 0.171007
4881.5, 0.168397
4886.1, 0.165892
4890.71, 0.163386
4895.33, 0.161298
4899.96, 0.160150
4904.59, 0.160358
4909.24, 0.162238
4913.89, 0.165787
4918.55, 0.170381
4923.22, 0.175496
4927.9, 0.180090
4932.59, 0.183326
4937.29, 0.184997
4942.0, 0.184892
4946.71, 0.182909
4951.44, 0.179359
4956.17, 0.174661
4960.91, 0.169232
4965.67, 0.163386
4970.43, 0.157226
4975.2, 0.151484
4979.98, 0.146264
4984.76, 0.141984
4989.56, 0.138748
4994.37, 0.136346
4999.18, 0.134989
5004.01, 0.134363
5008.84, 0.134050
5013.69, 0.134050
5018.54, 0.133736
5023.4, 0.133110
5028.28, 0.132484
5033.16, 0.131648
5038.05, 0.130604
5042.95, 0.129665
5047.86, 0.128830
5052.78, 0.128308
5057.71, 0.127786
5062.65, 0.126742
5067.6, 0.125489
5072.56, 0.123923
5077.53, 0.121835
5082.5, 0.119434
5087.49, 0.116928
5092.49, 0.114318
5097.5, 0.111499
5102.51, 0.108889
5107.54, 0.106384
5112.58, 0.104504
5117.62, 0.102938
5122.68, 0.101372
5127.75, 0.100015
5132.82, 0.0984490
5137.91, 0.0967790
5143.01, 0.0953170
5148.12, 0.0939600
5153.23, 0.0928120
5158.36, 0.0914540
5163.5, 0.0900970
5168.65, 0.0886360
5173.81, 0.0870700
5178.98, 0.0855040
5184.15, 0.0841460
5189.34, 0.0831020
5194.54, 0.0824760
5199.75, 0.0816410
5204.98, 0.0808060
5210.21, 0.0797620
5215.45, 0.0789260
5220.7, 0.0783000
5225.96, 0.0773600
5231.23, 0.0767340
5236.52, 0.0766300
5241.81, 0.0769430
5247.12, 0.0772560
5252.44, 0.0777780
5257.76, 0.0783000
5263.1, 0.0789260
5268.45, 0.0795530
5273.81, 0.0797620
5279.18, 0.0799700
5284.56, 0.0802840
5289.95, 0.0803880
5295.36, 0.0809100
5300.77, 0.0816410
5306.2, 0.0822670
5311.63, 0.0829980
5317.08, 0.0836240
5322.54, 0.0842510
5328.01, 0.0847730
5333.49, 0.0851900
5338.98, 0.0855040
5344.49, 0.0849820
5350.0, 0.0841460
5355.53, 0.0838330
5361.07, 0.0834160
5366.62, 0.0822670
5372.18, 0.0808060
5377.75, 0.0791350
5383.34, 0.0770470
5388.93, 0.0746460
5394.54, 0.0723490
5400.16, 0.0701570
5405.79, 0.0676510
5411.44, 0.0652500
5417.09, 0.0627440
5422.76, 0.0605520
5428.43, 0.0597170
5434.12, 0.0589860
5439.83, 0.0577330
5445.54, 0.0564800
5451.26, 0.0554360
5457.0, 0.0541840
5462.75, 0.0529310
5468.52, 0.0524090
5474.29, 0.0518870
5480.08, 0.0511560
5485.88, 0.0507380
5491.69, 0.0502160
5497.51, 0.0493810
5503.35, 0.0481280
5509.2, 0.0471890
5515.06, 0.0459360
5520.93, 0.0444740
5526.82, 0.0432220
5532.71, 0.0420730
5538.63, 0.0409250
5544.55, 0.0398810
5550.49, 0.0388370
5556.44, 0.0381060
5562.4, 0.0377930
5568.37, 0.0374800
5574.36, 0.0369580
5580.36, 0.0368530
5586.37, 0.0375840
5592.4, 0.0381060
5598.44, 0.0383150
5604.49, 0.0384190
5610.56, 0.0385240
5616.63, 0.0385240
5622.73, 0.0384190
5628.83, 0.0380020
5634.95, 0.0372710
5641.08, 0.0362270
5647.23, 0.0361220
5653.39, 0.0360180
5659.56, 0.0357050
5665.74, 0.0357050
5671.94, 0.0351830
5678.15, 0.0349740
5684.38, 0.0350780
5690.62, 0.0347650
5696.87, 0.0345560
5703.14, 0.0343480
5709.42, 0.0337210
5715.72, 0.0338260
5722.03, 0.0340340
5728.35, 0.0342430
5734.69, 0.0344520
5741.03, 0.0345560
5747.4, 0.0345560
5753.78, 0.0349740
5760.17, 0.0346610
5766.58, 0.0340340
5773.0, 0.0349740
5779.44, 0.0358090
5785.88, 0.0362270
5792.35, 0.0365400
5798.83, 0.0366440
5805.32, 0.0369580
5811.83, 0.0370620
5818.35, 0.0361220
5824.89, 0.0361220
5831.45, 0.0370620
5838.01, 0.0375840
5844.59, 0.0376880
5851.19, 0.0374800
5857.8, 0.0371660
5864.43, 0.0368530
5871.07, 0.0367490
5877.73, 0.0354960
5884.4, 0.0353920
5891.09, 0.0358090
5897.79, 0.0356000
5904.5, 0.0365400
5911.23, 0.0368530
5917.98, 0.0370620
5924.75, 0.0370620
5931.53, 0.0361220
5938.32, 0.0359140
5945.13, 0.0374800
5951.96, 0.0384190
5958.8, 0.0385240
5965.65, 0.0377930
5972.53, 0.0378970
5979.42, 0.0383150
5986.32, 0.0377930
5993.24, 0.0376880
6000.18, 0.0380020
6007.13, 0.0376880
6014.1, 0.0371660
6021.08, 0.0372710
6028.09, 0.0373750
6035.1, 0.0369580
6042.14, 0.0351830
6049.19, 0.0336170
6056.25, 0.0351830
6063.34, 0.0360180
6070.44, 0.0350780
6077.55, 0.0351830
6084.69, 0.0358090
6091.84, 0.0359140
6099.0, 0.0353920
6106.19, 0.0343480
6113.39, 0.0331990
6120.61, 0.0334080
6127.84, 0.0335120
6135.09, 0.0329900
6142.36, 0.0321550
6149.65, 0.0316330
6156.95, 0.0309020
6164.27, 0.0304850
6171.61, 0.0305890
6178.97, 0.0297540
6186.34, 0.0290230
6193.73, 0.0293360
6201.14, 0.0297540
6208.57, 0.0295450
6216.01, 0.0294410
6223.47, 0.0295450
6230.95, 0.0297540
6238.45, 0.0298580
6245.97, 0.0298580
6253.5, 0.0300670
6261.06, 0.0302760
6268.63, 0.0304850
6276.21, 0.0305890
6283.82, 0.0306940
6291.45, 0.0309020
6299.1, 0.0310070
6306.76, 0.0311110
6314.44, 0.0312160
6322.14, 0.0313200
6329.86, 0.0316330
6337.6, 0.0313200
6345.35, 0.0312160
6353.13, 0.0323640
6360.92, 0.0329900
6368.74, 0.0328860
6376.57, 0.0335120
6384.43, 0.0339300
6392.3, 0.0341390
6400.19, 0.0341390
6408.1, 0.0322600
6416.03, 0.0316330
6423.98, 0.0328860
6431.95, 0.0333040
6439.94, 0.0334080
6447.95, 0.0330950
6455.98, 0.0326770
6464.03, 0.0321550
6472.1, 0.0312160
6480.19, 0.0301720
6488.31, 0.0290230
6496.44, 0.0286060
6504.59, 0.0293360
6512.76, 0.0294410
6520.95, 0.0289190
6529.16, 0.0289190
6537.4, 0.0287100
6545.65, 0.0282920
6553.92, 0.0277700
6562.22, 0.0272480
6570.54, 0.0264130
6578.88, 0.0264130
6587.23, 0.0265180
6595.61, 0.0263090
6604.02, 0.0261000
6612.44, 0.0257870
6620.89, 0.0254740
6629.35, 0.0247430
6637.84, 0.0242210
6646.35, 0.0249520
6654.88, 0.0255780
6663.44, 0.0254740
6672.01, 0.0250560
6680.61, 0.0246380
6689.23, 0.0248470
6697.88, 0.0250560
6706.54, 0.0246380
6715.23, 0.0243250
6723.94, 0.0243250
6732.67, 0.0243250
6741.42, 0.0241160
6750.2, 0.0238030
6759.0, 0.0236990
6767.82, 0.0235940
6776.67, 0.0232810
6785.54, 0.0229680
6794.44, 0.0230720
6803.35, 0.0235940
6812.29, 0.0238030
6821.26, 0.0234900
6830.24, 0.0232810
6839.25, 0.0232810
6848.29, 0.0228640
6857.35, 0.0219240
6866.43, 0.0217150
6875.54, 0.0221330
6884.67, 0.0218200
6893.82, 0.0215060
6903.0, 0.0212980
6912.2, 0.0210890
6921.43, 0.0206710
6930.69, 0.0202540
6939.96, 0.0199400
6949.27, 0.0194180
6958.59, 0.0186880
6967.95, 0.0187920
6977.33, 0.0190010
6986.73, 0.0187920
6996.16, 0.0185830
7005.61, 0.0185830
7015.09, 0.0184790
7024.6, 0.0182700
7034.13, 0.0179570
7043.69, 0.0176440
7053.27, 0.0175390
7062.88, 0.0175390
7072.52, 0.0172260
7082.18, 0.0168080
7091.87, 0.0164950
7101.58, 0.0160780
7111.32, 0.0154510
7121.09, 0.0151380
7130.88, 0.0148250
7140.71, 0.0143030
7150.56, 0.0137810
7160.43, 0.0134680
7170.33, 0.0130500
7180.27, 0.0127370
7190.23, 0.0123190
7200.21, 0.0119020
7210.23, 0.0115880
7220.27, 0.0113800
7230.34, 0.0113800
7240.44, 0.0112750
7250.56, 0.0108580
7260.72, 0.0105440
7270.9, 0.0101270
7281.12, 0.0100220
7291.36, 0.00970900
7301.63, 0.00950000
7311.93, 0.00918700
7322.25, 0.00887400
7332.61, 0.00856100
7343.0, 0.00835200
7353.41, 0.00814300
7363.86, 0.00783000
7374.33, 0.00772600
7384.83, 0.00772600
7395.37, 0.00741200
7405.93, 0.00720400
7416.53, 0.00689000
7427.15, 0.00668200
7437.81, 0.00657700
7448.5, 0.00626400
7459.22, 0.00605500
7469.96, 0.00584600
7480.74, 0.00574200
7491.55, 0.00553300
7502.39, 0.00522000
7513.27, 0.00490700
7524.17, 0.00469800
7535.11, 0.00448900
7546.08, 0.00428000
7557.08, 0.00407200
7568.11, 0.00386300
7579.17, 0.00375800
7590.27, 0.00355000
7601.4, 0.00334100
7612.56, 0.00323600
7623.76, 0.00334100
7634.98, 0.00313200
7646.24, 0.00292300
7657.54, 0.00292300
7668.87, 0.00271400
7680.23, 0.00261000
7691.62, 0.00281900
7703.05, 0.00281900
7714.51, 0.00281900
7726.01, 0.00271400
7737.54, 0.00271400
7749.11, 0.00281900
7760.71, 0.00302800
7772.35, 0.00355000
7784.02, 0.00417600
7795.72, 0.00469800
7807.46, 0.00532400
7819.23, 0.00626400
7831.04, 0.00720400
7842.89, 0.00824800
7854.77, 0.00960500
7866.69, 0.0111710
7878.65, 0.0128410
7890.64, 0.0150340
7902.67, 0.0178520
7914.74, 0.0207760
7926.84, 0.0240120
7938.98, 0.0278750
7951.16, 0.0322600
7963.37, 0.0371660
7975.62, 0.0424910
7987.91, 0.0483370
8000.24, 0.0544970
8012.6, 0.0613870
8025.01, 0.0688000
8037.45, 0.0766300
8049.93, 0.0851900
8062.45, 0.0942730
8075.01, 0.104191
8087.61, 0.114840
8100.24, 0.126220
8112.91, 0.138226
8125.63, 0.150545
8138.39, 0.163595
8151.18, 0.176645
8164.02, 0.189590
8176.9, 0.202327
8189.81, 0.214229
8202.77, 0.224564
8215.77, 0.233647
8228.82, 0.241373
8241.9, 0.247950
8255.02, 0.254318
8268.19, 0.261000
8281.39, 0.267890
8294.65, 0.274885
8307.94, 0.281671
8321.28, 0.287831
8334.66, 0.293260
8348.08, 0.298271
8361.54, 0.302238
8375.05, 0.304952
8388.6, 0.306936
8402.2, 0.307980
8415.84, 0.308293
8429.52, 0.308084
8443.25, 0.307562
8457.02, 0.306832
8470.84, 0.306101
8484.7, 0.305892
8498.61, 0.305892
8512.57, 0.305996
8526.57, 0.306101
8540.62, 0.305996
8554.71, 0.305996
8568.85, 0.305683
8583.04, 0.305161
8597.27, 0.304744
8611.55, 0.304117
8625.88, 0.303386
8640.26, 0.302342
8654.68, 0.300776
8669.16, 0.298688
8683.68, 0.295870
8698.25, 0.292529
8712.87, 0.288353
8727.53, 0.283028
8742.25, 0.276764
8757.02, 0.269561
8771.83, 0.262253
8786.7, 0.255362
8801.62, 0.249098
8816.59, 0.242730
8831.61, 0.236048
8846.68, 0.229262
8861.8, 0.222476
8876.97, 0.215795
8892.2, 0.208904
8907.48, 0.201910
8922.81, 0.195228
8938.2, 0.189590
8953.63, 0.184162
8969.13, 0.179568
8984.67, 0.176540
9000.27, 0.174974
9015.92, 0.175288
9031.63, 0.177271
9047.39, 0.179777
9063.21, 0.182909
9079.08, 0.187920
9095.01, 0.195541
9111.0, 0.205250
9127.04, 0.214855
9143.13, 0.221641
9159.28, 0.224356
9175.49, 0.223416
9191.76, 0.219866
9208.09, 0.214229
9224.47, 0.207547
9240.92, 0.200970
9257.42, 0.194602
9273.98, 0.189486
9290.6, 0.187398
9307.28, 0.189068
9324.02, 0.195124
9340.82, 0.205355
9357.68, 0.217987
9374.6, 0.229889
9391.58, 0.238867
9408.62, 0.244192
9425.73, 0.246384
9442.9, 0.247219
9460.13, 0.249307
9477.42, 0.255780
9494.78, 0.270500
9512.2, 0.296183
9529.69, 0.328025
9547.24, 0.356944
9564.86, 0.378554
9582.54, 0.392857
9600.28, 0.401000
9618.1, 0.404550
9635.97, 0.403715
9653.92, 0.397973
9671.93, 0.386698
9690.01, 0.369263
9708.16, 0.346504
9726.37, 0.321239
9744.65, 0.296392
9763.0, 0.273946
9781.43, 0.257555
9799.92, 0.252335
9818.48, 0.262879
9837.1, 0.285116
9855.8, 0.308502
9874.58, 0.325624
9893.42, 0.334915
9912.34, 0.338256
9931.33, 0.337630
9950.39, 0.333871
9969.52, 0.328025
9988.74, 0.321134
10008.0, 0.313304
10027.4, 0.304744
10046.8, 0.295870
10066.3, 0.286891
10085.9, 0.278330
10105.6, 0.269665
10125.3, 0.261104
10145.1, 0.252335
10165.0, 0.243043
10185.0, 0.233438
10205.0, 0.223207
10225.2, 0.212976
10245.4, 0.202745
10265.7, 0.193036
10286.0, 0.183640
10306.5, 0.175288
10327.0, 0.168293
10347.6, 0.162133
10368.3, 0.156704
10389.1, 0.152006
10409.9, 0.147622
10430.9, 0.143968
10451.9, 0.140522
10473.0, 0.137077
10494.2, 0.133841
10515.5, 0.130813
10536.9, 0.127994
10558.4, 0.125384
10579.9, 0.122879
10601.5, 0.119851
10623.3, 0.117137
10645.1, 0.114944
10667.0, 0.112752
10689.0, 0.110664
10711.1, 0.108994
10733.2, 0.107010
10755.5, 0.105131
10777.9, 0.103774
10800.3, 0.102208
10822.9, 0.100537
10845.5, 0.0989710
10868.2, 0.0976140
10891.1, 0.0962570
10914.0, 0.0951080
10937.0, 0.0939600
10960.2, 0.0926030
10983.4, 0.0910370
11006.7, 0.0895750
11030.1, 0.0887400
11053.6, 0.0880090
11077.3, 0.0870700
11101.0, 0.0860260
11124.8, 0.0850860
11148.7, 0.0839380
11172.7, 0.0832070
11196.9, 0.0824760
11221.1, 0.0813280
11245.4, 0.0802840
11269.9, 0.0794480
11294.4, 0.0785090
11319.1, 0.0775690
11343.9, 0.0768380
11368.8, 0.0764210
11393.7, 0.0757940
11418.8, 0.0747500
11444.0, 0.0738110
11469.4, 0.0730800
11494.8, 0.0722450
11520.3, 0.0715140
11546.0, 0.0710960
11571.8, 0.0704700
11597.7, 0.0697390
11623.7, 0.0690080
11649.8, 0.0681730
11676.0, 0.0673380
11702.4, 0.0667120
11728.9, 0.0659810
11755.5, 0.0654590
11782.2, 0.0646240
11809.0, 0.0637880
11836.0, 0.0629530
11863.0, 0.0623270
11890.3, 0.0613870
11917.6, 0.0603430
11945.0, 0.0595080
11972.6, 0.0587770
12000.4, 0.0582550
12028.2, 0.0574200
12056.2, 0.0560630
12084.3, 0.0549140
12112.5, 0.0538700
12140.9, 0.0527220
12169.4, 0.0516780
12198.0, 0.0504250
12226.8, 0.0491720
12255.7, 0.0478150
12284.7, 0.0466670
12313.9, 0.0453100
12343.2, 0.0437440
12372.7, 0.0420730
12402.3, 0.0409250
12432.0, 0.0395680
12461.9, 0.0377930
12491.9, 0.0365400
12522.1, 0.0362270
12552.4, 0.0388370
12582.9, 0.0465620
12613.5, 0.0584640
12644.3, 0.0691130
12675.2, 0.0729760
12706.3, 0.0704700
12737.5, 0.0645190
12768.9, 0.0581510
12800.4, 0.0522000
12832.1, 0.0478150
12863.9, 0.0451010
12895.9, 0.0448920
12928.1, 0.0494860
12960.4, 0.0609700
12992.9, 0.0775690
13025.5, 0.0931250
13058.3, 0.102208
13091.3, 0.102730
13124.4, 0.0966740
13157.8, 0.0871740
13191.2, 0.0774650
13224.9, 0.0696350
13258.7, 0.0651460
13292.7, 0.0643100
13326.9, 0.0677560
13361.2, 0.0749590
13395.7, 0.0818500
13430.4, 0.0839380
13465.3, 0.0810140
13500.4, 0.0760030
13535.7, 0.0705740
13571.1, 0.0654590
13606.7, 0.0608650
13642.5, 0.0572110
13678.5, 0.0564800
13714.7, 0.0595080
13751.1, 0.0647280
13787.6, 0.0694260
13824.4, 0.0708880
13861.4, 0.0697390
13898.5, 0.0671290
13935.9, 0.0639970
13973.5, 0.0612830
14011.2, 0.0589860
14049.2, 0.0568980
14087.4, 0.0552280
14125.8, 0.0537660
14164.3, 0.0517820
14203.2, 0.0500080
14242.2, 0.0486500
14281.4, 0.0475020
14320.9, 0.0462490
14360.5, 0.0449960
14400.4, 0.0435350
14440.5, 0.0420730
14480.9, 0.0411340
14521.4, 0.0400900
14562.2, 0.0391500
14603.3, 0.0381060
14644.5, 0.0369580
14686.0, 0.0365400
14727.7, 0.0360180
14769.7, 0.0361220
14811.9, 0.0364360
14854.3, 0.0376880
14897.0, 0.0409250
14939.9, 0.0467710
14983.1, 0.0576290
15026.5, 0.0746460
15070.2, 0.0949000
15114.2, 0.114840
15158.3, 0.131126
15202.8, 0.141358
15247.5, 0.144594
15292.5, 0.141775
15337.7, 0.133214
15383.2, 0.119956
15429.0, 0.104087
15475.1, 0.0882180
15521.4, 0.0751680
15568.0, 0.0656680
15614.9, 0.0583600
15662.1, 0.0534530
15709.6, 0.0510520
15757.3, 0.0516780
15805.4, 0.0562720
15853.7, 0.0654590
15902.3, 0.0784040
15951.2, 0.0940640
16000.5, 0.109724
16050.0, 0.122461
16099.8, 0.130604
16150.0, 0.133945
16200.5, 0.132797
16251.3, 0.130291
16302.4, 0.132066
16353.8, 0.142715
16405.5, 0.162864
16457.6, 0.183640
16510.0, 0.197420
16562.8, 0.204311
16615.9, 0.205877
16669.3, 0.204311
16723.1, 0.200866
16777.2, 0.196272
16831.7, 0.190008
16886.5, 0.182074
16941.7, 0.174974
16997.2, 0.168815
17053.1, 0.162342
17109.4, 0.155452
17166.1, 0.149083
17223.1, 0.143028
17280.5, 0.136346
17338.3, 0.128621
17396.5, 0.120686
17455.1, 0.112543
17514.0, 0.104818
17573.4, 0.0976140
17633.2, 0.0914540
17693.4, 0.0865480
17754.0, 0.0821630
17815.0, 0.0780910
17876.4, 0.0740200
17938.3, 0.0707830
18000.5, 0.0674420
18063.3, 0.0648320
18126.4, 0.0644150
18190.0, 0.0649370
18254.1, 0.0681730
18318.6, 0.0752720
18383.5, 0.0866520
18449.0, 0.101790
18514.9, 0.117868
18581.2, 0.131022
18648.0, 0.137182
18715.4, 0.138017
18783.2, 0.134780
18851.5, 0.128099
18920.3, 0.119120
18989.6, 0.108889
19059.4, 0.0986580
19129.7, 0.0891580
19200.6, 0.0807010
19272.0, 0.0752720
19343.9, 0.0707830
19416.3, 0.0669200
19489.3, 0.0639970
19562.8, 0.0617000
19637.0, 0.0589860
19711.6, 0.0562720
19786.8, 0.0534530
19862.6, 0.0503210
19939.0, 0.0492770
20016.0, 0.0497990
20093.6, 0.0528260
20171.8, 0.0585680
20250.6, 0.0661900
20330.0, 0.0802840
20410.0, 0.100955
20490.7, 0.123192
20572.0, 0.140940
20654.0, 0.150962
20736.6, 0.152424
20819.9, 0.146160
20903.8, 0.133632
20988.5, 0.117972
21073.8, 0.101999
21159.8, 0.0920810
21246.5, 0.0967790
21334.0, 0.112543
21422.1, 0.125906
21511.0, 0.130813
21600.7, 0.128412
21691.0, 0.118807
21782.1, 0.105340
21874.0, 0.0981360
21966.7, 0.105235
22060.2, 0.123401
22154.5, 0.152111
22249.6, 0.183118
22345.5, 0.202849
22442.2, 0.212767
22539.8, 0.216526
22638.2, 0.215690
22737.5, 0.211619
22837.7, 0.207652
22938.7, 0.203893
23040.7, 0.199300
23143.5, 0.198673
23247.3, 0.206608
23352.1, 0.224982
23457.7, 0.248576
23564.4, 0.264967
23672.0, 0.272066
23780.5, 0.267160
23890.1, 0.252022
24000.7, 0.233334
24112.3, 0.212350
24225.0, 0.195124
24338.7, 0.188233
24453.5, 0.194580
24569.4, 0.201540
24686.4, 0.205740
24804.5, 0.205200
24923.8, 0.196140
25044.2, 0.188460
25165.8, 0.181860
25288.6, 0.166320
25412.5, 0.150540
25537.7, 0.155100
25664.1, 0.172260
25791.8, 0.188820
25920.8, 0.190860
26051.1, 0.185220
26182.6, 0.198000
26315.5, 0.222720
26449.8, 0.241800
26585.4, 0.250200
26722.5, 0.254040
26860.9, 0.252060
27000.8, 0.250140
27142.1, 0.240720
27285.0, 0.222300
27429.4, 0.198420
27575.3, 0.178020
27722.7, 0.169080
27871.8, 0.163140
28022.4, 0.153840
28174.7, 0.146160
28328.7, 0.139920
28484.4, 0.135900
28641.7, 0.126060
28800.9, 0.116700
28961.8, 0.109440
29124.5, 0.101580
29289.0, 0.105960
29455.4, 0.134820
29623.8, 0.163680
29794.0, 0.177060
29966.3, 0.184440
30140.5, 0.190440
30316.7, 0.191580
30495.1, 0.183900
30675.5, 0.172320
30858.1, 0.164580
31042.8, 0.160620
31229.8, 0.154800
31419.1, 0.148080
31610.7, 0.141180
31804.6, 0.139440
32000.9, 0.140100
32199.7, 0.142560
32400.9, 0.143820
32604.8, 0.144060
32811.1, 0.144900
33020.1, 0.149220
33231.8, 0.148500
33446.2, 0.145200
33663.4, 0.147360
33883.4, 0.149700
34106.3, 0.147600
34332.1, 0.142860
34561.0, 0.138180
34792.9, 0.136920
35028.0, 0.133380
35266.3, 0.130860
35507.8, 0.128760
35752.7, 0.125400
36001.0, 0.118560
36252.8, 0.115080
36508.1, 0.115500
36767.0, 0.120540
37029.7, 0.123600
37296.1, 0.125100
37566.3, 0.120600
37840.5, 0.112500
38118.8, 0.110160
38401.2, 0.113820
38687.8, 0.117300
38978.6, 0.117960
39273.9, 0.116640
39573.7, 0.117600
39878.1, 0.115980
40187.3, 0.117900
40501.2, 0.124320
40820.0, 0.126240
41144.0, 0.123660
41473.2, 0.117000
41807.6, 0.112500
42147.5, 0.112980
42493.0, 0.110460
42844.2, 0.103860
43201.2, 0.0962400
43564.3, 0.0883800
43933.5, 0.0863400
44309.0, 0.0789000
44691.0, 0.0703800
45079.6, 0.0671400
45475.0, 0.0740400
45877.5, 0.0829800
46287.1, 0.0857400
46704.2, 0.0801000
47128.7, 0.0760200
47561.1, 0.0765000
48001.5, 0.0865200
48450.1, 0.0982800
48907.2, 0.110760
49373.0, 0.120660
49847.7, 0.121320
50331.5, 0.121500
50825.0, 0.123840
51328.2, 0.132120
51841.5, 0.152580
52365.1, 0.172800
52899.4, 0.187440
53444.8, 0.190920
54001.5, 0.189120
54570.1, 0.183480
55150.6, 0.178200
55743.6, 0.172920
56349.5, 0.161280
56968.7, 0.148080
57601.7, 0.148260
58248.9, 0.143940
58910.9, 0.129840
59588.1, 0.131040
60281.0, 0.153420
60990.2, 0.164880
61716.3, 0.157140
62459.8, 0.152160
63221.6, 0.147420
64002.1, 0.144540
64802.1, 0.148200
65622.1, 0.140340
66463.4, 0.182520
67326.6, 0.192120
68212.4, 0.146700
69121.9, 0.141840
70056.0, 0.144960
71015.7, 0.151200
72002.0, 0.146280
73016.3, 0.143820
74059.4, 0.141660
75132.7, 0.139860
76237.6, 0.128700
77375.5, 0.126900
78547.9, 0.143160
79756.3, 0.151260
81002.5, 0.154980
82288.5, 0.144180
83615.7, 0.127620
84986.5, 0.143400
86402.9, 0.146220
87867.4, 0.115080
89382.4, 0.0609600
90950.5, 0.111240
92574.6, 0.169920
94257.2, 0.190140
96002.7, 0.205980
97814.1, 0.250560
99695.1, 0.295200
101650.0, 0.295860
103683.0, 0.291840
105799.0, 0.321420
108003.0, 0.340260
110301.0, 0.323580
112699.0, 0.281100
115204.0, 0.275940
117822.0, 0.261840
120562.0, 0.260100
123433.0, 0.279420
126443.0, 0.271200
129604.0, 0.259380
132926.0, 0.279540
136424.0, 0.312900
140111.0, 0.310620
144003.0, 0.289620
148118.0, 0.315840
152474.0, 0.338220
157095.0, 0.331020
162004.0, 0.429480
167231.0, 0.457080
172805.0, 0.447060
178764.0, 0.441840
185148.0, 0.451380
192005.0, 0.480420
199390.0, 0.659520
207366.0, 0.740460
216006.0, 0.736860
