Database of Origin, USGS Spectral Database
Sample Description, See USGS database for additional info
Date Added,2016-07-25 19:20:22.267959

Data ID,USGS_sid04          
Sample ID, siderophyllite_nmnh104998
Mineral Name, siderophyllite
Material Class,Phyllosilicate

Wavelength
1508.34, 0.195128
1508.78, 0.195128
1509.21, 0.195068
1509.66, 0.195007
1510.09, 0.195370
1510.53, 0.195613
1510.97, 0.195673
1511.42, 0.195795
1511.86, 0.195855
1512.3, 0.196158
1512.74, 0.196522
1513.18, 0.196522
1513.62, 0.196582
1514.06, 0.196824
1514.51, 0.197127
1514.95, 0.197127
1515.39, 0.197067
1515.83, 0.197188
1516.28, 0.197248
1516.72, 0.197551
1517.16, 0.198097
1517.61, 0.198278
1518.05, 0.198218
1518.5, 0.198399
1518.94, 0.198581
1519.39, 0.198581
1519.83, 0.198824
1520.28, 0.198763
1520.73, 0.198824
1521.17, 0.199005
1521.62, 0.199187
1522.07, 0.199611
1522.51, 0.200035
1522.96, 0.200035
1523.41, 0.200035
1523.85, 0.200277
1524.3, 0.200459
1524.75, 0.200580
1525.2, 0.200762
1525.65, 0.201004
1526.1, 0.201186
1526.55, 0.201247
1527.0, 0.201368
1527.45, 0.201489
1527.9, 0.201610
1528.35, 0.201671
1528.8, 0.201731
1529.25, 0.202034
1529.7, 0.202458
1530.15, 0.202701
1530.6, 0.202822
1531.05, 0.202822
1531.51, 0.202640
1531.96, 0.202882
1532.41, 0.203246
1532.87, 0.203488
1533.32, 0.203670
1533.77, 0.203852
1534.23, 0.204094
1534.68, 0.204215
1535.14, 0.204155
1535.59, 0.204336
1536.05, 0.204700
1536.5, 0.204882
1536.96, 0.204882
1537.41, 0.204942
1537.87, 0.205063
1538.32, 0.205427
1538.78, 0.205669
1539.24, 0.205609
1539.7, 0.205730
1540.15, 0.205972
1540.61, 0.206033
1541.07, 0.206214
1541.53, 0.206396
1541.98, 0.206517
1542.44, 0.206820
1542.9, 0.207062
1543.36, 0.206941
1543.82, 0.207062
1544.28, 0.207729
1544.74, 0.207850
1545.2, 0.207729
1545.66, 0.207729
1546.12, 0.207850
1546.59, 0.208032
1547.05, 0.208213
1547.51, 0.208335
1547.97, 0.208516
1548.43, 0.208759
1548.9, 0.209122
1549.36, 0.209183
1549.82, 0.209243
1550.29, 0.209486
1550.75, 0.209728
1551.21, 0.209910
1551.68, 0.210152
1552.14, 0.210394
1552.61, 0.210697
1553.07, 0.210637
1553.54, 0.210515
1554.0, 0.210576
1554.47, 0.210940
1554.93, 0.211121
1555.4, 0.211000
1555.87, 0.211182
1556.34, 0.211545
1556.8, 0.211727
1557.27, 0.212091
1557.74, 0.212454
1558.21, 0.212454
1558.68, 0.212515
1559.14, 0.212696
1559.61, 0.213060
1560.08, 0.213120
1560.55, 0.212999
1561.02, 0.213484
1561.49, 0.213787
1561.96, 0.214029
1562.43, 0.214029
1562.9, 0.214090
1563.38, 0.214453
1563.85, 0.214635
1564.32, 0.214574
1564.79, 0.214635
1565.26, 0.215059
1565.74, 0.215665
1566.21, 0.215786
1566.68, 0.215786
1567.16, 0.215907
1567.63, 0.216210
1568.1, 0.216392
1568.58, 0.216331
1569.05, 0.216513
1569.53, 0.216695
1570.0, 0.217058
1570.48, 0.217361
1570.96, 0.217543
1571.43, 0.217664
1571.91, 0.217846
1572.39, 0.218088
1572.86, 0.218209
1573.34, 0.218330
1573.82, 0.218754
1574.3, 0.218936
1574.77, 0.218997
1575.25, 0.218997
1575.73, 0.219239
1576.21, 0.219663
1576.69, 0.219905
1577.17, 0.220269
1577.65, 0.220269
1578.13, 0.220390
1578.61, 0.220451
1579.09, 0.220632
1579.57, 0.220754
1580.05, 0.221056
1580.54, 0.221299
1581.02, 0.221602
1581.5, 0.221844
1581.98, 0.222086
1582.47, 0.222268
1582.95, 0.222571
1583.43, 0.222631
1583.92, 0.222692
1584.4, 0.222692
1584.88, 0.223116
1585.37, 0.223419
1585.85, 0.223480
1586.34, 0.223722
1586.82, 0.224025
1587.31, 0.224146
1587.8, 0.224267
1588.28, 0.224509
1588.77, 0.224631
1589.26, 0.224812
1589.74, 0.224994
1590.23, 0.225236
1590.72, 0.225358
1591.21, 0.225600
1591.7, 0.225782
1592.19, 0.225903
1592.67, 0.226206
1593.16, 0.226509
1593.65, 0.226569
1594.14, 0.226690
1594.63, 0.227054
1595.12, 0.227478
1595.61, 0.227478
1596.11, 0.227357
1596.6, 0.227478
1597.09, 0.227781
1597.58, 0.228084
1598.08, 0.228447
1598.57, 0.228629
1599.06, 0.228992
1599.55, 0.229053
1600.05, 0.229235
1600.54, 0.229416
1601.04, 0.229538
1601.53, 0.229780
1602.03, 0.229841
1602.52, 0.230022
1603.02, 0.230204
1603.51, 0.230507
1604.01, 0.230870
1604.5, 0.231052
1605.0, 0.231173
1605.5, 0.231113
1606.0, 0.231173
1606.49, 0.231537
1606.99, 0.231718
1607.49, 0.231961
1607.99, 0.232264
1608.49, 0.232264
1608.99, 0.232324
1609.49, 0.232506
1609.99, 0.232870
1610.49, 0.233112
1610.99, 0.233354
1611.49, 0.233596
1611.99, 0.233536
1612.49, 0.233718
1612.99, 0.233899
1613.49, 0.234081
1614.0, 0.234263
1614.5, 0.234505
1615.0, 0.234747
1615.51, 0.235050
1616.01, 0.235111
1616.51, 0.235111
1617.02, 0.235172
1617.52, 0.235414
1618.03, 0.235838
1618.53, 0.236080
1619.04, 0.236080
1619.54, 0.236323
1620.05, 0.236747
1620.55, 0.236989
1621.06, 0.236928
1621.57, 0.237110
1622.08, 0.237352
1622.58, 0.237595
1623.09, 0.237776
1623.6, 0.237958
1624.11, 0.238079
1624.62, 0.238261
1625.13, 0.238443
1625.64, 0.238625
1626.15, 0.238867
1626.66, 0.238988
1627.17, 0.239049
1627.68, 0.239352
1628.19, 0.239654
1628.7, 0.240079
1629.21, 0.240260
1629.72, 0.240442
1630.24, 0.240563
1630.75, 0.240866
1631.26, 0.241230
1631.78, 0.241654
1632.29, 0.241654
1632.8, 0.241714
1633.32, 0.241593
1633.83, 0.241896
1634.35, 0.242138
1634.86, 0.242381
1635.38, 0.242502
1635.9, 0.242623
1636.41, 0.242926
1636.93, 0.243229
1637.45, 0.243350
1637.96, 0.243713
1638.48, 0.243895
1639.0, 0.244016
1639.52, 0.244198
1640.04, 0.244319
1640.56, 0.244380
1641.08, 0.244622
1641.59, 0.244743
1642.11, 0.244986
1642.63, 0.245228
1643.16, 0.245228
1643.68, 0.245652
1644.2, 0.246318
1644.72, 0.246500
1645.24, 0.246318
1645.76, 0.246379
1646.29, 0.246621
1646.81, 0.246742
1647.33, 0.247166
1647.86, 0.247469
1648.38, 0.247651
1648.9, 0.247954
1649.43, 0.248257
1649.95, 0.248439
1650.48, 0.248439
1651.0, 0.248499
1651.53, 0.248863
1652.06, 0.249226
1652.58, 0.249287
1653.11, 0.249408
1653.64, 0.249529
1654.17, 0.249590
1654.69, 0.250014
1655.22, 0.250317
1655.75, 0.250438
1656.28, 0.250741
1656.81, 0.250983
1657.34, 0.251044
1657.87, 0.251165
1658.4, 0.251286
1658.93, 0.251407
1659.46, 0.251468
1659.99, 0.251892
1660.52, 0.252255
1661.05, 0.252437
1661.59, 0.252619
1662.12, 0.252740
1662.65, 0.252921
1663.19, 0.253103
1663.72, 0.253103
1664.26, 0.253224
1664.79, 0.253527
1665.32, 0.253830
1665.86, 0.254012
1666.39, 0.254194
1666.93, 0.254194
1667.47, 0.254436
1668.0, 0.254739
1668.54, 0.255042
1669.08, 0.255102
1669.61, 0.255284
1670.15, 0.255284
1670.69, 0.255345
1671.23, 0.255648
1671.77, 0.255829
1672.31, 0.256011
1672.85, 0.256072
1673.39, 0.256314
1673.93, 0.256738
1674.47, 0.256859
1675.01, 0.256920
1675.55, 0.257162
1676.09, 0.257283
1676.64, 0.257526
1677.18, 0.257768
1677.72, 0.257889
1678.26, 0.257828
1678.81, 0.258071
1679.35, 0.258434
1679.89, 0.258616
1680.44, 0.258616
1680.98, 0.258858
1681.53, 0.259161
1682.07, 0.259222
1682.62, 0.259101
1683.17, 0.259525
1683.71, 0.260009
1684.26, 0.260191
1684.81, 0.260312
1685.36, 0.260494
1685.9, 0.260615
1686.45, 0.260736
1687.0, 0.261039
1687.55, 0.261342
1688.1, 0.261584
1688.65, 0.261766
1689.2, 0.262130
1689.75, 0.262311
1690.3, 0.262372
1690.85, 0.262493
1691.41, 0.262614
1691.96, 0.262857
1692.51, 0.263220
1693.06, 0.263402
1693.61, 0.263584
1694.17, 0.263765
1694.72, 0.264008
1695.28, 0.264250
1695.83, 0.264492
1696.39, 0.264674
1696.94, 0.264977
1697.5, 0.265219
1698.05, 0.265340
1698.61, 0.265401
1699.17, 0.265704
1699.72, 0.266067
1700.28, 0.266249
1700.84, 0.266370
1701.4, 0.266734
1701.95, 0.266855
1702.51, 0.266855
1703.07, 0.267037
1703.63, 0.267097
1704.19, 0.267400
1704.75, 0.267764
1705.31, 0.268066
1705.88, 0.268430
1706.44, 0.268854
1707.0, 0.268915
1707.56, 0.268975
1708.12, 0.269157
1708.69, 0.269399
1709.25, 0.269581
1709.81, 0.269823
1710.38, 0.270005
1710.94, 0.270005
1711.51, 0.270187
1712.07, 0.270611
1712.64, 0.271095
1713.2, 0.271398
1713.77, 0.271580
1714.34, 0.271641
1714.9, 0.271701
1715.47, 0.271822
1716.04, 0.272065
1716.61, 0.272307
1717.18, 0.272610
1717.74, 0.272913
1718.31, 0.272852
1718.88, 0.272913
1719.45, 0.273398
1720.02, 0.273700
1720.59, 0.273822
1721.17, 0.273943
1721.74, 0.274064
1722.31, 0.274306
1722.88, 0.274549
1723.45, 0.274730
1724.03, 0.274973
1724.6, 0.275215
1725.18, 0.275518
1725.75, 0.275639
1726.33, 0.275821
1726.9, 0.276063
1727.48, 0.276427
1728.05, 0.276669
1728.63, 0.276790
1729.2, 0.276911
1729.78, 0.277093
1730.36, 0.277214
1730.94, 0.277456
1731.51, 0.277517
1732.09, 0.277638
1732.67, 0.277880
1733.25, 0.278062
1733.83, 0.278183
1734.41, 0.278426
1734.99, 0.278729
1735.57, 0.278910
1736.15, 0.279092
1736.73, 0.279274
1737.32, 0.279456
1737.9, 0.279698
1738.48, 0.279819
1739.07, 0.279940
1739.65, 0.280183
1740.23, 0.280425
1740.82, 0.280728
1741.4, 0.280849
1741.99, 0.280909
1742.57, 0.281273
1743.16, 0.281515
1743.74, 0.281515
1744.33, 0.281636
1744.92, 0.281758
1745.51, 0.281939
1746.09, 0.282242
1746.68, 0.282363
1747.27, 0.282606
1747.86, 0.283030
1748.45, 0.283454
1749.04, 0.283393
1749.63, 0.283333
1750.22, 0.283514
1750.81, 0.283999
1751.4, 0.284181
1751.99, 0.284181
1752.59, 0.284423
1753.18, 0.284726
1753.77, 0.284968
1754.37, 0.285211
1754.96, 0.285150
1755.56, 0.285271
1756.15, 0.285574
1756.74, 0.285816
1757.34, 0.286059
1757.94, 0.286422
1758.53, 0.286543
1759.13, 0.286725
1759.73, 0.287028
1760.32, 0.287149
1760.92, 0.287210
1761.52, 0.287573
1762.12, 0.287694
1762.72, 0.287876
1763.32, 0.288118
1763.92, 0.288421
1764.52, 0.288845
1765.12, 0.289209
1765.72, 0.289270
1766.32, 0.289330
1766.92, 0.289512
1767.53, 0.289754
1768.13, 0.290057
1768.73, 0.290299
1769.34, 0.290299
1769.94, 0.290421
1770.55, 0.290784
1771.15, 0.291147
1771.76, 0.291329
1772.36, 0.291329
1772.97, 0.291450
1773.57, 0.291814
1774.18, 0.292117
1774.79, 0.292238
1775.4, 0.292420
1776.0, 0.292662
1776.61, 0.292965
1777.22, 0.293025
1777.83, 0.293207
1778.44, 0.293752
1779.05, 0.294176
1779.66, 0.294419
1780.27, 0.294540
1780.88, 0.294601
1781.5, 0.294782
1782.11, 0.295025
1782.72, 0.295267
1783.33, 0.295388
1783.95, 0.295752
1784.56, 0.295994
1785.18, 0.296236
1785.79, 0.296418
1786.41, 0.296600
1787.02, 0.296721
1787.64, 0.296842
1788.26, 0.297084
1788.87, 0.297448
1789.49, 0.297630
1790.11, 0.297811
1790.73, 0.298235
1791.35, 0.298357
1791.96, 0.298417
1792.58, 0.298720
1793.21, 0.299144
1793.83, 0.299144
1794.45, 0.299326
1795.07, 0.299568
1795.69, 0.299810
1796.31, 0.299932
1796.93, 0.300174
1797.56, 0.300416
1798.18, 0.300356
1798.8, 0.300537
1799.43, 0.300840
1800.05, 0.301264
1800.68, 0.301507
1801.3, 0.301567
1801.93, 0.301628
1802.56, 0.301991
1803.18, 0.302294
1803.81, 0.302294
1804.44, 0.302234
1805.07, 0.302537
1805.7, 0.302839
1806.33, 0.302839
1806.95, 0.303021
1807.58, 0.303324
1808.22, 0.303627
1808.85, 0.303748
1809.48, 0.303990
1810.11, 0.304233
1810.74, 0.304354
1811.38, 0.304475
1812.01, 0.304657
1812.64, 0.304839
1813.28, 0.305141
1813.91, 0.305505
1814.55, 0.305626
1815.18, 0.305566
1815.82, 0.305747
1816.45, 0.305990
1817.09, 0.306111
1817.73, 0.306171
1818.36, 0.306474
1819.0, 0.306656
1819.64, 0.306838
1820.28, 0.307019
1820.92, 0.307443
1821.56, 0.307625
1822.2, 0.307868
1822.84, 0.308049
1823.48, 0.308292
1824.12, 0.308413
1824.76, 0.308413
1825.41, 0.308413
1826.05, 0.308473
1826.69, 0.309079
1827.34, 0.309443
1827.98, 0.309443
1828.63, 0.309564
1829.27, 0.309988
1829.92, 0.310109
1830.56, 0.309988
1831.21, 0.310291
1831.86, 0.310654
1832.5, 0.310775
1833.15, 0.310957
1833.8, 0.311199
1834.45, 0.311139
1835.1, 0.311381
1835.75, 0.311502
1836.4, 0.311745
1837.05, 0.311866
1837.7, 0.312169
1838.35, 0.312593
1839.01, 0.312835
1839.66, 0.312956
1840.31, 0.313380
1840.96, 0.313259
1841.62, 0.313017
1842.27, 0.313562
1842.93, 0.314228
1843.58, 0.314531
1844.24, 0.314713
1844.9, 0.314955
1845.55, 0.315137
1846.21, 0.315198
1846.87, 0.315077
1847.53, 0.315258
1848.18, 0.315804
1848.84, 0.316349
1849.5, 0.316773
1850.16, 0.316955
1850.82, 0.317076
1851.48, 0.317318
1852.14, 0.317439
1852.81, 0.317621
1853.47, 0.317803
1854.13, 0.317984
1854.8, 0.318408
1855.46, 0.318711
1856.12, 0.318833
1856.79, 0.319014
1857.45, 0.319438
1858.12, 0.319802
1858.79, 0.320044
1859.45, 0.319923
1860.12, 0.320286
1860.79, 0.320589
1861.46, 0.321013
1862.12, 0.321195
1862.79, 0.321377
1863.46, 0.321801
1864.13, 0.321983
1864.8, 0.322164
1865.48, 0.322467
1866.15, 0.322528
1866.82, 0.322407
1867.49, 0.322528
1868.16, 0.322952
1868.84, 0.323437
1869.51, 0.323497
1870.19, 0.323194
1870.86, 0.323194
1871.54, 0.323861
1872.21, 0.324224
1872.89, 0.324224
1873.56, 0.324648
1874.24, 0.325133
1874.92, 0.325436
1875.6, 0.325557
1876.28, 0.325799
1876.96, 0.326042
1877.64, 0.326284
1878.32, 0.326526
1879.0, 0.326647
1879.68, 0.326890
1880.36, 0.327253
1881.04, 0.327556
1881.73, 0.327617
1882.41, 0.327617
1883.09, 0.327677
1883.78, 0.327859
1884.46, 0.328162
1885.15, 0.328465
1885.83, 0.328768
1886.52, 0.329010
1887.21, 0.329192
1887.89, 0.329313
1888.58, 0.329252
1889.27, 0.329434
1889.96, 0.329434
1890.65, 0.329495
1891.34, 0.329616
1892.03, 0.329676
1892.72, 0.329979
1893.41, 0.330100
1894.1, 0.330222
1894.79, 0.330403
1895.49, 0.330464
1896.18, 0.330585
1896.87, 0.330767
1897.57, 0.330827
1898.26, 0.331009
1898.96, 0.330888
1899.65, 0.330767
1900.35, 0.331130
1901.05, 0.331433
1901.74, 0.331494
1902.44, 0.331433
1903.14, 0.331494
1903.84, 0.331918
1904.54, 0.331978
1905.24, 0.331857
1905.94, 0.332039
1906.64, 0.332160
1907.34, 0.332645
1908.04, 0.333008
1908.75, 0.333069
1909.45, 0.333372
1910.15, 0.333493
1910.86, 0.333614
1911.56, 0.333796
1912.27, 0.333978
1912.97, 0.333917
1913.68, 0.334038
1914.39, 0.334462
1915.09, 0.334583
1915.8, 0.334826
1916.51, 0.335250
1917.22, 0.335492
1917.93, 0.335674
1918.64, 0.335977
1919.35, 0.336158
1920.06, 0.336219
1920.77, 0.336401
1921.48, 0.336885
1922.19, 0.337370
1922.91, 0.337552
1923.62, 0.337491
1924.33, 0.337855
1925.05, 0.338339
1925.76, 0.338521
1926.48, 0.338703
1927.19, 0.338824
1927.91, 0.339006
1928.63, 0.339309
1929.35, 0.339672
1930.07, 0.339854
1930.78, 0.340217
1931.5, 0.340762
1932.22, 0.340884
1932.94, 0.340884
1933.66, 0.341126
1934.39, 0.341368
1935.11, 0.341732
1935.83, 0.341974
1936.55, 0.342216
1937.28, 0.342459
1938.0, 0.342701
1938.73, 0.342822
1939.45, 0.343065
1940.18, 0.343246
1940.9, 0.343549
1941.63, 0.343913
1942.36, 0.344216
1943.09, 0.344458
1943.81, 0.344700
1944.54, 0.345003
1945.27, 0.345245
1946.0, 0.345488
1946.73, 0.345912
1947.47, 0.346154
1948.2, 0.346215
1948.93, 0.346396
1949.66, 0.346699
1950.4, 0.347002
1951.13, 0.347245
1951.86, 0.347487
1952.6, 0.347729
1953.34, 0.348032
1954.07, 0.348638
1954.81, 0.348759
1955.55, 0.348759
1956.29, 0.349001
1957.02, 0.349547
1957.76, 0.349849
1958.5, 0.349971
1959.24, 0.350031
1959.98, 0.350334
1960.72, 0.350637
1961.47, 0.350758
1962.21, 0.351001
1962.95, 0.351425
1963.7, 0.351667
1964.44, 0.351849
1965.18, 0.352152
1965.93, 0.352273
1966.67, 0.352515
1967.42, 0.352818
1968.17, 0.353181
1968.92, 0.353484
1969.66, 0.353484
1970.41, 0.353727
1971.16, 0.354030
1971.91, 0.354211
1972.66, 0.354454
1973.41, 0.354635
1974.16, 0.354878
1974.92, 0.355181
1975.67, 0.355483
1976.42, 0.355665
1977.18, 0.355907
1977.93, 0.356150
1978.69, 0.356513
1979.44, 0.356816
1980.2, 0.357058
1980.95, 0.357119
1981.71, 0.357180
1982.47, 0.357604
1983.23, 0.357907
1983.99, 0.358149
1984.74, 0.358331
1985.51, 0.358512
1986.27, 0.358694
1987.03, 0.358876
1987.79, 0.359118
1988.55, 0.359300
1989.32, 0.359603
1990.08, 0.359906
1990.84, 0.360088
1991.61, 0.360209
1992.37, 0.360512
1993.14, 0.360693
1993.9, 0.360875
1994.67, 0.361117
1995.44, 0.361239
1996.21, 0.361360
1996.98, 0.361541
1997.75, 0.361784
1998.52, 0.362087
1999.29, 0.362329
2000.06, 0.362571
2000.83, 0.362692
2001.6, 0.362814
2002.38, 0.363177
2003.15, 0.363298
2003.93, 0.363298
2004.7, 0.363480
2005.48, 0.363783
2006.25, 0.363965
2007.03, 0.364025
2007.81, 0.364207
2008.58, 0.364631
2009.36, 0.364813
2010.14, 0.364934
2010.92, 0.364994
2011.7, 0.365297
2012.48, 0.365479
2013.26, 0.365843
2014.05, 0.366206
2014.83, 0.366509
2015.61, 0.366630
2016.4, 0.366630
2017.18, 0.366691
2017.97, 0.366812
2018.75, 0.367297
2019.54, 0.367539
2020.32, 0.367599
2021.11, 0.367963
2021.9, 0.368326
2022.69, 0.368508
2023.48, 0.368448
2024.27, 0.368508
2025.06, 0.368872
2025.85, 0.368932
2026.64, 0.368993
2027.44, 0.369175
2028.23, 0.369417
2029.02, 0.369599
2029.82, 0.369841
2030.61, 0.370144
2031.41, 0.370447
2032.2, 0.370750
2033.0, 0.370931
2033.8, 0.371113
2034.6, 0.371416
2035.4, 0.371719
2036.2, 0.371779
2037.0, 0.371840
2037.8, 0.372204
2038.6, 0.372446
2039.4, 0.372809
2040.2, 0.373052
2041.01, 0.373173
2041.81, 0.373476
2042.61, 0.373718
2043.42, 0.373960
2044.22, 0.374384
2045.03, 0.374445
2045.84, 0.374506
2046.65, 0.374687
2047.46, 0.374930
2048.26, 0.375293
2049.07, 0.375535
2049.88, 0.375838
2050.69, 0.375899
2051.51, 0.376020
2052.32, 0.376202
2053.13, 0.376444
2053.94, 0.376868
2054.76, 0.377171
2055.57, 0.377535
2056.39, 0.377777
2057.2, 0.377959
2058.02, 0.378080
2058.84, 0.378383
2059.66, 0.378746
2060.48, 0.379049
2061.29, 0.379110
2062.11, 0.379231
2062.94, 0.379594
2063.76, 0.379958
2064.58, 0.380139
2065.4, 0.380321
2066.22, 0.380564
2067.05, 0.380866
2067.87, 0.381048
2068.7, 0.381230
2069.52, 0.381593
2070.35, 0.381836
2071.18, 0.381957
2072.0, 0.382260
2072.83, 0.382442
2073.66, 0.382563
2074.49, 0.382744
2075.32, 0.383108
2076.15, 0.383290
2076.98, 0.383471
2077.82, 0.383835
2078.65, 0.384138
2079.48, 0.384198
2080.32, 0.384380
2081.15, 0.384683
2081.99, 0.384925
2082.83, 0.385046
2083.66, 0.385107
2084.5, 0.385349
2085.34, 0.385471
2086.18, 0.385773
2087.02, 0.386016
2087.86, 0.386258
2088.7, 0.386319
2089.54, 0.386440
2090.39, 0.386682
2091.23, 0.386985
2092.07, 0.387167
2092.92, 0.387106
2093.76, 0.387227
2094.61, 0.387349
2095.45, 0.387288
2096.3, 0.387409
2097.15, 0.387651
2098.0, 0.387773
2098.85, 0.387712
2099.7, 0.387833
2100.55, 0.388136
2101.4, 0.388257
2102.25, 0.388257
2103.1, 0.388257
2103.96, 0.388197
2104.81, 0.388257
2105.67, 0.388378
2106.52, 0.388742
2107.38, 0.388984
2108.24, 0.389105
2109.09, 0.389105
2109.95, 0.389105
2110.81, 0.389408
2111.67, 0.389651
2112.53, 0.389832
2113.39, 0.389953
2114.25, 0.390135
2115.12, 0.390256
2115.98, 0.390559
2116.84, 0.390741
2117.71, 0.390680
2118.58, 0.390802
2119.44, 0.391044
2120.31, 0.391226
2121.18, 0.391407
2122.04, 0.391589
2122.91, 0.391771
2123.78, 0.391892
2124.65, 0.391953
2125.52, 0.392074
2126.4, 0.392195
2127.27, 0.392437
2128.14, 0.392740
2129.02, 0.392861
2129.89, 0.393164
2130.77, 0.393225
2131.64, 0.393164
2132.52, 0.393346
2133.4, 0.393588
2134.27, 0.393831
2135.15, 0.394073
2136.03, 0.394194
2136.91, 0.394436
2137.79, 0.394800
2138.68, 0.394921
2139.56, 0.394860
2140.44, 0.394921
2141.33, 0.395103
2142.21, 0.395285
2143.1, 0.395466
2143.99, 0.395648
2144.87, 0.395769
2145.76, 0.395890
2146.65, 0.396254
2147.54, 0.396496
2148.43, 0.396557
2149.32, 0.396678
2150.21, 0.397041
2151.1, 0.397344
2151.99, 0.397465
2152.89, 0.397587
2153.78, 0.397950
2154.68, 0.398313
2155.57, 0.398374
2156.47, 0.398313
2157.37, 0.398738
2158.27, 0.399040
2159.16, 0.399040
2160.06, 0.399101
2160.96, 0.399343
2161.86, 0.399586
2162.77, 0.399707
2163.67, 0.399889
2164.57, 0.400252
2165.48, 0.400494
2166.38, 0.400555
2167.29, 0.400676
2168.2, 0.400918
2169.1, 0.401161
2170.01, 0.401282
2170.92, 0.401403
2171.83, 0.401645
2172.74, 0.401888
2173.65, 0.402130
2174.56, 0.402372
2175.47, 0.402554
2176.39, 0.402857
2177.3, 0.403220
2178.22, 0.403402
2179.13, 0.403402
2180.05, 0.403523
2180.96, 0.403523
2181.88, 0.403826
2182.8, 0.404311
2183.72, 0.404432
2184.64, 0.404432
2185.56, 0.404674
2186.48, 0.404856
2187.41, 0.404977
2188.33, 0.405220
2189.25, 0.405341
2190.18, 0.405522
2191.1, 0.405825
2192.03, 0.406068
2192.96, 0.406189
2193.89, 0.406310
2194.82, 0.406552
2195.74, 0.406795
2196.68, 0.406916
2197.61, 0.407037
2198.54, 0.407219
2199.47, 0.407522
2200.4, 0.407703
2201.34, 0.407703
2202.28, 0.407825
2203.21, 0.408006
2204.15, 0.408249
2205.08, 0.408612
2206.02, 0.408915
2206.96, 0.408915
2207.9, 0.408976
2208.84, 0.409157
2209.78, 0.409278
2210.73, 0.409521
2211.67, 0.409763
2212.61, 0.410005
2213.56, 0.410248
2214.5, 0.410490
2215.45, 0.410490
2216.4, 0.410672
2217.35, 0.410975
2218.3, 0.411096
2219.24, 0.411217
2220.2, 0.411399
2221.15, 0.411399
2222.1, 0.411399
2223.05, 0.411641
2224.0, 0.411702
2224.96, 0.411944
2225.91, 0.412005
2226.87, 0.412126
2227.83, 0.412126
2228.79, 0.412065
2229.74, 0.412186
2230.7, 0.412247
2231.66, 0.412186
2232.63, 0.412065
2233.59, 0.412005
2234.55, 0.412065
2235.51, 0.412005
2236.48, 0.411944
2237.44, 0.411762
2238.41, 0.411581
2239.38, 0.411399
2240.34, 0.411035
2241.31, 0.410732
2242.28, 0.410672
2243.25, 0.410490
2244.22, 0.410187
2245.19, 0.409884
2246.17, 0.409581
2247.14, 0.409157
2248.12, 0.408733
2249.09, 0.408127
2250.07, 0.407703
2251.04, 0.407340
2252.02, 0.407279
2253.0, 0.407037
2253.98, 0.406855
2254.96, 0.406795
2255.94, 0.406795
2256.92, 0.406795
2257.91, 0.406855
2258.89, 0.407098
2259.88, 0.407400
2260.86, 0.407582
2261.85, 0.407885
2262.83, 0.408127
2263.82, 0.408491
2264.81, 0.409036
2265.8, 0.409460
2266.79, 0.409884
2267.78, 0.410430
2268.78, 0.410793
2269.77, 0.411096
2270.76, 0.411459
2271.76, 0.411883
2272.75, 0.412186
2273.75, 0.412550
2274.75, 0.412732
2275.75, 0.412853
2276.75, 0.412974
2277.75, 0.413337
2278.75, 0.413519
2279.75, 0.413761
2280.75, 0.413822
2281.76, 0.414004
2282.76, 0.414125
2283.77, 0.414246
2284.77, 0.414428
2285.78, 0.414610
2286.79, 0.414670
2287.8, 0.414912
2288.81, 0.415094
2289.82, 0.415155
2290.83, 0.415336
2291.84, 0.415579
2292.86, 0.415700
2293.87, 0.415700
2294.89, 0.415761
2295.91, 0.415761
2296.92, 0.415882
2297.94, 0.416185
2298.96, 0.416245
2299.98, 0.416124
2301.0, 0.416185
2302.02, 0.416245
2303.04, 0.416124
2304.07, 0.416245
2305.09, 0.416306
2306.12, 0.416124
2307.15, 0.416124
2308.17, 0.416366
2309.2, 0.416488
2310.23, 0.416488
2311.26, 0.416548
2312.29, 0.416548
2313.32, 0.416427
2314.35, 0.416427
2315.39, 0.416427
2316.42, 0.416609
2317.46, 0.416669
2318.5, 0.416609
2319.53, 0.416548
2320.57, 0.416609
2321.61, 0.416548
2322.65, 0.416427
2323.69, 0.416306
2324.73, 0.416366
2325.78, 0.416306
2326.82, 0.416245
2327.86, 0.415942
2328.91, 0.415518
2329.96, 0.415155
2331.01, 0.414973
2332.05, 0.414791
2333.1, 0.414488
2334.15, 0.414185
2335.21, 0.413822
2336.26, 0.413398
2337.31, 0.412974
2338.36, 0.412550
2339.42, 0.412065
2340.48, 0.411581
2341.53, 0.411217
2342.59, 0.410793
2343.65, 0.410611
2344.71, 0.410430
2345.77, 0.410127
2346.83, 0.409703
2347.9, 0.409400
2348.96, 0.409157
2350.02, 0.408733
2351.09, 0.408370
2352.16, 0.408127
2353.23, 0.407946
2354.29, 0.407643
2355.36, 0.407279
2356.43, 0.406916
2357.51, 0.406795
2358.58, 0.406855
2359.65, 0.406674
2360.73, 0.406492
2361.8, 0.406371
2362.88, 0.406310
2363.96, 0.406189
2365.03, 0.406310
2366.11, 0.406249
2367.19, 0.406189
2368.27, 0.406128
2369.36, 0.406068
2370.44, 0.406128
2371.53, 0.406310
2372.61, 0.406431
2373.7, 0.406674
2374.78, 0.406916
2375.87, 0.407158
2376.96, 0.407340
2378.05, 0.407643
2379.14, 0.407825
2380.24, 0.408006
2381.33, 0.408309
2382.42, 0.408612
2383.52, 0.408673
2384.61, 0.408854
2385.71, 0.409036
2386.81, 0.409339
2387.91, 0.409460
2389.01, 0.409642
2390.11, 0.409581
2391.22, 0.409703
2392.32, 0.409945
2393.42, 0.410066
2394.53, 0.410005
2395.64, 0.410005
2396.74, 0.409824
2397.85, 0.409824
2398.96, 0.409824
2400.07, 0.409884
2401.18, 0.409703
2402.3, 0.409703
2403.41, 0.409642
2404.52, 0.409521
2405.64, 0.409278
2406.76, 0.409218
2407.88, 0.409157
2408.99, 0.409036
2410.11, 0.408854
2411.23, 0.408673
2412.36, 0.408370
2413.48, 0.408370
2414.6, 0.408188
2415.73, 0.408067
2416.85, 0.407885
2417.98, 0.407703
2419.11, 0.407703
2420.24, 0.407825
2421.37, 0.407825
2422.5, 0.407885
2423.64, 0.407946
2424.77, 0.408127
2425.9, 0.408370
2427.04, 0.408612
2428.18, 0.408794
2429.31, 0.409400
2430.45, 0.409945
2431.59, 0.410308
2432.73, 0.410732
2433.88, 0.411217
2435.02, 0.411581
2436.16, 0.411944
2437.31, 0.412368
2438.45, 0.412792
2439.6, 0.413095
2440.75, 0.413398
2441.9, 0.413822
2443.05, 0.414185
2444.2, 0.414367
2445.35, 0.414731
2446.51, 0.415155
2447.67, 0.415458
2448.82, 0.415761
2449.98, 0.416063
2451.14, 0.416548
2452.3, 0.417033
2453.46, 0.417336
2454.62, 0.417578
2455.78, 0.417881
2456.94, 0.418365
2458.11, 0.418729
2459.28, 0.419032
2460.44, 0.419214
2461.61, 0.419456
2462.78, 0.419698
2463.95, 0.420062
2465.12, 0.420365
2466.3, 0.420607
2467.47, 0.420728
2468.65, 0.420910
2469.82, 0.420970
2471.0, 0.421031
2472.18, 0.421213
2473.36, 0.421455
2474.54, 0.421637
2475.72, 0.421758
2476.9, 0.421697
2478.08, 0.421879
2479.27, 0.421879
2480.46, 0.421879
2481.64, 0.422061
2482.83, 0.422182
2484.02, 0.422364
2485.21, 0.422545
2486.4, 0.422667
2487.6, 0.422848
2488.79, 0.423030
2489.99, 0.423091
2491.18, 0.423091
2492.38, 0.423333
2493.58, 0.423515
2494.78, 0.423697
2495.98, 0.423818
2497.18, 0.423939
2498.39, 0.424060
2499.59, 0.424181
2500.8, 0.424363
2502.01, 0.424484
2503.21, 0.424666
2504.42, 0.424848
2505.63, 0.424908
2506.84, 0.425090
2508.06, 0.425211
2509.27, 0.425393
2510.49, 0.425514
2511.7, 0.425574
2512.92, 0.425696
2514.14, 0.425817
2515.36, 0.425938
2516.58, 0.426120
2517.8, 0.426180
2519.03, 0.426362
2520.25, 0.426544
2521.48, 0.426665
2522.7, 0.426483
2523.93, 0.426604
2525.16, 0.426847
2526.39, 0.426968
2527.62, 0.426968
2528.86, 0.427028
2530.09, 0.426847
2531.33, 0.426786
2532.56, 0.426847
2533.8, 0.427150
2535.04, 0.426968
2536.28, 0.426968
2537.52, 0.427453
2538.76, 0.427755
2540.01, 0.427755
2541.25, 0.427695
2542.5, 0.427392
2543.75, 0.427695
2544.99, 0.428058
2546.24, 0.428058
2547.49, 0.427816
2548.75, 0.428240
2550.0, 0.428240
2551.26, 0.427816
2552.51, 0.427695
2553.77, 0.428725
2555.03, 0.429330
2556.29, 0.429391
2557.55, 0.429452
2558.81, 0.429209
2560.08, 0.427574
2561.34, 0.426483
2562.61, 0.426604
2563.88, 0.427089
2565.14, 0.428361
2566.41, 0.429633
2567.68, 0.429330
2568.96, 0.427998
2570.23, 0.428301
2571.51, 0.429149
2572.78, 0.427150
2574.06, 0.427634
2575.34, 0.428664
2576.62, 0.428240
2577.9, 0.429088
2579.18, 0.429633
2580.47, 0.428785
2581.75, 0.428604
2583.04, 0.426544
2584.32, 0.426665
2585.61, 0.428361
2586.9, 0.427634
2588.2, 0.428058
2589.49, 0.429149
2590.78, 0.430118
2592.08, 0.429209
2593.37, 0.423515
2594.67, 0.419274
2595.97, 0.424060
2597.27, 0.429149
2598.57, 0.430724
2599.88, 0.430179
2601.18, 0.429209
2602.49, 0.428604
2603.79, 0.426847
2605.1, 0.424484
2606.41, 0.425877
2607.72, 0.427937
2609.03, 0.428240
2610.35, 0.428664
2611.66, 0.428846
2612.98, 0.428240
2614.3, 0.427695
2615.62, 0.424908
2616.94, 0.423151
2618.26, 0.424121
2619.58, 0.421334
2620.91, 0.421031
2622.23, 0.423333
2623.56, 0.422848
2624.89, 0.420546
2626.22, 0.417336
2627.55, 0.417760
2628.88, 0.416063
2630.21, 0.412732
2631.55, 0.414488
2632.89, 0.415518
2634.22, 0.415397
2635.56, 0.416124
2636.9, 0.416063
2638.25, 0.415882
2639.59, 0.415882
2640.93, 0.415700
2642.28, 0.415579
2643.63, 0.415761
2644.98, 0.415094
2646.33, 0.415518
2647.68, 0.416306
2649.03, 0.416548
2650.39, 0.416063
2651.74, 0.414912
2653.1, 0.414973
2654.46, 0.415397
2655.82, 0.415579
2657.18, 0.416366
2658.54, 0.415397
2659.9, 0.414973
2661.27, 0.415094
2662.64, 0.414670
2664.01, 0.410975
2665.38, 0.408127
2666.74, 0.408552
2668.12, 0.410611
2669.49, 0.406855
2670.87, 0.406613
2672.24, 0.411581
2673.62, 0.412065
2675.0, 0.409824
2676.38, 0.407522
2677.76, 0.407703
2679.15, 0.407643
2680.54, 0.409218
2681.92, 0.408854
2683.31, 0.407400
2684.7, 0.406310
2686.09, 0.405159
2687.48, 0.404008
2688.88, 0.402675
2690.27, 0.400616
2691.67, 0.396981
2693.07, 0.391226
2694.47, 0.387227
2695.87, 0.384017
2697.27, 0.379594
2698.67, 0.373173
2700.08, 0.365237
2701.49, 0.357301
2702.9, 0.350152
2704.31, 0.342095
2705.72, 0.334341
2707.13, 0.326466
2708.54, 0.318287
2709.96, 0.309746
2711.38, 0.303566
2712.8, 0.299326
2714.22, 0.292662
2715.64, 0.283938
2717.06, 0.273276
2718.49, 0.260312
2719.91, 0.245107
2721.34, 0.232567
2722.77, 0.220754
2724.2, 0.208698
2725.63, 0.200338
2727.07, 0.193917
2728.5, 0.188767
2729.94, 0.185193
2731.38, 0.183376
2732.82, 0.182770
2734.26, 0.183315
2735.7, 0.185859
2737.15, 0.189010
2738.59, 0.190888
2740.04, 0.193311
2741.49, 0.197006
2742.94, 0.200580
2744.39, 0.203064
2745.84, 0.204821
2747.3, 0.206335
2748.76, 0.207729
2750.21, 0.208516
2751.67, 0.208819
2753.14, 0.208153
2754.6, 0.205911
2756.06, 0.205184
2757.53, 0.205548
2759.0, 0.204700
2760.46, 0.203428
2761.94, 0.201913
2763.41, 0.201489
2764.88, 0.201489
2766.36, 0.200823
2767.83, 0.199732
2769.31, 0.198218
2770.79, 0.196097
2772.27, 0.194280
2773.76, 0.191917
2775.24, 0.188888
2776.73, 0.185557
2778.22, 0.182285
2779.71, 0.178772
2781.2, 0.175379
2782.69, 0.172532
2784.18, 0.170290
2785.68, 0.168352
2787.18, 0.167504
2788.68, 0.167988
2790.18, 0.168897
2791.68, 0.169624
2793.19, 0.170290
2794.69, 0.170714
2796.2, 0.171199
2797.71, 0.171684
2799.22, 0.172108
2800.73, 0.172168
2802.24, 0.172411
2803.76, 0.173198
2805.28, 0.174470
2806.8, 0.175621
2808.32, 0.176530
2809.84, 0.177197
2811.36, 0.177863
2812.89, 0.178226
2814.42, 0.178590
2815.94, 0.179135
2817.48, 0.179801
2819.01, 0.180165
2820.54, 0.180771
2822.08, 0.181679
2823.61, 0.182770
2825.15, 0.183921
2826.69, 0.185314
2828.23, 0.186829
2829.78, 0.188464
2831.32, 0.189918
2832.87, 0.191372
2834.42, 0.193068
2835.97, 0.194886
2837.52, 0.196461
2839.08, 0.198157
2840.63, 0.199732
2842.19, 0.201368
2843.75, 0.202822
2845.31, 0.204336
2846.87, 0.205851
2848.44, 0.207426
2850.0, 0.208880
2851.57, 0.210273
2853.14, 0.211424
2854.71, 0.212696
2856.28, 0.213969
2857.86, 0.215180
2859.43, 0.216331
2861.01, 0.217422
2862.59, 0.218451
2864.17, 0.219421
2865.76, 0.220148
2867.34, 0.220875
2868.93, 0.221905
2870.52, 0.222692
2872.11, 0.223358
2873.7, 0.224025
2875.29, 0.224691
2876.89, 0.225236
2878.49, 0.225782
2880.08, 0.226448
2881.69, 0.226993
2883.29, 0.227417
2884.89, 0.227902
2886.5, 0.228326
2888.11, 0.228689
2889.72, 0.228992
2891.33, 0.229235
2892.94, 0.229598
2894.56, 0.229841
2896.17, 0.230204
2897.79, 0.230507
2899.42, 0.230628
2901.04, 0.230749
2902.66, 0.231052
2904.29, 0.231173
2905.92, 0.231355
2907.55, 0.231537
2909.18, 0.231840
2910.81, 0.231900
2912.45, 0.232021
2914.08, 0.232143
2915.72, 0.232445
2917.36, 0.232627
2919.01, 0.232688
2920.65, 0.232688
2922.3, 0.232748
2923.94, 0.232930
2925.59, 0.233294
2927.25, 0.233475
2928.9, 0.233718
2930.56, 0.233899
2932.21, 0.234202
2933.87, 0.234384
2935.53, 0.234566
2937.2, 0.234687
2938.86, 0.235111
2940.53, 0.235414
2942.2, 0.235656
2943.87, 0.235838
2945.54, 0.236020
2947.22, 0.236262
2948.89, 0.236686
2950.57, 0.237050
2952.25, 0.237292
2953.93, 0.237534
2955.62, 0.237958
2957.3, 0.238382
2958.99, 0.238806
2960.68, 0.239109
2962.37, 0.239412
2964.07, 0.239776
2965.76, 0.240321
2967.46, 0.240745
2969.16, 0.241169
2970.86, 0.241472
2972.56, 0.241957
2974.27, 0.242320
2975.98, 0.242502
2977.69, 0.242926
2979.4, 0.243532
2981.11, 0.243956
2982.83, 0.244440
2984.54, 0.244804
2986.26, 0.245410
2987.98, 0.245955
2989.71, 0.246197
2991.43, 0.246621
2993.16, 0.247227
2994.89, 0.247651
2996.62, 0.247954
2998.35, 0.248439
3000.09, 0.249044
3001.83, 0.249590
3003.57, 0.250074
3005.31, 0.250438
3007.05, 0.250983
3008.79, 0.251528
3010.54, 0.252013
3012.29, 0.252497
3014.04, 0.253103
3015.8, 0.253648
3017.55, 0.254073
3019.31, 0.254557
3021.07, 0.255163
3022.83, 0.255587
3024.59, 0.256011
3026.36, 0.256556
3028.13, 0.257102
3029.9, 0.257647
3031.67, 0.258131
3033.44, 0.258616
3035.22, 0.259101
3037.0, 0.259646
3038.78, 0.260312
3040.56, 0.260736
3042.34, 0.261221
3044.13, 0.261766
3045.92, 0.262311
3047.71, 0.262857
3049.5, 0.263341
3051.3, 0.263826
3053.09, 0.264371
3054.89, 0.264856
3056.69, 0.265280
3058.5, 0.265704
3060.3, 0.266370
3062.11, 0.266915
3063.92, 0.267279
3065.73, 0.267764
3067.55, 0.268369
3069.36, 0.268854
3071.18, 0.269339
3073.0, 0.269823
3074.82, 0.270369
3076.65, 0.270974
3078.48, 0.271580
3080.31, 0.272004
3082.14, 0.272368
3083.97, 0.272913
3085.8, 0.273700
3087.64, 0.274185
3089.48, 0.274609
3091.33, 0.275154
3093.17, 0.275639
3095.02, 0.276245
3096.87, 0.276790
3098.72, 0.277275
3100.57, 0.277880
3102.43, 0.278426
3104.28, 0.278910
3106.14, 0.279516
3108.01, 0.280183
3109.87, 0.280849
3111.74, 0.281515
3113.61, 0.282060
3115.48, 0.282666
3117.35, 0.283333
3119.23, 0.284060
3121.1, 0.284665
3122.98, 0.285211
3124.87, 0.285816
3126.75, 0.286483
3128.64, 0.287089
3130.53, 0.287755
3132.42, 0.288421
3134.31, 0.289088
3136.21, 0.289633
3138.11, 0.290360
3140.01, 0.291147
3141.91, 0.291814
3143.82, 0.292480
3145.73, 0.293268
3147.64, 0.294116
3149.55, 0.295025
3151.46, 0.295691
3153.38, 0.296418
3155.3, 0.297205
3157.22, 0.297932
3159.14, 0.298538
3161.07, 0.299326
3163.0, 0.299992
3164.93, 0.300719
3166.86, 0.301446
3168.8, 0.302173
3170.74, 0.302961
3172.68, 0.303748
3174.62, 0.304293
3176.56, 0.305020
3178.51, 0.305808
3180.46, 0.306595
3182.42, 0.307201
3184.37, 0.307868
3186.33, 0.308473
3188.29, 0.309079
3190.25, 0.309685
3192.21, 0.310412
3194.18, 0.311139
3196.15, 0.311805
3198.12, 0.312350
3200.09, 0.312956
3202.07, 0.313501
3204.05, 0.314107
3206.03, 0.314653
3208.02, 0.315319
3210.0, 0.315985
3211.99, 0.316652
3213.98, 0.317257
3215.98, 0.317742
3217.97, 0.318227
3219.97, 0.318954
3221.97, 0.319559
3223.98, 0.320165
3225.98, 0.320589
3227.99, 0.321135
3230.0, 0.321740
3232.02, 0.322407
3234.03, 0.323013
3236.05, 0.323739
3238.07, 0.324345
3240.1, 0.324891
3242.12, 0.325375
3244.15, 0.325981
3246.18, 0.326587
3248.22, 0.327374
3250.25, 0.328041
3252.29, 0.328646
3254.33, 0.329313
3256.38, 0.329979
3258.43, 0.330767
3260.47, 0.331373
3262.53, 0.331918
3264.58, 0.332584
3266.64, 0.333311
3268.7, 0.333978
3270.76, 0.334583
3272.82, 0.335371
3274.89, 0.336037
3276.96, 0.336764
3279.04, 0.337431
3281.11, 0.338097
3283.19, 0.338763
3285.27, 0.339551
3287.35, 0.340338
3289.44, 0.341065
3291.53, 0.341550
3293.62, 0.342216
3295.71, 0.342822
3297.81, 0.343549
3299.91, 0.344276
3302.01, 0.344943
3304.11, 0.345609
3306.22, 0.346215
3308.33, 0.346699
3310.44, 0.347184
3312.56, 0.347669
3314.68, 0.348214
3316.8, 0.348759
3318.92, 0.349183
3321.05, 0.349668
3323.18, 0.350274
3325.31, 0.350758
3327.44, 0.351182
3329.58, 0.351485
3331.72, 0.351727
3333.86, 0.351970
3336.01, 0.352273
3338.16, 0.352212
3340.31, 0.351909
3342.46, 0.351546
3344.61, 0.351182
3346.77, 0.350758
3348.94, 0.350637
3351.1, 0.350455
3353.27, 0.350516
3355.44, 0.350637
3357.61, 0.350819
3359.79, 0.351001
3361.97, 0.351122
3364.15, 0.351303
3366.33, 0.351546
3368.52, 0.351546
3370.71, 0.351727
3372.9, 0.351970
3375.1, 0.352273
3377.3, 0.352576
3379.5, 0.353121
3381.71, 0.353727
3383.91, 0.354332
3386.12, 0.354938
3388.34, 0.355605
3390.55, 0.356150
3392.77, 0.356574
3394.99, 0.356937
3397.22, 0.357240
3399.45, 0.357361
3401.68, 0.357543
3403.91, 0.357725
3406.15, 0.357785
3408.39, 0.357967
3410.63, 0.358391
3412.87, 0.358755
3415.12, 0.359361
3417.37, 0.360148
3419.63, 0.361299
3421.88, 0.362268
3424.14, 0.363177
3426.41, 0.364146
3428.67, 0.365116
3430.94, 0.366024
3433.21, 0.366933
3435.49, 0.367781
3437.77, 0.368569
3440.05, 0.369296
3442.33, 0.369962
3444.62, 0.370628
3446.91, 0.371295
3449.2, 0.371779
3451.5, 0.372264
3453.8, 0.372809
3456.1, 0.373355
3458.41, 0.373536
3460.72, 0.373718
3463.03, 0.373657
3465.34, 0.373536
3467.66, 0.372991
3469.98, 0.372567
3472.31, 0.372143
3474.63, 0.371779
3476.96, 0.371658
3479.3, 0.371840
3481.64, 0.372204
3483.97, 0.372628
3486.32, 0.373173
3488.66, 0.373779
3491.01, 0.374324
3493.36, 0.375051
3495.72, 0.375657
3498.08, 0.376262
3500.44, 0.376868
3502.81, 0.377716
3505.18, 0.378686
3507.55, 0.379776
3509.92, 0.380866
3512.3, 0.382139
3514.68, 0.383471
3517.06, 0.384562
3519.45, 0.385773
3521.84, 0.386985
3524.24, 0.388136
3526.64, 0.389348
3529.04, 0.390317
3531.44, 0.391226
3533.85, 0.391892
3536.26, 0.392740
3538.67, 0.393467
3541.09, 0.394315
3543.51, 0.394860
3545.93, 0.395406
3548.36, 0.395890
3550.79, 0.396375
3553.22, 0.396920
3555.66, 0.397465
3558.1, 0.398071
3560.54, 0.398616
3562.99, 0.398980
3565.44, 0.399404
3567.9, 0.399707
3570.35, 0.400070
3572.81, 0.400555
3575.28, 0.401100
3577.75, 0.401645
3580.22, 0.402069
3582.69, 0.402372
3585.17, 0.402857
3587.65, 0.403281
3590.14, 0.403705
3592.62, 0.404129
3595.11, 0.404493
3597.61, 0.404735
3600.11, 0.405159
3602.61, 0.405462
3605.11, 0.405825
3607.62, 0.406128
3610.14, 0.406431
3612.65, 0.406734
3615.17, 0.407037
3617.69, 0.407340
3620.22, 0.407643
3622.75, 0.408006
3625.28, 0.408309
3627.82, 0.408430
3630.36, 0.408673
3632.9, 0.408915
3635.45, 0.409278
3638.0, 0.409400
3640.56, 0.409642
3643.12, 0.409884
3645.68, 0.410187
3648.24, 0.410490
3650.81, 0.410732
3653.39, 0.410914
3655.96, 0.411278
3658.54, 0.411762
3661.13, 0.412005
3663.71, 0.412065
3666.3, 0.412368
3668.9, 0.412732
3671.5, 0.412974
3674.1, 0.413216
3676.7, 0.413580
3679.31, 0.413761
3681.93, 0.414064
3684.54, 0.414428
3687.17, 0.414791
3689.79, 0.414852
3692.42, 0.415034
3695.05, 0.415336
3697.69, 0.415579
3700.32, 0.415821
3702.97, 0.416003
3705.61, 0.416245
3708.27, 0.416548
3710.92, 0.416790
3713.58, 0.417275
3716.24, 0.417578
3718.91, 0.417820
3721.58, 0.418002
3724.25, 0.418365
3726.93, 0.418547
3729.61, 0.418729
3732.29, 0.419032
3734.98, 0.419274
3737.67, 0.419456
3740.37, 0.419638
3743.07, 0.419759
3745.78, 0.419819
3748.49, 0.420062
3751.2, 0.420365
3753.91, 0.420607
3756.63, 0.420789
3759.36, 0.420728
3762.09, 0.420789
3764.82, 0.420910
3767.55, 0.421092
3770.29, 0.421092
3773.04, 0.421092
3775.78, 0.421092
3778.54, 0.420970
3781.29, 0.420970
3784.05, 0.420849
3786.82, 0.420668
3789.59, 0.420668
3792.36, 0.420546
3795.13, 0.420304
3797.92, 0.419880
3800.7, 0.419516
3803.49, 0.419032
3806.28, 0.418608
3809.08, 0.418123
3811.88, 0.417760
3814.68, 0.417457
3817.49, 0.417214
3820.31, 0.416548
3823.12, 0.415882
3825.94, 0.415276
3828.77, 0.414912
3831.6, 0.414488
3834.43, 0.414064
3837.27, 0.413701
3840.11, 0.413337
3842.96, 0.412853
3845.81, 0.412610
3848.67, 0.412368
3851.53, 0.412307
3854.39, 0.412065
3857.26, 0.411883
3860.13, 0.411641
3863.01, 0.411581
3865.89, 0.411459
3868.77, 0.411399
3871.66, 0.411399
3874.55, 0.411338
3877.45, 0.411156
3880.35, 0.411096
3883.26, 0.411035
3886.17, 0.410793
3889.09, 0.410672
3892.01, 0.410732
3894.93, 0.410551
3897.86, 0.410369
3900.79, 0.410248
3903.73, 0.410248
3906.67, 0.410127
3909.62, 0.410005
3912.57, 0.409763
3915.52, 0.409642
3918.48, 0.409400
3921.45, 0.409218
3924.42, 0.408915
3927.39, 0.408733
3930.37, 0.408430
3933.35, 0.408188
3936.34, 0.407764
3939.33, 0.406916
3942.32, 0.405825
3945.32, 0.404614
3948.33, 0.403220
3951.34, 0.402069
3954.35, 0.400858
3957.37, 0.399707
3960.39, 0.398798
3963.42, 0.398192
3966.45, 0.397526
3969.49, 0.396981
3972.53, 0.396617
3975.58, 0.396375
3978.63, 0.396254
3981.68, 0.396314
3984.75, 0.396678
3987.81, 0.397223
3990.88, 0.398011
3993.95, 0.398980
3997.03, 0.399949
4000.12, 0.401161
4003.21, 0.402312
4006.3, 0.403463
4009.4, 0.404372
4012.5, 0.405159
4015.61, 0.405825
4018.72, 0.406492
4021.84, 0.406855
4024.96, 0.407158
4028.09, 0.408006
4031.22, 0.408733
4034.36, 0.409278
4037.5, 0.409884
4040.65, 0.410551
4043.8, 0.410975
4046.96, 0.411096
4050.12, 0.411459
4053.29, 0.411581
4056.46, 0.411641
4059.64, 0.411883
4062.82, 0.412005
4066.0, 0.411883
4069.19, 0.411883
4072.39, 0.411883
4075.59, 0.412005
4078.8, 0.411883
4082.01, 0.411762
4085.23, 0.411883
4088.45, 0.412005
4091.68, 0.411944
4094.91, 0.411702
4098.15, 0.411641
4101.39, 0.411641
4104.63, 0.411702
4107.89, 0.411883
4111.14, 0.411883
4114.41, 0.411883
4117.67, 0.411702
4120.95, 0.411581
4124.23, 0.411459
4127.51, 0.411459
4130.8, 0.411399
4134.09, 0.411217
4137.39, 0.411217
4140.7, 0.411156
4144.01, 0.411035
4147.32, 0.411156
4150.64, 0.411156
4153.97, 0.411156
4157.3, 0.410975
4160.64, 0.410793
4163.98, 0.410430
4167.33, 0.410308
4170.68, 0.410187
4174.04, 0.410187
4177.4, 0.410187
4180.77, 0.410187
4184.14, 0.409824
4187.52, 0.409581
4190.91, 0.409400
4194.3, 0.409157
4197.69, 0.408794
4201.1, 0.408430
4204.5, 0.407885
4207.92, 0.407158
4211.34, 0.406310
4214.76, 0.405522
4218.19, 0.404432
4221.62, 0.403099
4225.06, 0.402009
4228.51, 0.401342
4231.96, 0.401100
4235.42, 0.401161
4238.88, 0.401161
4242.35, 0.401585
4245.83, 0.402312
4249.31, 0.403342
4252.79, 0.404553
4256.28, 0.405098
4259.78, 0.404250
4263.29, 0.402978
4266.79, 0.401888
4270.31, 0.401100
4273.83, 0.400555
4277.35, 0.400373
4280.89, 0.400373
4284.42, 0.400555
4287.97, 0.400616
4291.52, 0.400797
4295.07, 0.400979
4298.63, 0.401100
4302.2, 0.401282
4305.78, 0.401585
4309.35, 0.402009
4312.94, 0.402372
4316.53, 0.402312
4320.13, 0.402433
4323.73, 0.402675
4327.34, 0.402675
4330.96, 0.402554
4334.58, 0.402736
4338.21, 0.402796
4341.84, 0.402675
4345.48, 0.402372
4349.12, 0.402191
4352.77, 0.402069
4356.43, 0.401827
4360.1, 0.401221
4363.76, 0.400979
4367.44, 0.401100
4371.12, 0.401221
4374.81, 0.400858
4378.51, 0.400616
4382.21, 0.400252
4385.92, 0.400070
4389.63, 0.399949
4393.35, 0.399707
4397.08, 0.399525
4400.81, 0.399283
4404.55, 0.399101
4408.29, 0.399101
4412.04, 0.398859
4415.8, 0.398495
4419.57, 0.398132
4423.34, 0.398011
4427.12, 0.397526
4430.9, 0.397162
4434.69, 0.396920
4438.49, 0.396678
4442.29, 0.396314
4446.1, 0.396072
4449.92, 0.395709
4453.74, 0.395285
4457.57, 0.394982
4461.41, 0.394497
4465.25, 0.393891
4469.1, 0.393709
4472.95, 0.393770
4476.82, 0.393467
4480.69, 0.392801
4484.56, 0.392498
4488.44, 0.391953
4492.33, 0.391771
4496.23, 0.391347
4500.13, 0.391044
4504.04, 0.390499
4507.96, 0.390378
4511.88, 0.390014
4515.81, 0.389469
4519.75, 0.388924
4523.69, 0.388378
4527.65, 0.388015
4531.6, 0.387591
4535.57, 0.386985
4539.54, 0.386500
4543.52, 0.385773
4547.5, 0.385289
4551.5, 0.384622
4555.5, 0.384017
4559.5, 0.383229
4563.52, 0.382623
4567.54, 0.381836
4571.56, 0.381109
4575.6, 0.380018
4579.64, 0.379110
4583.69, 0.378383
4587.75, 0.377474
4591.81, 0.376626
4595.88, 0.376081
4599.96, 0.375293
4604.04, 0.374203
4608.14, 0.373173
4612.24, 0.372506
4616.34, 0.371477
4620.46, 0.370507
4624.58, 0.369417
4628.71, 0.368326
4632.84, 0.367297
4636.99, 0.366267
4641.14, 0.364994
4645.3, 0.364086
4649.47, 0.363056
4653.64, 0.361966
4657.82, 0.360754
4662.01, 0.359724
4666.21, 0.358936
4670.41, 0.358210
4674.62, 0.357483
4678.84, 0.356513
4683.07, 0.355423
4687.3, 0.354756
4691.54, 0.354090
4695.79, 0.353424
4700.05, 0.352333
4704.31, 0.351667
4708.59, 0.351122
4712.87, 0.350395
4717.15, 0.349425
4721.45, 0.348456
4725.76, 0.347669
4730.07, 0.347063
4734.39, 0.346518
4738.72, 0.346094
4743.05, 0.345367
4747.39, 0.344034
4751.75, 0.342701
4756.1, 0.341792
4760.47, 0.340944
4764.85, 0.340338
4769.23, 0.339551
4773.62, 0.338400
4778.02, 0.337370
4782.43, 0.336946
4786.85, 0.335856
4791.27, 0.335068
4795.7, 0.334220
4800.14, 0.333614
4804.59, 0.332160
4809.05, 0.330888
4813.51, 0.329798
4817.99, 0.329192
4822.47, 0.328889
4826.96, 0.328222
4831.46, 0.327071
4835.96, 0.326405
4840.48, 0.325557
4845.0, 0.324830
4849.54, 0.324588
4854.08, 0.324103
4858.63, 0.323073
4863.18, 0.321983
4867.75, 0.321316
4872.33, 0.320286
4876.91, 0.319378
4881.5, 0.318530
4886.1, 0.317621
4890.71, 0.317379
4895.33, 0.316349
4899.96, 0.315501
4904.59, 0.314653
4909.24, 0.314168
4913.89, 0.313259
4918.55, 0.312048
4923.22, 0.311502
4927.9, 0.311260
4932.59, 0.310836
4937.29, 0.309988
4942.0, 0.309019
4946.71, 0.309140
4951.44, 0.308958
4956.17, 0.308292
4960.91, 0.308110
4965.67, 0.307746
4970.43, 0.307443
4975.2, 0.307019
4979.98, 0.306171
4984.76, 0.305505
4989.56, 0.304960
4994.37, 0.303990
4999.18, 0.303324
5004.01, 0.303082
5008.84, 0.302234
5013.69, 0.301931
5018.54, 0.301264
5023.4, 0.300840
5028.28, 0.300234
5033.16, 0.300174
5038.05, 0.300113
5042.95, 0.299508
5047.86, 0.299083
5052.78, 0.299265
5057.71, 0.298417
5062.65, 0.297690
5067.6, 0.297387
5072.56, 0.297387
5077.53, 0.297266
5082.5, 0.297024
5087.49, 0.297084
5092.49, 0.297145
5097.5, 0.297205
5102.51, 0.297811
5107.54, 0.297932
5112.58, 0.297872
5117.62, 0.297266
5122.68, 0.297145
5127.75, 0.297327
5132.82, 0.297569
5137.91, 0.297811
5143.01, 0.297508
5148.12, 0.296781
5153.23, 0.297084
5158.36, 0.297266
5163.5, 0.297024
5168.65, 0.296660
5173.81, 0.296842
5178.98, 0.296297
5184.15, 0.295994
5189.34, 0.295873
5194.54, 0.295752
5199.75, 0.295146
5204.98, 0.293934
5210.21, 0.292420
5215.45, 0.292359
5220.7, 0.292177
5225.96, 0.291147
5231.23, 0.290178
5236.52, 0.288845
5241.81, 0.287452
5247.12, 0.286059
5252.44, 0.284605
5257.76, 0.283333
5263.1, 0.281939
5268.45, 0.280849
5273.81, 0.279577
5279.18, 0.278002
5284.56, 0.276548
5289.95, 0.274851
5295.36, 0.273519
5300.77, 0.272428
5306.2, 0.270550
5311.63, 0.269218
5317.08, 0.267885
5322.54, 0.266491
5328.01, 0.264674
5333.49, 0.263099
5338.98, 0.261342
5344.49, 0.258858
5350.0, 0.256193
5355.53, 0.255224
5361.07, 0.254497
5366.62, 0.253346
5372.18, 0.252255
5377.75, 0.251165
5383.34, 0.249166
5388.93, 0.247651
5394.54, 0.246439
5400.16, 0.245470
5405.79, 0.244077
5411.44, 0.242502
5417.09, 0.240624
5422.76, 0.238928
5428.43, 0.238503
5434.12, 0.237776
5439.83, 0.236080
5445.54, 0.234626
5451.26, 0.233233
5457.0, 0.231355
5462.75, 0.229598
5468.52, 0.228508
5474.29, 0.227417
5480.08, 0.226266
5485.88, 0.225539
5491.69, 0.224146
5497.51, 0.222389
5503.35, 0.220572
5509.2, 0.219300
5515.06, 0.218633
5520.93, 0.217119
5526.82, 0.215241
5532.71, 0.213787
5538.63, 0.211969
5544.55, 0.209486
5550.49, 0.207123
5556.44, 0.205184
5562.4, 0.204276
5568.37, 0.203488
5574.36, 0.201853
5580.36, 0.201429
5586.37, 0.202822
5592.4, 0.203852
5598.44, 0.204033
5604.49, 0.204033
5610.56, 0.204094
5616.63, 0.203852
5622.73, 0.203428
5628.83, 0.202943
5634.95, 0.201853
5641.08, 0.200277
5647.23, 0.200459
5653.39, 0.200702
5659.56, 0.200641
5665.74, 0.200277
5671.94, 0.199429
5678.15, 0.198763
5684.38, 0.198278
5690.62, 0.197854
5696.87, 0.197915
5703.14, 0.196703
5709.42, 0.195128
5715.72, 0.194886
5722.03, 0.195007
5728.35, 0.194522
5734.69, 0.193795
5741.03, 0.193432
5747.4, 0.192826
5753.78, 0.192766
5760.17, 0.191251
5766.58, 0.189615
5773.0, 0.190706
5779.44, 0.191130
5785.88, 0.190888
5792.35, 0.190585
5798.83, 0.190100
5805.32, 0.189434
5811.83, 0.188586
5818.35, 0.186950
5824.89, 0.185981
5831.45, 0.186041
5838.01, 0.186405
5844.59, 0.186526
5851.19, 0.185435
5857.8, 0.184163
5864.43, 0.183497
5871.07, 0.182952
5877.73, 0.180528
5884.4, 0.180225
5891.09, 0.180165
5897.79, 0.179074
5904.5, 0.180104
5911.23, 0.179680
5917.98, 0.178469
5924.75, 0.177378
5931.53, 0.174834
5938.32, 0.173562
5945.13, 0.175137
5951.96, 0.175076
5958.8, 0.174289
5965.65, 0.172592
5972.53, 0.171865
5979.42, 0.171502
5986.32, 0.170351
5993.24, 0.169685
6000.18, 0.169624
6007.13, 0.168231
6014.1, 0.167080
6021.08, 0.166595
6028.09, 0.165929
6035.1, 0.164535
6042.14, 0.161022
6049.19, 0.158114
6056.25, 0.159871
6063.34, 0.160537
6070.44, 0.158720
6077.55, 0.157629
6084.69, 0.157447
6091.84, 0.156720
6099.0, 0.155812
6106.19, 0.153994
6113.39, 0.152359
6120.61, 0.152662
6127.84, 0.152843
6135.09, 0.151874
6142.36, 0.151087
6149.65, 0.151208
6156.95, 0.151026
6164.27, 0.151329
6171.61, 0.151813
6178.97, 0.151026
6186.34, 0.151450
6193.73, 0.153994
6201.14, 0.155085
6208.57, 0.155569
6216.01, 0.156236
6223.47, 0.157326
6230.95, 0.158356
6238.45, 0.159204
6245.97, 0.160234
6253.5, 0.160900
6261.06, 0.161930
6268.63, 0.163081
6276.21, 0.163687
6283.82, 0.164354
6291.45, 0.165565
6299.1, 0.166353
6306.76, 0.166534
6314.44, 0.166716
6322.14, 0.167443
6329.86, 0.168534
6337.6, 0.168352
6345.35, 0.168291
6353.13, 0.170593
6360.92, 0.171260
6368.74, 0.170896
6376.57, 0.171926
6384.43, 0.173138
6392.3, 0.173683
6400.19, 0.173865
6408.1, 0.171684
6416.03, 0.171502
6423.98, 0.174713
6431.95, 0.177197
6439.94, 0.179135
6447.95, 0.179923
6455.98, 0.180528
6464.03, 0.181013
6472.1, 0.180892
6480.19, 0.180468
6488.31, 0.179074
6496.44, 0.179377
6504.59, 0.182225
6512.76, 0.183194
6520.95, 0.182770
6529.16, 0.183618
6537.4, 0.184103
6545.65, 0.183981
6553.92, 0.183618
6562.22, 0.183618
6570.54, 0.182346
6578.88, 0.183073
6587.23, 0.183679
6595.61, 0.183436
6604.02, 0.183618
6612.44, 0.183618
6620.89, 0.182952
6629.35, 0.180771
6637.84, 0.179196
6646.35, 0.180528
6654.88, 0.181195
6663.44, 0.180347
6672.01, 0.179377
6680.61, 0.177984
6689.23, 0.177863
6697.88, 0.177742
6706.54, 0.176167
6715.23, 0.175137
6723.94, 0.175076
6732.67, 0.174955
6741.42, 0.173743
6750.2, 0.172592
6759.0, 0.171805
6767.82, 0.170593
6776.67, 0.169200
6785.54, 0.167383
6794.44, 0.166050
6803.35, 0.165686
6812.29, 0.164656
6821.26, 0.163263
6830.24, 0.162597
6839.25, 0.162354
6848.29, 0.160779
6857.35, 0.158114
6866.43, 0.157145
6875.54, 0.158235
6884.67, 0.157447
6893.82, 0.156478
6903.0, 0.155691
6912.2, 0.155085
6921.43, 0.154358
6930.69, 0.153691
6939.96, 0.152783
6949.27, 0.151026
6958.59, 0.148784
6967.95, 0.148663
6977.33, 0.148542
6986.73, 0.147633
6996.16, 0.146906
7005.61, 0.146543
7015.09, 0.145877
7024.6, 0.145150
7034.13, 0.143878
7043.69, 0.142363
7053.27, 0.142302
7062.88, 0.142484
7072.52, 0.142181
7082.18, 0.141636
7091.87, 0.140909
7101.58, 0.140061
7111.32, 0.139152
7121.09, 0.138365
7130.88, 0.137638
7140.71, 0.136487
7150.56, 0.135760
7160.43, 0.134972
7170.33, 0.133700
7180.27, 0.133276
7190.23, 0.132852
7200.21, 0.131701
7210.23, 0.130671
7220.27, 0.130671
7230.34, 0.130005
7240.44, 0.128975
7250.56, 0.128066
7260.72, 0.127157
7270.9, 0.126188
7281.12, 0.125219
7291.36, 0.124674
7301.63, 0.124068
7311.93, 0.123038
7322.25, 0.122614
7332.61, 0.121523
7343.0, 0.120675
7353.41, 0.120009
7363.86, 0.118858
7374.33, 0.118010
7384.83, 0.117707
7395.37, 0.116859
7405.93, 0.116011
7416.53, 0.115223
7427.15, 0.114254
7437.81, 0.113285
7448.5, 0.112255
7459.22, 0.110983
7469.96, 0.110134
7480.74, 0.109589
7491.55, 0.108802
7502.39, 0.107469
7513.27, 0.106378
7524.17, 0.105652
7535.11, 0.104682
7546.08, 0.103774
7557.08, 0.103047
7568.11, 0.101956
7579.17, 0.100987
7590.27, 0.0999570
7601.4, 0.0988060
7612.56, 0.0980180
7623.76, 0.0975340
7634.98, 0.0968070
7646.24, 0.0958380
7657.54, 0.0951710
7668.87, 0.0946260
7680.23, 0.0935960
7691.62, 0.0928090
7703.05, 0.0919000
7714.51, 0.0909910
7726.01, 0.0900820
7737.54, 0.0892950
7749.11, 0.0882650
7760.71, 0.0872350
7772.35, 0.0865690
7784.02, 0.0857810
7795.72, 0.0848120
7807.46, 0.0838430
7819.23, 0.0827520
7831.04, 0.0818440
7842.89, 0.0809350
7854.77, 0.0796630
7866.69, 0.0786330
7878.65, 0.0779060
7890.64, 0.0771790
7902.67, 0.0765130
7914.74, 0.0754830
7926.84, 0.0749980
7938.98, 0.0746950
7951.16, 0.0739080
7963.37, 0.0726350
7975.62, 0.0717870
7987.91, 0.0709390
8000.24, 0.0700910
8012.6, 0.0693040
8025.01, 0.0684550
8037.45, 0.0671830
8049.93, 0.0663350
8062.45, 0.0656080
8075.01, 0.0649420
8087.61, 0.0643970
8100.24, 0.0637300
8112.91, 0.0628210
8125.63, 0.0621550
8138.39, 0.0612460
8151.18, 0.0603980
8164.02, 0.0596710
8176.9, 0.0587020
8189.81, 0.0574900
8202.77, 0.0560370
8215.77, 0.0551280
8228.82, 0.0545830
8241.9, 0.0534920
8255.02, 0.0517960
8268.19, 0.0502210
8281.39, 0.0493730
8294.65, 0.0485250
8307.94, 0.0476760
8321.28, 0.0465250
8334.66, 0.0457980
8348.08, 0.0446470
8361.54, 0.0436180
8375.05, 0.0428300
8388.6, 0.0422240
8402.2, 0.0411940
8415.84, 0.0402250
8429.52, 0.0396190
8443.25, 0.0390140
8457.02, 0.0382870
8470.84, 0.0378020
8484.7, 0.0373780
8498.61, 0.0371360
8512.57, 0.0362870
8526.57, 0.0353790
8540.62, 0.0348340
8554.71, 0.0352580
8568.85, 0.0349550
8583.04, 0.0348940
8597.27, 0.0350760
8611.55, 0.0344090
8625.88, 0.0339850
8640.26, 0.0346520
8654.68, 0.0350760
8669.16, 0.0357420
8683.68, 0.0361060
8698.25, 0.0361060
8712.87, 0.0366510
8727.53, 0.0384680
8742.25, 0.0394380
8757.02, 0.0405280
8771.83, 0.0417400
8786.7, 0.0437390
8801.62, 0.0446470
8816.59, 0.0464650
8831.61, 0.0483430
8846.68, 0.0506450
8861.8, 0.0530680
8876.97, 0.0557340
8892.2, 0.0589440
8907.48, 0.0618520
8922.81, 0.0640330
8938.2, 0.0671230
8953.63, 0.0700910
8969.13, 0.0735440
8984.67, 0.0762100
9000.27, 0.0789960
9015.92, 0.0816620
9031.63, 0.0843880
9047.39, 0.0863870
9063.21, 0.0891740
9079.08, 0.0928690
9095.01, 0.0969280
9111.0, 0.100623
9127.04, 0.103652
9143.13, 0.106803
9159.28, 0.109953
9175.49, 0.112679
9191.76, 0.115526
9208.09, 0.118858
9224.47, 0.121766
9240.92, 0.123704
9257.42, 0.125703
9273.98, 0.128066
9290.6, 0.130308
9307.28, 0.131943
9324.02, 0.133821
9340.82, 0.135517
9357.68, 0.136790
9374.6, 0.138183
9391.58, 0.139940
9408.62, 0.141575
9425.73, 0.142969
9442.9, 0.144786
9460.13, 0.146604
9477.42, 0.148603
9494.78, 0.151026
9512.2, 0.152662
9529.69, 0.153994
9547.24, 0.156296
9564.86, 0.158477
9582.54, 0.160658
9600.28, 0.162778
9618.1, 0.165202
9635.97, 0.167746
9653.92, 0.170896
9671.93, 0.174107
9690.01, 0.176530
9708.16, 0.179499
9726.37, 0.182528
9744.65, 0.184769
9763.0, 0.187132
9781.43, 0.189494
9799.92, 0.191069
9818.48, 0.191917
9837.1, 0.191857
9855.8, 0.190100
9874.58, 0.187798
9893.42, 0.185678
9912.34, 0.182709
9931.33, 0.178287
9950.39, 0.173319
9969.52, 0.168776
9988.74, 0.164596
10008.0, 0.159749
10027.4, 0.154237
10046.8, 0.148724
10066.3, 0.143999
10085.9, 0.139455
10105.6, 0.135639
10125.3, 0.132004
10145.1, 0.127642
10165.0, 0.123947
10185.0, 0.120797
10205.0, 0.118737
10225.2, 0.117404
10245.4, 0.115587
10265.7, 0.114072
10286.0, 0.112739
10306.5, 0.111346
10327.0, 0.110195
10347.6, 0.109650
10368.3, 0.108923
10389.1, 0.108196
10409.9, 0.107166
10430.9, 0.106136
10451.9, 0.105288
10473.0, 0.104137
10494.2, 0.103228
10515.5, 0.102077
10536.9, 0.100442
10558.4, 0.0986850
10579.9, 0.0974130
10601.5, 0.0968070
10623.3, 0.0959590
10645.1, 0.0949890
10667.0, 0.0940200
10689.0, 0.0924450
10711.1, 0.0915970
10733.2, 0.0913550
10755.5, 0.0905670
10777.9, 0.0899610
10800.3, 0.0891740
10822.9, 0.0879020
10845.5, 0.0868110
10868.2, 0.0861450
10891.1, 0.0859020
10914.0, 0.0852970
10937.0, 0.0846910
10960.2, 0.0846910
10983.4, 0.0843270
11006.7, 0.0841460
11030.1, 0.0845090
11053.6, 0.0840240
11077.3, 0.0837820
11101.0, 0.0838430
11124.8, 0.0836000
11148.7, 0.0834790
11172.7, 0.0837820
11196.9, 0.0837820
11221.1, 0.0839640
11245.4, 0.0839640
11269.9, 0.0839030
11294.4, 0.0837220
11319.1, 0.0843270
11343.9, 0.0843880
11368.8, 0.0845090
11393.7, 0.0846910
11418.8, 0.0849330
11444.0, 0.0849940
11469.4, 0.0855390
11494.8, 0.0862050
11520.3, 0.0866900
11546.0, 0.0868720
11571.8, 0.0871140
11597.7, 0.0875380
11623.7, 0.0880830
11649.8, 0.0884470
11676.0, 0.0888100
11702.4, 0.0888100
11728.9, 0.0883260
11755.5, 0.0882040
11782.2, 0.0885680
11809.0, 0.0882650
11836.0, 0.0882040
11863.0, 0.0890530
11890.3, 0.0892340
11917.6, 0.0885680
11945.0, 0.0880230
11972.6, 0.0876590
12000.4, 0.0880230
12028.2, 0.0883260
12056.2, 0.0878410
12084.3, 0.0869930
12112.5, 0.0862660
12140.9, 0.0855390
12169.4, 0.0852970
12198.0, 0.0845700
12226.8, 0.0838430
12255.7, 0.0828730
12284.7, 0.0822070
12313.9, 0.0805710
12343.2, 0.0796630
12372.7, 0.0789960
12402.3, 0.0784510
12432.0, 0.0776030
12461.9, 0.0771180
12491.9, 0.0760280
12522.1, 0.0746950
12552.4, 0.0737260
12582.9, 0.0736650
12613.5, 0.0729990
12644.3, 0.0714840
12675.2, 0.0695460
12706.3, 0.0694250
12737.5, 0.0693040
12768.9, 0.0683340
12800.4, 0.0674260
12832.1, 0.0668800
12863.9, 0.0657900
12895.9, 0.0656080
12928.1, 0.0650020
12960.4, 0.0640330
12992.9, 0.0630030
13025.5, 0.0636700
13058.3, 0.0633060
13091.3, 0.0628820
13124.4, 0.0622760
13157.8, 0.0621550
13191.2, 0.0619130
13224.9, 0.0624580
13258.7, 0.0623970
13292.7, 0.0637910
13326.9, 0.0641540
13361.2, 0.0649420
13395.7, 0.0651230
13430.4, 0.0653660
13465.3, 0.0649420
13500.4, 0.0653660
13535.7, 0.0652450
13571.1, 0.0653660
13606.7, 0.0646990
13642.5, 0.0643970
13678.5, 0.0640330
13714.7, 0.0643360
13751.1, 0.0644570
13787.6, 0.0648210
13824.4, 0.0641540
13861.4, 0.0640330
13898.5, 0.0632460
13935.9, 0.0634880
13973.5, 0.0642750
14011.2, 0.0649420
14049.2, 0.0638510
14087.4, 0.0640330
14125.8, 0.0640940
14164.3, 0.0642150
14203.2, 0.0640330
14242.2, 0.0650630
14281.4, 0.0642750
14320.9, 0.0640330
14360.5, 0.0643360
14400.4, 0.0651840
14440.5, 0.0650630
14480.9, 0.0650630
14521.4, 0.0648810
14562.2, 0.0656080
14603.3, 0.0652450
14644.5, 0.0653660
14686.0, 0.0646390
14727.7, 0.0655480
14769.7, 0.0651840
14811.9, 0.0660320
14854.3, 0.0665170
14897.0, 0.0668200
14939.9, 0.0666380
14983.1, 0.0680310
15026.5, 0.0676680
15070.2, 0.0686370
15114.2, 0.0691220
15158.3, 0.0703940
15202.8, 0.0706970
15247.5, 0.0713630
15292.5, 0.0712420
15337.7, 0.0717870
15383.2, 0.0714240
15429.0, 0.0722110
15475.1, 0.0725750
15521.4, 0.0742110
15568.0, 0.0751190
15614.9, 0.0756040
15662.1, 0.0757860
15709.6, 0.0773610
15757.3, 0.0771180
15805.4, 0.0766340
15853.7, 0.0767550
15902.3, 0.0785720
15951.2, 0.0791170
16000.5, 0.0805710
16050.0, 0.0803900
16099.8, 0.0811770
16150.0, 0.0820250
16200.5, 0.0832970
16251.3, 0.0830550
16302.4, 0.0848120
16353.8, 0.0856000
16405.5, 0.0862050
16457.6, 0.0856000
16510.0, 0.0866900
16562.8, 0.0883860
16615.9, 0.0900820
16669.3, 0.0894160
16723.1, 0.0905670
16777.2, 0.0905070
16831.7, 0.0917790
16886.5, 0.0923240
16941.7, 0.0922630
16997.2, 0.0917180
17053.1, 0.0929300
17109.4, 0.0932330
17166.1, 0.0942620
17223.1, 0.0944440
17280.5, 0.0959590
17338.3, 0.0972910
17396.5, 0.0991690
17455.1, 0.0994120
17514.0, 0.100381
17573.4, 0.102138
17633.2, 0.104682
17693.4, 0.104198
17754.0, 0.104864
17815.0, 0.105046
17876.4, 0.106439
17938.3, 0.106924
18000.5, 0.108378
18063.3, 0.108317
18126.4, 0.109710
18190.0, 0.111164
18254.1, 0.113951
18318.6, 0.114920
18383.5, 0.117222
18449.0, 0.119585
18514.9, 0.123401
18581.2, 0.124431
18648.0, 0.126309
18715.4, 0.128248
18783.2, 0.131580
18851.5, 0.133276
18920.3, 0.136668
18989.6, 0.139273
19059.4, 0.141273
19129.7, 0.142242
19200.6, 0.145210
19272.0, 0.145937
19343.9, 0.146543
19416.3, 0.145574
19489.3, 0.147331
19562.8, 0.146604
19637.0, 0.148239
19711.6, 0.150965
19786.8, 0.152298
19862.6, 0.150299
19939.0, 0.151268
20016.0, 0.153086
20093.6, 0.156236
20171.8, 0.157811
20250.6, 0.160174
20330.0, 0.161567
20410.0, 0.163445
20490.7, 0.164232
20572.0, 0.167080
20654.0, 0.167140
20736.6, 0.170230
20819.9, 0.172411
20903.8, 0.174592
20988.5, 0.174894
21073.8, 0.175985
21159.8, 0.175076
21246.5, 0.175561
21334.0, 0.174834
21422.1, 0.176348
21511.0, 0.177439
21600.7, 0.179801
21691.0, 0.179923
21782.1, 0.181801
21874.0, 0.182346
21966.7, 0.184708
22060.2, 0.188888
22154.5, 0.189918
22249.6, 0.185193
22345.5, 0.185435
22442.2, 0.181255
22539.8, 0.183254
22638.2, 0.186223
22737.5, 0.189070
22837.7, 0.189979
22938.7, 0.192281
23040.7, 0.188525
23143.5, 0.189555
23247.3, 0.191251
23352.1, 0.195249
23457.7, 0.196400
23564.4, 0.197188
23672.0, 0.194644
23780.5, 0.197551
23890.1, 0.199248
24000.7, 0.201550
24112.3, 0.200277
24225.0, 0.202277
24338.7, 0.201004
24453.5, 0.202882
24569.4, 0.201974
24686.4, 0.204882
24804.5, 0.206033
24923.8, 0.209607
