Database of Origin, USGS Spectral Database
Sample Description, See USGS database for additional info
Date Added,2016-08-10 05:39:10.468032

Data ID,USGS_spe02          
Sample ID, spessartine_hs112.20749
Mineral Name, spessartine
Material Class,Nesosilicate

Wavelength
1602.52, 0.392304
1603.02, 0.392084
1603.51, 0.392231
1604.01, 0.392304
1604.5, 0.392084
1605.0, 0.391719
1605.5, 0.391500
1606.0, 0.392011
1606.49, 0.392450
1606.99, 0.392450
1607.49, 0.392450
1607.99, 0.392669
1608.49, 0.392669
1608.99, 0.392888
1609.49, 0.392961
1609.99, 0.392742
1610.49, 0.392815
1610.99, 0.392231
1611.49, 0.391865
1611.99, 0.392011
1612.49, 0.392231
1612.99, 0.392377
1613.49, 0.392523
1614.0, 0.392669
1614.5, 0.392669
1615.0, 0.392450
1615.51, 0.392304
1616.01, 0.392377
1616.51, 0.392523
1617.02, 0.392450
1617.52, 0.392523
1618.03, 0.392304
1618.53, 0.392231
1619.04, 0.392231
1619.54, 0.392450
1620.05, 0.392596
1620.55, 0.392377
1621.06, 0.392523
1621.57, 0.392815
1622.08, 0.392304
1622.58, 0.392084
1623.09, 0.392523
1623.6, 0.392888
1624.11, 0.392523
1624.62, 0.392231
1625.13, 0.392011
1625.64, 0.392450
1626.15, 0.392815
1626.66, 0.392742
1627.17, 0.392450
1627.68, 0.392888
1628.19, 0.393107
1628.7, 0.392304
1629.21, 0.391938
1629.72, 0.392231
1630.24, 0.392231
1630.75, 0.392377
1631.26, 0.393034
1631.78, 0.393473
1632.29, 0.393107
1632.8, 0.392596
1633.32, 0.392596
1633.83, 0.392669
1634.35, 0.392596
1634.86, 0.392304
1635.38, 0.392377
1635.9, 0.392523
1636.41, 0.392742
1636.93, 0.392742
1637.45, 0.392888
1637.96, 0.392669
1638.48, 0.392742
1639.0, 0.392742
1639.52, 0.392815
1640.04, 0.393107
1640.56, 0.393107
1641.08, 0.392815
1641.59, 0.392888
1642.11, 0.393180
1642.63, 0.393327
1643.16, 0.393327
1643.68, 0.393034
1644.2, 0.392888
1644.72, 0.393107
1645.24, 0.393327
1645.76, 0.393254
1646.29, 0.392961
1646.81, 0.392961
1647.33, 0.392961
1647.86, 0.392888
1648.38, 0.392815
1648.9, 0.392961
1649.43, 0.393400
1649.95, 0.393400
1650.48, 0.393254
1651.0, 0.392961
1651.53, 0.392669
1652.06, 0.392888
1652.58, 0.393107
1653.11, 0.392888
1653.64, 0.392888
1654.17, 0.392961
1654.69, 0.392669
1655.22, 0.392304
1655.75, 0.392523
1656.28, 0.392888
1656.81, 0.393107
1657.34, 0.393034
1657.87, 0.392669
1658.4, 0.393034
1658.93, 0.393473
1659.46, 0.393473
1659.99, 0.393400
1660.52, 0.393254
1661.05, 0.393180
1661.59, 0.393180
1662.12, 0.393107
1662.65, 0.393327
1663.19, 0.393473
1663.72, 0.393107
1664.26, 0.393034
1664.79, 0.393327
1665.32, 0.393400
1665.86, 0.393692
1666.39, 0.393400
1666.93, 0.393180
1667.47, 0.393546
1668.0, 0.393984
1668.54, 0.393911
1669.08, 0.393546
1669.61, 0.393765
1670.15, 0.393911
1670.69, 0.393619
1671.23, 0.393546
1671.77, 0.393692
1672.31, 0.393765
1672.85, 0.393765
1673.39, 0.393765
1673.93, 0.394130
1674.47, 0.394203
1675.01, 0.394276
1675.55, 0.394276
1676.09, 0.394276
1676.64, 0.394569
1677.18, 0.394861
1677.72, 0.394715
1678.26, 0.394569
1678.81, 0.394861
1679.35, 0.394861
1679.89, 0.394715
1680.44, 0.394569
1680.98, 0.394788
1681.53, 0.394934
1682.07, 0.394788
1682.62, 0.394642
1683.17, 0.394642
1683.71, 0.394715
1684.26, 0.395153
1684.81, 0.395373
1685.36, 0.395373
1685.9, 0.395446
1686.45, 0.395446
1687.0, 0.395592
1687.55, 0.395519
1688.1, 0.395519
1688.65, 0.395299
1689.2, 0.395373
1689.75, 0.395665
1690.3, 0.395957
1690.85, 0.395957
1691.41, 0.396030
1691.96, 0.396176
1692.51, 0.396249
1693.06, 0.396761
1693.61, 0.396980
1694.17, 0.396542
1694.72, 0.396322
1695.28, 0.396395
1695.83, 0.396469
1696.39, 0.396688
1696.94, 0.396761
1697.5, 0.396688
1698.05, 0.396761
1698.61, 0.396980
1699.17, 0.397199
1699.72, 0.397272
1700.28, 0.397418
1700.84, 0.397638
1701.4, 0.397565
1701.95, 0.397345
1702.51, 0.397199
1703.07, 0.397272
1703.63, 0.397491
1704.19, 0.397418
1704.75, 0.397272
1705.31, 0.397345
1705.88, 0.397565
1706.44, 0.397345
1707.0, 0.397491
1707.56, 0.397784
1708.12, 0.398222
1708.69, 0.398587
1709.25, 0.398441
1709.81, 0.398295
1710.38, 0.398295
1710.94, 0.398441
1711.51, 0.398587
1712.07, 0.398734
1712.64, 0.398807
1713.2, 0.399026
1713.77, 0.399245
1714.34, 0.399172
1714.9, 0.399245
1715.47, 0.399318
1716.04, 0.399099
1716.61, 0.399391
1717.18, 0.399610
1717.74, 0.399830
1718.31, 0.399976
1718.88, 0.399976
1719.45, 0.399976
1720.02, 0.399830
1720.59, 0.399903
1721.17, 0.400268
1721.74, 0.400780
1722.31, 0.400560
1722.88, 0.400341
1723.45, 0.400487
1724.03, 0.400560
1724.6, 0.400341
1725.18, 0.400487
1725.75, 0.400780
1726.33, 0.400853
1726.9, 0.401145
1727.48, 0.401364
1728.05, 0.401364
1728.63, 0.401218
1729.2, 0.401145
1729.78, 0.401218
1730.36, 0.401510
1730.94, 0.401729
1731.51, 0.402022
1732.09, 0.402022
1732.67, 0.401949
1733.25, 0.402314
1733.83, 0.402387
1734.41, 0.402387
1734.99, 0.402752
1735.57, 0.403045
1736.15, 0.403118
1736.73, 0.403118
1737.32, 0.403118
1737.9, 0.403118
1738.48, 0.403337
1739.07, 0.403775
1739.65, 0.403848
1740.23, 0.403775
1740.82, 0.403995
1741.4, 0.404214
1741.99, 0.404652
1742.57, 0.404725
1743.16, 0.404433
1743.74, 0.404141
1744.33, 0.404360
1744.92, 0.404652
1745.51, 0.404871
1746.09, 0.404944
1746.68, 0.405383
1747.27, 0.405310
1747.86, 0.405383
1748.45, 0.405894
1749.04, 0.406040
1749.63, 0.405821
1750.22, 0.405894
1750.81, 0.406040
1751.4, 0.406260
1751.99, 0.406406
1752.59, 0.406552
1753.18, 0.406698
1753.77, 0.406625
1754.37, 0.406771
1754.96, 0.407063
1755.56, 0.407356
1756.15, 0.407356
1756.74, 0.407794
1757.34, 0.407940
1757.94, 0.408013
1758.53, 0.408379
1759.13, 0.408233
1759.73, 0.408159
1760.32, 0.408598
1760.92, 0.408963
1761.52, 0.408963
1762.12, 0.408890
1762.72, 0.408817
1763.32, 0.409036
1763.92, 0.409694
1764.52, 0.409840
1765.12, 0.410059
1765.72, 0.410278
1766.32, 0.410352
1766.92, 0.410352
1767.53, 0.410425
1768.13, 0.410717
1768.73, 0.411009
1769.34, 0.411155
1769.94, 0.411521
1770.55, 0.411594
1771.15, 0.411521
1771.76, 0.411594
1772.36, 0.411740
1772.97, 0.412105
1773.57, 0.412178
1774.18, 0.412178
1774.79, 0.412251
1775.4, 0.412397
1776.0, 0.412544
1776.61, 0.412836
1777.22, 0.413201
1777.83, 0.413420
1778.44, 0.413493
1779.05, 0.413713
1779.66, 0.414078
1780.27, 0.414151
1780.88, 0.414370
1781.5, 0.414589
1782.11, 0.414736
1782.72, 0.415101
1783.33, 0.415393
1783.95, 0.415686
1784.56, 0.415612
1785.18, 0.415612
1785.79, 0.415466
1786.41, 0.415466
1787.02, 0.415612
1787.64, 0.416051
1788.26, 0.416489
1788.87, 0.416635
1789.49, 0.416562
1790.11, 0.416781
1790.73, 0.416928
1791.35, 0.417001
1791.96, 0.417366
1792.58, 0.417804
1793.21, 0.417878
1793.83, 0.417804
1794.45, 0.417951
1795.07, 0.418243
1795.69, 0.418462
1796.31, 0.418754
1796.93, 0.418974
1797.56, 0.419120
1798.18, 0.419120
1798.8, 0.419412
1799.43, 0.419631
1800.05, 0.419850
1800.68, 0.419923
1801.3, 0.419704
1801.93, 0.419923
1802.56, 0.420289
1803.18, 0.420654
1803.81, 0.421093
1804.44, 0.421093
1805.07, 0.421093
1805.7, 0.421093
1806.33, 0.421019
1806.95, 0.421239
1807.58, 0.421385
1808.22, 0.421677
1808.85, 0.422042
1809.48, 0.422262
1810.11, 0.422408
1810.74, 0.422846
1811.38, 0.423138
1812.01, 0.423138
1812.64, 0.423358
1813.28, 0.423431
1813.91, 0.423577
1814.55, 0.423869
1815.18, 0.424015
1815.82, 0.424088
1816.45, 0.424454
1817.09, 0.424819
1817.73, 0.424965
1818.36, 0.425184
1819.0, 0.425550
1819.64, 0.425696
1820.28, 0.425623
1820.92, 0.425550
1821.56, 0.425769
1822.2, 0.426280
1822.84, 0.426573
1823.48, 0.426573
1824.12, 0.426427
1824.76, 0.426646
1825.41, 0.427011
1826.05, 0.427084
1826.69, 0.427303
1827.34, 0.427742
1827.98, 0.427961
1828.63, 0.427961
1829.27, 0.428399
1829.92, 0.428911
1830.56, 0.429057
1831.21, 0.428911
1831.86, 0.428984
1832.5, 0.429276
1833.15, 0.429568
1833.8, 0.429788
1834.45, 0.429788
1835.1, 0.429861
1835.75, 0.430080
1836.4, 0.430007
1837.05, 0.430372
1837.7, 0.430884
1838.35, 0.431176
1839.01, 0.431395
1839.66, 0.431395
1840.31, 0.431614
1840.96, 0.432126
1841.62, 0.432199
1842.27, 0.432053
1842.93, 0.432345
1843.58, 0.432783
1844.24, 0.432930
1844.9, 0.433295
1845.55, 0.433587
1846.21, 0.433806
1846.87, 0.433660
1847.53, 0.433660
1848.18, 0.433879
1848.84, 0.434026
1849.5, 0.434464
1850.16, 0.434976
1850.82, 0.435487
1851.48, 0.436145
1852.14, 0.436218
1852.81, 0.435779
1853.47, 0.435633
1854.13, 0.435852
1854.8, 0.436291
1855.46, 0.436510
1856.12, 0.436583
1856.79, 0.436802
1857.45, 0.436875
1858.12, 0.437094
1858.79, 0.437533
1859.45, 0.437679
1860.12, 0.437825
1860.79, 0.438117
1861.46, 0.438483
1862.12, 0.438775
1862.79, 0.438921
1863.46, 0.438994
1864.13, 0.439140
1864.8, 0.439360
1865.48, 0.439579
1866.15, 0.439725
1866.82, 0.439944
1867.49, 0.439944
1868.16, 0.440017
1868.84, 0.440675
1869.51, 0.441040
1870.19, 0.440967
1870.86, 0.440675
1871.54, 0.440821
1872.21, 0.441406
1872.89, 0.441259
1873.56, 0.441113
1874.24, 0.441625
1874.92, 0.441844
1875.6, 0.441990
1876.28, 0.442428
1876.96, 0.442648
1877.64, 0.442648
1878.32, 0.442940
1879.0, 0.443378
1879.68, 0.443817
1880.36, 0.443744
1881.04, 0.443671
1881.73, 0.443890
1882.41, 0.444109
1883.09, 0.444401
1883.78, 0.444255
1884.46, 0.444255
1885.15, 0.444547
1885.83, 0.444621
1886.52, 0.444767
1887.21, 0.445132
1887.89, 0.445424
1888.58, 0.445424
1889.27, 0.445497
1889.96, 0.445570
1890.65, 0.445643
1891.34, 0.445790
1892.03, 0.446155
1892.72, 0.446447
1893.41, 0.446520
1894.1, 0.446520
1894.79, 0.446593
1895.49, 0.446813
1896.18, 0.447032
1896.87, 0.447105
1897.57, 0.447105
1898.26, 0.447032
1898.96, 0.447032
1899.65, 0.447105
1900.35, 0.447251
1901.05, 0.447543
1901.74, 0.447616
1902.44, 0.447762
1903.14, 0.447762
1903.84, 0.448055
1904.54, 0.448347
1905.24, 0.448347
1905.94, 0.448493
1906.64, 0.448785
1907.34, 0.449078
1908.04, 0.449297
1908.75, 0.449370
1909.45, 0.449443
1910.15, 0.449516
1910.86, 0.449808
1911.56, 0.449881
1912.27, 0.450028
1912.97, 0.450028
1913.68, 0.449808
1914.39, 0.449954
1915.09, 0.450320
1915.8, 0.450612
1916.51, 0.450831
1917.22, 0.450831
1917.93, 0.450904
1918.64, 0.451343
1919.35, 0.451635
1920.06, 0.451562
1920.77, 0.451562
1921.48, 0.451854
1922.19, 0.452147
1922.91, 0.452366
1923.62, 0.452512
1924.33, 0.452512
1925.05, 0.452804
1925.76, 0.453096
1926.48, 0.453170
1927.19, 0.453096
1927.91, 0.453389
1928.63, 0.453608
1929.35, 0.453754
1930.07, 0.453973
1930.78, 0.454192
1931.5, 0.454266
1932.22, 0.454412
1932.94, 0.454777
1933.66, 0.454923
1934.39, 0.454923
1935.11, 0.455288
1935.83, 0.455435
1936.55, 0.455435
1937.28, 0.455654
1938.0, 0.455800
1938.73, 0.455946
1939.45, 0.456165
1940.18, 0.456311
1940.9, 0.456311
1941.63, 0.456531
1942.36, 0.456969
1943.09, 0.457115
1943.81, 0.457042
1944.54, 0.456969
1945.27, 0.457334
1946.0, 0.457700
1946.73, 0.457846
1947.47, 0.458065
1948.2, 0.458065
1948.93, 0.458138
1949.66, 0.458211
1950.4, 0.458430
1951.13, 0.458796
1951.86, 0.458942
1952.6, 0.458942
1953.34, 0.458942
1954.07, 0.458942
1954.81, 0.459088
1955.55, 0.459453
1956.29, 0.459673
1957.02, 0.459892
1957.76, 0.459892
1958.5, 0.459892
1959.24, 0.460111
1959.98, 0.460257
1960.72, 0.460257
1961.47, 0.460330
1962.21, 0.460476
1962.95, 0.460622
1963.7, 0.460915
1964.44, 0.461207
1965.18, 0.460915
1965.93, 0.461061
1966.67, 0.461353
1967.42, 0.461645
1968.17, 0.461645
1968.92, 0.461572
1969.66, 0.461645
1970.41, 0.461718
1971.16, 0.462011
1971.91, 0.462084
1972.66, 0.462303
1973.41, 0.462449
1974.16, 0.462376
1974.92, 0.462449
1975.67, 0.462741
1976.42, 0.462888
1977.18, 0.462888
1977.93, 0.463034
1978.69, 0.463180
1979.44, 0.463545
1980.2, 0.463399
1980.95, 0.463180
1981.71, 0.463253
1982.47, 0.463399
1983.23, 0.463764
1983.99, 0.464130
1984.74, 0.464203
1985.51, 0.464203
1986.27, 0.464276
1987.03, 0.464276
1987.79, 0.464422
1988.55, 0.464495
1989.32, 0.464495
1990.08, 0.464714
1990.84, 0.464641
1991.61, 0.464568
1992.37, 0.464860
1993.14, 0.465080
1993.9, 0.465007
1994.67, 0.464934
1995.44, 0.465080
1996.21, 0.465226
1996.98, 0.465226
1997.75, 0.465445
1998.52, 0.465372
1999.29, 0.465445
2000.06, 0.465445
2000.83, 0.465518
2001.6, 0.465664
2002.38, 0.465810
2003.15, 0.465810
2003.93, 0.465810
2004.7, 0.465883
2005.48, 0.466029
2006.25, 0.466029
2007.03, 0.466249
2007.81, 0.466322
2008.58, 0.466176
2009.36, 0.466249
2010.14, 0.466395
2010.92, 0.466468
2011.7, 0.466614
2012.48, 0.466833
2013.26, 0.466906
2014.05, 0.466906
2014.83, 0.466979
2015.61, 0.466906
2016.4, 0.466906
2017.18, 0.466979
2017.97, 0.466906
2018.75, 0.466833
2019.54, 0.466979
2020.32, 0.467199
2021.11, 0.467272
2021.9, 0.467345
2022.69, 0.467199
2023.48, 0.467126
2024.27, 0.467345
2025.06, 0.467710
2025.85, 0.468002
2026.64, 0.468075
2027.44, 0.468002
2028.23, 0.467783
2029.02, 0.467710
2029.82, 0.467783
2030.61, 0.467783
2031.41, 0.467783
2032.2, 0.467710
2033.0, 0.467856
2033.8, 0.468075
2034.6, 0.468075
2035.4, 0.468002
2036.2, 0.468002
2037.0, 0.468002
2037.8, 0.467929
2038.6, 0.468222
2039.4, 0.468514
2040.2, 0.468222
2041.01, 0.468222
2041.81, 0.468368
2042.61, 0.468295
2043.42, 0.468368
2044.22, 0.468441
2045.03, 0.468295
2045.84, 0.468514
2046.65, 0.468733
2047.46, 0.468587
2048.26, 0.468441
2049.07, 0.468514
2049.88, 0.468660
2050.69, 0.468806
2051.51, 0.468952
2052.32, 0.468806
2053.13, 0.468806
2053.94, 0.468733
2054.76, 0.468733
2055.57, 0.468879
2056.39, 0.468879
2057.2, 0.469098
2058.02, 0.469025
2058.84, 0.468879
2059.66, 0.468952
2060.48, 0.469025
2061.29, 0.468952
2062.11, 0.468733
2062.94, 0.468879
2063.76, 0.468879
2064.58, 0.468733
2065.4, 0.468660
2066.22, 0.468660
2067.05, 0.468514
2067.87, 0.468587
2068.7, 0.468660
2069.52, 0.468733
2070.35, 0.468806
2071.18, 0.468660
2072.0, 0.468587
2072.83, 0.468514
2073.66, 0.468441
2074.49, 0.468514
2075.32, 0.468514
2076.15, 0.468514
2076.98, 0.468368
2077.82, 0.468441
2078.65, 0.468295
2079.48, 0.468148
2080.32, 0.468148
2081.15, 0.468148
2081.99, 0.468075
2082.83, 0.468222
2083.66, 0.468075
2084.5, 0.467929
2085.34, 0.468002
2086.18, 0.468002
2087.02, 0.467856
2087.86, 0.467710
2088.7, 0.467637
2089.54, 0.467710
2090.39, 0.467710
2091.23, 0.467637
2092.07, 0.467710
2092.92, 0.467564
2093.76, 0.467564
2094.61, 0.467491
2095.45, 0.467564
2096.3, 0.467637
2097.15, 0.467564
2098.0, 0.467491
2098.85, 0.467491
2099.7, 0.467418
2100.55, 0.467199
2101.4, 0.467052
2102.25, 0.467126
2103.1, 0.467199
2103.96, 0.467126
2104.81, 0.466979
2105.67, 0.467272
2106.52, 0.467272
2107.38, 0.466979
2108.24, 0.466906
2109.09, 0.466760
2109.95, 0.466541
2110.81, 0.466468
2111.67, 0.466468
2112.53, 0.466395
2113.39, 0.466395
2114.25, 0.466395
2115.12, 0.466249
2115.98, 0.466176
2116.84, 0.466322
2117.71, 0.466322
2118.58, 0.466029
2119.44, 0.465883
2120.31, 0.466029
2121.18, 0.466176
2122.04, 0.465956
2122.91, 0.465737
2123.78, 0.465591
2124.65, 0.465810
2125.52, 0.465737
2126.4, 0.465810
2127.27, 0.465956
2128.14, 0.465664
2129.02, 0.465226
2129.89, 0.465153
2130.77, 0.465226
2131.64, 0.465153
2132.52, 0.464860
2133.4, 0.464860
2134.27, 0.465007
2135.15, 0.464860
2136.03, 0.464787
2136.91, 0.464641
2137.79, 0.464714
2138.68, 0.464568
2139.56, 0.464422
2140.44, 0.464641
2141.33, 0.464495
2142.21, 0.464130
2143.1, 0.463984
2143.99, 0.464057
2144.87, 0.464130
2145.76, 0.464276
2146.65, 0.464057
2147.54, 0.463837
2148.43, 0.463837
2149.32, 0.463837
2150.21, 0.463837
2151.1, 0.463545
2151.99, 0.463472
2152.89, 0.463399
2153.78, 0.463326
2154.68, 0.463180
2155.57, 0.463034
2156.47, 0.462961
2157.37, 0.463107
2158.27, 0.463034
2159.16, 0.462741
2160.06, 0.462595
2160.96, 0.462741
2161.86, 0.462595
2162.77, 0.462376
2163.67, 0.462449
2164.57, 0.462230
2165.48, 0.462303
2166.38, 0.462303
2167.29, 0.462084
2168.2, 0.461865
2169.1, 0.461792
2170.01, 0.461718
2170.92, 0.461499
2171.83, 0.461426
2172.74, 0.461353
2173.65, 0.461280
2174.56, 0.461207
2175.47, 0.461134
2176.39, 0.460842
2177.3, 0.460769
2178.22, 0.460842
2179.13, 0.460622
2180.05, 0.460549
2180.96, 0.460617
2181.88, 0.460890
2182.8, 0.461162
2183.72, 0.460957
2184.64, 0.460481
2185.56, 0.460345
2186.48, 0.460141
2187.41, 0.459937
2188.33, 0.459665
2189.25, 0.459461
2190.18, 0.459121
2191.1, 0.459325
2192.03, 0.459257
2192.96, 0.458645
2193.89, 0.458509
2194.82, 0.458577
2195.74, 0.458577
2196.68, 0.458373
2197.61, 0.457965
2198.54, 0.457829
2199.47, 0.457693
2200.4, 0.457897
2201.34, 0.457625
2202.28, 0.457217
2203.21, 0.457285
2204.15, 0.456876
2205.08, 0.456740
2206.02, 0.456672
2206.96, 0.456332
2207.9, 0.456060
2208.84, 0.456264
2209.78, 0.456196
2210.73, 0.456128
2211.67, 0.455924
2212.61, 0.455244
2213.56, 0.455108
2214.5, 0.454904
2215.45, 0.454836
2216.4, 0.454904
2217.35, 0.454700
2218.3, 0.454224
2219.24, 0.454292
2220.2, 0.454564
2221.15, 0.454224
2222.1, 0.453884
2223.05, 0.453952
2224.0, 0.453748
2224.96, 0.453816
2225.91, 0.453748
2226.87, 0.453408
2227.83, 0.453135
2228.79, 0.453408
2229.74, 0.453612
2230.7, 0.453067
2231.66, 0.452455
2232.63, 0.452455
2233.59, 0.452455
2234.55, 0.452523
2235.51, 0.452591
2236.48, 0.452591
2237.44, 0.452387
2238.41, 0.452183
2239.38, 0.452183
2240.34, 0.451843
2241.31, 0.451367
2242.28, 0.451435
2243.25, 0.451571
2244.22, 0.451911
2245.19, 0.451639
2246.17, 0.451299
2247.14, 0.451163
2248.12, 0.451095
2249.09, 0.450687
2250.07, 0.450551
2251.04, 0.450755
2252.02, 0.450891
2253.0, 0.450823
2253.98, 0.450687
2254.96, 0.450483
2255.94, 0.450347
2256.92, 0.450347
2257.91, 0.450415
2258.89, 0.450415
2259.88, 0.450347
2260.86, 0.450211
2261.85, 0.450007
2262.83, 0.450347
2263.82, 0.450483
2264.81, 0.449939
2265.8, 0.449599
2266.79, 0.449530
2267.78, 0.449190
2268.78, 0.449054
2269.77, 0.449122
2270.76, 0.449190
2271.76, 0.449190
2272.75, 0.449190
2273.75, 0.449190
2274.75, 0.449054
2275.75, 0.448510
2276.75, 0.448170
2277.75, 0.448306
2278.75, 0.448578
2279.75, 0.448578
2280.75, 0.448238
2281.76, 0.448170
2282.76, 0.447966
2283.77, 0.447898
2284.77, 0.447762
2285.78, 0.447490
2286.79, 0.447422
2287.8, 0.447218
2288.81, 0.447354
2289.82, 0.447286
2290.83, 0.447150
2291.84, 0.446674
2292.86, 0.446402
2293.87, 0.446606
2294.89, 0.446470
2295.91, 0.446198
2296.92, 0.446198
2297.94, 0.446198
2298.96, 0.445994
2299.98, 0.445585
2301.0, 0.445585
2302.02, 0.445585
2303.04, 0.445517
2304.07, 0.445517
2305.09, 0.445313
2306.12, 0.445041
2307.15, 0.444565
2308.17, 0.444225
2309.2, 0.444293
2310.23, 0.444429
2311.26, 0.444157
2312.29, 0.444021
2313.32, 0.443885
2314.35, 0.443953
2315.39, 0.443885
2316.42, 0.443477
2317.46, 0.443205
2318.5, 0.443205
2319.53, 0.443137
2320.57, 0.442933
2321.61, 0.442593
2322.65, 0.442457
2323.69, 0.442321
2324.73, 0.442253
2325.78, 0.442253
2326.82, 0.441913
2327.86, 0.441504
2328.91, 0.441436
2329.96, 0.441504
2331.01, 0.441096
2332.05, 0.440688
2333.1, 0.440756
2334.15, 0.440484
2335.21, 0.440416
2336.26, 0.440756
2337.31, 0.440348
2338.36, 0.439736
2339.42, 0.439736
2340.48, 0.439804
2341.53, 0.439464
2342.59, 0.438784
2343.65, 0.438784
2344.71, 0.438784
2345.77, 0.438716
2346.83, 0.438784
2347.9, 0.438376
2348.96, 0.437967
2350.02, 0.437491
2351.09, 0.437287
2352.16, 0.437083
2353.23, 0.436879
2354.29, 0.436675
2355.36, 0.436539
2356.43, 0.436539
2357.51, 0.436335
2358.58, 0.436471
2359.65, 0.436335
2360.73, 0.436131
2361.8, 0.435995
2362.88, 0.436063
2363.96, 0.436199
2365.03, 0.436267
2366.11, 0.436131
2367.19, 0.435655
2368.27, 0.435519
2369.36, 0.435587
2370.44, 0.435723
2371.53, 0.436267
2372.61, 0.436471
2373.7, 0.436199
2374.78, 0.436131
2375.87, 0.436403
2376.96, 0.436539
2378.05, 0.436131
2379.14, 0.436199
2380.24, 0.436267
2381.33, 0.436267
2382.42, 0.436063
2383.52, 0.436131
2384.61, 0.436403
2385.71, 0.436607
2386.81, 0.436267
2387.91, 0.436335
2389.01, 0.436403
2390.11, 0.436607
2391.22, 0.436675
2392.32, 0.436743
2393.42, 0.436743
2394.53, 0.436675
2395.64, 0.436811
2396.74, 0.437219
2397.85, 0.437219
2398.96, 0.437151
2400.07, 0.436947
2401.18, 0.437083
2402.3, 0.437287
2403.41, 0.437559
2404.52, 0.437627
2405.64, 0.437559
2406.76, 0.437491
2407.88, 0.437355
2408.99, 0.437559
2410.11, 0.437423
2411.23, 0.437151
2412.36, 0.437627
2413.48, 0.438035
2414.6, 0.437899
2415.73, 0.437967
2416.85, 0.437763
2417.98, 0.437627
2419.11, 0.437559
2420.24, 0.437355
2421.37, 0.437627
2422.5, 0.437899
2423.64, 0.437763
2424.77, 0.437287
2425.9, 0.437287
2427.04, 0.437355
2428.18, 0.437559
2429.31, 0.437695
2430.45, 0.437355
2431.59, 0.437287
2432.73, 0.437423
2433.88, 0.437423
2435.02, 0.437151
2436.16, 0.437287
2437.31, 0.437559
2438.45, 0.437355
2439.6, 0.437015
2440.75, 0.437083
2441.9, 0.436947
2443.05, 0.436675
2444.2, 0.436743
2445.35, 0.436879
2446.51, 0.436675
2447.67, 0.436947
2448.82, 0.437083
2449.98, 0.437015
2451.14, 0.436879
2452.3, 0.436743
2453.46, 0.436743
2454.62, 0.436879
2455.78, 0.436539
2456.94, 0.436471
2458.11, 0.436607
2459.28, 0.436471
2460.44, 0.436403
2461.61, 0.436335
2462.78, 0.436471
2463.95, 0.436539
2465.12, 0.436471
2466.3, 0.436403
2467.47, 0.436267
2468.65, 0.436403
2469.82, 0.436335
2471.0, 0.436267
2472.18, 0.436335
2473.36, 0.436539
2474.54, 0.436471
2475.72, 0.436267
2476.9, 0.436539
2478.08, 0.436539
2479.27, 0.436267
2480.46, 0.436131
2481.64, 0.436131
2482.83, 0.436267
2484.02, 0.436267
2485.21, 0.436199
2486.4, 0.436267
2487.6, 0.436403
2488.79, 0.436539
2489.99, 0.436879
2491.18, 0.436879
2492.38, 0.436811
2493.58, 0.436607
2494.78, 0.436539
2495.98, 0.436607
2497.18, 0.436811
2498.39, 0.436879
2499.59, 0.436947
2500.8, 0.437015
2502.01, 0.437083
2503.21, 0.437151
2504.42, 0.437151
2505.63, 0.437219
2506.84, 0.437151
2508.06, 0.437151
2509.27, 0.437423
2510.49, 0.437763
2511.7, 0.437763
2512.92, 0.437627
2514.14, 0.437627
2515.36, 0.437695
2516.58, 0.437423
2517.8, 0.437559
2519.03, 0.437831
2520.25, 0.438444
2521.48, 0.438784
2522.7, 0.438920
2523.93, 0.438988
2525.16, 0.438988
2526.39, 0.439056
2527.62, 0.439260
2528.86, 0.439668
2530.09, 0.439804
2531.33, 0.439328
2532.56, 0.439056
2533.8, 0.439668
2535.04, 0.439804
2536.28, 0.439804
2537.52, 0.440756
2538.76, 0.441436
2540.01, 0.441504
2541.25, 0.441300
2542.5, 0.440756
2543.75, 0.440824
2544.99, 0.441504
2546.24, 0.441981
2547.49, 0.441981
2548.75, 0.442457
2550.0, 0.442457
2551.26, 0.442049
2552.51, 0.441572
2553.77, 0.442729
2555.03, 0.444021
2556.29, 0.444429
2557.55, 0.444769
2558.81, 0.444429
2560.08, 0.442593
2561.34, 0.440552
2562.61, 0.440348
2563.88, 0.441300
2565.14, 0.443613
2566.41, 0.445381
2567.68, 0.445177
2568.96, 0.443749
2570.23, 0.443817
2571.51, 0.445109
2572.78, 0.443613
2574.06, 0.443749
2575.34, 0.445245
2576.62, 0.445109
2577.9, 0.446198
2579.18, 0.447286
2580.47, 0.446334
2581.75, 0.445926
2583.04, 0.443817
2584.32, 0.443273
2585.61, 0.445721
2586.9, 0.445381
2588.2, 0.445858
2589.49, 0.447286
2590.78, 0.448646
2592.08, 0.447966
2593.37, 0.441981
2594.67, 0.435383
2595.97, 0.439872
2597.27, 0.447082
2598.57, 0.450075
2599.88, 0.449939
2601.18, 0.448986
2602.49, 0.448170
2603.79, 0.446606
2605.1, 0.444021
2606.41, 0.444905
2607.72, 0.447898
2609.03, 0.449190
2610.35, 0.450211
2611.66, 0.451231
2612.98, 0.450891
2614.3, 0.451163
2615.62, 0.448850
2616.94, 0.446674
2618.26, 0.448714
2619.58, 0.447558
2620.91, 0.447490
2622.23, 0.451911
2623.56, 0.453816
2624.89, 0.452795
2626.22, 0.449803
2627.55, 0.450619
2628.88, 0.450823
2630.21, 0.447558
2631.55, 0.449871
2632.89, 0.452659
2634.22, 0.453203
2635.56, 0.454836
2636.9, 0.455584
2638.25, 0.455788
2639.59, 0.455924
2640.93, 0.455924
2642.28, 0.455788
2643.63, 0.456128
2644.98, 0.455108
2646.33, 0.455176
2647.68, 0.456672
2649.03, 0.457557
2650.39, 0.457013
2651.74, 0.455108
2653.1, 0.454904
2654.46, 0.456060
2655.82, 0.456332
2657.18, 0.457557
2658.54, 0.456876
2659.9, 0.456332
2661.27, 0.457013
2662.64, 0.457285
2664.01, 0.453544
2665.38, 0.448986
2666.74, 0.448714
2668.12, 0.452183
2669.49, 0.449803
2670.87, 0.448510
2672.24, 0.455516
2673.62, 0.458033
2675.0, 0.455856
2676.38, 0.453067
2677.76, 0.453816
2679.15, 0.455040
2680.54, 0.457965
2681.92, 0.459461
2683.31, 0.458645
2684.7, 0.458373
2686.09, 0.458169
2687.48, 0.458577
2688.88, 0.459053
2690.27, 0.458985
2691.67, 0.457693
2693.07, 0.454020
2694.47, 0.452523
2695.87, 0.454292
2697.27, 0.456264
2698.67, 0.456740
2700.08, 0.455448
2701.49, 0.454428
2702.9, 0.455108
2704.31, 0.455516
2705.72, 0.455380
2707.13, 0.454224
2708.54, 0.451435
2709.96, 0.447694
2711.38, 0.446742
2712.8, 0.450211
2714.22, 0.451367
2715.64, 0.450211
2717.06, 0.448102
2718.49, 0.444497
2719.91, 0.437967
2721.34, 0.436743
2722.77, 0.437627
2724.2, 0.433954
2725.63, 0.433614
2727.07, 0.434907
2728.5, 0.433954
2729.94, 0.431574
2731.38, 0.428717
2732.82, 0.425180
2734.26, 0.420147
2735.7, 0.417494
2737.15, 0.415522
2738.59, 0.409468
2740.04, 0.404503
2741.49, 0.404571
2742.94, 0.406815
2744.39, 0.407155
2745.84, 0.406203
2747.3, 0.404979
2748.76, 0.403278
2750.21, 0.401238
2751.67, 0.398993
2753.14, 0.396136
2754.6, 0.390627
2756.06, 0.388722
2757.53, 0.391375
2759.0, 0.391919
2760.46, 0.390015
2761.94, 0.386410
2763.41, 0.384437
2764.88, 0.383825
2766.36, 0.381513
2767.83, 0.378316
2769.31, 0.375323
2770.79, 0.371854
2772.27, 0.370018
2773.76, 0.368249
2775.24, 0.365460
2776.73, 0.361991
2778.22, 0.359067
2779.71, 0.356006
2781.2, 0.352809
2782.69, 0.350564
2784.18, 0.348524
2785.68, 0.344647
2787.18, 0.340838
2788.68, 0.338525
2790.18, 0.336145
2791.68, 0.332200
2793.19, 0.327642
2794.69, 0.322813
2796.2, 0.318052
2797.71, 0.313495
2799.22, 0.308937
2800.73, 0.303700
2802.24, 0.297850
2803.76, 0.293157
2805.28, 0.289824
2806.8, 0.286287
2808.32, 0.283363
2809.84, 0.282070
2811.36, 0.282274
2812.89, 0.283839
2814.42, 0.286900
2815.94, 0.291321
2817.48, 0.296014
2819.01, 0.300231
2820.54, 0.304176
2822.08, 0.307645
2823.61, 0.310162
2825.15, 0.311590
2826.69, 0.312474
2828.23, 0.313495
2829.78, 0.314787
2831.32, 0.316079
2832.87, 0.317304
2834.42, 0.318596
2835.97, 0.320024
2837.52, 0.321045
2839.08, 0.321929
2840.63, 0.322609
2842.19, 0.322881
2843.75, 0.322677
2845.31, 0.322269
2846.87, 0.321657
2848.44, 0.321045
2850.0, 0.320500
2851.57, 0.320024
2853.14, 0.319548
2854.71, 0.319412
2856.28, 0.319684
2857.86, 0.320500
2859.43, 0.321793
2861.01, 0.323901
2862.59, 0.326826
2864.17, 0.330363
2865.76, 0.334308
2867.34, 0.338593
2868.93, 0.343355
2870.52, 0.347844
2872.11, 0.351857
2873.7, 0.355802
2875.29, 0.359271
2876.89, 0.361991
2878.49, 0.364168
2880.08, 0.366277
2881.69, 0.368113
2883.29, 0.369541
2884.89, 0.370562
2886.5, 0.371650
2888.11, 0.372534
2889.72, 0.373486
2891.33, 0.374575
2892.94, 0.375391
2894.56, 0.376139
2896.17, 0.376819
2897.79, 0.377568
2899.42, 0.378112
2901.04, 0.378724
2902.66, 0.379540
2904.29, 0.380220
2905.92, 0.380764
2907.55, 0.381104
2909.18, 0.381513
2910.81, 0.381785
2912.45, 0.381989
2914.08, 0.382601
2915.72, 0.383145
2917.36, 0.383213
2919.01, 0.383281
2920.65, 0.383689
2922.3, 0.384029
2923.94, 0.384301
2925.59, 0.384709
2927.25, 0.384913
2928.9, 0.384981
2930.56, 0.385254
2932.21, 0.385798
2933.87, 0.386138
2935.53, 0.386342
2937.2, 0.386682
2938.86, 0.387090
2940.53, 0.387362
2942.2, 0.387702
2943.87, 0.388042
2945.54, 0.388178
2947.22, 0.388382
2948.89, 0.388859
2950.57, 0.389131
2952.25, 0.389539
2953.93, 0.389947
2955.62, 0.390355
2957.3, 0.390491
2958.99, 0.390899
2960.68, 0.391375
2962.37, 0.391851
2964.07, 0.392191
2965.76, 0.392531
2967.46, 0.392940
2969.16, 0.393416
2970.86, 0.393824
2972.56, 0.394164
2974.27, 0.394504
2975.98, 0.395048
2977.69, 0.395524
2979.4, 0.396136
2981.11, 0.396477
2982.83, 0.396681
2984.54, 0.397293
2986.26, 0.397837
2987.98, 0.398177
2989.71, 0.398653
2991.43, 0.399129
2993.16, 0.399605
2994.89, 0.399877
2996.62, 0.400218
2998.35, 0.400490
3000.09, 0.400898
3001.83, 0.401306
3003.57, 0.401714
3005.31, 0.402054
3007.05, 0.402530
3008.79, 0.403074
3010.54, 0.403482
3012.29, 0.403686
3014.04, 0.404163
3015.8, 0.404435
3017.55, 0.404843
3019.31, 0.405251
3021.07, 0.405659
3022.83, 0.406203
3024.59, 0.406679
3026.36, 0.407223
3028.13, 0.407631
3029.9, 0.407768
3031.67, 0.408040
3033.44, 0.408516
3035.22, 0.408788
3037.0, 0.409060
3038.78, 0.409604
3040.56, 0.410012
3042.34, 0.410352
3044.13, 0.410692
3045.92, 0.411168
3047.71, 0.411577
3049.5, 0.411985
3051.3, 0.412325
3053.09, 0.412733
3054.89, 0.413073
3056.69, 0.413549
3058.5, 0.413957
3060.3, 0.414297
3062.11, 0.414773
3063.92, 0.415249
3065.73, 0.415726
3067.55, 0.416202
3069.36, 0.416746
3071.18, 0.417018
3073.0, 0.417358
3074.82, 0.417970
3076.65, 0.418514
3078.48, 0.419058
3080.31, 0.419399
3082.14, 0.420011
3083.97, 0.420623
3085.8, 0.421167
3087.64, 0.421507
3089.48, 0.421915
3091.33, 0.422527
3093.17, 0.423140
3095.02, 0.423752
3096.87, 0.424160
3098.72, 0.424704
3100.57, 0.425452
3102.43, 0.426064
3104.28, 0.426608
3106.14, 0.427153
3108.01, 0.427833
3109.87, 0.428513
3111.74, 0.429057
3113.61, 0.429737
3115.48, 0.430281
3117.35, 0.431098
3119.23, 0.431778
3121.1, 0.432322
3122.98, 0.433002
3124.87, 0.433750
3126.75, 0.434363
3128.64, 0.435179
3130.53, 0.435995
3132.42, 0.436675
3134.31, 0.437287
3136.21, 0.437967
3138.11, 0.438648
3140.01, 0.439260
3141.91, 0.440008
3143.82, 0.440688
3145.73, 0.441368
3147.64, 0.442117
3149.55, 0.442933
3151.46, 0.443613
3153.38, 0.444293
3155.3, 0.444905
3157.22, 0.445653
3159.14, 0.446538
3161.07, 0.447354
3163.0, 0.448034
3164.93, 0.448714
3166.86, 0.449258
3168.8, 0.450007
3170.74, 0.450755
3172.68, 0.451503
3174.62, 0.452115
3176.56, 0.452727
3178.51, 0.453544
3180.46, 0.454292
3182.42, 0.454836
3184.37, 0.455448
3186.33, 0.456060
3188.29, 0.456808
3190.25, 0.457217
3192.21, 0.457693
3194.18, 0.458441
3196.15, 0.459325
3198.12, 0.460073
3200.09, 0.460617
3202.07, 0.461162
3204.05, 0.461706
3206.03, 0.462386
3208.02, 0.462930
3210.0, 0.463406
3211.99, 0.464018
3213.98, 0.464699
3215.98, 0.465243
3217.97, 0.465651
3219.97, 0.466195
3221.97, 0.466807
3223.98, 0.467283
3225.98, 0.467691
3227.99, 0.468167
3230.0, 0.468780
3232.02, 0.469256
3234.03, 0.469800
3236.05, 0.470344
3238.07, 0.470888
3240.1, 0.471364
3242.12, 0.471772
3244.15, 0.472180
3246.18, 0.472589
3248.22, 0.473065
3250.25, 0.473473
3252.29, 0.473949
3254.33, 0.474357
3256.38, 0.474833
3258.43, 0.475241
3260.47, 0.475649
3262.53, 0.476058
3264.58, 0.476466
3266.64, 0.476874
3268.7, 0.477282
3270.76, 0.477622
3272.82, 0.478030
3274.89, 0.478370
3276.96, 0.478846
3279.04, 0.479186
3281.11, 0.479458
3283.19, 0.479730
3285.27, 0.480071
3287.35, 0.480479
3289.44, 0.480819
3291.53, 0.481159
3293.62, 0.481499
3295.71, 0.481839
3297.81, 0.482043
3299.91, 0.482179
3302.01, 0.482587
3304.11, 0.482995
3306.22, 0.483403
3308.33, 0.483608
3310.44, 0.483880
3312.56, 0.484356
3314.68, 0.484560
3316.8, 0.484696
3318.92, 0.484968
3321.05, 0.484968
3323.18, 0.484968
3325.31, 0.485240
3327.44, 0.485648
3329.58, 0.485920
3331.72, 0.486192
3333.86, 0.486532
3336.01, 0.486872
3338.16, 0.487144
3340.31, 0.487417
3342.46, 0.487621
3344.61, 0.487689
3346.77, 0.487621
3348.94, 0.487689
3351.1, 0.487689
3353.27, 0.487621
3355.44, 0.487280
3357.61, 0.486736
3359.79, 0.486396
3361.97, 0.486056
3364.15, 0.485580
3366.33, 0.485104
3368.52, 0.484560
3370.71, 0.484152
3372.9, 0.483744
3375.1, 0.483471
3377.3, 0.483471
3379.5, 0.483676
3381.71, 0.483744
3383.91, 0.483812
3386.12, 0.484084
3388.34, 0.484356
3390.55, 0.484288
3392.77, 0.484152
3394.99, 0.484016
3397.22, 0.483676
3399.45, 0.483131
3401.68, 0.482519
3403.91, 0.481907
3406.15, 0.481431
3408.39, 0.480751
3410.63, 0.480003
3412.87, 0.479526
3415.12, 0.479322
3417.37, 0.479662
3419.63, 0.480343
3421.88, 0.481227
3424.14, 0.482179
3426.41, 0.482995
3428.67, 0.483812
3430.94, 0.484560
3433.21, 0.485172
3435.49, 0.485716
3437.77, 0.486124
3440.05, 0.486464
3442.33, 0.486804
3444.62, 0.487076
3446.91, 0.487144
3449.2, 0.487417
3451.5, 0.487757
3453.8, 0.487893
3456.1, 0.487893
3458.41, 0.487893
3460.72, 0.487893
3463.03, 0.487961
3465.34, 0.487757
3467.66, 0.487621
3469.98, 0.487484
3472.31, 0.487212
3474.63, 0.486872
3476.96, 0.486464
3479.3, 0.486056
3481.64, 0.485784
3483.97, 0.485376
3486.32, 0.484968
3488.66, 0.484560
3491.01, 0.483880
3493.36, 0.483335
3495.72, 0.482587
3498.08, 0.481839
3500.44, 0.481567
3502.81, 0.481499
3505.18, 0.481703
3507.55, 0.482111
3509.92, 0.482519
3512.3, 0.482859
3514.68, 0.483131
3517.06, 0.483403
3519.45, 0.483539
3521.84, 0.483608
3524.24, 0.483471
3526.64, 0.483267
3529.04, 0.483063
3531.44, 0.482927
3533.85, 0.482655
3536.26, 0.482247
3538.67, 0.481839
3541.09, 0.481499
3543.51, 0.481159
3545.93, 0.480683
3548.36, 0.480207
3550.79, 0.480003
3553.22, 0.479798
3555.66, 0.479254
3558.1, 0.478710
3560.54, 0.478302
3562.99, 0.477826
3565.44, 0.477282
3567.9, 0.476874
3570.35, 0.476534
3572.81, 0.475921
3575.28, 0.475309
3577.75, 0.474765
3580.22, 0.474289
3582.69, 0.473881
3585.17, 0.473269
3587.65, 0.472657
3590.14, 0.472249
3592.62, 0.471840
3595.11, 0.471296
3597.61, 0.470752
3600.11, 0.470140
3602.61, 0.469596
3605.11, 0.468984
3607.62, 0.468371
3610.14, 0.467827
3612.65, 0.467351
3615.17, 0.466807
3617.69, 0.466127
3620.22, 0.465583
3622.75, 0.465175
3625.28, 0.464631
3627.82, 0.463950
3630.36, 0.463474
3632.9, 0.462930
3635.45, 0.462658
3638.0, 0.462114
3640.56, 0.461502
3643.12, 0.460957
3645.68, 0.460413
3648.24, 0.459801
3650.81, 0.459325
3653.39, 0.458849
3655.96, 0.458373
3658.54, 0.457761
3661.13, 0.457285
3663.71, 0.456876
3666.3, 0.456264
3668.9, 0.455788
3671.5, 0.455380
3674.1, 0.454904
3676.7, 0.454496
3679.31, 0.454020
3681.93, 0.453476
3684.54, 0.452863
3687.17, 0.452387
3689.79, 0.451911
3692.42, 0.451435
3695.05, 0.450959
3697.69, 0.450347
3700.32, 0.449871
3702.97, 0.449394
3705.61, 0.448918
3708.27, 0.448442
3710.92, 0.447830
3713.58, 0.447150
3716.24, 0.446606
3718.91, 0.446266
3721.58, 0.445858
3724.25, 0.445245
3726.93, 0.444429
3729.61, 0.443885
3732.29, 0.443477
3734.98, 0.442933
3737.67, 0.442389
3740.37, 0.441844
3743.07, 0.441096
3745.78, 0.440620
3748.49, 0.440144
3751.2, 0.439668
3753.91, 0.439056
3756.63, 0.438512
3759.36, 0.437899
3762.09, 0.437355
3764.82, 0.436811
3767.55, 0.436131
3770.29, 0.435519
3773.04, 0.434975
3775.78, 0.434294
3778.54, 0.433682
3781.29, 0.433070
3784.05, 0.432390
3786.82, 0.431710
3789.59, 0.431030
3792.36, 0.430349
3795.13, 0.429601
3797.92, 0.428921
3800.7, 0.428173
3803.49, 0.427493
3806.28, 0.426744
3809.08, 0.425996
3811.88, 0.425384
3814.68, 0.424568
3817.49, 0.423956
3820.31, 0.423412
3823.12, 0.422595
3825.94, 0.421643
3828.77, 0.420827
3831.6, 0.420079
3834.43, 0.419467
3837.27, 0.418786
3840.11, 0.418174
3842.96, 0.417698
3845.81, 0.417154
3848.67, 0.416542
3851.53, 0.415794
3854.39, 0.415249
3857.26, 0.414773
3860.13, 0.414229
3863.01, 0.413753
3865.89, 0.413277
3868.77, 0.412801
3871.66, 0.412461
3874.55, 0.412189
3877.45, 0.411713
3880.35, 0.411304
3883.26, 0.410828
3886.17, 0.410556
3889.09, 0.410352
3892.01, 0.410216
3894.93, 0.409876
3897.86, 0.409536
3900.79, 0.409332
3903.73, 0.409332
3906.67, 0.409196
3909.62, 0.409128
3912.57, 0.408992
3915.52, 0.408788
3918.48, 0.408720
3921.45, 0.408584
3924.42, 0.408584
3927.39, 0.408516
3930.37, 0.408380
3933.35, 0.408380
3936.34, 0.408516
3939.33, 0.408380
3942.32, 0.408312
3945.32, 0.408380
3948.33, 0.408380
3951.34, 0.408380
3954.35, 0.408448
3957.37, 0.408380
3960.39, 0.408380
3963.42, 0.408448
3966.45, 0.408448
3969.49, 0.408516
3972.53, 0.408380
3975.58, 0.408312
3978.63, 0.408312
3981.68, 0.408312
3984.75, 0.408244
3987.81, 0.408108
3990.88, 0.407972
3993.95, 0.407904
3997.03, 0.407768
4000.12, 0.407631
4003.21, 0.407359
4006.3, 0.407155
4009.4, 0.407019
4012.5, 0.406679
4015.61, 0.406339
4018.72, 0.406135
4021.84, 0.405863
4024.96, 0.405455
4028.09, 0.405047
4031.22, 0.404775
4034.36, 0.404367
4037.5, 0.404027
4040.65, 0.403754
4043.8, 0.403414
4046.96, 0.402938
4050.12, 0.402462
4053.29, 0.401850
4056.46, 0.401442
4059.64, 0.400898
4062.82, 0.400149
4066.0, 0.399605
4069.19, 0.399129
4072.39, 0.398653
4075.59, 0.398109
4078.8, 0.397429
4082.01, 0.396749
4085.23, 0.396000
4088.45, 0.395388
4091.68, 0.394776
4094.91, 0.394232
4098.15, 0.393552
4101.39, 0.392940
4104.63, 0.392191
4107.89, 0.391443
4111.14, 0.390763
4114.41, 0.390083
4117.67, 0.389335
4120.95, 0.388790
4124.23, 0.388178
4127.51, 0.387430
4130.8, 0.386750
4134.09, 0.386070
4137.39, 0.385458
4140.7, 0.384845
4144.01, 0.384165
4147.32, 0.383417
4150.64, 0.382737
4153.97, 0.382193
4157.3, 0.381513
4160.64, 0.380696
4163.98, 0.380084
4167.33, 0.379472
4170.68, 0.378724
4174.04, 0.377840
4177.4, 0.377091
4180.77, 0.376479
4184.14, 0.375867
4187.52, 0.375187
4190.91, 0.374439
4194.3, 0.373759
4197.69, 0.373010
4201.1, 0.372262
4204.5, 0.371514
4207.92, 0.370698
4211.34, 0.369950
4214.76, 0.369065
4218.19, 0.368045
4221.62, 0.367161
4225.06, 0.366413
4228.51, 0.365596
4231.96, 0.364712
4235.42, 0.363964
4238.88, 0.363556
4242.35, 0.363284
4245.83, 0.362944
4249.31, 0.362672
4252.79, 0.362264
4256.28, 0.361651
4259.78, 0.360495
4263.29, 0.359135
4266.79, 0.357978
4270.31, 0.357298
4273.83, 0.356822
4277.35, 0.356278
4280.89, 0.355734
4284.42, 0.355258
4287.97, 0.354918
4291.52, 0.354509
4295.07, 0.354101
4298.63, 0.353693
4302.2, 0.353421
4305.78, 0.353217
4309.35, 0.352877
4312.94, 0.352469
4316.53, 0.352265
4320.13, 0.351857
4323.73, 0.351517
4327.34, 0.351041
4330.96, 0.350360
4334.58, 0.349884
4338.21, 0.349272
4341.84, 0.348728
4345.48, 0.348048
4349.12, 0.347300
4352.77, 0.346551
4356.43, 0.345871
4360.1, 0.345055
4363.76, 0.344239
4367.44, 0.343286
4371.12, 0.342402
4374.81, 0.341586
4378.51, 0.340770
4382.21, 0.339886
4385.92, 0.338865
4389.63, 0.337913
4393.35, 0.336961
4397.08, 0.336009
4400.81, 0.335056
4404.55, 0.334240
4408.29, 0.333560
4412.04, 0.332744
4415.8, 0.331928
4419.57, 0.331111
4423.34, 0.330363
4427.12, 0.329479
4430.9, 0.328595
4434.69, 0.327914
4438.49, 0.327234
4442.29, 0.326554
4446.1, 0.325874
4449.92, 0.324990
4453.74, 0.324105
4457.57, 0.323221
4461.41, 0.322473
4465.25, 0.321725
4469.1, 0.321113
4472.95, 0.320705
4476.82, 0.320500
4480.69, 0.320364
4484.56, 0.320228
4488.44, 0.320024
4492.33, 0.319888
4496.23, 0.319888
4500.13, 0.320024
4504.04, 0.320160
4507.96, 0.320500
4511.88, 0.320977
4515.81, 0.321317
4519.75, 0.321589
4523.69, 0.321861
4527.65, 0.321997
4531.6, 0.322269
4535.57, 0.322405
4539.54, 0.322405
4543.52, 0.322337
4547.5, 0.322269
4551.5, 0.322065
4555.5, 0.321861
4559.5, 0.321793
4563.52, 0.321589
4567.54, 0.321249
4571.56, 0.320909
4575.6, 0.320432
4579.64, 0.320024
4583.69, 0.319616
4587.75, 0.319208
4591.81, 0.318732
4595.88, 0.318188
4599.96, 0.317712
4604.04, 0.317236
4608.14, 0.316692
4612.24, 0.316079
4616.34, 0.315467
4620.46, 0.314855
4624.58, 0.314175
4628.71, 0.313427
4632.84, 0.312746
4636.99, 0.312066
4641.14, 0.311182
4645.3, 0.310230
4649.47, 0.309346
4653.64, 0.308529
4657.82, 0.307509
4662.01, 0.306557
4666.21, 0.305673
4670.41, 0.304856
4674.62, 0.303904
4678.84, 0.303020
4683.07, 0.302408
4687.3, 0.302204
4691.54, 0.302272
4695.79, 0.302476
4700.05, 0.302544
4704.31, 0.302612
4708.59, 0.302680
4712.87, 0.302612
4717.15, 0.302272
4721.45, 0.301728
4725.76, 0.301319
4730.07, 0.300911
4734.39, 0.300435
4738.72, 0.299959
4743.05, 0.299347
4747.39, 0.298667
4751.75, 0.298123
4756.1, 0.297578
4760.47, 0.296898
4764.85, 0.296218
4769.23, 0.295606
4773.62, 0.294926
4778.02, 0.294110
4782.43, 0.293293
4786.85, 0.292545
4791.27, 0.291729
4795.7, 0.290845
4800.14, 0.290028
4804.59, 0.289212
4809.05, 0.288396
4813.51, 0.287376
4817.99, 0.286355
4822.47, 0.285403
4826.96, 0.284315
4831.46, 0.282955
4835.96, 0.281730
4840.48, 0.280438
4845.0, 0.279146
4849.54, 0.277853
4854.08, 0.276357
4858.63, 0.274588
4863.18, 0.272888
4867.75, 0.270915
4872.33, 0.268875
4876.91, 0.266698
4881.5, 0.264454
4886.1, 0.261937
4890.71, 0.259352
4895.33, 0.256700
4899.96, 0.254047
4904.59, 0.251462
4909.24, 0.249150
4913.89, 0.247109
4918.55, 0.245409
4923.22, 0.243980
4927.9, 0.242756
4932.59, 0.241736
4937.29, 0.240783
4942.0, 0.239967
4946.71, 0.239219
4951.44, 0.238403
4956.17, 0.237315
4960.91, 0.236226
4965.67, 0.235070
4970.43, 0.233914
4975.2, 0.232689
4979.98, 0.231601
4984.76, 0.230445
4989.56, 0.229220
4994.37, 0.228064
4999.18, 0.226976
5004.01, 0.225752
5008.84, 0.224527
5013.69, 0.223303
5018.54, 0.222011
5023.4, 0.220786
5028.28, 0.219630
5033.16, 0.218542
5038.05, 0.217453
5042.95, 0.216161
5047.86, 0.214937
5052.78, 0.213712
5057.71, 0.212488
5062.65, 0.211128
5067.6, 0.209767
5072.56, 0.208475
5077.53, 0.207183
5082.5, 0.205686
5087.49, 0.204190
5092.49, 0.202693
5097.5, 0.200721
5102.51, 0.198408
5107.54, 0.195824
5112.58, 0.192967
5117.62, 0.189906
5122.68, 0.186573
5127.75, 0.182832
5132.82, 0.178955
5137.91, 0.174806
5143.01, 0.170453
5148.12, 0.166236
5153.23, 0.162427
5158.36, 0.158346
5163.5, 0.154265
5168.65, 0.150388
5173.81, 0.146511
5178.98, 0.142838
5184.15, 0.139369
5189.34, 0.136104
5194.54, 0.132907
5199.75, 0.129778
5204.98, 0.126921
5210.21, 0.123997
5215.45, 0.121208
5220.7, 0.118963
5225.96, 0.116583
5231.23, 0.114134
5236.52, 0.111821
5241.81, 0.109849
5247.12, 0.108012
5252.44, 0.106176
5257.76, 0.104476
5263.1, 0.102911
5268.45, 0.101483
5273.81, 0.100054
5279.18, 0.0986940
5284.56, 0.0974020
5289.95, 0.0959050
5295.36, 0.0946810
5300.77, 0.0935930
5306.2, 0.0924360
5311.63, 0.0912800
5317.08, 0.0900560
5322.54, 0.0891030
5328.01, 0.0883550
5333.49, 0.0876070
5338.98, 0.0868590
5344.49, 0.0860430
5350.0, 0.0853630
5355.53, 0.0851580
5361.07, 0.0851580
5366.62, 0.0850220
5372.18, 0.0848180
5377.75, 0.0846140
5383.34, 0.0844100
5388.93, 0.0842740
5394.54, 0.0842060
5400.16, 0.0840700
5405.79, 0.0840700
5411.44, 0.0840020
5417.09, 0.0835260
5422.76, 0.0833220
5428.43, 0.0840020
5434.12, 0.0843420
5439.83, 0.0842060
5445.54, 0.0840700
5451.26, 0.0838660
5457.0, 0.0832540
5462.75, 0.0823020
5468.52, 0.0816220
5474.29, 0.0808050
5480.08, 0.0797170
5485.88, 0.0786970
5491.69, 0.0774720
5497.51, 0.0761800
5503.35, 0.0750240
5509.2, 0.0740040
5515.06, 0.0729150
5520.93, 0.0718950
5526.82, 0.0710110
5532.71, 0.0702630
5538.63, 0.0695820
5544.55, 0.0688340
5550.49, 0.0679500
5556.44, 0.0672020
5562.4, 0.0665220
5568.37, 0.0657050
5574.36, 0.0643450
5580.36, 0.0633250
5586.37, 0.0629170
5592.4, 0.0624400
5598.44, 0.0618280
5604.49, 0.0612160
5610.56, 0.0607400
5616.63, 0.0603320
5622.73, 0.0600600
5628.83, 0.0597880
5634.95, 0.0593120
5641.08, 0.0586990
5647.23, 0.0588360
5653.39, 0.0591760
5659.56, 0.0593800
5665.74, 0.0596520
5671.94, 0.0594480
5678.15, 0.0593800
5684.38, 0.0595160
5690.62, 0.0594480
5696.87, 0.0594480
5703.14, 0.0592440
5709.42, 0.0585630
5715.72, 0.0584270
5722.03, 0.0586310
5728.35, 0.0587670
5734.69, 0.0586310
5741.03, 0.0584270
5747.4, 0.0582230
5753.78, 0.0584950
5760.17, 0.0579510
5766.58, 0.0572710
5773.0, 0.0580870
5779.44, 0.0589040
5785.88, 0.0592440
5792.35, 0.0597200
5798.83, 0.0601960
5805.32, 0.0608080
5811.83, 0.0610800
5818.35, 0.0608760
5824.89, 0.0613520
5831.45, 0.0627810
5838.01, 0.0640730
5844.59, 0.0651610
5851.19, 0.0658410
5857.8, 0.0665900
5864.43, 0.0676100
5871.07, 0.0687660
5877.73, 0.0688340
5884.4, 0.0704670
5891.09, 0.0725070
5897.79, 0.0744120
5904.5, 0.0775400
5911.23, 0.0802610
5917.98, 0.0827780
5924.75, 0.0854310
5931.53, 0.0871990
5938.32, 0.0901920
5945.13, 0.0951570
5951.96, 0.0996460
5958.8, 0.103863
5965.65, 0.107468
5972.53, 0.111889
5979.42, 0.116651
5986.32, 0.120460
5993.24, 0.125221
6000.18, 0.130458
6007.13, 0.134267
6014.1, 0.137668
6021.08, 0.142021
6028.09, 0.145898
6035.1, 0.148687
6042.14, 0.148551
6049.19, 0.148823
6056.25, 0.154673
6063.34, 0.158482
6070.44, 0.159026
6077.55, 0.161339
6084.69, 0.164467
6091.84, 0.165964
6099.0, 0.166644
6106.19, 0.165964
6113.39, 0.165148
6120.61, 0.167392
6127.84, 0.169093
6135.09, 0.169093
6142.36, 0.168889
6149.65, 0.168821
6156.95, 0.168072
6164.27, 0.168276
6171.61, 0.168821
6178.97, 0.167392
6186.34, 0.166372
6193.73, 0.168140
6201.14, 0.168889
6208.57, 0.168821
6216.01, 0.168821
6223.47, 0.169093
6230.95, 0.169297
6238.45, 0.169569
6245.97, 0.169909
6253.5, 0.170317
6261.06, 0.170589
6268.63, 0.170929
6276.21, 0.171269
6283.82, 0.171677
6291.45, 0.171881
6299.1, 0.171949
6306.76, 0.171949
6314.44, 0.171949
6322.14, 0.171745
6329.86, 0.171337
6337.6, 0.169433
6345.35, 0.167732
6353.13, 0.168957
6360.92, 0.168480
6368.74, 0.166304
6376.57, 0.165692
6384.43, 0.165080
6392.3, 0.163515
6400.19, 0.160998
6408.1, 0.155557
6416.03, 0.152020
6423.98, 0.152564
6431.95, 0.151340
6439.94, 0.149231
6447.95, 0.146715
6455.98, 0.143858
6464.03, 0.140865
6472.1, 0.136852
6480.19, 0.132771
6488.31, 0.128418
6496.44, 0.125765
6504.59, 0.125425
6512.76, 0.123725
6520.95, 0.120868
6529.16, 0.119439
6537.4, 0.117875
6545.65, 0.116039
6553.92, 0.114338
6562.22, 0.112774
6570.54, 0.110597
6578.88, 0.109985
6587.23, 0.109645
6595.61, 0.108897
6604.02, 0.108217
6612.44, 0.107060
6620.89, 0.105564
6629.35, 0.102911
6637.84, 0.100394
6646.35, 0.100394
6654.88, 0.100054
6663.44, 0.0980140
6672.01, 0.0954290
6680.61, 0.0930490
6689.23, 0.0916200
6697.88, 0.0899880
6706.54, 0.0872670
6715.23, 0.0851580
6723.94, 0.0835940
6732.67, 0.0822340
6741.42, 0.0808050
6750.2, 0.0793090
6759.0, 0.0780850
6767.82, 0.0766560
6776.67, 0.0751600
6785.54, 0.0737310
6794.44, 0.0729830
6803.35, 0.0729830
6812.29, 0.0723030
6821.26, 0.0712150
6830.24, 0.0705350
6839.25, 0.0701260
6848.29, 0.0693100
6857.35, 0.0678820
6866.43, 0.0672700
6875.54, 0.0680860
6884.67, 0.0682220
6893.82, 0.0680180
6903.0, 0.0675420
6912.2, 0.0674060
6921.43, 0.0674740
6930.69, 0.0673380
6939.96, 0.0670660
6949.27, 0.0665900
6958.59, 0.0658410
6967.95, 0.0661810
6977.33, 0.0665220
6986.73, 0.0664540
6996.16, 0.0664540
7005.61, 0.0665900
7015.09, 0.0665220
7024.6, 0.0665220
7034.13, 0.0661810
7043.69, 0.0655010
7053.27, 0.0656370
7062.88, 0.0659770
7072.52, 0.0658410
7082.18, 0.0655010
7091.87, 0.0650250
7101.58, 0.0644130
7111.32, 0.0634610
7121.09, 0.0625080
7130.88, 0.0616920
7140.71, 0.0605360
7150.56, 0.0595160
7160.43, 0.0586990
7170.33, 0.0576110
7180.27, 0.0567950
7190.23, 0.0561150
7200.21, 0.0552310
7210.23, 0.0544820
7220.27, 0.0538700
7230.34, 0.0530540
7240.44, 0.0523060
7250.56, 0.0515580
7260.72, 0.0509450
7270.9, 0.0501970
7281.12, 0.0495850
7291.36, 0.0490410
7301.63, 0.0484290
7311.93, 0.0478850
7322.25, 0.0472720
7332.61, 0.0466600
7343.0, 0.0463880
7353.41, 0.0461160
7363.86, 0.0458440
7374.33, 0.0456400
7384.83, 0.0455040
7395.37, 0.0455040
7405.93, 0.0454360
7416.53, 0.0453680
7427.15, 0.0455040
7437.81, 0.0455720
7448.5, 0.0457760
7459.22, 0.0456400
7469.96, 0.0456400
7480.74, 0.0457760
7491.55, 0.0457760
7502.39, 0.0457760
7513.27, 0.0458440
7524.17, 0.0460480
7535.11, 0.0462520
7546.08, 0.0463200
7557.08, 0.0464560
7568.11, 0.0465240
7579.17, 0.0465240
7590.27, 0.0466600
7601.4, 0.0468640
7612.56, 0.0469320
7623.76, 0.0472040
7634.98, 0.0475450
7646.24, 0.0478850
7657.54, 0.0481570
7668.87, 0.0484970
7680.23, 0.0489050
7691.62, 0.0493810
7703.05, 0.0497890
7714.51, 0.0502650
7726.01, 0.0506730
7737.54, 0.0510130
7749.11, 0.0514220
7760.71, 0.0518300
7772.35, 0.0521020
7784.02, 0.0522380
7795.72, 0.0523740
7807.46, 0.0525780
7819.23, 0.0527820
7831.04, 0.0531900
7842.89, 0.0534620
7854.77, 0.0537340
7866.69, 0.0540060
7878.65, 0.0542780
7890.64, 0.0547540
7902.67, 0.0553670
7914.74, 0.0559790
7926.84, 0.0566590
7938.98, 0.0573390
7951.16, 0.0579510
7963.37, 0.0586990
7975.62, 0.0593120
7987.91, 0.0597200
8000.24, 0.0601280
8012.6, 0.0604680
8025.01, 0.0608080
8037.45, 0.0610800
8049.93, 0.0614880
8062.45, 0.0620320
8075.01, 0.0624400
8087.61, 0.0629850
8100.24, 0.0634610
8112.91, 0.0638690
8125.63, 0.0645490
8138.39, 0.0651610
8151.18, 0.0657730
8164.02, 0.0661810
8176.9, 0.0663860
8189.81, 0.0663860
8202.77, 0.0663860
8215.77, 0.0663170
8228.82, 0.0663170
8241.9, 0.0660450
8255.02, 0.0654330
8268.19, 0.0650930
8281.39, 0.0648890
8294.65, 0.0646170
8307.94, 0.0643450
8321.28, 0.0638690
8334.66, 0.0634610
8348.08, 0.0631210
8361.54, 0.0628490
8375.05, 0.0623720
8388.6, 0.0620320
8402.2, 0.0618960
8415.84, 0.0614880
8429.52, 0.0610120
8443.25, 0.0608080
8457.02, 0.0605360
8470.84, 0.0601960
8484.7, 0.0597200
8498.61, 0.0592440
8512.57, 0.0586310
8526.57, 0.0580190
8540.62, 0.0572710
8554.71, 0.0562510
8568.85, 0.0546860
8583.04, 0.0525100
8597.27, 0.0493810
8611.55, 0.0460480
8625.88, 0.0439400
8640.26, 0.0444840
8654.68, 0.0468640
8669.16, 0.0491770
8683.68, 0.0506730
8698.25, 0.0514900
8712.87, 0.0518980
8727.53, 0.0519660
8742.25, 0.0520340
8757.02, 0.0520340
8771.83, 0.0521700
8786.7, 0.0523060
8801.62, 0.0523740
8816.59, 0.0525100
8831.61, 0.0524420
8846.68, 0.0523740
8861.8, 0.0522380
8876.97, 0.0521020
8892.2, 0.0519660
8907.48, 0.0518300
8922.81, 0.0515580
8938.2, 0.0514220
8953.63, 0.0512180
8969.13, 0.0509450
8984.67, 0.0506730
9000.27, 0.0504010
9015.92, 0.0501970
9031.63, 0.0499930
9047.39, 0.0497890
9063.21, 0.0495850
9079.08, 0.0494490
9095.01, 0.0495170
9111.0, 0.0493130
9127.04, 0.0491090
9143.13, 0.0491090
9159.28, 0.0491770
9175.49, 0.0491090
9191.76, 0.0490410
9208.09, 0.0491770
9224.47, 0.0494490
9240.92, 0.0497210
9257.42, 0.0499930
9273.98, 0.0499930
9290.6, 0.0500610
9307.28, 0.0501290
9324.02, 0.0498570
9340.82, 0.0489730
9357.68, 0.0484290
9374.6, 0.0481570
9391.58, 0.0483610
9408.62, 0.0491090
9425.73, 0.0506730
9442.9, 0.0535300
9460.13, 0.0574750
9477.42, 0.0622360
9494.78, 0.0680860
9512.2, 0.0749560
9529.69, 0.0830500
9547.24, 0.0921640
9564.86, 0.102503
9582.54, 0.113998
9600.28, 0.126649
9618.1, 0.140049
9635.97, 0.154197
9653.92, 0.169297
9671.93, 0.184601
9690.01, 0.200245
9708.16, 0.216909
9726.37, 0.234254
9744.65, 0.251802
9763.0, 0.269555
9781.43, 0.286355
9799.92, 0.301523
9818.48, 0.314379
9837.1, 0.324582
9855.8, 0.332540
9874.58, 0.338049
9893.42, 0.341654
9912.34, 0.344171
9931.33, 0.345667
9950.39, 0.346755
9969.52, 0.347572
9988.74, 0.348388
10008.0, 0.349136
10027.4, 0.350224
10046.8, 0.351381
10066.3, 0.352333
10085.9, 0.353285
10105.6, 0.354237
10125.3, 0.354645
10145.1, 0.354986
10165.0, 0.354986
10185.0, 0.354509
10205.0, 0.353693
10225.2, 0.352605
10245.4, 0.350905
10265.7, 0.348864
10286.0, 0.346959
10306.5, 0.344579
10327.0, 0.341382
10347.6, 0.338321
10368.3, 0.335260
10389.1, 0.332132
10409.9, 0.328459
10430.9, 0.324378
10451.9, 0.319548
10473.0, 0.313631
10494.2, 0.306557
10515.5, 0.298463
10536.9, 0.288940
10558.4, 0.277853
10579.9, 0.264522
10601.5, 0.248606
10623.3, 0.229765
10645.1, 0.208475
10667.0, 0.186233
10689.0, 0.164263
10711.1, 0.143858
10733.2, 0.125357
10755.5, 0.109101
10777.9, 0.0950210
10800.3, 0.0828460
10822.9, 0.0728470
10845.5, 0.0655690
10868.2, 0.0612840
10891.1, 0.0607400
10914.0, 0.0643450
10937.0, 0.0724390
10960.2, 0.0850900
10983.4, 0.102027
11006.7, 0.121548
11030.1, 0.142157
11053.6, 0.162087
11077.3, 0.180179
11101.0, 0.196028
11124.8, 0.209495
11148.7, 0.220582
11172.7, 0.229629
11196.9, 0.236702
11221.1, 0.241804
11245.4, 0.244456
11269.9, 0.244388
11294.4, 0.240988
11319.1, 0.234458
11343.9, 0.224663
11368.8, 0.212556
11393.7, 0.199769
11418.8, 0.189090
11444.0, 0.182968
11469.4, 0.182628
11494.8, 0.188342
11520.3, 0.197524
11546.0, 0.207319
11571.8, 0.216025
11597.7, 0.222283
11623.7, 0.224935
11649.8, 0.223847
11676.0, 0.219834
11702.4, 0.213576
11728.9, 0.205618
11755.5, 0.196912
11782.2, 0.188138
11809.0, 0.179771
11836.0, 0.172153
11863.0, 0.165011
11890.3, 0.158618
11917.6, 0.152836
11945.0, 0.147599
11972.6, 0.143042
12000.4, 0.138893
12028.2, 0.135220
12056.2, 0.131751
12084.3, 0.128486
12112.5, 0.125221
12140.9, 0.122024
12169.4, 0.118827
12198.0, 0.116039
12226.8, 0.113658
12255.7, 0.111209
12284.7, 0.109101
12313.9, 0.107196
12343.2, 0.106040
12372.7, 0.105632
12402.3, 0.105700
12432.0, 0.105428
12461.9, 0.104612
12491.9, 0.103455
12522.1, 0.102231
12552.4, 0.100190
12582.9, 0.0980140
12613.5, 0.0965170
12644.3, 0.0952930
12675.2, 0.0946810
12706.3, 0.0952250
12737.5, 0.0957010
12768.9, 0.0951570
12800.4, 0.0944770
12832.1, 0.0935250
12863.9, 0.0916880
12895.9, 0.0893080
12928.1, 0.0871310
12960.4, 0.0849540
12992.9, 0.0827100
13025.5, 0.0807370
13058.3, 0.0790370
13091.3, 0.0777440
13124.4, 0.0763160
13157.8, 0.0749560
13191.2, 0.0739350
13224.9, 0.0731870
13258.7, 0.0720310
13292.7, 0.0705350
13326.9, 0.0692420
13361.2, 0.0681540
13395.7, 0.0672020
13430.4, 0.0662490
13465.3, 0.0653650
13500.4, 0.0643450
13535.7, 0.0632570
13571.1, 0.0623720
13606.7, 0.0615560
13642.5, 0.0608760
13678.5, 0.0601960
13714.7, 0.0594480
13751.1, 0.0586310
13787.6, 0.0577470
13824.4, 0.0569310
13861.4, 0.0562510
13898.5, 0.0552990
13935.9, 0.0544140
13973.5, 0.0538700
14011.2, 0.0530540
14049.2, 0.0519660
14087.4, 0.0506050
14125.8, 0.0495850
14164.3, 0.0488370
14203.2, 0.0480890
14242.2, 0.0472040
14281.4, 0.0463880
14320.9, 0.0455040
14360.5, 0.0451640
14400.4, 0.0449600
14440.5, 0.0445520
14480.9, 0.0435310
14521.4, 0.0423070
14562.2, 0.0416270
14603.3, 0.0408790
14644.5, 0.0398590
14686.0, 0.0383620
14727.7, 0.0371380
14769.7, 0.0360500
14811.9, 0.0353010
14854.3, 0.0338730
14897.0, 0.0324450
14939.9, 0.0313560
14983.1, 0.0302000
15026.5, 0.0288400
15070.2, 0.0278190
15114.2, 0.0267990
15158.3, 0.0253030
15202.8, 0.0238740
15247.5, 0.0227180
15292.5, 0.0214260
15337.7, 0.0203370
15383.2, 0.0188410
15429.0, 0.0172090
15475.1, 0.0160520
15521.4, 0.0147600
15568.0, 0.0139440
15614.9, 0.0138760
15662.1, 0.0147600
15709.6, 0.0165960
15757.3, 0.0192490
15805.4, 0.0223780
15853.7, 0.0250990
15902.3, 0.0261870
15951.2, 0.0257110
16000.5, 0.0244860
16050.0, 0.0225820
16099.8, 0.0199970
16150.0, 0.0176850
16200.5, 0.0155080
16251.3, 0.0137400
16302.4, 0.0124470
16353.8, 0.0112230
16405.5, 0.0105430
16457.6, 0.0102030
16510.0, 0.0108830
16562.8, 0.0123790
16615.9, 0.0151680
16669.3, 0.0204730
16723.1, 0.0285000
16777.2, 0.0390420
16831.7, 0.0533260
16886.5, 0.0709430
16941.7, 0.0906000
16997.2, 0.111345
17053.1, 0.131683
17109.4, 0.150524
17166.1, 0.167324
17223.1, 0.181812
17280.5, 0.193239
17338.3, 0.202081
17396.5, 0.209971
17455.1, 0.217045
17514.0, 0.222215
17573.4, 0.224051
17633.2, 0.223371
17693.4, 0.220378
17754.0, 0.213644
17815.0, 0.204054
17876.4, 0.192151
17938.3, 0.176098
18000.5, 0.157121
18063.3, 0.137260
18126.4, 0.118011
18190.0, 0.100803
18254.1, 0.0860430
18318.6, 0.0740720
18383.5, 0.0645490
18449.0, 0.0579510
18514.9, 0.0552990
18581.2, 0.0574750
18648.0, 0.0654330
18715.4, 0.0805330
18783.2, 0.103523
18851.5, 0.131683
18920.3, 0.159638
18989.6, 0.183240
19059.4, 0.201809
19129.7, 0.216365
19200.6, 0.226160
19272.0, 0.231397
19343.9, 0.238947
19416.3, 0.252415
19489.3, 0.269827
19562.8, 0.288328
19637.0, 0.306897
19711.6, 0.324990
19786.8, 0.339001
19862.6, 0.349612
19939.0, 0.357298
20016.0, 0.362808
20093.6, 0.367025
20171.8, 0.370698
20250.6, 0.371854
20330.0, 0.373010
20410.0, 0.373759
20490.7, 0.372942
20572.0, 0.371446
20654.0, 0.369950
20736.6, 0.369814
20819.9, 0.368861
20903.8, 0.367773
20988.5, 0.365596
21073.8, 0.361991
21159.8, 0.354850
21246.5, 0.343559
21334.0, 0.328391
21422.1, 0.307577
21511.0, 0.285539
21600.7, 0.271868
21691.0, 0.272412
21782.1, 0.284519
21874.0, 0.303360
21966.7, 0.322541
22060.2, 0.334988
22154.5, 0.342538
22249.6, 0.346687
22345.5, 0.344307
22442.2, 0.339001
22539.8, 0.330907
22638.2, 0.319888
22737.5, 0.304448
22837.7, 0.285811
22938.7, 0.268399
23040.7, 0.252619
23143.5, 0.238471
23247.3, 0.226024
23352.1, 0.212624
23457.7, 0.198748
23564.4, 0.189294
23672.0, 0.183376
23780.5, 0.175418
23890.1, 0.166168
24000.7, 0.160318
24112.3, 0.155013
24225.0, 0.152292
24338.7, 0.146783
24453.5, 0.141273
24569.4, 0.142362
24686.4, 0.137464
24804.5, 0.135832
