Database of Origin, USGS Spectral Database
Sample Description, See USGS database for additional info
Date Added,2016-08-03 21:31:03.175419

Data ID,USGS_dol03          
Sample ID, dolomite_hs102.7128
Mineral Name, dolomite
Material Class,Carbonate

Wavelength
1553.07, 0.509475
1553.54, 0.509895
1554.0, 0.509965
1554.47, 0.510106
1554.93, 0.510386
1555.4, 0.510806
1555.87, 0.510946
1556.34, 0.511016
1556.8, 0.510876
1557.27, 0.511016
1557.74, 0.511367
1558.21, 0.511647
1558.68, 0.511927
1559.14, 0.512137
1559.61, 0.512487
1560.08, 0.512487
1560.55, 0.512277
1561.02, 0.512487
1561.49, 0.513048
1561.96, 0.513188
1562.43, 0.512978
1562.9, 0.513118
1563.38, 0.513328
1563.85, 0.513468
1564.32, 0.513678
1564.79, 0.514028
1565.26, 0.514239
1565.74, 0.514519
1566.21, 0.514659
1566.68, 0.514729
1567.16, 0.515079
1567.63, 0.515009
1568.1, 0.514659
1568.58, 0.515079
1569.05, 0.515570
1569.53, 0.515429
1570.0, 0.515289
1570.48, 0.515710
1570.96, 0.515990
1571.43, 0.516200
1571.91, 0.516200
1572.39, 0.516620
1572.86, 0.516690
1573.34, 0.516760
1573.82, 0.516971
1574.3, 0.517181
1574.77, 0.517391
1575.25, 0.517601
1575.73, 0.517741
1576.21, 0.517461
1576.69, 0.517601
1577.17, 0.518021
1577.65, 0.518021
1578.13, 0.518161
1578.61, 0.518372
1579.09, 0.518582
1579.57, 0.518722
1580.05, 0.518932
1580.54, 0.518932
1581.02, 0.519072
1581.5, 0.519282
1581.98, 0.519352
1582.47, 0.519843
1582.95, 0.520473
1583.43, 0.520403
1583.92, 0.520473
1584.4, 0.519913
1584.88, 0.519913
1585.37, 0.520333
1585.85, 0.520753
1586.34, 0.520753
1586.82, 0.520753
1587.31, 0.521033
1587.8, 0.521244
1588.28, 0.521314
1588.77, 0.521664
1589.26, 0.522084
1589.74, 0.522084
1590.23, 0.521874
1590.72, 0.522084
1591.21, 0.522014
1591.7, 0.522014
1592.19, 0.522505
1592.67, 0.523135
1593.16, 0.522995
1593.65, 0.522785
1594.14, 0.522785
1594.63, 0.523275
1595.12, 0.523695
1595.61, 0.523275
1596.11, 0.523415
1596.6, 0.523485
1597.09, 0.523415
1597.58, 0.523976
1598.08, 0.524256
1598.57, 0.524466
1599.06, 0.524676
1599.55, 0.524676
1600.05, 0.525166
1600.54, 0.525447
1601.04, 0.525377
1601.53, 0.525587
1602.03, 0.525517
1602.52, 0.525377
1603.02, 0.525587
1603.51, 0.525587
1604.01, 0.525657
1604.5, 0.526287
1605.0, 0.526708
1605.5, 0.526567
1606.0, 0.526778
1606.49, 0.526778
1606.99, 0.526988
1607.49, 0.527268
1607.99, 0.527478
1608.49, 0.527548
1608.99, 0.527828
1609.49, 0.527758
1609.99, 0.527758
1610.49, 0.528109
1610.99, 0.528249
1611.49, 0.528529
1611.99, 0.528879
1612.49, 0.529089
1612.99, 0.529159
1613.49, 0.529299
1614.0, 0.529369
1614.5, 0.529510
1615.0, 0.529790
1615.51, 0.529650
1616.01, 0.529650
1616.51, 0.530070
1617.02, 0.530280
1617.52, 0.530490
1618.03, 0.530700
1618.53, 0.530770
1619.04, 0.530840
1619.54, 0.530910
1620.05, 0.531261
1620.55, 0.531681
1621.06, 0.531751
1621.57, 0.531751
1622.08, 0.531821
1622.58, 0.531961
1623.09, 0.532101
1623.6, 0.532312
1624.11, 0.532802
1624.62, 0.533012
1625.13, 0.533082
1625.64, 0.533082
1626.15, 0.532942
1626.66, 0.532872
1627.17, 0.533292
1627.68, 0.533713
1628.19, 0.533502
1628.7, 0.533502
1629.21, 0.533923
1629.72, 0.534133
1630.24, 0.534483
1630.75, 0.534693
1631.26, 0.534763
1631.78, 0.535184
1632.29, 0.535114
1632.8, 0.534693
1633.32, 0.534974
1633.83, 0.535324
1634.35, 0.535534
1634.86, 0.535464
1635.38, 0.535394
1635.9, 0.535534
1636.41, 0.535534
1636.93, 0.536164
1637.45, 0.536795
1637.96, 0.536795
1638.48, 0.536444
1639.0, 0.536725
1639.52, 0.537285
1640.04, 0.537285
1640.56, 0.537075
1641.08, 0.537285
1641.59, 0.537425
1642.11, 0.537635
1642.63, 0.537775
1643.16, 0.537775
1643.68, 0.537775
1644.2, 0.538126
1644.72, 0.538266
1645.24, 0.538196
1645.76, 0.538266
1646.29, 0.538616
1646.81, 0.538546
1647.33, 0.538546
1647.86, 0.538756
1648.38, 0.539106
1648.9, 0.539246
1649.43, 0.539387
1649.95, 0.539527
1650.48, 0.539527
1651.0, 0.539387
1651.53, 0.539457
1652.06, 0.539737
1652.58, 0.539737
1653.11, 0.539667
1653.64, 0.539667
1654.17, 0.539947
1654.69, 0.540297
1655.22, 0.540718
1655.75, 0.540718
1656.28, 0.540858
1656.81, 0.540998
1657.34, 0.540858
1657.87, 0.540928
1658.4, 0.540928
1658.93, 0.541208
1659.46, 0.541348
1659.99, 0.541628
1660.52, 0.541768
1661.05, 0.541558
1661.59, 0.541768
1662.12, 0.541978
1662.65, 0.542189
1663.19, 0.542189
1663.72, 0.542329
1664.26, 0.542679
1664.79, 0.542819
1665.32, 0.542749
1665.86, 0.542679
1666.39, 0.542819
1666.93, 0.543169
1667.47, 0.543520
1668.0, 0.543379
1668.54, 0.543520
1669.08, 0.543660
1669.61, 0.543800
1670.15, 0.544010
1670.69, 0.544150
1671.23, 0.544570
1671.77, 0.544710
1672.31, 0.544640
1672.85, 0.544710
1673.39, 0.544780
1673.93, 0.544640
1674.47, 0.544780
1675.01, 0.544991
1675.55, 0.545271
1676.09, 0.545411
1676.64, 0.545551
1677.18, 0.545831
1677.72, 0.546181
1678.26, 0.546181
1678.81, 0.545971
1679.35, 0.546111
1679.89, 0.546252
1680.44, 0.546532
1680.98, 0.546672
1681.53, 0.546812
1682.07, 0.547022
1682.62, 0.547162
1683.17, 0.547232
1683.71, 0.547653
1684.26, 0.547723
1684.81, 0.547442
1685.36, 0.547092
1685.9, 0.547302
1686.45, 0.547512
1687.0, 0.547863
1687.55, 0.547933
1688.1, 0.548213
1688.65, 0.548493
1689.2, 0.548633
1689.75, 0.548493
1690.3, 0.548703
1690.85, 0.549054
1691.41, 0.549054
1691.96, 0.549124
1692.51, 0.549194
1693.06, 0.549124
1693.61, 0.549194
1694.17, 0.549264
1694.72, 0.549474
1695.28, 0.549824
1695.83, 0.550104
1696.39, 0.550174
1696.94, 0.549824
1697.5, 0.549754
1698.05, 0.550104
1698.61, 0.550314
1699.17, 0.550595
1699.72, 0.550735
1700.28, 0.550735
1700.84, 0.550875
1701.4, 0.550875
1701.95, 0.550875
1702.51, 0.551015
1703.07, 0.551435
1703.63, 0.551856
1704.19, 0.551856
1704.75, 0.551505
1705.31, 0.551295
1705.88, 0.551505
1706.44, 0.551715
1707.0, 0.551926
1707.56, 0.551996
1708.12, 0.552276
1708.69, 0.552486
1709.25, 0.552556
1709.81, 0.552626
1710.38, 0.552696
1710.94, 0.552766
1711.51, 0.552766
1712.07, 0.552766
1712.64, 0.552766
1713.2, 0.552976
1713.77, 0.553046
1714.34, 0.553117
1714.9, 0.553327
1715.47, 0.553467
1716.04, 0.553327
1716.61, 0.553257
1717.18, 0.553397
1717.74, 0.553747
1718.31, 0.553887
1718.88, 0.553747
1719.45, 0.553747
1720.02, 0.554027
1720.59, 0.554237
1721.17, 0.554377
1721.74, 0.554167
1722.31, 0.554167
1722.88, 0.554097
1723.45, 0.554167
1724.03, 0.554377
1724.6, 0.554587
1725.18, 0.554728
1725.75, 0.554938
1726.33, 0.555218
1726.9, 0.555078
1727.48, 0.555078
1728.05, 0.555148
1728.63, 0.555148
1729.2, 0.555218
1729.78, 0.555218
1730.36, 0.555078
1730.94, 0.555498
1731.51, 0.555778
1732.09, 0.555708
1732.67, 0.555708
1733.25, 0.555848
1733.83, 0.555708
1734.41, 0.555568
1734.99, 0.555988
1735.57, 0.556269
1736.15, 0.556339
1736.73, 0.556549
1737.32, 0.556759
1737.9, 0.556759
1738.48, 0.557109
1739.07, 0.557109
1739.65, 0.556969
1740.23, 0.556969
1740.82, 0.556899
1741.4, 0.557039
1741.99, 0.557109
1742.57, 0.557179
1743.16, 0.557319
1743.74, 0.557810
1744.33, 0.558020
1744.92, 0.558020
1745.51, 0.558160
1746.09, 0.558020
1746.68, 0.558160
1747.27, 0.558370
1747.86, 0.558580
1748.45, 0.558720
1749.04, 0.558861
1749.63, 0.559001
1750.22, 0.559071
1750.81, 0.559211
1751.4, 0.559281
1751.99, 0.559421
1752.59, 0.559631
1753.18, 0.559841
1753.77, 0.559981
1754.37, 0.560192
1754.96, 0.560402
1755.56, 0.560682
1756.15, 0.560612
1756.74, 0.560332
1757.34, 0.560472
1757.94, 0.560822
1758.53, 0.561452
1759.13, 0.562013
1759.73, 0.562083
1760.32, 0.562013
1760.92, 0.561803
1761.52, 0.561452
1762.12, 0.561522
1762.72, 0.562223
1763.32, 0.562713
1763.92, 0.562853
1764.52, 0.562713
1765.12, 0.562783
1765.72, 0.562783
1766.32, 0.562994
1766.92, 0.562923
1767.53, 0.562853
1768.13, 0.563204
1768.73, 0.563484
1769.34, 0.563064
1769.94, 0.563064
1770.55, 0.563484
1771.15, 0.563554
1771.76, 0.563554
1772.36, 0.563764
1772.97, 0.563694
1773.57, 0.563834
1774.18, 0.564044
1774.79, 0.564044
1775.4, 0.564114
1776.0, 0.564114
1776.61, 0.564465
1777.22, 0.564465
1777.83, 0.564465
1778.44, 0.564465
1779.05, 0.564535
1779.66, 0.564535
1780.27, 0.564605
1780.88, 0.564815
1781.5, 0.564815
1782.11, 0.564955
1782.72, 0.565235
1783.33, 0.565305
1783.95, 0.565515
1784.56, 0.565726
1785.18, 0.565445
1785.79, 0.565445
1786.41, 0.565305
1787.02, 0.565235
1787.64, 0.565375
1788.26, 0.565305
1788.87, 0.565445
1789.49, 0.565585
1790.11, 0.565655
1790.73, 0.565655
1791.35, 0.565726
1791.96, 0.565655
1792.58, 0.565585
1793.21, 0.565866
1793.83, 0.565796
1794.45, 0.565655
1795.07, 0.565726
1795.69, 0.565796
1796.31, 0.566006
1796.93, 0.566146
1797.56, 0.566076
1798.18, 0.566076
1798.8, 0.566076
1799.43, 0.566356
1800.05, 0.566566
1800.68, 0.566426
1801.3, 0.566076
1801.93, 0.566006
1802.56, 0.566216
1803.18, 0.566286
1803.81, 0.566286
1804.44, 0.566286
1805.07, 0.566216
1805.7, 0.566076
1806.33, 0.566146
1806.95, 0.566006
1807.58, 0.565936
1808.22, 0.565866
1808.85, 0.565866
1809.48, 0.565866
1810.11, 0.565866
1810.74, 0.565796
1811.38, 0.565866
1812.01, 0.566006
1812.64, 0.565936
1813.28, 0.565936
1813.91, 0.565866
1814.55, 0.565936
1815.18, 0.566146
1815.82, 0.566286
1816.45, 0.566146
1817.09, 0.566076
1817.73, 0.566076
1818.36, 0.566076
1819.0, 0.566006
1819.64, 0.566076
1820.28, 0.566006
1820.92, 0.566006
1821.56, 0.566146
1822.2, 0.566006
1822.84, 0.565726
1823.48, 0.565585
1824.12, 0.565585
1824.76, 0.565726
1825.41, 0.565936
1826.05, 0.566146
1826.69, 0.566216
1827.34, 0.566216
1827.98, 0.566216
1828.63, 0.566076
1829.27, 0.566006
1829.92, 0.566216
1830.56, 0.566216
1831.21, 0.566216
1831.86, 0.566146
1832.5, 0.566426
1833.15, 0.566356
1833.8, 0.566286
1834.45, 0.566356
1835.1, 0.566566
1835.75, 0.566426
1836.4, 0.566076
1837.05, 0.566076
1837.7, 0.566496
1838.35, 0.566426
1839.01, 0.566356
1839.66, 0.566636
1840.31, 0.566356
1840.96, 0.566076
1841.62, 0.566426
1842.27, 0.566356
1842.93, 0.566146
1843.58, 0.565936
1844.24, 0.565655
1844.9, 0.565515
1845.55, 0.565585
1846.21, 0.565655
1846.87, 0.565655
1847.53, 0.565445
1848.18, 0.565375
1848.84, 0.564955
1849.5, 0.564535
1850.16, 0.564535
1850.82, 0.564815
1851.48, 0.564815
1852.14, 0.564605
1852.81, 0.564535
1853.47, 0.564535
1854.13, 0.564254
1854.8, 0.563834
1855.46, 0.563764
1856.12, 0.563904
1856.79, 0.564044
1857.45, 0.563624
1858.12, 0.563484
1858.79, 0.563344
1859.45, 0.563344
1860.12, 0.563344
1860.79, 0.563204
1861.46, 0.563414
1862.12, 0.563624
1862.79, 0.563764
1863.46, 0.563974
1864.13, 0.563974
1864.8, 0.564254
1865.48, 0.564605
1866.15, 0.564675
1866.82, 0.564885
1867.49, 0.565585
1868.16, 0.566216
1868.84, 0.566706
1869.51, 0.567337
1870.19, 0.567827
1870.86, 0.568527
1871.54, 0.568668
1872.21, 0.568668
1872.89, 0.569088
1873.56, 0.569368
1874.24, 0.569298
1874.92, 0.569648
1875.6, 0.569788
1876.28, 0.570069
1876.96, 0.570559
1877.64, 0.570559
1878.32, 0.570699
1879.0, 0.570909
1879.68, 0.571119
1880.36, 0.571400
1881.04, 0.571259
1881.73, 0.571049
1882.41, 0.571049
1883.09, 0.571259
1883.78, 0.571540
1884.46, 0.571470
1885.15, 0.571259
1885.83, 0.571330
1886.52, 0.571400
1887.21, 0.571330
1887.89, 0.571259
1888.58, 0.571119
1889.27, 0.571189
1889.96, 0.571470
1890.65, 0.571540
1891.34, 0.571259
1892.03, 0.571330
1892.72, 0.571259
1893.41, 0.571049
1894.1, 0.570979
1894.79, 0.570909
1895.49, 0.570699
1896.18, 0.570489
1896.87, 0.570629
1897.57, 0.570699
1898.26, 0.570489
1898.96, 0.570279
1899.65, 0.570209
1900.35, 0.570209
1901.05, 0.570139
1901.74, 0.570209
1902.44, 0.570349
1903.14, 0.570209
1903.84, 0.569929
1904.54, 0.569788
1905.24, 0.569929
1905.94, 0.569999
1906.64, 0.569999
1907.34, 0.569858
1908.04, 0.569508
1908.75, 0.569508
1909.45, 0.569508
1910.15, 0.569648
1910.86, 0.569508
1911.56, 0.569438
1912.27, 0.569438
1912.97, 0.569368
1913.68, 0.569648
1914.39, 0.569648
1915.09, 0.569578
1915.8, 0.569508
1916.51, 0.569438
1917.22, 0.569298
1917.93, 0.569368
1918.64, 0.569508
1919.35, 0.569648
1920.06, 0.569648
1920.77, 0.569508
1921.48, 0.569508
1922.19, 0.569438
1922.91, 0.569438
1923.62, 0.569368
1924.33, 0.569298
1925.05, 0.569228
1925.76, 0.569158
1926.48, 0.569088
1927.19, 0.569298
1927.91, 0.569298
1928.63, 0.569158
1929.35, 0.569018
1930.07, 0.569298
1930.78, 0.569298
1931.5, 0.569298
1932.22, 0.569158
1932.94, 0.568878
1933.66, 0.569018
1934.39, 0.568948
1935.11, 0.568808
1935.83, 0.568878
1936.55, 0.568668
1937.28, 0.568457
1938.0, 0.568598
1938.73, 0.568598
1939.45, 0.568808
1940.18, 0.568878
1940.9, 0.568738
1941.63, 0.568668
1942.36, 0.568808
1943.09, 0.568878
1943.81, 0.568527
1944.54, 0.568457
1945.27, 0.568668
1946.0, 0.568808
1946.73, 0.568738
1947.47, 0.568808
1948.2, 0.568808
1948.93, 0.568668
1949.66, 0.568527
1950.4, 0.568598
1951.13, 0.568668
1951.86, 0.568598
1952.6, 0.568598
1953.34, 0.568738
1954.07, 0.568878
1954.81, 0.568598
1955.55, 0.568387
1956.29, 0.568598
1957.02, 0.568668
1957.76, 0.568527
1958.5, 0.568387
1959.24, 0.568247
1959.98, 0.568247
1960.72, 0.567897
1961.47, 0.567687
1962.21, 0.567617
1962.95, 0.567547
1963.7, 0.567617
1964.44, 0.567477
1965.18, 0.567407
1965.93, 0.567337
1966.67, 0.567127
1967.42, 0.567127
1968.17, 0.566986
1968.92, 0.566776
1969.66, 0.566706
1970.41, 0.566706
1971.16, 0.566356
1971.91, 0.565936
1972.66, 0.565796
1973.41, 0.565585
1974.16, 0.565655
1974.92, 0.565796
1975.67, 0.565655
1976.42, 0.565726
1977.18, 0.565515
1977.93, 0.565165
1978.69, 0.565165
1979.44, 0.565305
1980.2, 0.565235
1980.95, 0.565165
1981.71, 0.565305
1982.47, 0.565585
1983.23, 0.565585
1983.99, 0.565655
1984.74, 0.565796
1985.51, 0.566216
1986.27, 0.566216
1987.03, 0.566426
1987.79, 0.566846
1988.55, 0.567267
1989.32, 0.567337
1990.08, 0.567687
1990.84, 0.568107
1991.61, 0.568457
1992.37, 0.569018
1993.14, 0.569298
1993.9, 0.569648
1994.67, 0.570069
1995.44, 0.570699
1996.21, 0.571119
1996.98, 0.571189
1997.75, 0.571540
1998.52, 0.571610
1999.29, 0.571820
2000.06, 0.572310
2000.83, 0.572450
2001.6, 0.572520
2002.38, 0.572871
2003.15, 0.573151
2003.93, 0.573291
2004.7, 0.573711
2005.48, 0.573711
2006.25, 0.573641
2007.03, 0.573851
2007.81, 0.574202
2008.58, 0.574412
2009.36, 0.574482
2010.14, 0.574692
2010.92, 0.574902
2011.7, 0.575042
2012.48, 0.575462
2013.26, 0.575603
2014.05, 0.575743
2014.83, 0.576093
2015.61, 0.576093
2016.4, 0.576023
2017.18, 0.576093
2017.97, 0.576303
2018.75, 0.576093
2019.54, 0.576163
2020.32, 0.576023
2021.11, 0.575953
2021.9, 0.576233
2022.69, 0.576513
2023.48, 0.576653
2024.27, 0.576863
2025.06, 0.576934
2025.85, 0.576863
2026.64, 0.576863
2027.44, 0.576863
2028.23, 0.577004
2029.02, 0.577144
2029.82, 0.577494
2030.61, 0.577494
2031.41, 0.577354
2032.2, 0.577284
2033.0, 0.577214
2033.8, 0.577424
2034.6, 0.577564
2035.4, 0.577634
2036.2, 0.577844
2037.0, 0.577704
2037.8, 0.577704
2038.6, 0.577914
2039.4, 0.577844
2040.2, 0.577704
2041.01, 0.577704
2041.81, 0.577564
2042.61, 0.577844
2043.42, 0.578054
2044.22, 0.578054
2045.03, 0.577984
2045.84, 0.577914
2046.65, 0.577984
2047.46, 0.577774
2048.26, 0.577704
2049.07, 0.577984
2049.88, 0.578054
2050.69, 0.577914
2051.51, 0.577844
2052.32, 0.577984
2053.13, 0.577984
2053.94, 0.577914
2054.76, 0.577844
2055.57, 0.578299
2056.39, 0.578364
2057.2, 0.577909
2058.02, 0.577519
2058.84, 0.577584
2059.66, 0.577324
2060.48, 0.577454
2061.29, 0.577779
2062.11, 0.577909
2062.94, 0.577584
2063.76, 0.576869
2064.58, 0.576544
2065.4, 0.576869
2066.22, 0.577064
2067.05, 0.577194
2067.87, 0.577194
2068.7, 0.576934
2069.52, 0.576804
2070.35, 0.576804
2071.18, 0.577714
2072.0, 0.577649
2072.83, 0.577389
2073.66, 0.576999
2074.49, 0.577064
2075.32, 0.576804
2076.15, 0.575959
2076.98, 0.575699
2077.82, 0.575634
2078.65, 0.575374
2079.48, 0.575634
2080.32, 0.576349
2081.15, 0.576154
2081.99, 0.575764
2082.83, 0.575634
2083.66, 0.576154
2084.5, 0.576154
2085.34, 0.575179
2086.18, 0.574659
2087.02, 0.574594
2087.86, 0.574659
2088.7, 0.574724
2089.54, 0.574398
2090.39, 0.574789
2091.23, 0.575049
2092.07, 0.574854
2092.92, 0.575179
2093.76, 0.575244
2094.61, 0.574528
2095.45, 0.573813
2096.3, 0.573553
2097.15, 0.573423
2098.0, 0.573748
2098.85, 0.573943
2099.7, 0.573358
2100.55, 0.573228
2101.4, 0.573423
2102.25, 0.572903
2103.1, 0.572513
2103.96, 0.572903
2104.81, 0.572643
2105.67, 0.572253
2106.52, 0.572058
2107.38, 0.571733
2108.24, 0.571343
2109.09, 0.570823
2109.95, 0.570693
2110.81, 0.570368
2111.67, 0.569652
2112.53, 0.569522
2113.39, 0.569197
2114.25, 0.569197
2115.12, 0.569067
2115.98, 0.568417
2116.84, 0.567832
2117.71, 0.567182
2118.58, 0.567182
2119.44, 0.567247
2120.31, 0.567442
2121.18, 0.567117
2122.04, 0.566662
2122.91, 0.566532
2123.78, 0.566467
2124.65, 0.565752
2125.52, 0.564711
2126.4, 0.564061
2127.27, 0.564386
2128.14, 0.564386
2129.02, 0.563476
2129.89, 0.562956
2130.77, 0.562631
2131.64, 0.562501
2132.52, 0.561851
2133.4, 0.561656
2134.27, 0.561916
2135.15, 0.561201
2136.03, 0.560615
2136.91, 0.560811
2137.79, 0.561136
2138.68, 0.560290
2139.56, 0.559705
2140.44, 0.559835
2141.33, 0.559445
2142.21, 0.559640
2143.1, 0.559835
2143.99, 0.559835
2144.87, 0.559575
2145.76, 0.559640
2146.65, 0.559965
2147.54, 0.560225
2148.43, 0.560811
2149.32, 0.560615
2150.21, 0.560746
2151.1, 0.560746
2151.99, 0.560160
2152.89, 0.560615
2153.78, 0.560615
2154.68, 0.560681
2155.57, 0.561136
2156.47, 0.561266
2157.37, 0.561006
2158.27, 0.561266
2159.16, 0.561786
2160.06, 0.561916
2160.96, 0.562111
2161.86, 0.562306
2162.77, 0.561851
2163.67, 0.561656
2164.57, 0.561656
2165.48, 0.561656
2166.38, 0.561786
2167.29, 0.561981
2168.2, 0.561851
2169.1, 0.561786
2170.01, 0.561526
2170.92, 0.561461
2171.83, 0.561656
2172.74, 0.561656
2173.65, 0.561396
2174.56, 0.561396
2175.47, 0.561526
2176.39, 0.561656
2177.3, 0.561786
2178.22, 0.561851
2179.13, 0.561591
2180.05, 0.560876
2180.96, 0.560550
2181.88, 0.559900
2182.8, 0.559900
2183.72, 0.560225
2184.64, 0.559900
2185.56, 0.559705
2186.48, 0.559315
2187.41, 0.558990
2188.33, 0.558405
2189.25, 0.558275
2190.18, 0.558405
2191.1, 0.558275
2192.03, 0.557820
2192.96, 0.556975
2193.89, 0.556520
2194.82, 0.556064
2195.74, 0.555479
2196.68, 0.555089
2197.61, 0.554894
2198.54, 0.554829
2199.47, 0.554309
2200.4, 0.554114
2201.34, 0.553594
2202.28, 0.552684
2203.21, 0.552359
2204.15, 0.552099
2205.08, 0.551188
2206.02, 0.550733
2206.96, 0.550603
2207.9, 0.550018
2208.84, 0.549108
2209.78, 0.548653
2210.73, 0.547873
2211.67, 0.547353
2212.61, 0.546507
2213.56, 0.546117
2214.5, 0.545597
2215.45, 0.545077
2216.4, 0.544882
2217.35, 0.545077
2218.3, 0.543972
2219.24, 0.543192
2220.2, 0.542607
2221.15, 0.542282
2222.1, 0.542412
2223.05, 0.542022
2224.0, 0.540851
2224.96, 0.540006
2225.91, 0.539226
2226.87, 0.538836
2227.83, 0.538251
2228.79, 0.537471
2229.74, 0.536625
2230.7, 0.536430
2231.66, 0.535910
2232.63, 0.534740
2233.59, 0.533765
2234.55, 0.533375
2235.51, 0.532724
2236.48, 0.531619
2237.44, 0.529799
2238.41, 0.528954
2239.38, 0.528304
2240.34, 0.527133
2241.31, 0.525508
2242.28, 0.524273
2243.25, 0.523102
2244.22, 0.521282
2245.19, 0.519527
2246.17, 0.518291
2247.14, 0.516406
2248.12, 0.515041
2249.09, 0.514066
2250.07, 0.512505
2251.04, 0.510165
2252.02, 0.508604
2253.0, 0.507044
2253.98, 0.505029
2254.96, 0.503078
2255.94, 0.501193
2256.92, 0.499307
2257.91, 0.497162
2258.89, 0.495407
2259.88, 0.493976
2260.86, 0.492156
2261.85, 0.490270
2262.83, 0.488385
2263.82, 0.487085
2264.81, 0.485524
2265.8, 0.483834
2266.79, 0.482664
2267.78, 0.481298
2268.78, 0.480453
2269.77, 0.479478
2270.76, 0.478308
2271.76, 0.477463
2272.75, 0.477007
2273.75, 0.476552
2274.75, 0.475447
2275.75, 0.474277
2276.75, 0.474017
2277.75, 0.474212
2278.75, 0.474082
2279.75, 0.473497
2280.75, 0.472912
2281.76, 0.472196
2282.76, 0.471546
2283.77, 0.470766
2284.77, 0.469596
2285.78, 0.468946
2286.79, 0.467906
2287.8, 0.466540
2288.81, 0.465370
2289.82, 0.464135
2290.83, 0.462509
2291.84, 0.461339
2292.86, 0.459909
2293.87, 0.458739
2294.89, 0.457633
2295.91, 0.456723
2296.92, 0.455813
2297.94, 0.454058
2298.96, 0.452562
2299.98, 0.451197
2301.0, 0.450027
2302.02, 0.448661
2303.04, 0.447556
2304.07, 0.446776
2305.09, 0.445801
2306.12, 0.444306
2307.15, 0.443135
2308.17, 0.442355
2309.2, 0.441185
2310.23, 0.440015
2311.26, 0.439104
2312.29, 0.437804
2313.32, 0.436439
2314.35, 0.435919
2315.39, 0.435139
2316.42, 0.434228
2317.46, 0.433188
2318.5, 0.432603
2319.53, 0.431823
2320.57, 0.431238
2321.61, 0.430783
2322.65, 0.430718
2323.69, 0.430978
2324.73, 0.431433
2325.78, 0.432408
2326.82, 0.433708
2327.86, 0.435204
2328.91, 0.437349
2329.96, 0.440080
2331.01, 0.443135
2332.05, 0.446256
2333.1, 0.450027
2334.15, 0.453863
2335.21, 0.457633
2336.26, 0.461794
2337.31, 0.465565
2338.36, 0.469141
2339.42, 0.473627
2340.48, 0.477918
2341.53, 0.482079
2342.59, 0.486435
2343.65, 0.490660
2344.71, 0.494691
2345.77, 0.498917
2346.83, 0.503208
2347.9, 0.507434
2348.96, 0.511660
2350.02, 0.515366
2351.09, 0.518746
2352.16, 0.521672
2353.23, 0.524078
2354.29, 0.526223
2355.36, 0.528174
2356.43, 0.529669
2357.51, 0.530449
2358.58, 0.531489
2359.65, 0.532204
2360.73, 0.532985
2361.8, 0.533635
2362.88, 0.534090
2363.96, 0.534350
2365.03, 0.534675
2366.11, 0.534675
2367.19, 0.534870
2368.27, 0.534610
2369.36, 0.534090
2370.44, 0.533700
2371.53, 0.533700
2372.61, 0.533440
2373.7, 0.532855
2374.78, 0.532399
2375.87, 0.531424
2376.96, 0.530319
2378.05, 0.529214
2379.14, 0.527978
2380.24, 0.527263
2381.33, 0.526548
2382.42, 0.525703
2383.52, 0.525053
2384.61, 0.524728
2385.71, 0.524013
2386.81, 0.523688
2387.91, 0.523688
2389.01, 0.523493
2390.11, 0.522907
2391.22, 0.522062
2392.32, 0.521282
2393.42, 0.520632
2394.53, 0.519722
2395.64, 0.519397
2396.74, 0.518421
2397.85, 0.517381
2398.96, 0.516276
2400.07, 0.515041
2401.18, 0.513740
2402.3, 0.513155
2403.41, 0.512310
2404.52, 0.511530
2405.64, 0.510945
2406.76, 0.510165
2407.88, 0.509449
2408.99, 0.508994
2410.11, 0.508084
2411.23, 0.507434
2412.36, 0.506524
2413.48, 0.505419
2414.6, 0.504118
2415.73, 0.502883
2416.85, 0.501583
2417.98, 0.499632
2419.11, 0.497812
2420.24, 0.496382
2421.37, 0.494041
2422.5, 0.491701
2423.64, 0.489295
2424.77, 0.486890
2425.9, 0.484419
2427.04, 0.481819
2428.18, 0.479218
2429.31, 0.477203
2430.45, 0.475382
2431.59, 0.472977
2432.73, 0.470571
2433.88, 0.468491
2435.02, 0.466280
2436.16, 0.463745
2437.31, 0.461339
2438.45, 0.458934
2439.6, 0.456073
2440.75, 0.453082
2441.9, 0.450417
2443.05, 0.447426
2444.2, 0.443915
2445.35, 0.440860
2446.51, 0.437674
2447.67, 0.434553
2448.82, 0.431368
2449.98, 0.428572
2451.14, 0.425972
2452.3, 0.423566
2453.46, 0.421031
2454.62, 0.419210
2455.78, 0.417585
2456.94, 0.415829
2458.11, 0.414399
2459.28, 0.412839
2460.44, 0.411148
2461.61, 0.410433
2462.78, 0.409913
2463.95, 0.409003
2465.12, 0.408223
2466.3, 0.407378
2467.47, 0.406597
2468.65, 0.405947
2469.82, 0.405557
2471.0, 0.405427
2472.18, 0.405102
2473.36, 0.404517
2474.54, 0.403802
2475.72, 0.403087
2476.9, 0.402111
2478.08, 0.400811
2479.27, 0.399056
2480.46, 0.397365
2481.64, 0.395090
2482.83, 0.392814
2484.02, 0.390409
2485.21, 0.388003
2486.4, 0.384948
2487.6, 0.381827
2488.79, 0.378446
2489.99, 0.375521
2491.18, 0.372530
2492.38, 0.370125
2493.58, 0.367784
2494.78, 0.365314
2495.98, 0.362973
2497.18, 0.361283
2498.39, 0.359462
2499.59, 0.357317
2500.8, 0.355106
2502.01, 0.352896
2503.21, 0.350880
2504.42, 0.348930
2505.63, 0.346915
2506.84, 0.344704
2508.06, 0.342754
2509.27, 0.341323
2510.49, 0.339763
2511.7, 0.338333
2512.92, 0.337162
2514.14, 0.336122
2515.36, 0.335927
2516.58, 0.336252
2517.8, 0.337032
2519.03, 0.338268
2520.25, 0.340153
2521.48, 0.342559
2522.7, 0.345354
2523.93, 0.348215
2525.16, 0.351336
2526.39, 0.354976
2527.62, 0.359007
2528.86, 0.363818
2530.09, 0.368954
2531.33, 0.374676
2532.56, 0.380527
2533.8, 0.386378
2535.04, 0.393009
2536.28, 0.400291
2537.52, 0.406727
2538.76, 0.413814
2540.01, 0.421616
2541.25, 0.429742
2542.5, 0.438584
2543.75, 0.445801
2544.99, 0.451652
2546.24, 0.457828
2547.49, 0.464135
2548.75, 0.469076
2550.0, 0.473887
2551.26, 0.478828
2552.51, 0.482664
2553.77, 0.484354
2555.03, 0.485589
2556.29, 0.487670
2557.55, 0.489360
2558.81, 0.491441
2560.08, 0.495407
2561.34, 0.499242
2562.61, 0.500347
2563.88, 0.500998
2565.14, 0.500022
2566.41, 0.498982
2567.68, 0.501128
2568.96, 0.505289
2570.23, 0.506134
2571.51, 0.505614
2572.78, 0.510230
2574.06, 0.510425
2575.34, 0.509319
2576.62, 0.511465
2577.9, 0.510100
2579.18, 0.509254
2580.47, 0.511855
2581.75, 0.512635
2583.04, 0.516211
2584.32, 0.517186
2585.61, 0.513935
2586.9, 0.515301
2588.2, 0.514911
2589.49, 0.513350
2590.78, 0.511790
2592.08, 0.513155
2593.37, 0.522257
2594.67, 0.531554
2595.97, 0.523623
2597.27, 0.514521
2598.57, 0.511725
2599.88, 0.512505
2601.18, 0.514391
2602.49, 0.515626
2603.79, 0.518161
2605.1, 0.521932
2606.41, 0.519462
2607.72, 0.515821
2609.03, 0.515041
2610.35, 0.514000
2611.66, 0.512700
2612.98, 0.512700
2614.3, 0.512050
2615.62, 0.516211
2616.94, 0.518942
2618.26, 0.514976
2619.58, 0.517121
2620.91, 0.516276
2622.23, 0.510100
2623.56, 0.508604
2624.89, 0.510425
2626.22, 0.514781
2627.55, 0.512310
2628.88, 0.512830
2630.21, 0.517641
2631.55, 0.512895
2632.89, 0.509775
2634.22, 0.509515
2635.56, 0.507109
2636.9, 0.506329
2638.25, 0.505809
2639.59, 0.505614
2640.93, 0.505679
2642.28, 0.505809
2643.63, 0.505224
2644.98, 0.506524
2646.33, 0.505484
2647.68, 0.503403
2649.03, 0.502493
2650.39, 0.503078
2651.74, 0.505354
2653.1, 0.504898
2654.46, 0.502948
2655.82, 0.501778
2657.18, 0.498657
2658.54, 0.499632
2659.9, 0.499762
2661.27, 0.497877
2662.64, 0.496252
2664.01, 0.500608
2665.38, 0.504508
2666.74, 0.502038
2668.12, 0.495667
2669.49, 0.499177
2670.87, 0.498527
2672.24, 0.486760
2673.62, 0.482729
2675.0, 0.483704
2676.38, 0.484874
2677.76, 0.481298
2679.15, 0.477138
2680.54, 0.469986
2681.92, 0.465695
2683.31, 0.463680
2684.7, 0.459974
2686.09, 0.457308
2687.48, 0.454578
2688.88, 0.452237
2690.27, 0.450872
2691.67, 0.451977
2693.07, 0.456203
2694.47, 0.456788
2695.87, 0.453863
2697.27, 0.451067
2698.67, 0.449832
2700.08, 0.451067
2701.49, 0.451197
2702.9, 0.448726
2704.31, 0.446906
2705.72, 0.445151
2707.13, 0.443785
2708.54, 0.444761
2709.96, 0.445411
2711.38, 0.440990
2712.8, 0.432213
2714.22, 0.427402
2715.64, 0.424021
2717.06, 0.421681
2718.49, 0.421031
2719.91, 0.423826
2721.34, 0.418885
2722.77, 0.413229
2724.2, 0.413294
2725.63, 0.407833
2727.07, 0.401266
2728.5, 0.397430
2729.94, 0.394375
2731.38, 0.390929
2732.82, 0.388198
2734.26, 0.387223
2735.7, 0.382282
2737.15, 0.376756
2738.59, 0.376431
2740.04, 0.374350
2741.49, 0.367199
2742.94, 0.358877
2744.39, 0.353026
2745.84, 0.348800
2747.3, 0.344509
2748.76, 0.340218
2750.21, 0.336252
2751.67, 0.332481
2753.14, 0.329426
2754.6, 0.329881
2756.06, 0.325590
2757.53, 0.317203
2759.0, 0.312132
2760.46, 0.309076
2761.94, 0.307776
2763.41, 0.304981
2764.88, 0.300690
2766.36, 0.298414
2767.83, 0.297309
2769.31, 0.297179
2770.79, 0.298544
2772.27, 0.299584
2773.76, 0.301405
2775.24, 0.304916
2776.73, 0.309271
2778.22, 0.312912
2779.71, 0.316553
2781.2, 0.320389
2782.69, 0.323249
2784.18, 0.325850
2785.68, 0.330076
2787.18, 0.333717
2788.68, 0.334627
2790.18, 0.335537
2791.68, 0.337357
2793.19, 0.339698
2794.69, 0.341908
2796.2, 0.343859
2797.71, 0.345614
2799.22, 0.347565
2800.73, 0.350555
2802.24, 0.354326
2803.76, 0.355821
2805.28, 0.355366
2806.8, 0.355756
2808.32, 0.356992
2809.84, 0.357837
2811.36, 0.358357
2812.89, 0.359202
2814.42, 0.360242
2815.94, 0.360503
2817.48, 0.360828
2819.01, 0.361543
2820.54, 0.361543
2822.08, 0.360958
2823.61, 0.360242
2825.15, 0.359852
2826.69, 0.359982
2828.23, 0.359722
2829.78, 0.359007
2831.32, 0.358682
2832.87, 0.358552
2834.42, 0.358227
2835.97, 0.357642
2837.52, 0.357057
2839.08, 0.356277
2840.63, 0.355561
2842.19, 0.354911
2843.75, 0.354131
2845.31, 0.353481
2846.87, 0.352961
2848.44, 0.352571
2850.0, 0.351856
2851.57, 0.351205
2853.14, 0.350945
2854.71, 0.350425
2856.28, 0.349385
2857.86, 0.348735
2859.43, 0.348280
2861.01, 0.347760
2862.59, 0.347110
2864.17, 0.346590
2865.76, 0.346004
2867.34, 0.345224
2868.93, 0.344444
2870.52, 0.344119
2872.11, 0.343599
2873.7, 0.342689
2875.29, 0.341974
2876.89, 0.341323
2878.49, 0.340608
2880.08, 0.340023
2881.69, 0.339373
2883.29, 0.338853
2884.89, 0.338333
2886.5, 0.337683
2888.11, 0.336967
2889.72, 0.336252
2891.33, 0.335667
2892.94, 0.335017
2894.56, 0.334432
2896.17, 0.333847
2897.79, 0.333327
2899.42, 0.333197
2901.04, 0.332937
2902.66, 0.332221
2904.29, 0.331636
2905.92, 0.331051
2907.55, 0.330206
2909.18, 0.329751
2910.81, 0.329296
2912.45, 0.328841
2914.08, 0.328256
2915.72, 0.327475
2917.36, 0.327280
2919.01, 0.327150
2920.65, 0.326760
2922.3, 0.326500
2923.94, 0.326175
2925.59, 0.325590
2927.25, 0.325330
2928.9, 0.324940
2930.56, 0.324420
2932.21, 0.323965
2933.87, 0.323770
2935.53, 0.323640
2937.2, 0.323510
2938.86, 0.323380
2940.53, 0.322989
2942.2, 0.322794
2943.87, 0.322794
2945.54, 0.322664
2947.22, 0.322729
2948.89, 0.322599
2950.57, 0.322664
2952.25, 0.322989
2953.93, 0.323054
2955.62, 0.322664
2957.3, 0.322404
2958.99, 0.321949
2960.68, 0.321624
2962.37, 0.321429
2964.07, 0.321169
2965.76, 0.320714
2967.46, 0.320259
2969.16, 0.319999
2970.86, 0.319479
2972.56, 0.318894
2974.27, 0.318243
2975.98, 0.317658
2977.69, 0.317073
2979.4, 0.316488
2981.11, 0.316163
2982.83, 0.315838
2984.54, 0.315578
2986.26, 0.315513
2987.98, 0.315513
2989.71, 0.315318
2991.43, 0.315513
2993.16, 0.315643
2994.89, 0.315773
2996.62, 0.315773
2998.35, 0.315708
3000.09, 0.315838
3001.83, 0.315903
3003.57, 0.315838
3005.31, 0.315578
3007.05, 0.314993
3008.79, 0.314018
3010.54, 0.312977
3012.29, 0.312002
3014.04, 0.310897
3015.8, 0.309532
3017.55, 0.308296
3019.31, 0.306866
3021.07, 0.305631
3022.83, 0.304265
3024.59, 0.302510
3026.36, 0.300885
3028.13, 0.299324
3029.9, 0.297374
3031.67, 0.295619
3033.44, 0.294188
3035.22, 0.292628
3037.0, 0.291133
3038.78, 0.289832
3040.56, 0.289052
3042.34, 0.288662
3044.13, 0.288532
3045.92, 0.288857
3047.71, 0.288857
3049.5, 0.288467
3051.3, 0.288077
3053.09, 0.287687
3054.89, 0.286972
3056.69, 0.285996
3058.5, 0.284826
3060.3, 0.283526
3062.11, 0.282161
3063.92, 0.280600
3065.73, 0.278650
3067.55, 0.276569
3069.36, 0.274359
3071.18, 0.272084
3073.0, 0.269938
3074.82, 0.268053
3076.65, 0.266687
3078.48, 0.265777
3080.31, 0.265257
3082.14, 0.264997
3083.97, 0.265127
3085.8, 0.265582
3087.64, 0.266427
3089.48, 0.267793
3091.33, 0.269418
3093.17, 0.271303
3095.02, 0.273254
3096.87, 0.275009
3098.72, 0.276374
3100.57, 0.277220
3102.43, 0.277675
3104.28, 0.277935
3106.14, 0.278260
3108.01, 0.278195
3109.87, 0.278195
3111.74, 0.278390
3113.61, 0.278845
3115.48, 0.279300
3117.35, 0.279430
3119.23, 0.279495
3121.1, 0.279625
3122.98, 0.279625
3124.87, 0.279365
3126.75, 0.278845
3128.64, 0.278715
3130.53, 0.278715
3132.42, 0.278910
3134.31, 0.279235
3136.21, 0.279625
3138.11, 0.280275
3140.01, 0.281120
3141.91, 0.282681
3143.82, 0.284696
3145.73, 0.287622
3147.64, 0.291198
3149.55, 0.295033
3151.46, 0.298869
3153.38, 0.301860
3155.3, 0.304005
3157.22, 0.305436
3159.14, 0.306541
3161.07, 0.306996
3163.0, 0.307126
3164.93, 0.307191
3166.86, 0.307191
3168.8, 0.306996
3170.74, 0.306541
3172.68, 0.305826
3174.62, 0.305436
3176.56, 0.304851
3178.51, 0.304005
3180.46, 0.303160
3182.42, 0.302510
3184.37, 0.301795
3186.33, 0.300625
3188.29, 0.299649
3190.25, 0.298869
3192.21, 0.298089
3194.18, 0.297049
3196.15, 0.296074
3198.12, 0.294968
3200.09, 0.294058
3202.07, 0.293148
3204.05, 0.291848
3206.03, 0.290612
3208.02, 0.289377
3210.0, 0.287882
3211.99, 0.286257
3213.98, 0.284371
3215.98, 0.282486
3217.97, 0.280405
3219.97, 0.278455
3221.97, 0.276569
3223.98, 0.274619
3225.98, 0.272474
3227.99, 0.270133
3230.0, 0.267598
3232.02, 0.265127
3234.03, 0.262722
3236.05, 0.260121
3238.07, 0.257130
3240.1, 0.254270
3242.12, 0.251344
3244.15, 0.248223
3246.18, 0.244908
3248.22, 0.241527
3250.25, 0.238081
3252.29, 0.234375
3254.33, 0.230605
3256.38, 0.226769
3258.43, 0.222803
3260.47, 0.218837
3262.53, 0.214611
3264.58, 0.210060
3266.64, 0.205249
3268.7, 0.200308
3270.76, 0.195172
3272.82, 0.189776
3274.89, 0.183990
3276.96, 0.177553
3279.04, 0.170532
3281.11, 0.162795
3283.19, 0.154083
3285.27, 0.144136
3287.35, 0.132564
3289.44, 0.119171
3291.53, 0.103957
3293.62, 0.0876390
3295.71, 0.0724910
3297.81, 0.0609830
3299.91, 0.0537020
3302.01, 0.0494760
3304.11, 0.0473300
3306.22, 0.0462250
3308.33, 0.0456400
3310.44, 0.0458350
3312.56, 0.0466800
3314.68, 0.0477200
3316.8, 0.0488250
3318.92, 0.0498010
3321.05, 0.0507110
3323.18, 0.0512960
3325.31, 0.0517510
3327.44, 0.0521410
3329.58, 0.0522710
3331.72, 0.0521410
3333.86, 0.0518810
3336.01, 0.0515560
3338.16, 0.0513610
3340.31, 0.0514260
3342.46, 0.0516210
3344.61, 0.0520760
3346.77, 0.0527910
3348.94, 0.0535070
3351.1, 0.0542870
3353.27, 0.0552620
3355.44, 0.0562370
3357.61, 0.0574070
3359.79, 0.0589680
3361.97, 0.0607880
3364.15, 0.0626080
3366.33, 0.0642340
3368.52, 0.0659890
3370.71, 0.0676800
3372.9, 0.0686550
3375.1, 0.0689150
3377.3, 0.0679400
3379.5, 0.0659240
3381.71, 0.0637140
3383.91, 0.0619580
3386.12, 0.0605280
3388.34, 0.0598130
3390.55, 0.0590980
3392.77, 0.0584480
3394.99, 0.0579270
3397.22, 0.0573420
3399.45, 0.0567570
3401.68, 0.0561720
3403.91, 0.0555870
3406.15, 0.0551320
3408.39, 0.0547420
3410.63, 0.0542870
3412.87, 0.0538970
3415.12, 0.0534410
3417.37, 0.0529860
3419.63, 0.0524010
3421.88, 0.0514910
3424.14, 0.0507760
3426.41, 0.0497360
3428.67, 0.0483700
3430.94, 0.0468100
3433.21, 0.0451200
3435.49, 0.0436890
3437.77, 0.0421940
3440.05, 0.0407640
3442.33, 0.0399190
3444.62, 0.0394630
3446.91, 0.0392680
3449.2, 0.0390730
3451.5, 0.0389430
3453.8, 0.0392030
3456.1, 0.0395280
3458.41, 0.0397240
3460.72, 0.0400490
3463.03, 0.0405040
3465.34, 0.0409590
3467.66, 0.0413490
3469.98, 0.0419340
3472.31, 0.0425840
3474.63, 0.0432990
3476.96, 0.0441440
3479.3, 0.0450550
3481.64, 0.0459650
3483.97, 0.0470700
3486.32, 0.0486950
3488.66, 0.0504510
3491.01, 0.0529860
3493.36, 0.0568220
3495.72, 0.0616330
3498.08, 0.0674190
3500.44, 0.0745710
3502.81, 0.0828930
3505.18, 0.0923850
3507.55, 0.102852
3509.92, 0.114165
3512.3, 0.126192
3514.68, 0.138675
3517.06, 0.151092
3519.45, 0.163120
3521.84, 0.174628
3524.24, 0.185160
3526.64, 0.194717
3529.04, 0.203364
3531.44, 0.210775
3533.85, 0.216432
3536.26, 0.220137
3538.67, 0.220852
3541.09, 0.218187
3543.51, 0.213116
3545.93, 0.208045
3548.36, 0.207200
3550.79, 0.213311
3553.22, 0.224753
3555.66, 0.237951
3558.1, 0.250434
3560.54, 0.261096
3562.99, 0.269548
3565.44, 0.276114
3567.9, 0.281315
3570.35, 0.285606
3572.81, 0.289312
3575.28, 0.292498
3577.75, 0.294968
3580.22, 0.296984
3582.69, 0.298804
3585.17, 0.300300
3587.65, 0.301535
3590.14, 0.302640
3592.62, 0.303420
3595.11, 0.303940
3597.61, 0.304655
3600.11, 0.305306
3602.61, 0.305826
3605.11, 0.306346
3607.62, 0.306801
3610.14, 0.307191
3612.65, 0.307386
3615.17, 0.307711
3617.69, 0.308036
3620.22, 0.308361
3622.75, 0.308556
3625.28, 0.308621
3627.82, 0.308621
3630.36, 0.308621
3632.9, 0.308426
3635.45, 0.308036
3638.0, 0.307646
3640.56, 0.307256
3643.12, 0.306671
3645.68, 0.306021
3648.24, 0.305241
3650.81, 0.304460
3653.39, 0.303485
3655.96, 0.302445
3658.54, 0.301210
3661.13, 0.299975
3663.71, 0.298609
3666.3, 0.297244
3668.9, 0.295619
3671.5, 0.294058
3674.1, 0.292108
3676.7, 0.289962
3679.31, 0.287752
3681.93, 0.285281
3684.54, 0.282291
3687.17, 0.278975
3689.79, 0.275269
3692.42, 0.271173
3695.05, 0.266882
3697.69, 0.262722
3700.32, 0.258691
3702.97, 0.254920
3705.61, 0.251214
3708.27, 0.247378
3710.92, 0.243542
3713.58, 0.240032
3716.24, 0.236456
3718.91, 0.232815
3721.58, 0.229044
3724.25, 0.225013
3726.93, 0.220397
3729.61, 0.215001
3732.29, 0.208565
3734.98, 0.201023
3737.67, 0.192181
3740.37, 0.181324
3743.07, 0.168841
3745.78, 0.155253
3748.49, 0.141470
3751.2, 0.128468
3753.91, 0.116635
3756.63, 0.106233
3759.36, 0.0973260
3762.09, 0.0897840
3764.82, 0.0832180
3767.55, 0.0773670
3770.29, 0.0724260
3773.04, 0.0680050
3775.78, 0.0638440
3778.54, 0.0601380
3781.29, 0.0567570
3784.05, 0.0536370
3786.82, 0.0508410
3789.59, 0.0483050
3792.36, 0.0462250
3795.13, 0.0444700
3797.92, 0.0429090
3800.7, 0.0417390
3803.49, 0.0410890
3806.28, 0.0410240
3809.08, 0.0418040
3811.88, 0.0433640
3814.68, 0.0452500
3817.49, 0.0473950
3820.31, 0.0500610
3823.12, 0.0527260
3825.94, 0.0553920
3828.77, 0.0579270
3831.6, 0.0602030
3834.43, 0.0620880
3837.27, 0.0633240
3840.11, 0.0634540
3842.96, 0.0620880
3845.81, 0.0592280
3848.67, 0.0550670
3851.53, 0.0508410
3854.39, 0.0471350
3857.26, 0.0442100
3860.13, 0.0422590
3863.01, 0.0411540
3865.89, 0.0404390
3868.77, 0.0397240
3871.66, 0.0391380
3874.55, 0.0386830
3877.45, 0.0382280
3880.35, 0.0379030
3883.26, 0.0377730
3886.17, 0.0377080
3889.09, 0.0375780
3892.01, 0.0373180
3894.93, 0.0367980
3897.86, 0.0360180
3900.79, 0.0350430
3903.73, 0.0340020
3906.67, 0.0330920
3909.62, 0.0322470
3912.57, 0.0315970
3915.52, 0.0310770
3918.48, 0.0307520
3921.45, 0.0305570
3924.42, 0.0304270
3927.39, 0.0302310
3930.37, 0.0301010
3933.35, 0.0300360
3936.34, 0.0299710
3939.33, 0.0298410
3942.32, 0.0296460
3945.32, 0.0296460
3948.33, 0.0296460
3951.34, 0.0295160
3954.35, 0.0294510
3957.37, 0.0295160
3960.39, 0.0297760
3963.42, 0.0301010
3966.45, 0.0304920
3969.49, 0.0309470
3972.53, 0.0317920
3975.58, 0.0332870
3978.63, 0.0351080
3981.68, 0.0371880
3984.75, 0.0393330
3987.81, 0.0414790
3990.88, 0.0437540
3993.95, 0.0464200
3997.03, 0.0493460
4000.12, 0.0526610
4003.21, 0.0566920
4006.3, 0.0615030
4009.4, 0.0669640
4012.5, 0.0730110
4015.61, 0.0794470
4018.72, 0.0860130
4021.84, 0.0926450
4024.96, 0.0992760
4028.09, 0.105973
4031.22, 0.112864
4034.36, 0.119821
4037.5, 0.126907
4040.65, 0.133929
4043.8, 0.140755
4046.96, 0.147387
4050.12, 0.153823
4053.29, 0.160064
4056.46, 0.166046
4059.64, 0.171832
4062.82, 0.177423
4066.0, 0.182819
4069.19, 0.188085
4072.39, 0.193222
4075.59, 0.198358
4078.8, 0.203364
4082.01, 0.207980
4085.23, 0.212336
4088.45, 0.216432
4091.68, 0.220072
4094.91, 0.223388
4098.15, 0.226314
4101.39, 0.228914
4104.63, 0.231255
4107.89, 0.233400
4111.14, 0.235286
4114.41, 0.236976
4117.67, 0.238471
4120.95, 0.240162
4124.23, 0.241852
4127.51, 0.242892
4130.8, 0.243347
4134.09, 0.243607
4137.39, 0.243867
4140.7, 0.244192
4144.01, 0.244192
4147.32, 0.244192
4150.64, 0.245623
4153.97, 0.249134
4157.3, 0.253620
4160.64, 0.257910
4163.98, 0.261551
4167.33, 0.264672
4170.68, 0.267533
4174.04, 0.270133
4177.4, 0.272539
4180.77, 0.274749
4184.14, 0.276764
4187.52, 0.278585
4190.91, 0.280145
4194.3, 0.281055
4197.69, 0.280925
4201.1, 0.279495
4204.5, 0.277350
4207.92, 0.275139
4211.34, 0.273189
4214.76, 0.272669
4218.19, 0.273254
4221.62, 0.274424
4225.06, 0.275529
4228.51, 0.276244
4231.96, 0.276179
4235.42, 0.275334
4238.88, 0.274034
4242.35, 0.272994
4245.83, 0.272344
4249.31, 0.271563
4252.79, 0.269743
4256.28, 0.267598
4259.78, 0.266362
4263.29, 0.264932
4266.79, 0.262266
4270.31, 0.259276
4273.83, 0.256415
4277.35, 0.253880
4280.89, 0.252449
4284.42, 0.252969
4287.97, 0.254400
4291.52, 0.255440
4295.07, 0.255765
4298.63, 0.255505
4302.2, 0.254985
4305.78, 0.254725
4309.35, 0.255245
4312.94, 0.256870
4316.53, 0.259211
4320.13, 0.261811
4323.73, 0.264412
4327.34, 0.267207
4330.96, 0.270523
4334.58, 0.274749
4338.21, 0.280860
4341.84, 0.289182
4345.48, 0.299194
4349.12, 0.308231
4352.77, 0.313627
4356.43, 0.315058
4360.1, 0.313822
4363.76, 0.311027
4367.44, 0.307516
4371.12, 0.303875
4374.81, 0.300039
4378.51, 0.296204
4382.21, 0.292173
4385.92, 0.287882
4389.63, 0.283136
4393.35, 0.278195
4397.08, 0.272994
4400.81, 0.267728
4404.55, 0.262201
4408.29, 0.256350
4412.04, 0.250694
4415.8, 0.245428
4419.57, 0.240292
4423.34, 0.235546
4427.12, 0.231580
4430.9, 0.228589
4434.69, 0.226834
4438.49, 0.226379
4442.29, 0.227159
4446.1, 0.229434
4449.92, 0.233270
4453.74, 0.238471
4457.57, 0.244713
4461.41, 0.251539
4465.25, 0.257910
4469.1, 0.263892
4472.95, 0.269028
4476.82, 0.272929
4480.69, 0.275399
4484.56, 0.276309
4488.44, 0.275464
4492.33, 0.272799
4496.23, 0.268248
4500.13, 0.261941
4504.04, 0.254270
4507.96, 0.246403
4511.88, 0.239576
4515.81, 0.234245
4519.75, 0.230019
4523.69, 0.226639
4527.65, 0.223648
4531.6, 0.220917
4535.57, 0.218252
4539.54, 0.215521
4543.52, 0.212401
4547.5, 0.208760
4551.5, 0.204794
4555.5, 0.200698
4559.5, 0.196342
4563.52, 0.191921
4567.54, 0.187435
4571.56, 0.182559
4575.6, 0.177033
4579.64, 0.171182
4583.69, 0.165070
4587.75, 0.159154
4591.81, 0.153173
4595.88, 0.147517
4599.96, 0.142576
4604.04, 0.138545
4608.14, 0.135619
4612.24, 0.133994
4616.34, 0.133474
4620.46, 0.133669
4624.58, 0.134319
4628.71, 0.135229
4632.84, 0.136204
4636.99, 0.137440
4641.14, 0.139065
4645.3, 0.141535
4649.47, 0.145176
4653.64, 0.150247
4657.82, 0.157269
4662.01, 0.166371
4666.21, 0.177683
4670.41, 0.190751
4674.62, 0.204339
4678.84, 0.217342
4683.07, 0.229239
4687.3, 0.239772
4691.54, 0.248809
4695.79, 0.256545
4700.05, 0.263177
4704.31, 0.268963
4708.59, 0.274294
4712.87, 0.279105
4717.15, 0.283526
4721.45, 0.287427
4725.76, 0.290808
4730.07, 0.293798
4734.39, 0.296269
4738.72, 0.298349
4743.05, 0.299975
4747.39, 0.301405
4751.75, 0.302575
4756.1, 0.303485
4760.47, 0.304330
4764.85, 0.305111
4769.23, 0.305696
4773.62, 0.306216
4778.02, 0.306606
4782.43, 0.307191
4786.85, 0.307581
4791.27, 0.307906
4795.7, 0.308231
4800.14, 0.308686
4804.59, 0.309141
4809.05, 0.309467
4813.51, 0.309597
4817.99, 0.309857
4822.47, 0.309987
4826.96, 0.310052
4831.46, 0.310117
4835.96, 0.310247
4840.48, 0.310377
4845.0, 0.310442
4849.54, 0.310312
4854.08, 0.310247
4858.63, 0.310117
4863.18, 0.310052
4867.75, 0.309727
4872.33, 0.309402
4876.91, 0.309011
4881.5, 0.308556
4886.1, 0.308101
4890.71, 0.307581
4895.33, 0.307061
4899.96, 0.306606
4904.59, 0.305891
4909.24, 0.305176
4913.89, 0.304395
4918.55, 0.303680
4923.22, 0.302770
4927.9, 0.301990
4932.59, 0.301275
4937.29, 0.300495
4942.0, 0.299454
4946.71, 0.298609
4951.44, 0.297829
4956.17, 0.297114
4960.91, 0.296139
4965.67, 0.294968
4970.43, 0.293733
4975.2, 0.292758
4979.98, 0.291718
4984.76, 0.290417
4989.56, 0.289182
4994.37, 0.287882
4999.18, 0.286387
5004.01, 0.284631
5008.84, 0.282551
5013.69, 0.280340
5018.54, 0.277740
5023.4, 0.273709
5028.28, 0.268443
5033.16, 0.261811
5038.05, 0.253034
5042.95, 0.241527
5047.86, 0.226899
5052.78, 0.210125
5057.71, 0.194977
5062.65, 0.188085
5067.6, 0.193742
5072.56, 0.208240
5077.53, 0.223323
5082.5, 0.233790
5087.49, 0.239121
5092.49, 0.241072
5097.5, 0.241397
5102.51, 0.241007
5107.54, 0.240292
5112.58, 0.239056
5117.62, 0.237301
5122.68, 0.235351
5127.75, 0.233400
5132.82, 0.231450
5137.91, 0.229434
5143.01, 0.227484
5148.12, 0.224948
5153.23, 0.221438
5158.36, 0.218057
5163.5, 0.214546
5168.65, 0.210775
5173.81, 0.206939
5178.98, 0.202974
5184.15, 0.199203
5189.34, 0.195627
5194.54, 0.192376
5199.75, 0.189061
5204.98, 0.185290
5210.21, 0.182104
5215.45, 0.178463
5220.7, 0.173717
5225.96, 0.169166
5231.23, 0.164680
5236.52, 0.160259
5241.81, 0.155383
5247.12, 0.150377
5252.44, 0.145436
5257.76, 0.140755
5263.1, 0.136009
5268.45, 0.131328
5273.81, 0.126907
5279.18, 0.122616
5284.56, 0.118520
5289.95, 0.115075
5295.36, 0.111629
5300.77, 0.108443
5306.2, 0.105843
5311.63, 0.103567
5317.08, 0.101422
5322.54, 0.0995360
5328.01, 0.0976510
5333.49, 0.0957010
5338.98, 0.0934250
5344.49, 0.0910850
5350.0, 0.0886140
5355.53, 0.0849730
5361.07, 0.0810070
5366.62, 0.0771720
5372.18, 0.0735960
5377.75, 0.0698250
5383.34, 0.0660540
5388.93, 0.0621530
5394.54, 0.0579920
5400.16, 0.0535720
5405.79, 0.0490210
5411.44, 0.0444700
5417.09, 0.0402440
5422.76, 0.0359530
5428.43, 0.0314020
5434.12, 0.0273060
5439.83, 0.0239250
5445.54, 0.0210000
5451.26, 0.0183990
5457.0, 0.0162530
5462.75, 0.0147580
5468.52, 0.0134580
5474.29, 0.0128080
5480.08, 0.0124830
5485.88, 0.0123530
5491.69, 0.0124180
5497.51, 0.0124830
5503.35, 0.0125480
5509.2, 0.0126780
5515.06, 0.0128080
5520.93, 0.0130680
5526.82, 0.0133280
5532.71, 0.0136530
5538.63, 0.0139130
5544.55, 0.0142380
5550.49, 0.0144330
5556.44, 0.0145630
5562.4, 0.0146930
5568.37, 0.0148880
5574.36, 0.0151480
5580.36, 0.0155380
5586.37, 0.0157330
5592.4, 0.0158630
5598.44, 0.0159930
5604.49, 0.0161880
5610.56, 0.0163190
5616.63, 0.0163190
5622.73, 0.0164490
5628.83, 0.0166440
5634.95, 0.0168390
5641.08, 0.0170340
5647.23, 0.0170340
5653.39, 0.0170990
5659.56, 0.0170340
5665.74, 0.0170340
5671.94, 0.0171640
5678.15, 0.0171640
5684.38, 0.0170340
5690.62, 0.0169040
5696.87, 0.0167740
5703.14, 0.0166440
5709.42, 0.0165140
5715.72, 0.0161230
5722.03, 0.0156030
5728.35, 0.0152780
5734.69, 0.0148880
5741.03, 0.0146280
5747.4, 0.0144330
5753.78, 0.0142380
5760.17, 0.0141730
5766.58, 0.0142380
5773.0, 0.0138480
5779.44, 0.0133930
5785.88, 0.0130680
5792.35, 0.0128730
5798.83, 0.0126780
5805.32, 0.0123530
5811.83, 0.0122230
5818.35, 0.0123530
5824.89, 0.0122880
5831.45, 0.0120930
5838.01, 0.0117680
5844.59, 0.0115070
5851.19, 0.0111170
5857.8, 0.0108570
5864.43, 0.0106620
5871.07, 0.0104670
5877.73, 0.0103370
5884.4, 0.0101420
5891.09, 0.00981700
5897.79, 0.00962200
5904.5, 0.00916700
5911.23, 0.00890700
5917.98, 0.00864700
5924.75, 0.00838700
5931.53, 0.00825700
5938.32, 0.00812700
5945.13, 0.00767200
5951.96, 0.00734700
5958.8, 0.00715200
5965.65, 0.00708700
5972.53, 0.00689100
5979.42, 0.00676100
5986.32, 0.00663100
5993.24, 0.00643600
6000.18, 0.00617600
6007.13, 0.00617600
6014.1, 0.00617600
6021.08, 0.00617600
6028.09, 0.00598100
6035.1, 0.00624100
6042.14, 0.00656600
6049.19, 0.00689100
6056.25, 0.00689100
6063.34, 0.00702200
6070.44, 0.00728200
6077.55, 0.00767200
6084.69, 0.00806200
6091.84, 0.00884200
6099.0, 0.00981700
6106.19, 0.0111170
6113.39, 0.0126130
6120.61, 0.0141730
6127.84, 0.0158630
6135.09, 0.0181390
6142.36, 0.0208040
6149.65, 0.0239900
6156.95, 0.0273710
6164.27, 0.0308170
6171.61, 0.0344570
6178.97, 0.0390730
6186.34, 0.0438190
6193.73, 0.0478500
6201.14, 0.0519460
6208.57, 0.0564970
6216.01, 0.0611130
6223.47, 0.0663790
6230.95, 0.0721000
6238.45, 0.0789270
6245.97, 0.0862090
6253.5, 0.0942700
6261.06, 0.102852
6268.63, 0.112799
6276.21, 0.124437
6283.82, 0.138220
6291.45, 0.153108
6299.1, 0.169296
6306.76, 0.186200
6314.44, 0.204209
6322.14, 0.223388
6329.86, 0.244518
6337.6, 0.270458
6345.35, 0.301015
6353.13, 0.327150
6360.92, 0.353286
6368.74, 0.375456
6376.57, 0.384103
6384.43, 0.386378
6392.3, 0.387938
6400.19, 0.390149
6408.1, 0.400486
6416.03, 0.403412
6423.98, 0.391839
6431.95, 0.384623
6439.94, 0.378446
6447.95, 0.372985
6455.98, 0.367784
6464.03, 0.362843
6472.1, 0.360372
6480.19, 0.357902
6488.31, 0.357382
6496.44, 0.350815
6504.59, 0.336772
6512.76, 0.328841
6520.95, 0.324745
6529.16, 0.316293
6537.4, 0.309922
6545.65, 0.306021
6553.92, 0.302120
6562.22, 0.298154
6570.54, 0.296464
6578.88, 0.289637
6587.23, 0.282616
6595.61, 0.276634
6604.02, 0.269678
6612.44, 0.264217
6620.89, 0.259211
6629.35, 0.257520
6637.84, 0.253880
6646.35, 0.242112
6654.88, 0.232425
6663.44, 0.228004
6672.01, 0.225468
6680.61, 0.222998
6689.23, 0.218122
6697.88, 0.214026
6706.54, 0.212791
6715.23, 0.210580
6723.94, 0.207070
6732.67, 0.203559
6741.42, 0.200698
6750.2, 0.198618
6759.0, 0.196472
6767.82, 0.195237
6776.67, 0.194457
6785.54, 0.194327
6794.44, 0.191986
6803.35, 0.187370
6812.29, 0.184900
6821.26, 0.184185
6830.24, 0.182364
6839.25, 0.179374
6848.29, 0.178528
6857.35, 0.179959
6866.43, 0.178788
6875.54, 0.173912
6884.67, 0.171572
6893.82, 0.170467
6903.0, 0.170077
6912.2, 0.169101
6921.43, 0.167996
6930.69, 0.167411
6939.96, 0.167216
6949.27, 0.168191
6958.59, 0.170142
6967.95, 0.168971
6977.33, 0.167736
6986.73, 0.168191
6996.16, 0.168256
7005.61, 0.167411
7015.09, 0.166241
7024.6, 0.163185
7034.13, 0.157204
7043.69, 0.148752
7053.27, 0.136919
7062.88, 0.126127
7072.52, 0.118260
7082.18, 0.113059
7091.87, 0.110524
7101.58, 0.109158
7111.32, 0.107338
7121.09, 0.104738
7130.88, 0.102137
7140.71, 0.100512
7150.56, 0.0986910
7160.43, 0.0968710
7170.33, 0.0955710
7180.27, 0.0936850
7190.23, 0.0920600
7200.21, 0.0911500
7210.23, 0.0901740
7220.27, 0.0888090
7230.34, 0.0878990
7240.44, 0.0872490
7250.56, 0.0866640
7260.72, 0.0862090
7270.9, 0.0858180
7281.12, 0.0853630
7291.36, 0.0845830
7301.63, 0.0840630
7311.93, 0.0836730
7322.25, 0.0834130
7332.61, 0.0830880
7343.0, 0.0825030
7353.41, 0.0818530
7363.86, 0.0813970
7374.33, 0.0810720
7384.83, 0.0806820
7395.37, 0.0801620
7405.93, 0.0797070
7416.53, 0.0789920
7427.15, 0.0782120
7437.81, 0.0775620
7448.5, 0.0770420
7459.22, 0.0765210
7469.96, 0.0759360
7480.74, 0.0752210
7491.55, 0.0748310
7502.39, 0.0746360
7513.27, 0.0744410
7524.17, 0.0745060
7535.11, 0.0744410
7546.08, 0.0741810
7557.08, 0.0739210
7568.11, 0.0736610
7579.17, 0.0735310
7590.27, 0.0732060
7601.4, 0.0726860
7612.56, 0.0722310
7623.76, 0.0718400
7634.98, 0.0711900
7646.24, 0.0704750
7657.54, 0.0698250
7668.87, 0.0692400
7680.23, 0.0686550
7691.62, 0.0683300
7703.05, 0.0680700
7714.51, 0.0678750
7726.01, 0.0676800
7737.54, 0.0676150
7749.11, 0.0676150
7760.71, 0.0676150
7772.35, 0.0675500
7784.02, 0.0676150
7795.72, 0.0677450
7807.46, 0.0679400
7819.23, 0.0682000
7831.04, 0.0685900
7842.89, 0.0687850
7854.77, 0.0687200
7866.69, 0.0683300
7878.65, 0.0678750
7890.64, 0.0674190
7902.67, 0.0670940
7914.74, 0.0668990
7926.84, 0.0666390
7938.98, 0.0663790
7951.16, 0.0661840
7963.37, 0.0658590
7975.62, 0.0654690
7987.91, 0.0651440
8000.24, 0.0648840
8012.6, 0.0645590
8025.01, 0.0642340
8037.45, 0.0639090
8049.93, 0.0635190
8062.45, 0.0631290
8075.01, 0.0628030
8087.61, 0.0625430
8100.24, 0.0619580
8112.91, 0.0613730
8125.63, 0.0609830
8138.39, 0.0609180
8151.18, 0.0612430
8164.02, 0.0617630
8176.9, 0.0624780
8189.81, 0.0634540
8202.77, 0.0644290
8215.77, 0.0651440
8228.82, 0.0657290
8241.9, 0.0661840
8255.02, 0.0663140
8268.19, 0.0664440
8281.39, 0.0665740
8294.65, 0.0664440
8307.94, 0.0659240
8321.28, 0.0649490
8334.66, 0.0635190
8348.08, 0.0619580
8361.54, 0.0605930
8375.05, 0.0594230
8388.6, 0.0588380
8402.2, 0.0587730
8415.84, 0.0590980
8429.52, 0.0594880
8443.25, 0.0596180
8457.02, 0.0597480
8470.84, 0.0603980
8484.7, 0.0613080
8498.61, 0.0624130
8512.57, 0.0633890
8526.57, 0.0640390
8540.62, 0.0646890
8554.71, 0.0654040
8568.85, 0.0662490
8583.04, 0.0674190
8597.27, 0.0687200
8611.55, 0.0698250
8625.88, 0.0702150
8640.26, 0.0701500
8654.68, 0.0696950
8669.16, 0.0690450
8683.68, 0.0685250
8698.25, 0.0681350
8712.87, 0.0680050
8727.53, 0.0680050
8742.25, 0.0682000
8757.02, 0.0695000
8771.83, 0.0715800
8786.7, 0.0732710
8801.62, 0.0744410
8816.59, 0.0747660
8831.61, 0.0741160
8846.68, 0.0732060
8861.8, 0.0723610
8876.97, 0.0718400
8892.2, 0.0719700
8907.48, 0.0725560
8922.81, 0.0733360
8938.2, 0.0739210
8953.63, 0.0747010
8969.13, 0.0761960
8984.67, 0.0780820
9000.27, 0.0797720
9015.92, 0.0802920
9031.63, 0.0787320
9047.39, 0.0744410
9063.21, 0.0674190
9079.08, 0.0607880
9095.01, 0.0597480
9111.0, 0.0657290
9127.04, 0.0746360
9143.13, 0.0822430
9159.28, 0.0866640
9175.49, 0.0873790
9191.76, 0.0862090
9208.09, 0.0850380
9224.47, 0.0841930
9240.92, 0.0830880
9257.42, 0.0819180
9273.98, 0.0808120
9290.6, 0.0802270
9307.28, 0.0799670
9324.02, 0.0801620
9340.82, 0.0813320
9357.68, 0.0835430
9374.6, 0.0864690
9391.58, 0.0890690
9408.62, 0.0910850
9425.73, 0.0928400
9442.9, 0.0947250
9460.13, 0.0966760
9477.42, 0.0983010
9494.78, 0.0988860
9512.2, 0.0977160
9529.69, 0.0944650
9547.24, 0.0900440
9564.86, 0.0864040
9582.54, 0.0843230
9600.28, 0.0830880
9618.1, 0.0825030
9635.97, 0.0821130
9653.92, 0.0818530
9671.93, 0.0817880
9690.01, 0.0821780
9708.16, 0.0828930
9726.37, 0.0835430
9744.65, 0.0844530
9763.0, 0.0862740
9781.43, 0.0897190
9799.92, 0.0936850
9818.48, 0.0964160
9837.1, 0.0973260
9855.8, 0.0975860
9874.58, 0.0982360
9893.42, 0.0991460
9912.34, 0.0999260
9931.33, 0.100447
9950.39, 0.101422
9969.52, 0.102722
9988.74, 0.103242
10008.0, 0.102787
10027.4, 0.101877
10046.8, 0.101162
10066.3, 0.101097
10085.9, 0.101942
10105.6, 0.103437
10125.3, 0.105258
10145.1, 0.106753
10165.0, 0.108053
10185.0, 0.108898
10205.0, 0.109093
10225.2, 0.109028
10245.4, 0.109028
10265.7, 0.109484
10286.0, 0.110524
10306.5, 0.111694
10327.0, 0.112799
10347.6, 0.114230
10368.3, 0.115725
10389.1, 0.117155
10409.9, 0.118065
10430.9, 0.117675
10451.9, 0.116440
10473.0, 0.114620
10494.2, 0.112734
10515.5, 0.111304
10536.9, 0.110459
10558.4, 0.110004
10579.9, 0.110394
10601.5, 0.110979
10623.3, 0.111759
10645.1, 0.112539
10667.0, 0.112929
10689.0, 0.112604
10711.1, 0.111954
10733.2, 0.110719
10755.5, 0.109549
10777.9, 0.108768
10800.3, 0.108443
10822.9, 0.108378
10845.5, 0.108703
10868.2, 0.109093
10891.1, 0.109679
10914.0, 0.110329
10937.0, 0.110979
10960.2, 0.112474
10983.4, 0.115270
11006.7, 0.119301
11030.1, 0.126777
11053.6, 0.139390
11077.3, 0.161495
11101.0, 0.199918
11124.8, 0.251474
11148.7, 0.283331
11172.7, 0.278780
11196.9, 0.255050
11221.1, 0.225078
11245.4, 0.195757
11269.9, 0.169166
11294.4, 0.144526
11319.1, 0.121511
11343.9, 0.102982
11368.8, 0.0886140
11393.7, 0.0784720
11418.8, 0.0745710
11444.0, 0.0740510
11469.4, 0.0739210
11494.8, 0.0742460
11520.3, 0.0745060
11546.0, 0.0748310
11571.8, 0.0759360
11597.7, 0.0778870
11623.7, 0.0800320
11649.8, 0.0813970
11676.0, 0.0776270
11702.4, 0.0674850
11728.9, 0.0646890
11755.5, 0.0755460
11782.2, 0.0915400
11809.0, 0.107403
11836.0, 0.119691
11863.0, 0.128403
11890.3, 0.135424
11917.6, 0.141405
11945.0, 0.146346
11972.6, 0.150702
12000.4, 0.154928
12028.2, 0.158699
12056.2, 0.162080
12084.3, 0.165201
12112.5, 0.167866
12140.9, 0.170272
12169.4, 0.172612
12198.0, 0.174628
12226.8, 0.175798
12255.7, 0.176968
12284.7, 0.177878
12313.9, 0.178593
12343.2, 0.179309
12372.7, 0.179959
12402.3, 0.179959
12432.0, 0.179699
12461.9, 0.179114
12491.9, 0.178008
12522.1, 0.177098
12552.4, 0.176513
12582.9, 0.175408
12613.5, 0.173977
12644.3, 0.171962
12675.2, 0.169231
12706.3, 0.166371
12737.5, 0.164095
12768.9, 0.162210
12800.4, 0.160780
12832.1, 0.159869
12863.9, 0.159154
12895.9, 0.157594
12928.1, 0.154668
12960.4, 0.150572
12992.9, 0.145046
13025.5, 0.138675
13058.3, 0.131848
13091.3, 0.124112
13124.4, 0.116635
13157.8, 0.109158
13191.2, 0.100837
13224.9, 0.0909550
13258.7, 0.0806170
13292.7, 0.0711250
13326.9, 0.0624130
13361.2, 0.0541570
13395.7, 0.0469400
13430.4, 0.0403740
13465.3, 0.0343920
13500.4, 0.0286710
13535.7, 0.0231450
13571.1, 0.0183990
13606.7, 0.0152780
13642.5, 0.0176190
13678.5, 0.0285410
13714.7, 0.0388130
13751.1, 0.0406340
13787.6, 0.0388780
13824.4, 0.0374480
13861.4, 0.0370580
13898.5, 0.0374480
13935.9, 0.0383580
13973.5, 0.0393330
14011.2, 0.0408290
14049.2, 0.0429090
14087.4, 0.0454450
14125.8, 0.0481750
14164.3, 0.0501910
14203.2, 0.0518810
14242.2, 0.0536370
14281.4, 0.0550670
14320.9, 0.0559770
14360.5, 0.0563020
14400.4, 0.0562370
14440.5, 0.0557820
14480.9, 0.0553920
14521.4, 0.0548720
14562.2, 0.0542220
14603.3, 0.0533110
14644.5, 0.0525960
14686.0, 0.0524010
14727.7, 0.0518810
14769.7, 0.0511660
14811.9, 0.0503210
14854.3, 0.0491510
14897.0, 0.0482400
14939.9, 0.0470050
14983.1, 0.0462250
15026.5, 0.0451850
15070.2, 0.0436890
15114.2, 0.0428440
15158.3, 0.0421940
15202.8, 0.0406990
15247.5, 0.0391380
15292.5, 0.0380330
15337.7, 0.0372530
15383.2, 0.0364080
15429.0, 0.0358230
15475.1, 0.0359530
15521.4, 0.0360830
15568.0, 0.0358880
15614.9, 0.0361480
15662.1, 0.0366680
15709.6, 0.0370580
15757.3, 0.0373830
15805.4, 0.0374480
15853.7, 0.0377080
15902.3, 0.0385530
15951.2, 0.0388780
16000.5, 0.0386830
16050.0, 0.0382930
16099.8, 0.0377080
16150.0, 0.0367980
16200.5, 0.0356930
16251.3, 0.0341320
16302.4, 0.0330270
16353.8, 0.0318570
16405.5, 0.0305570
16457.6, 0.0288660
16510.0, 0.0275010
16562.8, 0.0265910
16615.9, 0.0256160
16669.3, 0.0242500
16723.1, 0.0226900
16777.2, 0.0217150
16831.7, 0.0213250
16886.5, 0.0209340
16941.7, 0.0200890
16997.2, 0.0194390
17053.1, 0.0193740
17109.4, 0.0196340
17166.1, 0.0196340
17223.1, 0.0185290
17280.5, 0.0176840
17338.3, 0.0173590
17396.5, 0.0172290
17455.1, 0.0167740
17514.0, 0.0159930
17573.4, 0.0154080
17633.2, 0.0147580
17693.4, 0.0137180
17754.0, 0.0133280
17815.0, 0.0139130
17876.4, 0.0139780
17938.3, 0.0135880
18000.5, 0.0133930
18063.3, 0.0127430
18126.4, 0.0122230
18190.0, 0.0111170
18254.1, 0.0105970
18318.6, 0.0109220
18383.5, 0.0107920
18449.0, 0.0102070
18514.9, 0.0102720
18581.2, 0.00988200
18648.0, 0.00949200
18715.4, 0.00949200
18783.2, 0.00877700
18851.5, 0.00871200
18920.3, 0.00845200
18989.6, 0.00780200
19059.4, 0.00754200
19129.7, 0.00786700
19200.6, 0.00799700
19272.0, 0.00884200
19343.9, 0.00819200
19416.3, 0.00780200
19489.3, 0.00708700
19562.8, 0.00578600
19637.0, 0.00533100
19711.6, 0.00539600
19786.8, 0.00520100
19862.6, 0.00546100
19939.0, 0.00552600
20016.0, 0.00461600
20093.6, 0.00526600
20171.8, 0.00500600
20250.6, 0.00403100
20330.0, 0.00396600
20410.0, 0.00442100
20490.7, 0.00409600
20572.0, 0.00442100
20654.0, 0.00455100
20736.6, 0.00513600
20819.9, 0.00650100
20903.8, 0.00611100
20988.5, 0.00578600
21073.8, 0.00728200
21159.8, 0.00884200
21246.5, 0.0109220
21334.0, 0.0139130
21422.1, 0.0168390
21511.0, 0.0189190
21600.7, 0.0219100
21691.0, 0.0280860
21782.1, 0.0355630
21874.0, 0.0424540
21966.7, 0.0516860
22060.2, 0.0619580
22154.5, 0.0742460
22249.6, 0.0839690
22345.5, 0.0930620
22442.2, 0.105806
22539.8, 0.119031
22638.2, 0.131499
22737.5, 0.144243
22837.7, 0.159810
22938.7, 0.172761
23040.7, 0.181302
23143.5, 0.190188
23247.3, 0.198110
23352.1, 0.205067
23457.7, 0.212231
23564.4, 0.218017
23672.0, 0.223046
23780.5, 0.228970
23890.1, 0.232483
24000.7, 0.235169
24112.3, 0.238131
24225.0, 0.237580
24338.7, 0.238407
24453.5, 0.240336
24569.4, 0.239785
24686.4, 0.238545
24804.5, 0.238889
24923.8, 0.237580
25044.2, 0.235238
25165.8, 0.235238
25288.6, 0.237718
25412.5, 0.238200
25537.7, 0.238958
25664.1, 0.239509
25791.8, 0.240473
25920.8, 0.240680
26051.1, 0.241507
26182.6, 0.238889
26315.5, 0.237443
26449.8, 0.244055
26585.4, 0.245777
26722.5, 0.243367
26860.9, 0.244193
27000.8, 0.246604
27142.1, 0.246535
27285.0, 0.244538
27429.4, 0.241713
27575.3, 0.238131
27722.7, 0.234067
27871.8, 0.229659
28022.4, 0.223115
28174.7, 0.215606
28328.7, 0.207547
28484.4, 0.198661
28641.7, 0.191084
28800.9, 0.182542
28961.8, 0.172278
29124.5, 0.161395
29289.0, 0.150305
29455.4, 0.140179
29623.8, 0.130810
29794.0, 0.121511
29966.3, 0.112763
30140.5, 0.105186
30316.7, 0.0993300
30495.1, 0.0980220
30675.5, 0.105530
30858.1, 0.117585
31042.8, 0.127917
31229.8, 0.132464
31419.1, 0.132050
31610.7, 0.127642
31804.6, 0.121993
32000.9, 0.115312
32199.7, 0.107597
32400.9, 0.100777
32604.8, 0.0987110
32811.1, 0.0966440
33020.1, 0.0934060
33231.8, 0.0883090
33446.2, 0.0839690
33663.4, 0.0816960
33883.4, 0.0781140
34106.3, 0.0759100
34332.1, 0.0741190
34561.0, 0.0704680
34792.9, 0.0653710
35028.0, 0.0606870
35266.3, 0.0571740
35507.8, 0.0537980
35752.7, 0.0493900
36001.0, 0.0444300
36252.8, 0.0411240
36508.1, 0.0380240
36767.0, 0.0387130
37029.7, 0.0525580
37296.1, 0.0841070
37566.3, 0.119445
37840.5, 0.144518
38118.8, 0.155126
38401.2, 0.155333
38687.8, 0.145414
38978.6, 0.133015
39273.9, 0.121993
39573.7, 0.111592
39878.1, 0.103808
40187.3, 0.0975390
40501.2, 0.0915470
40820.0, 0.0889290
41144.0, 0.0871380
41473.2, 0.0847960
41807.6, 0.0834870
42147.5, 0.0830740
42493.0, 0.0806630
42844.2, 0.0787340
43201.2, 0.0773570
43564.3, 0.0748080
43933.5, 0.0719840
44309.0, 0.0711570
44691.0, 0.0702620
45079.6, 0.0690900
45475.0, 0.0675750
45877.5, 0.0646130
46287.1, 0.0613070
46704.2, 0.0599980
47128.7, 0.0572420
47561.1, 0.0549690
48001.5, 0.0534540
48450.1, 0.0524210
48907.2, 0.0506300
49373.0, 0.0481500
49847.7, 0.0498720
50331.5, 0.0546940
50825.0, 0.0613750
51328.2, 0.0757030
51841.5, 0.100570
52365.1, 0.125851
52899.4, 0.146171
53444.8, 0.159535
54001.5, 0.157882
54570.1, 0.146447
55150.6, 0.130604
55743.6, 0.109939
56349.5, 0.0941640
56968.7, 0.0870000
57601.7, 0.108148
58248.9, 0.171245
58910.9, 0.246053
59588.1, 0.295443
60281.0, 0.324512
60990.2, 0.346968
61716.3, 0.364120
62459.8, 0.373075
63221.6, 0.392293
64002.1, 0.439479
64802.1, 0.401593
65622.1, 0.358265
66463.4, 0.313421
67326.6, 0.273469
68212.4, 0.242884
69121.9, 0.222150
70056.0, 0.209476
71015.7, 0.199005
72002.0, 0.183851
73016.3, 0.177376
74059.4, 0.168834
75132.7, 0.163255
76237.6, 0.159535
77375.5, 0.157124
78547.9, 0.151682
79756.3, 0.149753
81002.5, 0.145000
82288.5, 0.143209
83615.7, 0.149822
84986.5, 0.154920
86402.9, 0.151476
87867.4, 0.149547
89382.4, 0.147618
90950.5, 0.145000
92574.6, 0.142176
94257.2, 0.146860
96002.7, 0.152095
97814.1, 0.161395
99695.1, 0.161188
101650.0, 0.156711
103683.0, 0.151613
105799.0, 0.154920
108003.0, 0.150305
110301.0, 0.148031
112699.0, 0.148031
115204.0, 0.152853
117822.0, 0.163048
120562.0, 0.174138
123433.0, 0.191290
126443.0, 0.189224
129604.0, 0.172554
132926.0, 0.185229
136424.0, 0.195423
140111.0, 0.214849
144003.0, 0.223804
148118.0, 0.248326
152474.0, 0.251013
157095.0, 0.257281
162004.0, 0.246880
167231.0, 0.279186
172805.0, 0.271058
178764.0, 0.284215
185148.0, 0.306602
192005.0, 0.191773
207366.0, 0.0375420
216006.0, 0.197834
