Database of Origin, USGS Spectral Database
Sample Description, See USGS database for additional info
Date Added,2016-08-10 05:03:15.579857

Data ID,USGS_lep07          
Sample ID, lepidolite_nmnh105541.12766
Mineral Name, lepidolite
Material Class,Phyllosilicate

Wavelength
213.1, 0.0538420
221.1, 0.0452220
229.1, 0.0387840
236.1, 0.0357570
242.1, 0.0338500
248.1, 0.0341470
253.6, 0.0342180
258.6, 0.0346760
263.6, 0.0352510
268.6, 0.0366140
273.1, 0.0381560
277.1, 0.0406190
281.1, 0.0423910
285.1, 0.0448590
289.1, 0.0475170
293.1, 0.0515540
297.1, 0.0557460
301.1, 0.0613010
305.1, 0.0658400
309.1, 0.0715670
313.1, 0.0785030
317.1, 0.0862430
321.1, 0.0952170
325.1, 0.105026
329.1, 0.115650
333.1, 0.128030
337.1, 0.141314
341.1, 0.154496
345.1, 0.169694
349.1, 0.184198
353.1, 0.201372
357.1, 0.217419
360.6, 0.230395
363.6, 0.240404
366.6, 0.249565
369.6, 0.258925
372.6, 0.267239
375.6, 0.275188
378.6, 0.281940
381.1, 0.287488
383.1, 0.291926
385.1, 0.294986
387.1, 0.297165
389.1, 0.301174
391.1, 0.303361
393.1, 0.304303
395.1, 0.305420
397.1, 0.307422
399.1, 0.308658
401.1, 0.307226
403.1, 0.306955
405.1, 0.306522
407.1, 0.305683
409.1, 0.303615
411.1, 0.302705
412.8, 0.300968
415.8, 0.298363
418.8, 0.295819
421.8, 0.292256
424.8, 0.287947
427.8, 0.284113
430.8, 0.281127
433.8, 0.277039
436.8, 0.273910
439.8, 0.271878
442.8, 0.269906
445.8, 0.267470
448.8, 0.266299
451.3, 0.265843
453.3, 0.264697
455.3, 0.264314
457.3, 0.263091
459.3, 0.263205
461.3, 0.263717
463.3, 0.263223
465.3, 0.263810
467.3, 0.264519
469.3, 0.264278
471.3, 0.264950
473.3, 0.264969
475.3, 0.265499
477.3, 0.265507
479.3, 0.265440
481.3, 0.266243
483.3, 0.267354
485.3, 0.267226
487.3, 0.266743
489.3, 0.267225
491.3, 0.268730
493.3, 0.268577
495.3, 0.268916
497.3, 0.268131
499.3, 0.267563
501.3, 0.267330
503.3, 0.266868
505.3, 0.266213
507.3, 0.264663
509.3, 0.263422
511.3, 0.262013
513.3, 0.261136
515.3, 0.259724
517.3, 0.258686
519.3, 0.257629
521.3, 0.255400
523.3, 0.254389
525.3, 0.251745
527.3, 0.250401
529.3, 0.249945
531.3, 0.249330
533.3, 0.248241
535.3, 0.248059
537.3, 0.247828
539.3, 0.246747
541.3, 0.246069
543.3, 0.245886
545.3, 0.245843
547.3, 0.245381
549.3, 0.246192
551.3, 0.245826
553.3, 0.245495
555.3, 0.245545
557.3, 0.245995
559.3, 0.246020
561.3, 0.246807
563.3, 0.246872
565.3, 0.247821
567.3, 0.247659
569.3, 0.249172
571.3, 0.249100
573.3, 0.250491
575.3, 0.251008
577.3, 0.253004
579.3, 0.254304
581.3, 0.256862
583.3, 0.258807
585.3, 0.261046
587.3, 0.262729
589.3, 0.266157
591.3, 0.268042
593.3, 0.271869
595.3, 0.274685
597.3, 0.278404
599.3, 0.281069
601.1, 0.284915
602.7, 0.287715
604.3, 0.290527
605.9, 0.294853
607.5, 0.297481
609.1, 0.301587
610.7, 0.305338
612.3, 0.308228
613.9, 0.313319
615.5, 0.316853
617.1, 0.320228
618.7, 0.324427
620.3, 0.328898
621.9, 0.332895
623.5, 0.337198
625.1, 0.340577
626.7, 0.344200
628.3, 0.348685
629.9, 0.351624
631.7, 0.355880
633.7, 0.361927
635.7, 0.364996
637.7, 0.370106
639.7, 0.375051
641.7, 0.378363
643.7, 0.382223
645.7, 0.386091
647.7, 0.389587
649.7, 0.392564
651.7, 0.395332
653.7, 0.398282
655.7, 0.400164
657.7, 0.402055
659.7, 0.404091
661.7, 0.406996
663.7, 0.406882
665.7, 0.408065
667.7, 0.408062
670.2, 0.410246
673.2, 0.410414
676.2, 0.410423
679.2, 0.409399
682.2, 0.410166
685.2, 0.408617
688.2, 0.406941
691.2, 0.406817
694.2, 0.405304
697.2, 0.402983
700.2, 0.402796
702.0, 0.402036
704.0, 0.400412
706.0, 0.397707
708.0, 0.397657
710.0, 0.396443
712.0, 0.395011
714.0, 0.393483
716.0, 0.392888
718.0, 0.392026
720.0, 0.390324
722.0, 0.388818
724.0, 0.387671
726.0, 0.386581
728.0, 0.384624
730.0, 0.383449
732.0, 0.382859
734.0, 0.382204
736.0, 0.380911
738.0, 0.379296
740.0, 0.377597
742.0, 0.376228
744.0, 0.376597
746.0, 0.375151
748.0, 0.374151
750.5, 0.373113
753.5, 0.372197
756.5, 0.370887
759.5, 0.369398
762.5, 0.368178
765.5, 0.367337
768.5, 0.365751
771.5, 0.364470
774.5, 0.363533
777.5, 0.362691
781.0, 0.362136
785.0, 0.360261
789.0, 0.359472
793.0, 0.358608
797.0, 0.358084
801.5, 0.356360
806.5, 0.356161
811.5, 0.355988
816.5, 0.355030
822.0, 0.353676
828.0, 0.352961
835.0, 0.353257
843.0, 0.352815
851.0, 0.353818
859.0, 0.352537
871.0, 0.355544
883.0, 0.357778
894.0, 0.357641
904.0, 0.362301
914.0, 0.363827
924.0, 0.364933
933.0, 0.371144
941.0, 0.371557
949.0, 0.371819
957.0, 0.374771
964.0, 0.378731
970.0, 0.382436
976.0, 0.387494
982.0, 0.389778
988.0, 0.392519
994.0, 0.396685
1000.0, 0.401371
1006.0, 0.405425
1012.0, 0.408479
1018.0, 0.410708
1023.5, 0.415662
1028.5, 0.419543
1033.5, 0.421834
1038.5, 0.425616
1043.5, 0.428352
1048.5, 0.432599
1053.5, 0.435038
1058.5, 0.438351
1063.5, 0.444212
1068.5, 0.447812
1073.5, 0.450898
1078.5, 0.454948
1083.5, 0.456559
1088.5, 0.461824
1093.5, 0.465497
1098.5, 0.469712
1103.5, 0.471603
1108.5, 0.476728
1113.5, 0.479680
1118.5, 0.482663
1123.5, 0.487620
1128.5, 0.492495
1133.5, 0.495240
1138.5, 0.498349
1143.5, 0.503851
1148.5, 0.507865
1153.5, 0.510410
1158.5, 0.513877
1163.5, 0.519779
1168.5, 0.523063
1173.5, 0.525422
1178.5, 0.526730
1183.5, 0.532368
1188.5, 0.538106
1193.5, 0.540996
1198.5, 0.542882
1203.5, 0.549627
1208.5, 0.551796
1213.5, 0.555128
1218.5, 0.559441
1223.5, 0.561554
1228.5, 0.566225
1233.5, 0.568279
1238.5, 0.571453
1243.5, 0.571381
1248.5, 0.573582
1253.5, 0.578328
1258.5, 0.582957
1263.5, 0.586946
1268.5, 0.589520
1273.5, 0.593139
1278.5, 0.595257
1283.5, 0.596338
1288.5, 0.598020
1293.5, 0.598497
1298.5, 0.598539
1303.5, 0.599311
1308.5, 0.600573
1313.5, 0.603643
1318.5, 0.606136
1323.5, 0.606612
1328.5, 0.610863
1333.5, 0.613049
1338.5, 0.615785
1343.5, 0.620281
1348.5, 0.622265
1353.5, 0.624561
1358.5, 0.624195
1363.5, 0.622509
1368.5, 0.613201
1373.5, 0.599462
1378.5, 0.561427
1383.5, 0.451606
1388.5, 0.379680
1393.5, 0.380378
1398.5, 0.377126
1403.5, 0.355760
1408.5, 0.338760
1413.5, 0.330131
1418.5, 0.375632
1423.5, 0.438260
1428.5, 0.474203
1433.5, 0.509687
1438.5, 0.557058
1443.5, 0.613196
1448.5, 0.639046
1453.5, 0.647437
1458.5, 0.653639
1463.5, 0.658179
1468.5, 0.662175
1473.5, 0.665517
1478.5, 0.671554
1483.5, 0.677200
1488.5, 0.680816
1493.5, 0.681300
1498.5, 0.684472
1503.5, 0.688495
1508.5, 0.692848
1513.5, 0.694034
1518.5, 0.698295
1523.5, 0.699082
1528.5, 0.700597
1534.0, 0.702084
1540.0, 0.705727
1546.0, 0.704419
1552.0, 0.707328
1558.0, 0.711812
1564.0, 0.711987
1570.5, 0.712027
1577.5, 0.714325
1584.5, 0.716695
1591.5, 0.718576
1598.5, 0.720388
1605.5, 0.722781
1612.5, 0.723762
1619.5, 0.724017
1626.5, 0.725068
1633.5, 0.725927
1640.5, 0.729567
1647.5, 0.727583
1654.5, 0.730449
1661.5, 0.734414
1668.5, 0.733180
1676.0, 0.731736
1684.0, 0.732701
1692.0, 0.734880
1700.0, 0.738031
1708.0, 0.738556
1716.0, 0.733814
1724.0, 0.736755
1732.0, 0.732981
1740.0, 0.743016
1748.0, 0.741801
1756.0, 0.739932
1764.0, 0.737286
1772.0, 0.736605
1780.0, 0.733574
1788.0, 0.738558
1796.0, 0.735471
1805.0, 0.734962
1815.0, 0.729379
1825.0, 0.722248
1835.0, 0.714999
1845.0, 0.711079
1855.0, 0.708588
1865.0, 0.702933
1875.0, 0.704310
1885.0, 0.697149
1895.0, 0.668159
1905.0, 0.628854
1915.0, 0.620278
1925.0, 0.634621
1935.0, 0.647815
1945.0, 0.653372
1955.0, 0.656895
1965.0, 0.657450
1975.0, 0.657514
1985.0, 0.656983
1995.0, 0.659096
2005.0, 0.656085
2015.0, 0.654986
2025.0, 0.655783
2035.0, 0.654285
2045.0, 0.653867
2055.0, 0.650110
2065.0, 0.639354
2075.0, 0.618148
2085.0, 0.591915
2095.0, 0.572061
2105.0, 0.552076
2115.0, 0.541704
2125.0, 0.530801
2135.0, 0.531329
2145.0, 0.515432
2155.0, 0.491687
2165.0, 0.440432
2175.0, 0.359187
2185.0, 0.265094
2195.0, 0.182587
2205.0, 0.149755
2215.0, 0.177988
2225.0, 0.241029
2235.0, 0.306835
2245.0, 0.368095
2255.0, 0.404309
2265.0, 0.417763
2275.0, 0.417409
2285.0, 0.409897
2295.0, 0.389404
2305.0, 0.360772
2315.0, 0.307305
2325.0, 0.259335
2335.0, 0.219780
2345.0, 0.199891
2355.0, 0.189714
2365.0, 0.204286
2375.0, 0.211037
2386.0, 0.211163
2400.0, 0.206080
2418.0, 0.187512
2440.0, 0.162890
2466.0, 0.169813
2496.0, 0.191897
2528.0, 0.197776
2560.0, 0.200649
2592.0, 0.196604
2624.0, 0.187996
2656.0, 0.177260
2688.0, 0.107935
2720.0, 0.0302610
2752.0, 0.0108850
2784.0, 0.0152090
2816.0, 0.0204780
2848.0, 0.0485030
2880.0, 0.0476370
2912.0, 0.0653630
2944.0, 0.0721390
2976.0, 0.0829320
