Database of Origin, USGS Spectral Database
Sample Description, See USGS database for additional info
Date Added,2016-08-10 04:58:00.855462

Data ID,USGS_jar15          
Sample ID, jarosite_nmnh95074-1.11586
Mineral Name, jarosite
Material Class,Sulfate

Wavelength
1379.5, 0.457417
1379.87, 0.459156
1380.23, 0.461800
1380.6, 0.461104
1380.97, 0.462148
1381.34, 0.460409
1381.7, 0.459435
1382.07, 0.462356
1382.44, 0.463122
1382.81, 0.462913
1383.18, 0.463330
1383.55, 0.461730
1383.92, 0.461939
1384.29, 0.459922
1384.66, 0.460478
1385.03, 0.460548
1385.4, 0.462496
1385.77, 0.460687
1386.14, 0.460269
1386.51, 0.459922
1386.88, 0.463817
1387.25, 0.468826
1387.62, 0.470287
1387.99, 0.469244
1388.36, 0.466183
1388.74, 0.460269
1389.11, 0.461522
1389.48, 0.464861
1389.85, 0.465905
1390.23, 0.462774
1390.6, 0.461800
1390.97, 0.460269
1391.35, 0.462704
1391.72, 0.466878
1392.09, 0.466531
1392.47, 0.463052
1392.84, 0.465139
1393.21, 0.465418
1393.59, 0.468339
1393.96, 0.467435
1394.34, 0.466600
1394.71, 0.461939
1395.09, 0.459226
1395.46, 0.463470
1395.84, 0.465905
1396.22, 0.463052
1396.59, 0.463817
1396.97, 0.463539
1397.35, 0.464096
1397.72, 0.464583
1398.1, 0.464722
1398.48, 0.461243
1398.85, 0.463261
1399.23, 0.466948
1399.61, 0.469870
1399.99, 0.468409
1400.37, 0.467992
1400.74, 0.466252
1401.12, 0.465765
1401.5, 0.463609
1401.88, 0.465696
1402.26, 0.468687
1402.64, 0.470427
1403.02, 0.470357
1403.4, 0.470705
1403.78, 0.470287
1404.16, 0.467992
1404.54, 0.464652
1404.92, 0.467226
1405.3, 0.469731
1405.68, 0.472514
1406.06, 0.470079
1406.44, 0.471122
1406.83, 0.470705
1407.21, 0.469313
1407.59, 0.469453
1407.97, 0.467296
1408.35, 0.465557
1408.74, 0.466670
1409.12, 0.469940
1409.5, 0.467505
1409.89, 0.464652
1410.27, 0.469313
1410.65, 0.472583
1411.04, 0.473209
1411.42, 0.467713
1411.81, 0.467296
1412.19, 0.470357
1412.58, 0.471331
1412.96, 0.470844
1413.35, 0.469592
1413.73, 0.466322
1414.12, 0.468339
1414.5, 0.467365
1414.89, 0.469313
1415.28, 0.471679
1415.66, 0.474740
1416.05, 0.469244
1416.44, 0.468687
1416.82, 0.473487
1417.21, 0.474183
1417.6, 0.468966
1417.98, 0.469035
1418.37, 0.472583
1418.76, 0.474740
1419.15, 0.473209
1419.54, 0.474601
1419.93, 0.473209
1420.32, 0.473279
1420.71, 0.471470
1421.09, 0.470774
1421.48, 0.472027
1421.88, 0.475227
1422.27, 0.473209
1422.66, 0.469731
1423.05, 0.467296
1423.44, 0.469731
1423.83, 0.474253
1424.22, 0.474948
1424.61, 0.471400
1425.0, 0.467783
1425.39, 0.466531
1425.78, 0.468548
1426.18, 0.470566
1426.57, 0.471331
1426.96, 0.470844
1427.36, 0.472931
1427.75, 0.475227
1428.14, 0.474670
1428.54, 0.471887
1428.93, 0.473766
1429.32, 0.473905
1429.72, 0.471122
1430.11, 0.469800
1430.51, 0.471609
1430.9, 0.472235
1431.3, 0.471331
1431.69, 0.474879
1432.09, 0.475853
1432.48, 0.475157
1432.88, 0.475644
1433.28, 0.474114
1433.67, 0.473696
1434.07, 0.470774
1434.46, 0.472583
1434.86, 0.476688
1435.26, 0.476896
1435.66, 0.473905
1436.05, 0.477244
1436.45, 0.477453
1436.85, 0.476827
1437.25, 0.471609
1437.65, 0.471331
1438.05, 0.472514
1438.44, 0.473001
1438.84, 0.472792
1439.24, 0.474809
1439.64, 0.473487
1440.04, 0.473418
1440.44, 0.472444
1440.84, 0.473140
1441.24, 0.471192
1441.65, 0.471192
1442.05, 0.475435
1442.45, 0.478079
1442.85, 0.476201
1443.25, 0.475644
1443.65, 0.476340
1444.05, 0.475157
1444.46, 0.473140
1444.86, 0.473348
1445.26, 0.474670
1445.67, 0.475296
1446.07, 0.474044
1446.47, 0.472861
1446.88, 0.470774
1447.28, 0.469105
1447.68, 0.468826
1448.09, 0.471540
1448.49, 0.471540
1448.9, 0.471818
1449.3, 0.472305
1449.71, 0.473557
1450.11, 0.473557
1450.52, 0.473070
1450.93, 0.471400
1451.33, 0.474183
1451.74, 0.476409
1452.14, 0.476201
1452.55, 0.474879
1452.96, 0.472305
1453.36, 0.473557
1453.77, 0.472583
1454.18, 0.469174
1454.59, 0.474114
1455.0, 0.473070
1455.41, 0.469105
1455.81, 0.466183
1456.22, 0.467505
1456.63, 0.466113
1457.04, 0.463817
1457.45, 0.474670
1457.86, 0.481349
1458.27, 0.480931
1458.68, 0.488445
1459.09, 0.485662
1459.5, 0.493315
1459.91, 0.479331
1460.32, 0.465905
1460.74, 0.479331
1461.15, 0.484062
1461.56, 0.467713
1461.97, 0.454217
1462.39, 0.449625
1462.8, 0.450599
1463.21, 0.448790
1463.62, 0.448860
1464.04, 0.449277
1464.45, 0.452756
1464.86, 0.459643
1465.28, 0.460478
1465.69, 0.467157
1466.11, 0.458808
1466.52, 0.450321
1466.94, 0.448651
1467.35, 0.440025
1467.77, 0.453243
1468.18, 0.458321
1468.6, 0.463470
1469.02, 0.448443
1469.43, 0.432720
1469.85, 0.442112
1470.27, 0.449556
1470.68, 0.439120
1471.1, 0.432163
1471.52, 0.438216
1471.94, 0.449973
1472.35, 0.447399
1472.77, 0.440094
1473.19, 0.434598
1473.61, 0.431259
1474.03, 0.432511
1474.45, 0.431189
1474.87, 0.430285
1475.29, 0.430981
1475.71, 0.431398
1476.13, 0.429381
1476.55, 0.425833
1476.97, 0.421241
1477.39, 0.422215
1477.81, 0.430981
1478.23, 0.440512
1478.65, 0.433694
1479.07, 0.424511
1479.5, 0.430842
1479.92, 0.436964
1480.34, 0.433972
1480.76, 0.432998
1481.19, 0.438633
1481.61, 0.436546
1482.03, 0.440303
1482.46, 0.455887
1482.88, 0.472096
1483.31, 0.472583
1483.73, 0.462217
1484.16, 0.452826
1484.58, 0.446843
1485.01, 0.450808
1485.43, 0.467922
1485.86, 0.474462
1486.28, 0.455887
1486.71, 0.445312
1487.14, 0.453243
1487.56, 0.456930
1487.99, 0.477523
1488.42, 0.478705
1488.84, 0.465626
1489.27, 0.470357
1489.7, 0.475435
1490.13, 0.469661
1490.56, 0.483992
1490.98, 0.496445
1491.41, 0.499298
1491.84, 0.487054
1492.27, 0.479540
1492.7, 0.481905
1493.13, 0.486845
1493.56, 0.481558
1493.99, 0.481697
1494.42, 0.482253
1494.85, 0.474601
1495.29, 0.479471
1495.72, 0.480862
1496.15, 0.473627
1496.58, 0.461730
1497.01, 0.465696
1497.44, 0.473487
1497.88, 0.467644
1498.31, 0.453730
1498.74, 0.453034
1499.18, 0.469383
1499.61, 0.480723
1500.04, 0.479610
1500.48, 0.475157
1500.91, 0.475575
1501.35, 0.478288
1501.78, 0.476201
1502.22, 0.471470
1502.65, 0.473696
1503.09, 0.469383
1503.53, 0.469592
1503.96, 0.469592
1504.4, 0.468409
1504.83, 0.470913
1505.27, 0.475922
1505.71, 0.467922
1506.15, 0.470913
1506.58, 0.477453
1507.02, 0.481140
1507.46, 0.480166
1507.9, 0.477592
1508.34, 0.481071
1508.78, 0.484132
1509.21, 0.491784
1509.66, 0.491367
1510.09, 0.482184
1510.53, 0.474740
1510.97, 0.475853
1511.42, 0.478914
1511.86, 0.479053
1512.3, 0.487401
1512.74, 0.483088
1513.18, 0.480792
1513.62, 0.484062
1514.06, 0.490462
1514.51, 0.493106
1514.95, 0.490741
1515.39, 0.484132
1515.83, 0.477940
1516.28, 0.479123
1516.72, 0.477870
1517.16, 0.476966
1517.61, 0.483992
1518.05, 0.483436
1518.5, 0.481071
1518.94, 0.482184
1519.39, 0.483158
1519.83, 0.483992
1520.28, 0.483366
1520.73, 0.483923
1521.17, 0.483506
1521.62, 0.481558
1522.07, 0.483227
1522.51, 0.483923
1522.96, 0.484897
1523.41, 0.486288
1523.85, 0.483506
1524.3, 0.480653
1524.75, 0.480862
1525.2, 0.475296
1525.65, 0.474809
1526.1, 0.482601
1526.55, 0.485175
1527.0, 0.484619
1527.45, 0.482601
1527.9, 0.480444
1528.35, 0.482392
1528.8, 0.485036
1529.25, 0.484201
1529.7, 0.484132
1530.15, 0.486080
1530.6, 0.484410
1531.05, 0.483019
1531.51, 0.483853
1531.96, 0.484897
1532.41, 0.484132
1532.87, 0.486567
1533.32, 0.486845
1533.77, 0.484619
1534.23, 0.484827
1534.68, 0.485871
1535.14, 0.486706
1535.59, 0.486984
1536.05, 0.485593
1536.5, 0.487123
1536.96, 0.486567
1537.41, 0.483436
1537.87, 0.484966
1538.32, 0.486080
1538.78, 0.485453
1539.24, 0.485662
1539.7, 0.485732
1540.15, 0.486497
1540.61, 0.488306
1541.07, 0.488932
1541.53, 0.488097
1541.98, 0.487888
1542.44, 0.487401
1542.9, 0.487471
1543.36, 0.488097
1543.82, 0.488584
1544.28, 0.488862
1544.74, 0.490532
1545.2, 0.489975
1545.66, 0.489349
1546.12, 0.489141
1546.59, 0.488932
1547.05, 0.488932
1547.51, 0.489280
1547.97, 0.487610
1548.43, 0.488654
1548.9, 0.490393
1549.36, 0.489975
1549.82, 0.489488
1550.29, 0.490393
1550.75, 0.490115
1551.21, 0.491993
1551.68, 0.492410
1552.14, 0.490393
1552.61, 0.488375
1553.07, 0.488027
1553.54, 0.490045
1554.0, 0.492967
1554.47, 0.492897
1554.93, 0.491506
1555.4, 0.491784
1555.87, 0.491158
1556.34, 0.490810
1556.8, 0.493106
1557.27, 0.493523
1557.74, 0.493036
1558.21, 0.493941
1558.68, 0.495263
1559.14, 0.495680
1559.61, 0.494150
1560.08, 0.492758
1560.55, 0.492480
1561.02, 0.494428
1561.49, 0.495611
1561.96, 0.494358
1562.43, 0.496098
1562.9, 0.496445
1563.38, 0.495471
1563.85, 0.495263
1564.32, 0.496445
1564.79, 0.496445
1565.26, 0.496167
1565.74, 0.496932
1566.21, 0.496585
1566.68, 0.495958
1567.16, 0.496098
1567.63, 0.496167
1568.1, 0.497698
1568.58, 0.498532
1569.05, 0.497837
1569.53, 0.498463
1570.0, 0.499924
1570.48, 0.500063
1570.96, 0.500759
1571.43, 0.499646
1571.91, 0.499854
1572.39, 0.500133
1572.86, 0.499646
1573.34, 0.499785
1573.82, 0.501315
1574.3, 0.501037
1574.77, 0.499993
1575.25, 0.500411
1575.73, 0.502150
1576.21, 0.502359
1576.69, 0.503054
1577.17, 0.503889
1577.65, 0.505281
1578.13, 0.504724
1578.61, 0.503611
1579.09, 0.504376
1579.57, 0.504376
1580.05, 0.502846
1580.54, 0.503820
1581.02, 0.505281
1581.5, 0.505281
1581.98, 0.503472
1582.47, 0.504863
1582.95, 0.505698
1583.43, 0.507159
1583.92, 0.507855
1584.4, 0.507229
1584.88, 0.506533
1585.37, 0.506742
1585.85, 0.507994
1586.34, 0.508063
1586.82, 0.507089
1587.31, 0.506602
1587.8, 0.507855
1588.28, 0.510220
1588.77, 0.510707
1589.26, 0.508968
1589.74, 0.506185
1590.23, 0.506950
1590.72, 0.508342
1591.21, 0.509524
1591.7, 0.511542
1592.19, 0.512585
1592.67, 0.510081
1593.16, 0.509455
1593.65, 0.510498
1594.14, 0.511403
1594.63, 0.510916
1595.12, 0.511124
1595.61, 0.511681
1596.11, 0.511472
1596.6, 0.511472
1597.09, 0.512655
1597.58, 0.512655
1598.08, 0.512446
1598.57, 0.512585
1599.06, 0.514185
1599.55, 0.513490
1600.05, 0.513003
1600.54, 0.512585
1601.04, 0.512168
1601.53, 0.512864
1602.03, 0.514464
1602.52, 0.514394
1603.02, 0.514603
1603.51, 0.515229
1604.01, 0.515716
1604.5, 0.515090
1605.0, 0.514255
1605.5, 0.514672
1606.0, 0.514185
1606.49, 0.513629
1606.99, 0.514881
1607.49, 0.514951
1607.99, 0.515299
1608.49, 0.515994
1608.99, 0.515020
1609.49, 0.513351
1609.99, 0.513698
1610.49, 0.516272
1610.99, 0.517038
1611.49, 0.516760
1611.99, 0.517942
1612.49, 0.518429
1612.99, 0.518986
1613.49, 0.518777
1614.0, 0.519194
1614.5, 0.518916
1615.0, 0.518847
1615.51, 0.518916
1616.01, 0.517942
1616.51, 0.517525
1617.02, 0.518220
1617.52, 0.519055
1618.03, 0.518638
1618.53, 0.517594
1619.04, 0.517038
1619.54, 0.517803
1620.05, 0.518847
1620.55, 0.518916
1621.06, 0.521699
1621.57, 0.521838
1622.08, 0.521212
1622.58, 0.520029
1623.09, 0.520029
1623.6, 0.520168
1624.11, 0.520168
1624.62, 0.520447
1625.13, 0.520447
1625.64, 0.520586
1626.15, 0.521073
1626.66, 0.521421
1627.17, 0.521073
1627.68, 0.520447
1628.19, 0.521212
1628.7, 0.522325
1629.21, 0.521977
1629.72, 0.521769
1630.24, 0.522395
1630.75, 0.521212
1631.26, 0.520795
1631.78, 0.520168
1632.29, 0.521073
1632.8, 0.523021
1633.32, 0.523160
1633.83, 0.522116
1634.35, 0.521769
1634.86, 0.521560
1635.38, 0.522464
1635.9, 0.523786
1636.41, 0.523369
1636.93, 0.523995
1637.45, 0.525943
1637.96, 0.524830
1638.48, 0.524203
1639.0, 0.523995
1639.52, 0.524690
1640.04, 0.525525
1640.56, 0.525316
1641.08, 0.523369
1641.59, 0.524064
1642.11, 0.526012
1642.63, 0.526221
1643.16, 0.524760
1643.68, 0.526151
1644.2, 0.527264
1644.72, 0.527612
1645.24, 0.526986
1645.76, 0.526291
1646.29, 0.525038
1646.81, 0.525943
1647.33, 0.525943
1647.86, 0.526638
1648.38, 0.527125
1648.9, 0.527612
1649.43, 0.526986
1649.95, 0.526986
1650.48, 0.526847
1651.0, 0.526569
1651.53, 0.526708
1652.06, 0.528725
1652.58, 0.528308
1653.11, 0.528656
1653.64, 0.528378
1654.17, 0.528586
1654.69, 0.527752
1655.22, 0.527752
1655.75, 0.529352
1656.28, 0.530186
1656.81, 0.528725
1657.34, 0.529004
1657.87, 0.529630
1658.4, 0.529073
1658.93, 0.528447
1659.46, 0.529421
1659.99, 0.529282
1660.52, 0.529073
1661.05, 0.529073
1661.59, 0.529630
1662.12, 0.530047
1662.65, 0.532204
1663.19, 0.532552
1663.72, 0.531856
1664.26, 0.531300
1664.79, 0.531091
1665.32, 0.530673
1665.86, 0.531995
1666.39, 0.532621
1666.93, 0.533108
1667.47, 0.533108
1668.0, 0.531926
1668.54, 0.531300
1669.08, 0.532760
1669.61, 0.533595
1670.15, 0.534221
1670.69, 0.534639
1671.23, 0.533874
1671.77, 0.533456
1672.31, 0.533943
1672.85, 0.532969
1673.39, 0.533108
1673.93, 0.533665
1674.47, 0.534013
1675.01, 0.533178
1675.55, 0.531717
1676.09, 0.531786
1676.64, 0.532969
1677.18, 0.533178
1677.72, 0.533943
1678.26, 0.533734
1678.81, 0.534360
1679.35, 0.534569
1679.89, 0.535195
1680.44, 0.534221
1680.98, 0.533595
1681.53, 0.533874
1682.07, 0.535265
1682.62, 0.535474
1683.17, 0.535404
1683.71, 0.535195
1684.26, 0.535265
1684.81, 0.534221
1685.36, 0.535056
1685.9, 0.536100
1686.45, 0.537978
1687.0, 0.538117
1687.55, 0.536169
1688.1, 0.534639
1688.65, 0.534987
1689.2, 0.535543
1689.75, 0.535613
1690.3, 0.535961
1690.85, 0.536795
1691.41, 0.536517
1691.96, 0.537004
1692.51, 0.535404
1693.06, 0.535682
1693.61, 0.536517
1694.17, 0.536239
1694.72, 0.535752
1695.28, 0.536100
1695.83, 0.536308
1696.39, 0.536865
1696.94, 0.536865
1697.5, 0.536308
1698.05, 0.536448
1698.61, 0.537352
1699.17, 0.537004
1699.72, 0.537074
1700.28, 0.537491
1700.84, 0.538187
1701.4, 0.538117
1701.95, 0.539300
1702.51, 0.539300
1703.07, 0.538465
1703.63, 0.537561
1704.19, 0.538048
1704.75, 0.537630
1705.31, 0.537978
1705.88, 0.537978
1706.44, 0.538048
1707.0, 0.539230
1707.56, 0.539439
1708.12, 0.538743
1708.69, 0.539161
1709.25, 0.539300
1709.81, 0.539578
1710.38, 0.538813
1710.94, 0.538674
1711.51, 0.538604
1712.07, 0.539439
1712.64, 0.539300
1713.2, 0.539926
1713.77, 0.539509
1714.34, 0.540274
1714.9, 0.540483
1715.47, 0.539230
1716.04, 0.539717
1716.61, 0.541039
1717.18, 0.539856
1717.74, 0.539856
1718.31, 0.540830
1718.88, 0.540900
1719.45, 0.539996
1720.02, 0.539230
1720.59, 0.539370
1721.17, 0.540135
1721.74, 0.540691
1722.31, 0.541387
1722.88, 0.541526
1723.45, 0.541109
1724.03, 0.540622
1724.6, 0.540761
1725.18, 0.541526
1725.75, 0.541248
1726.33, 0.541387
1726.9, 0.542013
1727.48, 0.541735
1728.05, 0.541317
1728.63, 0.540970
1729.2, 0.540900
1729.78, 0.541804
1730.36, 0.542222
1730.94, 0.542152
1731.51, 0.542222
1732.09, 0.541944
1732.67, 0.541874
1733.25, 0.542361
1733.83, 0.543544
1734.41, 0.543474
1734.99, 0.542709
1735.57, 0.541944
1736.15, 0.541874
1736.73, 0.542431
1737.32, 0.542848
1737.9, 0.543335
1738.48, 0.543822
1739.07, 0.543613
1739.65, 0.542848
1740.23, 0.543544
1740.82, 0.544031
1741.4, 0.543474
1741.99, 0.543891
1742.57, 0.542987
1743.16, 0.542848
1743.74, 0.543474
1744.33, 0.543891
1744.92, 0.543474
1745.51, 0.543057
1746.09, 0.542291
1746.68, 0.543196
1747.27, 0.544309
1747.86, 0.545144
1748.45, 0.544100
1749.04, 0.543683
1749.63, 0.543474
1750.22, 0.543126
1750.81, 0.543057
1751.4, 0.543057
1751.99, 0.542709
1752.59, 0.542570
1753.18, 0.542987
1753.77, 0.543752
1754.37, 0.542639
1754.96, 0.543196
1755.56, 0.545074
1756.15, 0.545422
1756.74, 0.544448
1757.34, 0.544587
1757.94, 0.544726
1758.53, 0.544657
1759.13, 0.543474
1759.73, 0.543265
1760.32, 0.543057
1760.92, 0.543613
1761.52, 0.543057
1762.12, 0.542987
1762.72, 0.543335
1763.32, 0.543613
1763.92, 0.543822
1764.52, 0.543544
1765.12, 0.543126
1765.72, 0.543335
1766.32, 0.543265
1766.92, 0.543265
1767.53, 0.542918
1768.13, 0.542500
1768.73, 0.542431
1769.34, 0.543057
1769.94, 0.542918
1770.55, 0.542222
1771.15, 0.541944
1771.76, 0.542431
1772.36, 0.542013
1772.97, 0.541317
1773.57, 0.541874
1774.18, 0.543126
1774.79, 0.542083
1775.4, 0.541039
1776.0, 0.541317
1776.61, 0.541735
1777.22, 0.541387
1777.83, 0.542291
1778.44, 0.542709
1779.05, 0.542222
1779.66, 0.542500
1780.27, 0.542500
1780.88, 0.542083
1781.5, 0.542431
1782.11, 0.542431
1782.72, 0.542291
1783.33, 0.541804
1783.95, 0.541457
1784.56, 0.541248
1785.18, 0.541387
1785.79, 0.541457
1786.41, 0.541526
1787.02, 0.541735
1787.64, 0.542778
1788.26, 0.542222
1788.87, 0.541526
1789.49, 0.541665
1790.11, 0.541874
1790.73, 0.540622
1791.35, 0.539717
1791.96, 0.540274
1792.58, 0.540830
1793.21, 0.540483
1793.83, 0.540343
1794.45, 0.539926
1795.07, 0.540065
1795.69, 0.540622
1796.31, 0.540622
1796.93, 0.540135
1797.56, 0.540622
1798.18, 0.541109
1798.8, 0.541596
1799.43, 0.541596
1800.05, 0.540622
1800.68, 0.539717
1801.3, 0.539509
1801.93, 0.539300
1802.56, 0.539370
1803.18, 0.538535
1803.81, 0.537909
1804.44, 0.538326
1805.07, 0.538396
1805.7, 0.537769
1806.33, 0.537769
1806.95, 0.537491
1807.58, 0.536726
1808.22, 0.536100
1808.85, 0.536726
1809.48, 0.536865
1810.11, 0.535961
1810.74, 0.535265
1811.38, 0.535752
1812.01, 0.535543
1812.64, 0.534639
1813.28, 0.534221
1813.91, 0.534639
1814.55, 0.534291
1815.18, 0.533595
1815.82, 0.532343
1816.45, 0.532413
1817.09, 0.533387
1817.73, 0.533247
1818.36, 0.532065
1819.0, 0.532134
1819.64, 0.532065
1820.28, 0.531578
1820.92, 0.530743
1821.56, 0.529908
1822.2, 0.529491
1822.84, 0.529421
1823.48, 0.528725
1824.12, 0.528099
1824.76, 0.527821
1825.41, 0.527682
1826.05, 0.526569
1826.69, 0.525734
1827.34, 0.524621
1827.98, 0.523925
1828.63, 0.523369
1829.27, 0.522534
1829.92, 0.521490
1830.56, 0.519681
1831.21, 0.517594
1831.86, 0.516551
1832.5, 0.514533
1833.15, 0.511403
1833.8, 0.508898
1834.45, 0.507785
1835.1, 0.506255
1835.75, 0.503959
1836.4, 0.500967
1837.05, 0.498672
1837.7, 0.495958
1838.35, 0.493871
1839.01, 0.491297
1839.66, 0.488167
1840.31, 0.485523
1840.96, 0.482740
1841.62, 0.480027
1842.27, 0.478357
1842.93, 0.476896
1843.58, 0.475575
1844.24, 0.474531
1844.9, 0.473835
1845.55, 0.473001
1846.21, 0.472027
1846.87, 0.471122
1847.53, 0.471679
1848.18, 0.473001
1848.84, 0.474322
1849.5, 0.475296
1850.16, 0.477314
1850.82, 0.479262
1851.48, 0.480444
1852.14, 0.482392
1852.81, 0.483436
1853.47, 0.483436
1854.13, 0.485732
1854.8, 0.487540
1855.46, 0.487540
1856.12, 0.486567
1856.79, 0.486080
1857.45, 0.486775
1858.12, 0.487888
1858.79, 0.487193
1859.45, 0.486288
1860.12, 0.486845
1860.79, 0.488514
1861.46, 0.489628
1862.12, 0.490532
1862.79, 0.491367
1863.46, 0.492550
1864.13, 0.494289
1864.8, 0.496445
1865.48, 0.499159
1866.15, 0.501454
1866.82, 0.502985
1867.49, 0.504863
1868.16, 0.507576
1868.84, 0.509664
1869.51, 0.511124
1870.19, 0.513629
1870.86, 0.515925
1871.54, 0.519403
1872.21, 0.521699
1872.89, 0.522534
1873.56, 0.524203
1874.24, 0.526638
1874.92, 0.528169
1875.6, 0.529421
1876.28, 0.530604
1876.96, 0.531926
1877.64, 0.533387
1878.32, 0.534430
1879.0, 0.534917
1879.68, 0.535752
1880.36, 0.535821
1881.04, 0.536448
1881.73, 0.537352
1882.41, 0.538117
1883.09, 0.539022
1883.78, 0.539787
1884.46, 0.540274
1885.15, 0.540343
1885.83, 0.540135
1886.52, 0.540274
1887.21, 0.540622
1887.89, 0.541387
1888.58, 0.541526
1889.27, 0.541596
1889.96, 0.541944
1890.65, 0.542848
1891.34, 0.542013
1892.03, 0.541874
1892.72, 0.542291
1893.41, 0.542222
1894.1, 0.542709
1894.79, 0.543057
1895.49, 0.542361
1896.18, 0.542222
1896.87, 0.542639
1897.57, 0.542639
1898.26, 0.541804
1898.96, 0.541874
1899.65, 0.542222
1900.35, 0.542361
1901.05, 0.542987
1901.74, 0.542987
1902.44, 0.541735
1903.14, 0.542152
1903.84, 0.542918
1904.54, 0.542918
1905.24, 0.542361
1905.94, 0.542500
1906.64, 0.542361
1907.34, 0.542083
1908.04, 0.542013
1908.75, 0.542083
1909.45, 0.541804
1910.15, 0.541665
1910.86, 0.541665
1911.56, 0.541735
1912.27, 0.541665
1912.97, 0.542431
1913.68, 0.542709
1914.39, 0.542431
1915.09, 0.541735
1915.8, 0.541665
1916.51, 0.542013
1917.22, 0.541804
1917.93, 0.540900
1918.64, 0.541317
1919.35, 0.541804
1920.06, 0.541804
1920.77, 0.540970
1921.48, 0.540483
1922.19, 0.540135
1922.91, 0.540274
1923.62, 0.540761
1924.33, 0.541039
1925.05, 0.540622
1925.76, 0.540691
1926.48, 0.540274
1927.19, 0.541109
1927.91, 0.541596
1928.63, 0.541248
1929.35, 0.541109
1930.07, 0.541109
1930.78, 0.540274
1931.5, 0.540343
1932.22, 0.539996
1932.94, 0.539578
1933.66, 0.539996
1934.39, 0.540135
1935.11, 0.540204
1935.83, 0.540204
1936.55, 0.539926
1937.28, 0.539370
1938.0, 0.538743
1938.73, 0.538743
1939.45, 0.538882
1940.18, 0.539578
1940.9, 0.539439
1941.63, 0.538813
1942.36, 0.538813
1943.09, 0.539300
1943.81, 0.539230
1944.54, 0.539370
1945.27, 0.539161
1946.0, 0.539578
1946.73, 0.539370
1947.47, 0.539370
1948.2, 0.539509
1948.93, 0.538813
1949.66, 0.538674
1950.4, 0.538813
1951.13, 0.538187
1951.86, 0.538256
1952.6, 0.538535
1953.34, 0.539091
1954.07, 0.539091
1954.81, 0.538882
1955.55, 0.538117
1956.29, 0.538117
1957.02, 0.538256
1957.76, 0.538813
1958.5, 0.538674
1959.24, 0.538674
1959.98, 0.538326
1960.72, 0.538048
1961.47, 0.537978
1962.21, 0.538117
1962.95, 0.538117
1963.7, 0.538117
1964.44, 0.537909
1965.18, 0.538117
1965.93, 0.537700
1966.67, 0.537352
1967.42, 0.537700
1968.17, 0.537630
1968.92, 0.537491
1969.66, 0.537978
1970.41, 0.537769
1971.16, 0.537491
1971.91, 0.537491
1972.66, 0.537143
1973.41, 0.537074
1974.16, 0.537769
1974.92, 0.537978
1975.67, 0.538465
1976.42, 0.537909
1977.18, 0.538187
1977.93, 0.538187
1978.69, 0.538396
1979.44, 0.538674
1980.2, 0.538813
1980.95, 0.538743
1981.71, 0.538674
1982.47, 0.538952
1983.23, 0.539439
1983.99, 0.538952
1984.74, 0.539022
1985.51, 0.538882
1986.27, 0.539787
1987.03, 0.539787
1987.79, 0.540274
1988.55, 0.540483
1989.32, 0.539509
1990.08, 0.538743
1990.84, 0.538813
1991.61, 0.538535
1992.37, 0.538743
1993.14, 0.538882
1993.9, 0.539230
1994.67, 0.539509
1995.44, 0.538535
1996.21, 0.538326
1996.98, 0.538743
1997.75, 0.538117
1998.52, 0.537630
1999.29, 0.538535
2000.06, 0.538604
2000.83, 0.537839
2001.6, 0.538117
2002.38, 0.538465
2003.15, 0.538882
2003.93, 0.538326
2004.7, 0.537213
2005.48, 0.538117
2006.25, 0.538465
2007.03, 0.537282
2007.81, 0.537213
2008.58, 0.537143
2009.36, 0.537004
2010.14, 0.537491
2010.92, 0.537909
2011.7, 0.537839
2012.48, 0.537700
2013.26, 0.537700
2014.05, 0.538326
2014.83, 0.537630
2015.61, 0.537769
2016.4, 0.537769
2017.18, 0.536726
2017.97, 0.536726
2018.75, 0.536448
2019.54, 0.535891
2020.32, 0.536726
2021.11, 0.537282
2021.9, 0.536935
2022.69, 0.536378
2023.48, 0.535682
2024.27, 0.535335
2025.06, 0.535682
2025.85, 0.535335
2026.64, 0.534917
2027.44, 0.534221
2028.23, 0.533456
2029.02, 0.532691
2029.82, 0.532273
2030.61, 0.532204
2031.41, 0.531926
2032.2, 0.531160
2033.0, 0.530186
2033.8, 0.529699
2034.6, 0.529560
2035.4, 0.529421
2036.2, 0.529352
2037.0, 0.528656
2037.8, 0.528238
2038.6, 0.526986
2039.4, 0.526499
2040.2, 0.526917
2041.01, 0.527195
2041.81, 0.525873
2042.61, 0.525177
2043.42, 0.524690
2044.22, 0.523716
2045.03, 0.522812
2045.84, 0.523299
2046.65, 0.523577
2047.46, 0.522882
2048.26, 0.522256
2049.07, 0.521769
2049.88, 0.521699
2050.69, 0.521908
2051.51, 0.521421
2052.32, 0.521003
2053.13, 0.520447
2053.94, 0.519264
2054.76, 0.518777
2055.57, 0.519055
2056.39, 0.519403
2057.2, 0.519542
2058.02, 0.518708
2058.84, 0.518568
2059.66, 0.517942
2060.48, 0.517247
2061.29, 0.516829
2062.11, 0.516620
2062.94, 0.516620
2063.76, 0.516760
2064.58, 0.516064
2065.4, 0.515159
2066.22, 0.515090
2067.05, 0.515020
2067.87, 0.514881
2068.7, 0.514742
2069.52, 0.514046
2070.35, 0.513907
2071.18, 0.513212
2072.0, 0.513142
2072.83, 0.513142
2073.66, 0.512516
2074.49, 0.511751
2075.32, 0.512098
2076.15, 0.512585
2076.98, 0.512585
2077.82, 0.511959
2078.65, 0.512238
2079.48, 0.512933
2080.32, 0.513142
2081.15, 0.512098
2081.99, 0.510916
2082.83, 0.510777
2083.66, 0.510777
2084.5, 0.510568
2085.34, 0.510637
2086.18, 0.510011
2087.02, 0.510429
2087.86, 0.510568
2088.7, 0.510429
2089.54, 0.510150
2090.39, 0.510985
2091.23, 0.511472
2092.07, 0.511055
2092.92, 0.511333
2093.76, 0.511542
2094.61, 0.511611
2095.45, 0.511890
2096.3, 0.510846
2097.15, 0.510777
2098.0, 0.510359
2098.85, 0.510081
2099.7, 0.509594
2100.55, 0.509524
2101.4, 0.510011
2102.25, 0.510359
2103.1, 0.509385
2103.96, 0.509385
2104.81, 0.510220
2105.67, 0.510081
2106.52, 0.508620
2107.38, 0.507368
2108.24, 0.506811
2109.09, 0.507368
2109.95, 0.507855
2110.81, 0.507716
2111.67, 0.507507
2112.53, 0.507159
2113.39, 0.506811
2114.25, 0.506602
2115.12, 0.505628
2115.98, 0.506046
2116.84, 0.506185
2117.71, 0.505489
2118.58, 0.504237
2119.44, 0.504307
2120.31, 0.503681
2121.18, 0.503959
2122.04, 0.503681
2122.91, 0.502846
2123.78, 0.502846
2124.65, 0.502428
2125.52, 0.502498
2126.4, 0.502220
2127.27, 0.500898
2128.14, 0.500898
2129.02, 0.500619
2129.89, 0.499854
2130.77, 0.498950
2131.64, 0.498672
2132.52, 0.498950
2133.4, 0.498532
2134.27, 0.497558
2135.15, 0.496098
2136.03, 0.495263
2136.91, 0.494915
2137.79, 0.495193
2138.68, 0.495611
2139.56, 0.494567
2140.44, 0.494428
2141.33, 0.494289
2142.21, 0.492828
2143.1, 0.491715
2143.99, 0.491228
2144.87, 0.490671
2145.76, 0.490462
2146.65, 0.489558
2147.54, 0.488097
2148.43, 0.487401
2149.32, 0.487471
2150.21, 0.486775
2151.1, 0.486567
2151.99, 0.485940
2152.89, 0.485036
2153.78, 0.484410
2154.68, 0.484549
2155.57, 0.483853
2156.47, 0.483088
2157.37, 0.482601
2158.27, 0.482601
2159.16, 0.482184
2160.06, 0.481210
2160.96, 0.480653
2161.86, 0.479331
2162.77, 0.478357
2163.67, 0.479262
2164.57, 0.480305
2165.48, 0.479540
2166.38, 0.478149
2167.29, 0.477175
2168.2, 0.476479
2169.1, 0.476409
2170.01, 0.475435
2170.92, 0.474809
2171.83, 0.474809
2172.74, 0.474601
2173.65, 0.474253
2174.56, 0.473835
2175.47, 0.473348
2176.39, 0.472514
2177.3, 0.471540
2178.22, 0.470705
2179.13, 0.470287
2180.05, 0.469522
2180.96, 0.468618
2181.88, 0.468061
2182.8, 0.467296
2183.72, 0.466322
2184.64, 0.465418
2185.56, 0.464444
2186.48, 0.463052
2187.41, 0.462148
2188.33, 0.461383
2189.25, 0.460687
2190.18, 0.459782
2191.1, 0.458948
2192.03, 0.457487
2192.96, 0.456791
2193.89, 0.455539
2194.82, 0.454773
2195.74, 0.454147
2196.68, 0.453660
2197.61, 0.452547
2198.54, 0.451504
2199.47, 0.450460
2200.4, 0.449486
2201.34, 0.448721
2202.28, 0.447677
2203.21, 0.446425
2204.15, 0.445451
2205.08, 0.444686
2206.02, 0.443503
2206.96, 0.442668
2207.9, 0.441973
2208.84, 0.440720
2209.78, 0.440233
2210.73, 0.439120
2211.67, 0.437938
2212.61, 0.436755
2213.56, 0.434946
2214.5, 0.432929
2215.45, 0.432303
2216.4, 0.431537
2217.35, 0.430146
2218.3, 0.428059
2219.24, 0.426737
2220.2, 0.426041
2221.15, 0.425624
2222.1, 0.424650
2223.05, 0.423676
2224.0, 0.422772
2224.96, 0.422076
2225.91, 0.421659
2226.87, 0.421102
2227.83, 0.420406
2228.79, 0.419850
2229.74, 0.419502
2230.7, 0.418319
2231.66, 0.417554
2232.63, 0.417206
2233.59, 0.416441
2234.55, 0.415815
2235.51, 0.415049
2236.48, 0.415536
2237.44, 0.415954
2238.41, 0.415467
2239.38, 0.415049
2240.34, 0.414910
2241.31, 0.414075
2242.28, 0.413588
2243.25, 0.413171
2244.22, 0.412754
2245.19, 0.411084
2246.17, 0.409484
2247.14, 0.407814
2248.12, 0.405936
2249.09, 0.403779
2250.07, 0.401692
2251.04, 0.399188
2252.02, 0.396266
2253.0, 0.392926
2253.98, 0.389726
2254.96, 0.385274
2255.94, 0.380474
2256.92, 0.376230
2257.91, 0.371569
2258.89, 0.366908
2259.88, 0.362525
2260.86, 0.358142
2261.85, 0.354524
2262.83, 0.351811
2263.82, 0.349028
2264.81, 0.347011
2265.8, 0.346733
2266.79, 0.346385
2267.78, 0.345828
2268.78, 0.345689
2269.77, 0.346872
2270.76, 0.347915
2271.76, 0.348680
2272.75, 0.350141
2273.75, 0.351811
2274.75, 0.353829
2275.75, 0.356055
2276.75, 0.358559
2277.75, 0.361551
2278.75, 0.365029
2279.75, 0.368438
2280.75, 0.372404
2281.76, 0.377830
2282.76, 0.382700
2283.77, 0.387222
2284.77, 0.392370
2285.78, 0.397796
2286.79, 0.402457
2287.8, 0.406840
2288.81, 0.411362
2289.82, 0.415884
2290.83, 0.420198
2291.84, 0.424441
2292.86, 0.427294
2293.87, 0.429589
2294.89, 0.431746
2295.91, 0.433207
2296.92, 0.433555
2297.94, 0.433624
2298.96, 0.433277
2299.98, 0.433346
2301.0, 0.433207
2302.02, 0.432998
2303.04, 0.431816
2304.07, 0.431816
2305.09, 0.433068
2306.12, 0.435016
2307.15, 0.437172
2308.17, 0.439399
2309.2, 0.442947
2310.23, 0.446843
2311.26, 0.449904
2312.29, 0.453730
2313.32, 0.457695
2314.35, 0.461313
2315.39, 0.463887
2316.42, 0.466739
2317.46, 0.469105
2318.5, 0.470844
2319.53, 0.472861
2320.57, 0.475088
2321.61, 0.476340
2322.65, 0.477801
2323.69, 0.479749
2324.73, 0.480653
2325.78, 0.481279
2326.82, 0.482671
2327.86, 0.483853
2328.91, 0.484132
2329.96, 0.484619
2331.01, 0.486219
2332.05, 0.487471
2333.1, 0.487332
2334.15, 0.487054
2335.21, 0.487540
2336.26, 0.488445
2337.31, 0.489071
2338.36, 0.489280
2339.42, 0.489349
2340.48, 0.488793
2341.53, 0.489419
2342.59, 0.489141
2343.65, 0.487888
2344.71, 0.487680
2345.77, 0.488167
2346.83, 0.487958
2347.9, 0.488236
2348.96, 0.487888
2350.02, 0.487610
2351.09, 0.486914
2352.16, 0.486219
2353.23, 0.484758
2354.29, 0.483853
2355.36, 0.483923
2356.43, 0.483506
2357.51, 0.482392
2358.58, 0.481210
2359.65, 0.480375
2360.73, 0.479749
2361.8, 0.478496
2362.88, 0.477383
2363.96, 0.475505
2365.03, 0.473766
2366.11, 0.472722
2367.19, 0.471748
2368.27, 0.470079
2369.36, 0.468618
2370.44, 0.467018
2371.53, 0.465070
2372.61, 0.463330
2373.7, 0.461730
2374.78, 0.459295
2375.87, 0.457278
2376.96, 0.455330
2378.05, 0.453382
2379.14, 0.451225
2380.24, 0.448930
2381.33, 0.446286
2382.42, 0.444477
2383.52, 0.442042
2384.61, 0.438703
2385.71, 0.435085
2386.81, 0.432163
2387.91, 0.428755
2389.01, 0.425902
2390.11, 0.423050
2391.22, 0.419850
2392.32, 0.416858
2393.42, 0.413936
2394.53, 0.410249
2395.64, 0.407397
2396.74, 0.404823
2397.85, 0.401762
2398.96, 0.399188
2400.07, 0.396753
2401.18, 0.393553
2402.3, 0.390839
2403.41, 0.388613
2404.52, 0.386596
2405.64, 0.384787
2406.76, 0.383048
2407.88, 0.381656
2408.99, 0.380265
2410.11, 0.378178
2411.23, 0.376995
2412.36, 0.376299
2413.48, 0.375047
2414.6, 0.374004
2415.73, 0.374004
2416.85, 0.373865
2417.98, 0.373308
2419.11, 0.372612
2420.24, 0.372334
2421.37, 0.372682
2422.5, 0.372960
2423.64, 0.372473
2424.77, 0.372612
2425.9, 0.372404
2427.04, 0.372543
2428.18, 0.372682
2429.31, 0.372543
2430.45, 0.372473
2431.59, 0.372751
2432.73, 0.372891
2433.88, 0.372682
2435.02, 0.372264
2436.16, 0.371917
2437.31, 0.371082
2438.45, 0.370177
2439.6, 0.368925
2440.75, 0.367534
2441.9, 0.366003
2443.05, 0.364194
2444.2, 0.362246
2445.35, 0.360299
2446.51, 0.357933
2447.67, 0.355637
2448.82, 0.353202
2449.98, 0.350698
2451.14, 0.347776
2452.3, 0.345272
2453.46, 0.343185
2454.62, 0.340750
2455.78, 0.338593
2456.94, 0.336993
2458.11, 0.335462
2459.28, 0.334488
2460.44, 0.333723
2461.61, 0.333584
2462.78, 0.333375
2463.95, 0.333375
2465.12, 0.333793
2466.3, 0.334488
2467.47, 0.335393
2468.65, 0.335949
2469.82, 0.336575
2471.0, 0.337480
2472.18, 0.338454
2473.36, 0.339497
2474.54, 0.340263
2475.72, 0.341167
2476.9, 0.341654
2478.08, 0.342211
2479.27, 0.342489
2480.46, 0.342976
2481.64, 0.343393
2482.83, 0.343602
2484.02, 0.343532
2485.21, 0.343602
2486.4, 0.343463
2487.6, 0.342976
2488.79, 0.342419
2489.99, 0.341863
2491.18, 0.341167
2492.38, 0.340123
2493.58, 0.338732
2494.78, 0.337271
2495.98, 0.335323
2497.18, 0.333306
2498.39, 0.330801
2499.59, 0.327879
2500.8, 0.324123
2502.01, 0.320366
2503.21, 0.317166
2504.42, 0.313409
2505.63, 0.309235
2506.84, 0.304991
2508.06, 0.300608
2509.27, 0.296852
2510.49, 0.293721
2511.7, 0.291077
2512.92, 0.288503
2514.14, 0.286555
2515.36, 0.285720
2516.58, 0.285929
2517.8, 0.286834
2519.03, 0.288225
2520.25, 0.290312
2521.48, 0.292608
2522.7, 0.294417
2523.93, 0.296643
2525.16, 0.298869
2526.39, 0.301443
2527.62, 0.303669
2528.86, 0.305409
2530.09, 0.307078
2531.33, 0.308678
2532.56, 0.310000
2533.8, 0.311183
2535.04, 0.311809
2536.28, 0.312574
2537.52, 0.313409
2538.76, 0.313966
2540.01, 0.314313
2541.25, 0.314731
2542.5, 0.315148
2543.75, 0.315705
2544.99, 0.316053
2546.24, 0.316470
2547.49, 0.316679
2548.75, 0.316887
2550.0, 0.317096
2551.26, 0.317514
2552.51, 0.317514
2553.77, 0.317792
2555.03, 0.318000
2556.29, 0.317931
2557.55, 0.317514
2558.81, 0.316957
2560.08, 0.315357
2561.34, 0.314174
2562.61, 0.313409
2563.88, 0.312365
2565.14, 0.312018
2566.41, 0.311322
2567.68, 0.309374
2568.96, 0.307496
2570.23, 0.306382
2571.51, 0.304852
2572.78, 0.301652
2574.06, 0.299843
2575.34, 0.298243
2576.62, 0.296086
2577.9, 0.294486
2579.18, 0.292399
2580.47, 0.289338
2581.75, 0.286694
2583.04, 0.283285
2584.32, 0.280920
2585.61, 0.278903
2586.9, 0.275563
2588.2, 0.272781
2589.49, 0.270554
2590.78, 0.268189
2592.08, 0.265406
2593.37, 0.260397
2594.67, 0.256014
2595.97, 0.255180
2597.27, 0.254275
2598.57, 0.251840
2599.88, 0.248710
2601.18, 0.245370
2602.49, 0.242101
2603.79, 0.238831
2605.1, 0.235631
2606.41, 0.233822
2607.72, 0.232430
2609.03, 0.230552
2610.35, 0.229369
2611.66, 0.228535
2612.98, 0.227422
2614.3, 0.226726
2615.62, 0.225543
2616.94, 0.224987
2618.26, 0.225334
2619.58, 0.224360
2620.91, 0.224847
2622.23, 0.226100
2623.56, 0.226100
2624.89, 0.225821
2626.22, 0.226030
2627.55, 0.227561
2628.88, 0.228187
2630.21, 0.228674
2631.55, 0.231317
2632.89, 0.233683
2634.22, 0.235909
2635.56, 0.238761
2636.9, 0.241544
2638.25, 0.244466
2639.59, 0.247597
2640.93, 0.250518
2642.28, 0.253510
2643.63, 0.256641
2644.98, 0.258797
2646.33, 0.261232
2647.68, 0.263667
2649.03, 0.265893
2650.39, 0.268050
2651.74, 0.269789
2653.1, 0.271946
2654.46, 0.274033
2655.82, 0.275981
2657.18, 0.277859
2658.54, 0.279042
2659.9, 0.280364
2661.27, 0.282033
2662.64, 0.283703
2664.01, 0.283703
2665.38, 0.284190
2666.74, 0.286207
2668.12, 0.288781
2669.49, 0.288712
2670.87, 0.290521
2672.24, 0.294695
2673.62, 0.296156
2675.0, 0.296573
2676.38, 0.297338
2677.76, 0.299008
2679.15, 0.300469
2680.54, 0.302904
2681.92, 0.304504
2683.31, 0.305965
2684.7, 0.307983
2686.09, 0.310139
2687.48, 0.312505
2688.88, 0.315357
2690.27, 0.317583
2691.67, 0.318835
2693.07, 0.318974
2694.47, 0.319948
2695.87, 0.321270
2697.27, 0.321757
2698.67, 0.320853
2700.08, 0.318835
2701.49, 0.316400
2702.9, 0.313966
2704.31, 0.311113
2705.72, 0.308539
2707.13, 0.305756
2708.54, 0.302487
2709.96, 0.298799
2711.38, 0.296434
2712.8, 0.295182
2714.22, 0.292399
2715.64, 0.288990
2717.06, 0.284886
2718.49, 0.279946
2719.91, 0.274242
2721.34, 0.270902
2722.77, 0.267285
2724.2, 0.262623
2725.63, 0.259702
2727.07, 0.256849
2728.5, 0.253371
2729.94, 0.249614
2731.38, 0.246066
2732.82, 0.242170
2734.26, 0.237926
2735.7, 0.234309
2737.15, 0.231039
2738.59, 0.226865
2740.04, 0.222969
2741.49, 0.220117
2742.94, 0.217195
2744.39, 0.213647
2745.84, 0.209890
2747.3, 0.206133
2748.76, 0.202098
2750.21, 0.197855
2751.67, 0.193680
2753.14, 0.189228
2754.6, 0.184010
2756.06, 0.179767
2757.53, 0.176288
2759.0, 0.171766
2760.46, 0.166827
2761.94, 0.161957
2763.41, 0.157922
2764.88, 0.153957
2766.36, 0.149504
2767.83, 0.144982
2769.31, 0.140669
2770.79, 0.136286
2772.27, 0.132529
2773.76, 0.128703
2775.24, 0.125016
2776.73, 0.121468
2778.22, 0.118128
2779.71, 0.114928
2781.2, 0.111937
2782.69, 0.108737
2784.18, 0.105606
2785.68, 0.102406
2787.18, 0.0994140
2788.68, 0.0968400
2790.18, 0.0946840
2791.68, 0.0927360
2793.19, 0.0911360
2794.69, 0.0896050
2796.2, 0.0884920
2797.71, 0.0875180
2799.22, 0.0863350
2800.73, 0.0852920
2802.24, 0.0845270
2803.76, 0.0836920
2805.28, 0.0829960
2806.8, 0.0823700
2808.32, 0.0815350
2809.84, 0.0803520
2811.36, 0.0791700
2812.89, 0.0777780
2814.42, 0.0761780
2815.94, 0.0744390
2817.48, 0.0727690
2819.01, 0.0710300
2820.54, 0.0691520
2822.08, 0.0669950
2823.61, 0.0647690
2825.15, 0.0624040
2826.69, 0.0601080
2828.23, 0.0577420
2829.78, 0.0555160
2831.32, 0.0530810
2832.87, 0.0505770
2834.42, 0.0482110
2835.97, 0.0460550
2837.52, 0.0440370
2839.08, 0.0422980
2840.63, 0.0408370
2842.19, 0.0393760
2843.75, 0.0382630
2845.31, 0.0374280
2846.87, 0.0363150
2848.44, 0.0354110
2850.0, 0.0345760
2851.57, 0.0335320
2853.14, 0.0328370
2854.71, 0.0322110
2856.28, 0.0311670
2857.86, 0.0304710
2859.43, 0.0299150
2861.01, 0.0292190
2862.59, 0.0284540
2864.17, 0.0278280
2865.76, 0.0270620
2867.34, 0.0263670
2868.93, 0.0256710
2870.52, 0.0246970
2872.11, 0.0237230
2873.7, 0.0229580
2875.29, 0.0223320
2876.89, 0.0216360
2878.49, 0.0208710
2880.08, 0.0203140
2881.69, 0.0198270
2883.29, 0.0191320
2884.89, 0.0185050
2886.5, 0.0180880
2888.11, 0.0178100
2889.72, 0.0174620
2891.33, 0.0170440
2892.94, 0.0166270
2894.56, 0.0163490
2896.17, 0.0160700
2897.79, 0.0155830
2899.42, 0.0153750
2901.04, 0.0152360
2902.66, 0.0151660
2904.29, 0.0149570
2905.92, 0.0148180
2907.55, 0.0147490
2909.18, 0.0146790
2910.81, 0.0144700
2912.45, 0.0142620
2914.08, 0.0141920
2915.72, 0.0140530
2917.36, 0.0139140
2919.01, 0.0138440
2920.65, 0.0137750
2922.3, 0.0136360
2923.94, 0.0136360
2925.59, 0.0136360
2927.25, 0.0134270
2928.9, 0.0134270
2930.56, 0.0134960
2932.21, 0.0135660
2933.87, 0.0132880
2935.53, 0.0130790
2937.2, 0.0130090
2938.86, 0.0130790
2940.53, 0.0132180
2942.2, 0.0135660
2943.87, 0.0139140
2945.54, 0.0141920
2947.22, 0.0145400
2948.89, 0.0148180
2950.57, 0.0150270
2952.25, 0.0150970
2953.93, 0.0149570
2955.62, 0.0148880
2957.3, 0.0148180
2958.99, 0.0146790
2960.68, 0.0146790
2962.37, 0.0152360
2964.07, 0.0162100
2965.76, 0.0176710
2967.46, 0.0193400
2969.16, 0.0213580
2970.86, 0.0236540
2972.56, 0.0257410
2974.27, 0.0273410
2975.98, 0.0285230
2977.69, 0.0292890
2979.4, 0.0295670
2981.11, 0.0295670
2982.83, 0.0292890
2984.54, 0.0286620
2986.26, 0.0278970
2987.98, 0.0272710
2989.71, 0.0267840
2991.43, 0.0261580
2993.16, 0.0256710
2994.89, 0.0253230
2996.62, 0.0249750
2998.35, 0.0244880
3000.09, 0.0242100
3001.83, 0.0239320
3003.57, 0.0235140
3005.31, 0.0232360
3007.05, 0.0231670
3008.79, 0.0230270
3010.54, 0.0228880
3012.29, 0.0227490
3014.04, 0.0226100
3015.8, 0.0224010
3017.55, 0.0223320
3019.31, 0.0222620
3021.07, 0.0221230
3022.83, 0.0221230
3024.59, 0.0222620
3026.36, 0.0222620
3028.13, 0.0223320
3029.9, 0.0222620
3031.67, 0.0222620
3033.44, 0.0222620
3035.22, 0.0221930
3037.0, 0.0222620
3038.78, 0.0223320
3040.56, 0.0222620
3042.34, 0.0224010
3044.13, 0.0226100
3045.92, 0.0228190
3047.71, 0.0230970
3049.5, 0.0230970
3051.3, 0.0229580
3053.09, 0.0229580
3054.89, 0.0231670
3056.69, 0.0233750
3058.5, 0.0235840
3060.3, 0.0236540
3062.11, 0.0237230
3063.92, 0.0240010
3065.73, 0.0243490
3067.55, 0.0245580
3069.36, 0.0248360
3071.18, 0.0251840
3073.0, 0.0254620
3074.82, 0.0258100
3076.65, 0.0259490
3078.48, 0.0262280
3080.31, 0.0265750
3082.14, 0.0269230
3083.97, 0.0271320
3085.8, 0.0273410
3087.64, 0.0276890
3089.48, 0.0278970
3091.33, 0.0280360
3093.17, 0.0282450
3095.02, 0.0285930
3096.87, 0.0287320
3098.72, 0.0290100
3100.57, 0.0292890
3102.43, 0.0293580
3104.28, 0.0295670
3106.14, 0.0296360
3108.01, 0.0297060
3109.87, 0.0299150
3111.74, 0.0301930
3113.61, 0.0304710
3115.48, 0.0304710
3117.35, 0.0305410
3119.23, 0.0308890
3121.1, 0.0311670
3122.98, 0.0313760
3124.87, 0.0315840
3126.75, 0.0317930
3128.64, 0.0321410
3130.53, 0.0324890
3132.42, 0.0329060
3134.31, 0.0336020
3136.21, 0.0343670
3138.11, 0.0348540
3140.01, 0.0353410
3141.91, 0.0357590
3143.82, 0.0363150
3145.73, 0.0370110
3147.64, 0.0376370
3149.55, 0.0381240
3151.46, 0.0384020
3153.38, 0.0387500
3155.3, 0.0390980
3157.22, 0.0391670
3159.14, 0.0392370
3161.07, 0.0395150
3163.0, 0.0396540
3164.93, 0.0395850
3166.86, 0.0397240
3168.8, 0.0397240
3170.74, 0.0398630
3172.68, 0.0398630
3174.62, 0.0399330
3176.56, 0.0399330
3178.51, 0.0400020
3180.46, 0.0402810
3182.42, 0.0404890
3184.37, 0.0406980
3186.33, 0.0406980
3188.29, 0.0411150
3190.25, 0.0415330
3192.21, 0.0422980
3194.18, 0.0429940
3196.15, 0.0434810
3198.12, 0.0441760
3200.09, 0.0448720
3202.07, 0.0456370
3204.05, 0.0465420
3206.03, 0.0475850
3208.02, 0.0485590
3210.0, 0.0494640
3211.99, 0.0503680
3213.98, 0.0514120
3215.98, 0.0525250
3217.97, 0.0536380
3219.97, 0.0548200
3221.97, 0.0560030
3223.98, 0.0573950
3225.98, 0.0587860
3227.99, 0.0601770
3230.0, 0.0614990
3232.02, 0.0629600
3234.03, 0.0642120
3236.05, 0.0653250
3238.07, 0.0664390
3240.1, 0.0676210
3242.12, 0.0686650
3244.15, 0.0695000
3246.18, 0.0704040
3248.22, 0.0713080
3250.25, 0.0721430
3252.29, 0.0729780
3254.33, 0.0738820
3256.38, 0.0747170
3258.43, 0.0752740
3260.47, 0.0759690
3262.53, 0.0768040
3264.58, 0.0778480
3266.64, 0.0786830
3268.7, 0.0797260
3270.76, 0.0807700
3272.82, 0.0818130
3274.89, 0.0828570
3276.96, 0.0839700
3279.04, 0.0852920
3281.11, 0.0865440
3283.19, 0.0877960
3285.27, 0.0891880
3287.35, 0.0907180
3289.44, 0.0923180
3291.53, 0.0939180
3293.62, 0.0955880
3295.71, 0.0974660
3297.81, 0.0994840
3299.91, 0.101501
3302.01, 0.103658
3304.11, 0.105676
3306.22, 0.107623
3308.33, 0.109571
3310.44, 0.111589
3312.56, 0.113328
3314.68, 0.115206
3316.8, 0.116946
3318.92, 0.118685
3321.05, 0.120215
3323.18, 0.121607
3325.31, 0.123137
3327.44, 0.124529
3329.58, 0.125920
3331.72, 0.127242
3333.86, 0.128425
3336.01, 0.129677
3338.16, 0.130860
3340.31, 0.132042
3342.46, 0.133155
3344.61, 0.134408
3346.77, 0.135729
3348.94, 0.137121
3351.1, 0.138443
3353.27, 0.139973
3355.44, 0.141364
3357.61, 0.142617
3359.79, 0.143939
3361.97, 0.145330
3364.15, 0.146513
3366.33, 0.147765
3368.52, 0.149087
3370.71, 0.150269
3372.9, 0.151522
3375.1, 0.152774
3377.3, 0.154026
3379.5, 0.155278
3381.71, 0.156531
3383.91, 0.157852
3386.12, 0.159174
3388.34, 0.160426
3390.55, 0.161470
3392.77, 0.162444
3394.99, 0.163487
3397.22, 0.164461
3399.45, 0.165227
3401.68, 0.165783
3403.91, 0.166340
3406.15, 0.166896
3408.39, 0.167383
3410.63, 0.167940
3412.87, 0.168566
3415.12, 0.169192
3417.37, 0.169957
3419.63, 0.171001
3421.88, 0.172114
3424.14, 0.173297
3426.41, 0.174549
3428.67, 0.176079
3430.94, 0.177540
3433.21, 0.179001
3435.49, 0.180323
3437.77, 0.181784
3440.05, 0.183106
3442.33, 0.184358
3444.62, 0.185541
3446.91, 0.186793
3449.2, 0.187976
3451.5, 0.189158
3453.8, 0.190272
3456.1, 0.191593
3458.41, 0.193124
3460.72, 0.194515
3463.03, 0.195907
3465.34, 0.197368
3467.66, 0.198829
3469.98, 0.200220
3472.31, 0.201750
3474.63, 0.203072
3476.96, 0.204464
3479.3, 0.205855
3481.64, 0.207246
3483.97, 0.208568
3486.32, 0.209751
3488.66, 0.211003
3491.01, 0.212325
3493.36, 0.213438
3495.72, 0.214273
3498.08, 0.215386
3500.44, 0.216569
3502.81, 0.217682
3505.18, 0.218865
3507.55, 0.220395
3509.92, 0.221995
3512.3, 0.223456
3514.68, 0.224987
3517.06, 0.226517
3519.45, 0.228117
3521.84, 0.229578
3524.24, 0.230622
3526.64, 0.231735
3529.04, 0.232709
3531.44, 0.233822
3533.85, 0.234796
3536.26, 0.235839
3538.67, 0.236674
3541.09, 0.237579
3543.51, 0.238761
3545.93, 0.239944
3548.36, 0.240918
3550.79, 0.241892
3553.22, 0.242866
3555.66, 0.243840
3558.1, 0.244883
3560.54, 0.245927
3562.99, 0.246970
3565.44, 0.248153
3567.9, 0.249197
3570.35, 0.250379
3572.81, 0.251562
3575.28, 0.252675
3577.75, 0.253788
3580.22, 0.255040
3582.69, 0.256154
3585.17, 0.257336
3587.65, 0.258519
3590.14, 0.259841
3592.62, 0.261023
3595.11, 0.262136
3597.61, 0.263250
3600.11, 0.264571
3602.61, 0.265963
3605.11, 0.267145
3607.62, 0.268189
3610.14, 0.269372
3612.65, 0.270485
3615.17, 0.271528
3617.69, 0.272502
3620.22, 0.273476
3622.75, 0.274450
3625.28, 0.275494
3627.82, 0.276398
3630.36, 0.277372
3632.9, 0.278277
3635.45, 0.279111
3638.0, 0.279946
3640.56, 0.280920
3643.12, 0.281755
3645.68, 0.282659
3648.24, 0.283703
3650.81, 0.284886
3653.39, 0.285929
3655.96, 0.287042
3658.54, 0.288294
3661.13, 0.289616
3663.71, 0.290938
3666.3, 0.292260
3668.9, 0.293582
3671.5, 0.294904
3674.1, 0.296156
3676.7, 0.297547
3679.31, 0.298939
3681.93, 0.300260
3684.54, 0.301304
3687.17, 0.302487
3689.79, 0.303600
3692.42, 0.304713
3695.05, 0.305826
3697.69, 0.306869
3700.32, 0.307774
3702.97, 0.308817
3705.61, 0.309791
3708.27, 0.310557
3710.92, 0.311391
3713.58, 0.312226
3716.24, 0.313061
3718.91, 0.313896
3721.58, 0.314592
3724.25, 0.315426
3726.93, 0.316331
3729.61, 0.317096
3732.29, 0.317861
3734.98, 0.318627
3737.67, 0.319392
3740.37, 0.320157
3743.07, 0.320922
3745.78, 0.321618
3748.49, 0.322175
3751.2, 0.322940
3753.91, 0.323705
3756.63, 0.324470
3759.36, 0.325305
3762.09, 0.326071
3764.82, 0.326697
3767.55, 0.327184
3770.29, 0.327740
3773.04, 0.328227
3775.78, 0.328714
3778.54, 0.329271
3781.29, 0.329758
3784.05, 0.330523
3786.82, 0.331010
3789.59, 0.331497
3792.36, 0.332193
3795.13, 0.333027
3797.92, 0.333723
3800.7, 0.334280
3803.49, 0.334767
3806.28, 0.335323
3809.08, 0.335949
3811.88, 0.336436
3814.68, 0.336993
3817.49, 0.337689
3820.31, 0.338176
3823.12, 0.338871
3825.94, 0.339497
3828.77, 0.339984
3831.6, 0.340471
3834.43, 0.341028
3837.27, 0.341584
3840.11, 0.342141
3842.96, 0.342558
3845.81, 0.343185
3848.67, 0.343741
3851.53, 0.344228
3854.39, 0.344715
3857.26, 0.345272
3860.13, 0.345759
3863.01, 0.346246
3865.89, 0.346733
3868.77, 0.347359
3871.66, 0.347707
3874.55, 0.348333
3877.45, 0.349028
3880.35, 0.349585
3883.26, 0.349933
3886.17, 0.350350
3889.09, 0.350907
3892.01, 0.351533
3894.93, 0.352020
3897.86, 0.352507
3900.79, 0.352994
3903.73, 0.353481
3906.67, 0.353898
3909.62, 0.354455
3912.57, 0.355081
3915.52, 0.355568
3918.48, 0.355985
3921.45, 0.356333
3924.42, 0.356681
3927.39, 0.357168
3930.37, 0.357585
3933.35, 0.358003
3936.34, 0.358211
3939.33, 0.358281
3942.32, 0.358420
3945.32, 0.358559
3948.33, 0.358559
3951.34, 0.358351
3954.35, 0.358072
3957.37, 0.357933
3960.39, 0.357585
3963.42, 0.357098
3966.45, 0.356472
3969.49, 0.355985
3972.53, 0.355290
3975.58, 0.354385
3978.63, 0.353411
3981.68, 0.352229
3984.75, 0.350628
3987.81, 0.348472
3990.88, 0.345550
3993.95, 0.342211
3997.03, 0.338941
4000.12, 0.336993
4003.21, 0.337480
4006.3, 0.340402
4009.4, 0.344367
4012.5, 0.347915
4015.61, 0.350281
4018.72, 0.351811
4021.84, 0.352855
4024.96, 0.353481
4028.09, 0.353829
4031.22, 0.354176
4034.36, 0.354176
4037.5, 0.354037
4040.65, 0.353898
4043.8, 0.353759
4046.96, 0.353411
4050.12, 0.353063
4053.29, 0.352576
4056.46, 0.352229
4059.64, 0.351811
4062.82, 0.351324
4066.0, 0.350837
4069.19, 0.350420
4072.39, 0.349794
4075.59, 0.349446
4078.8, 0.349098
4082.01, 0.348611
4085.23, 0.348194
4088.45, 0.347846
4091.68, 0.347289
4094.91, 0.346941
4098.15, 0.346454
4101.39, 0.345898
4104.63, 0.345411
4107.89, 0.345132
4111.14, 0.344854
4114.41, 0.344367
4117.67, 0.343880
4120.95, 0.343254
4124.23, 0.342628
4127.51, 0.342141
4130.8, 0.341515
4134.09, 0.340889
4137.39, 0.340123
4140.7, 0.339428
4144.01, 0.338523
4147.32, 0.337689
4150.64, 0.336715
4153.97, 0.335949
4157.3, 0.334906
4160.64, 0.333793
4163.98, 0.332610
4167.33, 0.331427
4170.68, 0.330175
4174.04, 0.328992
4177.4, 0.327531
4180.77, 0.326071
4184.14, 0.324679
4187.52, 0.323427
4190.91, 0.321966
4194.3, 0.320366
4197.69, 0.318696
4201.1, 0.317096
4204.5, 0.315426
4207.92, 0.313548
4211.34, 0.311600
4214.76, 0.309861
4218.19, 0.307913
4221.62, 0.305826
4225.06, 0.303948
4228.51, 0.302000
4231.96, 0.299843
4235.42, 0.297825
4238.88, 0.295878
4242.35, 0.293999
4245.83, 0.292051
4249.31, 0.290173
4252.79, 0.288155
4256.28, 0.286138
4259.78, 0.283981
4263.29, 0.281755
4266.79, 0.279668
4270.31, 0.277650
4273.83, 0.275702
4277.35, 0.273894
4280.89, 0.272085
4284.42, 0.270485
4287.97, 0.269093
4291.52, 0.267841
4295.07, 0.266728
4298.63, 0.265963
4302.2, 0.265267
4305.78, 0.264780
4309.35, 0.264571
4312.94, 0.264711
4316.53, 0.264989
4320.13, 0.265198
4323.73, 0.265476
4327.34, 0.265963
4330.96, 0.266380
4334.58, 0.266728
4338.21, 0.266937
4341.84, 0.267006
4345.48, 0.266728
4349.12, 0.266241
4352.77, 0.265615
4356.43, 0.265058
4360.1, 0.264293
4363.76, 0.263389
4367.44, 0.262345
4371.12, 0.261302
4374.81, 0.260258
4378.51, 0.259145
4382.21, 0.257893
4385.92, 0.256710
4389.63, 0.255597
4393.35, 0.254484
4397.08, 0.253232
4400.81, 0.251910
4404.55, 0.250518
4408.29, 0.249197
4412.04, 0.247875
4415.8, 0.246483
4419.57, 0.244953
4423.34, 0.243422
4427.12, 0.241753
4430.9, 0.239944
4434.69, 0.237926
4438.49, 0.235631
4442.29, 0.232987
4446.1, 0.229717
4449.92, 0.226169
4453.74, 0.222273
4457.57, 0.218378
4461.41, 0.214899
4465.25, 0.212116
4469.1, 0.209960
4472.95, 0.208290
4476.82, 0.206829
4480.69, 0.205438
4484.56, 0.204046
4488.44, 0.202655
4492.33, 0.201055
4496.23, 0.199037
4500.13, 0.196811
4504.04, 0.194098
4507.96, 0.191106
4511.88, 0.187837
4515.81, 0.184150
4519.75, 0.179906
4523.69, 0.175523
4527.65, 0.170862
4531.6, 0.166062
4535.57, 0.161400
4539.54, 0.157087
4543.52, 0.153400
4547.5, 0.150548
4551.5, 0.148600
4555.5, 0.147626
4559.5, 0.147904
4563.52, 0.149156
4567.54, 0.151243
4571.56, 0.153609
4575.6, 0.155765
4579.64, 0.157365
4583.69, 0.158339
4587.75, 0.158687
4591.81, 0.158687
4595.88, 0.158270
4599.96, 0.157505
4604.04, 0.156670
4608.14, 0.155487
4612.24, 0.154304
4616.34, 0.152983
4620.46, 0.151800
4624.58, 0.151174
4628.71, 0.150826
4632.84, 0.150478
4636.99, 0.150408
4641.14, 0.150478
4645.3, 0.150408
4649.47, 0.150130
4653.64, 0.149643
4657.82, 0.148600
4662.01, 0.146930
4666.21, 0.144704
4670.41, 0.141921
4674.62, 0.138721
4678.84, 0.135312
4683.07, 0.131834
4687.3, 0.128633
4691.54, 0.125920
4695.79, 0.123555
4700.05, 0.121398
4704.31, 0.119311
4708.59, 0.117572
4712.87, 0.116528
4717.15, 0.115972
4721.45, 0.116320
4725.76, 0.117502
4730.07, 0.119311
4734.39, 0.121120
4738.72, 0.122442
4743.05, 0.122790
4747.39, 0.122024
4751.75, 0.120355
4756.1, 0.118128
4760.47, 0.115346
4764.85, 0.112215
4769.23, 0.108876
4773.62, 0.105536
4778.02, 0.102545
4782.43, 0.100180
4786.85, 0.0991360
4791.27, 0.0992750
4795.7, 0.100249
4800.14, 0.101432
4804.59, 0.102197
4809.05, 0.102127
4813.51, 0.101014
4817.99, 0.0986490
4822.47, 0.0956580
4826.96, 0.0923880
4831.46, 0.0886310
4835.96, 0.0848740
4840.48, 0.0810480
4845.0, 0.0772910
4849.54, 0.0738820
4854.08, 0.0706130
4858.63, 0.0674120
4863.18, 0.0642120
4867.75, 0.0609430
4872.33, 0.0578120
4876.91, 0.0548900
4881.5, 0.0521770
4886.1, 0.0502290
4890.71, 0.0493250
4895.33, 0.0497420
4899.96, 0.0516900
4904.59, 0.0551680
4909.24, 0.0601080
4913.89, 0.0661600
4918.55, 0.0729080
4923.22, 0.0796570
4927.9, 0.0859180
4932.59, 0.0914830
4937.29, 0.0960750
4942.0, 0.0994840
4946.71, 0.101710
4951.44, 0.102545
4956.17, 0.102058
4960.91, 0.100875
4965.67, 0.0994140
4970.43, 0.0975360
4975.2, 0.0950310
4979.98, 0.0916230
4984.76, 0.0873090
4989.56, 0.0824390
4994.37, 0.0770130
4999.18, 0.0715170
5004.01, 0.0660910
5008.84, 0.0609430
5013.69, 0.0568380
5018.54, 0.0537770
5023.4, 0.0519680
5028.28, 0.0516200
5033.16, 0.0528730
5038.05, 0.0555860
5042.95, 0.0596900
5047.86, 0.0652560
5052.78, 0.0719340
5057.71, 0.0793780
5062.65, 0.0874480
5067.6, 0.0958660
5072.56, 0.104354
5077.53, 0.112772
5082.5, 0.121050
5087.49, 0.129190
5092.49, 0.137469
5097.5, 0.145886
5102.51, 0.154374
5107.54, 0.162861
5112.58, 0.171349
5117.62, 0.179558
5122.68, 0.187489
5127.75, 0.195072
5132.82, 0.202307
5137.91, 0.209194
5143.01, 0.215664
5148.12, 0.221786
5153.23, 0.227700
5158.36, 0.233196
5163.5, 0.238274
5168.65, 0.243075
5173.81, 0.247666
5178.98, 0.252049
5184.15, 0.256223
5189.34, 0.259980
5194.54, 0.263458
5199.75, 0.266798
5204.98, 0.270067
5210.21, 0.272781
5215.45, 0.275355
5220.7, 0.277929
5225.96, 0.279877
5231.23, 0.281616
5236.52, 0.283146
5241.81, 0.284607
5247.12, 0.285860
5252.44, 0.286834
5257.76, 0.287738
5263.1, 0.288503
5268.45, 0.289129
5273.81, 0.289547
5279.18, 0.290034
5284.56, 0.290451
5289.95, 0.290660
5295.36, 0.291077
5300.77, 0.291356
5306.2, 0.291634
5311.63, 0.292051
5317.08, 0.292330
5322.54, 0.292608
5328.01, 0.292747
5333.49, 0.292816
5338.98, 0.292608
5344.49, 0.292330
5350.0, 0.292190
5355.53, 0.292677
5361.07, 0.293164
5366.62, 0.293721
5372.18, 0.294347
5377.75, 0.294973
5383.34, 0.295738
5388.93, 0.296782
5394.54, 0.297825
5400.16, 0.298869
5405.79, 0.299913
5411.44, 0.300608
5417.09, 0.300817
5422.76, 0.301026
5428.43, 0.302208
5434.12, 0.302765
5439.83, 0.302695
5445.54, 0.302347
5451.26, 0.301930
5457.0, 0.301165
5462.75, 0.299913
5468.52, 0.299078
5474.29, 0.298034
5480.08, 0.296782
5485.88, 0.295738
5491.69, 0.294347
5497.51, 0.292747
5503.35, 0.291216
5509.2, 0.289616
5515.06, 0.287668
5520.93, 0.285720
5526.82, 0.284051
5532.71, 0.282451
5538.63, 0.280642
5544.55, 0.278624
5550.49, 0.276398
5556.44, 0.274520
5562.4, 0.273128
5568.37, 0.271667
5574.36, 0.269859
5580.36, 0.268606
5586.37, 0.268467
5592.4, 0.268328
5598.44, 0.267702
5604.49, 0.267354
5610.56, 0.267076
5616.63, 0.266867
5622.73, 0.266937
5628.83, 0.266937
5634.95, 0.266311
5641.08, 0.265754
5647.23, 0.266728
5653.39, 0.267215
5659.56, 0.267493
5665.74, 0.267632
5671.94, 0.266728
5678.15, 0.266241
5684.38, 0.265824
5690.62, 0.264780
5696.87, 0.264293
5703.14, 0.263389
5709.42, 0.262206
5715.72, 0.262206
5722.03, 0.262276
5728.35, 0.262067
5734.69, 0.261719
5741.03, 0.261023
5747.4, 0.260258
5753.78, 0.260119
5760.17, 0.258449
5766.58, 0.256501
5773.0, 0.257058
5779.44, 0.256780
5785.88, 0.255667
5792.35, 0.254136
5798.83, 0.252119
5805.32, 0.250240
5811.83, 0.247875
5818.35, 0.244536
5824.89, 0.242727
5831.45, 0.242448
5838.01, 0.242101
5844.59, 0.241961
5851.19, 0.242101
5857.8, 0.242518
5864.43, 0.243214
5871.07, 0.243562
5877.73, 0.241961
5884.4, 0.242031
5891.09, 0.241822
5897.79, 0.240640
5904.5, 0.241127
5911.23, 0.240083
5917.98, 0.238135
5924.75, 0.235839
5931.53, 0.232013
5938.32, 0.229300
5945.13, 0.228882
5951.96, 0.227074
5958.8, 0.224569
5965.65, 0.221230
5972.53, 0.218725
5979.42, 0.216290
5986.32, 0.213090
5993.24, 0.210725
6000.18, 0.208986
6007.13, 0.206412
6014.1, 0.203838
6021.08, 0.202029
6028.09, 0.200429
6035.1, 0.198272
6042.14, 0.194376
6049.19, 0.190550
6056.25, 0.189854
6063.34, 0.187489
6070.44, 0.182549
6077.55, 0.178167
6084.69, 0.174619
6091.84, 0.170931
6099.0, 0.167731
6106.19, 0.165227
6113.39, 0.164809
6120.61, 0.167801
6127.84, 0.172114
6135.09, 0.176427
6142.36, 0.180323
6149.65, 0.183245
6156.95, 0.185193
6164.27, 0.186932
6171.61, 0.188324
6178.97, 0.188254
6186.34, 0.188393
6193.73, 0.189715
6201.14, 0.190202
6208.57, 0.189924
6216.01, 0.189715
6223.47, 0.189437
6230.95, 0.188950
6238.45, 0.188045
6245.97, 0.187071
6253.5, 0.185958
6261.06, 0.184776
6268.63, 0.183454
6276.21, 0.181993
6283.82, 0.180601
6291.45, 0.179419
6299.1, 0.178584
6306.76, 0.177819
6314.44, 0.177471
6322.14, 0.177471
6329.86, 0.177680
6337.6, 0.177332
6345.35, 0.177610
6353.13, 0.179767
6360.92, 0.180880
6368.74, 0.181228
6376.57, 0.182062
6384.43, 0.182689
6392.3, 0.182897
6400.19, 0.182271
6408.1, 0.180045
6416.03, 0.179210
6423.98, 0.180254
6431.95, 0.180393
6439.94, 0.180254
6447.95, 0.179975
6455.98, 0.179906
6464.03, 0.179836
6472.1, 0.179280
6480.19, 0.178723
6488.31, 0.177888
6496.44, 0.178236
6504.59, 0.180115
6512.76, 0.180671
6520.95, 0.180393
6529.16, 0.180880
6537.4, 0.180671
6545.65, 0.180254
6553.92, 0.179697
6562.22, 0.179071
6570.54, 0.177680
6578.88, 0.177332
6587.23, 0.176984
6595.61, 0.176149
6604.02, 0.175175
6612.44, 0.173784
6620.89, 0.172114
6629.35, 0.169610
6637.84, 0.167314
6646.35, 0.166757
6654.88, 0.165853
6663.44, 0.163696
6672.01, 0.161053
6680.61, 0.158409
6689.23, 0.156531
6697.88, 0.154583
6706.54, 0.151869
6715.23, 0.149295
6723.94, 0.146721
6732.67, 0.144078
6741.42, 0.141156
6750.2, 0.138164
6759.0, 0.135173
6767.82, 0.131973
6776.67, 0.128981
6785.54, 0.126338
6794.44, 0.124598
6803.35, 0.123694
6812.29, 0.122720
6821.26, 0.121746
6830.24, 0.121259
6839.25, 0.121189
6848.29, 0.120981
6857.35, 0.120215
6866.43, 0.120424
6875.54, 0.121537
6884.67, 0.122024
6893.82, 0.122372
6903.0, 0.122511
6912.2, 0.122790
6921.43, 0.123068
6930.69, 0.123277
6939.96, 0.123207
6949.27, 0.122790
6958.59, 0.122163
6967.95, 0.122303
6977.33, 0.122372
6986.73, 0.122024
6996.16, 0.121468
7005.61, 0.120981
7015.09, 0.120494
7024.6, 0.120007
7034.13, 0.119241
7043.69, 0.118268
7053.27, 0.117781
7062.88, 0.117433
7072.52, 0.116667
7082.18, 0.115693
7091.87, 0.114859
7101.58, 0.113954
7111.32, 0.112980
7121.09, 0.112215
7130.88, 0.111658
7140.71, 0.110963
7150.56, 0.110267
7160.43, 0.109502
7170.33, 0.108945
7180.27, 0.108737
7190.23, 0.108250
7200.21, 0.107415
7210.23, 0.106997
7220.27, 0.106928
7230.34, 0.106649
7240.44, 0.106302
7250.56, 0.105815
7260.72, 0.105397
7270.9, 0.104980
7281.12, 0.104562
7291.36, 0.104145
7301.63, 0.103519
7311.93, 0.102823
7322.25, 0.101988
7332.61, 0.100875
7343.0, 0.100180
7353.41, 0.0994840
7363.86, 0.0986490
7374.33, 0.0978140
7384.83, 0.0972580
7395.37, 0.0966320
7405.93, 0.0960050
7416.53, 0.0956580
7427.15, 0.0954490
7437.81, 0.0951010
7448.5, 0.0946840
7459.22, 0.0941970
7469.96, 0.0937100
7480.74, 0.0930840
7491.55, 0.0923180
7502.39, 0.0913440
7513.27, 0.0900920
7524.17, 0.0887700
7535.11, 0.0876570
7546.08, 0.0865440
7557.08, 0.0852920
7568.11, 0.0839700
7579.17, 0.0827870
7590.27, 0.0816740
7601.4, 0.0807700
7612.56, 0.0802830
7623.76, 0.0800740
7634.98, 0.0798650
7646.24, 0.0795870
7657.54, 0.0792390
7668.87, 0.0786830
7680.23, 0.0779170
7691.62, 0.0769430
7703.05, 0.0758300
7714.51, 0.0745090
7726.01, 0.0727690
7737.54, 0.0708910
7749.11, 0.0689430
7760.71, 0.0665780
7772.35, 0.0642120
7784.02, 0.0619860
7795.72, 0.0597600
7807.46, 0.0574640
7819.23, 0.0553070
7831.04, 0.0532900
7842.89, 0.0514810
7854.77, 0.0496720
7866.69, 0.0480720
7878.65, 0.0468200
7890.64, 0.0455680
7902.67, 0.0443850
7914.74, 0.0432020
7926.84, 0.0422280
7938.98, 0.0413940
7951.16, 0.0407680
7963.37, 0.0403500
7975.62, 0.0400020
7987.91, 0.0396540
8000.24, 0.0394460
8012.6, 0.0397940
8025.01, 0.0403500
8037.45, 0.0406980
8049.93, 0.0410460
8062.45, 0.0415330
8075.01, 0.0418110
8087.61, 0.0420200
8100.24, 0.0424370
8112.91, 0.0430630
8125.63, 0.0434810
8138.39, 0.0436890
8151.18, 0.0438980
8164.02, 0.0440370
8176.9, 0.0442460
8189.81, 0.0447330
8202.77, 0.0449420
8215.77, 0.0450110
8228.82, 0.0452900
8241.9, 0.0453590
8255.02, 0.0452900
8268.19, 0.0448030
8281.39, 0.0441070
8294.65, 0.0433420
8307.94, 0.0425070
8321.28, 0.0413940
8334.66, 0.0401410
8348.08, 0.0386800
8361.54, 0.0370800
8375.05, 0.0352720
8388.6, 0.0337410
8402.2, 0.0322110
8415.84, 0.0306800
8429.52, 0.0290800
8443.25, 0.0275490
8457.02, 0.0260880
8470.84, 0.0249750
8484.7, 0.0240010
8498.61, 0.0232360
8512.57, 0.0224710
8526.57, 0.0218450
8540.62, 0.0214270
8554.71, 0.0212190
8568.85, 0.0212880
8583.04, 0.0213580
8597.27, 0.0214970
8611.55, 0.0217750
8625.88, 0.0227490
8640.26, 0.0243490
8654.68, 0.0267150
8669.16, 0.0297060
8683.68, 0.0331840
8698.25, 0.0374280
8712.87, 0.0425070
8727.53, 0.0484900
8742.25, 0.0555860
8757.02, 0.0639340
8771.83, 0.0732560
8786.7, 0.0831350
8801.62, 0.0926660
8816.59, 0.101154
8831.61, 0.108319
8846.68, 0.114093
8861.8, 0.118685
8876.97, 0.122303
8892.2, 0.125503
8907.48, 0.128285
8922.81, 0.130512
8938.2, 0.132320
8953.63, 0.133434
8969.13, 0.133781
8984.67, 0.133503
9000.27, 0.132877
9015.92, 0.132112
9031.63, 0.131138
9047.39, 0.130303
9063.21, 0.129190
9079.08, 0.127451
9095.01, 0.124877
9111.0, 0.120911
9127.04, 0.114859
9143.13, 0.105884
9159.28, 0.0937100
9175.49, 0.0802830
9191.76, 0.0685260
9208.09, 0.0598290
9224.47, 0.0537770
9240.92, 0.0491850
9257.42, 0.0449420
9273.98, 0.0407680
9290.6, 0.0366630
9307.28, 0.0332540
9324.02, 0.0304710
9340.82, 0.0280360
9357.68, 0.0260880
9374.6, 0.0240010
9391.58, 0.0218450
9408.62, 0.0198970
9425.73, 0.0182270
9442.9, 0.0168360
9460.13, 0.0157230
9477.42, 0.0153050
9494.78, 0.0162790
9512.2, 0.0190620
9529.69, 0.0239320
9547.24, 0.0311670
9564.86, 0.0398630
9582.54, 0.0492550
9600.28, 0.0589250
9618.1, 0.0672040
9635.97, 0.0741610
9653.92, 0.0801440
9671.93, 0.0848050
9690.01, 0.0888400
9708.16, 0.0920400
9726.37, 0.0941270
9744.65, 0.0955880
9763.0, 0.0963530
9781.43, 0.0960050
9799.92, 0.0939180
9818.48, 0.0897440
9837.1, 0.0833440
9855.8, 0.0761780
9874.58, 0.0725610
9893.42, 0.0727690
9912.34, 0.0707520
9931.33, 0.0656040
9950.39, 0.0608730
9969.52, 0.0572550
9988.74, 0.0539860
10008.0, 0.0508550
10027.4, 0.0481420
10046.8, 0.0462630
10066.3, 0.0448030
10085.9, 0.0435500
10105.6, 0.0429940
10125.3, 0.0428550
10145.1, 0.0429940
10165.0, 0.0433420
10185.0, 0.0436890
10205.0, 0.0441760
10225.2, 0.0445940
10245.4, 0.0451500
10265.7, 0.0457070
10286.0, 0.0460550
10306.5, 0.0468200
10327.0, 0.0475160
10347.6, 0.0480720
10368.3, 0.0486290
10389.1, 0.0491160
10409.9, 0.0495330
10430.9, 0.0503680
10451.9, 0.0511330
10473.0, 0.0519680
10494.2, 0.0527330
10515.5, 0.0538470
10536.9, 0.0548200
10558.4, 0.0557250
10579.9, 0.0567680
10601.5, 0.0579510
10623.3, 0.0594820
10645.1, 0.0609430
10667.0, 0.0622640
10689.0, 0.0636560
10711.1, 0.0645600
10733.2, 0.0653950
10755.5, 0.0662990
10777.9, 0.0671340
10800.3, 0.0674120
10822.9, 0.0674120
10845.5, 0.0673430
10868.2, 0.0670650
10891.1, 0.0661600
10914.0, 0.0651170
10937.0, 0.0642120
10960.2, 0.0630300
10983.4, 0.0619860
11006.7, 0.0612900
11030.1, 0.0608030
11053.6, 0.0604560
11077.3, 0.0603160
11101.0, 0.0603860
11124.8, 0.0606640
11148.7, 0.0612900
11172.7, 0.0614990
11196.9, 0.0615690
11221.1, 0.0615690
11245.4, 0.0614990
11269.9, 0.0613600
11294.4, 0.0615690
11319.1, 0.0617080
11343.9, 0.0614990
11368.8, 0.0612900
11393.7, 0.0614990
11418.8, 0.0616380
11444.0, 0.0615690
11469.4, 0.0617080
11494.8, 0.0621950
11520.3, 0.0629600
11546.0, 0.0640730
11571.8, 0.0651860
11597.7, 0.0662300
11623.7, 0.0673430
11649.8, 0.0684560
11676.0, 0.0695000
11702.4, 0.0704740
11728.9, 0.0713080
11755.5, 0.0717260
11782.2, 0.0721430
11809.0, 0.0736740
11836.0, 0.0754830
11863.0, 0.0770830
11890.3, 0.0791700
11917.6, 0.0811180
11945.0, 0.0823700
11972.6, 0.0832740
12000.4, 0.0834830
12028.2, 0.0832740
12056.2, 0.0832050
12084.3, 0.0829960
12112.5, 0.0829260
12140.9, 0.0828570
12169.4, 0.0825790
12198.0, 0.0822310
12226.8, 0.0816740
12255.7, 0.0813260
12284.7, 0.0806310
12313.9, 0.0794480
12343.2, 0.0784740
12372.7, 0.0777780
12402.3, 0.0769430
12432.0, 0.0756910
12461.9, 0.0743000
12491.9, 0.0732560
12522.1, 0.0721430
12552.4, 0.0713080
12582.9, 0.0708910
12613.5, 0.0700560
12644.3, 0.0688730
12675.2, 0.0685950
12706.3, 0.0685260
12737.5, 0.0683170
12768.9, 0.0683170
12800.4, 0.0680390
12832.1, 0.0676210
12863.9, 0.0673430
12895.9, 0.0669260
12928.1, 0.0663690
12960.4, 0.0655340
12992.9, 0.0648380
13025.5, 0.0642120
13058.3, 0.0635860
13091.3, 0.0627510
13124.4, 0.0617770
13157.8, 0.0612210
13191.2, 0.0605950
13224.9, 0.0594820
13258.7, 0.0578820
13292.7, 0.0567680
13326.9, 0.0554470
13361.2, 0.0539860
13395.7, 0.0525250
13430.4, 0.0508550
13465.3, 0.0489770
13500.4, 0.0469590
13535.7, 0.0454290
13571.1, 0.0437590
13606.7, 0.0414630
13642.5, 0.0392370
13678.5, 0.0370110
13714.7, 0.0347150
13751.1, 0.0322800
13787.6, 0.0299840
13824.4, 0.0280360
13861.4, 0.0259490
13898.5, 0.0239320
13935.9, 0.0221230
13973.5, 0.0204530
14011.2, 0.0187840
14049.2, 0.0169050
14087.4, 0.0155830
14125.8, 0.0148180
14164.3, 0.0136360
14203.2, 0.0124530
14242.2, 0.0119660
14281.4, 0.0112700
14320.9, 0.0105050
14360.5, 0.00994800
14400.4, 0.00967000
14440.5, 0.0100880
14480.9, 0.0109920
14521.4, 0.0116180
14562.2, 0.0112700
14603.3, 0.0113400
14644.5, 0.0120350
14686.0, 0.0128010
14727.7, 0.0132880
14769.7, 0.0132180
14811.9, 0.0134270
14854.3, 0.0143310
14897.0, 0.0147490
14939.9, 0.0149570
14983.1, 0.0154440
15026.5, 0.0160700
15070.2, 0.0159310
15114.2, 0.0159310
15158.3, 0.0166270
15202.8, 0.0170440
15247.5, 0.0173230
15292.5, 0.0176710
15337.7, 0.0184360
15383.2, 0.0198270
15429.0, 0.0211490
15475.1, 0.0223320
15521.4, 0.0241400
15568.0, 0.0265750
15614.9, 0.0283840
15662.1, 0.0303320
15709.6, 0.0321410
15757.3, 0.0327670
15805.4, 0.0320020
15853.7, 0.0292890
15902.3, 0.0253930
15951.2, 0.0221930
16000.5, 0.0200360
16050.0, 0.0183660
16099.8, 0.0168360
16150.0, 0.0162100
16200.5, 0.0154440
16251.3, 0.0149570
16302.4, 0.0151660
16353.8, 0.0153750
16405.5, 0.0144010
16457.6, 0.0132180
16510.0, 0.0122440
16562.8, 0.0122440
16615.9, 0.0109220
16669.3, 0.00967000
16723.1, 0.00960100
16777.2, 0.00960100
16831.7, 0.00994800
16886.5, 0.0107830
16941.7, 0.0114090
16997.2, 0.0116880
17053.1, 0.0121750
17109.4, 0.0131490
17166.1, 0.0139140
17223.1, 0.0143310
17280.5, 0.0153050
17338.3, 0.0167660
17396.5, 0.0185750
17455.1, 0.0207320
17514.0, 0.0226800
17573.4, 0.0251840
17633.2, 0.0279670
17693.4, 0.0316540
17754.0, 0.0356190
17815.0, 0.0404200
17876.4, 0.0448720
17938.3, 0.0491160
18000.5, 0.0539860
18063.3, 0.0589250
18126.4, 0.0627510
18190.0, 0.0671340
18254.1, 0.0709610
18318.6, 0.0745780
18383.5, 0.0774300
18449.0, 0.0800050
18514.9, 0.0820920
18581.2, 0.0841790
18648.0, 0.0866140
18715.4, 0.0896750
18783.2, 0.0910660
18851.5, 0.0925970
18920.3, 0.0938490
18989.6, 0.0941970
19059.4, 0.0948230
19129.7, 0.0948230
19200.6, 0.0951010
19272.0, 0.0960050
19343.9, 0.0971190
19416.3, 0.0960050
19489.3, 0.0938490
19562.8, 0.0934310
19637.0, 0.0925270
19711.6, 0.0905090
19786.8, 0.0856400
19862.6, 0.0803520
19939.0, 0.0745090
20016.0, 0.0670650
20093.6, 0.0595510
20171.8, 0.0532900
20250.6, 0.0478640
20330.0, 0.0455680
20410.0, 0.0459850
20490.7, 0.0500200
20572.0, 0.0588550
20654.0, 0.0684560
20736.6, 0.0752040
20819.9, 0.0802130
20903.8, 0.0833440
20988.5, 0.0839700
21073.8, 0.0825090
21159.8, 0.0802830
21246.5, 0.0772220
21334.0, 0.0718650
21422.1, 0.0651860
21511.0, 0.0621950
21600.7, 0.0594820
21691.0, 0.0564210
21782.1, 0.0537070
21874.0, 0.0516200
21966.7, 0.0478640
22060.2, 0.0464720
22154.5, 0.0450810
22249.6, 0.0425760
22345.5, 0.0438980
22442.2, 0.0479330
22539.8, 0.0486980
22638.2, 0.0493940
22737.5, 0.0480030
22837.7, 0.0480720
22938.7, 0.0471680
23040.7, 0.0482810
23143.5, 0.0518290
23247.3, 0.0528730
23352.1, 0.0512720
23457.7, 0.0532900
23564.4, 0.0558640
23672.0, 0.0565600
23780.5, 0.0533600
23890.1, 0.0525940
24000.7, 0.0544730
24112.3, 0.0535680
24225.0, 0.0514120
24338.7, 0.0538470
24453.5, 0.0569080
24569.4, 0.0543330
24686.4, 0.0530120
24804.5, 0.0564210
24923.8, 0.0544730
