Database of Origin, USGS Spectral Database
Sample Description, See USGS database for additional info
Date Added,2016-08-10 05:39:06.165609

Data ID,USGS_spe01          
Sample ID, spessartine_hs112.20737
Mineral Name, spessartine
Material Class,Nesosilicate

Wavelength
221.1, 0.0449730
229.1, 0.0449090
236.1, 0.0431710
242.1, 0.0434100
248.1, 0.0408880
253.6, 0.0410630
258.6, 0.0425060
263.6, 0.0434380
268.6, 0.0429720
273.1, 0.0441610
277.1, 0.0447260
281.1, 0.0458740
285.1, 0.0455550
289.1, 0.0471720
293.1, 0.0458650
297.1, 0.0488010
301.1, 0.0506400
305.1, 0.0504830
309.1, 0.0515730
313.1, 0.0530050
317.1, 0.0513500
321.1, 0.0554490
325.1, 0.0550500
329.1, 0.0545340
333.1, 0.0553850
337.1, 0.0565030
341.1, 0.0572730
345.1, 0.0595050
349.1, 0.0629530
353.1, 0.0626830
357.1, 0.0642370
360.6, 0.0659630
363.6, 0.0675040
366.6, 0.0647800
369.6, 0.0671500
372.6, 0.0674300
375.6, 0.0686000
378.6, 0.0711860
381.1, 0.0733960
383.1, 0.0730750
385.1, 0.0756500
387.1, 0.0795520
389.1, 0.0810260
391.1, 0.0865770
393.1, 0.0881400
395.1, 0.0920600
397.1, 0.0975070
399.1, 0.0983260
401.1, 0.102050
403.1, 0.100235
405.1, 0.0983020
407.1, 0.0918080
409.1, 0.0955830
411.1, 0.101079
412.8, 0.105491
415.8, 0.108099
418.8, 0.111969
421.8, 0.113140
424.8, 0.116274
427.8, 0.117638
430.8, 0.115680
433.8, 0.116397
436.8, 0.125396
439.8, 0.137313
442.8, 0.146321
445.8, 0.152839
448.8, 0.157582
451.3, 0.161952
453.3, 0.161907
455.3, 0.163393
457.3, 0.165013
459.3, 0.168463
461.3, 0.167358
463.3, 0.169601
465.3, 0.169079
467.3, 0.170593
469.3, 0.170238
471.3, 0.174396
473.3, 0.170422
475.3, 0.171084
477.3, 0.172685
479.3, 0.172856
481.3, 0.173610
483.3, 0.175050
485.3, 0.176864
487.3, 0.179670
489.3, 0.180852
491.3, 0.181841
493.3, 0.184245
495.3, 0.187137
497.3, 0.189315
499.3, 0.191510
501.3, 0.193205
503.3, 0.194133
505.3, 0.196970
507.3, 0.200351
509.3, 0.202859
511.3, 0.205200
513.3, 0.207762
515.3, 0.211217
517.3, 0.211610
519.3, 0.215583
521.3, 0.214748
523.3, 0.220090
525.3, 0.218902
527.3, 0.224463
529.3, 0.227076
531.3, 0.226686
533.3, 0.233113
535.3, 0.236675
537.3, 0.239832
539.3, 0.245042
541.3, 0.246819
543.3, 0.249484
545.3, 0.254971
547.3, 0.257730
549.3, 0.260760
551.3, 0.265807
553.3, 0.268524
555.3, 0.273862
557.3, 0.277815
559.3, 0.281392
561.3, 0.285266
563.3, 0.290642
565.3, 0.290564
567.3, 0.298373
569.3, 0.302617
571.3, 0.305701
573.3, 0.314666
575.3, 0.317852
577.3, 0.322008
579.3, 0.327328
581.3, 0.330793
583.3, 0.336992
585.3, 0.340415
587.3, 0.347810
589.3, 0.350511
591.3, 0.356413
593.3, 0.357211
595.3, 0.365330
597.3, 0.369824
599.3, 0.370129
601.1, 0.375608
602.7, 0.380584
604.3, 0.385066
605.9, 0.384462
607.5, 0.388602
609.1, 0.393244
610.7, 0.397530
612.3, 0.400658
613.9, 0.405751
615.5, 0.406967
617.1, 0.412275
618.7, 0.417585
620.3, 0.419239
621.9, 0.424581
623.5, 0.428174
625.1, 0.433615
626.7, 0.440906
628.3, 0.444338
629.9, 0.446018
631.7, 0.452041
633.7, 0.457567
635.7, 0.461064
637.7, 0.465234
639.7, 0.471880
641.7, 0.474297
643.7, 0.478329
645.7, 0.482921
647.7, 0.488872
649.7, 0.492491
651.7, 0.495496
653.7, 0.499950
655.7, 0.503805
657.7, 0.507811
659.7, 0.509007
661.7, 0.515065
663.7, 0.518989
665.7, 0.522083
667.7, 0.522802
670.2, 0.524101
673.2, 0.533893
676.2, 0.532626
679.2, 0.539280
682.2, 0.542999
685.2, 0.546869
688.2, 0.552139
691.2, 0.554390
694.2, 0.563086
697.2, 0.564135
700.2, 0.568410
702.0, 0.571939
704.0, 0.575579
706.0, 0.579313
708.0, 0.583049
710.0, 0.586786
712.0, 0.591159
714.0, 0.595755
716.0, 0.594927
718.0, 0.603073
720.0, 0.604256
722.0, 0.609701
724.0, 0.612056
726.0, 0.614952
728.0, 0.616911
730.0, 0.621455
732.0, 0.628800
734.0, 0.630425
736.0, 0.634684
738.0, 0.636927
740.0, 0.644933
742.0, 0.646613
744.0, 0.650250
746.0, 0.653062
748.0, 0.654547
750.5, 0.657889
753.5, 0.661016
756.5, 0.667828
759.5, 0.671744
762.5, 0.674275
765.5, 0.679427
768.5, 0.678783
771.5, 0.684223
774.5, 0.685323
777.5, 0.690973
781.0, 0.690969
785.0, 0.691955
789.0, 0.697710
793.0, 0.698625
797.0, 0.703814
801.5, 0.704275
806.5, 0.704415
811.5, 0.706616
816.5, 0.707664
822.0, 0.707816
828.0, 0.710083
835.0, 0.704325
843.0, 0.705294
851.0, 0.706254
859.0, 0.700165
871.0, 0.700281
883.0, 0.694011
894.0, 0.686687
904.0, 0.683292
914.0, 0.677346
924.0, 0.678127
933.0, 0.672132
941.0, 0.668636
949.0, 0.663199
957.0, 0.659598
964.0, 0.654085
970.0, 0.656997
976.0, 0.651164
982.0, 0.648035
988.0, 0.646679
994.0, 0.641342
1000.0, 0.636267
1006.0, 0.629693
1012.0, 0.624031
1018.0, 0.619360
1023.5, 0.609947
1028.5, 0.602972
1033.5, 0.601011
1038.5, 0.592633
1043.5, 0.589098
1048.5, 0.579261
1053.5, 0.569970
1058.5, 0.562286
1063.5, 0.553629
1068.5, 0.548142
1073.5, 0.538258
1078.5, 0.526368
1083.5, 0.518801
1088.5, 0.510413
1093.5, 0.502005
1098.5, 0.490691
1103.5, 0.484029
1108.5, 0.475426
1113.5, 0.468165
1118.5, 0.460756
1123.5, 0.453160
1128.5, 0.442688
1133.5, 0.438210
1138.5, 0.427893
1143.5, 0.421283
1148.5, 0.413871
1153.5, 0.406339
1158.5, 0.399356
1163.5, 0.396283
1168.5, 0.387496
1173.5, 0.383978
1178.5, 0.380966
1183.5, 0.371877
1188.5, 0.368948
1193.5, 0.362601
1198.5, 0.357511
1203.5, 0.353286
1208.5, 0.351265
1213.5, 0.347518
1218.5, 0.342910
1223.5, 0.340039
1228.5, 0.340118
1233.5, 0.337087
1238.5, 0.336181
1243.5, 0.335242
1248.5, 0.332465
1253.5, 0.331409
1258.5, 0.331182
1263.5, 0.332408
1268.5, 0.331484
1273.5, 0.333336
1278.5, 0.332974
1283.5, 0.333492
1288.5, 0.334772
1293.5, 0.336457
1298.5, 0.337438
1303.5, 0.340046
1308.5, 0.342108
1313.5, 0.347764
1318.5, 0.348765
1323.5, 0.351189
1328.5, 0.355025
1333.5, 0.360727
1338.5, 0.364006
1343.5, 0.367532
1348.5, 0.371282
1353.5, 0.376592
1358.5, 0.383649
1363.5, 0.387113
1368.5, 0.389397
1373.5, 0.395139
1378.5, 0.401725
1383.5, 0.408232
1388.5, 0.408788
1393.5, 0.414632
1398.5, 0.420956
1403.5, 0.424025
1408.5, 0.427355
1413.5, 0.433897
1418.5, 0.436311
1423.5, 0.442907
1428.5, 0.446375
1433.5, 0.448629
1438.5, 0.449923
1443.5, 0.457531
1448.5, 0.454339
1453.5, 0.456311
1458.5, 0.460415
1463.5, 0.466974
1468.5, 0.464495
1473.5, 0.463814
1478.5, 0.464242
1483.5, 0.470555
1488.5, 0.467805
1493.5, 0.467772
1498.5, 0.466284
1503.5, 0.468940
1508.5, 0.463919
1513.5, 0.465133
1518.5, 0.464034
1523.5, 0.461154
1528.5, 0.462360
1534.0, 0.463450
1540.0, 0.460714
1546.0, 0.457477
1552.0, 0.453316
1558.0, 0.455515
1564.0, 0.451819
1570.5, 0.449613
1577.5, 0.447638
1584.5, 0.447550
1591.5, 0.442775
1598.5, 0.442043
1605.5, 0.438315
1612.5, 0.436016
1619.5, 0.431500
1626.5, 0.431200
1633.5, 0.429389
1640.5, 0.427553
1647.5, 0.426394
1654.5, 0.422389
1661.5, 0.424580
1668.5, 0.424842
1676.0, 0.421751
1684.0, 0.422999
1692.0, 0.419552
1700.0, 0.418356
1708.0, 0.424392
1716.0, 0.423096
1724.0, 0.421559
1732.0, 0.422031
1740.0, 0.428450
1748.0, 0.427201
1756.0, 0.431737
1764.0, 0.431558
1772.0, 0.432341
1780.0, 0.429353
1788.0, 0.438873
1796.0, 0.440556
1805.0, 0.443219
1815.0, 0.446895
1825.0, 0.446839
1835.0, 0.453761
1845.0, 0.460516
1855.0, 0.461218
1865.0, 0.461102
1875.0, 0.465292
1885.0, 0.469580
1895.0, 0.472910
1905.0, 0.475773
1915.0, 0.479962
1925.0, 0.481168
1935.0, 0.481596
1945.0, 0.490223
1955.0, 0.485933
1965.0, 0.491449
1975.0, 0.493517
1985.0, 0.495720
1995.0, 0.494422
2005.0, 0.494507
2015.0, 0.496471
2025.0, 0.498384
2035.0, 0.500105
2045.0, 0.498149
2055.0, 0.498619
2065.0, 0.495178
2075.0, 0.494256
2085.0, 0.491529
2095.0, 0.496261
2105.0, 0.491608
2115.0, 0.491003
2125.0, 0.489505
2135.0, 0.487477
2145.0, 0.486117
2155.0, 0.480762
2165.0, 0.478355
2175.0, 0.476929
2185.0, 0.470288
2195.0, 0.469777
2205.0, 0.466189
2215.0, 0.464011
2225.0, 0.464831
2235.0, 0.455497
2245.0, 0.454719
2255.0, 0.453523
2265.0, 0.450788
2275.0, 0.451174
2285.0, 0.453752
2295.0, 0.446558
2305.0, 0.446131
2315.0, 0.445009
2325.0, 0.445448
2335.0, 0.443395
2345.0, 0.438544
2355.0, 0.437516
2365.0, 0.439788
2375.0, 0.437331
2386.0, 0.431938
2400.0, 0.435469
2418.0, 0.430595
2440.0, 0.432636
2466.0, 0.433047
2496.0, 0.436401
2528.0, 0.437691
2560.0, 0.442191
2592.0, 0.448156
2624.0, 0.456631
2656.0, 0.464604
2688.0, 0.465615
2720.0, 0.446604
2752.0, 0.352336
2784.0, 0.305440
2816.0, 0.272699
2848.0, 0.301098
2880.0, 0.356848
2912.0, 0.384257
2944.0, 0.390207
2976.0, 0.384000
