Database of Origin, USGS Spectral Database
Sample Description, See USGS database for additional info
Date Added,2016-08-03 21:02:28.867429

Data ID,USGS_ant06          
Sample ID, antigorite_nmnh96917.2829
Mineral Name, antigorite
Material Class,Phyllosilicate

Wavelength
1369.66, 0.497598
1370.02, 0.497774
1370.38, 0.498534
1370.74, 0.498826
1371.11, 0.498651
1371.47, 0.498885
1371.83, 0.499352
1372.19, 0.500054
1372.56, 0.499703
1372.92, 0.499703
1373.29, 0.500171
1373.65, 0.500229
1374.01, 0.500463
1374.38, 0.500814
1374.74, 0.501574
1375.11, 0.501925
1375.47, 0.501867
1375.84, 0.502217
1376.2, 0.502393
1376.57, 0.502451
1376.93, 0.502919
1377.3, 0.502978
1377.67, 0.502802
1378.03, 0.503211
1378.4, 0.503621
1378.76, 0.503679
1379.13, 0.503445
1379.5, 0.502861
1379.87, 0.502744
1380.23, 0.502978
1380.6, 0.501223
1380.97, 0.497247
1381.34, 0.491868
1381.7, 0.486664
1382.07, 0.481401
1382.44, 0.476197
1382.81, 0.471461
1383.18, 0.469532
1383.55, 0.470233
1383.92, 0.471637
1384.29, 0.472338
1384.66, 0.472981
1385.03, 0.473508
1385.4, 0.474502
1385.77, 0.475554
1386.14, 0.475496
1386.51, 0.474268
1386.88, 0.472923
1387.25, 0.471870
1387.62, 0.472338
1387.99, 0.473274
1388.36, 0.474092
1388.74, 0.474677
1389.11, 0.475437
1389.48, 0.476022
1389.85, 0.475963
1390.23, 0.474853
1390.6, 0.472923
1390.97, 0.468128
1391.35, 0.458948
1391.72, 0.443979
1392.09, 0.427899
1392.47, 0.424450
1392.84, 0.436729
1393.21, 0.450645
1393.59, 0.459065
1393.96, 0.463158
1394.34, 0.465380
1394.71, 0.467310
1395.09, 0.468654
1395.46, 0.469122
1395.84, 0.469181
1396.22, 0.469122
1396.59, 0.468421
1396.97, 0.466842
1397.35, 0.463977
1397.72, 0.461228
1398.1, 0.461287
1398.48, 0.463275
1398.85, 0.465789
1399.23, 0.468947
1399.61, 0.470993
1399.99, 0.472631
1400.37, 0.474443
1400.74, 0.475203
1401.12, 0.475671
1401.5, 0.476256
1401.88, 0.477074
1402.26, 0.477250
1402.64, 0.477308
1403.02, 0.478127
1403.4, 0.479121
1403.78, 0.478829
1404.16, 0.479179
1404.54, 0.480817
1404.92, 0.482103
1405.3, 0.482512
1405.68, 0.483214
1406.06, 0.484383
1406.44, 0.486372
1406.83, 0.488243
1407.21, 0.489061
1407.59, 0.489704
1407.97, 0.490348
1408.35, 0.491634
1408.74, 0.492979
1409.12, 0.493856
1409.5, 0.495376
1409.89, 0.496721
1410.27, 0.497247
1410.65, 0.497949
1411.04, 0.499235
1411.42, 0.500639
1411.81, 0.501399
1412.19, 0.502276
1412.58, 0.503445
1412.96, 0.504264
1413.35, 0.505024
1413.73, 0.505843
1414.12, 0.506486
1414.5, 0.507012
1414.89, 0.507538
1415.28, 0.508474
1415.66, 0.509000
1416.05, 0.509527
1416.44, 0.509936
1416.82, 0.510521
1417.21, 0.510988
1417.6, 0.511281
1417.98, 0.511748
1418.37, 0.512041
1418.76, 0.512742
1419.15, 0.513327
1419.54, 0.513620
1419.93, 0.514438
1420.32, 0.514964
1420.71, 0.515491
1421.09, 0.515783
1421.48, 0.515900
1421.88, 0.516075
1422.27, 0.516719
1422.66, 0.517713
1423.05, 0.517947
1423.44, 0.517830
1423.83, 0.518063
1424.22, 0.518239
1424.61, 0.518122
1425.0, 0.518122
1425.39, 0.518707
1425.78, 0.518999
1426.18, 0.519057
1426.57, 0.519116
1426.96, 0.519525
1427.36, 0.519818
1427.75, 0.519935
1428.14, 0.520578
1428.54, 0.520695
1428.93, 0.521046
1429.32, 0.521163
1429.72, 0.520929
1430.11, 0.521046
1430.51, 0.521163
1430.9, 0.521572
1431.3, 0.522390
1431.69, 0.522566
1432.09, 0.522507
1432.48, 0.522332
1432.88, 0.523034
1433.28, 0.523092
1433.67, 0.523092
1434.07, 0.523151
1434.46, 0.523677
1434.86, 0.523969
1435.26, 0.523969
1435.66, 0.524028
1436.05, 0.524086
1436.45, 0.524437
1436.85, 0.524788
1437.25, 0.524963
1437.65, 0.525022
1438.05, 0.524963
1438.44, 0.525022
1438.84, 0.525256
1439.24, 0.525665
1439.64, 0.526016
1440.04, 0.526016
1440.44, 0.526074
1440.84, 0.526191
1441.24, 0.526367
1441.65, 0.526659
1442.05, 0.526951
1442.45, 0.527127
1442.85, 0.527185
1443.25, 0.527244
1443.65, 0.527185
1444.05, 0.527244
1444.46, 0.527185
1444.86, 0.527419
1445.26, 0.527711
1445.67, 0.527653
1446.07, 0.528062
1446.47, 0.528413
1446.88, 0.528179
1447.28, 0.528296
1447.68, 0.528705
1448.09, 0.528764
1448.49, 0.528705
1448.9, 0.528472
1449.3, 0.528705
1449.71, 0.528822
1450.11, 0.528764
1450.52, 0.529173
1450.93, 0.529407
1451.33, 0.529758
1451.74, 0.529816
1452.14, 0.529758
1452.55, 0.529992
1452.96, 0.530343
1453.36, 0.530518
1453.77, 0.530752
1454.18, 0.530927
1454.59, 0.530810
1455.0, 0.530693
1455.41, 0.530576
1455.81, 0.530693
1456.22, 0.531044
1456.63, 0.531337
1457.04, 0.531571
1457.45, 0.531571
1457.86, 0.531687
1458.27, 0.531746
1458.68, 0.531804
1459.09, 0.532155
1459.5, 0.531921
1459.91, 0.532097
1460.32, 0.532155
1460.74, 0.532214
1461.15, 0.532214
1461.56, 0.532506
1461.97, 0.532623
1462.39, 0.532155
1462.8, 0.532214
1463.21, 0.532506
1463.62, 0.532623
1464.04, 0.533208
1464.45, 0.533325
1464.86, 0.533442
1465.28, 0.533091
1465.69, 0.533032
1466.11, 0.533325
1466.52, 0.533383
1466.94, 0.532857
1467.35, 0.532974
1467.77, 0.533383
1468.18, 0.533617
1468.6, 0.533851
1469.02, 0.534260
1469.43, 0.534085
1469.85, 0.534026
1470.27, 0.534494
1470.68, 0.534787
1471.1, 0.534728
1471.52, 0.534377
1471.94, 0.534728
1472.35, 0.535020
1472.77, 0.534787
1473.19, 0.535020
1473.61, 0.535020
1474.03, 0.535313
1474.45, 0.535488
1474.87, 0.535371
1475.29, 0.535722
1475.71, 0.535722
1476.13, 0.535430
1476.55, 0.535196
1476.97, 0.535488
1477.39, 0.536014
1477.81, 0.535897
1478.23, 0.535605
1478.65, 0.535839
1479.07, 0.536482
1479.5, 0.536424
1479.92, 0.536190
1480.34, 0.536424
1480.76, 0.537125
1481.19, 0.537242
1481.61, 0.537125
1482.03, 0.536950
1482.46, 0.537184
1482.88, 0.537359
1483.31, 0.537301
1483.73, 0.537242
1484.16, 0.537476
1484.58, 0.537593
1485.01, 0.537535
1485.43, 0.537769
1485.86, 0.537944
1486.28, 0.537885
1486.71, 0.537652
1487.14, 0.537535
1487.56, 0.537827
1487.99, 0.538061
1488.42, 0.538529
1488.84, 0.538529
1489.27, 0.538529
1489.7, 0.538646
1490.13, 0.538704
1490.56, 0.539055
1490.98, 0.539464
1491.41, 0.539464
1491.84, 0.539581
1492.27, 0.539406
1492.7, 0.539347
1493.13, 0.539172
1493.56, 0.539230
1493.99, 0.539406
1494.42, 0.539406
1494.85, 0.539932
1495.29, 0.540166
1495.72, 0.540166
1496.15, 0.539932
1496.58, 0.539990
1497.01, 0.540166
1497.44, 0.540166
1497.88, 0.540575
1498.31, 0.540458
1498.74, 0.540458
1499.18, 0.540926
1499.61, 0.541218
1500.04, 0.541277
1500.48, 0.541335
1500.91, 0.541511
1501.35, 0.541335
1501.78, 0.541043
1502.22, 0.541686
1502.65, 0.541803
1503.09, 0.541569
1503.53, 0.541452
1503.96, 0.541628
1504.4, 0.542096
1504.83, 0.542154
1505.27, 0.542154
1505.71, 0.542037
1506.15, 0.541920
1506.58, 0.542271
1507.02, 0.542563
1507.46, 0.542505
1507.9, 0.542271
1508.34, 0.542622
1508.78, 0.542739
1509.21, 0.542622
1509.66, 0.542505
1510.09, 0.542680
1510.53, 0.542914
1510.97, 0.543148
1511.42, 0.543207
1511.86, 0.543090
1512.3, 0.542973
1512.74, 0.543148
1513.18, 0.543791
1513.62, 0.544025
1514.06, 0.543674
1514.51, 0.543265
1514.95, 0.543148
1515.39, 0.543207
1515.83, 0.543733
1516.28, 0.543733
1516.72, 0.543674
1517.16, 0.543557
1517.61, 0.543850
1518.05, 0.544142
1518.5, 0.544434
1518.94, 0.544493
1519.39, 0.544376
1519.83, 0.544610
1520.28, 0.544551
1520.73, 0.544493
1521.17, 0.544727
1521.62, 0.544727
1522.07, 0.544785
1522.51, 0.544902
1522.96, 0.545078
1523.41, 0.545019
1523.85, 0.545019
1524.3, 0.544902
1524.75, 0.545078
1525.2, 0.545428
1525.65, 0.545545
1526.1, 0.545545
1526.55, 0.545545
1527.0, 0.545487
1527.45, 0.545721
1527.9, 0.545779
1528.35, 0.546013
1528.8, 0.546013
1529.25, 0.545721
1529.7, 0.546013
1530.15, 0.546364
1530.6, 0.546539
1531.05, 0.546306
1531.51, 0.546306
1531.96, 0.546539
1532.41, 0.546598
1532.87, 0.546832
1533.32, 0.546773
1533.77, 0.546773
1534.23, 0.547066
1534.68, 0.547124
1535.14, 0.547066
1535.59, 0.547300
1536.05, 0.547124
1536.5, 0.547007
1536.96, 0.547183
1537.41, 0.547124
1537.87, 0.547183
1538.32, 0.547592
1538.78, 0.547767
1539.24, 0.548060
1539.7, 0.548177
1540.15, 0.548118
1540.61, 0.548352
1541.07, 0.548586
1541.53, 0.548352
1541.98, 0.548410
1542.44, 0.548761
1542.9, 0.548644
1543.36, 0.548644
1543.82, 0.548878
1544.28, 0.549171
1544.74, 0.549288
1545.2, 0.549346
1545.66, 0.549522
1546.12, 0.549755
1546.59, 0.549931
1547.05, 0.549872
1547.51, 0.549814
1547.97, 0.550106
1548.43, 0.550399
1548.9, 0.550574
1549.36, 0.550632
1549.82, 0.550574
1550.29, 0.550516
1550.75, 0.550691
1551.21, 0.550866
1551.68, 0.550925
1552.14, 0.550808
1552.61, 0.550925
1553.07, 0.550866
1553.54, 0.550925
1554.0, 0.551100
1554.47, 0.551276
1554.93, 0.551743
1555.4, 0.551802
1555.87, 0.551743
1556.34, 0.551860
1556.8, 0.552094
1557.27, 0.552270
1557.74, 0.552328
1558.21, 0.552270
1558.68, 0.552153
1559.14, 0.552211
1559.61, 0.552737
1560.08, 0.552854
1560.55, 0.552562
1561.02, 0.552737
1561.49, 0.553088
1561.96, 0.553264
1562.43, 0.553439
1562.9, 0.553439
1563.38, 0.553381
1563.85, 0.553498
1564.32, 0.553615
1564.79, 0.553732
1565.26, 0.553615
1565.74, 0.553732
1566.21, 0.553907
1566.68, 0.554024
1567.16, 0.553965
1567.63, 0.553965
1568.1, 0.554082
1568.58, 0.554082
1569.05, 0.554316
1569.53, 0.554433
1570.0, 0.554433
1570.48, 0.554258
1570.96, 0.554609
1571.43, 0.554726
1571.91, 0.554550
1572.39, 0.554726
1572.86, 0.554784
1573.34, 0.554667
1573.82, 0.554959
1574.3, 0.555193
1574.77, 0.555193
1575.25, 0.555310
1575.73, 0.555310
1576.21, 0.555369
1576.69, 0.555427
1577.17, 0.555486
1577.65, 0.555310
1578.13, 0.555193
1578.61, 0.555661
1579.09, 0.556012
1579.57, 0.555661
1580.05, 0.556070
1580.54, 0.556421
1581.02, 0.556187
1581.5, 0.556129
1581.98, 0.556304
1582.47, 0.556480
1582.95, 0.556538
1583.43, 0.556304
1583.92, 0.556246
1584.4, 0.556480
1584.88, 0.556714
1585.37, 0.556655
1585.85, 0.556714
1586.34, 0.556889
1586.82, 0.556831
1587.31, 0.557181
1587.8, 0.557123
1588.28, 0.557181
1588.77, 0.557240
1589.26, 0.557181
1589.74, 0.557649
1590.23, 0.557591
1590.72, 0.557649
1591.21, 0.557825
1591.7, 0.557766
1592.19, 0.557591
1592.67, 0.557532
1593.16, 0.557766
1593.65, 0.557883
1594.14, 0.558058
1594.63, 0.558526
1595.12, 0.558585
1595.61, 0.558585
1596.11, 0.558877
1596.6, 0.559052
1597.09, 0.558994
1597.58, 0.558935
1598.08, 0.559052
1598.57, 0.559345
1599.06, 0.559286
1599.55, 0.559052
1600.05, 0.559286
1600.54, 0.559579
1601.04, 0.559520
1601.53, 0.559462
1602.03, 0.559696
1602.52, 0.559813
1603.02, 0.559930
1603.51, 0.560105
1604.01, 0.560163
1604.5, 0.560105
1605.0, 0.560105
1605.5, 0.560222
1606.0, 0.560339
1606.49, 0.560514
1606.99, 0.560514
1607.49, 0.560748
1607.99, 0.561157
1608.49, 0.561274
1608.99, 0.560982
1609.49, 0.560924
1609.99, 0.561216
1610.49, 0.561391
1610.99, 0.561216
1611.49, 0.561333
1611.99, 0.561391
1612.49, 0.561508
1612.99, 0.561859
1613.49, 0.561801
1614.0, 0.561859
1614.5, 0.562035
1615.0, 0.561976
1615.51, 0.562093
1616.01, 0.562268
1616.51, 0.562327
1617.02, 0.562561
1617.52, 0.562678
1618.03, 0.562502
1618.53, 0.562385
1619.04, 0.562678
1619.54, 0.563029
1620.05, 0.563204
1620.55, 0.563438
1621.06, 0.563438
1621.57, 0.563730
1622.08, 0.563847
1622.58, 0.563555
1623.09, 0.563672
1623.6, 0.563730
1624.11, 0.563613
1624.62, 0.563730
1625.13, 0.563964
1625.64, 0.564198
1626.15, 0.564432
1626.66, 0.564432
1627.17, 0.564607
1627.68, 0.564841
1628.19, 0.564958
1628.7, 0.564900
1629.21, 0.564724
1629.72, 0.564783
1630.24, 0.565017
1630.75, 0.565251
1631.26, 0.565192
1631.78, 0.565134
1632.29, 0.565426
1632.8, 0.565543
1633.32, 0.565543
1633.83, 0.565309
1634.35, 0.565192
1634.86, 0.565309
1635.38, 0.565426
1635.9, 0.565777
1636.41, 0.566011
1636.93, 0.566128
1637.45, 0.565718
1637.96, 0.565660
1638.48, 0.565894
1639.0, 0.566069
1639.52, 0.566128
1640.04, 0.566303
1640.56, 0.566186
1641.08, 0.566186
1641.59, 0.566069
1642.11, 0.566186
1642.63, 0.566186
1643.16, 0.566303
1643.68, 0.566420
1644.2, 0.566654
1644.72, 0.566537
1645.24, 0.566537
1645.76, 0.566478
1646.29, 0.566420
1646.81, 0.566771
1647.33, 0.567414
1647.86, 0.567063
1648.38, 0.566654
1648.9, 0.566771
1649.43, 0.566946
1649.95, 0.567005
1650.48, 0.567005
1651.0, 0.566946
1651.53, 0.566946
1652.06, 0.567180
1652.58, 0.567122
1653.11, 0.567180
1653.64, 0.567239
1654.17, 0.567239
1654.69, 0.567356
1655.22, 0.567356
1655.75, 0.567531
1656.28, 0.567823
1656.81, 0.567648
1657.34, 0.567531
1657.87, 0.567706
1658.4, 0.567940
1658.93, 0.567882
1659.46, 0.567882
1659.99, 0.567940
1660.52, 0.567940
1661.05, 0.568174
1661.59, 0.568350
1662.12, 0.568350
1662.65, 0.568291
1663.19, 0.568233
1663.72, 0.568350
1664.26, 0.568759
1664.79, 0.568993
1665.32, 0.568876
1665.86, 0.568817
1666.39, 0.568993
1666.93, 0.568876
1667.47, 0.568759
1668.0, 0.568876
1668.54, 0.569110
1669.08, 0.569344
1669.61, 0.569344
1670.15, 0.569402
1670.69, 0.569519
1671.23, 0.569519
1671.77, 0.569636
1672.31, 0.569636
1672.85, 0.569694
1673.39, 0.569987
1673.93, 0.570396
1674.47, 0.570104
1675.01, 0.570162
1675.55, 0.570396
1676.09, 0.570513
1676.64, 0.570455
1677.18, 0.570571
1677.72, 0.570747
1678.26, 0.570922
1678.81, 0.570981
1679.35, 0.571039
1679.89, 0.571156
1680.44, 0.570981
1680.98, 0.571098
1681.53, 0.571215
1682.07, 0.571332
1682.62, 0.571566
1683.17, 0.571624
1683.71, 0.571682
1684.26, 0.571975
1684.81, 0.572033
1685.36, 0.572033
1685.9, 0.572033
1686.45, 0.572033
1687.0, 0.572033
1687.55, 0.572092
1688.1, 0.572384
1688.65, 0.572384
1689.2, 0.572384
1689.75, 0.572501
1690.3, 0.572735
1690.85, 0.572910
1691.41, 0.572852
1691.96, 0.572735
1692.51, 0.572969
1693.06, 0.573086
1693.61, 0.573261
1694.17, 0.573612
1694.72, 0.573612
1695.28, 0.573787
1695.83, 0.573787
1696.39, 0.573729
1696.94, 0.573729
1697.5, 0.573612
1698.05, 0.573729
1698.61, 0.573963
1699.17, 0.574021
1699.72, 0.574080
1700.28, 0.574138
1700.84, 0.574080
1701.4, 0.574138
1701.95, 0.574489
1702.51, 0.574606
1703.07, 0.574431
1703.63, 0.574314
1704.19, 0.574431
1704.75, 0.574372
1705.31, 0.574489
1705.88, 0.574548
1706.44, 0.574665
1707.0, 0.574723
1707.56, 0.574723
1708.12, 0.574606
1708.69, 0.574781
1709.25, 0.574898
1709.81, 0.574957
1710.38, 0.575015
1710.94, 0.574957
1711.51, 0.574898
1712.07, 0.575249
1712.64, 0.575425
1713.2, 0.575425
1713.77, 0.575366
1714.34, 0.575483
1714.9, 0.575308
1715.47, 0.575366
1716.04, 0.575366
1716.61, 0.575366
1717.18, 0.575600
1717.74, 0.575542
1718.31, 0.575659
1718.88, 0.575892
1719.45, 0.575717
1720.02, 0.575483
1720.59, 0.575425
1721.17, 0.575366
1721.74, 0.575483
1722.31, 0.575717
1722.88, 0.575717
1723.45, 0.575776
1724.03, 0.575659
1724.6, 0.575542
1725.18, 0.575776
1725.75, 0.575834
1726.33, 0.575892
1726.9, 0.576009
1727.48, 0.576009
1728.05, 0.576068
1728.63, 0.576185
1729.2, 0.576009
1729.78, 0.575951
1730.36, 0.576185
1730.94, 0.576126
1731.51, 0.576009
1732.09, 0.576068
1732.67, 0.576185
1733.25, 0.576243
1733.83, 0.576477
1734.41, 0.576477
1734.99, 0.576477
1735.57, 0.576477
1736.15, 0.576594
1736.73, 0.576711
1737.32, 0.576828
1737.9, 0.576770
1738.48, 0.576653
1739.07, 0.576653
1739.65, 0.576653
1740.23, 0.576711
1740.82, 0.577062
1741.4, 0.577179
1741.99, 0.577237
1742.57, 0.577062
1743.16, 0.577179
1743.74, 0.577413
1744.33, 0.577413
1744.92, 0.577354
1745.51, 0.577471
1746.09, 0.577588
1746.68, 0.577647
1747.27, 0.577705
1747.86, 0.577822
1748.45, 0.578114
1749.04, 0.578114
1749.63, 0.577939
1750.22, 0.577764
1750.81, 0.577997
1751.4, 0.578114
1751.99, 0.578524
1752.59, 0.578699
1753.18, 0.578699
1753.77, 0.578699
1754.37, 0.578758
1754.96, 0.578875
1755.56, 0.578816
1756.15, 0.578758
1756.74, 0.578875
1757.34, 0.578933
1757.94, 0.578933
1758.53, 0.579050
1759.13, 0.579342
1759.73, 0.579342
1760.32, 0.579459
1760.92, 0.579693
1761.52, 0.579635
1762.12, 0.579635
1762.72, 0.579752
1763.32, 0.579810
1763.92, 0.579869
1764.52, 0.579927
1765.12, 0.580044
1765.72, 0.580161
1766.32, 0.580336
1766.92, 0.580336
1767.53, 0.580336
1768.13, 0.580512
1768.73, 0.580570
1769.34, 0.580629
1769.94, 0.580687
1770.55, 0.580570
1771.15, 0.580629
1771.76, 0.580863
1772.36, 0.580921
1772.97, 0.581038
1773.57, 0.581096
1774.18, 0.581213
1774.79, 0.581447
1775.4, 0.581564
1776.0, 0.581681
1776.61, 0.581623
1777.22, 0.581740
1777.83, 0.581623
1778.44, 0.581681
1779.05, 0.581681
1779.66, 0.581798
1780.27, 0.581915
1780.88, 0.581915
1781.5, 0.581740
1782.11, 0.581857
1782.72, 0.581974
1783.33, 0.581974
1783.95, 0.581915
1784.56, 0.581915
1785.18, 0.582149
1785.79, 0.582149
1786.41, 0.582149
1787.02, 0.582149
1787.64, 0.582324
1788.26, 0.582266
1788.87, 0.582090
1789.49, 0.582090
1790.11, 0.582032
1790.73, 0.581974
1791.35, 0.582149
1791.96, 0.582207
1792.58, 0.582266
1793.21, 0.582090
1793.83, 0.582149
1794.45, 0.582324
1795.07, 0.582207
1795.69, 0.582149
1796.31, 0.582266
1796.93, 0.582324
1797.56, 0.582324
1798.18, 0.582266
1798.8, 0.582441
1799.43, 0.582383
1800.05, 0.582324
1800.68, 0.582383
1801.3, 0.582383
1801.93, 0.582207
1802.56, 0.582149
1803.18, 0.582149
1803.81, 0.582207
1804.44, 0.582090
1805.07, 0.582207
1805.7, 0.582324
1806.33, 0.582441
1806.95, 0.582617
1807.58, 0.582617
1808.22, 0.582266
1808.85, 0.582149
1809.48, 0.582149
1810.11, 0.582324
1810.74, 0.582266
1811.38, 0.582207
1812.01, 0.582558
1812.64, 0.582792
1813.28, 0.582617
1813.91, 0.582441
1814.55, 0.582617
1815.18, 0.582968
1815.82, 0.582792
1816.45, 0.582734
1817.09, 0.582558
1817.73, 0.582558
1818.36, 0.582792
1819.0, 0.582792
1819.64, 0.583143
1820.28, 0.583494
1820.92, 0.583318
1821.56, 0.583201
1822.2, 0.583318
1822.84, 0.583201
1823.48, 0.582909
1824.12, 0.582792
1824.76, 0.582909
1825.41, 0.583494
1826.05, 0.584195
1826.69, 0.583845
1827.34, 0.583435
1827.98, 0.583728
1828.63, 0.583962
1829.27, 0.583786
1829.92, 0.583786
1830.56, 0.584020
1831.21, 0.584020
1831.86, 0.583845
1832.5, 0.583786
1833.15, 0.583728
1833.8, 0.583728
1834.45, 0.584079
1835.1, 0.584429
1835.75, 0.584780
1836.4, 0.584897
1837.05, 0.584839
1837.7, 0.585131
1838.35, 0.584488
1839.01, 0.584429
1839.66, 0.584956
1840.31, 0.584722
1840.96, 0.584663
1841.62, 0.585423
1842.27, 0.585014
1842.93, 0.584079
1843.58, 0.584079
1844.24, 0.584371
1844.9, 0.584371
1845.55, 0.584429
1846.21, 0.585248
1846.87, 0.586067
1847.53, 0.586008
1848.18, 0.585774
1848.84, 0.585073
1849.5, 0.584722
1850.16, 0.584780
1850.82, 0.584722
1851.48, 0.584605
1852.14, 0.584839
1852.81, 0.585482
1853.47, 0.586184
1854.13, 0.585833
1854.8, 0.585073
1855.46, 0.585365
1856.12, 0.586125
1856.79, 0.586242
1857.45, 0.585540
1858.12, 0.585306
1858.79, 0.585716
1859.45, 0.586593
1860.12, 0.586593
1860.79, 0.586125
1861.46, 0.585716
1862.12, 0.585599
1862.79, 0.585599
1863.46, 0.585833
1864.13, 0.586125
1864.8, 0.585950
1865.48, 0.586125
1866.15, 0.586300
1866.82, 0.586710
1867.49, 0.587470
1868.16, 0.587295
1868.84, 0.586476
1869.51, 0.586534
1870.19, 0.587470
1870.86, 0.587821
1871.54, 0.586885
1872.21, 0.586944
1872.89, 0.587762
1873.56, 0.587236
1874.24, 0.586359
1874.92, 0.586417
1875.6, 0.586300
1876.28, 0.586651
1876.96, 0.586827
1877.64, 0.586359
1878.32, 0.586067
1879.0, 0.585716
1879.68, 0.585482
1880.36, 0.585482
1881.04, 0.585540
1881.73, 0.585365
1882.41, 0.585190
1883.09, 0.585306
1883.78, 0.585482
1884.46, 0.585131
1885.15, 0.584722
1885.83, 0.584546
1886.52, 0.584839
1887.21, 0.584605
1887.89, 0.584488
1888.58, 0.584312
1889.27, 0.584429
1889.96, 0.584839
1890.65, 0.584371
1891.34, 0.584195
1892.03, 0.584137
1892.72, 0.583845
1893.41, 0.583669
1894.1, 0.583552
1894.79, 0.583377
1895.49, 0.583026
1896.18, 0.582851
1896.87, 0.582734
1897.57, 0.582675
1898.26, 0.582441
1898.96, 0.582792
1899.65, 0.583085
1900.35, 0.582324
1901.05, 0.581623
1901.74, 0.581447
1902.44, 0.581798
1903.14, 0.581623
1903.84, 0.581155
1904.54, 0.581447
1905.24, 0.581798
1905.94, 0.581330
1906.64, 0.580804
1907.34, 0.580278
1908.04, 0.579752
1908.75, 0.579693
1909.45, 0.579693
1910.15, 0.579693
1910.86, 0.579693
1911.56, 0.579576
1912.27, 0.579401
1912.97, 0.579752
1913.68, 0.579869
1914.39, 0.579167
1915.09, 0.578816
1915.8, 0.578933
1916.51, 0.578875
1917.22, 0.578524
1917.93, 0.578348
1918.64, 0.578173
1919.35, 0.578582
1920.06, 0.579284
1920.77, 0.579225
1921.48, 0.578407
1922.19, 0.578056
1922.91, 0.577939
1923.62, 0.578056
1924.33, 0.577822
1925.05, 0.577647
1925.76, 0.577530
1926.48, 0.577588
1927.19, 0.577705
1927.91, 0.577764
1928.63, 0.577705
1929.35, 0.577179
1930.07, 0.577179
1930.78, 0.577062
1931.5, 0.576828
1932.22, 0.576594
1932.94, 0.576477
1933.66, 0.576653
1934.39, 0.576594
1935.11, 0.576419
1935.83, 0.576419
1936.55, 0.576302
1937.28, 0.576068
1938.0, 0.575892
1938.73, 0.575951
1939.45, 0.576009
1940.18, 0.575659
1940.9, 0.575717
1941.63, 0.575542
1942.36, 0.575132
1943.09, 0.574840
1943.81, 0.574898
1944.54, 0.574840
1945.27, 0.574723
1946.0, 0.574431
1946.73, 0.574138
1947.47, 0.574372
1948.2, 0.574314
1948.93, 0.574138
1949.66, 0.574021
1950.4, 0.573846
1951.13, 0.573787
1951.86, 0.573612
1952.6, 0.573261
1953.34, 0.572910
1954.07, 0.572676
1954.81, 0.572443
1955.55, 0.572501
1956.29, 0.572501
1957.02, 0.572384
1957.76, 0.572209
1958.5, 0.571975
1959.24, 0.571566
1959.98, 0.571332
1960.72, 0.571332
1961.47, 0.571215
1962.21, 0.570805
1962.95, 0.570747
1963.7, 0.570864
1964.44, 0.570688
1965.18, 0.570396
1965.93, 0.570104
1966.67, 0.569811
1967.42, 0.569636
1968.17, 0.569636
1968.92, 0.569636
1969.66, 0.569285
1970.41, 0.569285
1971.16, 0.569402
1971.91, 0.569227
1972.66, 0.568993
1973.41, 0.568817
1974.16, 0.568700
1974.92, 0.568817
1975.67, 0.568817
1976.42, 0.568817
1977.18, 0.568642
1977.93, 0.568525
1978.69, 0.568525
1979.44, 0.568525
1980.2, 0.568642
1980.95, 0.568350
1981.71, 0.568350
1982.47, 0.568466
1983.23, 0.568525
1983.99, 0.568466
1984.74, 0.568350
1985.51, 0.568408
1986.27, 0.568525
1987.03, 0.568817
1987.79, 0.568759
1988.55, 0.568759
1989.32, 0.568993
1990.08, 0.568934
1990.84, 0.568993
1991.61, 0.569051
1992.37, 0.569168
1993.14, 0.569402
1993.9, 0.569636
1994.67, 0.569811
1995.44, 0.569753
1996.21, 0.569753
1996.98, 0.570104
1997.75, 0.570279
1998.52, 0.570221
1999.29, 0.570221
2000.06, 0.570221
2000.83, 0.570396
2001.6, 0.570747
2002.38, 0.571039
2003.15, 0.571039
2003.93, 0.571156
2004.7, 0.571332
2005.48, 0.571332
2006.25, 0.571390
2007.03, 0.571507
2007.81, 0.571682
2008.58, 0.571975
2009.36, 0.572092
2010.14, 0.571975
2010.92, 0.572033
2011.7, 0.572209
2012.48, 0.572501
2013.26, 0.572793
2014.05, 0.573027
2014.83, 0.573261
2015.61, 0.573378
2016.4, 0.573612
2017.18, 0.573904
2017.97, 0.574021
2018.75, 0.574255
2019.54, 0.574372
2020.32, 0.574606
2021.11, 0.574665
2021.9, 0.574723
2022.69, 0.575074
2023.48, 0.575425
2024.27, 0.575659
2025.06, 0.576009
2025.85, 0.576536
2026.64, 0.576536
2027.44, 0.576653
2028.23, 0.577003
2029.02, 0.577237
2029.82, 0.577413
2030.61, 0.577881
2031.41, 0.578173
2032.2, 0.578173
2033.0, 0.578407
2033.8, 0.578758
2034.6, 0.579050
2035.4, 0.579225
2036.2, 0.579342
2037.0, 0.579518
2037.8, 0.579459
2038.6, 0.579752
2039.4, 0.580219
2040.2, 0.580219
2041.01, 0.580453
2041.81, 0.580804
2042.61, 0.581038
2043.42, 0.581096
2044.22, 0.581272
2045.03, 0.581740
2045.84, 0.581857
2046.65, 0.581798
2047.46, 0.581974
2048.26, 0.582090
2049.07, 0.582149
2049.88, 0.582207
2050.69, 0.582383
2051.51, 0.582675
2052.32, 0.582909
2053.13, 0.582851
2053.94, 0.582968
2054.76, 0.583201
2055.57, 0.583260
2056.39, 0.583201
2057.2, 0.583260
2058.02, 0.583494
2058.84, 0.583728
2059.66, 0.583845
2060.48, 0.584020
2061.29, 0.583962
2062.11, 0.584020
2062.94, 0.584137
2063.76, 0.584312
2064.58, 0.584312
2065.4, 0.584195
2066.22, 0.584137
2067.05, 0.584195
2067.87, 0.584195
2068.7, 0.584312
2069.52, 0.584195
2070.35, 0.583903
2071.18, 0.583903
2072.0, 0.584020
2072.83, 0.583728
2073.66, 0.583552
2074.49, 0.583318
2075.32, 0.583026
2076.15, 0.582789
2076.98, 0.581721
2077.82, 0.581187
2078.65, 0.581068
2079.48, 0.580534
2080.32, 0.580238
2081.15, 0.580000
2081.99, 0.580356
2082.83, 0.580356
2083.66, 0.579644
2084.5, 0.578636
2085.34, 0.577983
2086.18, 0.577390
2087.02, 0.577449
2087.86, 0.577152
2088.7, 0.576678
2089.54, 0.576619
2090.39, 0.576144
2091.23, 0.575788
2092.07, 0.575907
2092.92, 0.575669
2093.76, 0.575610
2094.61, 0.574839
2095.45, 0.574008
2096.3, 0.574245
2097.15, 0.574601
2098.0, 0.573830
2098.85, 0.573059
2099.7, 0.573237
2100.55, 0.573177
2101.4, 0.573237
2102.25, 0.573593
2103.1, 0.573593
2103.96, 0.573296
2104.81, 0.572821
2105.67, 0.572762
2106.52, 0.572110
2107.38, 0.571042
2108.24, 0.570626
2109.09, 0.570567
2109.95, 0.570152
2110.81, 0.570448
2111.67, 0.570626
2112.53, 0.570745
2113.39, 0.570864
2114.25, 0.570864
2115.12, 0.571220
2115.98, 0.571338
2116.84, 0.571457
2117.71, 0.571635
2118.58, 0.571516
2119.44, 0.571694
2120.31, 0.571457
2121.18, 0.571457
2122.04, 0.571576
2122.91, 0.571754
2123.78, 0.571635
2124.65, 0.571220
2125.52, 0.571220
2126.4, 0.571694
2127.27, 0.572228
2128.14, 0.572287
2129.02, 0.571516
2129.89, 0.571160
2130.77, 0.570864
2131.64, 0.570270
2132.52, 0.570330
2133.4, 0.570626
2134.27, 0.570686
2135.15, 0.570686
2136.03, 0.571042
2136.91, 0.570864
2137.79, 0.570567
2138.68, 0.570864
2139.56, 0.571398
2140.44, 0.571932
2141.33, 0.571398
2142.21, 0.571457
2143.1, 0.571754
2143.99, 0.571694
2144.87, 0.571932
2145.76, 0.572050
2146.65, 0.571754
2147.54, 0.572110
2148.43, 0.572644
2149.32, 0.572940
2150.21, 0.573177
2151.1, 0.573652
2151.99, 0.573889
2152.89, 0.573949
2153.78, 0.574127
2154.68, 0.574542
2155.57, 0.574661
2156.47, 0.575017
2157.37, 0.575432
2158.27, 0.575432
2159.16, 0.575847
2160.06, 0.575907
2160.96, 0.576144
2161.86, 0.576619
2162.77, 0.576856
2163.67, 0.576915
2164.57, 0.576737
2165.48, 0.576441
2166.38, 0.576678
2167.29, 0.577449
2168.2, 0.578042
2169.1, 0.578220
2170.01, 0.578754
2170.92, 0.578754
2171.83, 0.578339
2172.74, 0.578339
2173.65, 0.578398
2174.56, 0.578517
2175.47, 0.578517
2176.39, 0.578814
2177.3, 0.578932
2178.22, 0.578814
2179.13, 0.578932
2180.05, 0.579051
2180.96, 0.579051
2181.88, 0.579229
2182.8, 0.579348
2183.72, 0.579585
2184.64, 0.579407
2185.56, 0.578932
2186.48, 0.579051
2187.41, 0.579288
2188.33, 0.579466
2189.25, 0.579170
2190.18, 0.578576
2191.1, 0.578695
2192.03, 0.578636
2192.96, 0.578339
2193.89, 0.578636
2194.82, 0.578695
2195.74, 0.578458
2196.68, 0.577983
2197.61, 0.577983
2198.54, 0.578398
2199.47, 0.577924
2200.4, 0.578161
2201.34, 0.578458
2202.28, 0.578339
2203.21, 0.578042
2204.15, 0.577390
2205.08, 0.577093
2206.02, 0.577508
2206.96, 0.577805
2207.9, 0.577449
2208.84, 0.576975
2209.78, 0.576737
2210.73, 0.576381
2211.67, 0.576559
2212.61, 0.576678
2213.56, 0.576500
2214.5, 0.575551
2215.45, 0.575076
2216.4, 0.574601
2217.35, 0.574245
2218.3, 0.574305
2219.24, 0.574186
2220.2, 0.573237
2221.15, 0.572169
2222.1, 0.571338
2223.05, 0.570567
2224.0, 0.569499
2224.96, 0.568490
2225.91, 0.567363
2226.87, 0.566117
2227.83, 0.564812
2228.79, 0.563329
2229.74, 0.561727
2230.7, 0.560481
2231.66, 0.558642
2232.63, 0.556743
2233.59, 0.554963
2234.55, 0.553302
2235.51, 0.551582
2236.48, 0.549861
2237.44, 0.547963
2238.41, 0.546657
2239.38, 0.545708
2240.34, 0.544878
2241.31, 0.543513
2242.28, 0.542623
2243.25, 0.541555
2244.22, 0.540309
2245.19, 0.539301
2246.17, 0.538589
2247.14, 0.537877
2248.12, 0.537224
2249.09, 0.536275
2250.07, 0.535148
2251.04, 0.534554
2252.02, 0.533783
2253.0, 0.532952
2253.98, 0.532359
2254.96, 0.532359
2255.94, 0.532359
2256.92, 0.532122
2257.91, 0.531113
2258.89, 0.530045
2259.88, 0.529927
2260.86, 0.529749
2261.85, 0.528918
2262.83, 0.527850
2263.82, 0.526308
2264.81, 0.524646
2265.8, 0.523638
2266.79, 0.522155
2267.78, 0.519959
2268.78, 0.518001
2269.77, 0.516400
2270.76, 0.514560
2271.76, 0.512899
2272.75, 0.511060
2273.75, 0.509399
2274.75, 0.507797
2275.75, 0.506195
2276.75, 0.504534
2277.75, 0.503051
2278.75, 0.501093
2279.75, 0.499491
2280.75, 0.497652
2281.76, 0.495872
2282.76, 0.494626
2283.77, 0.492965
2284.77, 0.490710
2285.78, 0.488871
2286.79, 0.487150
2287.8, 0.485311
2288.81, 0.483294
2289.82, 0.480506
2290.83, 0.477420
2291.84, 0.474573
2292.86, 0.472259
2293.87, 0.469886
2294.89, 0.466979
2295.91, 0.464012
2296.92, 0.461164
2297.94, 0.458732
2298.96, 0.456596
2299.98, 0.455113
2301.0, 0.454816
2302.02, 0.454638
2303.04, 0.453985
2304.07, 0.452799
2305.09, 0.450782
2306.12, 0.448527
2307.15, 0.445739
2308.17, 0.442772
2309.2, 0.440103
2310.23, 0.436780
2311.26, 0.432864
2312.29, 0.429957
2313.32, 0.427228
2314.35, 0.424558
2315.39, 0.422482
2316.42, 0.421236
2317.46, 0.419871
2318.5, 0.418566
2319.53, 0.417498
2320.57, 0.416490
2321.61, 0.415362
2322.65, 0.414888
2323.69, 0.415244
2324.73, 0.416252
2325.78, 0.418210
2326.82, 0.420702
2327.86, 0.423431
2328.91, 0.426516
2329.96, 0.429542
2331.01, 0.432568
2332.05, 0.435890
2333.1, 0.439450
2334.15, 0.443010
2335.21, 0.446866
2336.26, 0.450663
2337.31, 0.454163
2338.36, 0.457367
2339.42, 0.460749
2340.48, 0.464131
2341.53, 0.467394
2342.59, 0.470716
2343.65, 0.474513
2344.71, 0.477776
2345.77, 0.481158
2346.83, 0.484065
2347.9, 0.486913
2348.96, 0.489761
2350.02, 0.492371
2351.09, 0.494329
2352.16, 0.496168
2353.23, 0.498008
2354.29, 0.499610
2355.36, 0.500974
2356.43, 0.502339
2357.51, 0.503644
2358.58, 0.504890
2359.65, 0.505661
2360.73, 0.506314
2361.8, 0.506907
2362.88, 0.507441
2363.96, 0.507322
2365.03, 0.507322
2366.11, 0.507441
2367.19, 0.507144
2368.27, 0.506907
2369.36, 0.506610
2370.44, 0.505602
2371.53, 0.504771
2372.61, 0.503525
2373.7, 0.501567
2374.78, 0.499135
2375.87, 0.496880
2376.96, 0.494567
2378.05, 0.491778
2379.14, 0.488871
2380.24, 0.486438
2381.33, 0.484362
2382.42, 0.482345
2383.52, 0.480684
2384.61, 0.479734
2385.71, 0.479200
2386.81, 0.479616
2387.91, 0.480802
2389.01, 0.482404
2390.11, 0.483828
2391.22, 0.485371
2392.32, 0.486676
2393.42, 0.487922
2394.53, 0.489049
2395.64, 0.490117
2396.74, 0.491125
2397.85, 0.492134
2398.96, 0.492905
2400.07, 0.493617
2401.18, 0.494151
2402.3, 0.494507
2403.41, 0.494626
2404.52, 0.494389
2405.64, 0.493795
2406.76, 0.492846
2407.88, 0.491719
2408.99, 0.490532
2410.11, 0.489820
2411.23, 0.489286
2412.36, 0.487981
2413.48, 0.486794
2414.6, 0.485371
2415.73, 0.483887
2416.85, 0.482997
2417.98, 0.481989
2419.11, 0.480862
2420.24, 0.480387
2421.37, 0.480150
2422.5, 0.479972
2423.64, 0.479438
2424.77, 0.479082
2425.9, 0.478963
2427.04, 0.478844
2428.18, 0.478726
2429.31, 0.479022
2430.45, 0.479616
2431.59, 0.479912
2432.73, 0.479972
2433.88, 0.479912
2435.02, 0.479794
2436.16, 0.479675
2437.31, 0.479141
2438.45, 0.478370
2439.6, 0.477598
2440.75, 0.476946
2441.9, 0.476412
2443.05, 0.475878
2444.2, 0.475581
2445.35, 0.475107
2446.51, 0.474573
2447.67, 0.474098
2448.82, 0.473267
2449.98, 0.472377
2451.14, 0.471310
2452.3, 0.470538
2453.46, 0.470123
2454.62, 0.469648
2455.78, 0.468996
2456.94, 0.468580
2458.11, 0.468699
2459.28, 0.468996
2460.44, 0.469292
2461.61, 0.469826
2462.78, 0.470479
2463.95, 0.471250
2465.12, 0.472081
2466.3, 0.473030
2467.47, 0.473801
2468.65, 0.474573
2469.82, 0.475166
2471.0, 0.475759
2472.18, 0.476531
2473.36, 0.477302
2474.54, 0.477539
2475.72, 0.477480
2476.9, 0.477242
2478.08, 0.477124
2479.27, 0.476649
2480.46, 0.475997
2481.64, 0.475403
2482.83, 0.474691
2484.02, 0.473920
2485.21, 0.473149
2486.4, 0.471725
2487.6, 0.470360
2488.79, 0.469292
2489.99, 0.468343
2491.18, 0.466919
2492.38, 0.465495
2493.58, 0.464131
2494.78, 0.462529
2495.98, 0.461402
2497.18, 0.460571
2498.39, 0.459978
2499.59, 0.459444
2500.8, 0.458732
2502.01, 0.458139
2503.21, 0.457842
2504.42, 0.457545
2505.63, 0.457130
2506.84, 0.457071
2508.06, 0.456477
2509.27, 0.455706
2510.49, 0.454994
2511.7, 0.454401
2512.92, 0.453748
2514.14, 0.453452
2515.36, 0.453214
2516.58, 0.452680
2517.8, 0.452265
2519.03, 0.452502
2520.25, 0.453096
2521.48, 0.453630
2522.7, 0.454104
2523.93, 0.454816
2525.16, 0.455528
2526.39, 0.456003
2527.62, 0.456774
2528.86, 0.458079
2530.09, 0.459325
2531.33, 0.460452
2532.56, 0.461876
2533.8, 0.463181
2535.04, 0.464012
2536.28, 0.465317
2537.52, 0.466860
2538.76, 0.467987
2540.01, 0.468996
2541.25, 0.469648
2542.5, 0.470182
2543.75, 0.470657
2544.99, 0.471013
2546.24, 0.471369
2547.49, 0.471428
2548.75, 0.471844
2550.0, 0.471725
2551.26, 0.471250
2552.51, 0.471013
2553.77, 0.470954
2555.03, 0.470123
2556.29, 0.469411
2557.55, 0.468818
2558.81, 0.468106
2560.08, 0.466860
2561.34, 0.466148
2562.61, 0.465436
2563.88, 0.464665
2565.14, 0.464190
2566.41, 0.463478
2567.68, 0.462648
2568.96, 0.462529
2570.23, 0.463181
2571.51, 0.463241
2572.78, 0.463003
2574.06, 0.464012
2575.34, 0.464605
2576.62, 0.465436
2577.9, 0.466801
2579.18, 0.467750
2580.47, 0.468165
2581.75, 0.469055
2583.04, 0.469530
2584.32, 0.471310
2585.61, 0.472021
2586.9, 0.472555
2588.2, 0.473683
2589.49, 0.474869
2590.78, 0.476175
2592.08, 0.476827
2593.37, 0.476531
2594.67, 0.478014
2595.97, 0.480743
2597.27, 0.482226
2598.57, 0.482997
2599.88, 0.483709
2601.18, 0.484303
2602.49, 0.485371
2603.79, 0.486260
2605.1, 0.487150
2606.41, 0.489049
2607.72, 0.490413
2609.03, 0.491363
2610.35, 0.492490
2611.66, 0.493261
2612.98, 0.493855
2614.3, 0.494329
2615.62, 0.494211
2616.94, 0.495219
2618.26, 0.496228
2619.58, 0.496050
2620.91, 0.497177
2622.23, 0.497830
2623.56, 0.497948
2624.89, 0.497711
2626.22, 0.497948
2627.55, 0.498838
2628.88, 0.498601
2630.21, 0.498779
2631.55, 0.499787
2632.89, 0.499669
2634.22, 0.499787
2635.56, 0.499669
2636.9, 0.499491
2638.25, 0.499135
2639.59, 0.498482
2640.93, 0.497948
2642.28, 0.497711
2643.63, 0.496821
2644.98, 0.495812
2646.33, 0.495160
2647.68, 0.493973
2649.03, 0.492371
2650.39, 0.490769
2651.74, 0.488812
2653.1, 0.487032
2654.46, 0.485015
2655.82, 0.482819
2657.18, 0.480980
2658.54, 0.478963
2659.9, 0.476946
2661.27, 0.475166
2662.64, 0.473030
2664.01, 0.470420
2665.38, 0.468224
2666.74, 0.466267
2668.12, 0.463953
2669.49, 0.460156
2670.87, 0.457249
2672.24, 0.453511
2673.62, 0.448290
2675.0, 0.442950
2676.38, 0.437611
2677.76, 0.431144
2679.15, 0.421948
2680.54, 0.410023
2681.92, 0.393648
2683.31, 0.373891
2684.7, 0.352770
2686.09, 0.331649
2687.48, 0.311537
2688.88, 0.293797
2690.27, 0.277482
2691.67, 0.262709
2693.07, 0.248470
2694.47, 0.235477
2695.87, 0.223670
2697.27, 0.212813
2698.67, 0.201007
2700.08, 0.187064
2701.49, 0.171698
2702.9, 0.157934
2704.31, 0.147373
2705.72, 0.142034
2707.13, 0.138949
2708.54, 0.135863
2709.96, 0.131770
2711.38, 0.127083
2712.8, 0.122396
2714.22, 0.117946
2715.64, 0.112428
2717.06, 0.104241
2718.49, 0.0930870
2719.91, 0.0811030
2721.34, 0.0734490
2722.77, 0.0723220
2724.2, 0.0734490
2725.63, 0.0751700
2727.07, 0.0783740
2728.5, 0.0808060
2729.94, 0.0785520
2731.38, 0.0757040
2732.82, 0.0762970
2734.26, 0.0796790
2735.7, 0.0841880
2737.15, 0.0870950
2738.59, 0.0888160
2740.04, 0.0902390
2741.49, 0.0914850
2742.94, 0.0921380
2744.39, 0.0924940
2745.84, 0.0939770
2747.3, 0.0959940
2748.76, 0.0977740
2750.21, 0.0995540
2751.67, 0.101097
2753.14, 0.102580
2754.6, 0.104656
2756.06, 0.107445
2757.53, 0.109640
2759.0, 0.111539
2760.46, 0.113496
2761.94, 0.115454
2763.41, 0.117649
2764.88, 0.119904
2766.36, 0.122277
2767.83, 0.125066
2769.31, 0.127795
2770.79, 0.130702
2772.27, 0.133728
2773.76, 0.135745
2775.24, 0.137347
2776.73, 0.138593
2778.22, 0.139423
2779.71, 0.139720
2781.2, 0.139957
2782.69, 0.140076
2784.18, 0.140135
2785.68, 0.140076
2787.18, 0.139957
2788.68, 0.139898
2790.18, 0.139542
2791.68, 0.139364
2793.19, 0.139186
2794.69, 0.138711
2796.2, 0.138237
2797.71, 0.137940
2799.22, 0.137465
2800.73, 0.137050
2802.24, 0.136753
2803.76, 0.136397
2805.28, 0.136041
2806.8, 0.135863
2808.32, 0.135507
2809.84, 0.135567
2811.36, 0.135804
2812.89, 0.135923
2814.42, 0.136397
2815.94, 0.136991
2817.48, 0.137643
2819.01, 0.138415
2820.54, 0.139423
2822.08, 0.140610
2823.61, 0.141796
2825.15, 0.142983
2826.69, 0.144347
2828.23, 0.145771
2829.78, 0.147255
2831.32, 0.148738
2832.87, 0.150458
2834.42, 0.152416
2835.97, 0.154018
2837.52, 0.155798
2839.08, 0.157815
2840.63, 0.160070
2842.19, 0.162146
2843.75, 0.164104
2845.31, 0.166062
2846.87, 0.168257
2848.44, 0.170334
2850.0, 0.172351
2851.57, 0.174131
2853.14, 0.175970
2854.71, 0.177987
2856.28, 0.179945
2857.86, 0.181843
2859.43, 0.183327
2861.01, 0.184632
2862.59, 0.186056
2864.17, 0.187480
2865.76, 0.188844
2867.34, 0.189912
2868.93, 0.190802
2870.52, 0.191633
2872.11, 0.192226
2873.7, 0.192701
2875.29, 0.193175
2876.89, 0.193591
2878.49, 0.194124
2880.08, 0.194243
2881.69, 0.194362
2883.29, 0.194658
2884.89, 0.194896
2886.5, 0.195252
2888.11, 0.195667
2889.72, 0.195904
2891.33, 0.196320
2892.94, 0.196735
2894.56, 0.196854
2896.17, 0.197032
2897.79, 0.197566
2899.42, 0.198159
2901.04, 0.198752
2902.66, 0.199286
2904.29, 0.199939
2905.92, 0.200710
2907.55, 0.201837
2909.18, 0.202787
2910.81, 0.203558
2912.45, 0.204388
2914.08, 0.205634
2915.72, 0.206880
2917.36, 0.208185
2919.01, 0.209609
2920.65, 0.211093
2922.3, 0.212457
2923.94, 0.214000
2925.59, 0.215780
2927.25, 0.217500
2928.9, 0.219161
2930.56, 0.220882
2932.21, 0.222840
2933.87, 0.225094
2935.53, 0.227171
2937.2, 0.229366
2938.86, 0.231680
2940.53, 0.234053
2942.2, 0.236604
2943.87, 0.239155
2945.54, 0.241647
2947.22, 0.244257
2948.89, 0.246987
2950.57, 0.249894
2952.25, 0.252742
2953.93, 0.255767
2955.62, 0.258912
2957.3, 0.262175
2958.99, 0.265201
2960.68, 0.268167
2962.37, 0.271193
2964.07, 0.274456
2965.76, 0.277719
2967.46, 0.280923
2969.16, 0.284245
2970.86, 0.287568
2972.56, 0.290890
2974.27, 0.294390
2975.98, 0.297594
2977.69, 0.300620
2979.4, 0.303705
2981.11, 0.307146
2982.83, 0.310587
2984.54, 0.313850
2986.26, 0.316817
2987.98, 0.319843
2989.71, 0.322750
2991.43, 0.325598
2993.16, 0.328505
2994.89, 0.331352
2996.62, 0.334260
2998.35, 0.337167
3000.09, 0.339896
3001.83, 0.342506
3003.57, 0.344939
3005.31, 0.347609
3007.05, 0.350160
3008.79, 0.352592
3010.54, 0.355025
3012.29, 0.357398
3014.04, 0.359652
3015.8, 0.361907
3017.55, 0.364102
3019.31, 0.366297
3021.07, 0.368492
3022.83, 0.370688
3024.59, 0.372942
3026.36, 0.374959
3028.13, 0.376976
3029.9, 0.378875
3031.67, 0.380714
3033.44, 0.382731
3035.22, 0.384571
3037.0, 0.386350
3038.78, 0.388071
3040.56, 0.389792
3042.34, 0.391393
3044.13, 0.393055
3045.92, 0.394834
3047.71, 0.396555
3049.5, 0.398038
3051.3, 0.399640
3053.09, 0.401301
3054.89, 0.403022
3056.69, 0.404683
3058.5, 0.406166
3060.3, 0.407650
3062.11, 0.409192
3063.92, 0.410794
3065.73, 0.412277
3067.55, 0.413820
3069.36, 0.415184
3071.18, 0.416490
3073.0, 0.417973
3074.82, 0.419278
3076.65, 0.420583
3078.48, 0.422067
3080.31, 0.423490
3082.14, 0.424914
3083.97, 0.426219
3085.8, 0.427347
3087.64, 0.428474
3089.48, 0.429601
3091.33, 0.430788
3093.17, 0.431678
3095.02, 0.432686
3096.87, 0.433636
3098.72, 0.434644
3100.57, 0.435593
3102.43, 0.436543
3104.28, 0.437433
3106.14, 0.438263
3108.01, 0.439094
3109.87, 0.439925
3111.74, 0.440814
3113.61, 0.441764
3115.48, 0.442772
3117.35, 0.443544
3119.23, 0.444434
3121.1, 0.445145
3122.98, 0.445857
3124.87, 0.446510
3126.75, 0.447163
3128.64, 0.447934
3130.53, 0.448646
3132.42, 0.449239
3134.31, 0.449892
3136.21, 0.450722
3138.11, 0.451612
3140.01, 0.452502
3141.91, 0.453392
3143.82, 0.454460
3145.73, 0.455528
3147.64, 0.456418
3149.55, 0.457189
3151.46, 0.458079
3153.38, 0.458850
3155.3, 0.459800
3157.22, 0.460868
3159.14, 0.461817
3161.07, 0.462648
3163.0, 0.463359
3164.93, 0.463953
3166.86, 0.464605
3168.8, 0.465317
3170.74, 0.466148
3172.68, 0.467275
3174.62, 0.468343
3176.56, 0.469411
3178.51, 0.470360
3180.46, 0.471488
3182.42, 0.472377
3184.37, 0.473208
3186.33, 0.474157
3188.29, 0.475107
3190.25, 0.476056
3192.21, 0.477183
3194.18, 0.478251
3196.15, 0.479022
3198.12, 0.479734
3200.09, 0.480684
3202.07, 0.481395
3204.05, 0.482107
3206.03, 0.482760
3208.02, 0.483413
3210.0, 0.484006
3211.99, 0.484421
3213.98, 0.484481
3215.98, 0.484540
3217.97, 0.484659
3219.97, 0.484540
3221.97, 0.484303
3223.98, 0.484125
3225.98, 0.483828
3227.99, 0.483413
3230.0, 0.483116
3232.02, 0.482879
3234.03, 0.482345
3236.05, 0.481870
3238.07, 0.481455
3240.1, 0.480980
3242.12, 0.480624
3244.15, 0.480506
3246.18, 0.480565
3248.22, 0.480506
3250.25, 0.480506
3252.29, 0.480328
3254.33, 0.480209
3256.38, 0.480150
3258.43, 0.480150
3260.47, 0.480150
3262.53, 0.480268
3264.58, 0.480328
3266.64, 0.480150
3268.7, 0.480031
3270.76, 0.479853
3272.82, 0.479794
3274.89, 0.479734
3276.96, 0.479497
3279.04, 0.479022
3281.11, 0.478548
3283.19, 0.477658
3285.27, 0.476293
3287.35, 0.474632
3289.44, 0.472555
3291.53, 0.470004
3293.62, 0.466326
3295.71, 0.461461
3297.81, 0.455587
3299.91, 0.449714
3302.01, 0.444730
3304.11, 0.441111
3306.22, 0.438797
3308.33, 0.437551
3310.44, 0.437373
3312.56, 0.437967
3314.68, 0.439213
3316.8, 0.440636
3318.92, 0.442001
3321.05, 0.443306
3323.18, 0.444493
3325.31, 0.445561
3327.44, 0.446391
3329.58, 0.446629
3331.72, 0.446510
3333.86, 0.446451
3336.01, 0.446332
3338.16, 0.446332
3340.31, 0.446332
3342.46, 0.446629
3344.61, 0.447163
3346.77, 0.447875
3348.94, 0.449002
3351.1, 0.450307
3353.27, 0.451790
3355.44, 0.453274
3357.61, 0.454697
3359.79, 0.456181
3361.97, 0.457605
3364.15, 0.458732
3366.33, 0.459800
3368.52, 0.460927
3370.71, 0.461995
3372.9, 0.463063
3375.1, 0.464012
3377.3, 0.464546
3379.5, 0.464783
3381.71, 0.464665
3383.91, 0.464368
3386.12, 0.464309
3388.34, 0.464487
3390.55, 0.464665
3392.77, 0.464605
3394.99, 0.464249
3397.22, 0.463715
3399.45, 0.462885
3401.68, 0.462054
3403.91, 0.461342
3406.15, 0.460749
3408.39, 0.460215
3410.63, 0.459681
3412.87, 0.459503
3415.12, 0.459503
3417.37, 0.459622
3419.63, 0.460334
3421.88, 0.461224
3424.14, 0.461995
3426.41, 0.462588
3428.67, 0.462648
3430.94, 0.462232
3433.21, 0.461283
3435.49, 0.459978
3437.77, 0.458435
3440.05, 0.456893
3442.33, 0.455587
3444.62, 0.454519
3446.91, 0.453926
3449.2, 0.453808
3451.5, 0.454341
3453.8, 0.455053
3456.1, 0.455943
3458.41, 0.456833
3460.72, 0.457901
3463.03, 0.459028
3465.34, 0.459978
3467.66, 0.460927
3469.98, 0.462292
3472.31, 0.463834
3474.63, 0.465377
3476.96, 0.466801
3479.3, 0.468284
3481.64, 0.470004
3483.97, 0.471844
3486.32, 0.473742
3488.66, 0.475700
3491.01, 0.477836
3493.36, 0.480328
3495.72, 0.482879
3498.08, 0.485905
3500.44, 0.489464
3502.81, 0.493143
3505.18, 0.496999
3507.55, 0.500915
3509.92, 0.504890
3512.3, 0.508568
3514.68, 0.511831
3517.06, 0.514916
3519.45, 0.517645
3521.84, 0.519841
3524.24, 0.521917
3526.64, 0.523578
3529.04, 0.524884
3531.44, 0.526189
3533.85, 0.527435
3536.26, 0.528503
3538.67, 0.529215
3541.09, 0.529689
3543.51, 0.530105
3545.93, 0.530401
3548.36, 0.530876
3550.79, 0.531825
3553.22, 0.533012
3555.66, 0.534080
3558.1, 0.535266
3560.54, 0.536334
3562.99, 0.537165
3565.44, 0.537936
3567.9, 0.538529
3570.35, 0.539063
3572.81, 0.539657
3575.28, 0.540250
3577.75, 0.540843
3580.22, 0.541258
3582.69, 0.541614
3585.17, 0.542030
3587.65, 0.542326
3590.14, 0.542623
3592.62, 0.542920
3595.11, 0.543276
3597.61, 0.543572
3600.11, 0.543869
3602.61, 0.544166
3605.11, 0.544344
3607.62, 0.544522
3610.14, 0.544699
3612.65, 0.544937
3615.17, 0.545233
3617.69, 0.545352
3620.22, 0.545530
3622.75, 0.545767
3625.28, 0.546005
3627.82, 0.546183
3630.36, 0.546183
3632.9, 0.546242
3635.45, 0.546361
3638.0, 0.546539
3640.56, 0.546657
3643.12, 0.546657
3645.68, 0.546657
3648.24, 0.546717
3650.81, 0.546895
3653.39, 0.547013
3655.96, 0.547132
3658.54, 0.547132
3661.13, 0.547310
3663.71, 0.547369
3666.3, 0.547191
3668.9, 0.547013
3671.5, 0.547073
3674.1, 0.547132
3676.7, 0.547191
3679.31, 0.547251
3681.93, 0.547310
3684.54, 0.547251
3687.17, 0.546895
3689.79, 0.546242
3692.42, 0.545886
3695.05, 0.545886
3697.69, 0.545471
3700.32, 0.545115
3702.97, 0.544699
3705.61, 0.544344
3708.27, 0.544047
3710.92, 0.543750
3713.58, 0.543394
3716.24, 0.543335
3718.91, 0.543394
3721.58, 0.543394
3724.25, 0.543394
3726.93, 0.543394
3729.61, 0.543513
3732.29, 0.543572
3734.98, 0.543513
3737.67, 0.543098
3740.37, 0.542504
3743.07, 0.541555
3745.78, 0.540428
3748.49, 0.539063
3751.2, 0.537521
3753.91, 0.535800
3756.63, 0.533783
3759.36, 0.531588
3762.09, 0.529333
3764.82, 0.527138
3767.55, 0.525002
3770.29, 0.522629
3773.04, 0.520019
3775.78, 0.517645
3778.54, 0.515332
3781.29, 0.512721
3784.05, 0.509933
3786.82, 0.506907
3789.59, 0.504119
3792.36, 0.501330
3795.13, 0.498542
3797.92, 0.496050
3800.7, 0.494033
3803.49, 0.492431
3806.28, 0.492015
3809.08, 0.492965
3811.88, 0.494982
3814.68, 0.497652
3817.49, 0.500618
3820.31, 0.503644
3823.12, 0.506610
3825.94, 0.509280
3828.77, 0.511713
3831.6, 0.513848
3834.43, 0.515688
3837.27, 0.517052
3840.11, 0.517883
3842.96, 0.517764
3845.81, 0.516400
3848.67, 0.513789
3851.53, 0.509873
3854.39, 0.505305
3857.26, 0.501033
3860.13, 0.497414
3863.01, 0.494685
3865.89, 0.492787
3868.77, 0.491303
3871.66, 0.490058
3874.55, 0.488871
3877.45, 0.487803
3880.35, 0.486913
3883.26, 0.486260
3886.17, 0.485905
3889.09, 0.485608
3892.01, 0.485193
3894.93, 0.484362
3897.86, 0.482701
3900.79, 0.480090
3903.73, 0.477124
3906.67, 0.473979
3909.62, 0.470835
3912.57, 0.467987
3915.52, 0.465792
3918.48, 0.464131
3921.45, 0.462885
3924.42, 0.461995
3927.39, 0.461224
3930.37, 0.460393
3933.35, 0.459444
3936.34, 0.458495
3939.33, 0.457664
3942.32, 0.456833
3945.32, 0.456240
3948.33, 0.455647
3951.34, 0.455113
3954.35, 0.454697
3957.37, 0.454460
3960.39, 0.454341
3963.42, 0.454460
3966.45, 0.455291
3969.49, 0.457130
3972.53, 0.460096
3975.58, 0.464190
3978.63, 0.469174
3981.68, 0.474869
3984.75, 0.480328
3987.81, 0.485311
3990.88, 0.489820
3993.95, 0.494092
3997.03, 0.498126
4000.12, 0.502101
4003.21, 0.505958
4006.3, 0.509814
4009.4, 0.513433
4012.5, 0.516756
4015.61, 0.519781
4018.72, 0.522510
4021.84, 0.524884
4024.96, 0.527019
4028.09, 0.528740
4031.22, 0.530401
4034.36, 0.531884
4037.5, 0.533130
4040.65, 0.534258
4043.8, 0.535266
4046.96, 0.536156
4050.12, 0.536987
4053.29, 0.537639
4056.46, 0.538351
4059.64, 0.538945
4062.82, 0.539419
4066.0, 0.539835
4069.19, 0.540250
4072.39, 0.540546
4075.59, 0.540784
4078.8, 0.541021
4082.01, 0.541258
4085.23, 0.541377
4088.45, 0.541555
4091.68, 0.541733
4094.91, 0.541792
4098.15, 0.541792
4101.39, 0.541792
4104.63, 0.541911
4107.89, 0.541970
4111.14, 0.541970
4114.41, 0.541852
4117.67, 0.541614
4120.95, 0.541555
4124.23, 0.541555
4127.51, 0.541555
4130.8, 0.541318
4134.09, 0.541140
4137.39, 0.540902
4140.7, 0.540665
4144.01, 0.540546
4147.32, 0.540428
4150.64, 0.540368
4153.97, 0.540309
4157.3, 0.540368
4160.64, 0.540368
4163.98, 0.540428
4167.33, 0.540487
4170.68, 0.540487
4174.04, 0.540487
4177.4, 0.540428
4180.77, 0.540250
4184.14, 0.540072
4187.52, 0.540013
4190.91, 0.539775
4194.3, 0.539597
4197.69, 0.539301
4201.1, 0.538885
4204.5, 0.538233
4207.92, 0.537402
4211.34, 0.536512
4214.76, 0.535800
4218.19, 0.535088
4221.62, 0.534376
4225.06, 0.533664
4228.51, 0.533130
4231.96, 0.532715
4235.42, 0.532596
4238.88, 0.532478
4242.35, 0.532596
4245.83, 0.532952
4249.31, 0.533546
4252.79, 0.534376
4256.28, 0.534792
4259.78, 0.533961
4263.29, 0.532774
4266.79, 0.531825
4270.31, 0.531350
4273.83, 0.530995
4277.35, 0.530579
4280.89, 0.530223
4284.42, 0.530164
4287.97, 0.530223
4291.52, 0.530223
4295.07, 0.530164
4298.63, 0.530283
4302.2, 0.530342
4305.78, 0.530223
4309.35, 0.530342
4312.94, 0.530520
4316.53, 0.530698
4320.13, 0.530995
4323.73, 0.531173
4327.34, 0.531350
4330.96, 0.531410
4334.58, 0.531469
4338.21, 0.531647
4341.84, 0.531825
4345.48, 0.531944
4349.12, 0.532003
4352.77, 0.531944
4356.43, 0.531766
4360.1, 0.531706
4363.76, 0.531588
4367.44, 0.531350
4371.12, 0.530995
4374.81, 0.530520
4378.51, 0.530045
4382.21, 0.529689
4385.92, 0.529393
4389.63, 0.529037
4393.35, 0.528503
4397.08, 0.527969
4400.81, 0.527494
4404.55, 0.527019
4408.29, 0.526545
4412.04, 0.526011
4415.8, 0.525477
4419.57, 0.524884
4423.34, 0.524290
4427.12, 0.523638
4430.9, 0.523163
4434.69, 0.522629
4438.49, 0.522214
4442.29, 0.521799
4446.1, 0.521561
4449.92, 0.521324
4453.74, 0.521027
4457.57, 0.520731
4461.41, 0.520671
4465.25, 0.520375
4469.1, 0.520019
4472.95, 0.519663
4476.82, 0.519307
4480.69, 0.518832
4484.56, 0.518179
4488.44, 0.517527
4492.33, 0.516815
4496.23, 0.515866
4500.13, 0.514916
4504.04, 0.513848
4507.96, 0.512603
4511.88, 0.511535
4515.81, 0.510348
4519.75, 0.509043
4523.69, 0.507797
4527.65, 0.506551
4531.6, 0.505483
4535.57, 0.504474
4539.54, 0.503407
4543.52, 0.502339
4547.5, 0.501033
4551.5, 0.499431
4555.5, 0.497889
4559.5, 0.496287
4563.52, 0.494745
4567.54, 0.493083
4571.56, 0.491481
4575.6, 0.489820
4579.64, 0.488278
4583.69, 0.486676
4587.75, 0.484955
4591.81, 0.483472
4595.88, 0.482048
4599.96, 0.480624
4604.04, 0.479141
4608.14, 0.477895
4612.24, 0.476590
4616.34, 0.475285
4620.46, 0.474098
4624.58, 0.472911
4628.71, 0.471725
4632.84, 0.470657
4636.99, 0.469589
4641.14, 0.468580
4645.3, 0.467631
4649.47, 0.466741
4653.64, 0.465851
4657.82, 0.465139
4662.01, 0.464487
4666.21, 0.463893
4670.41, 0.463241
4674.62, 0.462292
4678.84, 0.461342
4683.07, 0.460096
4687.3, 0.458554
4691.54, 0.457011
4695.79, 0.455350
4700.05, 0.453808
4704.31, 0.452265
4708.59, 0.450900
4712.87, 0.449358
4717.15, 0.447815
4721.45, 0.445976
4725.76, 0.444374
4730.07, 0.442535
4734.39, 0.440874
4738.72, 0.439035
4743.05, 0.437077
4747.39, 0.435060
4751.75, 0.433280
4756.1, 0.431559
4760.47, 0.429661
4764.85, 0.427881
4769.23, 0.425923
4773.62, 0.424321
4778.02, 0.422482
4782.43, 0.421117
4786.85, 0.419575
4791.27, 0.418269
4795.7, 0.417083
4800.14, 0.416252
4804.59, 0.415600
4809.05, 0.415066
4813.51, 0.414769
4817.99, 0.414294
4822.47, 0.413760
4826.96, 0.413167
4831.46, 0.412574
4835.96, 0.411981
4840.48, 0.411209
4845.0, 0.410319
4849.54, 0.409311
4854.08, 0.408361
4858.63, 0.407234
4863.18, 0.406107
4867.75, 0.404920
4872.33, 0.403853
4876.91, 0.402844
4881.5, 0.401954
4886.1, 0.401005
4890.71, 0.400174
4895.33, 0.399284
4899.96, 0.398276
4904.59, 0.397208
4909.24, 0.396080
4913.89, 0.394894
4918.55, 0.393707
4923.22, 0.392402
4927.9, 0.391097
4932.59, 0.389792
4937.29, 0.388486
4942.0, 0.387122
4946.71, 0.385757
4951.44, 0.384274
4956.17, 0.382850
4960.91, 0.381307
4965.67, 0.379706
4970.43, 0.378163
4975.2, 0.376443
4979.98, 0.374722
4984.76, 0.373120
4989.56, 0.371400
4994.37, 0.369798
4999.18, 0.368196
5004.01, 0.366475
5008.84, 0.364695
5013.69, 0.363093
5018.54, 0.361373
5023.4, 0.359890
5028.28, 0.358525
5033.16, 0.357101
5038.05, 0.355677
5042.95, 0.354372
5047.86, 0.353186
5052.78, 0.351999
5057.71, 0.350694
5062.65, 0.349626
5067.6, 0.348855
5072.56, 0.348499
5077.53, 0.348083
5082.5, 0.347431
5087.49, 0.346541
5092.49, 0.345591
5097.5, 0.344345
5102.51, 0.342981
5107.54, 0.341498
5112.58, 0.340014
5117.62, 0.338650
5122.68, 0.337404
5127.75, 0.336514
5132.82, 0.336099
5137.91, 0.336099
5143.01, 0.336633
5148.12, 0.337345
5153.23, 0.338413
5158.36, 0.339421
5163.5, 0.340370
5168.65, 0.341260
5173.81, 0.342032
5178.98, 0.342566
5184.15, 0.342922
5189.34, 0.343040
5194.54, 0.342803
5199.75, 0.342150
5204.98, 0.341082
5210.21, 0.339599
5215.45, 0.337997
5220.7, 0.335980
5225.96, 0.333370
5231.23, 0.330225
5236.52, 0.326903
5241.81, 0.323580
5247.12, 0.320555
5252.44, 0.318181
5257.76, 0.316461
5263.1, 0.315274
5268.45, 0.314325
5273.81, 0.313316
5279.18, 0.312308
5284.56, 0.311062
5289.95, 0.309757
5295.36, 0.308392
5300.77, 0.306909
5306.2, 0.305188
5311.63, 0.303290
5317.08, 0.301391
5322.54, 0.299730
5328.01, 0.298366
5333.49, 0.297357
5338.98, 0.296586
5344.49, 0.296111
5350.0, 0.295577
5355.53, 0.295043
5361.07, 0.294331
5366.62, 0.293441
5372.18, 0.292314
5377.75, 0.291068
5383.34, 0.289763
5388.93, 0.288517
5394.54, 0.287152
5400.16, 0.285728
5405.79, 0.284067
5411.44, 0.282228
5417.09, 0.280092
5422.76, 0.277778
5428.43, 0.275465
5434.12, 0.272617
5439.83, 0.269413
5445.54, 0.265853
5451.26, 0.262056
5457.0, 0.258022
5462.75, 0.254047
5468.52, 0.250724
5474.29, 0.248233
5480.08, 0.246512
5485.88, 0.245385
5491.69, 0.244673
5497.51, 0.244198
5503.35, 0.243724
5509.2, 0.243368
5515.06, 0.243071
5520.93, 0.242952
5526.82, 0.243071
5532.71, 0.243308
5538.63, 0.243664
5544.55, 0.243961
5550.49, 0.244079
5556.44, 0.244020
5562.4, 0.243961
5568.37, 0.243605
5574.36, 0.243071
5580.36, 0.242537
5586.37, 0.242062
5592.4, 0.241410
5598.44, 0.240698
5604.49, 0.239986
5610.56, 0.239096
5616.63, 0.238147
5622.73, 0.237197
5628.83, 0.236307
5634.95, 0.235417
5641.08, 0.234765
5647.23, 0.234468
5653.39, 0.233994
5659.56, 0.233460
5665.74, 0.232807
5671.94, 0.232154
5678.15, 0.231620
5684.38, 0.231324
5690.62, 0.231027
5696.87, 0.230908
5703.14, 0.230374
5709.42, 0.229781
5715.72, 0.229247
5722.03, 0.228476
5728.35, 0.227527
5734.69, 0.226459
5741.03, 0.225094
5747.4, 0.223730
5753.78, 0.222602
5760.17, 0.221060
5766.58, 0.219636
5773.0, 0.218746
5779.44, 0.217737
5785.88, 0.216610
5792.35, 0.215542
5798.83, 0.214534
5805.32, 0.213466
5811.83, 0.212457
5818.35, 0.211271
5824.89, 0.210321
5831.45, 0.209491
5838.01, 0.208660
5844.59, 0.207770
5851.19, 0.206880
5857.8, 0.205812
5864.43, 0.204804
5871.07, 0.203854
5877.73, 0.202609
5884.4, 0.201897
5891.09, 0.201125
5897.79, 0.200473
5904.5, 0.200235
5911.23, 0.199761
5917.98, 0.199464
5924.75, 0.199464
5931.53, 0.199108
5938.32, 0.199108
5945.13, 0.199464
5951.96, 0.199583
5958.8, 0.199523
5965.65, 0.199345
5972.53, 0.199464
5979.42, 0.199286
5986.32, 0.198811
5993.24, 0.198455
6000.18, 0.197862
6007.13, 0.196735
6014.1, 0.195252
6021.08, 0.193769
6028.09, 0.191929
6035.1, 0.189734
6042.14, 0.187183
6049.19, 0.184513
6056.25, 0.182555
6063.34, 0.180419
6070.44, 0.178165
6077.55, 0.176326
6084.69, 0.174605
6091.84, 0.172885
6099.0, 0.171283
6106.19, 0.169740
6113.39, 0.168554
6120.61, 0.168020
6127.84, 0.167545
6135.09, 0.167011
6142.36, 0.166655
6149.65, 0.166240
6156.95, 0.165765
6164.27, 0.165528
6171.61, 0.165350
6178.97, 0.164875
6186.34, 0.164638
6193.73, 0.164697
6201.14, 0.164401
6208.57, 0.164223
6216.01, 0.164460
6223.47, 0.165053
6230.95, 0.165528
6238.45, 0.166240
6245.97, 0.167130
6253.5, 0.168138
6261.06, 0.169147
6268.63, 0.170512
6276.21, 0.172232
6283.82, 0.174190
6291.45, 0.176207
6299.1, 0.178343
6306.76, 0.180538
6314.44, 0.183030
6322.14, 0.185759
6329.86, 0.188488
6337.6, 0.190980
6345.35, 0.194184
6353.13, 0.197566
6360.92, 0.200295
6368.74, 0.202490
6376.57, 0.204626
6384.43, 0.206465
6392.3, 0.208067
6400.19, 0.209313
6408.1, 0.210084
6416.03, 0.211449
6423.98, 0.213228
6431.95, 0.214296
6439.94, 0.215186
6447.95, 0.215780
6455.98, 0.216195
6464.03, 0.216432
6472.1, 0.216551
6480.19, 0.216314
6488.31, 0.215898
6496.44, 0.215839
6504.59, 0.216136
6512.76, 0.215661
6520.95, 0.214771
6529.16, 0.214178
6537.4, 0.213347
6545.65, 0.212160
6553.92, 0.210915
6562.22, 0.209669
6570.54, 0.208245
6578.88, 0.206999
6587.23, 0.205516
6595.61, 0.203854
6604.02, 0.202193
6612.44, 0.200473
6620.89, 0.198752
6629.35, 0.196735
6637.84, 0.194836
6646.35, 0.193650
6654.88, 0.192345
6663.44, 0.190802
6672.01, 0.189260
6680.61, 0.187836
6689.23, 0.186708
6697.88, 0.185581
6706.54, 0.184454
6715.23, 0.183386
6723.94, 0.182318
6732.67, 0.181309
6741.42, 0.180301
6750.2, 0.179233
6759.0, 0.178165
6767.82, 0.177038
6776.67, 0.175851
6785.54, 0.174605
6794.44, 0.173597
6803.35, 0.172766
6812.29, 0.171876
6821.26, 0.170808
6830.24, 0.169918
6839.25, 0.169088
6848.29, 0.168138
6857.35, 0.167189
6866.43, 0.166833
6875.54, 0.166655
6884.67, 0.166240
6893.82, 0.165765
6903.0, 0.165231
6912.2, 0.164816
6921.43, 0.164460
6930.69, 0.164163
6939.96, 0.163629
6949.27, 0.163095
6958.59, 0.162502
6967.95, 0.162205
6977.33, 0.161790
6986.73, 0.161316
6996.16, 0.160663
7005.61, 0.160070
7015.09, 0.159180
7024.6, 0.158171
7034.13, 0.156925
7043.69, 0.155205
7053.27, 0.153187
7062.88, 0.151230
7072.52, 0.149331
7082.18, 0.147611
7091.87, 0.146246
7101.58, 0.145178
7111.32, 0.144051
7121.09, 0.142864
7130.88, 0.141559
7140.71, 0.140313
7150.56, 0.139186
7160.43, 0.138059
7170.33, 0.136753
7180.27, 0.135448
7190.23, 0.134202
7200.21, 0.132956
7210.23, 0.131710
7220.27, 0.130405
7230.34, 0.128863
7240.44, 0.127498
7250.56, 0.126252
7260.72, 0.124888
7270.9, 0.123404
7281.12, 0.121802
7291.36, 0.120260
7301.63, 0.118836
7311.93, 0.117412
7322.25, 0.115988
7332.61, 0.114624
7343.0, 0.113259
7353.41, 0.111894
7363.86, 0.110649
7374.33, 0.109640
7384.83, 0.108572
7395.37, 0.107445
7405.93, 0.106377
7416.53, 0.105309
7427.15, 0.104300
7437.81, 0.103351
7448.5, 0.102521
7459.22, 0.101631
7469.96, 0.100800
7480.74, 0.100147
7491.55, 0.0995540
7502.39, 0.0989010
7513.27, 0.0984860
7524.17, 0.0981300
7535.11, 0.0977740
7546.08, 0.0973590
7557.08, 0.0968250
7568.11, 0.0962910
7579.17, 0.0957570
7590.27, 0.0950450
7601.4, 0.0942740
7612.56, 0.0934430
7623.76, 0.0926720
7634.98, 0.0918410
7646.24, 0.0908330
7657.54, 0.0897050
7668.87, 0.0886970
7680.23, 0.0875700
7691.62, 0.0864420
7703.05, 0.0853150
7714.51, 0.0843660
7726.01, 0.0833570
7737.54, 0.0824080
7749.11, 0.0815180
7760.71, 0.0804500
7772.35, 0.0795010
7784.02, 0.0787300
7795.72, 0.0778990
7807.46, 0.0771280
7819.23, 0.0762380
7831.04, 0.0752290
7842.89, 0.0740430
7854.77, 0.0727370
7866.69, 0.0713130
7878.65, 0.0698900
7890.64, 0.0682880
7902.67, 0.0666260
7914.74, 0.0649650
7926.84, 0.0633630
7938.98, 0.0618210
7951.16, 0.0600410
7963.37, 0.0579640
7975.62, 0.0562440
7987.91, 0.0545830
8000.24, 0.0529210
8012.6, 0.0511420
8025.01, 0.0494210
8037.45, 0.0475820
8049.93, 0.0457430
8062.45, 0.0440220
8075.01, 0.0423020
8087.61, 0.0405810
8100.24, 0.0389200
8112.91, 0.0370810
8125.63, 0.0353010
8138.39, 0.0332840
8151.18, 0.0314440
8164.02, 0.0298420
8176.9, 0.0285370
8189.81, 0.0271130
8202.77, 0.0255710
8215.77, 0.0239690
8228.82, 0.0226640
8241.9, 0.0213580
8255.02, 0.0204090
8268.19, 0.0195790
8281.39, 0.0189850
8294.65, 0.0186890
8307.94, 0.0187480
8321.28, 0.0187480
8334.66, 0.0189260
8348.08, 0.0192820
8361.54, 0.0195190
8375.05, 0.0197570
8388.6, 0.0201720
8402.2, 0.0206460
8415.84, 0.0213580
8429.52, 0.0219520
8443.25, 0.0228420
8457.02, 0.0238500
8470.84, 0.0250960
8484.7, 0.0268170
8498.61, 0.0290120
8512.57, 0.0315040
8526.57, 0.0344700
8540.62, 0.0377930
8554.71, 0.0415900
8568.85, 0.0455050
8583.04, 0.0495400
8597.27, 0.0535740
8611.55, 0.0575490
8625.88, 0.0612280
8640.26, 0.0644910
8654.68, 0.0671010
8669.16, 0.0690590
8683.68, 0.0704240
8698.25, 0.0714910
8712.87, 0.0723220
8727.53, 0.0727970
8742.25, 0.0729750
8757.02, 0.0730340
8771.83, 0.0727970
8786.7, 0.0725590
8801.62, 0.0719660
8816.59, 0.0714910
8831.61, 0.0710170
8846.68, 0.0707200
8861.8, 0.0702460
8876.97, 0.0700680
8892.2, 0.0710170
8907.48, 0.0734490
8922.81, 0.0762970
8938.2, 0.0791450
8953.63, 0.0819330
8969.13, 0.0848400
8984.67, 0.0878070
9000.27, 0.0905360
9015.92, 0.0929090
9031.63, 0.0952230
9047.39, 0.0974780
9063.21, 0.0993760
9079.08, 0.101156
9095.01, 0.103826
9111.0, 0.107148
9127.04, 0.110708
9143.13, 0.114030
9159.28, 0.117115
9175.49, 0.119548
9191.76, 0.121565
9208.09, 0.123464
9224.47, 0.125599
9240.92, 0.128447
9257.42, 0.131888
9273.98, 0.135448
9290.6, 0.138711
9307.28, 0.141559
9324.02, 0.143873
9340.82, 0.145593
9357.68, 0.147729
9374.6, 0.150874
9391.58, 0.155383
9408.62, 0.161731
9425.73, 0.170156
9442.9, 0.180123
9460.13, 0.190683
9477.42, 0.200235
9494.78, 0.207948
9512.2, 0.213584
9529.69, 0.216966
9547.24, 0.218093
9564.86, 0.217500
9582.54, 0.215958
9600.28, 0.214237
9618.1, 0.211330
9635.97, 0.206584
9653.92, 0.200354
9671.93, 0.193591
9690.01, 0.187124
9708.16, 0.181369
9726.37, 0.176978
9744.65, 0.174665
9763.0, 0.174012
9781.43, 0.174071
9799.92, 0.173775
9818.48, 0.172529
9837.1, 0.170571
9855.8, 0.168435
9874.58, 0.166240
9893.42, 0.163807
9912.34, 0.161375
9931.33, 0.159120
9950.39, 0.157044
9969.52, 0.154908
9988.74, 0.152950
10008.0, 0.151230
10027.4, 0.149806
10046.8, 0.149034
10066.3, 0.148441
10085.9, 0.147907
10105.6, 0.147017
10125.3, 0.145356
10145.1, 0.142746
10165.0, 0.139245
10185.0, 0.134973
10205.0, 0.130642
10225.2, 0.127261
10245.4, 0.124413
10265.7, 0.122040
10286.0, 0.119963
10306.5, 0.117946
10327.0, 0.116048
10347.6, 0.114327
10368.3, 0.112428
10389.1, 0.110233
10409.9, 0.107919
10430.9, 0.105606
10451.9, 0.103470
10473.0, 0.101453
10494.2, 0.0989610
10515.5, 0.0960540
10536.9, 0.0930870
10558.4, 0.0898240
10579.9, 0.0868580
10601.5, 0.0838910
10623.3, 0.0810430
10645.1, 0.0786700
10667.0, 0.0765940
10689.0, 0.0746360
10711.1, 0.0729150
10733.2, 0.0719070
10755.5, 0.0721440
10777.9, 0.0734490
10800.3, 0.0755260
10822.9, 0.0778990
10845.5, 0.0800350
10868.2, 0.0814590
10891.1, 0.0824080
10914.0, 0.0827050
10937.0, 0.0827050
10960.2, 0.0826450
10983.4, 0.0825860
11006.7, 0.0825860
11030.1, 0.0825860
11053.6, 0.0827640
11077.3, 0.0832390
11101.0, 0.0838320
11124.8, 0.0848400
11148.7, 0.0855520
11172.7, 0.0856710
11196.9, 0.0857900
11221.1, 0.0854930
11245.4, 0.0847810
11269.9, 0.0842470
11294.4, 0.0837130
11319.1, 0.0830010
11343.9, 0.0823490
11368.8, 0.0819930
11393.7, 0.0813400
11418.8, 0.0808650
11444.0, 0.0805090
11469.4, 0.0798570
11494.8, 0.0795600
11520.3, 0.0797380
11546.0, 0.0798570
11571.8, 0.0797380
11597.7, 0.0795010
11623.7, 0.0793820
11649.8, 0.0789080
11676.0, 0.0776620
11702.4, 0.0752880
11728.9, 0.0738650
11755.5, 0.0743990
11782.2, 0.0746950
11809.0, 0.0748730
11836.0, 0.0748730
11863.0, 0.0744580
11890.3, 0.0736870
11917.6, 0.0730340
11945.0, 0.0720250
11972.6, 0.0708390
12000.4, 0.0696520
12028.2, 0.0684060
12056.2, 0.0674570
12084.3, 0.0661520
12112.5, 0.0646690
12140.9, 0.0636600
12169.4, 0.0627110
12198.0, 0.0614060
12226.8, 0.0603380
12255.7, 0.0593290
12284.7, 0.0579050
12313.9, 0.0563030
12343.2, 0.0551170
12372.7, 0.0539890
12402.3, 0.0526250
12432.0, 0.0511420
12461.9, 0.0495990
12491.9, 0.0479970
12522.1, 0.0465140
12552.4, 0.0449710
12582.9, 0.0437250
12613.5, 0.0423020
12644.3, 0.0406400
12675.2, 0.0389790
12706.3, 0.0375550
12737.5, 0.0361310
12768.9, 0.0343510
12800.4, 0.0326900
12832.1, 0.0316820
12863.9, 0.0311480
12895.9, 0.0313260
12928.1, 0.0319780
12960.4, 0.0334620
12992.9, 0.0356570
13025.5, 0.0377930
13058.3, 0.0395720
13091.3, 0.0411740
13124.4, 0.0417680
13157.8, 0.0410560
13191.2, 0.0391570
13224.9, 0.0366060
13258.7, 0.0341740
13292.7, 0.0322160
13326.9, 0.0306140
13361.2, 0.0297240
13395.7, 0.0289530
13430.4, 0.0279440
13465.3, 0.0266980
13500.4, 0.0261050
13535.7, 0.0255110
13571.1, 0.0253930
13606.7, 0.0252740
13642.5, 0.0256300
13678.5, 0.0262230
13714.7, 0.0269950
13751.1, 0.0277070
13787.6, 0.0289530
13824.4, 0.0306140
13861.4, 0.0324530
13898.5, 0.0342920
13935.9, 0.0361310
13973.5, 0.0377330
14011.2, 0.0396910
14049.2, 0.0413520
14087.4, 0.0426580
14125.8, 0.0444370
14164.3, 0.0466330
14203.2, 0.0487680
14242.2, 0.0508450
14281.4, 0.0532180
14320.9, 0.0565410
14360.5, 0.0609310
14400.4, 0.0657960
14440.5, 0.0710170
14480.9, 0.0761190
14521.4, 0.0799750
14562.2, 0.0828830
14603.3, 0.0851960
14644.5, 0.0866800
14686.0, 0.0875100
14727.7, 0.0881040
14769.7, 0.0885780
14811.9, 0.0886380
14854.3, 0.0878660
14897.0, 0.0869170
14939.9, 0.0849590
14983.1, 0.0826450
15026.5, 0.0811030
15070.2, 0.0802720
15114.2, 0.0793230
15158.3, 0.0784920
15202.8, 0.0781360
15247.5, 0.0782550
15292.5, 0.0779580
15337.7, 0.0769500
15383.2, 0.0762380
15429.0, 0.0755850
15475.1, 0.0745770
15521.4, 0.0741020
15568.0, 0.0735090
15614.9, 0.0722030
15662.1, 0.0712540
15709.6, 0.0708390
15757.3, 0.0706610
15805.4, 0.0702460
15853.7, 0.0694740
15902.3, 0.0687620
15951.2, 0.0679910
16000.5, 0.0676350
16050.0, 0.0670420
16099.8, 0.0659150
16150.0, 0.0646090
16200.5, 0.0632450
16251.3, 0.0609900
16302.4, 0.0593290
16353.8, 0.0583800
16405.5, 0.0568370
16457.6, 0.0552350
16510.0, 0.0535740
16562.8, 0.0520320
16615.9, 0.0512010
16669.3, 0.0506080
16723.1, 0.0496580
16777.2, 0.0491240
16831.7, 0.0492430
16886.5, 0.0487680
16941.7, 0.0485310
16997.2, 0.0481160
17053.1, 0.0475820
17109.4, 0.0469890
17166.1, 0.0470480
17223.1, 0.0474630
17280.5, 0.0475820
17338.3, 0.0482940
17396.5, 0.0494800
17455.1, 0.0503110
17514.0, 0.0519130
17573.4, 0.0542860
17633.2, 0.0554130
17693.4, 0.0558880
17754.0, 0.0570740
17815.0, 0.0579050
17876.4, 0.0578460
17938.3, 0.0577860
18000.5, 0.0582020
18063.3, 0.0578460
18126.4, 0.0582610
18190.0, 0.0596850
18254.1, 0.0631260
18318.6, 0.0667450
18383.5, 0.0700680
18449.0, 0.0739830
18514.9, 0.0786700
18581.2, 0.0832980
18648.0, 0.0882220
18715.4, 0.0933840
18783.2, 0.0987230
18851.5, 0.104656
18920.3, 0.111183
18989.6, 0.116463
19059.4, 0.120616
19129.7, 0.126489
19200.6, 0.134558
19272.0, 0.140313
19343.9, 0.144051
19416.3, 0.148678
19489.3, 0.154611
19562.8, 0.157874
19637.0, 0.158764
19711.6, 0.159476
19786.8, 0.162146
19862.6, 0.164638
19939.0, 0.166062
20016.0, 0.168791
20093.6, 0.173537
20171.8, 0.179352
20250.6, 0.184454
20330.0, 0.187480
20410.0, 0.189260
20490.7, 0.189556
20572.0, 0.189853
20654.0, 0.190861
20736.6, 0.193650
20819.9, 0.196676
20903.8, 0.198989
20988.5, 0.199405
21073.8, 0.199761
21159.8, 0.202075
21246.5, 0.203676
21334.0, 0.202549
21422.1, 0.202015
21511.0, 0.201719
21600.7, 0.200651
21691.0, 0.199345
21782.1, 0.199049
21874.0, 0.199286
21966.7, 0.199820
22060.2, 0.197862
22154.5, 0.192819
22249.6, 0.187480
22345.5, 0.181903
22442.2, 0.174961
22539.8, 0.170393
22638.2, 0.166062
22737.5, 0.162443
22837.7, 0.157222
22938.7, 0.148856
23040.7, 0.140966
23143.5, 0.133787
23247.3, 0.128744
23352.1, 0.127142
23457.7, 0.123582
23564.4, 0.120616
23672.0, 0.119014
23780.5, 0.118480
23890.1, 0.115988
24000.7, 0.114268
24112.3, 0.111776
24225.0, 0.109877
24338.7, 0.109225
24453.5, 0.106021
24569.4, 0.104122
24686.4, 0.106021
24804.5, 0.106080
