Database of Origin, USGS Spectral Database
Sample Description, See USGS database for additional info
Date Added,2016-08-10 05:00:50.231616

Data ID,USGS_kao14          
Sample ID, kaolinite_kga2.12190
Mineral Name, kaolinite
Material Class,Phyllosilicate

Wavelength
1346.88, 0.885596
1347.23, 0.885055
1347.58, 0.885415
1347.93, 0.885836
1348.28, 0.886016
1348.64, 0.885596
1348.99, 0.884454
1349.34, 0.884093
1349.69, 0.882952
1350.04, 0.881750
1350.39, 0.881029
1350.74, 0.880247
1351.1, 0.879706
1351.45, 0.878324
1351.8, 0.876942
1352.15, 0.875380
1352.51, 0.874899
1352.86, 0.873877
1353.21, 0.872856
1353.56, 0.872075
1353.92, 0.871654
1354.27, 0.870572
1354.63, 0.869791
1354.98, 0.869370
1355.33, 0.868108
1355.69, 0.867447
1356.04, 0.867387
1356.4, 0.866907
1356.75, 0.866125
1357.11, 0.865044
1357.46, 0.864563
1357.82, 0.864082
1358.18, 0.864142
1358.53, 0.863541
1358.89, 0.861919
1359.24, 0.860236
1359.6, 0.859756
1359.96, 0.860597
1360.31, 0.860477
1360.67, 0.859095
1361.03, 0.858554
1361.39, 0.857472
1361.74, 0.856931
1362.1, 0.856691
1362.46, 0.856631
1362.82, 0.857171
1363.18, 0.857352
1363.53, 0.857051
1363.89, 0.856270
1364.25, 0.855248
1364.61, 0.855248
1364.97, 0.855248
1365.33, 0.855008
1365.69, 0.855068
1366.05, 0.854587
1366.41, 0.853626
1366.77, 0.852725
1367.13, 0.851342
1367.49, 0.849840
1367.85, 0.849059
1368.21, 0.848157
1368.57, 0.847617
1368.93, 0.847016
1369.3, 0.846295
1369.66, 0.845093
1370.02, 0.844372
1370.38, 0.843771
1370.74, 0.842509
1371.11, 0.841908
1371.47, 0.841367
1371.83, 0.840345
1372.19, 0.839083
1372.56, 0.838543
1372.92, 0.837401
1373.29, 0.835778
1373.65, 0.834096
1374.01, 0.832473
1374.38, 0.831151
1374.74, 0.829889
1375.11, 0.828687
1375.47, 0.826704
1375.84, 0.824661
1376.2, 0.823099
1376.57, 0.820935
1376.93, 0.818772
1377.3, 0.817750
1377.67, 0.815647
1378.03, 0.812702
1378.4, 0.809938
1378.76, 0.807354
1379.13, 0.805251
1379.5, 0.802306
1379.87, 0.799181
1380.23, 0.795275
1380.6, 0.793172
1380.97, 0.792451
1381.34, 0.791309
1381.7, 0.789326
1382.07, 0.786442
1382.44, 0.782956
1382.81, 0.781454
1383.18, 0.780733
1383.55, 0.778870
1383.92, 0.777007
1384.29, 0.774483
1384.66, 0.771959
1385.03, 0.770577
1385.4, 0.769435
1385.77, 0.767392
1386.14, 0.764868
1386.51, 0.761863
1386.88, 0.759640
1387.25, 0.757236
1387.62, 0.754532
1387.99, 0.752248
1388.36, 0.750025
1388.74, 0.747922
1389.11, 0.745157
1389.48, 0.741973
1389.85, 0.739208
1390.23, 0.736744
1390.6, 0.734100
1390.97, 0.731937
1391.35, 0.729774
1391.72, 0.727250
1392.09, 0.724425
1392.47, 0.722803
1392.84, 0.721240
1393.21, 0.719438
1393.59, 0.718236
1393.96, 0.717454
1394.34, 0.716012
1394.71, 0.715411
1395.09, 0.715411
1395.46, 0.715471
1395.84, 0.715351
1396.22, 0.715712
1396.59, 0.717515
1396.97, 0.718897
1397.35, 0.719317
1397.72, 0.719858
1398.1, 0.720700
1398.48, 0.721180
1398.85, 0.721781
1399.23, 0.722022
1399.61, 0.722142
1399.99, 0.722262
1400.37, 0.722322
1400.74, 0.722502
1401.12, 0.723043
1401.5, 0.723163
1401.88, 0.722743
1402.26, 0.721901
1402.64, 0.721120
1403.02, 0.721060
1403.4, 0.721300
1403.78, 0.721000
1404.16, 0.720760
1404.54, 0.720219
1404.92, 0.719858
1405.3, 0.720700
1405.68, 0.721240
1406.06, 0.721421
1406.44, 0.721300
1406.83, 0.721661
1407.21, 0.721601
1407.59, 0.721661
1407.97, 0.722142
1408.35, 0.722022
1408.74, 0.720700
1409.12, 0.719558
1409.5, 0.717575
1409.89, 0.714510
1410.27, 0.710904
1410.65, 0.705616
1411.04, 0.698705
1411.42, 0.690773
1411.81, 0.680918
1412.19, 0.669019
1412.58, 0.654537
1412.96, 0.639213
1413.35, 0.622988
1413.73, 0.606282
1414.12, 0.591318
1414.5, 0.580983
1414.89, 0.578218
1415.28, 0.585189
1415.66, 0.600633
1416.05, 0.621125
1416.44, 0.642518
1416.82, 0.662529
1417.21, 0.679656
1417.6, 0.693718
1417.98, 0.705977
1418.37, 0.715832
1418.76, 0.723884
1419.15, 0.730855
1419.54, 0.737165
1419.93, 0.742573
1420.32, 0.746119
1420.71, 0.749184
1421.09, 0.752549
1421.48, 0.755313
1421.88, 0.757176
1422.27, 0.759279
1422.66, 0.760722
1423.05, 0.761082
1423.44, 0.761743
1423.83, 0.762585
1424.22, 0.763065
1424.61, 0.763366
1425.0, 0.764327
1425.39, 0.765890
1425.78, 0.767933
1426.18, 0.769676
1426.57, 0.770998
1426.96, 0.772680
1427.36, 0.774123
1427.75, 0.775024
1428.14, 0.776286
1428.54, 0.777728
1428.93, 0.778750
1429.32, 0.779230
1429.72, 0.779891
1430.11, 0.780793
1430.51, 0.781514
1430.9, 0.782475
1431.3, 0.782656
1431.69, 0.782656
1432.09, 0.783437
1432.48, 0.783617
1432.88, 0.784278
1433.28, 0.784579
1433.67, 0.784939
1434.07, 0.785240
1434.46, 0.785300
1434.86, 0.785300
1435.26, 0.785360
1435.66, 0.785240
1436.05, 0.785420
1436.45, 0.785420
1436.85, 0.785540
1437.25, 0.785600
1437.65, 0.785781
1438.05, 0.786021
1438.44, 0.786261
1438.84, 0.785961
1439.24, 0.785901
1439.64, 0.786081
1440.04, 0.786141
1440.44, 0.786201
1440.84, 0.785841
1441.24, 0.785901
1441.65, 0.786081
1442.05, 0.786321
1442.45, 0.785901
1442.85, 0.785600
1443.25, 0.785721
1443.65, 0.785841
1444.05, 0.785300
1444.46, 0.785360
1444.86, 0.785420
1445.26, 0.784879
1445.67, 0.784398
1446.07, 0.784519
1446.47, 0.784579
1446.88, 0.784519
1447.28, 0.784218
1447.68, 0.783978
1448.09, 0.784158
1448.49, 0.783978
1448.9, 0.783557
1449.3, 0.783136
1449.71, 0.783257
1450.11, 0.783257
1450.52, 0.783317
1450.93, 0.783377
1451.33, 0.783497
1451.74, 0.783136
1452.14, 0.783197
1452.55, 0.783437
1452.96, 0.783497
1453.36, 0.783076
1453.77, 0.783016
1454.18, 0.783257
1454.59, 0.783076
1455.0, 0.782836
1455.41, 0.782656
1455.81, 0.782355
1456.22, 0.782235
1456.63, 0.782175
1457.04, 0.781814
1457.45, 0.781634
1457.86, 0.781514
1458.27, 0.781935
1458.68, 0.781814
1459.09, 0.781514
1459.5, 0.781574
1459.91, 0.781514
1460.32, 0.780973
1460.74, 0.781153
1461.15, 0.781093
1461.56, 0.780793
1461.97, 0.780432
1462.39, 0.780312
1462.8, 0.780432
1463.21, 0.779952
1463.62, 0.780012
1464.04, 0.780012
1464.45, 0.779711
1464.86, 0.779531
1465.28, 0.779290
1465.69, 0.778930
1466.11, 0.778990
1466.52, 0.778930
1466.94, 0.778629
1467.35, 0.777968
1467.77, 0.777848
1468.18, 0.778029
1468.6, 0.778209
1469.02, 0.778149
1469.43, 0.777608
1469.85, 0.777668
1470.27, 0.777428
1470.68, 0.777367
1471.1, 0.777187
1471.52, 0.777247
1471.94, 0.777127
1472.35, 0.776947
1472.77, 0.776646
1473.19, 0.776466
1473.61, 0.776286
1474.03, 0.776346
1474.45, 0.776466
1474.87, 0.776767
1475.29, 0.776586
1475.71, 0.776226
1476.13, 0.776286
1476.55, 0.776226
1476.97, 0.775925
1477.39, 0.775985
1477.81, 0.775925
1478.23, 0.775925
1478.65, 0.775745
1479.07, 0.775565
1479.5, 0.775324
1479.92, 0.775805
1480.34, 0.775565
1480.76, 0.775505
1481.19, 0.775565
1481.61, 0.775445
1482.03, 0.775084
1482.46, 0.775384
1482.88, 0.775384
1483.31, 0.775084
1483.73, 0.774483
1484.16, 0.774663
1484.58, 0.775084
1485.01, 0.775264
1485.43, 0.774964
1485.86, 0.774964
1486.28, 0.775084
1486.71, 0.774844
1487.14, 0.774723
1487.56, 0.774543
1487.99, 0.775084
1488.42, 0.775144
1488.84, 0.774483
1489.27, 0.774423
1489.7, 0.774723
1490.13, 0.774844
1490.56, 0.774603
1490.98, 0.774243
1491.41, 0.774183
1491.84, 0.774663
1492.27, 0.774663
1492.7, 0.774363
1493.13, 0.773882
1493.56, 0.773702
1493.99, 0.773101
1494.42, 0.772740
1494.85, 0.772740
1495.29, 0.772861
1495.72, 0.772500
1496.15, 0.772560
1496.58, 0.772680
1497.01, 0.772861
1497.44, 0.772680
1497.88, 0.772620
1498.31, 0.773041
1498.74, 0.773161
1499.18, 0.773461
1499.61, 0.773762
1500.04, 0.773642
1500.48, 0.773882
1500.91, 0.774183
1501.35, 0.774423
1501.78, 0.774904
1502.22, 0.775084
1502.65, 0.775084
1503.09, 0.775144
1503.53, 0.775204
1503.96, 0.775565
1504.4, 0.775505
1504.83, 0.775925
1505.27, 0.775685
1505.71, 0.775565
1506.15, 0.775685
1506.58, 0.775865
1507.02, 0.775925
1507.46, 0.775685
1507.9, 0.776226
1508.34, 0.776346
1508.78, 0.776406
1509.21, 0.776827
1509.66, 0.776706
1510.09, 0.776767
1510.53, 0.777127
1510.97, 0.777307
1511.42, 0.776947
1511.86, 0.777007
1512.3, 0.777067
1512.74, 0.777007
1513.18, 0.776947
1513.62, 0.777367
1514.06, 0.777608
1514.51, 0.777307
1514.95, 0.777428
1515.39, 0.777488
1515.83, 0.777428
1516.28, 0.777187
1516.72, 0.777428
1517.16, 0.777908
1517.61, 0.777788
1518.05, 0.777908
1518.5, 0.777848
1518.94, 0.777548
1519.39, 0.777728
1519.83, 0.777908
1520.28, 0.778029
1520.73, 0.777788
1521.17, 0.777728
1521.62, 0.778149
1522.07, 0.778149
1522.51, 0.777908
1522.96, 0.777788
1523.41, 0.778029
1523.85, 0.777908
1524.3, 0.778209
1524.75, 0.778269
1525.2, 0.778269
1525.65, 0.778269
1526.1, 0.778209
1526.55, 0.778149
1527.0, 0.778209
1527.45, 0.778329
1527.9, 0.778509
1528.35, 0.778569
1528.8, 0.778509
1529.25, 0.778690
1529.7, 0.779110
1530.15, 0.779050
1530.6, 0.778629
1531.05, 0.778629
1531.51, 0.778629
1531.96, 0.778930
1532.41, 0.779050
1532.87, 0.779110
1533.32, 0.779471
1533.77, 0.778990
1534.23, 0.779170
1534.68, 0.779531
1535.14, 0.779351
1535.59, 0.779591
1536.05, 0.779831
1536.5, 0.780192
1536.96, 0.780613
1537.41, 0.780552
1537.87, 0.780372
1538.32, 0.780252
1538.78, 0.780492
1539.24, 0.780673
1539.7, 0.780853
1540.15, 0.781274
1540.61, 0.781634
1541.07, 0.781814
1541.53, 0.781514
1541.98, 0.781754
1542.44, 0.781814
1542.9, 0.781694
1543.36, 0.781754
1543.82, 0.782115
1544.28, 0.782415
1544.74, 0.782535
1545.2, 0.782235
1545.66, 0.782656
1546.12, 0.783076
1546.59, 0.783136
1547.05, 0.783136
1547.51, 0.783197
1547.97, 0.783197
1548.43, 0.783497
1548.9, 0.783617
1549.36, 0.783737
1549.82, 0.784098
1550.29, 0.784398
1550.75, 0.784519
1551.21, 0.784579
1551.68, 0.784999
1552.14, 0.784879
1552.61, 0.784759
1553.07, 0.784999
1553.54, 0.785360
1554.0, 0.785480
1554.47, 0.785781
1554.93, 0.785480
1555.4, 0.785300
1555.87, 0.785600
1556.34, 0.786021
1556.8, 0.786141
1557.27, 0.786141
1557.74, 0.786442
1558.21, 0.786682
1558.68, 0.786922
1559.14, 0.787163
1559.61, 0.787343
1560.08, 0.787523
1560.55, 0.787764
1561.02, 0.787644
1561.49, 0.787583
1561.96, 0.787944
1562.43, 0.788244
1562.9, 0.788365
1563.38, 0.788004
1563.85, 0.788425
1564.32, 0.788785
1564.79, 0.789206
1565.26, 0.789026
1565.74, 0.789086
1566.21, 0.789206
1566.68, 0.789446
1567.16, 0.789086
1567.63, 0.789146
1568.1, 0.789386
1568.58, 0.789506
1569.05, 0.789747
1569.53, 0.790047
1570.0, 0.790288
1570.48, 0.790348
1570.96, 0.790528
1571.43, 0.790648
1571.91, 0.790708
1572.39, 0.790888
1572.86, 0.791369
1573.34, 0.791429
1573.82, 0.791489
1574.3, 0.791730
1574.77, 0.791730
1575.25, 0.791910
1575.73, 0.791850
1576.21, 0.791670
1576.69, 0.791790
1577.17, 0.792211
1577.65, 0.792511
1578.13, 0.792872
1578.61, 0.792811
1579.09, 0.793052
1579.57, 0.793232
1580.05, 0.793172
1580.54, 0.793352
1581.02, 0.793593
1581.5, 0.793893
1581.98, 0.794134
1582.47, 0.794073
1582.95, 0.793953
1583.43, 0.794134
1583.92, 0.794073
1584.4, 0.794073
1584.88, 0.794134
1585.37, 0.794314
1585.85, 0.794554
1586.34, 0.794494
1586.82, 0.794795
1587.31, 0.794915
1587.8, 0.795095
1588.28, 0.795095
1588.77, 0.795095
1589.26, 0.795155
1589.74, 0.795576
1590.23, 0.795576
1590.72, 0.795456
1591.21, 0.795516
1591.7, 0.795696
1592.19, 0.795816
1592.67, 0.795876
1593.16, 0.795816
1593.65, 0.796177
1594.14, 0.796417
1594.63, 0.796597
1595.12, 0.796537
1595.61, 0.796477
1596.11, 0.796658
1596.6, 0.797078
1597.09, 0.797018
1597.58, 0.796958
1598.08, 0.797439
1598.57, 0.797739
1599.06, 0.797739
1599.55, 0.797619
1600.05, 0.797679
1600.54, 0.798040
1601.04, 0.798340
1601.53, 0.798220
1602.03, 0.798641
1602.52, 0.799001
1603.02, 0.799001
1603.51, 0.798941
1604.01, 0.799242
1604.5, 0.799362
1605.0, 0.799362
1605.5, 0.799362
1606.0, 0.799482
1606.49, 0.799482
1606.99, 0.799722
1607.49, 0.800263
1607.99, 0.800564
1608.49, 0.800564
1608.99, 0.800443
1609.49, 0.800564
1609.99, 0.800744
1610.49, 0.801225
1610.99, 0.801165
1611.49, 0.801104
1611.99, 0.801285
1612.49, 0.801585
1612.99, 0.801946
1613.49, 0.802066
1614.0, 0.802126
1614.5, 0.802306
1615.0, 0.802547
1615.51, 0.802907
1616.01, 0.802907
1616.51, 0.803027
1617.02, 0.803087
1617.52, 0.803328
1618.03, 0.803328
1618.53, 0.803508
1619.04, 0.803628
1619.54, 0.803809
1620.05, 0.803809
1620.55, 0.804049
1621.06, 0.804289
1621.57, 0.804530
1622.08, 0.804770
1622.58, 0.804830
1623.09, 0.805191
1623.6, 0.805071
1624.11, 0.804890
1624.62, 0.805010
1625.13, 0.805671
1625.64, 0.805671
1626.15, 0.805491
1626.66, 0.805431
1627.17, 0.805551
1627.68, 0.806092
1628.19, 0.806513
1628.7, 0.806633
1629.21, 0.806753
1629.72, 0.806933
1630.24, 0.807234
1630.75, 0.807474
1631.26, 0.807835
1631.78, 0.807594
1632.29, 0.807534
1632.8, 0.807594
1633.32, 0.807715
1633.83, 0.808015
1634.35, 0.807955
1634.86, 0.808015
1635.38, 0.808195
1635.9, 0.808256
1636.41, 0.808436
1636.93, 0.808676
1637.45, 0.808676
1637.96, 0.808736
1638.48, 0.808556
1639.0, 0.808796
1639.52, 0.808917
1640.04, 0.808977
1640.56, 0.809217
1641.08, 0.809878
1641.59, 0.809998
1642.11, 0.809878
1642.63, 0.810239
1643.16, 0.810479
1643.68, 0.810419
1644.2, 0.810179
1644.72, 0.810419
1645.24, 0.810599
1645.76, 0.810659
1646.29, 0.810719
1646.81, 0.810779
1647.33, 0.810960
1647.86, 0.811080
1648.38, 0.811140
1648.9, 0.810779
1649.43, 0.810960
1649.95, 0.811200
1650.48, 0.811320
1651.0, 0.811320
1651.53, 0.811200
1652.06, 0.811260
1652.58, 0.811561
1653.11, 0.811621
1653.64, 0.811440
1654.17, 0.811561
1654.69, 0.811621
1655.22, 0.811681
1655.75, 0.811861
1656.28, 0.812041
1656.81, 0.812102
1657.34, 0.812041
1657.87, 0.812222
1658.4, 0.812222
1658.93, 0.812282
1659.46, 0.812462
1659.99, 0.812582
1660.52, 0.812462
1661.05, 0.812462
1661.59, 0.812642
1662.12, 0.812642
1662.65, 0.812763
1663.19, 0.813003
1663.72, 0.813243
1664.26, 0.813363
1664.79, 0.813424
1665.32, 0.813183
1665.86, 0.813303
1666.39, 0.813484
1666.93, 0.813424
1667.47, 0.813484
1668.0, 0.813664
1668.54, 0.814024
1669.08, 0.814024
1669.61, 0.814265
1670.15, 0.814205
1670.69, 0.814265
1671.23, 0.814505
1671.77, 0.814806
1672.31, 0.814685
1672.85, 0.814565
1673.39, 0.814685
1673.93, 0.815106
1674.47, 0.815226
1675.01, 0.815286
1675.55, 0.815286
1676.09, 0.815226
1676.64, 0.815226
1677.18, 0.815226
1677.72, 0.815346
1678.26, 0.815647
1678.81, 0.815587
1679.35, 0.815647
1679.89, 0.816007
1680.44, 0.816007
1680.98, 0.815887
1681.53, 0.816128
1682.07, 0.816128
1682.62, 0.816188
1683.17, 0.816068
1683.71, 0.816068
1684.26, 0.816548
1684.81, 0.816729
1685.36, 0.816909
1685.9, 0.817029
1686.45, 0.817269
1687.0, 0.817089
1687.55, 0.817209
1688.1, 0.817330
1688.65, 0.817510
1689.2, 0.817630
1689.75, 0.817750
1690.3, 0.817931
1690.85, 0.818111
1691.41, 0.818111
1691.96, 0.818291
1692.51, 0.818592
1693.06, 0.818351
1693.61, 0.818291
1694.17, 0.818411
1694.72, 0.818411
1695.28, 0.818411
1695.83, 0.818592
1696.39, 0.818592
1696.94, 0.818832
1697.5, 0.819132
1698.05, 0.819313
1698.61, 0.819253
1699.17, 0.819373
1699.72, 0.819373
1700.28, 0.819613
1700.84, 0.819733
1701.4, 0.819673
1701.95, 0.819553
1702.51, 0.819613
1703.07, 0.819553
1703.63, 0.819253
1704.19, 0.819673
1704.75, 0.820034
1705.31, 0.819914
1705.88, 0.819673
1706.44, 0.819553
1707.0, 0.819733
1707.56, 0.819914
1708.12, 0.820094
1708.69, 0.820154
1709.25, 0.820094
1709.81, 0.820094
1710.38, 0.820274
1710.94, 0.820394
1711.51, 0.820394
1712.07, 0.820214
1712.64, 0.820154
1713.2, 0.820394
1713.77, 0.820394
1714.34, 0.820334
1714.9, 0.820575
1715.47, 0.820695
1716.04, 0.820635
1716.61, 0.820515
1717.18, 0.820575
1717.74, 0.820515
1718.31, 0.820575
1718.88, 0.820755
1719.45, 0.820755
1720.02, 0.820695
1720.59, 0.820394
1721.17, 0.820394
1721.74, 0.820575
1722.31, 0.820515
1722.88, 0.820515
1723.45, 0.820635
1724.03, 0.820635
1724.6, 0.820394
1725.18, 0.820454
1725.75, 0.820454
1726.33, 0.820394
1726.9, 0.820334
1727.48, 0.820274
1728.05, 0.820034
1728.63, 0.820154
1729.2, 0.820274
1729.78, 0.820394
1730.36, 0.820454
1730.94, 0.820515
1731.51, 0.820394
1732.09, 0.820274
1732.67, 0.820214
1733.25, 0.820274
1733.83, 0.820394
1734.41, 0.820515
1734.99, 0.820695
1735.57, 0.820575
1736.15, 0.820394
1736.73, 0.820454
1737.32, 0.820755
1737.9, 0.820815
1738.48, 0.820755
1739.07, 0.820515
1739.65, 0.820515
1740.23, 0.820635
1740.82, 0.820635
1741.4, 0.820695
1741.99, 0.820695
1742.57, 0.820695
1743.16, 0.821055
1743.74, 0.821176
1744.33, 0.820995
1744.92, 0.820995
1745.51, 0.820635
1746.09, 0.820575
1746.68, 0.820875
1747.27, 0.820995
1747.86, 0.820995
1748.45, 0.821176
1749.04, 0.821236
1749.63, 0.821416
1750.22, 0.821296
1750.81, 0.821356
1751.4, 0.821476
1751.99, 0.821176
1752.59, 0.821115
1753.18, 0.821176
1753.77, 0.821236
1754.37, 0.821236
1754.96, 0.821176
1755.56, 0.820995
1756.15, 0.820875
1756.74, 0.821176
1757.34, 0.821296
1757.94, 0.821236
1758.53, 0.821296
1759.13, 0.820995
1759.73, 0.820815
1760.32, 0.820995
1760.92, 0.821115
1761.52, 0.821176
1762.12, 0.821236
1762.72, 0.821055
1763.32, 0.820875
1763.92, 0.821055
1764.52, 0.821476
1765.12, 0.821476
1765.72, 0.821416
1766.32, 0.821236
1766.92, 0.821055
1767.53, 0.820995
1768.13, 0.821055
1768.73, 0.821296
1769.34, 0.821176
1769.94, 0.820995
1770.55, 0.820935
1771.15, 0.820815
1771.76, 0.820755
1772.36, 0.820575
1772.97, 0.820575
1773.57, 0.820755
1774.18, 0.820454
1774.79, 0.820334
1775.4, 0.820394
1776.0, 0.820334
1776.61, 0.820454
1777.22, 0.820334
1777.83, 0.820394
1778.44, 0.820334
1779.05, 0.819793
1779.66, 0.819673
1780.27, 0.819433
1780.88, 0.819253
1781.5, 0.819132
1782.11, 0.819012
1782.72, 0.818892
1783.33, 0.818712
1783.95, 0.818411
1784.56, 0.818471
1785.18, 0.818351
1785.79, 0.817870
1786.41, 0.817450
1787.02, 0.817269
1787.64, 0.817149
1788.26, 0.816969
1788.87, 0.816909
1789.49, 0.816969
1790.11, 0.816729
1790.73, 0.816308
1791.35, 0.816308
1791.96, 0.816368
1792.58, 0.816068
1793.21, 0.815767
1793.83, 0.815647
1794.45, 0.815587
1795.07, 0.815527
1795.69, 0.815587
1796.31, 0.815527
1796.93, 0.815286
1797.56, 0.814986
1798.18, 0.814926
1798.8, 0.814986
1799.43, 0.815286
1800.05, 0.815106
1800.68, 0.815226
1801.3, 0.815046
1801.93, 0.814806
1802.56, 0.814926
1803.18, 0.815166
1803.81, 0.815106
1804.44, 0.814986
1805.07, 0.814926
1805.7, 0.814866
1806.33, 0.814685
1806.95, 0.814565
1807.58, 0.814625
1808.22, 0.814445
1808.85, 0.814325
1809.48, 0.814445
1810.11, 0.814385
1810.74, 0.814145
1811.38, 0.813964
1812.01, 0.813964
1812.64, 0.813664
1813.28, 0.813484
1813.91, 0.813183
1814.55, 0.813063
1815.18, 0.812642
1815.82, 0.812282
1816.45, 0.812282
1817.09, 0.812282
1817.73, 0.812102
1818.36, 0.812402
1819.0, 0.812522
1819.64, 0.812162
1820.28, 0.811801
1820.92, 0.812102
1821.56, 0.811981
1822.2, 0.812102
1822.84, 0.812522
1823.48, 0.812883
1824.12, 0.812883
1824.76, 0.812943
1825.41, 0.812582
1826.05, 0.812102
1826.69, 0.812763
1827.34, 0.813484
1827.98, 0.813424
1828.63, 0.813484
1829.27, 0.813604
1829.92, 0.813724
1830.56, 0.813604
1831.21, 0.813724
1831.86, 0.813844
1832.5, 0.814205
1833.15, 0.814265
1833.8, 0.814385
1834.45, 0.814085
1835.1, 0.813844
1835.75, 0.813363
1836.4, 0.813363
1837.05, 0.813123
1837.7, 0.812763
1838.35, 0.813183
1839.01, 0.812883
1839.66, 0.811861
1840.31, 0.812041
1840.96, 0.811380
1841.62, 0.810058
1842.27, 0.810058
1842.93, 0.810599
1843.58, 0.810960
1844.24, 0.811200
1844.9, 0.811440
1845.55, 0.811561
1846.21, 0.811440
1846.87, 0.811561
1847.53, 0.812642
1848.18, 0.813664
1848.84, 0.814806
1849.5, 0.815527
1850.16, 0.816188
1850.82, 0.816608
1851.48, 0.817089
1852.14, 0.817029
1852.81, 0.816849
1853.47, 0.816729
1854.13, 0.817330
1854.8, 0.818171
1855.46, 0.818051
1856.12, 0.817630
1856.79, 0.817991
1857.45, 0.818772
1858.12, 0.819012
1858.79, 0.818652
1859.45, 0.817870
1860.12, 0.818051
1860.79, 0.818712
1861.46, 0.818832
1862.12, 0.818652
1862.79, 0.818712
1863.46, 0.818592
1864.13, 0.818411
1864.8, 0.818411
1865.48, 0.818592
1866.15, 0.818291
1866.82, 0.817570
1867.49, 0.816608
1868.16, 0.816789
1868.84, 0.816969
1869.51, 0.816729
1870.19, 0.815887
1870.86, 0.815286
1871.54, 0.815947
1872.21, 0.815407
1872.89, 0.814505
1873.56, 0.814565
1874.24, 0.814806
1874.92, 0.814385
1875.6, 0.813964
1876.28, 0.813363
1876.96, 0.812943
1877.64, 0.813123
1878.32, 0.812702
1879.0, 0.812041
1879.68, 0.811380
1880.36, 0.810840
1881.04, 0.810479
1881.73, 0.810539
1882.41, 0.809878
1883.09, 0.809217
1883.78, 0.808556
1884.46, 0.808616
1885.15, 0.808556
1885.83, 0.807955
1886.52, 0.807534
1887.21, 0.807594
1887.89, 0.807354
1888.58, 0.807114
1889.27, 0.806633
1889.96, 0.806212
1890.65, 0.806212
1891.34, 0.805912
1892.03, 0.805611
1892.72, 0.805491
1893.41, 0.805071
1894.1, 0.804710
1894.79, 0.804229
1895.49, 0.803929
1896.18, 0.803568
1896.87, 0.802967
1897.57, 0.802186
1898.26, 0.801765
1898.96, 0.800684
1899.65, 0.800023
1900.35, 0.800203
1901.05, 0.800083
1901.74, 0.799602
1902.44, 0.798761
1903.14, 0.798400
1903.84, 0.798280
1904.54, 0.797379
1905.24, 0.796778
1905.94, 0.796537
1906.64, 0.796357
1907.34, 0.796417
1908.04, 0.796237
1908.75, 0.795816
1909.45, 0.795696
1910.15, 0.795335
1910.86, 0.794915
1911.56, 0.794614
1912.27, 0.794254
1912.97, 0.793653
1913.68, 0.793653
1914.39, 0.794254
1915.09, 0.794494
1915.8, 0.794194
1916.51, 0.794013
1917.22, 0.794073
1917.93, 0.794374
1918.64, 0.794254
1919.35, 0.793713
1920.06, 0.793352
1920.77, 0.793533
1921.48, 0.793953
1922.19, 0.794254
1922.91, 0.794194
1923.62, 0.793893
1924.33, 0.793953
1925.05, 0.794254
1925.76, 0.794314
1926.48, 0.794013
1927.19, 0.793833
1927.91, 0.793593
1928.63, 0.793653
1929.35, 0.793953
1930.07, 0.793773
1930.78, 0.793833
1931.5, 0.793773
1932.22, 0.793653
1932.94, 0.793473
1933.66, 0.793172
1934.39, 0.793112
1935.11, 0.793232
1935.83, 0.793232
1936.55, 0.793232
1937.28, 0.793112
1938.0, 0.792872
1938.73, 0.792451
1939.45, 0.792571
1940.18, 0.792811
1940.9, 0.792751
1941.63, 0.792751
1942.36, 0.792751
1943.09, 0.792451
1943.81, 0.792631
1944.54, 0.792691
1945.27, 0.792631
1946.0, 0.792511
1946.73, 0.792631
1947.47, 0.792992
1948.2, 0.793172
1948.93, 0.793292
1949.66, 0.793172
1950.4, 0.793172
1951.13, 0.793232
1951.86, 0.793172
1952.6, 0.793172
1953.34, 0.793172
1954.07, 0.792992
1954.81, 0.793052
1955.55, 0.793052
1956.29, 0.793112
1957.02, 0.792992
1957.76, 0.792932
1958.5, 0.792992
1959.24, 0.792992
1959.98, 0.792932
1960.72, 0.792872
1961.47, 0.792992
1962.21, 0.792872
1962.95, 0.792691
1963.7, 0.792691
1964.44, 0.792811
1965.18, 0.792691
1965.93, 0.792511
1966.67, 0.792451
1967.42, 0.792331
1968.17, 0.792331
1968.92, 0.792271
1969.66, 0.792030
1970.41, 0.792030
1971.16, 0.792150
1971.91, 0.792211
1972.66, 0.792211
1973.41, 0.792211
1974.16, 0.792090
1974.92, 0.791970
1975.67, 0.791850
1976.42, 0.791730
1977.18, 0.791670
1977.93, 0.791850
1978.69, 0.791790
1979.44, 0.791670
1980.2, 0.791429
1980.95, 0.791309
1981.71, 0.791309
1982.47, 0.791369
1983.23, 0.791189
1983.99, 0.790949
1984.74, 0.790888
1985.51, 0.790949
1986.27, 0.790768
1987.03, 0.790648
1987.79, 0.790468
1988.55, 0.790348
1989.32, 0.790227
1990.08, 0.790167
1990.84, 0.790107
1991.61, 0.789867
1992.37, 0.789446
1993.14, 0.789386
1993.9, 0.789086
1994.67, 0.788845
1995.44, 0.788725
1996.21, 0.788665
1996.98, 0.788425
1997.75, 0.788485
1998.52, 0.788184
1999.29, 0.787764
2000.06, 0.787644
2000.83, 0.787583
2001.6, 0.787583
2002.38, 0.787163
2003.15, 0.786922
2003.93, 0.786862
2004.7, 0.786802
2005.48, 0.786742
2006.25, 0.786742
2007.03, 0.786502
2007.81, 0.786502
2008.58, 0.786742
2009.36, 0.786442
2010.14, 0.786321
2010.92, 0.786141
2011.7, 0.786021
2012.48, 0.785841
2013.26, 0.785661
2014.05, 0.785540
2014.83, 0.785420
2015.61, 0.785240
2016.4, 0.784999
2017.18, 0.785120
2017.97, 0.785059
2018.75, 0.784759
2019.54, 0.784519
2020.32, 0.784218
2021.11, 0.784038
2021.9, 0.783798
2022.69, 0.783677
2023.48, 0.783497
2024.27, 0.783317
2025.06, 0.782956
2025.85, 0.782716
2026.64, 0.782656
2027.44, 0.782415
2028.23, 0.781995
2029.02, 0.781814
2029.82, 0.781634
2030.61, 0.781394
2031.41, 0.781153
2032.2, 0.781033
2033.0, 0.780552
2033.8, 0.780312
2034.6, 0.780312
2035.4, 0.780252
2036.2, 0.780132
2037.0, 0.779891
2037.8, 0.779531
2038.6, 0.779290
2039.4, 0.778990
2040.2, 0.778690
2041.01, 0.778389
2041.81, 0.778149
2042.61, 0.777968
2043.42, 0.777608
2044.22, 0.777307
2045.03, 0.777007
2045.84, 0.776947
2046.65, 0.776767
2047.46, 0.776406
2048.26, 0.775985
2049.07, 0.775505
2049.88, 0.774904
2050.69, 0.774603
2051.51, 0.774303
2052.32, 0.774303
2053.13, 0.773822
2053.94, 0.773401
2054.76, 0.773161
2055.57, 0.772680
2056.39, 0.772320
2057.2, 0.771959
2058.02, 0.771599
2058.84, 0.771238
2059.66, 0.770877
2060.48, 0.770216
2061.29, 0.769555
2062.11, 0.769135
2062.94, 0.768954
2063.76, 0.768534
2064.58, 0.767933
2065.4, 0.767152
2066.22, 0.766671
2067.05, 0.766010
2067.87, 0.765169
2068.7, 0.764568
2069.52, 0.763967
2070.35, 0.763306
2071.18, 0.762524
2072.0, 0.761803
2072.83, 0.761022
2073.66, 0.760361
2074.49, 0.759760
2075.32, 0.759159
2076.15, 0.758618
2076.98, 0.757957
2077.82, 0.757597
2078.65, 0.757176
2079.48, 0.756635
2080.32, 0.755974
2081.15, 0.755373
2081.99, 0.754472
2082.83, 0.753450
2083.66, 0.752549
2084.5, 0.751948
2085.34, 0.750926
2086.18, 0.750145
2087.02, 0.749484
2087.86, 0.748583
2088.7, 0.747802
2089.54, 0.747321
2090.39, 0.747081
2091.23, 0.746600
2092.07, 0.745999
2092.92, 0.745638
2093.76, 0.745278
2094.61, 0.745037
2095.45, 0.744436
2096.3, 0.744076
2097.15, 0.743655
2098.0, 0.743235
2098.85, 0.742874
2099.7, 0.742453
2100.55, 0.742033
2101.4, 0.741612
2102.25, 0.741251
2103.1, 0.740771
2103.96, 0.739629
2104.81, 0.738367
2105.67, 0.737285
2106.52, 0.736023
2107.38, 0.734281
2108.24, 0.731997
2109.09, 0.729473
2109.95, 0.727069
2110.81, 0.725146
2111.67, 0.723764
2112.53, 0.722743
2113.39, 0.722382
2114.25, 0.722322
2115.12, 0.722442
2115.98, 0.722964
2116.84, 0.722769
2117.71, 0.722573
2118.58, 0.722769
2119.44, 0.723356
2120.31, 0.723225
2121.18, 0.722573
2122.04, 0.721659
2122.91, 0.721072
2123.78, 0.719898
2124.65, 0.718332
2125.52, 0.717157
2126.4, 0.716570
2127.27, 0.715200
2128.14, 0.714156
2129.02, 0.713046
2129.89, 0.712263
2130.77, 0.709719
2131.64, 0.707631
2132.52, 0.706130
2133.4, 0.705021
2134.27, 0.703063
2135.15, 0.700714
2136.03, 0.697582
2136.91, 0.694450
2137.79, 0.691971
2138.68, 0.689491
2139.56, 0.686164
2140.44, 0.681922
2141.33, 0.678007
2142.21, 0.674353
2143.1, 0.670308
2143.99, 0.666001
2144.87, 0.661173
2145.76, 0.656606
2146.65, 0.651255
2147.54, 0.645252
2148.43, 0.639314
2149.32, 0.633573
2150.21, 0.627570
2151.1, 0.621632
2151.99, 0.615564
2152.89, 0.609887
2153.78, 0.605059
2154.68, 0.600295
2155.57, 0.595336
2156.47, 0.591617
2157.37, 0.587506
2158.27, 0.583722
2159.16, 0.580786
2160.06, 0.577066
2160.96, 0.574717
2161.86, 0.572956
2162.77, 0.571390
2163.67, 0.570933
2164.57, 0.570868
2165.48, 0.570672
2166.38, 0.570542
2167.29, 0.570476
2168.2, 0.570607
2169.1, 0.570281
2170.01, 0.569824
2170.92, 0.570346
2171.83, 0.570737
2172.74, 0.570737
2173.65, 0.570803
2174.56, 0.571129
2175.47, 0.571194
2176.39, 0.571064
2177.3, 0.570998
2178.22, 0.571259
2179.13, 0.571259
2180.05, 0.571259
2180.96, 0.570803
2181.88, 0.570215
2182.8, 0.569889
2183.72, 0.569824
2184.64, 0.569693
2185.56, 0.569041
2186.48, 0.567671
2187.41, 0.566039
2188.33, 0.563951
2189.25, 0.561341
2190.18, 0.559319
2191.1, 0.557361
2192.03, 0.554882
2192.96, 0.552859
2193.89, 0.551489
2194.82, 0.550184
2195.74, 0.548357
2196.68, 0.546530
2197.61, 0.544768
2198.54, 0.542288
2199.47, 0.538439
2200.4, 0.532958
2201.34, 0.526433
2202.28, 0.518277
2203.21, 0.507967
2204.15, 0.495570
2205.08, 0.481541
2206.02, 0.466795
2206.96, 0.453875
2207.9, 0.446176
2208.84, 0.445589
2209.78, 0.454071
2210.73, 0.469470
2211.67, 0.489110
2212.61, 0.510251
2213.56, 0.530413
2214.5, 0.548357
2215.45, 0.564604
2216.4, 0.578371
2217.35, 0.589268
2218.3, 0.598534
2219.24, 0.607016
2220.2, 0.614128
2221.15, 0.620327
2222.1, 0.626004
2223.05, 0.630571
2224.0, 0.634160
2224.96, 0.637096
2225.91, 0.640293
2226.87, 0.642903
2227.83, 0.643947
2228.79, 0.645252
2229.74, 0.647079
2230.7, 0.647927
2231.66, 0.648188
2232.63, 0.649102
2233.59, 0.649298
2234.55, 0.648841
2235.51, 0.648123
2236.48, 0.646949
2237.44, 0.645578
2238.41, 0.644600
2239.38, 0.644143
2240.34, 0.644469
2241.31, 0.644991
2242.28, 0.645905
2243.25, 0.647079
2244.22, 0.647862
2245.19, 0.648449
2246.17, 0.648971
2247.14, 0.649298
2248.12, 0.649885
2249.09, 0.650342
2250.07, 0.650211
2251.04, 0.649754
2252.02, 0.649689
2253.0, 0.649559
2253.98, 0.649102
2254.96, 0.648515
2255.94, 0.647666
2256.92, 0.646688
2257.91, 0.646427
2258.89, 0.646361
2259.88, 0.645578
2260.86, 0.644534
2261.85, 0.643947
2262.83, 0.643947
2263.82, 0.643817
2264.81, 0.642773
2265.8, 0.641794
2266.79, 0.641076
2267.78, 0.640619
2268.78, 0.640228
2269.77, 0.638858
2270.76, 0.637292
2271.76, 0.636313
2272.75, 0.635334
2273.75, 0.634290
2274.75, 0.632659
2275.75, 0.631158
2276.75, 0.630049
2277.75, 0.628483
2278.75, 0.626721
2279.75, 0.625482
2280.75, 0.624111
2281.76, 0.622676
2282.76, 0.621501
2283.77, 0.620327
2284.77, 0.618696
2285.78, 0.617652
2286.79, 0.615890
2287.8, 0.614650
2288.81, 0.613737
2289.82, 0.612562
2290.83, 0.611127
2291.84, 0.609756
2292.86, 0.608582
2293.87, 0.607473
2294.89, 0.606429
2295.91, 0.605450
2296.92, 0.604210
2297.94, 0.603166
2298.96, 0.601600
2299.98, 0.600426
2301.0, 0.599121
2302.02, 0.597424
2303.04, 0.595728
2304.07, 0.594097
2305.09, 0.591943
2306.12, 0.590182
2307.15, 0.588420
2308.17, 0.586919
2309.2, 0.585157
2310.23, 0.583135
2311.26, 0.581960
2312.29, 0.580981
2313.32, 0.579415
2314.35, 0.578828
2315.39, 0.578502
2316.42, 0.577654
2317.46, 0.577327
2318.5, 0.577066
2319.53, 0.576675
2320.57, 0.576349
2321.61, 0.575827
2322.65, 0.575240
2323.69, 0.573934
2324.73, 0.573413
2325.78, 0.573478
2326.82, 0.573413
2327.86, 0.572890
2328.91, 0.573217
2329.96, 0.573608
2331.01, 0.574326
2332.05, 0.574717
2333.1, 0.575044
2334.15, 0.575435
2335.21, 0.575500
2336.26, 0.575305
2337.31, 0.575305
2338.36, 0.574978
2339.42, 0.574196
2340.48, 0.573021
2341.53, 0.571390
2342.59, 0.569498
2343.65, 0.568062
2344.71, 0.566170
2345.77, 0.564147
2346.83, 0.561994
2347.9, 0.559514
2348.96, 0.556839
2350.02, 0.554425
2351.09, 0.552859
2352.16, 0.551489
2353.23, 0.549857
2354.29, 0.547900
2355.36, 0.546203
2356.43, 0.545290
2357.51, 0.544572
2358.58, 0.544572
2359.65, 0.544833
2360.73, 0.545094
2361.8, 0.545420
2362.88, 0.546073
2363.96, 0.546725
2365.03, 0.546986
2366.11, 0.547117
2367.19, 0.546986
2368.27, 0.545877
2369.36, 0.544768
2370.44, 0.543137
2371.53, 0.541310
2372.61, 0.538961
2373.7, 0.536155
2374.78, 0.533219
2375.87, 0.530674
2376.96, 0.528064
2378.05, 0.525324
2379.14, 0.523040
2380.24, 0.521017
2381.33, 0.519190
2382.42, 0.517624
2383.52, 0.516384
2384.61, 0.515667
2385.71, 0.515667
2386.81, 0.516384
2387.91, 0.517428
2389.01, 0.518668
2390.11, 0.520169
2391.22, 0.521539
2392.32, 0.522583
2393.42, 0.523692
2394.53, 0.525063
2395.64, 0.526824
2396.74, 0.528325
2397.85, 0.530217
2398.96, 0.531849
2400.07, 0.533284
2401.18, 0.534459
2402.3, 0.535046
2403.41, 0.535633
2404.52, 0.536155
2405.64, 0.535829
2406.76, 0.535568
2407.88, 0.535176
2408.99, 0.534589
2410.11, 0.534589
2411.23, 0.534524
2412.36, 0.533806
2413.48, 0.533023
2414.6, 0.532109
2415.73, 0.531588
2416.85, 0.530739
2417.98, 0.529761
2419.11, 0.528586
2420.24, 0.527151
2421.37, 0.525780
2422.5, 0.524671
2423.64, 0.523236
2424.77, 0.521800
2425.9, 0.520495
2427.04, 0.518929
2428.18, 0.517167
2429.31, 0.515014
2430.45, 0.512469
2431.59, 0.510121
2432.73, 0.507445
2433.88, 0.504705
2435.02, 0.502095
2436.16, 0.499681
2437.31, 0.496875
2438.45, 0.494591
2439.6, 0.492503
2440.75, 0.490611
2441.9, 0.489110
2443.05, 0.488327
2444.2, 0.487087
2445.35, 0.485978
2446.51, 0.484804
2447.67, 0.483890
2448.82, 0.483042
2449.98, 0.482585
2451.14, 0.481476
2452.3, 0.480497
2453.46, 0.479779
2454.62, 0.478866
2455.78, 0.477561
2456.94, 0.476778
2458.11, 0.476125
2459.28, 0.475669
2460.44, 0.474755
2461.61, 0.473972
2462.78, 0.473711
2463.95, 0.473189
2465.12, 0.472276
2466.3, 0.471493
2467.47, 0.470840
2468.65, 0.470123
2469.82, 0.469274
2471.0, 0.468361
2472.18, 0.467121
2473.36, 0.466534
2474.54, 0.465359
2475.72, 0.464315
2476.9, 0.462880
2478.08, 0.461314
2479.27, 0.459683
2480.46, 0.457986
2481.64, 0.455768
2482.83, 0.453745
2484.02, 0.451526
2485.21, 0.449243
2486.4, 0.447416
2487.6, 0.446437
2488.79, 0.445784
2489.99, 0.445524
2491.18, 0.445393
2492.38, 0.445458
2493.58, 0.445263
2494.78, 0.444740
2495.98, 0.444349
2497.18, 0.444023
2498.39, 0.443436
2499.59, 0.442848
2500.8, 0.441935
2502.01, 0.440630
2503.21, 0.439782
2504.42, 0.439325
2505.63, 0.438020
2506.84, 0.436911
2508.06, 0.435606
2509.27, 0.434562
2510.49, 0.433387
2511.7, 0.432539
2512.92, 0.431691
2514.14, 0.430581
2515.36, 0.429407
2516.58, 0.428559
2517.8, 0.427710
2519.03, 0.426666
2520.25, 0.425688
2521.48, 0.424970
2522.7, 0.423730
2523.93, 0.422882
2525.16, 0.421903
2526.39, 0.421055
2527.62, 0.419815
2528.86, 0.418771
2530.09, 0.417662
2531.33, 0.416683
2532.56, 0.415965
2533.8, 0.415704
2535.04, 0.414791
2536.28, 0.414073
2537.52, 0.413617
2538.76, 0.412377
2540.01, 0.410746
2541.25, 0.409245
2542.5, 0.407614
2543.75, 0.407026
2544.99, 0.406113
2546.24, 0.404873
2547.49, 0.403894
2548.75, 0.403764
2550.0, 0.403177
2551.26, 0.401937
2552.51, 0.401023
2553.77, 0.401545
2555.03, 0.401415
2556.29, 0.400240
2557.55, 0.398870
2558.81, 0.397369
2560.08, 0.394825
2561.34, 0.392084
2562.61, 0.390192
2563.88, 0.389083
2565.14, 0.388756
2566.41, 0.387843
2567.68, 0.385494
2568.96, 0.382427
2570.23, 0.381318
2571.51, 0.380405
2572.78, 0.377077
2574.06, 0.376685
2575.34, 0.375902
2576.62, 0.374271
2577.9, 0.374532
2579.18, 0.374141
2580.47, 0.371922
2581.75, 0.370943
2583.04, 0.368203
2584.32, 0.367681
2585.61, 0.367877
2586.9, 0.366115
2588.2, 0.365789
2589.49, 0.365854
2590.78, 0.365201
2592.08, 0.363179
2593.37, 0.358350
2594.67, 0.355479
2595.97, 0.358546
2597.27, 0.360112
2598.57, 0.359720
2599.88, 0.358285
2601.18, 0.356654
2602.49, 0.355088
2603.79, 0.352739
2605.1, 0.350846
2606.41, 0.351368
2607.72, 0.351434
2609.03, 0.350324
2610.35, 0.349607
2611.66, 0.348824
2612.98, 0.347323
2614.3, 0.346344
2615.62, 0.343147
2616.94, 0.340929
2618.26, 0.341255
2619.58, 0.338775
2620.91, 0.338123
2622.23, 0.338253
2623.56, 0.336622
2624.89, 0.333490
2626.22, 0.329706
2627.55, 0.328792
2628.88, 0.325399
2630.21, 0.321223
2631.55, 0.320832
2632.89, 0.318417
2634.22, 0.315481
2635.56, 0.313328
2636.9, 0.310392
2638.25, 0.307195
2639.59, 0.304063
2640.93, 0.300539
2642.28, 0.297146
2643.63, 0.293884
2644.98, 0.289838
2646.33, 0.286641
2647.68, 0.283901
2649.03, 0.280442
2650.39, 0.276266
2651.74, 0.271177
2653.1, 0.267523
2654.46, 0.263934
2655.82, 0.259693
2657.18, 0.255060
2658.54, 0.249318
2659.9, 0.244098
2661.27, 0.238944
2662.64, 0.233071
2664.01, 0.225502
2665.38, 0.217868
2666.74, 0.211800
2668.12, 0.206449
2669.49, 0.197836
2670.87, 0.190333
2672.24, 0.184917
2673.62, 0.176957
2675.0, 0.168213
2676.38, 0.159143
2677.76, 0.150661
2679.15, 0.142244
2680.54, 0.134414
2681.92, 0.125344
2683.31, 0.115622
2684.7, 0.106161
2686.09, 0.0962430
2687.48, 0.0858680
2688.88, 0.0755590
2690.27, 0.0652490
2691.67, 0.0556580
2693.07, 0.0463920
2694.47, 0.0382360
2695.87, 0.0321030
2697.27, 0.0274700
2698.67, 0.0230330
2700.08, 0.0188570
2701.49, 0.0155290
2702.9, 0.0133110
2704.31, 0.0118100
2705.72, 0.0110920
2707.13, 0.0111580
2708.54, 0.0115490
2709.96, 0.0124630
2711.38, 0.0142900
2712.8, 0.0160510
2714.22, 0.0177480
2715.64, 0.0193140
2717.06, 0.0202930
2718.49, 0.0205540
2719.91, 0.0200970
2721.34, 0.0187920
2722.77, 0.0172910
2724.2, 0.0162470
2725.63, 0.0158560
2727.07, 0.0159210
2728.5, 0.0165730
2729.94, 0.0170950
2731.38, 0.0167690
2732.82, 0.0159210
2734.26, 0.0152680
2735.7, 0.0148770
2737.15, 0.0148770
2738.59, 0.0154640
2740.04, 0.0169650
2741.49, 0.0186610
2742.94, 0.0205540
2744.39, 0.0224460
2745.84, 0.0242080
2747.3, 0.0257740
2748.76, 0.0266870
2750.21, 0.0268180
2751.67, 0.0255780
2753.14, 0.0230980
2754.6, 0.0196400
2756.06, 0.0157900
2757.53, 0.0122020
2759.0, 0.00991800
2760.46, 0.00972200
2761.94, 0.0123320
2763.41, 0.0181390
2764.88, 0.0263610
2766.36, 0.0349080
2767.83, 0.0429340
2769.31, 0.0506340
2770.79, 0.0577460
2772.27, 0.0637490
2773.76, 0.0675330
2775.24, 0.0690990
2776.73, 0.0691640
2778.22, 0.0694910
2779.71, 0.0724920
2781.2, 0.0778430
2782.69, 0.0837150
2784.18, 0.0884780
2785.68, 0.0921980
2787.18, 0.0955250
2788.68, 0.0989830
2790.18, 0.101985
2791.68, 0.104856
2793.19, 0.107792
2794.69, 0.110533
2796.2, 0.113143
2797.71, 0.115557
2799.22, 0.117775
2800.73, 0.119668
2802.24, 0.121103
2803.76, 0.123322
2805.28, 0.125540
2806.8, 0.127302
2808.32, 0.128933
2809.84, 0.130564
2811.36, 0.131934
2812.89, 0.133044
2814.42, 0.134022
2815.94, 0.135197
2817.48, 0.136110
2819.01, 0.136959
2820.54, 0.138068
2822.08, 0.139308
2823.61, 0.140352
2825.15, 0.141330
2826.69, 0.142244
2828.23, 0.143484
2829.78, 0.144593
2831.32, 0.145702
2832.87, 0.146877
2834.42, 0.147855
2835.97, 0.148704
2837.52, 0.149617
2839.08, 0.150465
2840.63, 0.151314
2842.19, 0.152162
2843.75, 0.152945
2845.31, 0.153663
2846.87, 0.154315
2848.44, 0.154968
2850.0, 0.155881
2851.57, 0.156860
2853.14, 0.157708
2854.71, 0.158491
2856.28, 0.159404
2857.86, 0.160122
2859.43, 0.161231
2861.01, 0.162341
2862.59, 0.163319
2864.17, 0.163841
2865.76, 0.164559
2867.34, 0.165538
2868.93, 0.166321
2870.52, 0.166778
2872.11, 0.167234
2873.7, 0.168017
2875.29, 0.168866
2876.89, 0.169453
2878.49, 0.169975
2880.08, 0.170562
2881.69, 0.170954
2883.29, 0.171345
2884.89, 0.172128
2886.5, 0.172715
2888.11, 0.173368
2889.72, 0.173759
2891.33, 0.174281
2892.94, 0.174673
2894.56, 0.174999
2896.17, 0.175064
2897.79, 0.175391
2899.42, 0.175130
2901.04, 0.174347
2902.66, 0.172911
2904.29, 0.170432
2905.92, 0.167039
2907.55, 0.163058
2909.18, 0.159404
2910.81, 0.157251
2912.45, 0.157447
2914.08, 0.160579
2915.72, 0.165407
2917.36, 0.170823
2919.01, 0.175913
2920.65, 0.180611
2922.3, 0.184787
2923.94, 0.188375
2925.59, 0.191311
2927.25, 0.193791
2928.9, 0.195944
2930.56, 0.197902
2932.21, 0.199468
2933.87, 0.201034
2935.53, 0.202469
2937.2, 0.203839
2938.86, 0.205079
2940.53, 0.206188
2942.2, 0.207037
2943.87, 0.207885
2945.54, 0.208733
2947.22, 0.209516
2948.89, 0.210103
2950.57, 0.210821
2952.25, 0.211604
2953.93, 0.212322
2955.62, 0.213170
2957.3, 0.213823
2958.99, 0.214279
2960.68, 0.215128
2962.37, 0.215911
2964.07, 0.216498
2965.76, 0.217085
2967.46, 0.217672
2969.16, 0.218260
2970.86, 0.218716
2972.56, 0.219043
2974.27, 0.219499
2975.98, 0.219956
2977.69, 0.220543
2979.4, 0.221196
2981.11, 0.221914
2982.83, 0.222501
2984.54, 0.223088
2986.26, 0.223936
2987.98, 0.224980
2989.71, 0.225894
2991.43, 0.226677
2993.16, 0.227460
2994.89, 0.228243
2996.62, 0.229091
2998.35, 0.230070
3000.09, 0.230918
3001.83, 0.231701
3003.57, 0.232549
3005.31, 0.233397
3007.05, 0.234246
3008.79, 0.235094
3010.54, 0.235746
3012.29, 0.236399
3014.04, 0.237117
3015.8, 0.238030
3017.55, 0.238748
3019.31, 0.239205
3021.07, 0.239727
3022.83, 0.240510
3024.59, 0.241162
3026.36, 0.241880
3028.13, 0.242532
3029.9, 0.243054
3031.67, 0.243772
3033.44, 0.244490
3035.22, 0.245077
3037.0, 0.245730
3038.78, 0.246317
3040.56, 0.247230
3042.34, 0.247948
3044.13, 0.248601
3045.92, 0.249318
3047.71, 0.250036
3049.5, 0.250754
3051.3, 0.251406
3053.09, 0.252059
3054.89, 0.252777
3056.69, 0.253494
3058.5, 0.254081
3060.3, 0.254734
3062.11, 0.255386
3063.92, 0.256235
3065.73, 0.256757
3067.55, 0.257148
3069.36, 0.257670
3071.18, 0.258257
3073.0, 0.258910
3074.82, 0.259628
3076.65, 0.260345
3078.48, 0.260802
3080.31, 0.261259
3082.14, 0.261977
3083.97, 0.262760
3085.8, 0.263347
3087.64, 0.263738
3089.48, 0.264195
3091.33, 0.264587
3093.17, 0.264913
3095.02, 0.265370
3096.87, 0.265826
3098.72, 0.266479
3100.57, 0.267066
3102.43, 0.267653
3104.28, 0.268175
3106.14, 0.268632
3108.01, 0.269219
3109.87, 0.269807
3111.74, 0.270394
3113.61, 0.270851
3115.48, 0.271307
3117.35, 0.271829
3119.23, 0.272547
3121.1, 0.273330
3122.98, 0.273852
3124.87, 0.274309
3126.75, 0.274831
3128.64, 0.275483
3130.53, 0.276136
3132.42, 0.276984
3134.31, 0.277506
3136.21, 0.278028
3138.11, 0.278681
3140.01, 0.279268
3141.91, 0.279855
3143.82, 0.280312
3145.73, 0.281030
3147.64, 0.281878
3149.55, 0.282465
3151.46, 0.282922
3153.38, 0.283509
3155.3, 0.284227
3157.22, 0.284814
3159.14, 0.285401
3161.07, 0.285858
3163.0, 0.286445
3164.93, 0.287032
3166.86, 0.287554
3168.8, 0.287881
3170.74, 0.288468
3172.68, 0.288990
3174.62, 0.289642
3176.56, 0.290164
3178.51, 0.290686
3180.46, 0.291208
3182.42, 0.291600
3184.37, 0.292057
3186.33, 0.292579
3188.29, 0.293166
3190.25, 0.293753
3192.21, 0.294406
3194.18, 0.295058
3196.15, 0.295645
3198.12, 0.296233
3200.09, 0.296820
3202.07, 0.297603
3204.05, 0.298321
3206.03, 0.298908
3208.02, 0.299430
3210.0, 0.300148
3211.99, 0.300865
3213.98, 0.301387
3215.98, 0.301975
3217.97, 0.302758
3219.97, 0.303345
3221.97, 0.303867
3223.98, 0.304389
3225.98, 0.304976
3227.99, 0.305563
3230.0, 0.306085
3232.02, 0.306607
3234.03, 0.307390
3236.05, 0.307912
3238.07, 0.308434
3240.1, 0.309087
3242.12, 0.309739
3244.15, 0.310327
3246.18, 0.310849
3248.22, 0.311436
3250.25, 0.311958
3252.29, 0.312415
3254.33, 0.313067
3256.38, 0.313720
3258.43, 0.314176
3260.47, 0.314633
3262.53, 0.315090
3264.58, 0.315677
3266.64, 0.316330
3268.7, 0.316721
3270.76, 0.317243
3272.82, 0.317896
3274.89, 0.318483
3276.96, 0.319070
3279.04, 0.319722
3281.11, 0.320375
3283.19, 0.320897
3285.27, 0.321615
3287.35, 0.322202
3289.44, 0.322789
3291.53, 0.323442
3293.62, 0.324029
3295.71, 0.324812
3297.81, 0.325530
3299.91, 0.326052
3302.01, 0.326639
3304.11, 0.327291
3306.22, 0.327944
3308.33, 0.328662
3310.44, 0.329184
3312.56, 0.329706
3314.68, 0.330293
3316.8, 0.331011
3318.92, 0.331533
3321.05, 0.331989
3323.18, 0.332577
3325.31, 0.333425
3327.44, 0.334077
3329.58, 0.334469
3331.72, 0.334860
3333.86, 0.335382
3336.01, 0.335839
3338.16, 0.336426
3340.31, 0.336883
3342.46, 0.337340
3344.61, 0.337797
3346.77, 0.338253
3348.94, 0.338580
3351.1, 0.338906
3353.27, 0.339036
3355.44, 0.339232
3357.61, 0.339363
3359.79, 0.339428
3361.97, 0.339167
3364.15, 0.339036
3366.33, 0.338971
3368.52, 0.338645
3370.71, 0.338188
3372.9, 0.337927
3375.1, 0.337731
3377.3, 0.337797
3379.5, 0.337992
3381.71, 0.338514
3383.91, 0.338971
3386.12, 0.339232
3388.34, 0.339167
3390.55, 0.338971
3392.77, 0.338384
3394.99, 0.337340
3397.22, 0.336035
3399.45, 0.334404
3401.68, 0.332250
3403.91, 0.329575
3406.15, 0.326639
3408.39, 0.323833
3410.63, 0.321158
3412.87, 0.319005
3415.12, 0.317961
3417.37, 0.318352
3419.63, 0.320375
3421.88, 0.323833
3424.14, 0.328205
3426.41, 0.332707
3428.67, 0.336883
3430.94, 0.340602
3433.21, 0.343669
3435.49, 0.346279
3437.77, 0.348563
3440.05, 0.350585
3442.33, 0.352478
3444.62, 0.353913
3446.91, 0.355283
3449.2, 0.356719
3451.5, 0.358089
3453.8, 0.359329
3456.1, 0.360503
3458.41, 0.361482
3460.72, 0.362461
3463.03, 0.363374
3465.34, 0.364027
3467.66, 0.364353
3469.98, 0.364614
3472.31, 0.364940
3474.63, 0.365397
3476.96, 0.365658
3479.3, 0.365984
3481.64, 0.366311
3483.97, 0.366180
3486.32, 0.365854
3488.66, 0.365006
3491.01, 0.363440
3493.36, 0.361352
3495.72, 0.358937
3498.08, 0.356849
3500.44, 0.355805
3502.81, 0.356066
3505.18, 0.357502
3507.55, 0.359655
3509.92, 0.362200
3512.3, 0.364810
3514.68, 0.367355
3517.06, 0.370030
3519.45, 0.372444
3521.84, 0.374663
3524.24, 0.376816
3526.64, 0.378969
3529.04, 0.381057
3531.44, 0.382949
3533.85, 0.384515
3536.26, 0.385885
3538.67, 0.386929
3541.09, 0.387908
3543.51, 0.389017
3545.93, 0.390127
3548.36, 0.391040
3550.79, 0.391693
3553.22, 0.392019
3555.66, 0.392084
3558.1, 0.392149
3560.54, 0.391954
3562.99, 0.391497
3565.44, 0.391040
3567.9, 0.390844
3570.35, 0.390779
3572.81, 0.390975
3575.28, 0.391693
3577.75, 0.392802
3580.22, 0.393911
3582.69, 0.395151
3585.17, 0.396521
3587.65, 0.397891
3590.14, 0.399066
3592.62, 0.400110
3595.11, 0.401023
3597.61, 0.401937
3600.11, 0.402850
3602.61, 0.403633
3605.11, 0.404221
3607.62, 0.404873
3610.14, 0.405526
3612.65, 0.406178
3615.17, 0.406765
3617.69, 0.407222
3620.22, 0.407875
3622.75, 0.408462
3625.28, 0.408919
3627.82, 0.409506
3630.36, 0.409963
3632.9, 0.410354
3635.45, 0.410615
3638.0, 0.411007
3640.56, 0.411333
3643.12, 0.411529
3645.68, 0.411920
3648.24, 0.412246
3650.81, 0.412311
3653.39, 0.412377
3655.96, 0.412246
3658.54, 0.411920
3661.13, 0.411790
3663.71, 0.411659
3666.3, 0.411267
3668.9, 0.410680
3671.5, 0.409963
3674.1, 0.409049
3676.7, 0.407809
3679.31, 0.406309
3681.93, 0.404547
3684.54, 0.402589
3687.17, 0.400828
3689.79, 0.399849
3692.42, 0.399196
3695.05, 0.399066
3697.69, 0.399849
3700.32, 0.401415
3702.97, 0.403503
3705.61, 0.405787
3708.27, 0.408201
3710.92, 0.410811
3713.58, 0.413421
3716.24, 0.415704
3718.91, 0.417727
3721.58, 0.419358
3724.25, 0.420663
3726.93, 0.421707
3729.61, 0.422425
3732.29, 0.423143
3734.98, 0.423534
3737.67, 0.423273
3740.37, 0.422425
3743.07, 0.423078
3745.78, 0.425688
3748.49, 0.428037
3751.2, 0.429407
3753.91, 0.430255
3756.63, 0.431103
3759.36, 0.431691
3762.09, 0.432147
3764.82, 0.432669
3767.55, 0.433126
3770.29, 0.433583
3773.04, 0.434040
3775.78, 0.434366
3778.54, 0.434823
3781.29, 0.435214
3784.05, 0.435606
3786.82, 0.435997
3789.59, 0.436389
3792.36, 0.436650
3795.13, 0.436845
3797.92, 0.437106
3800.7, 0.437498
3803.49, 0.437955
3806.28, 0.438281
3809.08, 0.438477
3811.88, 0.438868
3814.68, 0.439129
3817.49, 0.439390
3820.31, 0.439586
3823.12, 0.439847
3825.94, 0.440043
3828.77, 0.440304
3831.6, 0.440434
3834.43, 0.440630
3837.27, 0.440760
3840.11, 0.440956
3842.96, 0.441217
3845.81, 0.441348
3848.67, 0.441348
3851.53, 0.441348
3854.39, 0.441478
3857.26, 0.441674
3860.13, 0.441869
3863.01, 0.442000
3865.89, 0.442000
3868.77, 0.442000
3871.66, 0.442196
3874.55, 0.442196
3877.45, 0.442196
3880.35, 0.442196
3883.26, 0.442261
3886.17, 0.442326
3889.09, 0.442326
3892.01, 0.442261
3894.93, 0.442326
3897.86, 0.442261
3900.79, 0.442196
3903.73, 0.442261
3906.67, 0.442131
3909.62, 0.442000
3912.57, 0.442000
3915.52, 0.441869
3918.48, 0.441804
3921.45, 0.441609
3924.42, 0.441413
3927.39, 0.441282
3930.37, 0.441217
3933.35, 0.441152
3936.34, 0.440891
3939.33, 0.440760
3942.32, 0.440630
3945.32, 0.440565
3948.33, 0.440434
3951.34, 0.440238
3954.35, 0.439977
3957.37, 0.439847
3960.39, 0.439716
3963.42, 0.439521
3966.45, 0.439194
3969.49, 0.438999
3972.53, 0.438803
3975.58, 0.438607
3978.63, 0.438346
3981.68, 0.438216
3984.75, 0.438020
3987.81, 0.437824
3990.88, 0.437628
3993.95, 0.437498
3997.03, 0.437237
4000.12, 0.437041
4003.21, 0.436780
4006.3, 0.436650
4009.4, 0.436389
4012.5, 0.436193
4015.61, 0.435997
4018.72, 0.435867
4021.84, 0.435606
4024.96, 0.435214
4028.09, 0.434953
4031.22, 0.434627
4034.36, 0.434366
4037.5, 0.434105
4040.65, 0.433713
4043.8, 0.433518
4046.96, 0.433257
4050.12, 0.432865
4053.29, 0.432474
4056.46, 0.432213
4059.64, 0.431886
4062.82, 0.431560
4066.0, 0.431299
4069.19, 0.431103
4072.39, 0.430908
4075.59, 0.430581
4078.8, 0.430059
4082.01, 0.429668
4085.23, 0.429342
4088.45, 0.429146
4091.68, 0.428885
4094.91, 0.428493
4098.15, 0.428167
4101.39, 0.427906
4104.63, 0.427319
4107.89, 0.426993
4111.14, 0.426666
4114.41, 0.426405
4117.67, 0.426079
4120.95, 0.425883
4124.23, 0.425622
4127.51, 0.425231
4130.8, 0.424970
4134.09, 0.424644
4137.39, 0.424252
4140.7, 0.423861
4144.01, 0.423534
4147.32, 0.423143
4150.64, 0.422817
4153.97, 0.422490
4157.3, 0.422164
4160.64, 0.421903
4163.98, 0.421512
4167.33, 0.421251
4170.68, 0.421055
4174.04, 0.420729
4177.4, 0.420337
4180.77, 0.419946
4184.14, 0.419685
4187.52, 0.419358
4190.91, 0.419097
4194.3, 0.418706
4197.69, 0.418053
4201.1, 0.417140
4204.5, 0.416031
4207.92, 0.414660
4211.34, 0.413225
4214.76, 0.411855
4218.19, 0.410485
4221.62, 0.409114
4225.06, 0.407875
4228.51, 0.406831
4231.96, 0.405852
4235.42, 0.405134
4238.88, 0.404677
4242.35, 0.404416
4245.83, 0.404416
4249.31, 0.404351
4252.79, 0.404221
4256.28, 0.403177
4259.78, 0.399784
4263.29, 0.396130
4266.79, 0.394172
4270.31, 0.394303
4273.83, 0.395869
4277.35, 0.397826
4280.89, 0.399392
4284.42, 0.400436
4287.97, 0.401089
4291.52, 0.401545
4295.07, 0.401937
4298.63, 0.402263
4302.2, 0.402459
4305.78, 0.402655
4309.35, 0.402720
4312.94, 0.402981
4316.53, 0.403111
4320.13, 0.403046
4323.73, 0.402720
4327.34, 0.402655
4330.96, 0.402589
4334.58, 0.402263
4338.21, 0.401872
4341.84, 0.401480
4345.48, 0.401023
4349.12, 0.400567
4352.77, 0.400045
4356.43, 0.399653
4360.1, 0.399196
4363.76, 0.398740
4367.44, 0.398218
4371.12, 0.397826
4374.81, 0.397500
4378.51, 0.397043
4382.21, 0.396456
4385.92, 0.395869
4389.63, 0.395412
4393.35, 0.394890
4397.08, 0.394368
4400.81, 0.393781
4404.55, 0.393193
4408.29, 0.392671
4412.04, 0.392084
4415.8, 0.391627
4419.57, 0.391040
4423.34, 0.390453
4427.12, 0.390061
4430.9, 0.389670
4434.69, 0.389278
4438.49, 0.388756
4442.29, 0.388104
4446.1, 0.387517
4449.92, 0.386864
4453.74, 0.386016
4457.57, 0.385168
4461.41, 0.384254
4465.25, 0.383145
4469.1, 0.382036
4472.95, 0.380731
4476.82, 0.379426
4480.69, 0.378186
4484.56, 0.377142
4488.44, 0.376098
4492.33, 0.375250
4496.23, 0.374597
4500.13, 0.373880
4504.04, 0.373031
4507.96, 0.372509
4511.88, 0.371987
4515.81, 0.371465
4519.75, 0.371009
4523.69, 0.370617
4527.65, 0.370226
4531.6, 0.369769
4535.57, 0.369312
4539.54, 0.368725
4543.52, 0.368007
4547.5, 0.367094
4551.5, 0.366050
4555.5, 0.365006
4559.5, 0.363831
4563.52, 0.362461
4567.54, 0.361025
4571.56, 0.359590
4575.6, 0.358220
4579.64, 0.356784
4583.69, 0.355349
4587.75, 0.353783
4591.81, 0.352021
4595.88, 0.350259
4599.96, 0.348302
4604.04, 0.346214
4608.14, 0.343865
4612.24, 0.341712
4616.34, 0.339363
4620.46, 0.336818
4624.58, 0.334338
4628.71, 0.331924
4632.84, 0.329445
4636.99, 0.327096
4641.14, 0.324747
4645.3, 0.322528
4649.47, 0.320440
4653.64, 0.318548
4657.82, 0.316721
4662.01, 0.314959
4666.21, 0.313589
4670.41, 0.312545
4674.62, 0.311632
4678.84, 0.310914
4683.07, 0.310392
4687.3, 0.309935
4691.54, 0.309544
4695.79, 0.309217
4700.05, 0.308826
4704.31, 0.308500
4708.59, 0.308369
4712.87, 0.308239
4717.15, 0.308043
4721.45, 0.307717
4725.76, 0.307456
4730.07, 0.307195
4734.39, 0.306738
4738.72, 0.306281
4743.05, 0.305890
4747.39, 0.305433
4751.75, 0.304846
4756.1, 0.304389
4760.47, 0.303736
4764.85, 0.302953
4769.23, 0.302040
4773.62, 0.300996
4778.02, 0.299756
4782.43, 0.298451
4786.85, 0.297146
4791.27, 0.295645
4795.7, 0.294210
4800.14, 0.292774
4804.59, 0.291078
4809.05, 0.289251
4813.51, 0.287554
4817.99, 0.285923
4822.47, 0.284096
4826.96, 0.282335
4831.46, 0.280442
4835.96, 0.278550
4840.48, 0.276788
4845.0, 0.275288
4849.54, 0.273656
4854.08, 0.272025
4858.63, 0.270459
4863.18, 0.268893
4867.75, 0.267131
4872.33, 0.265500
4876.91, 0.263738
4881.5, 0.262042
4886.1, 0.260411
4890.71, 0.258845
4895.33, 0.257344
4899.96, 0.255974
4904.59, 0.254734
4909.24, 0.253625
4913.89, 0.252516
4918.55, 0.251341
4923.22, 0.250232
4927.9, 0.249188
4932.59, 0.248079
4937.29, 0.246904
4942.0, 0.245469
4946.71, 0.243903
4951.44, 0.242337
4956.17, 0.240575
4960.91, 0.238683
4965.67, 0.236725
4970.43, 0.234637
4975.2, 0.232549
4979.98, 0.230331
4984.76, 0.227982
4989.56, 0.225763
4994.37, 0.223545
4999.18, 0.221392
5004.01, 0.219369
5008.84, 0.217216
5013.69, 0.214801
5018.54, 0.212126
5023.4, 0.209581
5028.28, 0.206971
5033.16, 0.204231
5038.05, 0.201425
5042.95, 0.198554
5047.86, 0.195422
5052.78, 0.192160
5057.71, 0.188832
5062.65, 0.185570
5067.6, 0.182177
5072.56, 0.178914
5077.53, 0.175652
5082.5, 0.172259
5087.49, 0.169127
5092.49, 0.166190
5097.5, 0.163254
5102.51, 0.160318
5107.54, 0.157447
5112.58, 0.154707
5117.62, 0.152162
5122.68, 0.149748
5127.75, 0.147529
5132.82, 0.145376
5137.91, 0.143418
5143.01, 0.141722
5148.12, 0.140221
5153.23, 0.138981
5158.36, 0.137807
5163.5, 0.136763
5168.65, 0.135915
5173.81, 0.135197
5178.98, 0.134675
5184.15, 0.134218
5189.34, 0.134022
5194.54, 0.134088
5199.75, 0.134022
5204.98, 0.134283
5210.21, 0.134544
5215.45, 0.135001
5220.7, 0.135654
5225.96, 0.136241
5231.23, 0.136698
5236.52, 0.137350
5241.81, 0.138068
5247.12, 0.138851
5252.44, 0.139634
5257.76, 0.140482
5263.1, 0.141396
5268.45, 0.142113
5273.81, 0.142635
5279.18, 0.143223
5284.56, 0.143549
5289.95, 0.143484
5295.36, 0.143679
5300.77, 0.143679
