Database of Origin, USGS Spectral Database
Sample Description, See USGS database for additional info
Date Added,2016-08-10 05:13:55.879869

Data ID,USGS_mus15          
Sample ID, muscovite_gds117.15243
Mineral Name, muscovite
Material Class,Phyllosilicate

Wavelength
1364.61, 0.613296
1364.97, 0.612938
1365.33, 0.612894
1365.69, 0.612760
1366.05, 0.612804
1366.41, 0.613028
1366.77, 0.613430
1367.13, 0.613833
1367.49, 0.614325
1367.85, 0.613833
1368.21, 0.614459
1368.57, 0.614548
1368.93, 0.613922
1369.3, 0.614459
1369.66, 0.615040
1370.02, 0.614682
1370.38, 0.615398
1370.74, 0.616203
1371.11, 0.615711
1371.47, 0.615085
1371.83, 0.615398
1372.19, 0.615800
1372.56, 0.615890
1372.92, 0.615934
1373.29, 0.615800
1373.65, 0.615487
1374.01, 0.615577
1374.38, 0.615621
1374.74, 0.616068
1375.11, 0.616381
1375.47, 0.616560
1375.84, 0.616963
1376.2, 0.616918
1376.57, 0.616918
1376.93, 0.617007
1377.3, 0.617007
1377.67, 0.617276
1378.03, 0.617678
1378.4, 0.618170
1378.76, 0.618080
1379.13, 0.617633
1379.5, 0.617723
1379.87, 0.618304
1380.23, 0.619645
1380.6, 0.620093
1380.97, 0.619333
1381.34, 0.618394
1381.7, 0.618170
1382.07, 0.619467
1382.44, 0.620808
1382.81, 0.620048
1383.18, 0.619243
1383.55, 0.619154
1383.92, 0.618796
1384.29, 0.618662
1384.66, 0.619109
1385.03, 0.618751
1385.4, 0.618304
1385.77, 0.618304
1386.14, 0.617991
1386.51, 0.617633
1386.88, 0.617276
1387.25, 0.617320
1387.62, 0.617767
1387.99, 0.617455
1388.36, 0.616068
1388.74, 0.614861
1389.11, 0.614414
1389.48, 0.614056
1389.85, 0.613341
1390.23, 0.612447
1390.6, 0.611597
1390.97, 0.610703
1391.35, 0.609674
1391.72, 0.608288
1392.09, 0.607528
1392.47, 0.606052
1392.84, 0.603504
1393.21, 0.601447
1393.59, 0.599927
1393.96, 0.598093
1394.34, 0.596305
1394.71, 0.594740
1395.09, 0.592504
1395.46, 0.590134
1395.84, 0.587675
1396.22, 0.585439
1396.59, 0.582667
1396.97, 0.579358
1397.35, 0.576854
1397.72, 0.574484
1398.1, 0.571980
1398.48, 0.569476
1398.85, 0.567554
1399.23, 0.565810
1399.61, 0.563440
1399.99, 0.561204
1400.37, 0.559908
1400.74, 0.557717
1401.12, 0.555749
1401.5, 0.553961
1401.88, 0.551949
1402.26, 0.550428
1402.64, 0.548908
1403.02, 0.547298
1403.4, 0.545868
1403.78, 0.544839
1404.16, 0.544079
1404.54, 0.543766
1404.92, 0.542693
1405.3, 0.540636
1405.68, 0.539116
1406.06, 0.538177
1406.44, 0.537640
1406.83, 0.536656
1407.21, 0.535315
1407.59, 0.533974
1407.97, 0.532274
1408.35, 0.531112
1408.74, 0.530575
1409.12, 0.529770
1409.5, 0.528608
1409.89, 0.527490
1410.27, 0.526328
1410.65, 0.525657
1411.04, 0.525254
1411.42, 0.524315
1411.81, 0.524315
1412.19, 0.524405
1412.58, 0.524673
1412.96, 0.525433
1413.35, 0.526015
1413.73, 0.527222
1414.12, 0.529145
1414.5, 0.530397
1414.89, 0.532006
1415.28, 0.534108
1415.66, 0.536478
1416.05, 0.538713
1416.44, 0.541351
1416.82, 0.543855
1417.21, 0.546449
1417.6, 0.548953
1417.98, 0.551591
1418.37, 0.554184
1418.76, 0.556822
1419.15, 0.559326
1419.54, 0.561696
1419.93, 0.564469
1420.32, 0.566972
1420.71, 0.569208
1421.09, 0.570997
1421.48, 0.573009
1421.88, 0.574842
1422.27, 0.576631
1422.66, 0.578419
1423.05, 0.580342
1423.44, 0.582444
1423.83, 0.584187
1424.22, 0.585439
1424.61, 0.587004
1425.0, 0.588569
1425.39, 0.590000
1425.78, 0.591520
1426.18, 0.593175
1426.57, 0.594606
1426.96, 0.595813
1427.36, 0.597110
1427.75, 0.598585
1428.14, 0.600329
1428.54, 0.601626
1428.93, 0.603012
1429.32, 0.604130
1429.72, 0.605158
1430.11, 0.606097
1430.51, 0.607349
1430.9, 0.608467
1431.3, 0.609674
1431.69, 0.610747
1432.09, 0.611373
1432.48, 0.611910
1432.88, 0.612760
1433.28, 0.613386
1433.67, 0.614146
1434.07, 0.614727
1434.46, 0.615398
1434.86, 0.616024
1435.26, 0.616337
1435.66, 0.616739
1436.05, 0.617142
1436.45, 0.617499
1436.85, 0.618080
1437.25, 0.618572
1437.65, 0.618706
1438.05, 0.618796
1438.44, 0.618885
1438.84, 0.619154
1439.24, 0.619645
1439.64, 0.619824
1440.04, 0.620003
1440.44, 0.620271
1440.84, 0.620674
1441.24, 0.620763
1441.65, 0.620763
1442.05, 0.620853
1442.45, 0.621523
1442.85, 0.621568
1443.25, 0.621255
1443.65, 0.621434
1444.05, 0.621971
1444.46, 0.622060
1444.86, 0.622105
1445.26, 0.622194
1445.67, 0.622373
1446.07, 0.622418
1446.47, 0.622507
1446.88, 0.622105
1447.28, 0.622239
1447.68, 0.622463
1448.09, 0.622507
1448.49, 0.622463
1448.9, 0.622552
1449.3, 0.622641
1449.71, 0.622552
1450.11, 0.622552
1450.52, 0.622954
1450.93, 0.623088
1451.33, 0.623088
1451.74, 0.622954
1452.14, 0.622731
1452.55, 0.622686
1452.96, 0.622731
1453.36, 0.622865
1453.77, 0.622775
1454.18, 0.623044
1454.59, 0.622910
1455.0, 0.622641
1455.41, 0.622999
1455.81, 0.623178
1456.22, 0.623267
1456.63, 0.622999
1457.04, 0.622775
1457.45, 0.622910
1457.86, 0.623133
1458.27, 0.623178
1458.68, 0.622865
1459.09, 0.623223
1459.5, 0.623401
1459.91, 0.623357
1460.32, 0.623044
1460.74, 0.622910
1461.15, 0.622910
1461.56, 0.622999
1461.97, 0.623133
1462.39, 0.623357
1462.8, 0.623357
1463.21, 0.623312
1463.62, 0.623133
1464.04, 0.623357
1464.45, 0.622999
1464.86, 0.622954
1465.28, 0.622954
1465.69, 0.622865
1466.11, 0.622910
1466.52, 0.622999
1466.94, 0.622999
1467.35, 0.622820
1467.77, 0.622686
1468.18, 0.622865
1468.6, 0.623044
1469.02, 0.623267
1469.43, 0.623223
1469.85, 0.623044
1470.27, 0.622999
1470.68, 0.622999
1471.1, 0.622775
1471.52, 0.622775
1471.94, 0.622999
1472.35, 0.623088
1472.77, 0.623044
1473.19, 0.622954
1473.61, 0.623133
1474.03, 0.623401
1474.45, 0.622954
1474.87, 0.622284
1475.29, 0.622641
1475.71, 0.622865
1476.13, 0.622641
1476.55, 0.622463
1476.97, 0.622463
1477.39, 0.622686
1477.81, 0.622686
1478.23, 0.622686
1478.65, 0.622820
1479.07, 0.623088
1479.5, 0.622820
1479.92, 0.622820
1480.34, 0.622865
1480.76, 0.623088
1481.19, 0.623088
1481.61, 0.622999
1482.03, 0.623044
1482.46, 0.622999
1482.88, 0.622954
1483.31, 0.622910
1483.73, 0.623133
1484.16, 0.623178
1484.58, 0.623133
1485.01, 0.622686
1485.43, 0.622507
1485.86, 0.622686
1486.28, 0.622865
1486.71, 0.623178
1487.14, 0.623267
1487.56, 0.623357
1487.99, 0.623491
1488.42, 0.623223
1488.84, 0.622954
1489.27, 0.622910
1489.7, 0.622954
1490.13, 0.623088
1490.56, 0.623133
1490.98, 0.623312
1491.41, 0.623178
1491.84, 0.623044
1492.27, 0.623267
1492.7, 0.623446
1493.13, 0.623357
1493.56, 0.623401
1493.99, 0.623357
1494.42, 0.623357
1494.85, 0.623267
1495.29, 0.623357
1495.72, 0.623536
1496.15, 0.623625
1496.58, 0.623670
1497.01, 0.623401
1497.44, 0.623357
1497.88, 0.623759
1498.31, 0.623580
1498.74, 0.623312
1499.18, 0.623625
1499.61, 0.623804
1500.04, 0.623849
1500.48, 0.623714
1500.91, 0.623580
1501.35, 0.623759
1501.78, 0.623625
1502.22, 0.623625
1502.65, 0.623670
1503.09, 0.623491
1503.53, 0.623714
1503.96, 0.623625
1504.4, 0.623580
1504.83, 0.623670
1505.27, 0.623580
1505.71, 0.623759
1506.15, 0.623849
1506.58, 0.623804
1507.02, 0.623670
1507.46, 0.623714
1507.9, 0.623849
1508.34, 0.623759
1508.78, 0.623759
1509.21, 0.623625
1509.66, 0.623491
1510.09, 0.623580
1510.53, 0.623938
1510.97, 0.624027
1511.42, 0.623849
1511.86, 0.623983
1512.3, 0.624027
1512.74, 0.624027
1513.18, 0.623759
1513.62, 0.623670
1514.06, 0.623714
1514.51, 0.623938
1514.95, 0.623849
1515.39, 0.623670
1515.83, 0.623536
1516.28, 0.623536
1516.72, 0.623446
1517.16, 0.623446
1517.61, 0.623536
1518.05, 0.623938
1518.5, 0.623849
1518.94, 0.623536
1519.39, 0.623625
1519.83, 0.623849
1520.28, 0.623714
1520.73, 0.623714
1521.17, 0.623401
1521.62, 0.623580
1522.07, 0.623759
1522.51, 0.623714
1522.96, 0.623670
1523.41, 0.623759
1523.85, 0.623804
1524.3, 0.624027
1524.75, 0.624072
1525.2, 0.624072
1525.65, 0.624162
1526.1, 0.623983
1526.55, 0.624027
1527.0, 0.624162
1527.45, 0.623804
1527.9, 0.623625
1528.35, 0.623893
1528.8, 0.624206
1529.25, 0.623893
1529.7, 0.623893
1530.15, 0.624027
1530.6, 0.624117
1531.05, 0.624117
1531.51, 0.624162
1531.96, 0.624072
1532.41, 0.624251
1532.87, 0.624206
1533.32, 0.624027
1533.77, 0.624117
1534.23, 0.624340
1534.68, 0.624251
1535.14, 0.624206
1535.59, 0.624385
1536.05, 0.624475
1536.5, 0.624609
1536.96, 0.624698
1537.41, 0.624475
1537.87, 0.624564
1538.32, 0.624832
1538.78, 0.624519
1539.24, 0.624430
1539.7, 0.624788
1540.15, 0.625011
1540.61, 0.625011
1541.07, 0.624922
1541.53, 0.624877
1541.98, 0.625011
1542.44, 0.625190
1542.9, 0.625101
1543.36, 0.624922
1543.82, 0.625279
1544.28, 0.625414
1544.74, 0.625414
1545.2, 0.625324
1545.66, 0.625279
1546.12, 0.625324
1546.59, 0.625369
1547.05, 0.625682
1547.51, 0.625771
1547.97, 0.625548
1548.43, 0.625458
1548.9, 0.625503
1549.36, 0.625682
1549.82, 0.625950
1550.29, 0.625906
1550.75, 0.625816
1551.21, 0.625906
1551.68, 0.626084
1552.14, 0.625950
1552.61, 0.625950
1553.07, 0.625816
1553.54, 0.625771
1554.0, 0.626129
1554.47, 0.626487
1554.93, 0.626576
1555.4, 0.626263
1555.87, 0.626218
1556.34, 0.626442
1556.8, 0.626308
1557.27, 0.626353
1557.74, 0.626487
1558.21, 0.626666
1558.68, 0.626666
1559.14, 0.626621
1559.61, 0.626621
1560.08, 0.626576
1560.55, 0.626442
1561.02, 0.626576
1561.49, 0.626621
1561.96, 0.626576
1562.43, 0.626800
1562.9, 0.626844
1563.38, 0.626666
1563.85, 0.626666
1564.32, 0.626576
1564.79, 0.626710
1565.26, 0.626710
1565.74, 0.626755
1566.21, 0.626979
1566.68, 0.626979
1567.16, 0.626844
1567.63, 0.626979
1568.1, 0.626979
1568.58, 0.627023
1569.05, 0.627023
1569.53, 0.626800
1570.0, 0.626755
1570.48, 0.626844
1570.96, 0.627113
1571.43, 0.627157
1571.91, 0.627292
1572.39, 0.627336
1572.86, 0.627202
1573.34, 0.627113
1573.82, 0.627068
1574.3, 0.626934
1574.77, 0.627157
1575.25, 0.627202
1575.73, 0.627023
1576.21, 0.627113
1576.69, 0.627336
1577.17, 0.627470
1577.65, 0.627292
1578.13, 0.627157
1578.61, 0.627068
1579.09, 0.627202
1579.57, 0.627292
1580.05, 0.627292
1580.54, 0.627247
1581.02, 0.627336
1581.5, 0.627381
1581.98, 0.627515
1582.47, 0.627202
1582.95, 0.627023
1583.43, 0.627023
1583.92, 0.627202
1584.4, 0.627426
1584.88, 0.627157
1585.37, 0.627157
1585.85, 0.627605
1586.34, 0.627962
1586.82, 0.627918
1587.31, 0.627649
1587.8, 0.627426
1588.28, 0.627336
1588.77, 0.627202
1589.26, 0.627202
1589.74, 0.627828
1590.23, 0.627828
1590.72, 0.627470
1591.21, 0.627157
1591.7, 0.627470
1592.19, 0.627739
1592.67, 0.627649
1593.16, 0.627828
1593.65, 0.627560
1594.14, 0.627247
1594.63, 0.627560
1595.12, 0.627739
1595.61, 0.627918
1596.11, 0.628052
1596.6, 0.628275
1597.09, 0.628320
1597.58, 0.628096
1598.08, 0.628141
1598.57, 0.628320
1599.06, 0.628410
1599.55, 0.628410
1600.05, 0.628320
1600.54, 0.628365
1601.04, 0.628410
1601.53, 0.628454
1602.03, 0.628767
1602.52, 0.628901
1603.02, 0.628722
1603.51, 0.628499
1604.01, 0.628722
1604.5, 0.628946
1605.0, 0.628901
1605.5, 0.628901
1606.0, 0.628946
1606.49, 0.629080
1606.99, 0.629125
1607.49, 0.629214
1607.99, 0.629393
1608.49, 0.629483
1608.99, 0.629393
1609.49, 0.629527
1609.99, 0.629706
1610.49, 0.629617
1610.99, 0.629706
1611.49, 0.629795
1611.99, 0.629706
1612.49, 0.629706
1612.99, 0.629840
1613.49, 0.629885
1614.0, 0.629930
1614.5, 0.630153
1615.0, 0.630019
1615.51, 0.630109
1616.01, 0.630243
1616.51, 0.630243
1617.02, 0.630153
1617.52, 0.630064
1618.03, 0.630243
1618.53, 0.630466
1619.04, 0.630511
1619.54, 0.630556
1620.05, 0.630377
1620.55, 0.630287
1621.06, 0.630377
1621.57, 0.630690
1622.08, 0.630958
1622.58, 0.630779
1623.09, 0.631048
1623.6, 0.631182
1624.11, 0.631182
1624.62, 0.631092
1625.13, 0.630913
1625.64, 0.630869
1626.15, 0.631048
1626.66, 0.631048
1627.17, 0.631271
1627.68, 0.631405
1628.19, 0.631629
1628.7, 0.631405
1629.21, 0.631226
1629.72, 0.631271
1630.24, 0.631271
1630.75, 0.631405
1631.26, 0.631584
1631.78, 0.631450
1632.29, 0.631539
1632.8, 0.631584
1633.32, 0.631405
1633.83, 0.631450
1634.35, 0.631495
1634.86, 0.631450
1635.38, 0.631718
1635.9, 0.631942
1636.41, 0.631718
1636.93, 0.631539
1637.45, 0.631405
1637.96, 0.631405
1638.48, 0.631495
1639.0, 0.631584
1639.52, 0.631718
1640.04, 0.631718
1640.56, 0.631629
1641.08, 0.631495
1641.59, 0.631584
1642.11, 0.631763
1642.63, 0.631808
1643.16, 0.631763
1643.68, 0.631629
1644.2, 0.631763
1644.72, 0.631674
1645.24, 0.631718
1645.76, 0.631808
1646.29, 0.631808
1646.81, 0.631808
1647.33, 0.631987
1647.86, 0.631942
1648.38, 0.631808
1648.9, 0.631897
1649.43, 0.631897
1649.95, 0.631629
1650.48, 0.631629
1651.0, 0.631674
1651.53, 0.631629
1652.06, 0.631763
1652.58, 0.631763
1653.11, 0.631718
1653.64, 0.631718
1654.17, 0.631808
1654.69, 0.631987
1655.22, 0.631897
1655.75, 0.631763
1656.28, 0.631763
1656.81, 0.631852
1657.34, 0.631763
1657.87, 0.631852
1658.4, 0.632031
1658.93, 0.632076
1659.46, 0.631987
1659.99, 0.631942
1660.52, 0.631897
1661.05, 0.631897
1661.59, 0.632165
1662.12, 0.632165
1662.65, 0.632076
1663.19, 0.632210
1663.72, 0.632389
1664.26, 0.632478
1664.79, 0.632434
1665.32, 0.632344
1665.86, 0.632478
1666.39, 0.632702
1666.93, 0.632702
1667.47, 0.632434
1668.0, 0.632613
1668.54, 0.632613
1669.08, 0.632747
1669.61, 0.632881
1670.15, 0.632881
1670.69, 0.632970
1671.23, 0.632970
1671.77, 0.632970
1672.31, 0.633104
1672.85, 0.633328
1673.39, 0.633149
1673.93, 0.633149
1674.47, 0.633194
1675.01, 0.633283
1675.55, 0.633417
1676.09, 0.633462
1676.64, 0.633507
1677.18, 0.633686
1677.72, 0.633552
1678.26, 0.633507
1678.81, 0.633641
1679.35, 0.633686
1679.89, 0.633730
1680.44, 0.633730
1680.98, 0.633865
1681.53, 0.633820
1682.07, 0.633954
1682.62, 0.634133
1683.17, 0.634312
1683.71, 0.634446
1684.26, 0.634580
1684.81, 0.634580
1685.36, 0.634491
1685.9, 0.634491
1686.45, 0.634446
1687.0, 0.634491
1687.55, 0.634491
1688.1, 0.634669
1688.65, 0.634714
1689.2, 0.634893
1689.75, 0.634938
1690.3, 0.634893
1690.85, 0.634938
1691.41, 0.634982
1691.96, 0.635072
1692.51, 0.634938
1693.06, 0.634893
1693.61, 0.634804
1694.17, 0.634982
1694.72, 0.635117
1695.28, 0.635206
1695.83, 0.635206
1696.39, 0.635385
1696.94, 0.635474
1697.5, 0.635340
1698.05, 0.635161
1698.61, 0.635251
1699.17, 0.635251
1699.72, 0.635251
1700.28, 0.635474
1700.84, 0.635653
1701.4, 0.635564
1701.95, 0.635474
1702.51, 0.635340
1703.07, 0.635295
1703.63, 0.635251
1704.19, 0.635340
1704.75, 0.635295
1705.31, 0.635385
1705.88, 0.635340
1706.44, 0.635429
1707.0, 0.635385
1707.56, 0.635340
1708.12, 0.635295
1708.69, 0.635295
1709.25, 0.635251
1709.81, 0.635295
1710.38, 0.635251
1710.94, 0.635251
1711.51, 0.635385
1712.07, 0.635340
1712.64, 0.635295
1713.2, 0.635429
1713.77, 0.635385
1714.34, 0.635340
1714.9, 0.635340
1715.47, 0.635474
1716.04, 0.635474
1716.61, 0.635519
1717.18, 0.635429
1717.74, 0.635295
1718.31, 0.635340
1718.88, 0.635429
1719.45, 0.635206
1720.02, 0.635251
1720.59, 0.635429
1721.17, 0.635340
1721.74, 0.635251
1722.31, 0.635206
1722.88, 0.635161
1723.45, 0.635206
1724.03, 0.635206
1724.6, 0.634938
1725.18, 0.635027
1725.75, 0.635251
1726.33, 0.635340
1726.9, 0.635295
1727.48, 0.635340
1728.05, 0.635117
1728.63, 0.634982
1729.2, 0.635072
1729.78, 0.635072
1730.36, 0.635117
1730.94, 0.635027
1731.51, 0.635117
1732.09, 0.635251
1732.67, 0.635295
1733.25, 0.635295
1733.83, 0.635251
1734.41, 0.635072
1734.99, 0.635072
1735.57, 0.635161
1736.15, 0.635295
1736.73, 0.635340
1737.32, 0.635206
1737.9, 0.635206
1738.48, 0.635340
1739.07, 0.635564
1739.65, 0.635564
1740.23, 0.635474
1740.82, 0.635564
1741.4, 0.635519
1741.99, 0.635519
1742.57, 0.635474
1743.16, 0.635385
1743.74, 0.635206
1744.33, 0.635474
1744.92, 0.635608
1745.51, 0.635653
1746.09, 0.635698
1746.68, 0.635787
1747.27, 0.635877
1747.86, 0.635921
1748.45, 0.635966
1749.04, 0.635921
1749.63, 0.635966
1750.22, 0.635787
1750.81, 0.635787
1751.4, 0.635877
1751.99, 0.635787
1752.59, 0.635787
1753.18, 0.635966
1753.77, 0.636056
1754.37, 0.636100
1754.96, 0.636279
1755.56, 0.636324
1756.15, 0.636324
1756.74, 0.636279
1757.34, 0.636234
1757.94, 0.636324
1758.53, 0.636369
1759.13, 0.636279
1759.73, 0.636413
1760.32, 0.636592
1760.92, 0.636413
1761.52, 0.636279
1762.12, 0.636726
1762.72, 0.636771
1763.32, 0.636503
1763.92, 0.636547
1764.52, 0.636592
1765.12, 0.636726
1765.72, 0.636816
1766.32, 0.636771
1766.92, 0.636995
1767.53, 0.637039
1768.13, 0.636995
1768.73, 0.636950
1769.34, 0.636995
1769.94, 0.637084
1770.55, 0.637039
1771.15, 0.637039
1771.76, 0.637084
1772.36, 0.636995
1772.97, 0.637173
1773.57, 0.637263
1774.18, 0.637173
1774.79, 0.637129
1775.4, 0.637129
1776.0, 0.637173
1776.61, 0.637129
1777.22, 0.637218
1777.83, 0.637129
1778.44, 0.637084
1779.05, 0.637084
1779.66, 0.637129
1780.27, 0.637218
1780.88, 0.637397
1781.5, 0.637263
1782.11, 0.637084
1782.72, 0.637084
1783.33, 0.637308
1783.95, 0.637486
1784.56, 0.637576
1785.18, 0.637397
1785.79, 0.637263
1786.41, 0.637173
1787.02, 0.637129
1787.64, 0.637039
1788.26, 0.637039
1788.87, 0.637129
1789.49, 0.637129
1790.11, 0.637263
1790.73, 0.637218
1791.35, 0.637218
1791.96, 0.637173
1792.58, 0.637039
1793.21, 0.637039
1793.83, 0.637173
1794.45, 0.637263
1795.07, 0.637129
1795.69, 0.636950
1796.31, 0.636905
1796.93, 0.637129
1797.56, 0.637263
1798.18, 0.637129
1798.8, 0.636860
1799.43, 0.636860
1800.05, 0.636860
1800.68, 0.636771
1801.3, 0.636726
1801.93, 0.636771
1802.56, 0.636816
1803.18, 0.636726
1803.81, 0.636592
1804.44, 0.636413
1805.07, 0.636369
1805.7, 0.636592
1806.33, 0.636637
1806.95, 0.636503
1807.58, 0.636324
1808.22, 0.636234
1808.85, 0.636324
1809.48, 0.636279
1810.11, 0.636503
1810.74, 0.636726
1811.38, 0.636503
1812.01, 0.636503
1812.64, 0.636547
1813.28, 0.636279
1813.91, 0.636056
1814.55, 0.636234
1815.18, 0.636860
1815.82, 0.636681
1816.45, 0.636234
1817.09, 0.635966
1817.73, 0.635966
1818.36, 0.636190
1819.0, 0.636011
1819.64, 0.636547
1820.28, 0.637308
1820.92, 0.636995
1821.56, 0.636771
1822.2, 0.636547
1822.84, 0.636413
1823.48, 0.636145
1824.12, 0.635877
1824.76, 0.635742
1825.41, 0.636503
1826.05, 0.637620
1826.69, 0.636726
1827.34, 0.635742
1827.98, 0.636011
1828.63, 0.636145
1829.27, 0.636011
1829.92, 0.636234
1830.56, 0.636726
1831.21, 0.636681
1831.86, 0.636056
1832.5, 0.635877
1833.15, 0.635429
1833.8, 0.635340
1834.45, 0.636011
1835.1, 0.636458
1835.75, 0.637039
1836.4, 0.637173
1837.05, 0.637129
1837.7, 0.637352
1838.35, 0.636011
1839.01, 0.636190
1839.66, 0.637218
1840.31, 0.636279
1840.96, 0.636369
1841.62, 0.637755
1842.27, 0.636905
1842.93, 0.635608
1843.58, 0.635474
1844.24, 0.635519
1844.9, 0.635519
1845.55, 0.635608
1846.21, 0.637084
1846.87, 0.638649
1847.53, 0.638246
1848.18, 0.637710
1848.84, 0.636771
1849.5, 0.636369
1850.16, 0.636413
1850.82, 0.636324
1851.48, 0.636145
1852.14, 0.636503
1852.81, 0.637352
1853.47, 0.638560
1854.13, 0.638246
1854.8, 0.636726
1855.46, 0.636726
1856.12, 0.637933
1856.79, 0.638023
1857.45, 0.636995
1858.12, 0.636637
1858.79, 0.637486
1859.45, 0.639096
1860.12, 0.638515
1860.79, 0.637352
1861.46, 0.636637
1862.12, 0.636369
1862.79, 0.636503
1863.46, 0.636950
1864.13, 0.637129
1864.8, 0.636592
1865.48, 0.636190
1866.15, 0.636190
1866.82, 0.636905
1867.49, 0.638068
1868.16, 0.637397
1868.84, 0.636145
1869.51, 0.636145
1870.19, 0.637129
1870.86, 0.637799
1871.54, 0.635966
1872.21, 0.635787
1872.89, 0.636771
1873.56, 0.635564
1874.24, 0.633909
1874.92, 0.633373
1875.6, 0.632881
1876.28, 0.633194
1876.96, 0.633194
1877.64, 0.631584
1878.32, 0.630600
1879.0, 0.630019
1879.68, 0.629572
1880.36, 0.629483
1881.04, 0.629348
1881.73, 0.629035
1882.41, 0.628946
1883.09, 0.629304
1883.78, 0.629885
1884.46, 0.629348
1885.15, 0.628722
1885.83, 0.628544
1886.52, 0.628499
1887.21, 0.628186
1887.89, 0.627783
1888.58, 0.627426
1889.27, 0.627873
1889.96, 0.628275
1890.65, 0.627202
1891.34, 0.626531
1892.03, 0.626353
1892.72, 0.625816
1893.41, 0.625458
1894.1, 0.624788
1894.79, 0.623983
1895.49, 0.623312
1896.18, 0.622999
1896.87, 0.622954
1897.57, 0.622820
1898.26, 0.622373
1898.96, 0.622910
1899.65, 0.623088
1900.35, 0.621747
1901.05, 0.620316
1901.74, 0.619780
1902.44, 0.620406
1903.14, 0.619824
1903.84, 0.618528
1904.54, 0.618975
1905.24, 0.619556
1905.94, 0.618930
1906.64, 0.618483
1907.34, 0.617455
1908.04, 0.616694
1908.75, 0.616560
1909.45, 0.616471
1910.15, 0.616560
1910.86, 0.616784
1911.56, 0.616650
1912.27, 0.616471
1912.97, 0.617455
1913.68, 0.617902
1914.39, 0.616873
1915.09, 0.616471
1915.8, 0.616650
1916.51, 0.616605
1917.22, 0.616426
1917.93, 0.616426
1918.64, 0.616605
1919.35, 0.617633
1920.06, 0.618930
1920.77, 0.618796
1921.48, 0.617499
1922.19, 0.617097
1922.91, 0.617320
1923.62, 0.617946
1924.33, 0.617902
1925.05, 0.617633
1925.76, 0.617723
1926.48, 0.617991
1927.19, 0.618080
1927.91, 0.618572
1928.63, 0.618930
1929.35, 0.618662
1930.07, 0.618841
1930.78, 0.618975
1931.5, 0.619020
1932.22, 0.618975
1932.94, 0.619333
1933.66, 0.619690
1934.39, 0.619735
1935.11, 0.619824
1935.83, 0.620137
1936.55, 0.620361
1937.28, 0.620361
1938.0, 0.620450
1938.73, 0.620763
1939.45, 0.620942
1940.18, 0.620853
1940.9, 0.620942
1941.63, 0.621076
1942.36, 0.621300
1943.09, 0.621389
1943.81, 0.621479
1944.54, 0.621613
1945.27, 0.621613
1946.0, 0.621658
1946.73, 0.621792
1947.47, 0.621926
1948.2, 0.621926
1948.93, 0.622194
1949.66, 0.622328
1950.4, 0.622284
1951.13, 0.622239
1951.86, 0.622373
1952.6, 0.622686
1953.34, 0.622731
1954.07, 0.622775
1954.81, 0.622775
1955.55, 0.622999
1956.29, 0.622999
1957.02, 0.622999
1957.76, 0.622999
1958.5, 0.623223
1959.24, 0.623267
1959.98, 0.623312
1960.72, 0.623267
1961.47, 0.623267
1962.21, 0.623267
1962.95, 0.623312
1963.7, 0.623491
1964.44, 0.623491
1965.18, 0.623446
1965.93, 0.623446
1966.67, 0.623580
1967.42, 0.623759
1968.17, 0.623759
1968.92, 0.623759
1969.66, 0.623580
1970.41, 0.623670
1971.16, 0.623893
1971.91, 0.623849
1972.66, 0.623849
1973.41, 0.623893
1974.16, 0.623804
1974.92, 0.623804
1975.67, 0.623938
1976.42, 0.624117
1977.18, 0.624117
1977.93, 0.624072
1978.69, 0.623938
1979.44, 0.623938
1980.2, 0.624027
1980.95, 0.624027
1981.71, 0.624027
1982.47, 0.624027
1983.23, 0.624206
1983.99, 0.624251
1984.74, 0.624072
1985.51, 0.624117
1986.27, 0.624206
1987.03, 0.624296
1987.79, 0.624296
1988.55, 0.624475
1989.32, 0.624564
1990.08, 0.624519
1990.84, 0.624609
1991.61, 0.624653
1992.37, 0.624609
1993.14, 0.624743
1993.9, 0.624743
1994.67, 0.624832
1995.44, 0.624788
1996.21, 0.624698
1996.98, 0.624832
1997.75, 0.624788
1998.52, 0.624788
1999.29, 0.624832
2000.06, 0.624877
2000.83, 0.625011
2001.6, 0.624967
2002.38, 0.625011
2003.15, 0.625011
2003.93, 0.625056
2004.7, 0.625190
2005.48, 0.625414
2006.25, 0.625503
2007.03, 0.625548
2007.81, 0.625458
2008.58, 0.625414
2009.36, 0.625503
2010.14, 0.625682
2010.92, 0.625771
2011.7, 0.625682
2012.48, 0.625771
2013.26, 0.625861
2014.05, 0.625950
2014.83, 0.625995
2015.61, 0.625995
2016.4, 0.626084
2017.18, 0.626218
2017.97, 0.626308
2018.75, 0.626308
2019.54, 0.626353
2020.32, 0.626576
2021.11, 0.626487
2021.9, 0.626397
2022.69, 0.626531
2023.48, 0.626666
2024.27, 0.626666
2025.06, 0.626755
2025.85, 0.626889
2026.64, 0.626889
2027.44, 0.626889
2028.23, 0.626844
2029.02, 0.626889
2029.82, 0.626979
2030.61, 0.627113
2031.41, 0.627068
2032.2, 0.627068
2033.0, 0.627157
2033.8, 0.627157
2034.6, 0.627336
2035.4, 0.627336
2036.2, 0.627292
2037.0, 0.627381
2037.8, 0.627336
2038.6, 0.627426
2039.4, 0.627515
2040.2, 0.627292
2041.01, 0.627336
2041.81, 0.627381
2042.61, 0.627515
2043.42, 0.627470
2044.22, 0.627470
2045.03, 0.627694
2045.84, 0.627739
2046.65, 0.627649
2047.46, 0.627739
2048.26, 0.627739
2049.07, 0.627560
2049.88, 0.627605
2050.69, 0.627694
2051.51, 0.627694
2052.32, 0.627694
2053.13, 0.627694
2053.94, 0.627739
2054.76, 0.627739
2055.57, 0.627739
2056.39, 0.627694
2057.2, 0.627694
2058.02, 0.627694
2058.84, 0.627605
2059.66, 0.627515
2060.48, 0.627426
2061.29, 0.627470
2062.11, 0.627470
2062.94, 0.627426
2063.76, 0.627381
2064.58, 0.627292
2065.4, 0.627202
2066.22, 0.627113
2067.05, 0.627202
2067.87, 0.627113
2068.7, 0.627023
2069.52, 0.626934
2070.35, 0.626844
2071.18, 0.626800
2072.0, 0.626710
2072.83, 0.626621
2073.66, 0.626353
2074.49, 0.626174
2075.32, 0.626084
2076.15, 0.625995
2076.98, 0.625634
2077.82, 0.625363
2078.65, 0.625273
2079.48, 0.625634
2080.32, 0.625724
2081.15, 0.624867
2081.99, 0.624686
2082.83, 0.624867
2083.66, 0.624596
2084.5, 0.624325
2085.34, 0.624190
2086.18, 0.623423
2087.02, 0.622927
2087.86, 0.622746
2088.7, 0.622430
2089.54, 0.621979
2090.39, 0.621393
2091.23, 0.621212
2092.07, 0.620806
2092.92, 0.619994
2093.76, 0.619543
2094.61, 0.618640
2095.45, 0.618279
2096.3, 0.618099
2097.15, 0.617512
2098.0, 0.616790
2098.85, 0.616204
2099.7, 0.615708
2100.55, 0.614986
2101.4, 0.614625
2102.25, 0.613858
2103.1, 0.613406
2103.96, 0.613181
2104.81, 0.612369
2105.67, 0.611963
2106.52, 0.611692
2107.38, 0.611286
2108.24, 0.610338
2109.09, 0.610022
2109.95, 0.609797
2110.81, 0.609165
2111.67, 0.608759
2112.53, 0.608263
2113.39, 0.608082
2114.25, 0.607857
2115.12, 0.607044
2115.98, 0.606368
2116.84, 0.606277
2117.71, 0.606052
2118.58, 0.605240
2119.44, 0.604969
2120.31, 0.605014
2121.18, 0.604698
2122.04, 0.604428
2122.91, 0.604563
2123.78, 0.604563
2124.65, 0.604292
2125.52, 0.604247
2126.4, 0.604743
2127.27, 0.605014
2128.14, 0.604698
2129.02, 0.604157
2129.89, 0.604518
2130.77, 0.605149
2131.64, 0.605195
2132.52, 0.604879
2133.4, 0.604563
2134.27, 0.604157
2135.15, 0.604157
2136.03, 0.604292
2136.91, 0.604428
2137.79, 0.604112
2138.68, 0.603976
2139.56, 0.603886
2140.44, 0.603796
2141.33, 0.603615
2142.21, 0.603345
2143.1, 0.603074
2143.99, 0.602262
2144.87, 0.601675
2145.76, 0.601224
2146.65, 0.600818
2147.54, 0.600276
2148.43, 0.599961
2149.32, 0.599329
2150.21, 0.598472
2151.1, 0.598020
2151.99, 0.597163
2152.89, 0.596486
2153.78, 0.595945
2154.68, 0.595313
2155.57, 0.594366
2156.47, 0.593418
2157.37, 0.592290
2158.27, 0.591433
2159.16, 0.590666
2160.06, 0.589538
2160.96, 0.588410
2161.86, 0.586966
2162.77, 0.585297
2163.67, 0.584259
2164.57, 0.582815
2165.48, 0.581100
2166.38, 0.579702
2167.29, 0.578438
2168.2, 0.576453
2169.1, 0.574242
2170.01, 0.572618
2170.92, 0.570362
2171.83, 0.567790
2172.74, 0.565444
2173.65, 0.562556
2174.56, 0.560165
2175.47, 0.557006
2176.39, 0.553487
2177.3, 0.549877
2178.22, 0.546493
2179.13, 0.542568
2180.05, 0.538507
2180.96, 0.534176
2181.88, 0.529619
2182.8, 0.525152
2183.72, 0.520865
2184.64, 0.516128
2185.56, 0.511390
2186.48, 0.506427
2187.41, 0.501554
2188.33, 0.496726
2189.25, 0.492169
2190.18, 0.487928
2191.1, 0.483732
2192.03, 0.479716
2192.96, 0.476467
2193.89, 0.473083
2194.82, 0.470917
2195.74, 0.468661
2196.68, 0.466766
2197.61, 0.465323
2198.54, 0.465052
2199.47, 0.464601
2200.4, 0.464601
2201.34, 0.465323
2202.28, 0.466857
2203.21, 0.468616
2204.15, 0.470421
2205.08, 0.472542
2206.02, 0.474978
2206.96, 0.477550
2207.9, 0.480528
2208.84, 0.483777
2209.78, 0.486980
2210.73, 0.490139
2211.67, 0.493477
2212.61, 0.497132
2213.56, 0.500652
2214.5, 0.503629
2215.45, 0.506562
2216.4, 0.509766
2217.35, 0.513014
2218.3, 0.516398
2219.24, 0.519421
2220.2, 0.522444
2221.15, 0.525287
2222.1, 0.527588
2223.05, 0.529664
2224.0, 0.531829
2224.96, 0.533634
2225.91, 0.535304
2226.87, 0.536748
2227.83, 0.538552
2228.79, 0.539816
2229.74, 0.540673
2230.7, 0.541756
2231.66, 0.542884
2232.63, 0.543696
2233.59, 0.544689
2234.55, 0.545817
2235.51, 0.546990
2236.48, 0.547802
2237.44, 0.548524
2238.41, 0.549201
2239.38, 0.550284
2240.34, 0.551863
2241.31, 0.552900
2242.28, 0.554119
2243.25, 0.554976
2244.22, 0.555788
2245.19, 0.556916
2246.17, 0.558315
2247.14, 0.559443
2248.12, 0.560300
2249.09, 0.561157
2250.07, 0.562060
2251.04, 0.562917
2252.02, 0.563865
2253.0, 0.564902
2253.98, 0.565669
2254.96, 0.566617
2255.94, 0.567519
2256.92, 0.568512
2257.91, 0.569099
2258.89, 0.569369
2259.88, 0.570227
2260.86, 0.571039
2261.85, 0.571986
2262.83, 0.572663
2263.82, 0.573024
2264.81, 0.573295
2265.8, 0.573656
2266.79, 0.574378
2267.78, 0.575009
2268.78, 0.575190
2269.77, 0.575325
2270.76, 0.575596
2271.76, 0.576002
2272.75, 0.576543
2273.75, 0.576995
2274.75, 0.577220
2275.75, 0.577220
2276.75, 0.576995
2277.75, 0.577085
2278.75, 0.577040
2279.75, 0.576995
2280.75, 0.576904
2281.76, 0.576904
2282.76, 0.576679
2283.77, 0.576634
2284.77, 0.576228
2285.78, 0.576273
2286.79, 0.576047
2287.8, 0.575731
2288.81, 0.575551
2289.82, 0.575100
2290.83, 0.574829
2291.84, 0.574693
2292.86, 0.573791
2293.87, 0.573204
2294.89, 0.572573
2295.91, 0.572212
2296.92, 0.571219
2297.94, 0.570452
2298.96, 0.569414
2299.98, 0.568512
2301.0, 0.567429
2302.02, 0.566076
2303.04, 0.564722
2304.07, 0.563955
2305.09, 0.563052
2306.12, 0.561383
2307.15, 0.559894
2308.17, 0.558766
2309.2, 0.557322
2310.23, 0.556330
2311.26, 0.554525
2312.29, 0.552675
2313.32, 0.551186
2314.35, 0.549832
2315.39, 0.548524
2316.42, 0.546674
2317.46, 0.545050
2318.5, 0.543696
2319.53, 0.542027
2320.57, 0.539951
2321.61, 0.538011
2322.65, 0.536296
2323.69, 0.534627
2324.73, 0.532687
2325.78, 0.530927
2326.82, 0.529348
2327.86, 0.527408
2328.91, 0.525558
2329.96, 0.523979
2331.01, 0.522444
2332.05, 0.520414
2333.1, 0.518474
2334.15, 0.516263
2335.21, 0.514548
2336.26, 0.513014
2337.31, 0.511706
2338.36, 0.510443
2339.42, 0.509224
2340.48, 0.507690
2341.53, 0.506517
2342.59, 0.505660
2343.65, 0.504667
2344.71, 0.503404
2345.77, 0.503088
2346.83, 0.502817
2347.9, 0.502456
2348.96, 0.502005
2350.02, 0.501870
2351.09, 0.501915
2352.16, 0.502366
2353.23, 0.502862
2354.29, 0.503404
2355.36, 0.504306
2356.43, 0.505073
2357.51, 0.505840
2358.58, 0.506292
2359.65, 0.506968
2360.73, 0.507510
2361.8, 0.508096
2362.88, 0.508773
2363.96, 0.509315
2365.03, 0.509811
2366.11, 0.510036
2367.19, 0.510217
2368.27, 0.510217
2369.36, 0.510172
2370.44, 0.510082
2371.53, 0.509901
2372.61, 0.509991
2373.7, 0.510307
2374.78, 0.510127
2375.87, 0.509811
2376.96, 0.509269
2378.05, 0.509044
2379.14, 0.508908
2380.24, 0.508818
2381.33, 0.508773
2382.42, 0.508728
2383.52, 0.508548
2384.61, 0.508277
2385.71, 0.508187
2386.81, 0.508412
2387.91, 0.508773
2389.01, 0.509315
2390.11, 0.509269
2391.22, 0.509630
2392.32, 0.510036
2393.42, 0.510127
2394.53, 0.510307
2395.64, 0.510082
2396.74, 0.509991
2397.85, 0.509991
2398.96, 0.509315
2400.07, 0.509134
2401.18, 0.508908
2402.3, 0.508457
2403.41, 0.507871
2404.52, 0.507239
2405.64, 0.506292
2406.76, 0.505254
2407.88, 0.503945
2408.99, 0.503314
2410.11, 0.502095
2411.23, 0.500516
2412.36, 0.498847
2413.48, 0.497583
2414.6, 0.496275
2415.73, 0.495057
2416.85, 0.493793
2417.98, 0.492395
2419.11, 0.490815
2420.24, 0.489687
2421.37, 0.488514
2422.5, 0.487386
2423.64, 0.486123
2424.77, 0.485175
2425.9, 0.484047
2427.04, 0.483100
2428.18, 0.481746
2429.31, 0.480438
2430.45, 0.479310
2431.59, 0.478453
2432.73, 0.477685
2433.88, 0.477054
2435.02, 0.476512
2436.16, 0.476196
2437.31, 0.475971
2438.45, 0.475745
2439.6, 0.475700
2440.75, 0.475655
2441.9, 0.475790
2443.05, 0.476016
2444.2, 0.476242
2445.35, 0.476648
2446.51, 0.477189
2447.67, 0.477640
2448.82, 0.478092
2449.98, 0.478859
2451.14, 0.479265
2452.3, 0.479716
2453.46, 0.480257
2454.62, 0.481115
2455.78, 0.481791
2456.94, 0.482513
2458.11, 0.483100
2459.28, 0.483551
2460.44, 0.484183
2461.61, 0.484814
2462.78, 0.485491
2463.95, 0.486394
2465.12, 0.487251
2466.3, 0.488063
2467.47, 0.488559
2468.65, 0.489191
2469.82, 0.489778
2471.0, 0.490319
2472.18, 0.491086
2473.36, 0.491447
2474.54, 0.491808
2475.72, 0.492530
2476.9, 0.492756
2478.08, 0.493162
2479.27, 0.493838
2480.46, 0.494425
2481.64, 0.494651
2482.83, 0.494786
2484.02, 0.495012
2485.21, 0.495327
2486.4, 0.495463
2487.6, 0.495688
2488.79, 0.496004
2489.99, 0.496230
2491.18, 0.496230
2492.38, 0.496410
2493.58, 0.496861
2494.78, 0.497268
2495.98, 0.497493
2497.18, 0.497809
2498.39, 0.498215
2499.59, 0.498711
2500.8, 0.499163
2502.01, 0.499659
2503.21, 0.500065
2504.42, 0.500697
2505.63, 0.501373
2506.84, 0.502186
2508.06, 0.502682
2509.27, 0.503359
2510.49, 0.504036
2511.7, 0.504893
2512.92, 0.505479
2514.14, 0.506292
2515.36, 0.507284
2516.58, 0.507961
2517.8, 0.508457
2519.03, 0.509179
2520.25, 0.509676
2521.48, 0.510397
2522.7, 0.511390
2523.93, 0.512428
2525.16, 0.512744
2526.39, 0.513195
2527.62, 0.513872
2528.86, 0.514323
2530.09, 0.514774
2531.33, 0.515316
2532.56, 0.515767
2533.8, 0.516083
2535.04, 0.516353
2536.28, 0.516669
2537.52, 0.516669
2538.76, 0.516624
2540.01, 0.516579
2541.25, 0.516804
2542.5, 0.517030
2543.75, 0.516850
2544.99, 0.516308
2546.24, 0.516173
2547.49, 0.516037
2548.75, 0.515406
2550.0, 0.515045
2551.26, 0.515090
2552.51, 0.515000
2553.77, 0.514233
2555.03, 0.513330
2556.29, 0.512879
2557.55, 0.512202
2558.81, 0.511886
2560.08, 0.512292
2561.34, 0.512518
2562.61, 0.511796
2563.88, 0.510758
2565.14, 0.509495
2566.41, 0.508096
2567.68, 0.507600
2568.96, 0.507780
2570.23, 0.507013
2571.51, 0.506066
2572.78, 0.506337
2574.06, 0.505705
2575.34, 0.504893
2576.62, 0.504893
2577.9, 0.503765
2579.18, 0.503178
2580.47, 0.503178
2581.75, 0.503043
2583.04, 0.503359
2584.32, 0.503178
2585.61, 0.501825
2586.9, 0.501870
2588.2, 0.501012
2589.49, 0.500020
2590.78, 0.498711
2592.08, 0.497899
2593.37, 0.499163
2594.67, 0.500877
2595.97, 0.498215
2597.27, 0.494515
2598.57, 0.492395
2599.88, 0.491582
2601.18, 0.491221
2602.49, 0.490770
2603.79, 0.490409
2605.1, 0.490815
2606.41, 0.489823
2607.72, 0.488334
2609.03, 0.487431
2610.35, 0.486755
2611.66, 0.486303
2612.98, 0.486168
2614.3, 0.485762
2615.62, 0.486664
2616.94, 0.487296
2618.26, 0.486123
2619.58, 0.486258
2620.91, 0.486484
2622.23, 0.484769
2623.56, 0.484047
2624.89, 0.484228
2626.22, 0.485401
2627.55, 0.484950
2628.88, 0.485175
2630.21, 0.486258
2631.55, 0.485356
2632.89, 0.484634
2634.22, 0.484589
2635.56, 0.483732
2636.9, 0.483551
2638.25, 0.483280
2639.59, 0.483145
2640.93, 0.482784
2642.28, 0.482243
2643.63, 0.481521
2644.98, 0.481295
2646.33, 0.480573
2647.68, 0.479400
2649.03, 0.478227
2650.39, 0.477370
2651.74, 0.476648
2653.1, 0.475339
2654.46, 0.473354
2655.82, 0.471504
2657.18, 0.469068
2658.54, 0.467579
2659.9, 0.465413
2661.27, 0.462796
2662.64, 0.460224
2664.01, 0.459186
2665.38, 0.458013
2666.74, 0.454855
2668.12, 0.450298
2669.49, 0.448132
2670.87, 0.444658
2672.24, 0.438612
2673.62, 0.434551
2675.0, 0.432340
2676.38, 0.430716
2677.76, 0.427692
2679.15, 0.424173
2680.54, 0.420293
2681.92, 0.416864
2683.31, 0.413931
2684.7, 0.410592
2686.09, 0.407253
2687.48, 0.403553
2688.88, 0.399718
2690.27, 0.395341
2691.67, 0.391371
2693.07, 0.387942
2694.47, 0.383610
2695.87, 0.377880
2697.27, 0.372195
2698.67, 0.366329
2700.08, 0.361140
2701.49, 0.354779
2702.9, 0.346792
2704.31, 0.337904
2705.72, 0.327752
2707.13, 0.315885
2708.54, 0.303161
2709.96, 0.288633
2711.38, 0.271081
2712.8, 0.251409
2714.22, 0.231511
2715.64, 0.211026
2717.06, 0.190767
2718.49, 0.171456
2719.91, 0.153273
2721.34, 0.135180
2722.77, 0.120064
2724.2, 0.106844
2725.63, 0.0950680
2727.07, 0.0855480
2728.5, 0.0779220
2729.94, 0.0717860
2731.38, 0.0670030
2732.82, 0.0632130
2734.26, 0.0606410
2735.7, 0.0586110
2737.15, 0.0570770
2738.59, 0.0560840
2740.04, 0.0550460
2741.49, 0.0535120
2742.94, 0.0523840
2744.39, 0.0516620
2745.84, 0.0511660
2747.3, 0.0506250
2748.76, 0.0500380
2750.21, 0.0494060
2751.67, 0.0487750
2753.14, 0.0482780
2754.6, 0.0484590
2756.06, 0.0490000
2757.53, 0.0497670
2759.0, 0.0510760
2760.46, 0.0527450
2761.94, 0.0547760
2763.41, 0.0571220
2764.88, 0.0595130
2766.36, 0.0622660
2767.83, 0.0652890
2769.31, 0.0683570
2770.79, 0.0717860
2772.27, 0.0753050
2773.76, 0.0786440
2775.24, 0.0821180
2776.73, 0.0858180
2778.22, 0.0895630
2779.71, 0.0935790
2781.2, 0.0981360
2782.69, 0.103099
2784.18, 0.108649
2785.68, 0.114469
2787.18, 0.120967
2788.68, 0.127599
2790.18, 0.134458
2791.68, 0.141406
2793.19, 0.148490
2794.69, 0.155619
2796.2, 0.162432
2797.71, 0.168749
2799.22, 0.174705
2800.73, 0.180615
2802.24, 0.186120
2803.76, 0.191083
2805.28, 0.195415
2806.8, 0.199656
2808.32, 0.203627
2809.84, 0.207372
2811.36, 0.210575
2812.89, 0.213733
2814.42, 0.216350
2815.94, 0.218787
2817.48, 0.220772
2819.01, 0.222396
2820.54, 0.223615
2822.08, 0.224788
2823.61, 0.225916
2825.15, 0.226683
2826.69, 0.227269
2828.23, 0.227811
2829.78, 0.228307
2831.32, 0.228849
2832.87, 0.229300
2834.42, 0.229886
2835.97, 0.230563
2837.52, 0.231285
2839.08, 0.231827
2840.63, 0.232368
2842.19, 0.233000
2843.75, 0.233541
2845.31, 0.233992
2846.87, 0.234534
2848.44, 0.234940
2850.0, 0.235165
2851.57, 0.235211
2853.14, 0.235301
2854.71, 0.235256
2856.28, 0.235301
2857.86, 0.235030
2859.43, 0.234804
2861.01, 0.234489
2862.59, 0.234218
2864.17, 0.233812
2865.76, 0.233676
2867.34, 0.233270
2868.93, 0.232639
2870.52, 0.232188
2872.11, 0.231917
2873.7, 0.231420
2875.29, 0.230879
2876.89, 0.230473
2878.49, 0.230067
2880.08, 0.229796
2881.69, 0.229661
2883.29, 0.229345
2884.89, 0.229164
2886.5, 0.229029
2888.11, 0.229029
2889.72, 0.228849
2891.33, 0.228623
2892.94, 0.228668
2894.56, 0.228578
2896.17, 0.228488
2897.79, 0.228488
2899.42, 0.228533
2901.04, 0.228623
2902.66, 0.228623
2904.29, 0.228758
2905.92, 0.228758
2907.55, 0.228984
2909.18, 0.229164
2910.81, 0.229300
2912.45, 0.229435
2914.08, 0.229796
2915.72, 0.230157
2917.36, 0.230563
2919.01, 0.230969
2920.65, 0.231060
2922.3, 0.231240
2923.94, 0.231646
2925.59, 0.231872
2927.25, 0.232278
2928.9, 0.232729
2930.56, 0.233000
2932.21, 0.233316
2933.87, 0.233812
2935.53, 0.233992
2937.2, 0.234263
2938.86, 0.234669
2940.53, 0.235030
2942.2, 0.235391
2943.87, 0.235617
2945.54, 0.235932
2947.22, 0.236339
2948.89, 0.236609
2950.57, 0.237015
2952.25, 0.237421
2953.93, 0.237828
2955.62, 0.238279
2957.3, 0.238504
2958.99, 0.238775
2960.68, 0.239181
2962.37, 0.239632
2964.07, 0.239993
2965.76, 0.240399
2967.46, 0.240896
2969.16, 0.241392
2970.86, 0.241888
2972.56, 0.242340
2974.27, 0.242700
2975.98, 0.243197
2977.69, 0.243648
2979.4, 0.244144
2981.11, 0.244686
2982.83, 0.244956
2984.54, 0.245363
2986.26, 0.245904
2987.98, 0.246355
2989.71, 0.246806
2991.43, 0.247212
2993.16, 0.247664
2994.89, 0.248205
2996.62, 0.248747
2998.35, 0.249108
3000.09, 0.249468
3001.83, 0.249965
3003.57, 0.250416
3005.31, 0.250777
3007.05, 0.251138
3008.79, 0.251589
3010.54, 0.251995
3012.29, 0.252401
3014.04, 0.252672
3015.8, 0.253078
3017.55, 0.253349
3019.31, 0.253800
3021.07, 0.254296
3022.83, 0.254612
3024.59, 0.254883
3026.36, 0.255334
3028.13, 0.255650
3029.9, 0.255921
3031.67, 0.256372
3033.44, 0.256868
3035.22, 0.257274
3037.0, 0.257500
3038.78, 0.257771
3040.56, 0.258086
3042.34, 0.258447
3044.13, 0.258899
3045.92, 0.259214
3047.71, 0.259485
3049.5, 0.259846
3051.3, 0.260297
3053.09, 0.260794
3054.89, 0.261290
3056.69, 0.261516
3058.5, 0.261786
3060.3, 0.262147
3062.11, 0.262553
3063.92, 0.262824
3065.73, 0.263185
3067.55, 0.263546
3069.36, 0.263907
3071.18, 0.264268
3073.0, 0.264674
3074.82, 0.265035
3076.65, 0.265441
3078.48, 0.265847
3080.31, 0.266298
3082.14, 0.266659
3083.97, 0.267201
3085.8, 0.267697
3087.64, 0.268193
3089.48, 0.268644
3091.33, 0.269186
3093.17, 0.269592
3095.02, 0.270043
3096.87, 0.270630
3098.72, 0.271261
3100.57, 0.271803
3102.43, 0.272299
3104.28, 0.272886
3106.14, 0.273608
3108.01, 0.274239
3109.87, 0.274826
3111.74, 0.275458
3113.61, 0.276044
3115.48, 0.276631
3117.35, 0.277308
3119.23, 0.278075
3121.1, 0.278842
3122.98, 0.279473
3124.87, 0.280150
3126.75, 0.280872
3128.64, 0.281639
3130.53, 0.282316
3132.42, 0.283083
3134.31, 0.283760
3136.21, 0.284572
3138.11, 0.285249
3140.01, 0.286106
3141.91, 0.286783
3143.82, 0.287550
3145.73, 0.288227
3147.64, 0.289039
3149.55, 0.289716
3151.46, 0.290392
3153.38, 0.291295
3155.3, 0.292107
3157.22, 0.292829
3159.14, 0.293551
3161.07, 0.294182
3163.0, 0.294769
3164.93, 0.295401
3166.86, 0.296213
3168.8, 0.296980
3170.74, 0.297792
3172.68, 0.298514
3174.62, 0.299281
3176.56, 0.300003
3178.51, 0.300635
3180.46, 0.301356
3182.42, 0.302214
3184.37, 0.302981
3186.33, 0.303748
3188.29, 0.304425
3190.25, 0.305147
3192.21, 0.305869
3194.18, 0.306636
3196.15, 0.307312
3198.12, 0.307944
3200.09, 0.308756
3202.07, 0.309478
3204.05, 0.310155
3206.03, 0.310877
3208.02, 0.311554
3210.0, 0.312230
3211.99, 0.313043
3213.98, 0.313900
3215.98, 0.314712
3217.97, 0.315389
3219.97, 0.316201
3221.97, 0.317013
3223.98, 0.317735
3225.98, 0.318322
3227.99, 0.318998
3230.0, 0.319675
3232.02, 0.320532
3234.03, 0.321390
3236.05, 0.322157
3238.07, 0.322924
3240.1, 0.323601
3242.12, 0.324277
3244.15, 0.324909
3246.18, 0.325631
3248.22, 0.326353
3250.25, 0.327120
3252.29, 0.327887
3254.33, 0.328564
3256.38, 0.329241
3258.43, 0.329963
3260.47, 0.330639
3262.53, 0.331361
3264.58, 0.332083
3266.64, 0.332760
3268.7, 0.333527
3270.76, 0.334204
3272.82, 0.334881
3274.89, 0.335512
3276.96, 0.336279
3279.04, 0.336956
3281.11, 0.337768
3283.19, 0.338445
3285.27, 0.338987
3287.35, 0.339618
3289.44, 0.340340
3291.53, 0.341017
3293.62, 0.341694
3295.71, 0.342461
3297.81, 0.343183
3299.91, 0.343769
3302.01, 0.344446
3304.11, 0.345078
3306.22, 0.345664
3308.33, 0.346386
3310.44, 0.347063
3312.56, 0.347650
3314.68, 0.348191
3316.8, 0.348868
3318.92, 0.349635
3321.05, 0.350176
3323.18, 0.350673
3325.31, 0.351349
3327.44, 0.352026
3329.58, 0.352748
3331.72, 0.353335
3333.86, 0.353876
3336.01, 0.354553
3338.16, 0.355320
3340.31, 0.356042
3342.46, 0.356583
3344.61, 0.357170
3346.77, 0.357847
3348.94, 0.358569
3351.1, 0.359200
3353.27, 0.359742
3355.44, 0.360283
3357.61, 0.360915
3359.79, 0.361637
3361.97, 0.362178
3364.15, 0.362765
3366.33, 0.363396
3368.52, 0.363983
3370.71, 0.364750
3372.9, 0.365382
3375.1, 0.365968
3377.3, 0.366465
3379.5, 0.367051
3381.71, 0.367728
3383.91, 0.368405
3386.12, 0.369036
3388.34, 0.369713
3390.55, 0.370300
3392.77, 0.370886
3394.99, 0.371518
3397.22, 0.372014
3399.45, 0.372420
3401.68, 0.373052
3403.91, 0.373639
3406.15, 0.374180
3408.39, 0.374767
3410.63, 0.375444
3412.87, 0.376165
3415.12, 0.376842
3417.37, 0.377609
3419.63, 0.378467
3421.88, 0.379234
3424.14, 0.379956
3426.41, 0.380903
3428.67, 0.381851
3430.94, 0.382618
3433.21, 0.383385
3435.49, 0.384197
3437.77, 0.384964
3440.05, 0.385686
3442.33, 0.386408
3444.62, 0.387130
3446.91, 0.387806
3449.2, 0.388528
3451.5, 0.389340
3453.8, 0.390062
3456.1, 0.390784
3458.41, 0.391461
3460.72, 0.392003
3463.03, 0.392544
3465.34, 0.393221
3467.66, 0.393807
3469.98, 0.394349
3472.31, 0.394980
3474.63, 0.395612
3476.96, 0.396244
3479.3, 0.396785
3481.64, 0.397282
3483.97, 0.397868
3486.32, 0.398590
3488.66, 0.399132
3491.01, 0.399673
3493.36, 0.400259
3495.72, 0.400756
3498.08, 0.401297
3500.44, 0.401884
3502.81, 0.402516
3505.18, 0.403147
3507.55, 0.403824
3509.92, 0.404591
3512.3, 0.405313
3514.68, 0.406125
3517.06, 0.406847
3519.45, 0.407479
3521.84, 0.408291
3524.24, 0.409058
3526.64, 0.409735
3529.04, 0.410186
3531.44, 0.410727
3533.85, 0.411449
3536.26, 0.412171
3538.67, 0.412803
3541.09, 0.413389
3543.51, 0.414066
3545.93, 0.414698
3548.36, 0.415330
3550.79, 0.415826
3553.22, 0.416367
3555.66, 0.416999
3558.1, 0.417586
3560.54, 0.418082
3562.99, 0.418668
3565.44, 0.419300
3567.9, 0.419842
3570.35, 0.420338
3572.81, 0.420879
3575.28, 0.421466
3577.75, 0.422098
3580.22, 0.422684
3582.69, 0.423180
3585.17, 0.423677
3587.65, 0.424128
3590.14, 0.424669
3592.62, 0.425121
3595.11, 0.425527
3597.61, 0.425978
3600.11, 0.426384
3602.61, 0.426745
3605.11, 0.427151
3607.62, 0.427422
3610.14, 0.427783
3612.65, 0.428144
3615.17, 0.428369
3617.69, 0.428640
3620.22, 0.429046
3622.75, 0.429407
3625.28, 0.429588
3627.82, 0.429858
3630.36, 0.430039
3632.9, 0.430264
3635.45, 0.430580
3638.0, 0.430761
3640.56, 0.430986
3643.12, 0.431167
3645.68, 0.431528
3648.24, 0.431889
3650.81, 0.432159
3653.39, 0.432475
3655.96, 0.432926
3658.54, 0.433242
3661.13, 0.433558
3663.71, 0.433874
3666.3, 0.434235
3668.9, 0.434686
3671.5, 0.435137
3674.1, 0.435498
3676.7, 0.435949
3679.31, 0.436265
3681.93, 0.436716
3684.54, 0.437077
3687.17, 0.437393
3689.79, 0.437754
3692.42, 0.438205
3695.05, 0.438702
3697.69, 0.439153
3700.32, 0.439514
3702.97, 0.439875
3705.61, 0.440236
3708.27, 0.440642
3710.92, 0.441183
3713.58, 0.441725
3716.24, 0.442356
3718.91, 0.442943
3721.58, 0.443620
3724.25, 0.444252
3726.93, 0.444748
3729.61, 0.445244
3732.29, 0.445876
3734.98, 0.446508
3737.67, 0.447139
3740.37, 0.447996
3743.07, 0.448809
3745.78, 0.449666
3748.49, 0.450613
3751.2, 0.451471
3753.91, 0.452283
3756.63, 0.453005
3759.36, 0.453636
3762.09, 0.454268
3764.82, 0.454810
3767.55, 0.455486
3770.29, 0.456073
3773.04, 0.456569
3775.78, 0.457066
3778.54, 0.457607
3781.29, 0.458058
3784.05, 0.458464
3786.82, 0.458825
3789.59, 0.459276
3792.36, 0.459592
3795.13, 0.459863
3797.92, 0.460134
3800.7, 0.460450
3803.49, 0.460720
3806.28, 0.461036
3809.08, 0.461352
3811.88, 0.461668
3814.68, 0.461668
3817.49, 0.461803
3820.31, 0.462029
3823.12, 0.462300
3825.94, 0.462435
3828.77, 0.462570
3831.6, 0.462706
3834.43, 0.462886
3837.27, 0.463067
3840.11, 0.463157
3842.96, 0.463292
3845.81, 0.463382
3848.67, 0.463518
3851.53, 0.463608
3854.39, 0.463653
3857.26, 0.463743
3860.13, 0.463788
3863.01, 0.463788
3865.89, 0.463788
3868.77, 0.463834
3871.66, 0.463879
3874.55, 0.463924
3877.45, 0.464059
3880.35, 0.464104
3883.26, 0.464104
3886.17, 0.464104
3889.09, 0.463969
3892.01, 0.463879
3894.93, 0.463834
3897.86, 0.463879
3900.79, 0.463788
3903.73, 0.463834
3906.67, 0.463788
3909.62, 0.463608
3912.57, 0.463518
3915.52, 0.463518
3918.48, 0.463473
3921.45, 0.463382
3924.42, 0.463157
3927.39, 0.463112
3930.37, 0.463067
3933.35, 0.462841
3936.34, 0.462751
3939.33, 0.462706
3942.32, 0.462660
3945.32, 0.462570
3948.33, 0.462435
3951.34, 0.462300
3954.35, 0.462209
3957.37, 0.462164
3960.39, 0.462164
3963.42, 0.461984
3966.45, 0.461758
3969.49, 0.461758
3972.53, 0.461758
3975.58, 0.461668
3978.63, 0.461668
3981.68, 0.461623
3984.75, 0.461532
3987.81, 0.461397
3990.88, 0.461262
3993.95, 0.461126
3997.03, 0.461036
4000.12, 0.460901
4003.21, 0.460811
4006.3, 0.460720
4009.4, 0.460585
4012.5, 0.460495
4015.61, 0.460314
4018.72, 0.460179
4021.84, 0.460044
4024.96, 0.459863
4028.09, 0.459728
4031.22, 0.459683
4034.36, 0.459592
4037.5, 0.459412
4040.65, 0.459231
4043.8, 0.459096
4046.96, 0.458916
4050.12, 0.458690
4053.29, 0.458509
4056.46, 0.458419
4059.64, 0.458374
4062.82, 0.458239
4066.0, 0.458058
4069.19, 0.457968
4072.39, 0.457833
4075.59, 0.457652
4078.8, 0.457517
4082.01, 0.457472
4085.23, 0.457336
4088.45, 0.457156
4091.68, 0.457066
4094.91, 0.456975
4098.15, 0.456795
4101.39, 0.456705
4104.63, 0.456660
4107.89, 0.456524
4111.14, 0.456479
4114.41, 0.456479
4117.67, 0.456344
4120.95, 0.456208
4124.23, 0.456118
4127.51, 0.456073
4130.8, 0.455938
4134.09, 0.455938
4137.39, 0.455938
4140.7, 0.455847
4144.01, 0.455757
4147.32, 0.455757
4150.64, 0.455712
4153.97, 0.455667
4157.3, 0.455622
4160.64, 0.455577
4163.98, 0.455486
4167.33, 0.455486
4170.68, 0.455441
4174.04, 0.455396
4177.4, 0.455441
4180.77, 0.455351
4184.14, 0.455261
4187.52, 0.455261
4190.91, 0.455216
4194.3, 0.455261
4197.69, 0.455261
4201.1, 0.455171
4204.5, 0.455125
4207.92, 0.455125
4211.34, 0.455080
4214.76, 0.454990
4218.19, 0.454855
4221.62, 0.454900
4225.06, 0.454855
4228.51, 0.454674
4231.96, 0.454629
4235.42, 0.454584
4238.88, 0.454584
4242.35, 0.454629
4245.83, 0.454539
4249.31, 0.454629
4252.79, 0.454629
4256.28, 0.454494
4259.78, 0.454313
4263.29, 0.454223
4266.79, 0.454088
4270.31, 0.454133
4273.83, 0.454133
4277.35, 0.454178
4280.89, 0.454178
4284.42, 0.454223
4287.97, 0.454133
4291.52, 0.454043
4295.07, 0.453907
4298.63, 0.453997
4302.2, 0.453952
4305.78, 0.453817
4309.35, 0.453682
4312.94, 0.453682
4316.53, 0.453636
4320.13, 0.453636
4323.73, 0.453546
4327.34, 0.453456
4330.96, 0.453366
4334.58, 0.453230
4338.21, 0.453095
4341.84, 0.453005
4345.48, 0.452824
4349.12, 0.452599
4352.77, 0.452463
4356.43, 0.452328
4360.1, 0.452148
4363.76, 0.451922
4367.44, 0.451741
4371.12, 0.451606
4374.81, 0.451290
4378.51, 0.450929
4382.21, 0.450613
4385.92, 0.450343
4389.63, 0.449937
4393.35, 0.449531
4397.08, 0.449034
4400.81, 0.448673
4404.55, 0.448132
4408.29, 0.447455
4412.04, 0.446823
4415.8, 0.446237
4419.57, 0.445605
4423.34, 0.444928
4427.12, 0.444206
4430.9, 0.443439
4434.69, 0.442627
4438.49, 0.441815
4442.29, 0.440958
4446.1, 0.440146
4449.92, 0.439333
4453.74, 0.438476
4457.57, 0.437484
4461.41, 0.436671
4465.25, 0.435859
4469.1, 0.435002
4472.95, 0.434190
4476.82, 0.433513
4480.69, 0.432701
4484.56, 0.431798
4488.44, 0.430851
4492.33, 0.429994
4496.23, 0.429181
4500.13, 0.428505
4504.04, 0.427602
4507.96, 0.426745
4511.88, 0.425888
4515.81, 0.425030
4519.75, 0.424173
4523.69, 0.423271
4527.65, 0.422413
4531.6, 0.421646
4535.57, 0.420744
4539.54, 0.419842
4543.52, 0.418984
4547.5, 0.418172
4551.5, 0.417315
4555.5, 0.416412
4559.5, 0.415510
4563.52, 0.414563
4567.54, 0.413660
4571.56, 0.412758
4575.6, 0.411900
4579.64, 0.410953
4583.69, 0.410005
4587.75, 0.408968
4591.81, 0.408020
4595.88, 0.406937
4599.96, 0.405854
4604.04, 0.404772
4608.14, 0.403553
4612.24, 0.402290
4616.34, 0.401117
4620.46, 0.399899
4624.58, 0.398590
4628.71, 0.397236
4632.84, 0.395883
4636.99, 0.394529
4641.14, 0.393221
4645.3, 0.391912
4649.47, 0.390514
4653.64, 0.389205
4657.82, 0.387942
4662.01, 0.386678
4666.21, 0.385415
4670.41, 0.384422
4674.62, 0.383430
4678.84, 0.382392
4683.07, 0.381444
4687.3, 0.380542
4691.54, 0.379730
4695.79, 0.378828
4700.05, 0.377925
4704.31, 0.377068
4708.59, 0.376391
4712.87, 0.375398
4717.15, 0.374586
4721.45, 0.373684
4725.76, 0.373052
4730.07, 0.372060
4734.39, 0.371247
4738.72, 0.370210
4743.05, 0.369307
4747.39, 0.368450
4751.75, 0.367502
4756.1, 0.366555
4760.47, 0.365607
4764.85, 0.364840
4769.23, 0.363757
4773.62, 0.362945
4778.02, 0.361998
4782.43, 0.361276
4786.85, 0.360373
4791.27, 0.359697
4795.7, 0.359020
4800.14, 0.358433
4804.59, 0.357847
4809.05, 0.357260
4813.51, 0.356719
4817.99, 0.356222
4822.47, 0.355771
4826.96, 0.355365
4831.46, 0.354869
4835.96, 0.354372
4840.48, 0.353921
4845.0, 0.353335
4849.54, 0.352748
4854.08, 0.352342
4858.63, 0.351710
4863.18, 0.351034
4867.75, 0.350402
4872.33, 0.349770
4876.91, 0.349184
4881.5, 0.348552
4886.1, 0.347920
4890.71, 0.347289
4895.33, 0.346702
4899.96, 0.346116
4904.59, 0.345484
4909.24, 0.345123
4913.89, 0.344717
4918.55, 0.344220
4923.22, 0.343814
4927.9, 0.343679
4932.59, 0.343499
4937.29, 0.343318
4942.0, 0.343092
4946.71, 0.343047
4951.44, 0.343002
4956.17, 0.343047
4960.91, 0.343138
4965.67, 0.343138
4970.43, 0.343138
4975.2, 0.343138
4979.98, 0.343092
4984.76, 0.343138
4989.56, 0.343138
4994.37, 0.343228
4999.18, 0.343183
5004.01, 0.343138
5008.84, 0.343047
5013.69, 0.343002
5018.54, 0.342912
5023.4, 0.342732
5028.28, 0.342371
5033.16, 0.342055
5038.05, 0.341694
5042.95, 0.341378
5047.86, 0.340972
5052.78, 0.340475
5057.71, 0.339934
5062.65, 0.339302
5067.6, 0.338626
5072.56, 0.337949
5077.53, 0.337227
5082.5, 0.336550
5087.49, 0.335693
5092.49, 0.334745
5097.5, 0.333753
5102.51, 0.332715
5107.54, 0.331542
5112.58, 0.330324
5117.62, 0.328880
5122.68, 0.327255
5127.75, 0.325631
5132.82, 0.324007
5137.91, 0.322157
5143.01, 0.320442
5148.12, 0.318502
5153.23, 0.316291
5158.36, 0.314125
5163.5, 0.312050
5168.65, 0.309884
5173.81, 0.307628
5178.98, 0.305327
5184.15, 0.303116
5189.34, 0.300905
5194.54, 0.298785
5199.75, 0.296664
5204.98, 0.294363
5210.21, 0.292287
5215.45, 0.290076
5220.7, 0.287640
5225.96, 0.285429
5231.23, 0.283308
5236.52, 0.281098
5241.81, 0.278751
5247.12, 0.276450
5252.44, 0.274059
5257.76, 0.271803
5263.1, 0.269412
5268.45, 0.266975
5273.81, 0.264629
5279.18, 0.262373
5284.56, 0.260027
5289.95, 0.257771
5295.36, 0.255334
5300.77, 0.252943
5306.2, 0.250732
5311.63, 0.248566
5317.08, 0.246491
5322.54, 0.244370
5328.01, 0.242385
5333.49, 0.240354
5338.98, 0.238504
5344.49, 0.236970
5350.0, 0.235481
5355.53, 0.233541
5361.07, 0.231691
5366.62, 0.230067
5372.18, 0.228578
5377.75, 0.227269
5383.34, 0.225916
5388.93, 0.224562
5394.54, 0.223344
5400.16, 0.222126
5405.79, 0.221043
5411.44, 0.219960
5417.09, 0.219238
5422.76, 0.218381
5428.43, 0.216847
5434.12, 0.215674
5439.83, 0.214771
5445.54, 0.213869
5451.26, 0.212966
5457.0, 0.212244
5462.75, 0.211703
5468.52, 0.210891
5474.29, 0.210214
5480.08, 0.209628
5485.88, 0.208815
5491.69, 0.208364
5497.51, 0.208048
5503.35, 0.207687
5509.2, 0.207326
5515.06, 0.207191
5520.93, 0.207101
5526.82, 0.206875
5532.71, 0.206650
5538.63, 0.206514
5544.55, 0.206514
5550.49, 0.206650
5556.44, 0.206559
5562.4, 0.206334
5568.37, 0.206289
5574.36, 0.206695
5580.36, 0.206920
5586.37, 0.206695
5592.4, 0.206604
5598.44, 0.206830
5604.49, 0.206965
5610.56, 0.207146
5616.63, 0.207462
5622.73, 0.207507
5628.83, 0.207778
5634.95, 0.208364
5641.08, 0.209041
5647.23, 0.208951
5653.39, 0.208860
5659.56, 0.208725
5665.74, 0.208590
5671.94, 0.209041
5678.15, 0.209221
5684.38, 0.209086
5690.62, 0.209312
5696.87, 0.209267
5703.14, 0.209492
5709.42, 0.210079
5715.72, 0.210169
5722.03, 0.210034
5728.35, 0.210034
5734.69, 0.210214
5741.03, 0.210485
5747.4, 0.210891
5753.78, 0.210756
5760.17, 0.211523
5766.58, 0.212515
5773.0, 0.211974
5779.44, 0.211658
5785.88, 0.211658
5792.35, 0.211568
5798.83, 0.211748
5805.32, 0.211748
5811.83, 0.211974
5818.35, 0.212696
5824.89, 0.212651
5831.45, 0.211613
5838.01, 0.210665
5844.59, 0.209853
5851.19, 0.209312
5857.8, 0.208951
5864.43, 0.208409
5871.07, 0.207687
5877.73, 0.208003
5884.4, 0.207056
5891.09, 0.205837
5897.79, 0.205070
5904.5, 0.203220
5911.23, 0.202183
5917.98, 0.201506
5924.75, 0.200874
5931.53, 0.200964
5938.32, 0.200649
5945.13, 0.198934
5951.96, 0.197761
5958.8, 0.196904
5965.65, 0.196723
5972.53, 0.195866
5979.42, 0.194783
5986.32, 0.194467
5993.24, 0.193610
6000.18, 0.192301
6007.13, 0.191670
6014.1, 0.191264
6021.08, 0.190316
6028.09, 0.189504
6035.1, 0.189053
6042.14, 0.189775
6049.19, 0.190452
6056.25, 0.188737
6063.34, 0.187925
6070.44, 0.188466
6077.55, 0.188331
6084.69, 0.187925
6091.84, 0.188241
6099.0, 0.189008
6106.19, 0.190452
6113.39, 0.192256
6120.61, 0.192978
6127.84, 0.193836
6135.09, 0.195505
6142.36, 0.197535
6149.65, 0.199611
6156.95, 0.202047
6164.27, 0.204303
6171.61, 0.206244
6178.97, 0.208815
6186.34, 0.211387
6193.73, 0.212651
6201.14, 0.214140
6208.57, 0.215989
6216.01, 0.217749
6223.47, 0.219193
6230.95, 0.220321
6238.45, 0.221449
6245.97, 0.222532
6253.5, 0.223389
6261.06, 0.224021
6268.63, 0.224517
6276.21, 0.224923
6283.82, 0.225239
6291.45, 0.225374
6299.1, 0.225510
6306.76, 0.225555
6314.44, 0.225555
6322.14, 0.225510
6329.86, 0.225465
6337.6, 0.226051
6345.35, 0.226457
6353.13, 0.225465
6360.92, 0.225104
6368.74, 0.225329
6376.57, 0.224788
6384.43, 0.224111
6392.3, 0.223660
6400.19, 0.223570
6408.1, 0.224833
6416.03, 0.225194
6423.98, 0.223570
6431.95, 0.222667
6439.94, 0.221855
6447.95, 0.221268
6455.98, 0.220862
6464.03, 0.220456
6472.1, 0.220456
6480.19, 0.220501
6488.31, 0.220862
6496.44, 0.220186
6504.59, 0.218291
6512.76, 0.217388
6520.95, 0.217117
6529.16, 0.215854
6537.4, 0.214952
6545.65, 0.214455
6553.92, 0.213869
6562.22, 0.213147
6570.54, 0.212966
6578.88, 0.211793
6587.23, 0.210575
6595.61, 0.209628
6604.02, 0.208500
6612.44, 0.207642
6620.89, 0.206830
6629.35, 0.206830
6637.84, 0.206514
6646.35, 0.204529
6654.88, 0.202814
6663.44, 0.202047
6672.01, 0.201461
6680.61, 0.200694
6689.23, 0.199205
6697.88, 0.197941
6706.54, 0.197220
6715.23, 0.196137
6723.94, 0.194603
6732.67, 0.193159
6741.42, 0.191760
6750.2, 0.190587
6759.0, 0.189278
6767.82, 0.188105
6776.67, 0.186797
6785.54, 0.185669
6794.44, 0.184090
6803.35, 0.181969
6812.29, 0.180300
6821.26, 0.179081
6830.24, 0.177728
6839.25, 0.176013
6848.29, 0.174975
6857.35, 0.174524
6866.43, 0.173125
6875.54, 0.170824
6884.67, 0.169200
6893.82, 0.167846
6903.0, 0.166673
6912.2, 0.165410
6921.43, 0.164147
6930.69, 0.162883
6939.96, 0.161530
6949.27, 0.160537
6958.59, 0.159725
6967.95, 0.158191
6977.33, 0.156657
6986.73, 0.155438
6996.16, 0.154220
7005.61, 0.152957
7015.09, 0.151874
7024.6, 0.150746
7034.13, 0.149708
7043.69, 0.148941
7053.27, 0.147407
7062.88, 0.145963
7072.52, 0.144655
7082.18, 0.143391
7091.87, 0.142083
7101.58, 0.140820
7111.32, 0.139601
7121.09, 0.138248
7130.88, 0.136894
7140.71, 0.135811
7150.56, 0.134548
7160.43, 0.133330
7170.33, 0.132066
7180.27, 0.130442
7190.23, 0.129088
7200.21, 0.128051
7210.23, 0.126787
7220.27, 0.125343
7230.34, 0.123990
7240.44, 0.122772
7250.56, 0.121689
7260.72, 0.120470
7270.9, 0.119207
7281.12, 0.117989
7291.36, 0.116635
7301.63, 0.115462
7311.93, 0.114199
7322.25, 0.112890
7332.61, 0.111807
7343.0, 0.110724
7353.41, 0.109371
7363.86, 0.108017
7374.33, 0.106799
7384.83, 0.105626
7395.37, 0.104363
7405.93, 0.103189
7416.53, 0.101926
7427.15, 0.100708
7437.81, 0.0994900
7448.5, 0.0982260
7459.22, 0.0969180
7469.96, 0.0956540
7480.74, 0.0942560
7491.55, 0.0929470
7502.39, 0.0915030
7513.27, 0.0901500
7524.17, 0.0887060
7535.11, 0.0872620
7546.08, 0.0856830
7557.08, 0.0841490
7568.11, 0.0827050
7579.17, 0.0811260
7590.27, 0.0795010
7601.4, 0.0780120
7612.56, 0.0763880
7623.76, 0.0748090
7634.98, 0.0732300
7646.24, 0.0716050
7657.54, 0.0698910
7668.87, 0.0682210
7680.23, 0.0665520
7691.62, 0.0648830
7703.05, 0.0630780
7714.51, 0.0612280
7726.01, 0.0595130
7737.54, 0.0578890
7749.11, 0.0561740
7760.71, 0.0545950
7772.35, 0.0528360
7784.02, 0.0511660
7795.72, 0.0494970
7807.46, 0.0479630
7819.23, 0.0462930
7831.04, 0.0448040
7842.89, 0.0432250
7854.77, 0.0416460
7866.69, 0.0399310
7878.65, 0.0382620
7890.64, 0.0366830
7902.67, 0.0351480
7914.74, 0.0334790
7926.84, 0.0319900
7938.98, 0.0304560
7951.16, 0.0289670
7963.37, 0.0273880
7975.62, 0.0259890
7987.91, 0.0244550
8000.24, 0.0230560
8012.6, 0.0216580
8025.01, 0.0202590
8037.45, 0.0189500
8049.93, 0.0177770
8062.45, 0.0166040
8075.01, 0.0155660
8087.61, 0.0144380
8100.24, 0.0134460
8112.91, 0.0124980
8125.63, 0.0115960
8138.39, 0.0107840
8151.18, 0.0101070
8164.02, 0.00947500
8176.9, 0.00906900
8189.81, 0.00870800
8202.77, 0.00843700
8215.77, 0.00821200
8228.82, 0.00812200
8241.9, 0.00807600
8255.02, 0.00830200
8268.19, 0.00861800
8281.39, 0.00920400
8294.65, 0.00992600
8307.94, 0.0108740
8321.28, 0.0118670
8334.66, 0.0131750
8348.08, 0.0147090
8361.54, 0.0163790
8375.05, 0.0182740
8388.6, 0.0205750
8402.2, 0.0231010
8415.84, 0.0259440
8429.52, 0.0291020
8443.25, 0.0325770
8457.02, 0.0362760
8470.84, 0.0404730
8484.7, 0.0450300
8498.61, 0.0499030
8512.57, 0.0550920
8526.57, 0.0607320
8540.62, 0.0666420
8554.71, 0.0731400
8568.85, 0.0799080
8583.04, 0.0871270
8597.27, 0.0945260
8611.55, 0.102016
8625.88, 0.109732
8640.26, 0.117763
8654.68, 0.126065
8669.16, 0.134773
8683.68, 0.143617
8698.25, 0.152506
8712.87, 0.161214
8727.53, 0.169290
8742.25, 0.176284
8757.02, 0.182059
8771.83, 0.186571
8786.7, 0.190181
8801.62, 0.192933
8816.59, 0.195054
8831.61, 0.196949
8846.68, 0.198708
8861.8, 0.200558
8876.97, 0.202318
8892.2, 0.204078
8907.48, 0.205837
8922.81, 0.207507
8938.2, 0.208951
8953.63, 0.210259
8969.13, 0.211207
8984.67, 0.212154
9000.27, 0.213012
9015.92, 0.213733
9031.63, 0.214365
9047.39, 0.214952
9063.21, 0.215674
9079.08, 0.216350
9095.01, 0.217027
9111.0, 0.217659
9127.04, 0.217569
9143.13, 0.216666
9159.28, 0.214907
9175.49, 0.212425
9191.76, 0.209131
9208.09, 0.205161
9224.47, 0.200829
9240.92, 0.196182
9257.42, 0.191264
9273.98, 0.186030
9290.6, 0.180570
9307.28, 0.175156
9324.02, 0.169516
9340.82, 0.163605
9357.68, 0.157740
9374.6, 0.152280
9391.58, 0.147272
9408.62, 0.143166
9425.73, 0.140729
9442.9, 0.140278
9460.13, 0.142444
9477.42, 0.147362
9494.78, 0.154987
9512.2, 0.164733
9529.69, 0.175472
9547.24, 0.185759
9564.86, 0.194242
9582.54, 0.199746
9600.28, 0.201957
9618.1, 0.200694
9635.97, 0.196723
9653.92, 0.191128
9671.93, 0.184902
9690.01, 0.178450
9708.16, 0.172404
9726.37, 0.167034
9744.65, 0.162342
9763.0, 0.158326
9781.43, 0.154716
9799.92, 0.151513
9818.48, 0.148670
9837.1, 0.146144
9855.8, 0.143933
9874.58, 0.141632
9893.42, 0.139331
9912.34, 0.137165
9931.33, 0.135315
9950.39, 0.133736
9969.52, 0.132337
9988.74, 0.131254
10008.0, 0.130261
10027.4, 0.129494
10046.8, 0.128863
10066.3, 0.128186
10085.9, 0.127554
10105.6, 0.126877
10125.3, 0.125749
10145.1, 0.124441
10165.0, 0.123042
10185.0, 0.121508
10205.0, 0.119884
10225.2, 0.117853
10245.4, 0.115688
10265.7, 0.113657
10286.0, 0.111852
10306.5, 0.110003
10327.0, 0.108062
10347.6, 0.106077
10368.3, 0.104137
10389.1, 0.102197
10409.9, 0.100121
10430.9, 0.0976850
10451.9, 0.0952030
10473.0, 0.0926760
10494.2, 0.0900600
10515.5, 0.0873070
10536.9, 0.0846900
10558.4, 0.0824340
10579.9, 0.0805390
10601.5, 0.0790500
10623.3, 0.0780580
10645.1, 0.0775610
10667.0, 0.0775610
10689.0, 0.0776060
10711.1, 0.0779670
10733.2, 0.0784190
10755.5, 0.0788700
10777.9, 0.0793660
10800.3, 0.0800430
10822.9, 0.0808100
10845.5, 0.0814870
10868.2, 0.0821640
10891.1, 0.0827950
10914.0, 0.0834720
10937.0, 0.0842840
10960.2, 0.0851410
10983.4, 0.0862240
11006.7, 0.0873520
11030.1, 0.0883450
11053.6, 0.0892020
11077.3, 0.0901050
11101.0, 0.0907810
11124.8, 0.0914130
11148.7, 0.0917290
11172.7, 0.0917740
11196.9, 0.0916840
11221.1, 0.0916840
11245.4, 0.0917740
11269.9, 0.0919090
11294.4, 0.0920900
11319.1, 0.0923610
11343.9, 0.0926760
11368.8, 0.0933080
11393.7, 0.0939400
11418.8, 0.0946170
11444.0, 0.0955190
11469.4, 0.0967820
11494.8, 0.0980910
11520.3, 0.0993090
11546.0, 0.100392
11571.8, 0.101565
11597.7, 0.102422
11623.7, 0.103280
11649.8, 0.104002
11676.0, 0.104363
11702.4, 0.104092
11728.9, 0.103550
11755.5, 0.102828
11782.2, 0.101655
11809.0, 0.100212
11836.0, 0.0983160
11863.0, 0.0958800
11890.3, 0.0931280
11917.6, 0.0895180
11945.0, 0.0855020
11972.6, 0.0817120
12000.4, 0.0782380
12028.2, 0.0753050
12056.2, 0.0734550
12084.3, 0.0725980
12112.5, 0.0723720
12140.9, 0.0722820
12169.4, 0.0719210
12198.0, 0.0712900
12226.8, 0.0704320
12255.7, 0.0693040
12284.7, 0.0680860
12313.9, 0.0665070
12343.2, 0.0651530
12372.7, 0.0639800
12402.3, 0.0630330
12432.0, 0.0624010
12461.9, 0.0625360
12491.9, 0.0629420
12522.1, 0.0635740
12552.4, 0.0643860
12582.9, 0.0652890
12613.5, 0.0660560
12644.3, 0.0665520
12675.2, 0.0663260
12706.3, 0.0655140
12737.5, 0.0643860
12768.9, 0.0628970
12800.4, 0.0610920
12832.1, 0.0587460
12863.9, 0.0560840
12895.9, 0.0534220
12928.1, 0.0504890
12960.4, 0.0475110
12992.9, 0.0446690
13025.5, 0.0422770
13058.3, 0.0406530
13091.3, 0.0399760
13124.4, 0.0398410
13157.8, 0.0403370
13191.2, 0.0413300
13224.9, 0.0427740
13258.7, 0.0442630
13292.7, 0.0458870
13326.9, 0.0472410
13361.2, 0.0484140
13395.7, 0.0492260
13430.4, 0.0500380
13465.3, 0.0509860
13500.4, 0.0518430
13535.7, 0.0522490
13571.1, 0.0524290
13606.7, 0.0524290
13642.5, 0.0522490
13678.5, 0.0518430
13714.7, 0.0514370
13751.1, 0.0508500
13787.6, 0.0503990
13824.4, 0.0499480
13861.4, 0.0497220
13898.5, 0.0496320
13935.9, 0.0493160
13973.5, 0.0487300
14011.2, 0.0478720
14049.2, 0.0468350
14087.4, 0.0456610
14125.8, 0.0444430
14164.3, 0.0432250
14203.2, 0.0418710
14242.2, 0.0411490
14281.4, 0.0404730
14320.9, 0.0393000
14360.5, 0.0385780
14400.4, 0.0383970
14440.5, 0.0378560
14480.9, 0.0374500
14521.4, 0.0373590
14562.2, 0.0370440
14603.3, 0.0365920
14644.5, 0.0366370
14686.0, 0.0365020
14727.7, 0.0360060
14769.7, 0.0352840
14811.9, 0.0348330
14854.3, 0.0341110
14897.0, 0.0332530
14939.9, 0.0322160
14983.1, 0.0308620
15026.5, 0.0295540
15070.2, 0.0283800
15114.2, 0.0268460
15158.3, 0.0256730
15202.8, 0.0246360
15247.5, 0.0233270
15292.5, 0.0220640
15337.7, 0.0211160
15383.2, 0.0204840
15429.0, 0.0206650
15475.1, 0.0213420
15521.4, 0.0221540
15568.0, 0.0229210
15614.9, 0.0243650
15662.1, 0.0263500
15709.6, 0.0283350
15757.3, 0.0302300
15805.4, 0.0323510
15853.7, 0.0346070
15902.3, 0.0366830
15951.2, 0.0385320
16000.5, 0.0406980
16050.0, 0.0430440
16099.8, 0.0459320
16150.0, 0.0490910
16200.5, 0.0526550
16251.3, 0.0571670
16302.4, 0.0625360
16353.8, 0.0680860
16405.5, 0.0746740
16457.6, 0.0826150
16510.0, 0.0908270
16562.8, 0.0991740
16615.9, 0.107747
16669.3, 0.116364
16723.1, 0.125930
16777.2, 0.134458
16831.7, 0.141722
16886.5, 0.148264
16941.7, 0.152957
16997.2, 0.156205
17053.1, 0.158281
17109.4, 0.159048
17166.1, 0.159274
17223.1, 0.159589
17280.5, 0.159048
17338.3, 0.158913
17396.5, 0.159770
17455.1, 0.160988
17514.0, 0.163470
17573.4, 0.166583
17633.2, 0.169335
17693.4, 0.172855
17754.0, 0.177186
17815.0, 0.180841
17876.4, 0.183954
17938.3, 0.186346
18000.5, 0.188105
18063.3, 0.190632
18126.4, 0.193836
18190.0, 0.196137
18254.1, 0.198528
18318.6, 0.199566
18383.5, 0.199476
18449.0, 0.198663
18514.9, 0.195685
18581.2, 0.191895
18648.0, 0.187925
18715.4, 0.183729
18783.2, 0.178675
18851.5, 0.172043
18920.3, 0.165951
18989.6, 0.160492
19059.4, 0.153814
19129.7, 0.148219
19200.6, 0.144429
19272.0, 0.140684
19343.9, 0.138564
19416.3, 0.138067
19489.3, 0.138609
19562.8, 0.140774
19637.0, 0.141902
19711.6, 0.143888
19786.8, 0.147813
19862.6, 0.150926
19939.0, 0.153273
20016.0, 0.155754
20093.6, 0.158597
20171.8, 0.163019
20250.6, 0.169561
20330.0, 0.175020
20410.0, 0.179939
20490.7, 0.184360
20572.0, 0.187022
20654.0, 0.189504
20736.6, 0.191128
20819.9, 0.191128
20903.8, 0.190542
20988.5, 0.189865
21073.8, 0.188692
21159.8, 0.186977
21246.5, 0.185082
21334.0, 0.181788
21422.1, 0.177773
21511.0, 0.173441
21600.7, 0.169110
21691.0, 0.166087
21782.1, 0.163109
21874.0, 0.159409
21966.7, 0.155709
22060.2, 0.151603
22154.5, 0.148445
22249.6, 0.146775
22345.5, 0.145377
22442.2, 0.142789
22539.8, 0.140941
22638.2, 0.138786
22737.5, 0.137862
22837.7, 0.136117
22938.7, 0.134064
23040.7, 0.133756
23143.5, 0.134577
23247.3, 0.134987
23352.1, 0.134474
23457.7, 0.134782
23564.4, 0.134782
23672.0, 0.136425
23780.5, 0.137862
23890.1, 0.137964
24000.7, 0.139709
24112.3, 0.142584
24225.0, 0.144842
24338.7, 0.147203
24453.5, 0.151309
24569.4, 0.154491
24686.4, 0.157263
24804.5, 0.159521
24923.8, 0.161369
25044.2, 0.163730
25165.8, 0.165167
25288.6, 0.165783
25412.5, 0.166604
25537.7, 0.168144
25664.1, 0.168555
25791.8, 0.167425
25920.8, 0.166296
26051.1, 0.165578
26182.6, 0.164243
26315.5, 0.165886
26449.8, 0.166296
26585.4, 0.165886
26722.5, 0.166399
26860.9, 0.166604
27000.8, 0.166399
27142.1, 0.164962
27285.0, 0.162293
27429.4, 0.157982
27575.3, 0.154183
27722.7, 0.149872
27871.8, 0.145663
28022.4, 0.142686
28174.7, 0.143097
28328.7, 0.146382
28484.4, 0.149872
28641.7, 0.154697
28800.9, 0.159111
28961.8, 0.163217
29124.5, 0.167425
29289.0, 0.170505
29455.4, 0.174303
29623.8, 0.177896
29794.0, 0.180360
29966.3, 0.183234
30140.5, 0.185287
30316.7, 0.186313
30495.1, 0.186621
30675.5, 0.185800
30858.1, 0.186211
31042.8, 0.189188
31229.8, 0.191857
31419.1, 0.194423
31610.7, 0.197195
31804.6, 0.199453
32000.9, 0.202019
32199.7, 0.205509
32400.9, 0.208486
32604.8, 0.212079
32811.1, 0.216493
33020.1, 0.219367
33231.8, 0.222139
33446.2, 0.225116
33663.4, 0.227682
33883.4, 0.229325
34106.3, 0.230146
34332.1, 0.230043
34561.0, 0.230146
34792.9, 0.228503
35028.0, 0.225629
35266.3, 0.221523
35507.8, 0.212900
35752.7, 0.204278
36001.0, 0.194218
36252.8, 0.181386
36508.1, 0.165886
36767.0, 0.151412
37029.7, 0.140017
37296.1, 0.132319
37566.3, 0.129958
37840.5, 0.133242
38118.8, 0.138683
38401.2, 0.144945
38687.8, 0.153157
38978.6, 0.162396
39273.9, 0.170813
39573.7, 0.179949
39878.1, 0.189701
40187.3, 0.198426
40501.2, 0.205304
40820.0, 0.213722
41144.0, 0.223781
41473.2, 0.233123
41807.6, 0.241232
42147.5, 0.249239
42493.0, 0.258375
42844.2, 0.266382
43201.2, 0.272541
43564.3, 0.276134
43933.5, 0.278495
44309.0, 0.280856
44691.0, 0.281472
45079.6, 0.282601
45475.0, 0.284654
45877.5, 0.284962
46287.1, 0.285886
46704.2, 0.285886
47128.7, 0.283422
47561.1, 0.280548
48001.5, 0.274902
48450.1, 0.268640
48907.2, 0.259299
49373.0, 0.245133
49847.7, 0.232199
50331.5, 0.219675
50825.0, 0.205201
51328.2, 0.189290
51841.5, 0.178820
52365.1, 0.175330
52899.4, 0.173893
53444.8, 0.174714
54001.5, 0.177691
54570.1, 0.182926
55150.6, 0.186108
55743.6, 0.186416
56349.5, 0.184979
56968.7, 0.179333
57601.7, 0.166091
58248.9, 0.149461
58910.9, 0.137040
59588.1, 0.132524
60281.0, 0.135398
60990.2, 0.141147
61716.3, 0.146998
62459.8, 0.154081
63221.6, 0.158289
64002.1, 0.162498
64802.1, 0.165372
65622.1, 0.162293
66463.4, 0.154697
67326.6, 0.148640
68212.4, 0.139196
69121.9, 0.126981
70056.0, 0.114354
71015.7, 0.104808
72002.0, 0.0994700
73016.3, 0.0988540
74059.4, 0.0976220
75132.7, 0.0889990
76237.6, 0.0824300
77375.5, 0.0825320
78547.9, 0.0817110
79756.3, 0.0712410
81002.5, 0.0597440
82288.5, 0.0542000
83615.7, 0.0552270
84986.5, 0.0576900
86402.9, 0.0612830
87867.4, 0.0675450
89382.4, 0.0760650
90950.5, 0.0832510
92574.6, 0.0852010
94257.2, 0.0903340
96002.7, 0.107990
97814.1, 0.111172
99695.1, 0.105526
101650.0, 0.110351
103683.0, 0.112815
105799.0, 0.114868
108003.0, 0.120616
110301.0, 0.132319
112699.0, 0.134782
115204.0, 0.136014
117822.0, 0.145663
120562.0, 0.145047
123433.0, 0.140120
126443.0, 0.135090
129604.0, 0.139812
132926.0, 0.142789
136424.0, 0.138478
140111.0, 0.152233
144003.0, 0.157879
148118.0, 0.155313
152474.0, 0.157058
157095.0, 0.163935
162004.0, 0.158700
167231.0, 0.158700
172805.0, 0.167425
178764.0, 0.165988
185148.0, 0.180052
192005.0, 0.195655
199390.0, 0.178101
207366.0, 0.155210
216006.0, 0.126467
