Database of Origin, USGS Spectral Database
Sample Description, See USGS database for additional info
Date Added,2016-08-03 21:01:09.704656

Data ID,USGS_ano06          
Sample ID, anorthite_hs349.2680
Mineral Name, anorthite
Material Class,Tectosilicate

Wavelength
1632.29, 0.550108
1632.8, 0.550015
1633.32, 0.551131
1633.83, 0.551876
1634.35, 0.552434
1634.86, 0.552527
1635.38, 0.552434
1635.9, 0.552155
1636.41, 0.552527
1636.93, 0.553086
1637.45, 0.554203
1637.96, 0.554296
1638.48, 0.555319
1639.0, 0.556064
1639.52, 0.556622
1640.04, 0.556715
1640.56, 0.557088
1641.08, 0.557181
1641.59, 0.557460
1642.11, 0.557832
1642.63, 0.558204
1643.16, 0.558484
1643.68, 0.559321
1644.2, 0.560159
1644.72, 0.560717
1645.24, 0.560531
1645.76, 0.560438
1646.29, 0.560345
1646.81, 0.560903
1647.33, 0.561555
1647.86, 0.562485
1648.38, 0.563230
1648.9, 0.563323
1649.43, 0.562765
1649.95, 0.563509
1650.48, 0.564161
1651.0, 0.564254
1651.53, 0.564254
1652.06, 0.564905
1652.58, 0.565557
1653.11, 0.565929
1653.64, 0.566208
1654.17, 0.566580
1654.69, 0.566766
1655.22, 0.567046
1655.75, 0.567139
1656.28, 0.568069
1656.81, 0.568442
1657.34, 0.568442
1657.87, 0.568814
1658.4, 0.569651
1658.93, 0.569465
1659.46, 0.569465
1659.99, 0.569744
1660.52, 0.570210
1661.05, 0.570582
1661.59, 0.571513
1662.12, 0.571699
1662.65, 0.572257
1663.19, 0.572909
1663.72, 0.573374
1664.26, 0.573095
1664.79, 0.573188
1665.32, 0.573560
1665.86, 0.574212
1666.39, 0.574956
1666.93, 0.575049
1667.47, 0.575142
1668.0, 0.575701
1668.54, 0.575887
1669.08, 0.576445
1669.61, 0.576538
1670.15, 0.576817
1670.69, 0.576724
1671.23, 0.577190
1671.77, 0.577655
1672.31, 0.577934
1672.85, 0.578027
1673.39, 0.579237
1673.93, 0.579144
1674.47, 0.578772
1675.01, 0.578958
1675.55, 0.580075
1676.09, 0.580912
1676.64, 0.581284
1677.18, 0.581005
1677.72, 0.580819
1678.26, 0.581005
1678.81, 0.581564
1679.35, 0.581750
1679.89, 0.582215
1680.44, 0.582867
1680.98, 0.583146
1681.53, 0.583332
1682.07, 0.583704
1682.62, 0.583611
1683.17, 0.583704
1683.71, 0.584170
1684.26, 0.584821
1684.81, 0.585100
1685.36, 0.585193
1685.9, 0.585379
1686.45, 0.585472
1687.0, 0.585659
1687.55, 0.586217
1688.1, 0.586775
1688.65, 0.587148
1689.2, 0.587613
1689.75, 0.587520
1690.3, 0.587148
1690.85, 0.587520
1691.41, 0.587799
1691.96, 0.587985
1692.51, 0.588358
1693.06, 0.588358
1693.61, 0.588637
1694.17, 0.589381
1694.72, 0.589567
1695.28, 0.590312
1695.83, 0.590591
1696.39, 0.590498
1696.94, 0.590219
1697.5, 0.590219
1698.05, 0.590591
1698.61, 0.591056
1699.17, 0.590870
1699.72, 0.591056
1700.28, 0.591615
1700.84, 0.591987
1701.4, 0.591894
1701.95, 0.592173
1702.51, 0.592545
1703.07, 0.593011
1703.63, 0.593383
1704.19, 0.593569
1704.75, 0.592918
1705.31, 0.592918
1705.88, 0.593290
1706.44, 0.593755
1707.0, 0.593755
1707.56, 0.594221
1708.12, 0.594872
1708.69, 0.594779
1709.25, 0.594407
1709.81, 0.594965
1710.38, 0.595244
1710.94, 0.595337
1711.51, 0.595617
1712.07, 0.596175
1712.64, 0.596454
1713.2, 0.596547
1713.77, 0.596640
1714.34, 0.597012
1714.9, 0.597292
1715.47, 0.597478
1716.04, 0.597850
1716.61, 0.598315
1717.18, 0.598595
1717.74, 0.598408
1718.31, 0.598315
1718.88, 0.598595
1719.45, 0.598688
1720.02, 0.599153
1720.59, 0.599618
1721.17, 0.599804
1721.74, 0.599804
1722.31, 0.600270
1722.88, 0.600177
1723.45, 0.600456
1724.03, 0.600642
1724.6, 0.601200
1725.18, 0.601387
1725.75, 0.601759
1726.33, 0.601573
1726.9, 0.601573
1727.48, 0.601852
1728.05, 0.602596
1728.63, 0.602876
1729.2, 0.602596
1729.78, 0.602410
1730.36, 0.602876
1730.94, 0.603062
1731.51, 0.603248
1732.09, 0.603341
1732.67, 0.603806
1733.25, 0.603992
1733.83, 0.604365
1734.41, 0.604644
1734.99, 0.604551
1735.57, 0.604365
1736.15, 0.604551
1736.73, 0.605016
1737.32, 0.605668
1737.9, 0.606040
1738.48, 0.606133
1739.07, 0.606040
1739.65, 0.606226
1740.23, 0.606505
1740.82, 0.606970
1741.4, 0.607250
1741.99, 0.607808
1742.57, 0.607529
1743.16, 0.607715
1743.74, 0.607622
1744.33, 0.607715
1744.92, 0.608460
1745.51, 0.609204
1746.09, 0.609576
1746.68, 0.609576
1747.27, 0.609949
1747.86, 0.610135
1748.45, 0.609855
1749.04, 0.610414
1749.63, 0.610693
1750.22, 0.610786
1750.81, 0.610693
1751.4, 0.610879
1751.99, 0.611065
1752.59, 0.611438
1753.18, 0.611624
1753.77, 0.611903
1754.37, 0.611810
1754.96, 0.612089
1755.56, 0.612275
1756.15, 0.612647
1756.74, 0.612927
1757.34, 0.612927
1757.94, 0.612647
1758.53, 0.613206
1759.13, 0.613206
1759.73, 0.613020
1760.32, 0.613299
1760.92, 0.613857
1761.52, 0.614230
1762.12, 0.614416
1762.72, 0.614323
1763.32, 0.614695
1763.92, 0.614974
1764.52, 0.614974
1765.12, 0.615160
1765.72, 0.615067
1766.32, 0.614788
1766.92, 0.615346
1767.53, 0.615532
1768.13, 0.615439
1768.73, 0.615719
1769.34, 0.615719
1769.94, 0.615905
1770.55, 0.616370
1771.15, 0.616649
1771.76, 0.616649
1772.36, 0.616463
1772.97, 0.617208
1773.57, 0.617487
1774.18, 0.617301
1774.79, 0.616928
1775.4, 0.616649
1776.0, 0.616835
1776.61, 0.617208
1777.22, 0.617022
1777.83, 0.617394
1778.44, 0.617766
1779.05, 0.618045
1779.66, 0.618231
1780.27, 0.618231
1780.88, 0.617952
1781.5, 0.618138
1782.11, 0.618511
1782.72, 0.618697
1783.33, 0.618976
1783.95, 0.619162
1784.56, 0.619069
1785.18, 0.619255
1785.79, 0.618883
1786.41, 0.618697
1787.02, 0.618604
1787.64, 0.618511
1788.26, 0.618697
1788.87, 0.619720
1789.49, 0.620000
1790.11, 0.620000
1790.73, 0.619813
1791.35, 0.620000
1791.96, 0.619906
1792.58, 0.620093
1793.21, 0.620279
1793.83, 0.619813
1794.45, 0.619813
1795.07, 0.620000
1795.69, 0.620093
1796.31, 0.620651
1796.93, 0.621116
1797.56, 0.621489
1798.18, 0.621209
1798.8, 0.621209
1799.43, 0.621116
1800.05, 0.621209
1800.68, 0.621302
1801.3, 0.621396
1801.93, 0.621396
1802.56, 0.622140
1803.18, 0.622233
1803.81, 0.621954
1804.44, 0.621675
1805.07, 0.621675
1805.7, 0.621675
1806.33, 0.622233
1806.95, 0.622605
1807.58, 0.622698
1808.22, 0.622885
1808.85, 0.623164
1809.48, 0.623443
1810.11, 0.623536
1810.74, 0.623443
1811.38, 0.623350
1812.01, 0.623257
1812.64, 0.623629
1813.28, 0.623908
1813.91, 0.624188
1814.55, 0.624188
1815.18, 0.624094
1815.82, 0.624560
1816.45, 0.625118
1817.09, 0.625211
1817.73, 0.625304
1818.36, 0.625304
1819.0, 0.625211
1819.64, 0.624653
1820.28, 0.624467
1820.92, 0.624746
1821.56, 0.624839
1822.2, 0.625490
1822.84, 0.626235
1823.48, 0.626235
1824.12, 0.626235
1824.76, 0.626328
1825.41, 0.625956
1826.05, 0.625118
1826.69, 0.625956
1827.34, 0.626793
1827.98, 0.626793
1828.63, 0.626607
1829.27, 0.626886
1829.92, 0.627166
1830.56, 0.626607
1831.21, 0.626235
1831.86, 0.626979
1832.5, 0.627445
1833.15, 0.628282
1833.8, 0.628282
1834.45, 0.627910
1835.1, 0.627538
1835.75, 0.626886
1836.4, 0.626979
1837.05, 0.627352
1837.7, 0.627259
1838.35, 0.628375
1839.01, 0.628096
1839.66, 0.627445
1840.31, 0.628096
1840.96, 0.628096
1841.62, 0.627073
1842.27, 0.628096
1842.93, 0.628841
1843.58, 0.629306
1844.24, 0.629771
1844.9, 0.629958
1845.55, 0.629771
1846.21, 0.628562
1846.87, 0.627352
1847.53, 0.627817
1848.18, 0.628096
1848.84, 0.629306
1849.5, 0.630330
1850.16, 0.630516
1850.82, 0.630423
1851.48, 0.630795
1852.14, 0.630609
1852.81, 0.629865
1853.47, 0.628375
1854.13, 0.628841
1854.8, 0.629958
1855.46, 0.630423
1856.12, 0.629585
1856.79, 0.629771
1857.45, 0.630516
1858.12, 0.631074
1858.79, 0.629958
1859.45, 0.628562
1860.12, 0.628934
1860.79, 0.629958
1861.46, 0.630609
1862.12, 0.630702
1862.79, 0.630423
1863.46, 0.630144
1864.13, 0.629771
1864.8, 0.630144
1865.48, 0.630423
1866.15, 0.630423
1866.82, 0.629585
1867.49, 0.628655
1868.16, 0.628934
1868.84, 0.629213
1869.51, 0.629120
1870.19, 0.628096
1870.86, 0.627259
1871.54, 0.628934
1872.21, 0.628189
1872.89, 0.627259
1873.56, 0.628375
1874.24, 0.629492
1874.92, 0.629120
1875.6, 0.629027
1876.28, 0.628469
1876.96, 0.628096
1877.64, 0.628841
1878.32, 0.629213
1879.0, 0.628934
1879.68, 0.628655
1880.36, 0.628375
1881.04, 0.628282
1881.73, 0.628189
1882.41, 0.628282
1883.09, 0.627538
1883.78, 0.626700
1884.46, 0.626979
1885.15, 0.626700
1885.83, 0.626514
1886.52, 0.626235
1887.21, 0.625770
1887.89, 0.625583
1888.58, 0.625490
1889.27, 0.624839
1889.96, 0.623908
1890.65, 0.624188
1891.34, 0.624001
1892.03, 0.623536
1892.72, 0.623350
1893.41, 0.622605
1894.1, 0.622047
1894.79, 0.622047
1895.49, 0.621861
1896.18, 0.621023
1896.87, 0.619720
1897.57, 0.618790
1898.26, 0.618324
1898.96, 0.616928
1899.65, 0.615812
1900.35, 0.616184
1901.05, 0.616091
1901.74, 0.615439
1902.44, 0.613950
1903.14, 0.613857
1903.84, 0.614136
1904.54, 0.612834
1905.24, 0.611438
1905.94, 0.611624
1906.64, 0.611438
1907.34, 0.611903
1908.04, 0.611624
1908.75, 0.611344
1909.45, 0.611251
1910.15, 0.611251
1910.86, 0.610786
1911.56, 0.611158
1912.27, 0.611344
1912.97, 0.610693
1913.68, 0.610600
1914.39, 0.611344
1915.09, 0.611251
1915.8, 0.611065
1916.51, 0.611344
1917.22, 0.611903
1917.93, 0.612461
1918.64, 0.612461
1919.35, 0.611065
1920.06, 0.610228
1920.77, 0.610972
1921.48, 0.612461
1922.19, 0.613113
1922.91, 0.613392
1923.62, 0.612927
1924.33, 0.613392
1925.05, 0.614043
1925.76, 0.614230
1926.48, 0.614136
1927.19, 0.614136
1927.91, 0.613950
1928.63, 0.614788
1929.35, 0.615626
1930.07, 0.615719
1930.78, 0.615905
1931.5, 0.616649
1932.22, 0.616649
1932.94, 0.616370
1933.66, 0.616463
1934.39, 0.617208
1935.11, 0.617301
1935.83, 0.617022
1936.55, 0.617115
1937.28, 0.617487
1938.0, 0.617673
1938.73, 0.617673
1939.45, 0.617859
1940.18, 0.618231
1940.9, 0.618324
1941.63, 0.618604
1942.36, 0.618697
1943.09, 0.618511
1943.81, 0.618138
1944.54, 0.618511
1945.27, 0.618883
1946.0, 0.619069
1946.73, 0.619162
1947.47, 0.619348
1948.2, 0.619441
1948.93, 0.619255
1949.66, 0.619627
1950.4, 0.620000
1951.13, 0.619348
1951.86, 0.619534
1952.6, 0.619906
1953.34, 0.619813
1954.07, 0.619720
1954.81, 0.620000
1955.55, 0.620279
1956.29, 0.620558
1957.02, 0.620186
1957.76, 0.620279
1958.5, 0.620372
1959.24, 0.620372
1959.98, 0.620465
1960.72, 0.620651
1961.47, 0.620465
1962.21, 0.620279
1962.95, 0.620372
1963.7, 0.620558
1964.44, 0.620651
1965.18, 0.620465
1965.93, 0.620465
1966.67, 0.621023
1967.42, 0.621396
1968.17, 0.621396
1968.92, 0.621396
1969.66, 0.621489
1970.41, 0.621396
1971.16, 0.621582
1971.91, 0.621768
1972.66, 0.622047
1973.41, 0.621954
1974.16, 0.622140
1974.92, 0.622233
1975.67, 0.622512
1976.42, 0.622605
1977.18, 0.622698
1977.93, 0.622698
1978.69, 0.622792
1979.44, 0.623164
1980.2, 0.623071
1980.95, 0.623164
1981.71, 0.623350
1982.47, 0.623443
1983.23, 0.623629
1983.99, 0.624001
1984.74, 0.624001
1985.51, 0.623722
1986.27, 0.623815
1987.03, 0.623908
1987.79, 0.624188
1988.55, 0.624746
1989.32, 0.624932
1990.08, 0.624932
1990.84, 0.625118
1991.61, 0.625490
1992.37, 0.625770
1993.14, 0.625863
1993.9, 0.626142
1994.67, 0.626328
1995.44, 0.626607
1996.21, 0.626607
1996.98, 0.626700
1997.75, 0.626886
1998.52, 0.627073
1999.29, 0.627352
2000.06, 0.627445
2000.83, 0.627631
2001.6, 0.628282
2002.38, 0.628375
2003.15, 0.628748
2003.93, 0.629027
2004.7, 0.629399
2005.48, 0.629399
2006.25, 0.629678
2007.03, 0.629865
2007.81, 0.630051
2008.58, 0.630144
2009.36, 0.630516
2010.14, 0.630795
2010.92, 0.630888
2011.7, 0.631074
2012.48, 0.631633
2013.26, 0.631633
2014.05, 0.631819
2014.83, 0.632098
2015.61, 0.632656
2016.4, 0.632936
2017.18, 0.633029
2017.97, 0.633122
2018.75, 0.633308
2019.54, 0.633680
2020.32, 0.633866
2021.11, 0.634052
2021.9, 0.634425
2022.69, 0.634611
2023.48, 0.634890
2024.27, 0.635076
2025.06, 0.635076
2025.85, 0.635355
2026.64, 0.635728
2027.44, 0.635728
2028.23, 0.635728
2029.02, 0.636007
2029.82, 0.636193
2030.61, 0.636007
2031.41, 0.636193
2032.2, 0.636658
2033.0, 0.637124
2033.8, 0.637310
2034.6, 0.637496
2035.4, 0.637403
2036.2, 0.637403
2037.0, 0.637682
2037.8, 0.637868
2038.6, 0.637775
2039.4, 0.638054
2040.2, 0.638147
2041.01, 0.638613
2041.81, 0.638613
2042.61, 0.638985
2043.42, 0.638799
2044.22, 0.638706
2045.03, 0.638892
2045.84, 0.639450
2046.65, 0.639729
2047.46, 0.639543
2048.26, 0.639636
2049.07, 0.639822
2049.88, 0.639729
2050.69, 0.639915
2051.51, 0.639543
2052.32, 0.639357
2053.13, 0.639450
2053.94, 0.639729
2054.76, 0.639915
2055.57, 0.640009
2056.39, 0.640102
2057.2, 0.639822
2058.02, 0.639822
2058.84, 0.640195
2059.66, 0.640195
2060.48, 0.640195
2061.29, 0.640381
2062.11, 0.640288
2062.94, 0.640102
2063.76, 0.640381
2064.58, 0.640195
2065.4, 0.639822
2066.22, 0.639822
2067.05, 0.640009
2067.87, 0.640102
2068.7, 0.640102
2069.52, 0.640009
2070.35, 0.640009
2071.18, 0.640009
2072.0, 0.640102
2072.83, 0.640102
2073.66, 0.639822
2074.49, 0.639636
2075.32, 0.640102
2076.15, 0.640195
2076.98, 0.639822
2077.82, 0.639636
2078.65, 0.639915
2079.48, 0.640102
2080.32, 0.640195
2081.15, 0.639915
2081.99, 0.639822
2082.83, 0.639636
2083.66, 0.639636
2084.5, 0.639915
2085.34, 0.640288
2086.18, 0.640009
2087.02, 0.640195
2087.86, 0.640474
2088.7, 0.640474
2089.54, 0.639915
2090.39, 0.640102
2091.23, 0.640195
2092.07, 0.640195
2092.92, 0.640102
2093.76, 0.640195
2094.61, 0.640102
2095.45, 0.640009
2096.3, 0.640195
2097.15, 0.640474
2098.0, 0.640381
2098.85, 0.640288
2099.7, 0.639915
2100.55, 0.639822
2101.4, 0.640195
2102.25, 0.640660
2103.1, 0.640381
2103.96, 0.640381
2104.81, 0.640288
2105.67, 0.640288
2106.52, 0.640288
2107.38, 0.640474
2108.24, 0.640381
2109.09, 0.640474
2109.95, 0.640753
2110.81, 0.641032
2111.67, 0.640753
2112.53, 0.640753
2113.39, 0.640753
2114.25, 0.640753
2115.12, 0.640846
2115.98, 0.640939
2116.84, 0.640846
2117.71, 0.640939
2118.58, 0.641218
2119.44, 0.641218
2120.31, 0.640939
2121.18, 0.640846
2122.04, 0.640846
2122.91, 0.640753
2123.78, 0.640939
2124.65, 0.641125
2125.52, 0.640939
2126.4, 0.641032
2127.27, 0.641032
2128.14, 0.641032
2129.02, 0.641032
2129.89, 0.641218
2130.77, 0.641498
2131.64, 0.641311
2132.52, 0.641125
2133.4, 0.641311
2134.27, 0.641032
2135.15, 0.641125
2136.03, 0.641032
2136.91, 0.641125
2137.79, 0.641125
2138.68, 0.640846
2139.56, 0.640939
2140.44, 0.641032
2141.33, 0.641032
2142.21, 0.641125
2143.1, 0.640753
2143.99, 0.640474
2144.87, 0.640474
2145.76, 0.640660
2146.65, 0.640474
2147.54, 0.640288
2148.43, 0.640195
2149.32, 0.639915
2150.21, 0.639822
2151.1, 0.639822
2151.99, 0.639450
2152.89, 0.639264
2153.78, 0.638706
2154.68, 0.638333
2155.57, 0.638240
2156.47, 0.637961
2157.37, 0.637682
2158.27, 0.637496
2159.16, 0.636751
2160.06, 0.636379
2160.96, 0.636100
2161.86, 0.635541
2162.77, 0.634611
2163.67, 0.634238
2164.57, 0.634052
2165.48, 0.633680
2166.38, 0.632936
2167.29, 0.632377
2168.2, 0.631726
2169.1, 0.631447
2170.01, 0.630981
2170.92, 0.630516
2171.83, 0.629958
2172.74, 0.629492
2173.65, 0.629027
2174.56, 0.628562
2175.47, 0.628096
2176.39, 0.627538
2177.3, 0.627352
2178.22, 0.627166
2179.13, 0.626235
2180.05, 0.625583
2180.96, 0.625304
2181.88, 0.625304
2182.8, 0.624560
2183.72, 0.624001
2184.64, 0.623629
2185.56, 0.623164
2186.48, 0.622792
2187.41, 0.622605
2188.33, 0.621954
2189.25, 0.621675
2190.18, 0.621489
2191.1, 0.621209
2192.03, 0.620837
2192.96, 0.620744
2193.89, 0.620279
2194.82, 0.620372
2195.74, 0.620558
2196.68, 0.620279
2197.61, 0.620093
2198.54, 0.620279
2199.47, 0.620465
2200.4, 0.620558
2201.34, 0.620651
2202.28, 0.621302
2203.21, 0.621396
2204.15, 0.621302
2205.08, 0.621489
2206.02, 0.621582
2206.96, 0.621861
2207.9, 0.622326
2208.84, 0.622233
2209.78, 0.622233
2210.73, 0.622512
2211.67, 0.622605
2212.61, 0.622776
2213.56, 0.622861
2214.5, 0.623288
2215.45, 0.622947
2216.4, 0.622691
2217.35, 0.623288
2218.3, 0.623117
2219.24, 0.621923
2220.2, 0.621069
2221.15, 0.620898
2222.1, 0.620386
2223.05, 0.620045
2224.0, 0.619618
2224.96, 0.619448
2225.91, 0.618253
2226.87, 0.617399
2227.83, 0.617143
2228.79, 0.616802
2229.74, 0.615692
2230.7, 0.614412
2231.66, 0.613217
2232.63, 0.612705
2233.59, 0.612022
2234.55, 0.611169
2235.51, 0.610230
2236.48, 0.609377
2237.44, 0.609121
2238.41, 0.608779
2239.38, 0.608011
2240.34, 0.607584
2241.31, 0.606475
2242.28, 0.605536
2243.25, 0.605365
2244.22, 0.604853
2245.19, 0.603744
2246.17, 0.603317
2247.14, 0.602634
2248.12, 0.601183
2249.09, 0.600671
2250.07, 0.600671
2251.04, 0.600330
2252.02, 0.599306
2253.0, 0.598367
2253.98, 0.597599
2254.96, 0.597172
2255.94, 0.597001
2256.92, 0.596575
2257.91, 0.596148
2258.89, 0.596063
2259.88, 0.596319
2260.86, 0.596404
2261.85, 0.596063
2262.83, 0.595721
2263.82, 0.596233
2264.81, 0.597428
2265.8, 0.598111
2266.79, 0.598452
2267.78, 0.598964
2268.78, 0.599220
2269.77, 0.599732
2270.76, 0.599903
2271.76, 0.599988
2272.75, 0.600159
2273.75, 0.600501
2274.75, 0.600671
2275.75, 0.600586
2276.75, 0.600671
2277.75, 0.600586
2278.75, 0.599732
2279.75, 0.599135
2280.75, 0.598794
2281.76, 0.598367
2282.76, 0.598026
2283.77, 0.597257
2284.77, 0.596575
2285.78, 0.596233
2286.79, 0.595892
2287.8, 0.595209
2288.81, 0.594782
2289.82, 0.594526
2290.83, 0.593758
2291.84, 0.593246
2292.86, 0.592905
2293.87, 0.592819
2294.89, 0.592393
2295.91, 0.592051
2296.92, 0.591881
2297.94, 0.592222
2298.96, 0.592478
2299.98, 0.592137
2301.0, 0.592051
2302.02, 0.592222
2303.04, 0.592137
2304.07, 0.592051
2305.09, 0.591454
2306.12, 0.590771
2307.15, 0.589918
2308.17, 0.589405
2309.2, 0.588637
2310.23, 0.588040
2311.26, 0.587357
2312.29, 0.586418
2313.32, 0.585650
2314.35, 0.584711
2315.39, 0.583602
2316.42, 0.582151
2317.46, 0.581042
2318.5, 0.579761
2319.53, 0.578140
2320.57, 0.576006
2321.61, 0.574128
2322.65, 0.572933
2323.69, 0.571483
2324.73, 0.569605
2325.78, 0.567983
2326.82, 0.566020
2327.86, 0.564655
2328.91, 0.563545
2329.96, 0.561582
2331.01, 0.560131
2332.05, 0.559278
2333.1, 0.558425
2334.15, 0.557315
2335.21, 0.556632
2336.26, 0.556547
2337.31, 0.556035
2338.36, 0.556376
2339.42, 0.556888
2340.48, 0.556547
2341.53, 0.556206
2342.59, 0.556462
2343.65, 0.556547
2344.71, 0.556888
2345.77, 0.557230
2346.83, 0.557230
2347.9, 0.557400
2348.96, 0.557144
2350.02, 0.556718
2351.09, 0.556120
2352.16, 0.555608
2353.23, 0.555267
2354.29, 0.554755
2355.36, 0.554328
2356.43, 0.554072
2357.51, 0.554328
2358.58, 0.554755
2359.65, 0.555267
2360.73, 0.556206
2361.8, 0.556974
2362.88, 0.557742
2363.96, 0.559193
2365.03, 0.560473
2366.11, 0.561838
2367.19, 0.564143
2368.27, 0.566447
2369.36, 0.568325
2370.44, 0.569861
2371.53, 0.571141
2372.61, 0.572592
2373.7, 0.574128
2374.78, 0.575238
2375.87, 0.576262
2376.96, 0.577286
2378.05, 0.577969
2379.14, 0.578737
2380.24, 0.579334
2381.33, 0.580017
2382.42, 0.580871
2383.52, 0.581212
2384.61, 0.581554
2385.71, 0.582151
2386.81, 0.583004
2387.91, 0.583346
2389.01, 0.583687
2390.11, 0.584199
2391.22, 0.584711
2392.32, 0.584967
2393.42, 0.585479
2394.53, 0.585992
2395.64, 0.587016
2396.74, 0.587955
2397.85, 0.588040
2398.96, 0.587869
2400.07, 0.587869
2401.18, 0.588381
2402.3, 0.588723
2403.41, 0.589235
2404.52, 0.589576
2405.64, 0.589662
2406.76, 0.589662
2407.88, 0.589747
2408.99, 0.590003
2410.11, 0.589832
2411.23, 0.590174
2412.36, 0.590344
2413.48, 0.590856
2414.6, 0.590856
2415.73, 0.590600
2416.85, 0.590686
2417.98, 0.590259
2419.11, 0.590174
2420.24, 0.590686
2421.37, 0.590174
2422.5, 0.589918
2423.64, 0.589662
2424.77, 0.589064
2425.9, 0.588893
2427.04, 0.588723
2428.18, 0.588381
2429.31, 0.588381
2430.45, 0.587869
2431.59, 0.587528
2432.73, 0.587528
2433.88, 0.587186
2435.02, 0.586589
2436.16, 0.586333
2437.31, 0.586333
2438.45, 0.586248
2439.6, 0.585992
2440.75, 0.585906
2441.9, 0.585479
2443.05, 0.585138
2444.2, 0.584797
2445.35, 0.584455
2446.51, 0.584285
2447.67, 0.583773
2448.82, 0.583260
2449.98, 0.583260
2451.14, 0.582748
2452.3, 0.582066
2453.46, 0.581554
2454.62, 0.581127
2455.78, 0.580700
2456.94, 0.580529
2458.11, 0.580529
2459.28, 0.579761
2460.44, 0.579249
2461.61, 0.578908
2462.78, 0.578310
2463.95, 0.577713
2465.12, 0.577286
2466.3, 0.577457
2467.47, 0.577116
2468.65, 0.576689
2469.82, 0.576603
2471.0, 0.576433
2472.18, 0.576177
2473.36, 0.576603
2474.54, 0.576774
2475.72, 0.576603
2476.9, 0.576347
2478.08, 0.576603
2479.27, 0.576262
2480.46, 0.576177
2481.64, 0.576091
2482.83, 0.576091
2484.02, 0.576091
2485.21, 0.576347
2486.4, 0.576347
2487.6, 0.576177
2488.79, 0.576091
2489.99, 0.575921
2491.18, 0.575835
2492.38, 0.575921
2493.58, 0.575494
2494.78, 0.575323
2495.98, 0.575409
2497.18, 0.575665
2498.39, 0.575579
2499.59, 0.575067
2500.8, 0.574555
2502.01, 0.574640
2503.21, 0.574555
2504.42, 0.574299
2505.63, 0.574043
2506.84, 0.574384
2508.06, 0.574640
2509.27, 0.574214
2510.49, 0.574128
2511.7, 0.574299
2512.92, 0.574128
2514.14, 0.573531
2515.36, 0.573019
2516.58, 0.573104
2517.8, 0.573104
2519.03, 0.573360
2520.25, 0.573360
2521.48, 0.573104
2522.7, 0.572165
2523.93, 0.572080
2525.16, 0.572080
2526.39, 0.571227
2527.62, 0.571141
2528.86, 0.571312
2530.09, 0.570373
2531.33, 0.569349
2532.56, 0.569093
2533.8, 0.569946
2535.04, 0.568752
2536.28, 0.568154
2537.52, 0.569861
2538.76, 0.570458
2540.01, 0.570117
2541.25, 0.568666
2542.5, 0.566191
2543.75, 0.566532
2544.99, 0.568154
2546.24, 0.567983
2547.49, 0.566020
2548.75, 0.566703
2550.0, 0.565935
2551.26, 0.563460
2552.51, 0.561924
2553.77, 0.564826
2555.03, 0.567386
2556.29, 0.567813
2557.55, 0.567727
2558.81, 0.564996
2560.08, 0.557486
2561.34, 0.551085
2562.61, 0.550914
2563.88, 0.552536
2565.14, 0.557827
2566.41, 0.563631
2567.68, 0.562351
2568.96, 0.555608
2570.23, 0.556206
2571.51, 0.559449
2572.78, 0.551085
2574.06, 0.552706
2575.34, 0.556974
2576.62, 0.554072
2577.9, 0.557912
2579.18, 0.560814
2580.47, 0.556376
2581.75, 0.555011
2583.04, 0.546391
2584.32, 0.545623
2585.61, 0.553048
2586.9, 0.549805
2588.2, 0.551511
2589.49, 0.555608
2590.78, 0.559022
2592.08, 0.555608
2593.37, 0.532308
2594.67, 0.512252
2595.97, 0.529833
2597.27, 0.550829
2598.57, 0.558254
2599.88, 0.556632
2601.18, 0.552024
2602.49, 0.548780
2603.79, 0.542123
2605.1, 0.532138
2606.41, 0.536832
2607.72, 0.545281
2609.03, 0.546988
2610.35, 0.549292
2611.66, 0.551255
2612.98, 0.549719
2614.3, 0.550061
2615.62, 0.539904
2616.94, 0.533418
2618.26, 0.541184
2619.58, 0.534783
2620.91, 0.536149
2622.23, 0.549634
2623.56, 0.552536
2624.89, 0.547073
2626.22, 0.536320
2627.55, 0.540672
2628.88, 0.538112
2630.21, 0.526676
2631.55, 0.536064
2632.89, 0.542891
2634.22, 0.542977
2635.56, 0.547671
2636.9, 0.548866
2638.25, 0.548610
2639.59, 0.547585
2640.93, 0.545964
2642.28, 0.544684
2643.63, 0.544513
2644.98, 0.539990
2646.33, 0.540160
2647.68, 0.543147
2649.03, 0.543660
2650.39, 0.540502
2651.74, 0.533589
2653.1, 0.532138
2654.46, 0.533503
2655.82, 0.532906
2657.18, 0.535637
2658.54, 0.530175
2659.9, 0.526163
2661.27, 0.526334
2662.64, 0.525395
2664.01, 0.510374
2665.38, 0.496804
2666.74, 0.496377
2668.12, 0.504741
2669.49, 0.490915
2670.87, 0.486904
2672.24, 0.505851
2673.62, 0.508923
2675.0, 0.499621
2676.38, 0.489464
2677.76, 0.489038
2679.15, 0.488952
2680.54, 0.495353
2681.92, 0.494414
2683.31, 0.488184
2684.7, 0.484600
2686.09, 0.480588
2687.48, 0.477430
2688.88, 0.474614
2690.27, 0.470517
2691.67, 0.461727
2693.07, 0.446193
2694.47, 0.438683
2695.87, 0.438085
2697.27, 0.436976
2698.67, 0.431770
2700.08, 0.421272
2701.49, 0.411713
2702.9, 0.406336
2704.31, 0.398399
2705.72, 0.388926
2707.13, 0.376721
2708.54, 0.360847
2709.96, 0.343436
2711.38, 0.333706
2712.8, 0.332170
2714.22, 0.325086
2715.64, 0.314589
2717.06, 0.302725
2718.49, 0.289241
2719.91, 0.272513
2721.34, 0.267477
2722.77, 0.263722
2724.2, 0.253907
2725.63, 0.252285
2727.07, 0.251944
2728.5, 0.248018
2729.94, 0.242556
2731.38, 0.237179
2732.82, 0.230778
2734.26, 0.223011
2735.7, 0.219256
2737.15, 0.215415
2738.59, 0.206027
2740.04, 0.199541
2741.49, 0.199370
2742.94, 0.201077
2744.39, 0.200138
2745.84, 0.198090
2747.3, 0.196042
2748.76, 0.193993
2750.21, 0.192116
2751.67, 0.190580
2753.14, 0.188531
2754.6, 0.183154
2756.06, 0.183666
2757.53, 0.189214
2759.0, 0.191177
2760.46, 0.190580
2761.94, 0.188190
2763.41, 0.188361
2764.88, 0.190324
2766.36, 0.190324
2767.83, 0.189726
2769.31, 0.189470
2770.79, 0.189043
2772.27, 0.191006
2773.76, 0.192457
2775.24, 0.192372
2776.73, 0.191604
2778.22, 0.191348
2779.71, 0.190494
2781.2, 0.189299
2782.69, 0.188787
2784.18, 0.188019
2785.68, 0.185032
2787.18, 0.182898
2788.68, 0.183325
2790.18, 0.184008
2791.68, 0.183496
2793.19, 0.182728
2794.69, 0.181789
2796.2, 0.180679
2797.71, 0.179570
2799.22, 0.178716
2800.73, 0.177009
2802.24, 0.174364
2803.76, 0.173425
2805.28, 0.174278
2806.8, 0.174620
2808.32, 0.174364
2809.84, 0.173937
2811.36, 0.173425
2812.89, 0.172486
2814.42, 0.171889
2815.94, 0.171718
2817.48, 0.171377
2819.01, 0.170523
2820.54, 0.170438
2822.08, 0.170608
2823.61, 0.170694
2825.15, 0.170523
2826.69, 0.170182
2828.23, 0.169840
2829.78, 0.169755
2831.32, 0.169243
2832.87, 0.168731
2834.42, 0.168133
2835.97, 0.167792
2837.52, 0.167707
2839.08, 0.167707
2840.63, 0.167280
2842.19, 0.166938
2843.75, 0.166426
2845.31, 0.165317
2846.87, 0.164463
2848.44, 0.164207
2850.0, 0.164037
2851.57, 0.163525
2853.14, 0.162671
2854.71, 0.162330
2856.28, 0.162074
2857.86, 0.161391
2859.43, 0.160281
2861.01, 0.159343
2862.59, 0.158831
2864.17, 0.158745
2865.76, 0.158745
2867.34, 0.158745
2868.93, 0.158831
2870.52, 0.158404
2872.11, 0.158233
2873.7, 0.158745
2875.29, 0.159343
2876.89, 0.159769
2878.49, 0.160196
2880.08, 0.160964
2881.69, 0.161391
2883.29, 0.161562
2884.89, 0.161903
2886.5, 0.162244
2888.11, 0.162500
2889.72, 0.163098
2891.33, 0.163354
2892.94, 0.163354
2894.56, 0.163354
2896.17, 0.163183
2897.79, 0.163098
2899.42, 0.163013
2901.04, 0.162842
2902.66, 0.163013
2904.29, 0.163013
2905.92, 0.162756
2907.55, 0.162586
2909.18, 0.162415
2910.81, 0.161903
2912.45, 0.161476
2914.08, 0.161391
2915.72, 0.161135
2917.36, 0.160879
2919.01, 0.160793
2920.65, 0.160452
2922.3, 0.159855
2923.94, 0.159513
2925.59, 0.159769
2927.25, 0.159855
2928.9, 0.159684
2930.56, 0.159684
2932.21, 0.159599
2933.87, 0.159513
2935.53, 0.159684
2937.2, 0.159855
2938.86, 0.160025
2940.53, 0.160537
2942.2, 0.160879
2943.87, 0.161050
2945.54, 0.161306
2947.22, 0.161562
2948.89, 0.161988
2950.57, 0.162415
2952.25, 0.162927
2953.93, 0.163439
2955.62, 0.163866
2957.3, 0.164122
2958.99, 0.164549
2960.68, 0.164975
2962.37, 0.165232
2964.07, 0.165488
2965.76, 0.165744
2967.46, 0.166256
2969.16, 0.166682
2970.86, 0.167024
2972.56, 0.167536
2974.27, 0.168048
2975.98, 0.168560
2977.69, 0.169072
2979.4, 0.169414
2981.11, 0.169926
2982.83, 0.170523
2984.54, 0.171035
2986.26, 0.171291
2987.98, 0.171718
2989.71, 0.172145
2991.43, 0.172657
2993.16, 0.173169
2994.89, 0.173596
2996.62, 0.174108
2998.35, 0.174790
3000.09, 0.175302
3001.83, 0.175815
3003.57, 0.176241
3005.31, 0.176412
3007.05, 0.176924
3008.79, 0.177607
3010.54, 0.178119
3012.29, 0.178460
3014.04, 0.179058
3015.8, 0.179570
3017.55, 0.179826
3019.31, 0.180167
3021.07, 0.180765
3022.83, 0.181447
3024.59, 0.182045
3026.36, 0.182130
3028.13, 0.182557
3029.9, 0.183069
3031.67, 0.183496
3033.44, 0.184008
3035.22, 0.184349
3037.0, 0.184691
3038.78, 0.185117
3040.56, 0.185544
3042.34, 0.186142
3044.13, 0.186654
3045.92, 0.187080
3047.71, 0.187251
3049.5, 0.187678
3051.3, 0.188104
3053.09, 0.188531
3054.89, 0.189043
3056.69, 0.189555
3058.5, 0.189982
3060.3, 0.190409
3062.11, 0.190921
3063.92, 0.191433
3065.73, 0.191689
3067.55, 0.191945
3069.36, 0.192372
3071.18, 0.192799
3073.0, 0.193225
3074.82, 0.193652
3076.65, 0.193993
3078.48, 0.194335
3080.31, 0.194676
3082.14, 0.195188
3083.97, 0.195871
3085.8, 0.196042
3087.64, 0.196298
3089.48, 0.196725
3091.33, 0.196981
3093.17, 0.197407
3095.02, 0.197749
3096.87, 0.198175
3098.72, 0.198602
3100.57, 0.198944
3102.43, 0.199456
3104.28, 0.199882
3106.14, 0.200138
3108.01, 0.200565
3109.87, 0.201163
3111.74, 0.201760
3113.61, 0.202101
3115.48, 0.202357
3117.35, 0.202784
3119.23, 0.203552
3121.1, 0.203979
3122.98, 0.204406
3124.87, 0.204747
3126.75, 0.205174
3128.64, 0.205601
3130.53, 0.206198
3132.42, 0.206966
3134.31, 0.207478
3136.21, 0.207734
3138.11, 0.208246
3140.01, 0.208758
3141.91, 0.209527
3143.82, 0.210124
3145.73, 0.210721
3147.64, 0.211404
3149.55, 0.212087
3151.46, 0.212514
3153.38, 0.213367
3155.3, 0.214135
3157.22, 0.214818
3159.14, 0.215501
3161.07, 0.216098
3163.0, 0.216952
3164.93, 0.217720
3166.86, 0.218147
3168.8, 0.219256
3170.74, 0.220195
3172.68, 0.220963
3174.62, 0.221646
3176.56, 0.222329
3178.51, 0.223182
3180.46, 0.224121
3182.42, 0.225145
3184.37, 0.225998
3186.33, 0.226852
3188.29, 0.227620
3190.25, 0.228303
3192.21, 0.229327
3194.18, 0.230522
3196.15, 0.231375
3198.12, 0.232400
3200.09, 0.233338
3202.07, 0.234192
3204.05, 0.235131
3206.03, 0.236155
3208.02, 0.237350
3210.0, 0.238459
3211.99, 0.239483
3213.98, 0.240422
3215.98, 0.241276
3217.97, 0.242385
3219.97, 0.243665
3221.97, 0.244689
3223.98, 0.245799
3225.98, 0.246908
3227.99, 0.247933
3230.0, 0.249042
3232.02, 0.250322
3234.03, 0.251347
3236.05, 0.252285
3238.07, 0.253310
3240.1, 0.254504
3242.12, 0.255529
3244.15, 0.256723
3246.18, 0.257833
3248.22, 0.258942
3250.25, 0.260052
3252.29, 0.261247
3254.33, 0.262442
3256.38, 0.263722
3258.43, 0.264746
3260.47, 0.265685
3262.53, 0.266709
3264.58, 0.267733
3266.64, 0.268757
3268.7, 0.270123
3270.76, 0.271147
3272.82, 0.272257
3274.89, 0.273366
3276.96, 0.274134
3279.04, 0.275073
3281.11, 0.276097
3283.19, 0.276951
3285.27, 0.277889
3287.35, 0.278828
3289.44, 0.279852
3291.53, 0.280877
3293.62, 0.281730
3295.71, 0.282498
3297.81, 0.283266
3299.91, 0.284205
3302.01, 0.285485
3304.11, 0.286424
3306.22, 0.287448
3308.33, 0.288302
3310.44, 0.289241
3312.56, 0.290009
3314.68, 0.290947
3316.8, 0.291972
3318.92, 0.292910
3321.05, 0.293679
3323.18, 0.294788
3325.31, 0.295898
3327.44, 0.296836
3329.58, 0.297690
3331.72, 0.298714
3333.86, 0.299824
3336.01, 0.300762
3338.16, 0.301445
3340.31, 0.302469
3342.46, 0.303493
3344.61, 0.304262
3346.77, 0.304859
3348.94, 0.305712
3351.1, 0.306651
3353.27, 0.307505
3355.44, 0.308529
3357.61, 0.309553
3359.79, 0.310577
3361.97, 0.311772
3364.15, 0.312967
3366.33, 0.313906
3368.52, 0.314759
3370.71, 0.315783
3372.9, 0.316722
3375.1, 0.317746
3377.3, 0.319197
3379.5, 0.320477
3381.71, 0.321502
3383.91, 0.322611
3386.12, 0.323977
3388.34, 0.325257
3390.55, 0.326196
3392.77, 0.327391
3394.99, 0.328585
3397.22, 0.329610
3399.45, 0.330719
3401.68, 0.332085
3403.91, 0.333023
3406.15, 0.333962
3408.39, 0.335072
3410.63, 0.336096
3412.87, 0.337376
3415.12, 0.338827
3417.37, 0.340022
3419.63, 0.341217
3421.88, 0.342497
3424.14, 0.343948
3426.41, 0.345313
3428.67, 0.346679
3430.94, 0.348215
3433.21, 0.349581
3435.49, 0.350946
3437.77, 0.352312
3440.05, 0.353592
3442.33, 0.354616
3444.62, 0.355640
3446.91, 0.357006
3449.2, 0.358286
3451.5, 0.359481
3453.8, 0.360676
3456.1, 0.361956
3458.41, 0.363066
3460.72, 0.364004
3463.03, 0.364943
3465.34, 0.365797
3467.66, 0.366565
3469.98, 0.367418
3472.31, 0.368186
3474.63, 0.368869
3476.96, 0.369552
3479.3, 0.370491
3481.64, 0.371600
3483.97, 0.372795
3486.32, 0.373819
3488.66, 0.374929
3491.01, 0.376038
3493.36, 0.377319
3495.72, 0.378428
3498.08, 0.379452
3500.44, 0.380647
3502.81, 0.382013
3505.18, 0.383037
3507.55, 0.384232
3509.92, 0.385768
3512.3, 0.387133
3514.68, 0.388499
3517.06, 0.389950
3519.45, 0.391401
3521.84, 0.392766
3524.24, 0.394217
3526.64, 0.395668
3529.04, 0.396778
3531.44, 0.398058
3533.85, 0.399338
3536.26, 0.400447
3538.67, 0.401728
3541.09, 0.403093
3543.51, 0.404117
3545.93, 0.405142
3548.36, 0.406166
3550.79, 0.407275
3553.22, 0.408385
3555.66, 0.409580
3558.1, 0.410774
3560.54, 0.411713
3562.99, 0.412737
3565.44, 0.413676
3567.9, 0.414786
3570.35, 0.415981
3572.81, 0.416749
3575.28, 0.417858
3577.75, 0.418968
3580.22, 0.419992
3582.69, 0.420760
3585.17, 0.421528
3587.65, 0.422552
3590.14, 0.423662
3592.62, 0.424686
3595.11, 0.425625
3597.61, 0.426393
3600.11, 0.427417
3602.61, 0.428441
3605.11, 0.429209
3607.62, 0.430063
3610.14, 0.431087
3612.65, 0.431940
3615.17, 0.432965
3617.69, 0.433818
3620.22, 0.434672
3622.75, 0.435525
3625.28, 0.436464
3627.82, 0.437403
3630.36, 0.438256
3632.9, 0.439110
3635.45, 0.439963
3638.0, 0.440817
3640.56, 0.441670
3643.12, 0.442609
3645.68, 0.443548
3648.24, 0.444486
3650.81, 0.445340
3653.39, 0.446193
3655.96, 0.447047
3658.54, 0.447986
3661.13, 0.449010
3663.71, 0.449949
3666.3, 0.450717
3668.9, 0.451570
3671.5, 0.452509
3674.1, 0.453363
3676.7, 0.454301
3679.31, 0.455240
3681.93, 0.456179
3684.54, 0.456947
3687.17, 0.457971
3689.79, 0.458995
3692.42, 0.459934
3695.05, 0.460788
3697.69, 0.461727
3700.32, 0.462580
3702.97, 0.463434
3705.61, 0.464287
3708.27, 0.465311
3710.92, 0.466079
3713.58, 0.466847
3716.24, 0.467786
3718.91, 0.468640
3721.58, 0.469408
3724.25, 0.470091
3726.93, 0.470859
3729.61, 0.471627
3732.29, 0.472310
3734.98, 0.473248
3737.67, 0.474102
3740.37, 0.474699
3743.07, 0.475553
3745.78, 0.476662
3748.49, 0.477516
3751.2, 0.478284
3753.91, 0.479137
3756.63, 0.479991
3759.36, 0.480588
3762.09, 0.481186
3764.82, 0.481954
3767.55, 0.482637
3770.29, 0.483234
3773.04, 0.484002
3775.78, 0.484770
3778.54, 0.485538
3781.29, 0.486221
3784.05, 0.486819
3786.82, 0.487501
3789.59, 0.488013
3792.36, 0.488611
3795.13, 0.489123
3797.92, 0.489464
3800.7, 0.489806
3803.49, 0.490232
3806.28, 0.490488
3809.08, 0.490659
3811.88, 0.490830
3814.68, 0.490915
3817.49, 0.491171
3820.31, 0.491427
3823.12, 0.491769
3825.94, 0.492110
3828.77, 0.492195
3831.6, 0.492366
3834.43, 0.492622
3837.27, 0.492707
3840.11, 0.492793
3842.96, 0.492964
3845.81, 0.493305
3848.67, 0.493561
3851.53, 0.493902
3854.39, 0.494244
3857.26, 0.494585
3860.13, 0.494756
3863.01, 0.494926
3865.89, 0.495183
3868.77, 0.495524
3871.66, 0.495780
3874.55, 0.496121
3877.45, 0.496377
3880.35, 0.496719
3883.26, 0.496889
3886.17, 0.497231
3889.09, 0.497743
3892.01, 0.498084
3894.93, 0.498340
3897.86, 0.498596
3900.79, 0.498767
3903.73, 0.499194
3906.67, 0.499535
3909.62, 0.499791
3912.57, 0.499962
3915.52, 0.500218
3918.48, 0.500303
3921.45, 0.500389
3924.42, 0.500389
3927.39, 0.500389
3930.37, 0.500389
3933.35, 0.500559
3936.34, 0.500815
3939.33, 0.500645
3942.32, 0.499791
3945.32, 0.498852
3948.33, 0.497999
3951.34, 0.496975
3954.35, 0.495951
3957.37, 0.495012
3960.39, 0.494158
3963.42, 0.493390
3966.45, 0.492878
3969.49, 0.492537
3972.53, 0.492195
3975.58, 0.491939
3978.63, 0.491769
3981.68, 0.491854
3984.75, 0.492195
3987.81, 0.493049
3990.88, 0.494073
3993.95, 0.495268
3997.03, 0.496463
4000.12, 0.497914
4003.21, 0.499194
4006.3, 0.500559
4009.4, 0.501925
4012.5, 0.503034
4015.61, 0.503888
4018.72, 0.504400
4021.84, 0.504741
4024.96, 0.505253
4028.09, 0.505595
4031.22, 0.506022
4034.36, 0.506278
4037.5, 0.506790
4040.65, 0.507131
4043.8, 0.507387
4046.96, 0.507558
4050.12, 0.507899
4053.29, 0.508155
4056.46, 0.508155
4059.64, 0.508155
4062.82, 0.508241
4066.0, 0.508155
4069.19, 0.508070
4072.39, 0.507899
4075.59, 0.507729
4078.8, 0.507814
4082.01, 0.507814
4085.23, 0.507558
4088.45, 0.507387
4091.68, 0.507046
4094.91, 0.506875
4098.15, 0.506790
4101.39, 0.506619
4104.63, 0.506363
4107.89, 0.506107
4111.14, 0.505851
4114.41, 0.505509
4117.67, 0.505083
4120.95, 0.504827
4124.23, 0.504485
4127.51, 0.504059
4130.8, 0.503803
4134.09, 0.503547
4137.39, 0.503205
4140.7, 0.502864
4144.01, 0.502608
4147.32, 0.502096
4150.64, 0.501498
4153.97, 0.500986
4157.3, 0.500645
4160.64, 0.500303
4163.98, 0.499791
4167.33, 0.499450
4170.68, 0.498852
4174.04, 0.498170
4177.4, 0.497658
4180.77, 0.497146
4184.14, 0.496548
4187.52, 0.495865
4190.91, 0.495097
4194.3, 0.494244
4197.69, 0.493220
4201.1, 0.492025
4204.5, 0.490403
4207.92, 0.488525
4211.34, 0.486306
4214.76, 0.483746
4218.19, 0.481186
4221.62, 0.478455
4225.06, 0.475979
4228.51, 0.474017
4231.96, 0.472566
4235.42, 0.471797
4238.88, 0.471371
4242.35, 0.471627
4245.83, 0.472480
4249.31, 0.473760
4252.79, 0.475297
4256.28, 0.475467
4259.78, 0.472822
4263.29, 0.468810
4266.79, 0.465140
4270.31, 0.462153
4273.83, 0.459593
4277.35, 0.457118
4280.89, 0.454813
4284.42, 0.452765
4287.97, 0.450802
4291.52, 0.448754
4295.07, 0.446962
4298.63, 0.445425
4302.2, 0.443804
4305.78, 0.442182
4309.35, 0.440646
4312.94, 0.439110
4316.53, 0.437744
4320.13, 0.436293
4323.73, 0.434842
4327.34, 0.433477
4330.96, 0.432026
4334.58, 0.430575
4338.21, 0.429124
4341.84, 0.427759
4345.48, 0.426308
4349.12, 0.424686
4352.77, 0.423150
4356.43, 0.421614
4360.1, 0.419992
4363.76, 0.418456
4367.44, 0.416749
4371.12, 0.415042
4374.81, 0.413420
4378.51, 0.411628
4382.21, 0.410006
4385.92, 0.408385
4389.63, 0.406507
4393.35, 0.404800
4397.08, 0.403349
4400.81, 0.401898
4404.55, 0.400362
4408.29, 0.398997
4412.04, 0.397631
4415.8, 0.396266
4419.57, 0.394900
4423.34, 0.393534
4427.12, 0.391998
4430.9, 0.390547
4434.69, 0.389096
4438.49, 0.387389
4442.29, 0.385682
4446.1, 0.384146
4449.92, 0.382525
4453.74, 0.380988
4457.57, 0.379708
4461.41, 0.378855
4465.25, 0.378087
4469.1, 0.377489
4472.95, 0.377233
4476.82, 0.377062
4480.69, 0.377062
4484.56, 0.377233
4488.44, 0.377233
4492.33, 0.377233
4496.23, 0.377319
4500.13, 0.377489
4504.04, 0.377233
4507.96, 0.376892
4511.88, 0.376636
4515.81, 0.376380
4519.75, 0.375782
4523.69, 0.375099
4527.65, 0.374161
4531.6, 0.373136
4535.57, 0.372112
4539.54, 0.371088
4543.52, 0.369979
4547.5, 0.368613
4551.5, 0.367077
4555.5, 0.365455
4559.5, 0.363748
4563.52, 0.361700
4567.54, 0.359481
4571.56, 0.357347
4575.6, 0.355128
4579.64, 0.352739
4583.69, 0.350264
4587.75, 0.347618
4591.81, 0.344801
4595.88, 0.342070
4599.96, 0.339339
4604.04, 0.336523
4608.14, 0.333706
4612.24, 0.330634
4616.34, 0.327647
4620.46, 0.324830
4624.58, 0.321928
4628.71, 0.319283
4632.84, 0.316637
4636.99, 0.314162
4641.14, 0.312113
4645.3, 0.310236
4649.47, 0.308529
4653.64, 0.307163
4657.82, 0.305969
4662.01, 0.304859
4666.21, 0.303920
4670.41, 0.302896
4674.62, 0.301872
4678.84, 0.301018
4683.07, 0.299994
4687.3, 0.299055
4691.54, 0.298031
4695.79, 0.297007
4700.05, 0.295727
4704.31, 0.294532
4708.59, 0.293166
4712.87, 0.291716
4717.15, 0.290094
4721.45, 0.288472
4725.76, 0.286680
4730.07, 0.284973
4734.39, 0.283266
4738.72, 0.281474
4743.05, 0.279596
4747.39, 0.277889
4751.75, 0.276182
4756.1, 0.274646
4760.47, 0.273281
4764.85, 0.272000
4769.23, 0.270806
4773.62, 0.269781
4778.02, 0.268757
4782.43, 0.267818
4786.85, 0.266965
4791.27, 0.266112
4795.7, 0.265173
4800.14, 0.264149
4804.59, 0.262868
4809.05, 0.261674
4813.51, 0.260393
4817.99, 0.259113
4822.47, 0.257662
4826.96, 0.256382
4831.46, 0.255187
4835.96, 0.253992
4840.48, 0.252712
4845.0, 0.251517
4849.54, 0.250322
4854.08, 0.249042
4858.63, 0.247591
4863.18, 0.246055
4867.75, 0.244519
4872.33, 0.243068
4876.91, 0.241532
4881.5, 0.239825
4886.1, 0.238203
4890.71, 0.236667
4895.33, 0.234875
4899.96, 0.233253
4904.59, 0.231802
4909.24, 0.230351
4913.89, 0.228900
4918.55, 0.227449
4923.22, 0.225998
4927.9, 0.224718
4932.59, 0.223523
4937.29, 0.222329
4942.0, 0.221048
4946.71, 0.219854
4951.44, 0.218744
4956.17, 0.217293
4960.91, 0.215928
4965.67, 0.214733
4970.43, 0.213367
4975.2, 0.211916
4979.98, 0.210209
4984.76, 0.208758
4989.56, 0.207137
4994.37, 0.205430
4999.18, 0.203467
5004.01, 0.201675
5008.84, 0.199797
5013.69, 0.197834
5018.54, 0.195615
5023.4, 0.193737
5028.28, 0.192116
5033.16, 0.190494
5038.05, 0.188873
5042.95, 0.187336
5047.86, 0.185800
5052.78, 0.184349
5057.71, 0.183069
5062.65, 0.181874
5067.6, 0.180594
5072.56, 0.179484
5077.53, 0.178119
5082.5, 0.176924
5087.49, 0.175985
5092.49, 0.175046
5097.5, 0.173937
5102.51, 0.172742
5107.54, 0.171377
5112.58, 0.169926
5117.62, 0.168560
5122.68, 0.167024
5127.75, 0.165317
5132.82, 0.163439
5137.91, 0.161391
5143.01, 0.159428
5148.12, 0.157550
5153.23, 0.156270
5158.36, 0.154819
5163.5, 0.153198
5168.65, 0.151661
5173.81, 0.150296
5178.98, 0.148845
5184.15, 0.147565
5189.34, 0.146285
5194.54, 0.145004
5199.75, 0.143553
5204.98, 0.142615
5210.21, 0.140908
5215.45, 0.139713
5220.7, 0.139457
5225.96, 0.138603
5231.23, 0.137152
5236.52, 0.135702
5241.81, 0.134677
5247.12, 0.133483
5252.44, 0.132202
5257.76, 0.130837
5263.1, 0.129301
5268.45, 0.127679
5273.81, 0.126057
5279.18, 0.124692
5284.56, 0.123241
5289.95, 0.121363
5295.36, 0.120083
5300.77, 0.119315
5306.2, 0.118205
5311.63, 0.117267
5317.08, 0.116328
5322.54, 0.115304
5328.01, 0.114365
5333.49, 0.113511
5338.98, 0.112487
5344.49, 0.110695
5350.0, 0.108817
5355.53, 0.108391
5361.07, 0.107878
5366.62, 0.106769
5372.18, 0.105318
5377.75, 0.104038
5383.34, 0.102672
5388.93, 0.101392
5394.54, 0.100112
5400.16, 0.0987460
5405.79, 0.0972950
5411.44, 0.0961010
5417.09, 0.0940520
5422.76, 0.0923450
5428.43, 0.0929430
5434.12, 0.0930280
5439.83, 0.0923450
5445.54, 0.0918330
5451.26, 0.0914060
5457.0, 0.0908090
5462.75, 0.0898700
5468.52, 0.0902970
5474.29, 0.0906380
5480.08, 0.0907240
5485.88, 0.0918330
5491.69, 0.0925160
5497.51, 0.0929430
5503.35, 0.0933690
5509.2, 0.0939670
5515.06, 0.0944790
5520.93, 0.0949060
5526.82, 0.0956740
5532.71, 0.0965270
5538.63, 0.0970390
5544.55, 0.0970390
5550.49, 0.0965270
5556.44, 0.0966130
5562.4, 0.0971250
5568.37, 0.0970390
5574.36, 0.0957590
5580.36, 0.0953320
5586.37, 0.0971250
5592.4, 0.0982340
5598.44, 0.0978930
5604.49, 0.0975510
5610.56, 0.0974660
5616.63, 0.0970390
5622.73, 0.0968690
5628.83, 0.0961010
5634.95, 0.0942230
5641.08, 0.0918330
5647.23, 0.0921750
5653.39, 0.0923450
5659.56, 0.0923450
5665.74, 0.0923450
5671.94, 0.0908090
5678.15, 0.0899560
5684.38, 0.0899560
5690.62, 0.0888460
5696.87, 0.0885900
5703.14, 0.0874810
5709.42, 0.0854320
5715.72, 0.0850910
5722.03, 0.0850050
5728.35, 0.0847490
5734.69, 0.0839810
5741.03, 0.0827010
5747.4, 0.0812500
5753.78, 0.0809940
5760.17, 0.0784340
5766.58, 0.0753610
5773.0, 0.0765560
5779.44, 0.0771540
5785.88, 0.0767270
5792.35, 0.0759590
5798.83, 0.0747640
5805.32, 0.0735690
5811.83, 0.0717770
5818.35, 0.0682770
5824.89, 0.0669120
5831.45, 0.0674240
5838.01, 0.0674240
5844.59, 0.0667410
5851.19, 0.0652050
5857.8, 0.0634130
5864.43, 0.0620470
5871.07, 0.0609380
5877.73, 0.0572680
5884.4, 0.0559880
5891.09, 0.0559020
5897.79, 0.0546220
5904.5, 0.0554750
5911.23, 0.0551340
5917.98, 0.0539390
5924.75, 0.0524880
5931.53, 0.0494160
5938.32, 0.0475380
5945.13, 0.0486480
5951.96, 0.0487330
5958.8, 0.0478800
5965.65, 0.0461730
5972.53, 0.0454900
5979.42, 0.0452340
5986.32, 0.0439540
5993.24, 0.0434420
6000.18, 0.0436980
6007.13, 0.0431000
6014.1, 0.0423320
6021.08, 0.0424170
6028.09, 0.0424170
6035.1, 0.0418200
6042.14, 0.0395160
6049.19, 0.0374670
6056.25, 0.0396010
6063.34, 0.0407960
6070.44, 0.0398570
6077.55, 0.0400280
6084.69, 0.0410520
6091.84, 0.0411370
6099.0, 0.0410520
6106.19, 0.0401130
6113.39, 0.0391740
6120.61, 0.0401980
6127.84, 0.0412230
6135.09, 0.0410520
6142.36, 0.0407960
6149.65, 0.0407960
6156.95, 0.0404540
6164.27, 0.0407100
6171.61, 0.0413080
6178.97, 0.0406250
6186.34, 0.0401130
6193.73, 0.0413080
6201.14, 0.0419050
6208.57, 0.0419910
6216.01, 0.0420760
6223.47, 0.0421610
6230.95, 0.0423320
6238.45, 0.0425030
6245.97, 0.0425880
6253.5, 0.0426730
6261.06, 0.0426730
6268.63, 0.0427590
6276.21, 0.0428440
6283.82, 0.0429290
6291.45, 0.0429290
6299.1, 0.0428440
6306.76, 0.0428440
6314.44, 0.0429290
6322.14, 0.0429290
6329.86, 0.0428440
6337.6, 0.0419910
6345.35, 0.0414790
6353.13, 0.0430150
6360.92, 0.0434420
6368.74, 0.0431000
6376.57, 0.0437830
6384.43, 0.0444660
6392.3, 0.0447220
6400.19, 0.0443800
6408.1, 0.0419050
6416.03, 0.0411370
6423.98, 0.0432710
6431.95, 0.0442950
6439.94, 0.0448920
6447.95, 0.0449780
6455.98, 0.0447220
6464.03, 0.0445510
6472.1, 0.0436120
6480.19, 0.0425030
6488.31, 0.0411370
6496.44, 0.0410520
6504.59, 0.0430150
6512.76, 0.0435270
6520.95, 0.0428440
6529.16, 0.0434420
6537.4, 0.0436120
6545.65, 0.0430150
6553.92, 0.0424170
6562.22, 0.0418200
6570.54, 0.0407960
6578.88, 0.0411370
6587.23, 0.0415640
6595.61, 0.0416490
6604.02, 0.0420760
6612.44, 0.0417350
6620.89, 0.0411370
6629.35, 0.0397720
6637.84, 0.0386620
6646.35, 0.0401130
6654.88, 0.0414790
6663.44, 0.0413080
6672.01, 0.0407100
6680.61, 0.0403690
6689.23, 0.0411370
6697.88, 0.0416490
6706.54, 0.0411370
6715.23, 0.0408810
6723.94, 0.0412230
6732.67, 0.0415640
6741.42, 0.0414790
6750.2, 0.0413080
6759.0, 0.0413080
6767.82, 0.0407100
6776.67, 0.0399420
6785.54, 0.0390040
6794.44, 0.0390040
6803.35, 0.0397720
6812.29, 0.0398570
6821.26, 0.0390890
6830.24, 0.0389180
6839.25, 0.0393450
6848.29, 0.0385770
6857.35, 0.0369550
6866.43, 0.0366990
6875.54, 0.0381500
6884.67, 0.0385770
6893.82, 0.0385770
6903.0, 0.0382350
6912.2, 0.0382350
6921.43, 0.0384910
6930.69, 0.0386620
6939.96, 0.0384910
6949.27, 0.0377230
6958.59, 0.0365280
6967.95, 0.0368700
6977.33, 0.0373820
6986.73, 0.0371260
6996.16, 0.0369550
7005.61, 0.0368700
7015.09, 0.0364430
7024.6, 0.0361870
7034.13, 0.0358460
7043.69, 0.0348220
7053.27, 0.0349070
7062.88, 0.0354190
7072.52, 0.0352480
7082.18, 0.0350780
7091.87, 0.0347360
7101.58, 0.0343090
7111.32, 0.0336270
7121.09, 0.0332000
7130.88, 0.0329440
7140.71, 0.0323460
7150.56, 0.0318340
7160.43, 0.0315780
7170.33, 0.0310660
7180.27, 0.0309810
7190.23, 0.0307250
7200.21, 0.0301270
7210.23, 0.0295300
7220.27, 0.0296150
7230.34, 0.0291890
7240.44, 0.0288470
7250.56, 0.0285910
7260.72, 0.0282500
7270.9, 0.0276520
7281.12, 0.0272260
7291.36, 0.0270550
7301.63, 0.0269700
7311.93, 0.0267140
7322.25, 0.0264580
7332.61, 0.0258600
7343.0, 0.0255190
7353.41, 0.0253480
7363.86, 0.0250920
7374.33, 0.0245800
7384.83, 0.0242390
7395.37, 0.0238970
7405.93, 0.0235560
7416.53, 0.0232140
7427.15, 0.0228730
7437.81, 0.0224460
7448.5, 0.0221900
7459.22, 0.0217630
7469.96, 0.0212510
7480.74, 0.0209100
7491.55, 0.0206540
7502.39, 0.0203980
7513.27, 0.0199710
7524.17, 0.0193740
7535.11, 0.0190320
7546.08, 0.0188620
7557.08, 0.0186060
7568.11, 0.0181790
7579.17, 0.0178370
7590.27, 0.0174110
7601.4, 0.0170690
7612.56, 0.0168130
7623.76, 0.0165570
7634.98, 0.0162160
7646.24, 0.0159600
7657.54, 0.0156180
7668.87, 0.0152770
7680.23, 0.0150210
7691.62, 0.0145940
7703.05, 0.0141680
7714.51, 0.0137410
7726.01, 0.0133990
7737.54, 0.0129730
7749.11, 0.0125460
7760.71, 0.0122050
7772.35, 0.0119490
7784.02, 0.0116070
7795.72, 0.0112660
7807.46, 0.0110100
7819.23, 0.0106680
7831.04, 0.0103270
7842.89, 0.00998600
7854.77, 0.00964400
7866.69, 0.00930300
7878.65, 0.00904700
7890.64, 0.00870500
7902.67, 0.00844900
7914.74, 0.00810800
7926.84, 0.00785200
7938.98, 0.00768100
7951.16, 0.00751100
7963.37, 0.00725400
7975.62, 0.00691300
7987.91, 0.00665700
8000.24, 0.00665700
8012.6, 0.00665700
8025.01, 0.00648600
8037.45, 0.00640100
8049.93, 0.00623000
8062.45, 0.00623000
8075.01, 0.00631600
8087.61, 0.00623000
8100.24, 0.00631600
8112.91, 0.00640100
8125.63, 0.00665700
8138.39, 0.00708400
8151.18, 0.00768100
8164.02, 0.00827900
8176.9, 0.00913200
8189.81, 0.00998600
8202.77, 0.0112660
8215.77, 0.0131430
8228.82, 0.0153620
8241.9, 0.0179230
8255.02, 0.0210810
8268.19, 0.0246650
8281.39, 0.0286770
8294.65, 0.0330290
8307.94, 0.0377230
8321.28, 0.0424170
8334.66, 0.0471970
8348.08, 0.0514640
8361.54, 0.0552190
8375.05, 0.0583770
8388.6, 0.0610230
8402.2, 0.0634980
8415.84, 0.0663150
8429.52, 0.0694720
8443.25, 0.0729720
8457.02, 0.0766410
8470.84, 0.0800550
8484.7, 0.0827860
8498.61, 0.0850910
8512.57, 0.0873100
8526.57, 0.0894440
8540.62, 0.0909800
8554.71, 0.0925160
8568.85, 0.0938820
8583.04, 0.0950760
8597.27, 0.0960150
8611.55, 0.0967830
8625.88, 0.0971250
8640.26, 0.0972950
8654.68, 0.0975510
8669.16, 0.0978080
8683.68, 0.0979780
8698.25, 0.0983200
8712.87, 0.0984900
8727.53, 0.0984050
8742.25, 0.0983200
8757.02, 0.0981490
8771.83, 0.0976370
8786.7, 0.0969540
8801.62, 0.0961860
8816.59, 0.0955880
8831.61, 0.0949910
8846.68, 0.0946500
8861.8, 0.0943940
8876.97, 0.0937960
8892.2, 0.0929430
8907.48, 0.0920040
8922.81, 0.0906380
8938.2, 0.0897000
8953.63, 0.0888460
8969.13, 0.0880780
8984.67, 0.0873950
9000.27, 0.0869680
9015.92, 0.0862860
9031.63, 0.0853470
9047.39, 0.0840670
9063.21, 0.0826160
9079.08, 0.0807380
9095.01, 0.0786900
9111.0, 0.0766410
9127.04, 0.0742520
9143.13, 0.0716060
9159.28, 0.0690460
9175.49, 0.0666560
9191.76, 0.0647780
9208.09, 0.0634130
9224.47, 0.0629010
9240.92, 0.0625590
9257.42, 0.0623030
9273.98, 0.0617910
9290.6, 0.0610230
9307.28, 0.0605110
9324.02, 0.0600840
9340.82, 0.0597430
9357.68, 0.0599990
9374.6, 0.0603400
9391.58, 0.0609380
9408.62, 0.0618760
9425.73, 0.0632420
9442.9, 0.0650340
9460.13, 0.0670830
9477.42, 0.0698140
9494.78, 0.0730570
9512.2, 0.0765560
9529.69, 0.0805670
9547.24, 0.0849200
9564.86, 0.0890170
9582.54, 0.0927720
9600.28, 0.0965270
9618.1, 0.0996000
9635.97, 0.102075
9653.92, 0.104635
9671.93, 0.106513
9690.01, 0.107281
9708.16, 0.107281
9726.37, 0.106769
9744.65, 0.106172
9763.0, 0.105489
9781.43, 0.104635
9799.92, 0.102928
9818.48, 0.100709
9837.1, 0.0987460
9855.8, 0.0972100
9874.58, 0.0959300
9893.42, 0.0949910
9912.34, 0.0944790
9931.33, 0.0944790
9950.39, 0.0950760
9969.52, 0.0964420
9988.74, 0.0978930
10008.0, 0.0990880
10027.4, 0.100283
10046.8, 0.101307
10066.3, 0.102587
10085.9, 0.104123
10105.6, 0.105489
10125.3, 0.106342
10145.1, 0.106513
10165.0, 0.106257
10185.0, 0.105745
10205.0, 0.105062
10225.2, 0.105233
10245.4, 0.106428
10265.7, 0.108561
10286.0, 0.111378
10306.5, 0.114365
10327.0, 0.117267
10347.6, 0.120168
10368.3, 0.123412
10389.1, 0.127423
10409.9, 0.131690
10430.9, 0.135104
10451.9, 0.137750
10473.0, 0.139798
10494.2, 0.141590
10515.5, 0.143212
10536.9, 0.144066
10558.4, 0.144407
10579.9, 0.144834
10601.5, 0.145772
10623.3, 0.146626
10645.1, 0.146797
10667.0, 0.146455
10689.0, 0.146199
10711.1, 0.146711
10733.2, 0.146967
10755.5, 0.146114
10777.9, 0.144236
10800.3, 0.142017
10822.9, 0.139713
10845.5, 0.137494
10868.2, 0.135104
10891.1, 0.133226
10914.0, 0.132629
10937.0, 0.132629
10960.2, 0.132032
10983.4, 0.130751
11006.7, 0.129130
11030.1, 0.127594
11053.6, 0.125972
11077.3, 0.123838
11101.0, 0.121107
11124.8, 0.118205
11148.7, 0.115474
11172.7, 0.112658
11196.9, 0.109329
11221.1, 0.106086
11245.4, 0.102672
11269.9, 0.0991730
11294.4, 0.0958450
11319.1, 0.0929430
11343.9, 0.0903820
11368.8, 0.0879930
11393.7, 0.0856880
11418.8, 0.0837250
11444.0, 0.0816770
11469.4, 0.0798850
11494.8, 0.0783480
11520.3, 0.0768120
11546.0, 0.0755320
11571.8, 0.0742520
11597.7, 0.0728860
11623.7, 0.0716060
11649.8, 0.0705820
11676.0, 0.0697280
11702.4, 0.0687900
11728.9, 0.0676800
11755.5, 0.0664000
11782.2, 0.0650340
11809.0, 0.0640950
11836.0, 0.0631570
11863.0, 0.0622180
11890.3, 0.0611080
11917.6, 0.0602550
11945.0, 0.0593160
11972.6, 0.0582070
12000.4, 0.0574380
12028.2, 0.0565850
12056.2, 0.0558170
12084.3, 0.0547930
12112.5, 0.0540250
12140.9, 0.0533420
12169.4, 0.0524880
12198.0, 0.0518060
12226.8, 0.0509520
12255.7, 0.0498430
12284.7, 0.0490740
12313.9, 0.0482210
12343.2, 0.0474530
12372.7, 0.0465990
12402.3, 0.0452340
12432.0, 0.0441240
12461.9, 0.0431860
12491.9, 0.0419050
12522.1, 0.0408810
12552.4, 0.0399420
12582.9, 0.0388330
12613.5, 0.0377230
12644.3, 0.0367840
12675.2, 0.0355900
12706.3, 0.0341390
12737.5, 0.0331150
12768.9, 0.0326880
12800.4, 0.0324320
12832.1, 0.0321760
12863.9, 0.0325170
12895.9, 0.0334560
12928.1, 0.0349070
12960.4, 0.0361020
12992.9, 0.0366140
13025.5, 0.0369550
13058.3, 0.0380650
13091.3, 0.0396010
13124.4, 0.0418200
13157.8, 0.0440390
13191.2, 0.0453190
13224.9, 0.0454900
13258.7, 0.0445510
13292.7, 0.0430150
13326.9, 0.0418200
13361.2, 0.0401980
13395.7, 0.0384060
13430.4, 0.0369550
13465.3, 0.0360160
13500.4, 0.0352480
13535.7, 0.0348220
13571.1, 0.0349070
13606.7, 0.0355040
13642.5, 0.0367840
13678.5, 0.0386620
13714.7, 0.0410520
13751.1, 0.0421610
13787.6, 0.0419050
13824.4, 0.0413080
13861.4, 0.0401130
13898.5, 0.0386620
13935.9, 0.0370410
13973.5, 0.0354190
14011.2, 0.0343090
14049.2, 0.0328590
14087.4, 0.0314930
14125.8, 0.0303830
14164.3, 0.0297010
14203.2, 0.0294450
14242.2, 0.0297860
14281.4, 0.0306400
14320.9, 0.0308100
14360.5, 0.0302130
14400.4, 0.0297010
14440.5, 0.0302980
14480.9, 0.0312370
14521.4, 0.0319200
14562.2, 0.0329440
14603.3, 0.0334560
14644.5, 0.0330290
14686.0, 0.0326880
14727.7, 0.0326030
14769.7, 0.0324320
14811.9, 0.0323460
14854.3, 0.0331150
14897.0, 0.0346510
14939.9, 0.0356750
14983.1, 0.0366990
15026.5, 0.0381500
15070.2, 0.0384910
15114.2, 0.0379790
15158.3, 0.0372110
15202.8, 0.0366990
15247.5, 0.0372970
15292.5, 0.0397720
15337.7, 0.0442950
15383.2, 0.0512080
15429.0, 0.0596570
15475.1, 0.0678510
15521.4, 0.0751050
15568.0, 0.0808230
15614.9, 0.0851760
15662.1, 0.0877370
15709.6, 0.0891020
15757.3, 0.0906380
15805.4, 0.0920040
15853.7, 0.0932840
15902.3, 0.0947350
15951.2, 0.0957590
16000.5, 0.0954180
16050.0, 0.0939670
16099.8, 0.0915770
16150.0, 0.0873950
16200.5, 0.0828720
16251.3, 0.0792020
16302.4, 0.0777510
16353.8, 0.0786900
16405.5, 0.0808230
16457.6, 0.0838110
16510.0, 0.0869680
16562.8, 0.0885900
16615.9, 0.0883340
16669.3, 0.0880780
16723.1, 0.0890170
16777.2, 0.0923450
16831.7, 0.0979780
16886.5, 0.104038
16941.7, 0.108647
16997.2, 0.110524
17053.1, 0.110695
17109.4, 0.108647
17166.1, 0.104721
17223.1, 0.100965
17280.5, 0.0970390
17338.3, 0.0929430
17396.5, 0.0911500
17455.1, 0.0919190
17514.0, 0.0936260
17573.4, 0.0944790
17633.2, 0.0942230
17693.4, 0.0933690
17754.0, 0.0909800
17815.0, 0.0879930
17876.4, 0.0845790
17938.3, 0.0823600
18000.5, 0.0825300
18063.3, 0.0841520
18126.4, 0.0872240
18190.0, 0.0911500
18254.1, 0.0960150
18318.6, 0.101733
18383.5, 0.107537
18449.0, 0.111975
18514.9, 0.114365
18581.2, 0.114109
18648.0, 0.110866
18715.4, 0.105062
18783.2, 0.0990020
18851.5, 0.0935400
18920.3, 0.0883340
18989.6, 0.0841520
19059.4, 0.0815920
19129.7, 0.0793730
19200.6, 0.0766410
19272.0, 0.0745930
19343.9, 0.0725450
19416.3, 0.0711790
19489.3, 0.0714350
19562.8, 0.0716060
19637.0, 0.0701550
19711.6, 0.0686190
19786.8, 0.0684480
19862.6, 0.0669970
19939.0, 0.0651200
20016.0, 0.0646080
20093.6, 0.0633270
20171.8, 0.0623890
20250.6, 0.0611080
20330.0, 0.0611940
20410.0, 0.0639250
20490.7, 0.0686190
20572.0, 0.0732280
20654.0, 0.0755320
20736.6, 0.0751910
20819.9, 0.0728010
20903.8, 0.0695800
20988.5, 0.0681300
21073.8, 0.0701170
21159.8, 0.0726940
21246.5, 0.0743310
21334.0, 0.0728550
21422.1, 0.0732850
21511.0, 0.0729620
21600.7, 0.0705460
21691.0, 0.0662250
21782.1, 0.0623050
21874.0, 0.0595400
21966.7, 0.0575000
22060.2, 0.0544940
22154.5, 0.0551110
22249.6, 0.0526410
22345.5, 0.0492050
22442.2, 0.0501720
22539.8, 0.0491250
22638.2, 0.0494200
22737.5, 0.0535540
22837.7, 0.0593520
22938.7, 0.0670570
23040.7, 0.0770960
23143.5, 0.0907060
23247.3, 0.103135
23352.1, 0.107752
23457.7, 0.109175
23564.4, 0.109980
23672.0, 0.107752
23780.5, 0.105256
23890.1, 0.105041
24000.7, 0.106169
24112.3, 0.106249
24225.0, 0.103538
24338.7, 0.101176
24453.5, 0.0998600
24569.4, 0.0982500
24686.4, 0.0970950
24804.5, 0.0965050
24923.8, 0.0963170
25044.2, 0.0961830
25165.8, 0.101015
25288.6, 0.105954
25412.5, 0.109229
25537.7, 0.112235
25664.1, 0.113551
25791.8, 0.119805
25920.8, 0.130463
26051.1, 0.138757
26182.6, 0.143187
26315.5, 0.143106
26449.8, 0.142193
26585.4, 0.141764
26722.5, 0.140073
26860.9, 0.135697
27000.8, 0.132154
27142.1, 0.129040
27285.0, 0.124154
27429.4, 0.117202
27575.3, 0.109524
27722.7, 0.102679
27871.8, 0.100424
28022.4, 0.103914
28174.7, 0.108209
28328.7, 0.111054
28484.4, 0.113336
28641.7, 0.113068
28800.9, 0.111108
28961.8, 0.110705
29124.5, 0.109524
29289.0, 0.105417
29455.4, 0.100102
29623.8, 0.0956990
29794.0, 0.0935250
29966.3, 0.0901160
30140.5, 0.0869750
30316.7, 0.0845050
30495.1, 0.0817940
30675.5, 0.0792440
30858.1, 0.0811500
31042.8, 0.0844520
31229.8, 0.0867870
31419.1, 0.0883170
31610.7, 0.0877270
31804.6, 0.0869480
32000.9, 0.0869210
32199.7, 0.0897940
32400.9, 0.0951360
32604.8, 0.0990010
32811.1, 0.100317
33020.1, 0.100343
33231.8, 0.0971220
33446.2, 0.0926390
33663.4, 0.0882100
33883.4, 0.0849890
34106.3, 0.0845320
34332.1, 0.0841030
34561.0, 0.0820360
34792.9, 0.0795660
35028.0, 0.0794050
35266.3, 0.0812300
35507.8, 0.0774190
35752.7, 0.0719150
36001.0, 0.0708690
36252.8, 0.0716740
36508.1, 0.0708950
36767.0, 0.0683990
37029.7, 0.0659560
37296.1, 0.0636740
37566.3, 0.0613660
37840.5, 0.0591910
38118.8, 0.0572590
38401.2, 0.0571780
38687.8, 0.0570170
38978.6, 0.0575000
39273.9, 0.0599160
39573.7, 0.0682110
39878.1, 0.0795120
40187.3, 0.0902230
40501.2, 0.101927
40820.0, 0.114249
41144.0, 0.125228
41473.2, 0.133442
41807.6, 0.138731
42147.5, 0.142972
42493.0, 0.147858
42844.2, 0.149146
43201.2, 0.146166
43564.3, 0.141791
43933.5, 0.137362
44309.0, 0.133120
44691.0, 0.129496
45079.6, 0.125792
45475.0, 0.122087
45877.5, 0.115967
46287.1, 0.111027
46704.2, 0.110625
47128.7, 0.119618
47561.1, 0.138194
48001.5, 0.157656
48450.1, 0.154032
48907.2, 0.143643
49373.0, 0.138596
49847.7, 0.127483
50331.5, 0.120450
50825.0, 0.117014
51328.2, 0.116155
51841.5, 0.116826
52365.1, 0.116772
52899.4, 0.111376
53444.8, 0.104477
54001.5, 0.102759
54570.1, 0.109739
55150.6, 0.121953
55743.6, 0.126758
56349.5, 0.127080
56968.7, 0.123859
57601.7, 0.119966
58248.9, 0.125282
58910.9, 0.131429
59588.1, 0.131214
60281.0, 0.133362
60990.2, 0.132395
61716.3, 0.130785
62459.8, 0.131429
63221.6, 0.132503
64002.1, 0.130677
64802.1, 0.128664
65622.1, 0.119161
66463.4, 0.114437
67326.6, 0.137200
68212.4, 0.151723
69121.9, 0.161119
70056.0, 0.163991
71015.7, 0.168662
72002.0, 0.165118
73016.3, 0.162300
74059.4, 0.161655
75132.7, 0.165494
76237.6, 0.165253
77375.5, 0.161924
78547.9, 0.161736
79756.3, 0.168125
81002.5, 0.164850
82288.5, 0.157790
83615.7, 0.160125
84986.5, 0.166326
86402.9, 0.175480
87867.4, 0.172608
89382.4, 0.171051
90950.5, 0.170890
92574.6, 0.155374
94257.2, 0.160877
96002.7, 0.168689
97814.1, 0.172688
99695.1, 0.174863
101650.0, 0.173950
103683.0, 0.170165
105799.0, 0.167159
108003.0, 0.167615
110301.0, 0.173359
112699.0, 0.178460
115204.0, 0.179936
117822.0, 0.183480
120562.0, 0.196714
123433.0, 0.195801
126443.0, 0.197009
129604.0, 0.212257
132926.0, 0.200016
136424.0, 0.204633
140111.0, 0.211935
144003.0, 0.204016
148118.0, 0.210297
152474.0, 0.233195
157095.0, 0.256523
162004.0, 0.265972
167231.0, 0.263153
172805.0, 0.240765
178764.0, 0.252496
185148.0, 0.278642
192005.0, 0.238403
199390.0, 0.170863
207366.0, 0.185117
216006.0, 0.409400
